Data from USB4F104151__65__12-27-41-932.txt Node

Date: Fri Mar 14 12:27:41 EDT 2025
User: louis
Spectrometer: USB4F10415
Trigger mode: 4
Integration Time (sec): 2.000000E-2
Scans to average: 1
Electric dark correction enabled: true
Nonlinearity correction enabled: false
Boxcar width: 0
XAxis mode: Wavelengths
Number of Pixels in Spectrum: 3648
>>>>>Begin Spectral Data<<<<<
178.204	-86.19
178.424	-86.19
178.644	-86.19
178.864	-71.85
179.084	-86.19
179.304	-4.27
179.524	-71.85
179.744	-6.31
179.964	-2.22
180.184	65.36
180.404	12.12
180.624	28.5
180.844	-2.22
181.064	-39.08
181.283	18.26
181.503	-28.84
181.723	30.55
181.943	-45.23
182.163	20.31
182.383	30.55
182.602	48.98
182.822	-34.99
183.042	28.5
183.262	38.74
183.482	81.75
183.701	26.45
183.921	-6.31
184.141	16.21
184.361	55.12
184.58	-39.08
184.8	5.97
185.02	8.02
185.239	-12.46
185.459	24.4
185.679	73.56
185.898	30.55
186.118	3.93
186.338	8.02
186.557	18.26
186.777	-30.89
186.997	20.31
187.216	85.84
187.436	24.4
187.655	20.31
187.875	57.17
188.095	-6.31
188.314	18.26
188.534	48.98
188.753	-16.55
188.973	75.6
189.192	75.6
189.412	24.4
189.631	53.08
189.851	61.27
190.07	94.04
190.29	5.97
190.509	16.21
190.729	51.03
190.948	51.03
191.168	71.51
191.387	28.5
191.607	-2.22
191.826	85.84
192.045	-0.17
192.265	-8.36
192.484	30.55
192.704	-0.17
192.923	32.6
193.142	106.32
193.362	-4.27
193.581	61.27
193.8	-34.99
194.02	26.45
194.239	55.12
194.458	-8.36
194.678	46.93
194.897	10.07
195.116	32.6
195.335	24.4
195.555	18.26
195.774	16.21
195.993	155.47
196.212	24.4
196.432	-14.51
196.651	-22.7
196.87	12.12
197.089	87.89
197.308	55.12
197.528	10.07
197.747	14.17
197.966	51.03
198.185	-32.94
198.404	32.6
198.623	-77.99
198.842	24.4
199.062	67.41
199.281	83.8
199.5	28.5
199.719	59.22
199.938	-2.22
200.157	57.17
200.376	16.21
200.595	116.56
200.814	57.17
201.033	-57.51
201.252	53.08
201.471	16.21
201.69	20.31
201.909	-18.6
202.128	22.36
202.347	5.97
202.566	10.07
202.785	38.74
203.004	30.55
203.223	59.22
203.442	61.27
203.661	65.36
203.879	73.56
204.098	116.56
204.317	10.07
204.536	87.89
204.755	-51.37
204.974	42.84
205.193	-20.65
205.411	-26.79
205.63	75.6
205.849	-0.17
206.068	12.12
206.287	59.22
206.505	32.6
206.724	55.12
206.943	10.07
207.162	22.36
207.381	26.45
207.599	24.4
207.818	69.46
208.037	24.4
208.255	-16.55
208.474	-20.65
208.693	-67.75
208.911	24.4
209.13	55.12
209.349	22.36
209.567	-26.79
209.786	30.55
210.005	69.46
210.223	26.45
210.442	-37.03
210.661	26.45
210.879	-12.46
211.098	-12.46
211.316	30.55
211.535	42.84
211.753	-18.6
211.972	1.88
212.191	12.12
212.409	-41.13
212.628	-12.46
212.846	20.31
213.065	34.64
213.283	83.8
213.502	55.12
213.72	24.4
213.938	44.88
214.157	-20.65
214.375	51.03
214.594	38.74
214.812	55.12
215.031	-51.37
215.249	-6.31
215.467	-55.47
215.686	-37.03
215.904	69.46
216.122	-24.75
216.341	38.74
216.559	22.36
216.778	42.84
216.996	-26.79
217.214	1.88
217.432	-37.03
217.651	12.12
217.869	10.07
218.087	-4.27
218.306	-12.46
218.524	98.13
218.742	44.88
218.96	81.75
219.179	32.6
219.397	22.36
219.615	57.17
219.833	32.6
220.051	-75.95
220.27	100.18
220.488	55.12
220.706	20.31
220.924	1.88
221.142	-90.28
221.36	42.84
221.578	-26.79
221.796	-8.36
222.015	5.97
222.233	87.89
222.451	-4.27
222.669	3.93
222.887	89.94
223.105	36.69
223.323	28.5
223.541	-28.84
223.759	16.21
223.977	36.69
224.195	89.94
224.413	-0.17
224.631	71.51
224.849	-0.17
225.067	24.4
225.285	-22.7
225.503	42.84
225.721	16.21
225.939	-0.17
226.157	32.6
226.375	65.36
226.592	-26.79
226.81	55.12
227.028	20.31
227.246	38.74
227.464	22.36
227.682	3.93
227.9	32.6
228.117	12.12
228.335	42.84
228.553	10.07
228.771	-28.84
228.989	-2.22
229.206	26.45
229.424	-8.36
229.642	-45.23
229.86	-14.51
230.077	94.04
230.295	34.64
230.513	40.79
230.731	87.89
230.948	61.27
231.166	38.74
231.384	-34.99
231.601	51.03
231.819	42.84
232.037	-12.46
232.254	-28.84
232.472	-14.51
232.689	-12.46
232.907	59.22
233.125	-12.46
233.342	12.12
233.56	-20.65
233.777	22.36
233.995	85.84
234.213	51.03
234.43	32.6
234.648	42.84
234.865	-41.13
235.083	8.02
235.3	26.45
235.518	12.12
235.735	16.21
235.953	-55.47
236.17	89.94
236.388	-102.57
236.605	-53.42
236.822	57.17
237.04	32.6
237.257	36.69
237.475	-16.55
237.692	24.4
237.909	10.07
238.127	67.41
238.344	30.55
238.562	8.02
238.779	26.45
238.996	8.02
239.214	28.5
239.431	79.7
239.648	40.79
239.865	42.84
240.083	98.13
240.3	28.5
240.517	-0.17
240.735	-55.47
240.952	-61.61
241.169	87.89
241.386	87.89
241.603	16.21
241.821	-55.47
242.038	102.23
242.255	65.36
242.472	46.93
242.689	61.27
242.907	61.27
243.124	5.97
243.341	-2.22
243.558	1.88
243.775	-6.31
243.992	-59.56
244.209	12.12
244.426	112.47
244.643	32.6
244.86	75.6
245.078	46.93
245.295	98.13
245.512	-26.79
245.729	26.45
245.946	81.75
246.163	42.84
246.38	-14.51
246.597	46.93
246.814	67.41
247.031	-4.27
247.248	-18.6
247.464	-0.17
247.681	12.12
247.898	73.56
248.115	51.03
248.332	5.97
248.549	18.26
248.766	-26.79
248.983	32.6
249.2	-22.7
249.417	71.51
249.633	-4.27
249.85	16.21
250.067	28.5
250.284	53.08
250.501	24.4
250.717	12.12
250.934	22.36
251.151	14.17
251.368	61.27
251.585	18.26
251.801	12.12
252.018	22.36
252.235	12.12
252.451	24.4
252.668	81.75
252.885	18.26
253.102	-37.03
253.318	-10.41
253.535	38.74
253.752	42.84
253.968	20.31
254.185	32.6
254.401	-12.46
254.618	85.84
254.835	-24.75
255.051	83.8
255.268	61.27
255.484	24.4
255.701	-8.36
255.917	28.5
256.134	22.36
256.351	22.36
256.567	-30.89
256.784	22.36
257	-41.13
257.217	22.36
257.433	-28.84
257.65	85.84
257.866	34.64
258.082	1.88
258.299	16.21
258.515	-32.94
258.732	18.26
258.948	-20.65
259.165	-8.36
259.381	30.55
259.597	-4.27
259.814	48.98
260.03	3.93
260.246	-12.46
260.463	-16.55
260.679	28.5
260.895	-18.6
261.112	71.51
261.328	63.32
261.544	42.84
261.761	67.41
261.977	26.45
262.193	-41.13
262.409	26.45
262.626	55.12
262.842	94.04
263.058	20.31
263.274	-30.89
263.49	-4.27
263.707	73.56
263.923	32.6
264.139	1.88
264.355	5.97
264.571	94.04
264.787	71.51
265.004	98.13
265.22	10.07
265.436	-45.23
265.652	-67.75
265.868	32.6
266.084	65.36
266.3	55.12
266.516	-100.52
266.732	48.98
266.948	38.74
267.164	-0.17
267.38	30.55
267.596	28.5
267.812	34.64
268.028	65.36
268.244	36.69
268.46	36.69
268.676	24.4
268.892	-8.36
269.108	1.88
269.324	-30.89
269.54	63.32
269.756	12.12
269.972	94.04
270.188	-67.75
270.403	10.07
270.619	42.84
270.835	-41.13
271.051	34.64
271.267	32.6
271.483	-34.99
271.698	36.69
271.914	48.98
272.13	-8.36
272.346	-20.65
272.562	20.31
272.777	77.65
272.993	44.88
273.209	108.37
273.425	53.08
273.64	12.12
273.856	-18.6
274.072	8.02
274.287	-16.55
274.503	44.88
274.719	12.12
274.934	18.26
275.15	-20.65
275.366	30.55
275.581	61.27
275.797	-39.08
276.012	46.93
276.228	14.17
276.444	61.27
276.659	36.69
276.875	67.41
277.09	16.21
277.306	67.41
277.521	24.4
277.737	46.93
277.952	61.27
278.168	-0.17
278.383	1.88
278.599	32.6
278.814	79.7
279.03	-12.46
279.245	102.23
279.461	71.51
279.676	57.17
279.892	5.97
280.107	-22.7
280.322	-47.27
280.538	-8.36
280.753	28.5
280.969	102.23
281.184	-32.94
281.399	71.51
281.615	3.93
281.83	-28.84
282.045	-2.22
282.26	3.93
282.476	-34.99
282.691	42.84
282.906	24.4
283.122	42.84
283.337	48.98
283.552	44.88
283.767	48.98
283.983	102.23
284.198	32.6
284.413	114.52
284.628	30.55
284.843	89.94
285.058	53.08
285.274	-34.99
285.489	34.64
285.704	-34.99
285.919	44.88
286.134	28.5
286.349	30.55
286.564	-10.41
286.779	73.56
286.995	8.02
287.21	51.03
287.425	-26.79
287.64	53.08
287.855	51.03
288.07	-26.79
288.285	-24.75
288.5	55.12
288.715	-0.17
288.93	18.26
289.145	24.4
289.36	42.84
289.575	48.98
289.79	57.17
290.004	-18.6
290.219	8.02
290.434	1.88
290.649	44.88
290.864	-2.22
291.079	5.97
291.294	-24.75
291.509	16.21
291.724	3.93
291.938	18.26
292.153	83.8
292.368	1.88
292.583	79.7
292.798	69.46
293.012	96.08
293.227	65.36
293.442	26.45
293.657	85.84
293.871	112.47
294.086	40.79
294.301	53.08
294.516	67.41
294.73	51.03
294.945	32.6
295.16	-12.46
295.374	81.75
295.589	28.5
295.804	-90.28
296.018	24.4
296.233	100.18
296.447	-59.56
296.662	53.08
296.877	59.22
297.091	57.17
297.306	83.8
297.52	30.55
297.735	79.7
297.949	-18.6
298.164	73.56
298.378	28.5
298.593	8.02
298.807	-4.27
299.022	14.17
299.236	71.51
299.451	34.64
299.665	5.97
299.88	34.64
300.094	40.79
300.309	36.69
300.523	69.46
300.737	83.8
300.952	-26.79
301.166	36.69
301.381	10.07
301.595	91.99
301.809	14.17
302.024	-39.08
302.238	36.69
302.452	59.22
302.667	75.6
302.881	63.32
303.095	-47.27
303.309	42.84
303.524	30.55
303.738	-12.46
303.952	28.5
304.166	34.64
304.381	-24.75
304.595	55.12
304.809	30.55
305.023	-26.79
305.237	57.17
305.452	22.36
305.666	30.55
305.88	118.61
306.094	55.12
306.308	61.27
306.522	89.94
306.736	-2.22
306.95	3.93
307.164	-43.18
307.379	-2.22
307.593	-28.84
307.807	79.7
308.021	46.93
308.235	-24.75
308.449	59.22
308.663	-77.99
308.877	85.84
309.091	71.51
309.305	51.03
309.519	-26.79
309.733	-6.31
309.947	-8.36
310.161	44.88
310.374	26.45
310.588	69.46
310.802	40.79
311.016	18.26
311.23	-57.51
311.444	-30.89
311.658	28.5
311.872	-10.41
312.085	42.84
312.299	38.74
312.513	-12.46
312.727	18.26
312.941	-12.46
313.154	104.28
313.368	34.64
313.582	36.69
313.796	34.64
314.009	5.97
314.223	147.28
314.437	40.79
314.651	36.69
314.864	59.22
315.078	8.02
315.292	42.84
315.505	-24.75
315.719	-34.99
315.933	48.98
316.146	8.02
316.36	65.36
316.573	53.08
316.787	67.41
317.001	157.52
317.214	32.6
317.428	20.31
317.641	46.93
317.855	67.41
318.068	46.93
318.282	-53.42
318.495	53.08
318.709	48.98
318.922	51.03
319.136	65.36
319.349	16.21
319.563	20.31
319.776	94.04
319.99	46.93
320.203	16.21
320.417	71.51
320.63	89.94
320.843	87.89
321.057	57.17
321.27	26.45
321.483	81.75
321.697	12.12
321.91	-39.08
322.124	-6.31
322.337	-20.65
322.55	-37.03
322.763	30.55
322.977	44.88
323.19	10.07
323.403	75.6
323.617	14.17
323.83	44.88
324.043	-8.36
324.256	53.08
324.469	102.23
324.683	85.84
324.896	-22.7
325.109	18.26
325.322	-12.46
325.535	8.02
325.748	24.4
325.962	94.04
326.175	-10.41
326.388	51.03
326.601	108.37
326.814	-4.27
327.027	-32.94
327.24	104.28
327.453	5.97
327.666	83.8
327.879	16.21
328.092	118.61
328.305	65.36
328.518	3.93
328.731	24.4
328.944	143.19
329.157	34.64
329.37	-57.51
329.583	24.4
329.796	71.51
330.009	3.93
330.222	30.55
330.435	3.93
330.648	26.45
330.861	104.28
331.073	-43.18
331.286	8.02
331.499	51.03
331.712	-22.7
331.925	69.46
332.138	-47.27
332.35	122.71
332.563	20.31
332.776	77.65
332.989	-4.27
333.202	20.31
333.414	59.22
333.627	22.36
333.84	20.31
334.053	48.98
334.265	30.55
334.478	26.45
334.691	18.26
334.903	55.12
335.116	16.21
335.329	44.88
335.541	71.51
335.754	-2.22
335.966	22.36
336.179	104.28
336.392	-8.36
336.604	10.07
336.817	83.8
337.029	22.36
337.242	75.6
337.454	59.22
337.667	32.6
337.88	-26.79
338.092	57.17
338.305	46.93
338.517	8.02
338.729	59.22
338.942	59.22
339.154	81.75
339.367	34.64
339.579	-14.51
339.792	63.32
340.004	100.18
340.217	24.4
340.429	5.97
340.641	-102.57
340.854	-6.31
341.066	18.26
341.278	44.88
341.491	96.08
341.703	55.12
341.915	-12.46
342.128	85.84
342.34	67.41
342.552	32.6
342.764	-49.32
342.977	-10.41
343.189	-8.36
343.401	77.65
343.613	81.75
343.826	5.97
344.038	5.97
344.25	61.27
344.462	8.02
344.674	122.71
344.886	5.97
345.099	1.88
345.311	75.6
345.523	77.65
345.735	-55.47
345.947	114.52
346.159	44.88
346.371	16.21
346.583	44.88
346.795	69.46
347.007	12.12
347.219	12.12
347.431	20.31
347.643	61.27
347.855	1.88
348.067	14.17
348.279	20.31
348.491	10.07
348.703	16.21
348.915	24.4
349.127	42.84
349.339	77.65
349.551	12.12
349.763	42.84
349.975	8.02
350.187	48.98
350.399	44.88
350.61	5.97
350.822	42.84
351.034	40.79
351.246	59.22
351.458	79.7
351.669	-10.41
351.881	108.37
352.093	34.64
352.305	-24.75
352.517	-16.55
352.728	63.32
352.94	42.84
353.152	85.84
353.363	3.93
353.575	-10.41
353.787	34.64
353.999	-8.36
354.21	122.71
354.422	12.12
354.633	5.97
354.845	61.27
355.057	67.41
355.268	3.93
355.48	36.69
355.692	-39.08
355.903	42.84
356.115	1.88
356.326	-43.18
356.538	116.56
356.749	55.12
356.961	71.51
357.172	44.88
357.384	-0.17
357.595	167.76
357.807	12.12
358.018	8.02
358.23	67.41
358.441	59.22
358.653	32.6
358.864	-6.31
359.075	34.64
359.287	-10.41
359.498	38.74
359.709	67.41
359.921	20.31
360.132	24.4
360.344	40.79
360.555	-0.17
360.766	67.41
360.977	104.28
361.189	57.17
361.4	14.17
361.611	83.8
361.823	28.5
362.034	28.5
362.245	24.4
362.456	59.22
362.667	-57.51
362.879	-39.08
363.09	61.27
363.301	81.75
363.512	12.12
363.723	18.26
363.935	59.22
364.146	-2.22
364.357	-6.31
364.568	32.6
364.779	18.26
364.99	77.65
365.201	-2.22
365.412	110.42
365.623	26.45
365.834	-0.17
366.045	10.07
366.256	53.08
366.467	57.17
366.678	46.93
366.889	-26.79
367.1	38.74
367.311	16.21
367.522	12.12
367.733	22.36
367.944	44.88
368.155	38.74
368.366	53.08
368.577	91.99
368.788	104.28
368.999	-18.6
369.209	73.56
369.42	8.02
369.631	151.38
369.842	98.13
370.053	28.5
370.264	69.46
370.474	-8.36
370.685	57.17
370.896	81.75
371.107	-10.41
371.317	32.6
371.528	30.55
371.739	149.33
371.95	67.41
372.16	61.27
372.371	-57.51
372.582	124.76
372.792	73.56
373.003	-8.36
373.214	-4.27
373.424	106.32
373.635	16.21
373.846	32.6
374.056	106.32
374.267	-6.31
374.477	12.12
374.688	77.65
374.898	81.75
375.109	67.41
375.319	48.98
375.53	42.84
375.74	81.75
375.951	24.4
376.161	57.17
376.372	-34.99
376.582	-30.89
376.793	85.84
377.003	83.8
377.214	20.31
377.424	55.12
377.635	85.84
377.845	42.84
378.055	100.18
378.266	-14.51
378.476	10.07
378.686	-2.22
378.897	18.26
379.107	87.89
379.317	-0.17
379.528	16.21
379.738	-10.41
379.948	30.55
380.158	44.88
380.369	18.26
380.579	55.12
380.789	-43.18
380.999	137.04
381.21	24.4
381.42	-26.79
381.63	-16.55
381.84	34.64
382.05	28.5
382.261	96.08
382.471	89.94
382.681	34.64
382.891	102.23
383.101	59.22
383.311	-2.22
383.521	22.36
383.731	71.51
383.941	32.6
384.151	12.12
384.361	128.85
384.571	98.13
384.781	14.17
384.991	57.17
385.201	69.46
385.411	-22.7
385.621	-0.17
385.831	96.08
386.041	10.07
386.251	51.03
386.461	61.27
386.671	40.79
386.881	22.36
387.091	26.45
387.301	167.76
387.511	51.03
387.72	51.03
387.93	67.41
388.14	1.88
388.35	18.26
388.56	94.04
388.769	51.03
388.979	77.65
389.189	34.64
389.399	48.98
389.609	34.64
389.818	30.55
390.028	24.4
390.238	149.33
390.447	87.89
390.657	51.03
390.867	28.5
391.076	34.64
391.286	-16.55
391.496	87.89
391.705	20.31
391.915	141.14
392.125	46.93
392.334	20.31
392.544	32.6
392.753	-0.17
392.963	12.12
393.172	67.41
393.382	38.74
393.591	16.21
393.801	57.17
394.01	77.65
394.22	102.23
394.429	5.97
394.639	44.88
394.848	38.74
395.058	98.13
395.267	75.6
395.477	112.47
395.686	32.6
395.895	132.95
396.105	153.43
396.314	55.12
396.524	104.28
396.733	132.95
396.942	132.95
397.152	53.08
397.361	20.31
397.57	51.03
397.78	18.26
397.989	18.26
398.198	48.98
398.407	55.12
398.617	46.93
398.826	63.32
399.035	26.45
399.244	77.65
399.453	34.64
399.663	89.94
399.872	85.84
400.081	63.32
400.29	61.27
400.499	61.27
400.708	77.65
400.917	128.85
401.127	151.38
401.336	44.88
401.545	120.66
401.754	104.28
401.963	65.36
402.172	89.94
402.381	79.7
402.59	77.65
402.799	32.6
403.008	83.8
403.217	122.71
403.426	116.56
403.635	106.32
403.844	98.13
404.053	110.42
404.262	53.08
404.471	106.32
404.68	87.89
404.888	102.23
405.097	75.6
405.306	102.23
405.515	98.13
405.724	135
405.933	147.28
406.142	122.71
406.35	126.8
406.559	165.71
406.768	143.19
406.977	178
407.185	128.85
407.394	145.24
407.603	135
407.812	175.95
408.02	159.57
408.229	204.63
408.438	135
408.646	231.25
408.855	206.67
409.064	214.87
409.272	106.32
409.481	237.39
409.69	229.2
409.898	130.9
410.107	272.21
410.315	315.22
410.524	276.31
410.733	323.41
410.941	259.92
411.15	317.26
411.358	294.74
411.567	444.24
411.775	255.83
411.984	296.78
412.192	368.46
412.401	268.11
412.609	403.28
412.818	409.42
413.026	323.41
413.234	364.37
413.443	372.56
413.651	397.14
413.86	458.57
414.068	466.77
414.276	530.25
414.485	442.19
414.693	517.97
414.901	520.01
415.11	540.49
415.318	483.15
415.526	587.6
415.734	517.97
415.943	567.12
416.151	622.41
416.359	612.17
416.567	663.37
416.776	587.6
416.984	651.08
417.192	763.72
417.4	714.57
417.608	728.91
417.817	696.14
418.025	804.68
418.233	819.02
418.441	890.7
418.649	831.3
418.857	923.46
419.065	945.99
419.273	1042.25
419.481	956.23
419.689	1023.81
419.897	1183.56
420.105	1163.08
420.313	1220.42
420.521	1156.93
420.729	1191.75
420.937	1234.75
421.145	1218.37
421.353	1419.07
421.561	1480.51
421.769	1496.89
421.977	1570.62
422.185	1476.41
422.393	1611.58
422.601	1607.48
422.809	1673.02
423.017	1617.72
423.224	1826.62
423.432	1818.43
423.64	1730.36
423.848	2037.56
424.056	1967.93
424.263	2086.71
424.471	2017.08
424.679	2195.25
424.887	2273.07
425.094	2414.38
425.302	2295.6
425.51	2385.71
425.718	2486.06
425.925	2539.31
426.133	2596.65
426.341	2959.14
426.548	2985.77
426.756	2987.82
426.964	3008.3
427.171	3202.85
427.379	3198.76
427.586	3108.65
427.794	3290.92
428.001	3571.49
428.209	3712.8
428.417	3604.25
428.624	3813.15
428.832	3895.07
429.039	3997.46
429.247	3788.57
429.454	4237.08
429.662	4538.13
429.869	4169.49
430.076	4554.51
430.284	4542.22
430.491	4587.28
430.699	4896.52
430.906	4906.76
431.114	4931.34
431.321	5039.88
431.528	5226.25
431.736	5523.2
431.943	5861.12
432.15	5531.39
432.358	5793.53
432.565	6098.68
432.772	5940.99
432.979	6162.17
433.187	6430.45
433.394	6338.29
433.601	6905.58
433.808	6860.52
434.016	6876.91
434.223	7098.09
434.43	7472.87
434.637	7421.67
434.844	7773.92
435.052	8154.84
435.259	7974.62
435.466	8064.73
435.673	8052.44
435.88	8650.45
436.087	9062.09
436.294	9086.67
436.501	8990.41
436.708	9098.95
436.915	9363.14
437.122	9604.8
437.329	9602.75
437.537	10077.88
437.743	10208.95
437.95	9918.14
438.157	10669.75
438.364	10968.75
438.571	11007.66
438.778	11261.61
438.985	11832.99
439.192	11593.38
439.399	12058.27
439.606	11859.62
439.813	12406.42
440.02	13360.78
440.227	12723.86
440.433	12727.96
440.64	13426.31
440.847	13192.84
441.054	13659.78
441.261	14401.15
441.467	14089.85
441.674	14571.13
441.881	15150.7
442.088	14909.04
442.294	14780.02
442.501	15107.69
442.708	15761
442.914	16488.03
443.121	16891.48
443.328	16354.91
443.534	17708.62
443.741	17137.23
443.948	16873.04
444.154	18134.59
444.361	18157.12
444.568	18196.03
444.774	18243.13
444.981	18363.97
445.187	18818.61
445.394	19617.32
445.6	19666.47
445.807	21337.62
446.013	20612.63
446.22	21106.2
446.426	21679.63
446.633	21779.98
446.839	22486.53
447.046	21734.92
447.252	23270.9
447.459	22920.7
447.665	23035.38
447.871	23932.39
448.078	24948.18
448.284	23905.77
448.491	24559.07
448.697	25421.27
448.903	25843.15
449.11	25947.59
449.316	25568.72
449.522	25929.16
449.728	26998.2
449.935	26844.6
450.141	26668.48
450.347	27704.75
450.553	27071.93
450.76	27239.86
450.966	27811.24
451.172	27522.48
451.378	27999.66
451.584	27774.38
451.791	28425.64
451.997	28464.55
452.203	28632.48
452.409	28935.58
452.615	28876.19
452.821	27280.82
453.027	27264.44
453.233	28714.4
453.44	28007.85
453.646	27973.03
453.852	28132.78
454.058	28573.09
454.264	27907.5
454.47	28480.93
454.676	27780.53
454.882	28581.28
455.088	26361.28
455.294	26549.7
455.5	26881.47
455.705	27430.32
455.911	26498.5
456.117	25767.37
456.323	25519.57
456.529	24092.13
456.735	24749.53
456.941	24499.68
457.147	24167.91
457.352	23227.89
457.558	22871.54
457.764	23160.31
457.97	22607.36
458.176	22035.97
458.381	22105.6
458.587	20954.65
458.793	21161.49
458.999	20174.37
459.204	21528.08
459.41	20680.22
459.616	19402.29
459.821	19570.22
460.027	19463.72
460.233	18789.94
460.438	18093.63
460.644	18243.13
460.85	17456.71
461.055	17266.25
461.261	17198.67
461.466	15961.7
461.672	15457.9
461.878	16539.22
462.083	15357.55
462.289	15201.9
462.494	15052.4
462.7	14392.95
462.905	13901.44
463.111	14454.39
463.316	14435.96
463.522	14255.74
463.727	14153.34
463.932	14204.54
464.138	13966.98
464.343	14132.86
464.549	13602.44
464.754	14194.3
464.959	13860.48
465.165	13997.7
465.37	13108.88
465.575	12977.81
465.781	13373.07
465.986	13534.85
466.191	13219.47
466.397	12953.23
466.602	12361.37
466.807	12756.63
467.012	12703.38
467.218	12625.56
467.423	12480.15
467.628	12539.54
467.833	13020.81
468.038	12732.05
