Data from USB4F104151__71__12-27-45-892.txt Node

Date: Fri Mar 14 12:27:45 EDT 2025
User: louis
Spectrometer: USB4F10415
Trigger mode: 4
Integration Time (sec): 2.000000E-2
Scans to average: 1
Electric dark correction enabled: true
Nonlinearity correction enabled: false
Boxcar width: 0
XAxis mode: Wavelengths
Number of Pixels in Spectrum: 3648
>>>>>Begin Spectral Data<<<<<
178.204	-60.07
178.424	-60.07
178.644	-60.07
178.864	-103.08
179.084	-90.79
179.304	-19.11
179.524	1.37
179.744	-25.26
179.964	-19.11
180.184	36.18
180.404	23.89
180.624	-55.98
180.844	30.04
181.064	-19.11
181.283	38.23
181.503	-29.35
181.723	38.23
181.943	15.7
182.163	-27.31
182.383	38.23
182.602	21.84
182.822	-4.78
183.042	46.42
183.262	30.04
183.482	-0.68
183.701	1.37
183.921	15.7
184.141	-27.31
184.361	109.91
184.58	5.46
184.8	71
185.02	-25.26
185.239	-17.07
185.459	9.56
185.679	48.47
185.898	11.61
186.118	44.37
186.338	54.61
186.557	71
186.777	27.99
186.997	7.51
187.216	36.18
187.436	58.71
187.655	46.42
187.875	42.32
188.095	-21.16
188.314	3.41
188.534	23.89
188.753	-15.02
188.973	23.89
189.192	-4.78
189.412	5.46
189.631	48.47
189.851	-94.89
190.07	52.56
190.29	-4.78
190.509	-21.16
190.729	-10.92
190.948	-27.31
191.168	75.09
191.387	3.41
191.607	5.46
191.826	36.18
192.045	17.75
192.265	-2.73
192.484	-4.78
192.704	46.42
192.923	-68.27
193.142	30.04
193.362	-25.26
193.581	3.41
193.8	75.09
194.02	19.8
194.239	11.61
194.458	73.04
194.678	-2.73
194.897	73.04
195.116	-29.35
195.335	64.85
195.555	-10.92
195.774	-6.83
195.993	40.28
196.212	19.8
196.432	5.46
196.651	11.61
196.87	46.42
197.089	71
197.308	66.9
197.528	58.71
197.747	3.41
197.966	42.32
198.185	103.76
198.404	5.46
198.623	68.95
198.842	-2.73
199.062	-8.87
199.281	32.08
199.5	27.99
199.719	38.23
199.938	3.41
200.157	23.89
200.376	66.9
200.595	-12.97
200.814	38.23
201.033	-51.88
201.252	19.8
201.471	-12.97
201.69	-10.92
201.909	15.7
202.128	25.94
202.347	85.33
202.566	34.13
202.785	-25.26
203.004	-15.02
203.223	128.34
203.442	32.08
203.661	-6.83
203.879	32.08
204.098	44.37
204.317	19.8
204.536	56.66
204.755	64.85
204.974	-27.31
205.193	48.47
205.411	19.8
205.63	71
205.849	23.89
206.068	-6.83
206.287	42.32
206.505	52.56
206.724	62.8
206.943	-0.68
207.162	68.95
207.381	50.52
207.599	-55.98
207.818	13.65
208.037	-31.4
208.255	-27.31
208.474	-6.83
208.693	-8.87
208.911	73.04
209.13	44.37
209.349	19.8
209.567	1.37
209.786	-35.5
210.005	-6.83
210.223	-0.68
210.442	-8.87
210.661	-17.07
210.879	-8.87
211.098	71
211.316	44.37
211.535	38.23
211.753	60.76
211.972	79.19
212.191	30.04
212.409	34.13
212.628	7.51
212.846	15.7
213.065	-12.97
213.283	42.32
213.502	34.13
213.72	-19.11
213.938	36.18
214.157	109.91
214.375	-2.73
214.594	-4.78
214.812	-33.45
215.031	17.75
215.249	-37.55
215.467	-6.83
215.686	-4.78
215.904	81.24
216.122	-39.59
216.341	73.04
216.559	40.28
216.778	105.81
216.996	64.85
217.214	54.61
217.432	99.67
217.651	46.42
217.869	21.84
218.087	7.51
218.306	3.41
218.524	46.42
218.742	30.04
218.96	-62.12
219.179	60.76
219.397	-19.11
219.615	62.8
219.833	17.75
220.051	7.51
220.27	60.76
220.488	36.18
220.706	-23.21
220.924	40.28
221.142	5.46
221.36	73.04
221.578	66.9
221.796	-70.31
222.015	30.04
222.233	32.08
222.451	71
222.669	-4.78
222.887	101.72
223.105	-66.22
223.323	66.9
223.541	3.41
223.759	105.81
223.977	62.8
224.195	-2.73
224.413	-2.73
224.631	5.46
224.849	13.65
225.067	83.28
225.285	-8.87
225.503	17.75
225.721	-39.59
225.939	36.18
226.157	3.41
226.375	71
226.592	-47.79
226.81	7.51
227.028	17.75
227.246	-12.97
227.464	44.37
227.682	66.9
227.9	40.28
228.117	56.66
228.335	-12.97
228.553	11.61
228.771	27.99
228.989	19.8
229.206	56.66
229.424	23.89
229.642	30.04
229.86	36.18
230.077	-17.07
230.295	1.37
230.513	95.57
230.731	60.76
230.948	34.13
231.166	13.65
231.384	-0.68
231.601	56.66
231.819	-19.11
232.037	-2.73
232.254	1.37
232.472	25.94
232.689	71
232.907	136.53
233.125	38.23
233.342	56.66
233.56	52.56
233.777	60.76
233.995	19.8
234.213	93.52
234.43	-37.55
234.648	46.42
234.865	-19.11
235.083	48.47
235.3	17.75
235.518	3.41
235.735	-23.21
235.953	99.67
236.17	36.18
236.388	-49.83
236.605	23.89
236.822	48.47
237.04	1.37
237.257	19.8
237.475	9.56
237.692	52.56
237.909	-4.78
238.127	19.8
238.344	50.52
238.562	40.28
238.779	-12.97
238.996	58.71
239.214	-19.11
239.431	23.89
239.648	-78.51
239.865	-2.73
240.083	79.19
240.3	7.51
240.517	56.66
240.735	-35.5
240.952	25.94
241.169	34.13
241.386	40.28
241.603	66.9
241.821	-41.64
242.038	66.9
242.255	11.61
242.472	30.04
242.689	-27.31
242.907	93.52
243.124	-17.07
243.341	5.46
243.558	9.56
243.775	-29.35
243.992	-43.69
244.209	25.94
244.426	66.9
244.643	-8.87
244.86	13.65
245.078	30.04
245.295	7.51
245.512	-15.02
245.729	46.42
245.946	-12.97
246.163	7.51
246.38	38.23
246.597	-12.97
246.814	21.84
247.031	44.37
247.248	71
247.464	40.28
247.681	19.8
247.898	71
248.115	-25.26
248.332	-29.35
248.549	77.14
248.766	56.66
248.983	40.28
249.2	1.37
249.417	58.71
249.633	13.65
249.85	-6.83
250.067	-68.27
250.284	-4.78
250.501	-2.73
250.717	38.23
250.934	-4.78
251.151	83.28
251.368	52.56
251.585	-6.83
251.801	44.37
252.018	-10.92
252.235	107.86
252.451	-2.73
252.668	19.8
252.885	32.08
253.102	68.95
253.318	50.52
253.535	30.04
253.752	-12.97
253.968	-58.03
254.185	36.18
254.401	-27.31
254.618	9.56
254.835	46.42
255.051	40.28
255.268	21.84
255.484	-21.16
255.701	3.41
255.917	15.7
256.134	-23.21
256.351	36.18
256.567	-37.55
256.784	32.08
257	-21.16
257.217	50.52
257.433	66.9
257.65	97.62
257.866	-19.11
258.082	25.94
258.299	27.99
258.515	54.61
258.732	13.65
258.948	79.19
259.165	81.24
259.381	81.24
259.597	48.47
259.814	64.85
260.03	-27.31
260.246	5.46
260.463	25.94
260.679	52.56
260.895	42.32
261.112	111.96
261.328	9.56
261.544	-4.78
261.761	50.52
261.977	27.99
262.193	-62.12
262.409	32.08
262.626	-33.45
262.842	7.51
263.058	25.94
263.274	13.65
263.49	19.8
263.707	36.18
263.923	48.47
264.139	-4.78
264.355	-39.59
264.571	32.08
264.787	-8.87
265.004	17.75
265.22	52.56
265.436	-17.07
265.652	68.95
265.868	-31.4
266.084	13.65
266.3	23.89
266.516	19.8
266.732	52.56
266.948	11.61
267.164	-15.02
267.38	-60.07
267.596	62.8
267.812	81.24
268.028	25.94
268.244	17.75
268.46	27.99
268.676	32.08
268.892	66.9
269.108	48.47
269.324	83.28
269.54	40.28
269.756	52.56
269.972	-23.21
270.188	-37.55
270.403	34.13
270.619	36.18
270.835	56.66
271.051	-41.64
271.267	38.23
271.483	46.42
271.698	73.04
271.914	85.33
272.13	9.56
272.346	42.32
272.562	-25.26
272.777	54.61
272.993	-33.45
273.209	-0.68
273.425	-12.97
273.64	-19.11
273.856	142.68
274.072	56.66
274.287	3.41
274.503	120.15
274.719	103.76
274.934	48.47
275.15	11.61
275.366	60.76
275.581	-21.16
275.797	-19.11
276.012	13.65
276.228	40.28
276.444	81.24
276.659	95.57
276.875	40.28
277.09	50.52
277.306	-25.26
277.521	23.89
277.737	9.56
277.952	9.56
278.168	42.32
278.383	21.84
278.599	40.28
278.814	-0.68
279.03	34.13
279.245	44.37
279.461	27.99
279.676	46.42
279.892	-12.97
280.107	60.76
280.322	-6.83
280.538	58.71
280.753	50.52
280.969	11.61
281.184	-4.78
281.399	62.8
281.615	15.7
281.83	87.38
282.045	60.76
282.26	-23.21
282.476	50.52
282.691	5.46
282.906	77.14
283.122	-19.11
283.337	23.89
283.552	-6.83
283.767	93.52
283.983	38.23
284.198	5.46
284.413	34.13
284.628	-23.21
284.843	79.19
285.058	111.96
285.274	-23.21
285.489	19.8
285.704	42.32
285.919	-12.97
286.134	56.66
286.349	-8.87
286.564	-19.11
286.779	136.53
286.995	122.2
287.21	52.56
287.425	25.94
287.64	32.08
287.855	-31.4
288.07	-41.64
288.285	79.19
288.5	34.13
288.715	40.28
288.93	66.9
289.145	95.57
289.36	48.47
289.575	56.66
289.79	54.61
290.004	3.41
290.219	83.28
290.434	5.46
290.649	23.89
290.864	23.89
291.079	7.51
291.294	56.66
291.509	-47.79
291.724	60.76
291.938	9.56
292.153	130.39
292.368	13.65
292.583	7.51
292.798	19.8
293.012	62.8
293.227	60.76
293.442	23.89
293.657	-6.83
293.871	42.32
294.086	111.96
294.301	79.19
294.516	-0.68
294.73	38.23
294.945	5.46
295.16	56.66
295.374	-23.21
295.589	3.41
295.804	58.71
296.018	38.23
296.233	11.61
296.447	21.84
296.662	-17.07
296.877	-45.74
297.091	5.46
297.306	15.7
297.52	77.14
297.735	50.52
297.949	13.65
298.164	107.86
298.378	17.75
298.593	-33.45
298.807	11.61
299.022	-33.45
299.236	23.89
299.451	25.94
299.665	40.28
299.88	32.08
300.094	-0.68
300.309	5.46
300.523	77.14
300.737	-62.12
300.952	54.61
301.166	19.8
301.381	17.75
301.595	21.84
301.809	15.7
302.024	17.75
302.238	-0.68
302.452	30.04
302.667	23.89
302.881	95.57
303.095	34.13
303.309	32.08
303.524	17.75
303.738	17.75
303.952	-21.16
304.166	54.61
304.381	-68.27
304.595	36.18
304.809	40.28
305.023	-17.07
305.237	13.65
305.452	81.24
305.666	7.51
305.88	52.56
306.094	19.8
306.308	44.37
306.522	64.85
306.736	87.38
306.95	13.65
307.164	27.99
307.379	83.28
307.593	9.56
307.807	27.99
308.021	44.37
308.235	126.29
308.449	-53.93
308.663	-51.88
308.877	77.14
309.091	-60.07
309.305	7.51
309.519	-19.11
309.733	81.24
309.947	54.61
310.161	89.43
310.374	44.37
310.588	17.75
310.802	48.47
311.016	68.95
311.23	56.66
311.444	73.04
311.658	34.13
311.872	25.94
312.085	109.91
312.299	50.52
312.513	56.66
312.727	66.9
312.941	5.46
313.154	-15.02
313.368	30.04
313.582	30.04
313.796	52.56
314.009	17.75
314.223	34.13
314.437	81.24
314.651	11.61
314.864	64.85
315.078	64.85
315.292	-6.83
315.505	-23.21
315.719	42.32
315.933	25.94
316.146	91.48
316.36	-55.98
316.573	54.61
316.787	32.08
317.001	32.08
317.214	15.7
317.428	13.65
317.641	-0.68
317.855	-6.83
318.068	1.37
318.282	-8.87
318.495	-15.02
318.709	46.42
318.922	73.04
319.136	132.44
319.349	11.61
319.563	40.28
319.776	48.47
319.99	-2.73
320.203	52.56
320.417	60.76
320.63	66.9
320.843	81.24
321.057	-15.02
321.27	9.56
321.483	27.99
321.697	75.09
321.91	7.51
322.124	50.52
322.337	111.96
322.55	-2.73
322.763	44.37
322.977	5.46
323.19	3.41
323.403	66.9
323.617	-6.83
323.83	40.28
324.043	-60.07
324.256	148.82
324.469	95.57
324.683	27.99
324.896	56.66
325.109	9.56
325.322	81.24
325.535	87.38
325.748	38.23
325.962	52.56
326.175	27.99
326.388	42.32
326.601	93.52
326.814	5.46
327.027	46.42
327.24	93.52
327.453	36.18
327.666	-10.92
327.879	93.52
328.092	97.62
328.305	75.09
328.518	48.47
328.731	-90.79
328.944	46.42
329.157	19.8
329.37	32.08
329.583	87.38
329.796	87.38
330.009	27.99
330.222	75.09
330.435	-12.97
330.648	15.7
330.861	23.89
331.073	-12.97
331.286	101.72
331.499	71
331.712	38.23
331.925	27.99
332.138	11.61
332.35	116.05
332.563	52.56
332.776	107.86
332.989	89.43
333.202	77.14
333.414	58.71
333.627	15.7
333.84	23.89
334.053	85.33
334.265	83.28
334.478	-37.55
334.691	15.7
334.903	-17.07
335.116	25.94
335.329	60.76
335.541	58.71
335.754	87.38
335.966	40.28
336.179	-19.11
336.392	32.08
336.604	68.95
336.817	93.52
337.029	64.85
337.242	1.37
337.454	85.33
337.667	83.28
337.88	-25.26
338.092	95.57
338.305	36.18
338.517	-37.55
338.729	116.05
338.942	58.71
339.154	-0.68
339.367	11.61
339.579	64.85
339.792	73.04
340.004	54.61
340.217	34.13
340.429	-6.83
340.641	44.37
340.854	36.18
341.066	17.75
341.278	46.42
341.491	34.13
341.703	93.52
341.915	66.9
342.128	85.33
342.34	58.71
342.552	25.94
342.764	-43.69
342.977	1.37
343.189	46.42
343.401	40.28
343.613	34.13
343.826	56.66
344.038	-2.73
344.25	48.47
344.462	-60.07
344.674	109.91
344.886	44.37
345.099	44.37
345.311	27.99
345.523	75.09
345.735	19.8
345.947	-2.73
346.159	46.42
346.371	30.04
346.583	56.66
346.795	85.33
347.007	56.66
347.219	56.66
347.431	32.08
347.643	73.04
347.855	19.8
348.067	118.1
348.279	81.24
348.491	19.8
348.703	66.9
348.915	81.24
349.127	87.38
349.339	46.42
349.551	89.43
349.763	46.42
349.975	3.41
350.187	21.84
350.399	66.9
350.61	-25.26
350.822	23.89
351.034	44.37
351.246	62.8
351.458	87.38
351.669	60.76
351.881	101.72
352.093	17.75
352.305	40.28
352.517	116.05
352.728	27.99
352.94	75.09
353.152	89.43
353.363	7.51
353.575	54.61
353.787	73.04
353.999	-0.68
354.21	23.89
354.422	1.37
354.633	19.8
354.845	68.95
355.057	52.56
355.268	1.37
355.48	13.65
355.692	15.7
355.903	-15.02
356.115	79.19
356.326	-0.68
356.538	48.47
356.749	38.23
356.961	52.56
357.172	64.85
357.384	48.47
357.595	148.82
357.807	66.9
358.018	36.18
358.23	79.19
358.441	56.66
358.653	25.94
358.864	50.52
359.075	27.99
359.287	66.9
359.498	85.33
359.709	25.94
359.921	56.66
360.132	1.37
360.344	54.61
360.555	56.66
360.766	5.46
360.977	15.7
361.189	89.43
361.4	23.89
361.611	46.42
361.823	-12.97
362.034	38.23
362.245	23.89
362.456	128.34
362.667	23.89
362.879	11.61
363.09	38.23
363.301	81.24
363.512	68.95
363.723	73.04
363.935	103.76
364.146	138.58
364.357	-70.31
364.568	60.76
364.779	-10.92
364.99	40.28
365.201	66.9
365.412	105.81
365.623	-6.83
365.834	75.09
366.045	23.89
366.256	116.05
366.467	36.18
366.678	23.89
366.889	46.42
367.1	50.52
367.311	-6.83
367.522	42.32
367.733	15.7
367.944	122.2
368.155	50.52
368.366	89.43
368.577	9.56
368.788	66.9
368.999	1.37
369.209	81.24
369.42	101.72
369.631	68.95
369.842	36.18
370.053	3.41
370.264	101.72
370.474	32.08
370.685	85.33
370.896	93.52
371.107	71
371.317	79.19
371.528	101.72
371.739	54.61
371.95	30.04
372.16	66.9
372.371	-10.92
372.582	75.09
372.792	60.76
373.003	159.06
373.214	38.23
373.424	132.44
373.635	-17.07
373.846	95.57
374.056	-25.26
374.267	-25.26
374.477	-19.11
374.688	42.32
374.898	56.66
375.109	40.28
375.319	48.47
375.53	95.57
375.74	21.84
375.951	19.8
376.161	-31.4
376.372	79.19
376.582	23.89
376.793	30.04
377.003	60.76
377.214	73.04
377.424	23.89
377.635	38.23
377.845	11.61
378.055	97.62
378.266	44.37
378.476	101.72
378.686	46.42
378.897	93.52
379.107	64.85
379.317	93.52
379.528	42.32
379.738	66.9
379.948	13.65
380.158	50.52
380.369	83.28
380.579	71
380.789	64.85
380.999	89.43
381.21	36.18
381.42	114
381.63	-0.68
381.84	58.71
382.05	56.66
382.261	105.81
382.471	71
382.681	54.61
382.891	48.47
383.101	122.2
383.311	64.85
383.521	48.47
383.731	9.56
383.941	19.8
384.151	152.91
384.361	30.04
384.571	40.28
384.781	13.65
384.991	25.94
385.201	85.33
385.411	19.8
385.621	-43.69
385.831	42.32
386.041	138.58
386.251	62.8
386.461	15.7
386.671	46.42
386.881	64.85
387.091	32.08
387.301	17.75
387.511	93.52
387.72	36.18
387.93	23.89
388.14	60.76
388.35	60.76
388.56	83.28
388.769	17.75
388.979	62.8
389.189	42.32
389.399	91.48
389.609	34.13
389.818	118.1
390.028	99.67
390.238	99.67
390.447	81.24
390.657	71
390.867	36.18
391.076	136.53
391.286	34.13
391.496	89.43
391.705	32.08
391.915	105.81
392.125	122.2
392.334	60.76
392.544	56.66
392.753	118.1
392.963	85.33
393.172	5.46
393.382	91.48
393.591	75.09
393.801	40.28
394.01	116.05
394.22	7.51
394.429	52.56
394.639	93.52
394.848	46.42
395.058	27.99
395.267	21.84
395.477	97.62
395.686	122.2
395.895	107.86
396.105	116.05
396.314	144.72
396.524	48.47
396.733	58.71
396.942	85.33
397.152	175.44
397.361	142.68
397.57	134.48
397.78	81.24
397.989	107.86
398.198	183.63
398.407	83.28
398.617	68.95
398.826	60.76
399.035	19.8
399.244	105.81
399.453	36.18
399.663	122.2
399.872	138.58
400.081	87.38
400.29	60.76
400.499	58.71
400.708	95.57
400.917	134.48
401.127	89.43
401.336	107.86
401.545	189.78
401.754	91.48
401.963	132.44
402.172	152.91
402.381	73.04
402.59	38.23
402.799	132.44
403.008	128.34
403.217	218.45
403.426	144.72
403.635	103.76
403.844	107.86
404.053	87.38
404.262	103.76
404.471	236.88
404.68	187.73
404.888	169.3
405.097	247.12
405.306	159.06
405.515	161.11
405.724	126.29
405.933	222.55
406.142	120.15
406.35	226.64
406.559	206.16
406.768	179.54
406.977	216.4
407.185	255.31
407.394	185.68
407.603	171.35
407.812	318.8
408.02	251.22
408.229	210.26
408.438	298.32
408.646	214.35
408.855	267.6
409.064	324.94
409.272	208.21
409.481	351.57
409.69	251.22
409.898	308.56
410.107	341.33
410.315	380.24
410.524	398.67
410.733	372.05
410.941	333.14
411.15	345.42
411.358	372.05
411.567	347.47
411.775	421.2
411.984	435.53
412.192	490.83
412.401	509.26
412.609	488.78
412.818	478.54
413.026	615.76
413.234	593.23
413.443	482.64
413.651	613.71
413.86	564.56
414.068	638.28
414.276	685.39
414.485	623.95
414.693	648.52
414.901	824.65
415.11	808.26
415.318	691.53
415.526	789.83
415.734	814.41
415.943	728.39
416.151	867.66
416.359	851.27
416.567	888.14
416.776	931.14
416.984	988.49
417.192	984.39
417.4	1062.21
417.608	1029.45
417.817	1142.08
418.025	1187.14
418.233	1256.77
418.441	1242.43
418.649	1334.59
418.857	1406.27
419.065	1426.75
419.273	1342.78
419.481	1529.15
419.689	1500.48
419.897	1459.52
420.105	1584.45
420.313	1666.36
420.521	1668.41
420.729	1846.59
420.937	1807.67
421.145	1842.49
421.353	2049.33
421.561	2088.25
421.769	2172.21
421.977	2131.25
422.185	2188.6
422.393	2391.34
422.601	2372.91
422.809	2268.47
423.017	2446.64
423.224	2540.85
423.432	2759.98
423.64	2657.58
423.848	2733.36
424.056	2899.24
424.263	2987.3
424.471	3089.7
424.679	3085.61
424.887	3228.96
425.094	3452.19
425.302	3337.51
425.51	3476.77
425.718	3613.98
425.925	3587.36
426.133	3816.73
426.341	4068.63
426.548	4132.12
426.756	4226.32
426.964	4312.34
427.171	4551.95
427.379	4693.26
427.586	4719.89
427.794	4850.96
428.001	4969.74
428.209	5264.64
428.417	5338.37
428.624	5723.39
428.832	5682.43
429.039	5489.92
429.247	5629.18
429.454	6180.09
429.662	6571.25
429.869	6198.52
430.076	6495.47
430.284	6407.41
430.491	6698.22
430.699	6884.59
430.906	6982.89
431.114	7173.35
431.321	7292.13
431.528	7482.6
431.736	8187.1
431.943	8422.61
432.15	8205.53
432.358	8285.4
432.565	8858.83
432.772	8680.66
432.979	9120.97
433.187	9467.08
433.394	9241.8
433.601	10032.32
433.808	10028.22
434.016	9956.54
434.223	10378.42
434.43	11021.49
434.637	10921.13
434.844	11412.65
435.052	11803.81
435.259	11635.88
435.466	11629.73
435.673	11687.07
435.88	12323.99
436.087	13233.29
436.294	12948.62
436.501	12717.2
436.708	13036.69
436.915	13376.65
437.122	14036.1
437.329	13894.79
437.537	14578.81
437.743	14648.44
437.95	14548.09
438.157	15447.15
438.364	15981.67
438.571	15662.18
438.778	15748.2
438.985	17632.33
439.192	16643.16
439.399	17589.32
439.606	17015.89
439.813	17929.28
440.02	19070
440.227	18828.34
440.433	18558.01
440.64	19059.76
440.847	19133.49
441.054	19674.15
441.261	20837.4
441.467	20427.81
441.674	20880.41
441.881	21865.48
442.088	21677.07
442.294	21414.93
442.501	21902.34
442.708	22541.31
442.914	23262.19
443.121	24460.26
443.328	23751.66
443.534	25682.89
443.741	24732.64
443.948	24331.23
444.154	26172.36
444.361	25967.56
444.568	26170.31
444.774	26285
444.981	26457.03
445.187	27298.74
445.394	28445.6
445.6	28040.11
445.807	30948.22
446.013	29473.68
446.22	29971.34
446.426	31544.18
446.633	31509.36
446.839	32602.98
447.046	31101.82
447.252	32953.18
447.459	33010.53
447.665	32994.14
447.871	34040.65
448.078	35965.74
448.284	33909.58
448.491	35298.11
448.697	36569.9
448.903	37128.99
449.11	37440.28
449.316	37016.35
449.522	37499.67
449.728	38191.89
449.935	38335.24
450.141	38470.41
450.347	39523.07
450.553	38515.47
450.76	38896.39
450.966	40342.25
451.172	39555.83
451.378	40964.84
451.584	40065.78
451.791	40817.38
451.997	40594.15
452.203	41611.99
452.409	41519.84
452.615	41126.63
452.821	39920.37
453.027	39920.37
453.233	41427.68
453.44	40039.15
453.646	40364.78
453.852	40751.85
454.058	41267.94
454.264	40049.39
454.47	40770.28
454.676	39469.82
454.882	41104.1
455.088	37471
455.294	38318.86
455.5	38914.82
455.705	39011.07
455.911	37925.65
456.117	37190.43
456.323	36356.91
456.529	34263.88
456.735	36041.52
456.941	34980.67
457.147	34087.76
457.352	33602.39
457.558	33282.91
457.764	33233.75
457.97	32736.1
458.176	31746.93
458.381	32133.99
458.587	30335.88
458.793	30442.37
458.999	28775.33
459.204	31312.76
459.41	30126.99
459.616	28347.3
459.821	28249
460.027	28445.6
460.233	27694
460.438	26096.58
460.644	26534.85
460.85	25430.99
461.055	24744.92
461.261	24871.9
461.466	22955
461.672	22328.32
461.878	24007.65
462.083	22219.78
462.289	22096.9
462.494	21541.9
462.7	20706.33
462.905	20243.49
463.111	21134.35
463.316	20970.52
463.522	20169.76
463.727	20339.74
463.932	20452.38
464.138	20243.49
464.343	20274.21
464.549	19608.62
464.754	20534.3
464.959	20167.71
465.165	20180
465.37	19338.29
465.575	18779.19
465.781	19647.53
465.986	19358.77
466.191	19094.58
466.397	18537.53
466.602	17652.81
466.807	18500.67
467.012	18224.19
467.218	18367.55
467.423	17906.76
467.628	17894.47
467.833	18957.36
468.038	18060.35
468.244	17796.17
