Data from USB4F104151__76__12-27-49-531.txt Node

Date: Fri Mar 14 12:27:49 EDT 2025
User: louis
Spectrometer: USB4F10415
Trigger mode: 4
Integration Time (sec): 2.000000E-2
Scans to average: 1
Electric dark correction enabled: true
Nonlinearity correction enabled: false
Boxcar width: 0
XAxis mode: Wavelengths
Number of Pixels in Spectrum: 3648
>>>>>Begin Spectral Data<<<<<
178.204	-84.14
178.424	-84.14
178.644	-84.14
178.864	-133.29
179.084	-47.27
179.304	3.93
179.524	-2.22
179.744	-43.18
179.964	5.97
180.184	1.88
180.404	55.12
180.624	57.17
180.844	-22.7
181.064	-47.27
181.283	44.88
181.503	-61.61
181.723	8.02
181.943	-86.19
182.163	36.69
182.383	8.02
182.602	44.88
182.822	16.21
183.042	-32.94
183.262	-45.23
183.482	38.74
183.701	-0.17
183.921	24.4
184.141	-24.75
184.361	24.4
184.58	44.88
184.8	-20.65
185.02	12.12
185.239	5.97
185.459	-10.41
185.679	73.56
185.898	-100.52
186.118	51.03
186.338	16.21
186.557	32.6
186.777	-12.46
186.997	48.98
187.216	-55.47
187.436	44.88
187.655	16.21
187.875	51.03
188.095	-22.7
188.314	24.4
188.534	51.03
188.753	-57.51
188.973	61.27
189.192	71.51
189.412	3.93
189.631	-16.55
189.851	-45.23
190.07	-0.17
190.29	-20.65
190.509	8.02
190.729	20.31
190.948	30.55
191.168	-12.46
191.387	94.04
191.607	-39.08
191.826	67.41
192.045	-32.94
192.265	-30.89
192.484	-41.13
192.704	12.12
192.923	20.31
193.142	44.88
193.362	-32.94
193.581	26.45
193.8	-4.27
194.02	10.07
194.239	32.6
194.458	53.08
194.678	-24.75
194.897	100.18
195.116	-28.84
195.335	51.03
195.555	24.4
195.774	-14.51
195.993	-16.55
196.212	22.36
196.432	-65.71
196.651	-6.31
196.87	46.93
197.089	-6.31
197.308	12.12
197.528	32.6
197.747	28.5
197.966	34.64
198.185	106.32
198.404	14.17
198.623	5.97
198.842	55.12
199.062	18.26
199.281	55.12
199.5	-6.31
199.719	91.99
199.938	-24.75
200.157	-8.36
200.376	38.74
200.595	-28.84
200.814	-20.65
201.033	-14.51
201.252	-18.6
201.471	-2.22
201.69	53.08
201.909	-4.27
202.128	8.02
202.347	61.27
202.566	-14.51
202.785	-30.89
203.004	16.21
203.223	73.56
203.442	-12.46
203.661	-10.41
203.879	32.6
204.098	-32.94
204.317	14.17
204.536	79.7
204.755	40.79
204.974	-55.47
205.193	79.7
205.411	8.02
205.63	-18.6
205.849	34.64
206.068	-14.51
206.287	18.26
206.505	-6.31
206.724	89.94
206.943	3.93
207.162	-41.13
207.381	-18.6
207.599	-20.65
207.818	-34.99
208.037	18.26
208.255	20.31
208.474	-12.46
208.693	-34.99
208.911	-8.36
209.13	12.12
209.349	-39.08
209.567	34.64
209.786	-16.55
210.005	63.32
210.223	14.17
210.442	-22.7
210.661	44.88
210.879	16.21
211.098	-6.31
211.316	20.31
211.535	24.4
211.753	53.08
211.972	-14.51
212.191	-18.6
212.409	51.03
212.628	16.21
212.846	-55.47
213.065	-43.18
213.283	24.4
213.502	1.88
213.72	-2.22
213.938	-8.36
214.157	71.51
214.375	1.88
214.594	44.88
214.812	-14.51
215.031	18.26
215.249	36.69
215.467	16.21
215.686	36.69
215.904	51.03
216.122	46.93
216.341	73.56
216.559	12.12
216.778	-18.6
216.996	12.12
217.214	8.02
217.432	8.02
217.651	-71.85
217.869	-14.51
218.087	-53.42
218.306	51.03
218.524	26.45
218.742	1.88
218.96	-24.75
219.179	-37.03
219.397	59.22
219.615	89.94
219.833	-0.17
220.051	-41.13
220.27	57.17
220.488	75.6
220.706	51.03
220.924	77.65
221.142	-4.27
221.36	44.88
221.578	20.31
221.796	-49.32
222.015	20.31
222.233	94.04
222.451	10.07
222.669	22.36
222.887	65.36
223.105	26.45
223.323	69.46
223.541	-69.8
223.759	16.21
223.977	-22.7
224.195	1.88
224.413	10.07
224.631	28.5
224.849	10.07
225.067	-2.22
225.285	-34.99
225.503	26.45
225.721	36.69
225.939	5.97
226.157	26.45
226.375	79.7
226.592	-84.14
226.81	-34.99
227.028	-2.22
227.246	48.98
227.464	28.5
227.682	22.36
227.9	-30.89
228.117	30.55
228.335	22.36
228.553	18.26
228.771	51.03
228.989	32.6
229.206	-53.42
229.424	-22.7
229.642	59.22
229.86	30.55
230.077	32.6
230.295	51.03
230.513	-51.37
230.731	69.46
230.948	30.55
231.166	48.98
231.384	-30.89
231.601	-2.22
231.819	26.45
232.037	-26.79
232.254	-45.23
232.472	24.4
232.689	26.45
232.907	71.51
233.125	-20.65
233.342	5.97
233.56	-32.94
233.777	-6.31
233.995	3.93
234.213	69.46
234.43	55.12
234.648	18.26
234.865	-4.27
235.083	1.88
235.3	87.89
235.518	-39.08
235.735	-10.41
235.953	61.27
236.17	-24.75
236.388	-41.13
236.605	-14.51
236.822	-10.41
237.04	8.02
237.257	20.31
237.475	-4.27
237.692	96.08
237.909	-30.89
238.127	-0.17
238.344	20.31
238.562	20.31
238.779	48.98
238.996	40.79
239.214	-12.46
239.431	77.65
239.648	-24.75
239.865	1.88
240.083	-8.36
240.3	83.8
240.517	26.45
240.735	73.56
240.952	34.64
241.169	-12.46
241.386	-12.46
241.603	30.55
241.821	-43.18
242.038	83.8
242.255	59.22
242.472	-12.46
242.689	24.4
242.907	98.13
243.124	-47.27
243.341	-24.75
243.558	-20.65
243.775	32.6
243.992	16.21
244.209	30.55
244.426	71.51
244.643	10.07
244.86	-6.31
245.078	8.02
245.295	-34.99
245.512	-41.13
245.729	5.97
245.946	38.74
246.163	-86.19
246.38	-14.51
246.597	-63.66
246.814	53.08
247.031	-41.13
247.248	-8.36
247.464	-12.46
247.681	14.17
247.898	59.22
248.115	20.31
248.332	30.55
248.549	46.93
248.766	30.55
248.983	57.17
249.2	24.4
249.417	-39.08
249.633	-16.55
249.85	30.55
250.067	1.88
250.284	32.6
250.501	61.27
250.717	24.4
250.934	42.84
251.151	63.32
251.368	-2.22
251.585	1.88
251.801	-45.23
252.018	5.97
252.235	81.75
252.451	3.93
252.668	32.6
252.885	5.97
253.102	38.74
253.318	12.12
253.535	-51.37
253.752	3.93
253.968	-75.95
254.185	30.55
254.401	44.88
254.618	51.03
254.835	42.84
255.051	34.64
255.268	3.93
255.484	69.46
255.701	79.7
255.917	38.74
256.134	34.64
256.351	63.32
256.567	57.17
256.784	85.84
257	-26.79
257.217	36.69
257.433	89.94
257.65	63.32
257.866	-34.99
258.082	-24.75
258.299	75.6
258.515	-55.47
258.732	18.26
258.948	16.21
259.165	-63.66
259.381	14.17
259.597	-10.41
259.814	-8.36
260.03	-32.94
260.246	8.02
260.463	48.98
260.679	44.88
260.895	-6.31
261.112	24.4
261.328	-26.79
261.544	1.88
261.761	96.08
261.977	-22.7
262.193	28.5
262.409	48.98
262.626	53.08
262.842	51.03
263.058	8.02
263.274	137.04
263.49	-20.65
263.707	12.12
263.923	10.07
264.139	28.5
264.355	-12.46
264.571	-2.22
264.787	42.84
265.004	53.08
265.22	8.02
265.436	-18.6
265.652	28.5
265.868	77.65
266.084	22.36
266.3	-6.31
266.516	-30.89
266.732	-2.22
266.948	-0.17
267.164	32.6
267.38	30.55
267.596	46.93
267.812	34.64
268.028	20.31
268.244	-2.22
268.46	46.93
268.676	-30.89
268.892	-28.84
269.108	-6.31
269.324	-16.55
269.54	18.26
269.756	55.12
269.972	-22.7
270.188	-14.51
270.403	-39.08
270.619	48.98
270.835	-18.6
271.051	-16.55
271.267	-67.75
271.483	3.93
271.698	-18.6
271.914	114.52
272.13	-10.41
272.346	-10.41
272.562	98.13
272.777	67.41
272.993	48.98
273.209	-8.36
273.425	1.88
273.64	53.08
273.856	36.69
274.072	16.21
274.287	-0.17
274.503	59.22
274.719	1.88
274.934	55.12
275.15	-34.99
275.366	-49.32
275.581	-43.18
275.797	44.88
276.012	-69.8
276.228	1.88
276.444	59.22
276.659	12.12
276.875	85.84
277.09	1.88
277.306	-73.9
277.521	94.04
277.737	22.36
277.952	1.88
278.168	16.21
278.383	16.21
278.599	-39.08
278.814	51.03
279.03	24.4
279.245	38.74
279.461	-28.84
279.676	18.26
279.892	-14.51
280.107	-10.41
280.322	-10.41
280.538	-4.27
280.753	51.03
280.969	63.32
281.184	98.13
281.399	26.45
281.615	55.12
281.83	5.97
282.045	-2.22
282.26	-82.09
282.476	5.97
282.691	-14.51
282.906	-18.6
283.122	-22.7
283.337	28.5
283.552	-14.51
283.767	26.45
283.983	-41.13
284.198	-59.56
284.413	-8.36
284.628	-41.13
284.843	53.08
285.058	51.03
285.274	36.69
285.489	-55.47
285.704	67.41
285.919	5.97
286.134	-32.94
286.349	34.64
286.564	-4.27
286.779	77.65
286.995	16.21
287.21	18.26
287.425	-8.36
287.64	26.45
287.855	51.03
288.07	-22.7
288.285	118.61
288.5	38.74
288.715	36.69
288.93	55.12
289.145	18.26
289.36	28.5
289.575	-4.27
289.79	65.36
290.004	26.45
290.219	8.02
290.434	-28.84
290.649	-30.89
290.864	-51.37
291.079	-18.6
291.294	-10.41
291.509	53.08
291.724	8.02
291.938	1.88
292.153	-20.65
292.368	12.12
292.583	-39.08
292.798	8.02
293.012	59.22
293.227	5.97
293.442	48.98
293.657	5.97
293.871	8.02
294.086	16.21
294.301	96.08
294.516	-16.55
294.73	38.74
294.945	16.21
295.16	-8.36
295.374	-26.79
295.589	42.84
295.804	-28.84
296.018	67.41
296.233	26.45
296.447	-16.55
296.662	-8.36
296.877	94.04
297.091	5.97
297.306	18.26
297.52	42.84
297.735	46.93
297.949	-20.65
298.164	-37.03
298.378	-4.27
298.593	16.21
298.807	-0.17
299.022	-14.51
299.236	100.18
299.451	28.5
299.665	67.41
299.88	-65.71
300.094	-14.51
300.309	24.4
300.523	91.99
300.737	55.12
300.952	79.7
301.166	12.12
301.381	-16.55
301.595	42.84
301.809	57.17
302.024	14.17
302.238	3.93
302.452	3.93
302.667	-28.84
302.881	12.12
303.095	116.56
303.309	59.22
303.524	-41.13
303.738	42.84
303.952	61.27
304.166	12.12
304.381	-2.22
304.595	-30.89
304.809	-14.51
305.023	40.79
305.237	96.08
305.452	18.26
305.666	20.31
305.88	30.55
306.094	83.8
306.308	-32.94
306.522	30.55
306.736	-20.65
306.95	-2.22
307.164	-22.7
307.379	-59.56
307.593	24.4
307.807	73.56
308.021	36.69
308.235	85.84
308.449	-18.6
308.663	-10.41
308.877	46.93
309.091	-28.84
309.305	69.46
309.519	8.02
309.733	-2.22
309.947	-51.37
310.161	57.17
310.374	30.55
310.588	18.26
310.802	-20.65
311.016	18.26
311.23	24.4
311.444	-14.51
311.658	-2.22
311.872	71.51
312.085	61.27
312.299	-16.55
312.513	14.17
312.727	5.97
312.941	14.17
313.154	3.93
313.368	-4.27
313.582	12.12
313.796	14.17
314.009	55.12
314.223	28.5
314.437	48.98
314.651	32.6
314.864	12.12
315.078	91.99
315.292	42.84
315.505	20.31
315.719	-37.03
315.933	-18.6
316.146	-24.75
316.36	8.02
316.573	8.02
316.787	-18.6
317.001	5.97
317.214	55.12
317.428	53.08
317.641	-30.89
317.855	65.36
318.068	-65.71
318.282	22.36
318.495	28.5
318.709	10.07
318.922	42.84
319.136	108.37
319.349	-26.79
319.563	-4.27
319.776	-37.03
319.99	10.07
320.203	-10.41
320.417	67.41
320.63	61.27
320.843	83.8
321.057	63.32
321.27	130.9
321.483	14.17
321.697	46.93
321.91	59.22
322.124	-6.31
322.337	38.74
322.55	77.65
322.763	-24.75
322.977	28.5
323.19	-10.41
323.403	-0.17
323.617	34.64
323.83	34.64
324.043	40.79
324.256	1.88
324.469	12.12
324.683	28.5
324.896	34.64
325.109	-4.27
325.322	30.55
325.535	63.32
325.748	67.41
325.962	20.31
326.175	20.31
326.388	77.65
326.601	5.97
326.814	-30.89
327.027	20.31
327.24	71.51
327.453	-16.55
327.666	114.52
327.879	38.74
328.092	-16.55
328.305	-2.22
328.518	32.6
328.731	30.55
328.944	53.08
329.157	-45.23
329.37	69.46
329.583	34.64
329.796	22.36
330.009	-41.13
330.222	51.03
330.435	48.98
330.648	26.45
330.861	26.45
331.073	-20.65
331.286	8.02
331.499	22.36
331.712	-37.03
331.925	63.32
332.138	34.64
332.35	44.88
332.563	-49.32
332.776	-8.36
332.989	38.74
333.202	89.94
333.414	38.74
333.627	48.98
333.84	22.36
334.053	61.27
334.265	28.5
334.478	63.32
334.691	10.07
334.903	46.93
335.116	77.65
335.329	40.79
335.541	-4.27
335.754	24.4
335.966	-34.99
336.179	67.41
336.392	22.36
336.604	-4.27
336.817	65.36
337.029	51.03
337.242	20.31
337.454	-39.08
337.667	18.26
337.88	3.93
338.092	100.18
338.305	-0.17
338.517	14.17
338.729	8.02
338.942	-14.51
339.154	-6.31
339.367	5.97
339.579	24.4
339.792	-43.18
340.004	46.93
340.217	-32.94
340.429	10.07
340.641	-16.55
340.854	-47.27
341.066	51.03
341.278	26.45
341.491	59.22
341.703	102.23
341.915	53.08
342.128	53.08
342.34	-2.22
342.552	94.04
342.764	-6.31
342.977	3.93
343.189	38.74
343.401	53.08
343.613	-0.17
343.826	14.17
344.038	-4.27
344.25	38.74
344.462	12.12
344.674	-18.6
344.886	71.51
345.099	10.07
345.311	79.7
345.523	-47.27
345.735	51.03
345.947	87.89
346.159	81.75
346.371	-14.51
346.583	20.31
346.795	32.6
347.007	-2.22
347.219	18.26
347.431	-8.36
347.643	40.79
347.855	-12.46
348.067	48.98
348.279	-41.13
348.491	-32.94
348.703	28.5
348.915	20.31
349.127	-2.22
349.339	36.69
349.551	-39.08
349.763	12.12
349.975	8.02
350.187	24.4
350.399	108.37
350.61	26.45
350.822	79.7
351.034	40.79
351.246	-34.99
351.458	-4.27
351.669	51.03
351.881	98.13
352.093	-45.23
352.305	10.07
352.517	12.12
352.728	38.74
352.94	-34.99
353.152	38.74
353.363	3.93
353.575	-26.79
353.787	22.36
353.999	10.07
354.21	57.17
354.422	124.76
354.633	53.08
354.845	63.32
355.057	34.64
355.268	-41.13
355.48	53.08
355.692	1.88
355.903	75.6
356.115	-6.31
356.326	-18.6
356.538	55.12
356.749	-20.65
356.961	67.41
357.172	32.6
357.384	30.55
357.595	28.5
357.807	44.88
358.018	65.36
358.23	61.27
358.441	53.08
358.653	16.21
358.864	32.6
359.075	108.37
359.287	46.93
359.498	-22.7
359.709	22.36
359.921	87.89
360.132	-10.41
360.344	12.12
360.555	1.88
360.766	28.5
360.977	-53.42
361.189	63.32
361.4	-24.75
361.611	53.08
361.823	44.88
362.034	18.26
362.245	28.5
362.456	34.64
362.667	3.93
362.879	28.5
363.09	28.5
363.301	75.6
363.512	65.36
363.723	-22.7
363.935	20.31
364.146	-28.84
364.357	145.24
364.568	73.56
364.779	51.03
364.99	65.36
365.201	44.88
365.412	34.64
365.623	59.22
365.834	112.47
366.045	34.64
366.256	69.46
366.467	20.31
366.678	106.32
366.889	75.6
367.1	38.74
367.311	-18.6
367.522	-49.32
367.733	69.46
367.944	67.41
368.155	48.98
368.366	46.93
368.577	22.36
368.788	67.41
368.999	71.51
369.209	40.79
369.42	55.12
369.631	108.37
369.842	48.98
370.053	81.75
370.264	53.08
370.474	44.88
370.685	-8.36
370.896	16.21
371.107	57.17
371.317	77.65
371.528	34.64
371.739	-8.36
371.95	77.65
372.16	1.88
372.371	-0.17
372.582	-71.85
372.792	20.31
373.003	-10.41
373.214	1.88
373.424	18.26
373.635	-28.84
373.846	44.88
374.056	59.22
374.267	59.22
374.477	89.94
374.688	36.69
374.898	44.88
375.109	36.69
375.319	46.93
375.53	18.26
375.74	22.36
375.951	-28.84
376.161	22.36
376.372	40.79
376.582	3.93
376.793	59.22
377.003	-6.31
377.214	26.45
377.424	8.02
377.635	63.32
377.845	38.74
378.055	51.03
378.266	18.26
378.476	42.84
378.686	71.51
378.897	53.08
379.107	-6.31
379.317	12.12
379.528	20.31
379.738	3.93
379.948	67.41
380.158	55.12
380.369	106.32
380.579	34.64
380.789	-20.65
380.999	44.88
381.21	-24.75
381.42	98.13
381.63	-45.23
381.84	18.26
382.05	-10.41
382.261	71.51
382.471	26.45
382.681	63.32
382.891	59.22
383.101	44.88
383.311	-39.08
383.521	38.74
383.731	5.97
383.941	51.03
384.151	28.5
384.361	79.7
384.571	59.22
384.781	34.64
384.991	71.51
385.201	79.7
385.411	83.8
385.621	77.65
385.831	18.26
386.041	67.41
386.251	38.74
386.461	73.56
386.671	14.17
386.881	12.12
387.091	3.93
387.301	104.28
387.511	-30.89
387.72	71.51
387.93	48.98
388.14	40.79
388.35	10.07
388.56	71.51
388.769	44.88
388.979	-18.6
389.189	20.31
389.399	24.4
389.609	53.08
389.818	98.13
390.028	69.46
390.238	67.41
390.447	30.55
390.657	71.51
390.867	-59.56
391.076	3.93
391.286	75.6
391.496	-14.51
391.705	55.12
391.915	87.89
392.125	67.41
392.334	87.89
392.544	48.98
392.753	51.03
392.963	34.64
393.172	53.08
393.382	38.74
393.591	59.22
393.801	53.08
394.01	79.7
394.22	-4.27
394.429	8.02
394.639	55.12
394.848	73.56
395.058	-4.27
395.267	55.12
395.477	-24.75
395.686	83.8
395.895	151.38
396.105	81.75
396.314	102.23
396.524	34.64
396.733	14.17
396.942	63.32
397.152	65.36
397.361	91.99
397.57	96.08
397.78	102.23
397.989	81.75
398.198	77.65
398.407	61.27
398.617	116.56
398.826	63.32
399.035	85.84
399.244	132.95
399.453	98.13
399.663	79.7
399.872	40.79
400.081	91.99
400.29	59.22
400.499	110.42
400.708	73.56
400.917	46.93
401.127	53.08
401.336	8.02
401.545	85.84
401.754	153.43
401.963	141.14
402.172	104.28
402.381	44.88
402.59	108.37
402.799	40.79
403.008	141.14
403.217	104.28
403.426	61.27
403.635	38.74
403.844	77.65
404.053	128.85
404.262	167.76
404.471	126.8
404.68	132.95
404.888	124.76
405.097	22.36
405.306	112.47
405.515	124.76
405.724	112.47
405.933	143.19
406.142	132.95
406.35	85.84
406.559	16.21
406.768	130.9
406.977	169.81
407.185	202.58
407.394	210.77
407.603	73.56
407.812	155.47
408.02	182.1
408.229	120.66
408.438	200.53
408.646	112.47
408.855	221.01
409.064	288.59
409.272	180.05
409.481	266.07
409.69	239.44
409.898	214.87
410.107	227.15
410.315	196.43
410.524	190.29
410.733	327.5
410.941	229.2
411.15	257.87
411.358	307.02
411.567	292.69
411.775	399.18
411.984	386.9
412.192	276.31
412.401	325.46
412.609	345.94
412.818	356.18
413.026	339.79
413.234	403.28
413.443	425.81
413.651	372.56
413.86	431.95
414.068	450.38
414.276	477.01
414.485	450.38
414.693	485.2
414.901	468.81
415.11	542.54
415.318	522.06
415.526	542.54
415.734	546.64
415.943	585.55
416.151	665.42
416.359	696.14
416.567	646.99
416.776	704.33
416.984	716.62
417.192	606.03
417.4	718.67
417.608	722.76
417.817	728.91
418.025	778.06
418.233	839.5
418.441	886.6
418.649	921.42
418.857	935.75
419.065	1066.82
419.273	1091.4
419.481	1046.34
419.689	1226.56
419.897	1097.54
420.105	1181.51
420.313	1181.51
420.521	1283.91
420.729	1224.51
420.937	1341.25
421.145	1449.79
421.353	1376.06
421.561	1464.13
421.769	1441.6
421.977	1619.77
422.185	1662.78
422.393	1613.63
422.601	1816.38
422.809	1761.08
423.017	1736.51
423.224	1892.15
423.432	1886.01
423.64	1929.02
423.848	2182.96
424.056	2055.99
424.263	2168.63
424.471	2180.92
424.679	2338.61
424.887	2449.2
425.094	2387.76
425.302	2469.68
425.51	2524.97
425.718	2547.5
425.925	2756.4
426.133	2785.07
426.341	2930.47
426.548	3127.08
426.756	3041.06
426.964	3094.31
427.171	3178.28
427.379	3340.07
427.586	3417.89
427.794	3456.8
428.001	3671.84
428.209	3952.41
428.417	3739.42
428.624	4060.95
428.832	4083.48
429.039	3993.37
429.247	3913.5
429.454	4378.39
429.662	4777.74
429.869	4335.38
430.076	4632.33
430.284	4648.72
430.491	4826.89
430.699	5037.83
430.906	5023.5
431.114	5076.74
431.321	5388.04
431.528	5566.21
431.736	5721.85
431.943	6078.2
432.15	5938.94
432.358	5943.03
432.565	6180.6
432.772	6166.26
432.979	6579.95
433.187	6862.57
433.394	6792.94
433.601	7175.91
433.808	7093.99
434.016	7108.33
434.223	7429.86
434.43	7919.32
434.637	7669.47
434.844	8226.52
435.052	8222.42
435.259	8406.74
435.466	8543.95
435.673	8357.59
435.88	8904.4
436.087	9428.68
436.294	9273.03
436.501	9078.47
436.708	9461.44
436.915	9731.78
437.122	10065.6
437.329	10131.13
437.537	10495.67
437.743	10544.82
437.95	10434.23
438.157	11007.66
438.364	11636.39
438.571	11486.89
438.778	11531.94
438.985	12486.29
439.192	11986.59
439.399	12353.18
439.606	12084.89
439.813	12895.89
440.02	13454.98
440.227	13225.61
440.433	13244.04
440.64	13858.43
440.847	13692.55
441.054	13862.53
441.261	14765.68
441.467	14632.57
441.674	15005.3
441.881	15513.19
442.088	15474.28
442.294	15390.31
442.501	15601.26
442.708	16473.69
442.914	16752.21
443.121	17372.75
443.328	16600.66
443.534	18388.54
443.741	17595.98
443.948	17548.87
444.154	19011.12
444.361	18628.15
444.568	18691.64
444.774	18841.14
444.981	19111.47
445.187	19889.7
445.394	20321.82
445.6	20282.91
445.807	21990.92
446.013	21263.89
446.22	21270.03
446.426	22461.95
446.633	22605.31
446.839	23434.74
447.046	22517.25
447.252	23580.14
447.459	23592.43
447.665	23690.73
447.871	24948.18
448.078	25533.9
448.284	24647.13
448.491	25359.83
448.697	26119.62
448.903	26502.59
449.11	26535.36
449.316	26559.94
449.522	26772.92
449.728	27342.26
449.935	27600.3
450.141	27762.09
450.347	28364.2
450.553	27440.56
450.76	27927.98
450.966	28888.48
451.172	28042.67
451.378	29289.88
451.584	28331.43
451.791	29105.56
451.997	29275.54
452.203	29748.62
452.409	29810.06
452.615	29687.18
452.821	28233.13
453.027	28306.85
453.233	29775.25
453.44	28284.33
453.646	28810.65
453.852	28798.37
454.058	29777.29
454.264	28736.93
454.47	29515.15
454.676	28513.7
454.882	29379.99
455.088	27047.35
455.294	27491.76
455.5	27682.22
455.705	28044.71
455.911	27123.13
456.117	26398.15
456.323	25884.11
456.529	24583.65
456.735	25734.6
456.941	25181.65
457.147	24694.24
457.352	24341.99
457.558	23838.19
457.764	23975.4
457.97	23514.61
458.176	22955.51
458.381	22908.41
458.587	21728.78
458.793	21835.27
458.999	20368.93
459.204	22074.88
459.41	21812.74
459.616	20139.55
459.821	19879.46
460.027	20207.14
460.233	19588.65
460.438	18775.61
460.644	18820.66
460.85	17995.33
461.055	17862.21
461.261	17608.26
461.466	16352.86
461.672	16117.34
461.878	16868.95
462.083	15898.21
462.289	15617.64
462.494	15425.13
462.7	14827.12
462.905	14347.9
463.111	14923.38
463.316	14734.96
463.522	14528.12
463.727	14511.74
463.932	14397.05
464.138	14458.49
464.343	14534.26
464.549	13997.7
464.754	14362.23
464.959	14628.47
465.165	14071.42
465.37	13807.23
465.575	13297.29
465.781	13821.57
465.986	14014.08
466.191	13528.71
466.397	13207.18
466.602	12480.15
466.807	13098.64
467.012	13043.34
467.218	12959.38
467.423	12705.43
