Data from USB4F104151__59__12-27-38-172.txt Node

Date: Fri Mar 14 12:27:38 EDT 2025
User: louis
Spectrometer: USB4F10415
Trigger mode: 4
Integration Time (sec): 2.000000E-2
Scans to average: 1
Electric dark correction enabled: true
Nonlinearity correction enabled: false
Boxcar width: 0
XAxis mode: Wavelengths
Number of Pixels in Spectrum: 3648
>>>>>Begin Spectral Data<<<<<
178.204	-130.39
178.424	-130.39
178.644	-130.39
178.864	-122.2
179.084	-140.63
179.304	-50.52
179.524	-48.47
179.744	47.79
179.964	29.35
180.184	4.78
180.404	12.97
180.624	-62.8
180.844	31.4
181.064	-23.89
181.283	41.64
181.503	-19.8
181.723	37.55
181.943	-99.67
182.163	27.31
182.383	21.16
182.602	-32.08
182.822	74.41
183.042	43.69
183.262	29.35
183.482	25.26
183.701	-19.8
183.921	-13.65
184.141	21.16
184.361	0.68
184.58	-15.7
184.8	-23.89
185.02	-11.61
185.239	25.26
185.459	41.64
185.679	35.5
185.898	-21.84
186.118	-21.84
186.338	23.21
186.557	0.68
186.777	-19.8
186.997	-21.84
187.216	8.87
187.436	-25.94
187.655	25.26
187.875	-3.41
188.095	21.16
188.314	76.46
188.534	4.78
188.753	19.11
188.973	60.07
189.192	6.83
189.412	49.83
189.631	-17.75
189.851	-48.47
190.07	25.26
190.29	-62.8
190.509	55.98
190.729	6.83
190.948	62.12
191.168	101.03
191.387	74.41
191.607	-5.46
191.826	0.68
192.045	29.35
192.265	15.02
192.484	-7.51
192.704	31.4
192.923	-13.65
193.142	39.59
193.362	35.5
193.581	12.97
193.8	41.64
194.02	4.78
194.239	-32.08
194.458	-30.04
194.678	-15.7
194.897	60.07
195.116	-30.04
195.335	15.02
195.555	58.03
195.774	-17.75
195.993	47.79
196.212	8.87
196.432	8.87
196.651	51.88
196.87	-60.76
197.089	-30.04
197.308	-38.23
197.528	76.46
197.747	-15.7
197.966	-79.19
198.185	15.02
198.404	15.02
198.623	-48.47
198.842	-9.56
199.062	33.45
199.281	27.31
199.5	62.12
199.719	-42.32
199.938	-17.75
200.157	101.03
200.376	64.17
200.595	-1.37
200.814	-68.95
201.033	49.83
201.252	80.55
201.471	-36.18
201.69	84.65
201.909	70.31
202.128	17.07
202.347	55.98
202.566	27.31
202.785	-5.46
203.004	39.59
203.223	39.59
203.442	70.31
203.661	-40.28
203.879	17.07
204.098	17.07
204.317	47.79
204.536	49.83
204.755	4.78
204.974	66.22
205.193	15.02
205.411	72.36
205.63	17.07
205.849	-30.04
206.068	-17.75
206.287	-1.37
206.505	-40.28
206.724	6.83
206.943	33.45
207.162	17.07
207.381	19.11
207.599	49.83
207.818	-36.18
208.037	4.78
208.255	-38.23
208.474	15.02
208.693	27.31
208.911	8.87
209.13	47.79
209.349	-50.52
209.567	29.35
209.786	45.74
210.005	53.93
210.223	-75.09
210.442	4.78
210.661	-7.51
210.879	60.07
211.098	0.68
211.316	45.74
211.535	23.21
211.753	74.41
211.972	80.55
212.191	-11.61
212.409	39.59
212.628	4.78
212.846	33.45
213.065	15.02
213.283	51.88
213.502	-54.61
213.72	0.68
213.938	-30.04
214.157	-34.13
214.375	15.02
214.594	-42.32
214.812	17.07
215.031	80.55
215.249	-3.41
215.467	-5.46
215.686	19.11
215.904	53.93
216.122	-48.47
216.341	90.79
216.559	43.69
216.778	33.45
216.996	-9.56
217.214	-23.89
217.432	-3.41
217.651	55.98
217.869	12.97
218.087	51.88
218.306	27.31
218.524	-75.09
218.742	-13.65
218.96	21.16
219.179	70.31
219.397	27.31
219.615	-23.89
219.833	19.11
220.051	29.35
220.27	19.11
220.488	-9.56
220.706	6.83
220.924	15.02
221.142	8.87
221.36	-11.61
221.578	-40.28
221.796	-32.08
222.015	0.68
222.233	-15.7
222.451	-1.37
222.669	19.11
222.887	27.31
223.105	-38.23
223.323	25.26
223.541	37.55
223.759	27.31
223.977	-15.7
224.195	68.27
224.413	29.35
224.631	-15.7
224.849	53.93
225.067	15.02
225.285	2.73
225.503	-48.47
225.721	-7.51
225.939	-17.75
226.157	19.11
226.375	23.21
226.592	17.07
226.81	-9.56
227.028	49.83
227.246	33.45
227.464	39.59
227.682	35.5
227.9	19.11
228.117	35.5
228.335	31.4
228.553	6.83
228.771	-11.61
228.989	29.35
229.206	58.03
229.424	27.31
229.642	-71
229.86	25.26
230.077	39.59
230.295	-15.7
230.513	33.45
230.731	45.74
230.948	10.92
231.166	35.5
231.384	33.45
231.601	17.07
231.819	58.03
232.037	-13.65
232.254	27.31
232.472	-5.46
232.689	-27.99
232.907	-30.04
233.125	15.02
233.342	-5.46
233.56	-48.47
233.777	4.78
233.995	-17.75
234.213	78.51
234.43	-23.89
234.648	15.02
234.865	33.45
235.083	31.4
235.3	17.07
235.518	8.87
235.735	27.31
235.953	35.5
236.17	-32.08
236.388	0.68
236.605	60.07
236.822	17.07
237.04	25.26
237.257	41.64
237.475	-66.9
237.692	47.79
237.909	53.93
238.127	-42.32
238.344	45.74
238.562	-75.09
238.779	-71
238.996	-1.37
239.214	-13.65
239.431	-34.13
239.648	-9.56
239.865	2.73
240.083	-66.9
240.3	33.45
240.517	55.98
240.735	51.88
240.952	19.11
241.169	19.11
241.386	2.73
241.603	-9.56
241.821	4.78
242.038	66.22
242.255	29.35
242.472	-17.75
242.689	78.51
242.907	31.4
243.124	-34.13
243.341	12.97
243.558	6.83
243.775	27.31
243.992	-1.37
244.209	60.07
244.426	-64.85
244.643	-56.66
244.86	12.97
245.078	15.02
245.295	90.79
245.512	33.45
245.729	-64.85
245.946	-3.41
246.163	-30.04
246.38	45.74
246.597	-3.41
246.814	-1.37
247.031	70.31
247.248	-1.37
247.464	-13.65
247.681	31.4
247.898	60.07
248.115	53.93
248.332	-46.42
248.549	17.07
248.766	43.69
248.983	29.35
249.2	-42.32
249.417	55.98
249.633	-23.89
249.85	31.4
250.067	64.17
250.284	19.11
250.501	19.11
250.717	94.89
250.934	23.21
251.151	-3.41
251.368	-54.61
251.585	-32.08
251.801	49.83
252.018	12.97
252.235	72.36
252.451	10.92
252.668	-23.89
252.885	-21.84
253.102	-32.08
253.318	31.4
253.535	84.65
253.752	23.21
253.968	12.97
254.185	25.26
254.401	-85.33
254.618	12.97
254.835	10.92
255.051	8.87
255.268	10.92
255.484	-36.18
255.701	-9.56
255.917	47.79
256.134	-56.66
256.351	-13.65
256.567	70.31
256.784	6.83
257	8.87
257.217	19.11
257.433	-11.61
257.65	37.55
257.866	43.69
258.082	-32.08
258.299	-11.61
258.515	17.07
258.732	15.02
258.948	2.73
259.165	-38.23
259.381	21.16
259.597	-34.13
259.814	2.73
260.03	-1.37
260.246	-13.65
260.463	23.21
260.679	-13.65
260.895	70.31
261.112	8.87
261.328	31.4
261.544	-7.51
261.761	19.11
261.977	45.74
262.193	-1.37
262.409	0.68
262.626	58.03
262.842	-48.47
263.058	37.55
263.274	-21.84
263.49	8.87
263.707	-40.28
263.923	39.59
264.139	31.4
264.355	-11.61
264.571	60.07
264.787	107.18
265.004	33.45
265.22	15.02
265.436	27.31
265.652	-27.99
265.868	35.5
266.084	23.21
266.3	-27.99
266.516	45.74
266.732	49.83
266.948	35.5
267.164	-23.89
267.38	62.12
267.596	27.31
267.812	51.88
268.028	-5.46
268.244	4.78
268.46	6.83
268.676	29.35
268.892	60.07
269.108	6.83
269.324	-15.7
269.54	-9.56
269.756	-32.08
269.972	31.4
270.188	25.26
270.403	-56.66
270.619	-21.84
270.835	-1.37
271.051	15.02
271.267	-38.23
271.483	12.97
271.698	64.17
271.914	-60.76
272.13	-30.04
272.346	17.07
272.562	94.89
272.777	25.26
272.993	31.4
273.209	-42.32
273.425	62.12
273.64	19.11
273.856	17.07
274.072	-15.7
274.287	-11.61
274.503	55.98
274.719	29.35
274.934	-42.32
275.15	-15.7
275.366	-1.37
275.581	-23.89
275.797	10.92
276.012	-48.47
276.228	-3.41
276.444	-13.65
276.659	-34.13
276.875	-66.9
277.09	86.7
277.306	90.79
277.521	96.94
277.737	-34.13
277.952	-21.84
278.168	64.17
278.383	29.35
278.599	68.27
278.814	8.87
279.03	-101.72
279.245	51.88
279.461	17.07
279.676	51.88
279.892	-27.99
280.107	-23.89
280.322	15.02
280.538	47.79
280.753	-23.89
280.969	-17.75
281.184	23.21
281.399	33.45
281.615	27.31
281.83	39.59
282.045	-48.47
282.26	15.02
282.476	23.21
282.691	35.5
282.906	-1.37
283.122	-5.46
283.337	35.5
283.552	-25.94
283.767	10.92
283.983	51.88
284.198	2.73
284.413	21.16
284.628	-7.51
284.843	55.98
285.058	53.93
285.274	35.5
285.489	72.36
285.704	72.36
285.919	-48.47
286.134	-13.65
286.349	-7.51
286.564	35.5
286.779	25.26
286.995	6.83
287.21	-15.7
287.425	15.02
287.64	-21.84
287.855	62.12
288.07	-34.13
288.285	35.5
288.5	68.27
288.715	70.31
288.93	25.26
289.145	35.5
289.36	10.92
289.575	-3.41
289.79	8.87
290.004	119.46
290.219	23.21
290.434	-7.51
290.649	-56.66
290.864	21.16
291.079	-42.32
291.294	55.98
291.509	41.64
291.724	4.78
291.938	27.31
292.153	39.59
292.368	64.17
292.583	0.68
292.798	68.27
293.012	37.55
293.227	43.69
293.442	6.83
293.657	33.45
293.871	41.64
294.086	62.12
294.301	88.75
294.516	-1.37
294.73	-9.56
294.945	-79.19
295.16	-13.65
295.374	49.83
295.589	25.26
295.804	27.31
296.018	2.73
296.233	12.97
296.447	33.45
296.662	-13.65
296.877	-68.95
297.091	19.11
297.306	-54.61
297.52	-19.8
297.735	-50.52
297.949	-58.71
298.164	55.98
298.378	2.73
298.593	-34.13
298.807	-44.37
299.022	45.74
299.236	21.16
299.451	-40.28
299.665	23.21
299.88	10.92
300.094	6.83
300.309	64.17
300.523	70.31
300.737	4.78
300.952	-25.94
301.166	41.64
301.381	62.12
301.595	17.07
301.809	39.59
302.024	15.02
302.238	17.07
302.452	60.07
302.667	-54.61
302.881	29.35
303.095	33.45
303.309	10.92
303.524	49.83
303.738	62.12
303.952	-19.8
304.166	15.02
304.381	-60.76
304.595	127.66
304.809	29.35
305.023	35.5
305.237	8.87
305.452	70.31
305.666	-17.75
305.88	60.07
306.094	-3.41
306.308	17.07
306.522	31.4
306.736	49.83
306.95	29.35
307.164	0.68
307.379	-15.7
307.593	72.36
307.807	58.03
308.021	29.35
308.235	-48.47
308.449	-42.32
308.663	53.93
308.877	33.45
309.091	15.02
309.305	92.84
309.519	10.92
309.733	78.51
309.947	37.55
310.161	-19.8
310.374	6.83
310.588	98.99
310.802	-13.65
311.016	-25.94
311.23	12.97
311.444	51.88
311.658	-21.84
311.872	17.07
312.085	74.41
312.299	15.02
312.513	53.93
312.727	41.64
312.941	39.59
313.154	51.88
313.368	39.59
313.582	29.35
313.796	35.5
314.009	15.02
314.223	39.59
314.437	2.73
314.651	76.46
314.864	-50.52
315.078	-25.94
315.292	-3.41
315.505	8.87
315.719	-30.04
315.933	-9.56
316.146	19.11
316.36	-9.56
316.573	29.35
316.787	-27.99
317.001	74.41
317.214	43.69
317.428	-3.41
317.641	21.16
317.855	-81.24
318.068	10.92
318.282	-27.99
318.495	86.7
318.709	-9.56
318.922	-27.99
319.136	119.46
319.349	21.16
319.563	31.4
319.776	41.64
319.99	-38.23
320.203	55.98
320.417	-32.08
320.63	27.31
320.843	94.89
321.057	51.88
321.27	21.16
321.483	39.59
321.697	15.02
321.91	74.41
322.124	94.89
322.337	43.69
322.55	25.26
322.763	4.78
322.977	27.31
323.19	60.07
323.403	-32.08
323.617	-17.75
323.83	12.97
324.043	-21.84
324.256	43.69
324.469	-1.37
324.683	41.64
324.896	17.07
325.109	25.26
325.322	2.73
325.535	17.07
325.748	70.31
325.962	62.12
326.175	-17.75
326.388	-9.56
326.601	4.78
326.814	76.46
327.027	17.07
327.24	31.4
327.453	4.78
327.666	47.79
327.879	31.4
328.092	6.83
328.305	6.83
328.518	21.16
328.731	23.21
328.944	21.16
329.157	74.41
329.37	70.31
329.583	33.45
329.796	103.08
330.009	37.55
330.222	101.03
330.435	-36.18
330.648	90.79
330.861	-3.41
331.073	33.45
331.286	-13.65
331.499	12.97
331.712	49.83
331.925	33.45
332.138	35.5
332.35	51.88
332.563	45.74
332.776	-30.04
332.989	0.68
333.202	19.11
333.414	21.16
333.627	68.27
333.84	12.97
334.053	31.4
334.265	39.59
334.478	-15.7
334.691	-38.23
334.903	90.79
335.116	-3.41
335.329	-40.28
335.541	2.73
335.754	35.5
335.966	-5.46
336.179	51.88
336.392	51.88
336.604	76.46
336.817	90.79
337.029	66.22
337.242	55.98
337.454	-15.7
337.667	12.97
337.88	41.64
338.092	62.12
338.305	33.45
338.517	-81.24
338.729	58.03
338.942	78.51
339.154	29.35
339.367	-40.28
339.579	68.27
339.792	19.11
340.004	64.17
340.217	51.88
340.429	62.12
340.641	-36.18
340.854	-23.89
341.066	-30.04
341.278	2.73
341.491	21.16
341.703	-40.28
341.915	15.02
342.128	53.93
342.34	27.31
342.552	37.55
342.764	17.07
342.977	-34.13
343.189	76.46
343.401	35.5
343.613	25.26
343.826	72.36
344.038	43.69
344.25	-5.46
344.462	58.03
344.674	-21.84
344.886	-32.08
345.099	51.88
345.311	2.73
345.523	-30.04
345.735	-17.75
345.947	-1.37
346.159	29.35
346.371	21.16
346.583	-13.65
346.795	19.11
347.007	-38.23
347.219	8.87
347.431	-23.89
347.643	92.84
347.855	15.02
348.067	25.26
348.279	8.87
348.491	49.83
348.703	62.12
348.915	0.68
349.127	4.78
349.339	29.35
349.551	-36.18
349.763	2.73
349.975	6.83
350.187	-11.61
350.399	51.88
350.61	58.03
350.822	4.78
351.034	74.41
351.246	37.55
351.458	111.27
351.669	49.83
351.881	10.92
352.093	-15.7
352.305	39.59
352.517	2.73
352.728	84.65
352.94	107.18
353.152	-27.99
353.363	-30.04
353.575	25.26
353.787	68.27
353.999	121.51
354.21	66.22
354.422	0.68
354.633	49.83
354.845	35.5
355.057	47.79
355.268	-3.41
355.48	19.11
355.692	41.64
355.903	-11.61
356.115	23.21
356.326	12.97
356.538	62.12
356.749	64.17
356.961	6.83
357.172	111.27
357.384	45.74
357.595	74.41
357.807	-11.61
358.018	117.42
358.23	33.45
358.441	86.7
358.653	88.75
358.864	29.35
359.075	4.78
359.287	31.4
359.498	74.41
359.709	58.03
359.921	2.73
360.132	4.78
360.344	6.83
360.555	-40.28
360.766	-19.8
360.977	-40.28
361.189	-34.13
361.4	41.64
361.611	68.27
361.823	21.16
362.034	25.26
362.245	43.69
362.456	66.22
362.667	58.03
362.879	8.87
363.09	47.79
363.301	-38.23
363.512	43.69
363.723	35.5
363.935	33.45
364.146	-23.89
364.357	6.83
364.568	88.75
364.779	0.68
364.99	98.99
365.201	-9.56
365.412	33.45
365.623	15.02
365.834	-34.13
366.045	25.26
366.256	55.98
366.467	68.27
366.678	37.55
366.889	82.6
367.1	0.68
367.311	17.07
367.522	17.07
367.733	35.5
367.944	72.36
368.155	-32.08
368.366	-23.89
368.577	82.6
368.788	35.5
368.999	35.5
369.209	4.78
369.42	47.79
369.631	51.88
369.842	15.02
370.053	0.68
370.264	51.88
370.474	29.35
370.685	72.36
370.896	-7.51
371.107	74.41
371.317	-9.56
371.528	51.88
371.739	-23.89
371.95	17.07
372.16	-17.75
372.371	-3.41
372.582	19.11
372.792	8.87
373.003	-19.8
373.214	92.84
373.424	25.26
373.635	-5.46
373.846	64.17
374.056	88.75
374.267	-34.13
374.477	62.12
374.688	-34.13
374.898	39.59
375.109	35.5
375.319	109.23
375.53	-27.99
375.74	4.78
375.951	45.74
376.161	19.11
376.372	51.88
376.582	17.07
376.793	103.08
377.003	29.35
377.214	41.64
377.424	37.55
377.635	49.83
377.845	0.68
378.055	35.5
378.266	12.97
378.476	27.31
378.686	15.02
378.897	0.68
379.107	41.64
379.317	19.11
379.528	-1.37
379.738	60.07
379.948	8.87
380.158	23.21
380.369	43.69
380.579	70.31
380.789	-11.61
380.999	17.07
381.21	119.46
381.42	103.08
381.63	53.93
381.84	80.55
382.05	109.23
382.261	74.41
382.471	82.6
382.681	41.64
382.891	55.98
383.101	6.83
383.311	4.78
383.521	4.78
383.731	58.03
383.941	82.6
384.151	58.03
384.361	45.74
384.571	-21.84
384.781	41.64
384.991	70.31
385.201	68.27
385.411	111.27
385.621	51.88
385.831	41.64
386.041	78.51
386.251	58.03
386.461	55.98
386.671	8.87
386.881	70.31
387.091	-23.89
387.301	98.99
387.511	25.26
387.72	72.36
387.93	107.18
388.14	12.97
388.35	-42.32
388.56	92.84
388.769	19.11
388.979	88.75
389.189	15.02
389.399	-21.84
389.609	64.17
389.818	55.98
390.028	84.65
390.238	27.31
390.447	25.26
390.657	49.83
390.867	62.12
391.076	88.75
391.286	74.41
391.496	25.26
391.705	64.17
391.915	103.08
392.125	31.4
392.334	51.88
392.544	72.36
392.753	101.03
392.963	129.7
393.172	15.02
393.382	55.98
393.591	103.08
393.801	10.92
394.01	107.18
394.22	45.74
394.429	74.41
394.639	47.79
394.848	94.89
395.058	-1.37
395.267	2.73
395.477	45.74
395.686	96.94
395.895	117.42
396.105	80.55
396.314	84.65
396.524	62.12
396.733	60.07
396.942	82.6
397.152	66.22
397.361	66.22
397.57	6.83
397.78	43.69
397.989	25.26
398.198	68.27
398.407	70.31
398.617	88.75
398.826	105.13
399.035	92.84
399.244	148.14
399.453	111.27
399.663	139.94
399.872	123.56
400.081	4.78
400.29	121.51
400.499	98.99
400.708	146.09
400.917	84.65
401.127	94.89
401.336	115.37
401.545	105.13
401.754	154.28
401.963	58.03
402.172	125.61
402.381	152.23
402.59	144.04
402.799	109.23
403.008	86.7
403.217	127.66
403.426	148.14
403.635	88.75
403.844	113.32
404.053	141.99
404.262	78.51
404.471	107.18
404.68	88.75
404.888	109.23
405.097	115.37
405.306	41.64
405.515	182.95
405.724	133.8
405.933	144.04
406.142	144.04
406.35	178.86
406.559	203.43
406.768	119.46
406.977	166.57
407.185	211.62
407.394	211.62
407.603	141.99
407.812	209.58
408.02	203.43
408.229	133.8
408.438	187.05
408.646	217.77
408.855	189.1
409.064	242.34
409.272	199.34
409.481	236.2
409.69	211.62
409.898	219.82
410.107	248.49
410.315	314.02
410.524	256.68
410.733	219.82
410.941	305.83
411.15	287.4
411.358	338.6
411.567	330.41
411.775	314.02
411.984	371.37
412.192	309.93
412.401	371.37
412.609	447.14
412.818	481.96
413.026	397.99
413.234	391.84
413.443	471.72
413.651	492.2
413.86	502.44
414.068	551.59
414.276	578.21
414.485	516.77
414.693	555.68
414.901	645.79
415.11	627.36
415.318	707.23
415.526	656.03
415.734	721.57
415.943	664.22
416.151	774.81
416.359	780.96
416.567	834.21
416.776	828.06
416.984	834.21
417.192	905.88
417.4	938.65
417.608	866.97
417.817	887.45
418.025	866.97
418.233	965.28
418.441	1032.86
418.649	1096.35
418.857	1122.97
419.065	1096.35
419.273	1036.95
419.481	1245.85
419.689	1241.75
419.897	1325.72
420.105	1440.4
420.313	1387.16
420.521	1565.33
420.729	1479.32
420.937	1460.88
421.145	1579.67
421.353	1702.54
421.561	1784.46
421.769	1725.07
421.977	1782.42
422.185	1806.99
422.393	1909.39
422.601	2120.33
422.809	2105.99
423.017	2003.6
423.224	2171.53
423.432	2157.19
423.64	2210.44
423.848	2323.08
424.056	2407.05
424.263	2484.87
424.471	2501.25
424.679	2581.12
424.887	2773.63
425.094	2775.68
425.302	2835.07
425.51	2863.74
425.718	3168.89
425.925	3089.02
426.133	3179.13
426.341	3418.74
426.548	3455.61
426.756	3410.55
426.964	3627.64
427.171	3576.44
427.379	3875.44
427.586	3773.04
427.794	4043.37
428.001	4131.44
428.209	4342.38
428.417	4272.75
428.624	4553.32
428.832	4528.74
429.039	4639.33
429.247	4590.18
429.454	5059.17
429.662	5309.02
429.869	5063.26
430.076	5479
430.284	5259.87
430.491	5499.48
430.699	5859.92
430.906	5751.38
431.114	5841.49
431.321	6191.69
431.528	6240.84
431.736	6482.5
431.943	6939.2
432.15	6750.79
432.358	6810.18
432.565	7422.52
432.772	7133.76
432.979	7547.45
433.187	7422.52
433.394	7739.96
433.601	8284.72
433.808	8133.17
434.016	8284.72
434.223	8614.44
434.43	9177.63
434.637	8759.85
434.844	9294.36
435.052	9718.29
435.259	9435.67
435.466	9542.17
435.673	9413.15
435.88	10304.01
436.087	10656.26
436.294	10734.09
436.501	10439.18
436.708	10580.49
436.915	11348.48
437.122	11364.86
437.329	11346.43
437.537	11872.76
437.743	12040.69
437.95	11964.92
438.157	12599.79
438.364	12890.6
438.571	13070.82
438.778	12913.13
438.985	14227.92
439.192	13728.22
439.399	14240.21
439.606	13922.77
439.813	14903.75
440.02	15598.01
440.227	15303.11
440.433	15151.56
440.64	15610.3
440.847	15622.59
441.054	16064.95
441.261	16869.8
441.467	16613.81
441.674	17115.56
441.881	17856.92
442.088	17822.11
442.294	17674.65
442.501	18084.25
442.708	18536.85
442.914	19120.52
443.121	19913.08
443.328	19470.72
443.534	20840.81
443.741	20134.26
443.948	20093.3
444.154	21367.14
444.361	21246.31
444.568	21465.44
444.774	21334.37
444.981	21418.34
445.187	22370.65
445.394	23480.64
445.6	22872.4
445.807	25057.58
446.013	24105.27
446.22	24279.35
446.426	25542.95
446.633	25702.69
446.839	26765.59
447.046	25708.83
447.252	26784.02
447.459	26910.99
447.665	26700.05
447.871	28231.93
448.078	29513.96
448.284	28029.18
448.491	28786.93
448.697	29790.44
448.903	30200.03
449.11	30417.11
449.316	29800.68
449.522	30578.9
449.728	31559.88
449.935	31496.39
450.141	31316.17
450.347	32489.66
450.553	31047.89
450.76	31785.16
450.966	32643.26
451.172	32538.81
451.378	33605.8
451.584	32493.75
451.791	33530.03
451.997	33161.39
452.203	33579.18
452.409	33869.99
452.615	33423.53
452.821	32518.33
453.027	32184.51
453.233	33779.88
453.44	32327.87
453.646	32907.44
453.852	33013.94
454.058	33382.57
454.264	32876.72
454.47	32968.88
454.676	32331.97
454.882	33734.82
455.088	30613.72
455.294	30914.77
455.5	31707.33
455.705	31793.35
455.911	31004.88
456.117	30238.94
456.323	29698.28
456.529	28231.93
456.735	29481.19
456.941	28578.04
457.147	28125.44
457.352	27357.45
457.558	27158.8
457.764	27005.2
457.97	26337.56
458.176	25774.37
458.381	25755.94
458.587	24738.1
458.793	24707.38
458.999	23271.75
459.204	25121.07
459.41	24232.25
459.616	22839.63
459.821	22917.45
460.027	22485.33
460.233	22065.5
460.438	21047.66
460.644	21510.5
460.85	20332.92
461.055	20003.19
461.261	19976.57
461.466	18516.37
461.672	17877.4
461.878	19175.81
462.083	17621.41
462.289	17686.94
462.494	17562.01
462.7	16748.97
462.905	16423.34
463.111	16953.77
463.316	16619.95
463.522	16527.79
463.727	16574.89
463.932	16607.66
464.138	16279.99
464.343	16470.45
464.549	15972.79
464.754	16511.41
464.959	16175.54
465.165	16136.63
465.37	15458.75
465.575	15184.32
465.781	15854.01
465.986	15882.68
466.191	15106.5
466.397	14963.14
466.602	14189.01
466.807	14744.01
467.012	14639.56
467.218	14571.98
