Data from USB4F104151__55__12-27-34-973.txt Node

Date: Fri Mar 14 12:27:34 EDT 2025
User: louis
Spectrometer: USB4F10415
Trigger mode: 4
Integration Time (sec): 2.000000E-2
Scans to average: 1
Electric dark correction enabled: true
Nonlinearity correction enabled: false
Boxcar width: 0
XAxis mode: Wavelengths
Number of Pixels in Spectrum: 3648
>>>>>Begin Spectral Data<<<<<
178.204	-159.4
178.424	-159.4
178.644	-159.4
178.864	-26.28
179.084	-71.34
179.304	41.3
179.524	2.39
179.744	-28.33
179.964	33.11
180.184	74.07
180.404	12.63
180.624	-73.39
180.844	55.64
181.064	-71.34
181.283	-20.14
181.503	-11.95
181.723	-13.99
181.943	-7.85
182.163	-20.14
182.383	98.64
182.602	117.08
182.822	78.16
183.042	88.4
183.262	2.39
183.482	35.16
183.701	8.53
183.921	37.2
184.141	22.87
184.361	-13.99
184.58	-16.04
184.8	-9.9
185.02	-3.75
185.239	-77.48
185.459	49.49
185.679	37.2
185.898	-50.86
186.118	14.68
186.338	86.36
186.557	-32.43
186.777	0.34
186.997	-28.33
187.216	65.88
187.436	47.44
187.655	18.77
187.875	-11.95
188.095	2.39
188.314	16.73
188.534	22.87
188.753	86.36
188.973	4.44
189.192	90.45
189.412	33.11
189.631	53.59
189.851	98.64
190.07	0.34
190.29	-32.43
190.509	-18.09
190.729	20.82
190.948	59.73
191.168	168.27
191.387	47.44
191.607	-44.71
191.826	29.01
192.045	63.83
192.265	35.16
192.484	41.3
192.704	-11.95
192.923	0.34
193.142	98.64
193.362	18.77
193.581	31.06
193.8	4.44
194.02	65.88
194.239	47.44
194.458	-50.86
194.678	63.83
194.897	-61.1
195.116	119.12
195.335	106.84
195.555	63.83
195.774	4.44
195.993	22.87
196.212	-34.47
196.432	12.63
196.651	-34.47
196.87	67.92
197.089	69.97
197.308	78.16
197.528	86.36
197.747	4.44
197.966	53.59
198.185	82.26
198.404	47.44
198.623	108.88
198.842	22.87
199.062	82.26
199.281	-100.01
199.5	-9.9
199.719	-3.75
199.938	45.4
200.157	67.92
200.376	31.06
200.595	29.01
200.814	33.11
201.033	31.06
201.252	37.2
201.471	74.07
201.69	90.45
201.909	80.21
202.128	33.11
202.347	90.45
202.566	104.79
202.785	-44.71
203.004	59.73
203.223	57.68
203.442	2.39
203.661	53.59
203.879	39.25
204.098	45.4
204.317	-11.95
204.536	12.63
204.755	-11.95
204.974	59.73
205.193	94.55
205.411	-22.19
205.63	33.11
205.849	63.83
206.068	37.2
206.287	43.35
206.505	43.35
206.724	63.83
206.943	24.92
207.162	0.34
207.381	6.49
207.599	10.58
207.818	35.16
208.037	67.92
208.255	57.68
208.474	22.87
208.693	110.93
208.911	63.83
209.13	2.39
209.349	-18.09
209.567	37.2
209.786	63.83
210.005	26.96
210.223	67.92
210.442	37.2
210.661	31.06
210.879	-22.19
211.098	57.68
211.316	74.07
211.535	100.69
211.753	88.4
211.972	18.77
212.191	43.35
212.409	67.92
212.628	86.36
212.846	20.82
213.065	61.78
213.283	35.16
213.502	2.39
213.72	45.4
213.938	-11.95
214.157	53.59
214.375	49.49
214.594	24.92
214.812	39.25
215.031	59.73
215.249	-16.04
215.467	6.49
215.686	31.06
215.904	43.35
216.122	0.34
216.341	84.31
216.559	-9.9
216.778	-11.95
216.996	78.16
217.214	-18.09
217.432	-28.33
217.651	-18.09
217.869	33.11
218.087	76.12
218.306	18.77
218.524	41.3
218.742	-54.95
218.96	43.35
219.179	35.16
219.397	-16.04
219.615	45.4
219.833	-28.33
220.051	35.16
220.27	57.68
220.488	141.65
220.706	37.2
220.924	41.3
221.142	35.16
221.36	2.39
221.578	55.64
221.796	24.92
222.015	14.68
222.233	-16.04
222.451	51.54
222.669	20.82
222.887	35.16
223.105	-20.14
223.323	43.35
223.541	-11.95
223.759	39.25
223.977	-61.1
224.195	4.44
224.413	-38.57
224.631	33.11
224.849	24.92
225.067	35.16
225.285	14.68
225.503	-1.71
225.721	10.58
225.939	-13.99
226.157	-44.71
226.375	57.68
226.592	29.01
226.81	49.49
227.028	53.59
227.246	86.36
227.464	-20.14
227.682	94.55
227.9	57.68
228.117	72.02
228.335	59.73
228.553	22.87
228.771	76.12
228.989	-5.8
229.206	2.39
229.424	47.44
229.642	2.39
229.86	0.34
230.077	65.88
230.295	-5.8
230.513	108.88
230.731	63.83
230.948	18.77
231.166	108.88
231.384	22.87
231.601	20.82
231.819	45.4
232.037	49.49
232.254	-1.71
232.472	65.88
232.689	29.01
232.907	14.68
233.125	-13.99
233.342	31.06
233.56	49.49
233.777	119.12
233.995	16.73
234.213	37.2
234.43	2.39
234.648	26.96
234.865	14.68
235.083	-1.71
235.3	-11.95
235.518	22.87
235.735	43.35
235.953	16.73
236.17	-13.99
236.388	43.35
236.605	14.68
236.822	37.2
237.04	51.54
237.257	-1.71
237.475	6.49
237.692	51.54
237.909	-59.05
238.127	-7.85
238.344	-3.75
238.562	63.83
238.779	-30.38
238.996	-16.04
239.214	69.97
239.431	37.2
239.648	0.34
239.865	-7.85
240.083	57.68
240.3	57.68
240.517	-54.95
240.735	125.27
240.952	69.97
241.169	16.73
241.386	10.58
241.603	-13.99
241.821	-24.23
242.038	14.68
242.255	-36.52
242.472	-38.57
242.689	24.92
242.907	6.49
243.124	35.16
243.341	86.36
243.558	-46.76
243.775	41.3
243.992	41.3
244.209	10.58
244.426	65.88
244.643	26.96
244.86	24.92
245.078	41.3
245.295	84.31
245.512	88.4
245.729	-38.57
245.946	55.64
246.163	69.97
246.38	-11.95
246.597	-3.75
246.814	88.4
247.031	20.82
247.248	78.16
247.464	47.44
247.681	-1.71
247.898	-24.23
248.115	43.35
248.332	-9.9
248.549	-42.67
248.766	78.16
248.983	33.11
249.2	29.01
249.417	61.78
249.633	63.83
249.85	49.49
250.067	-59.05
250.284	96.6
250.501	-16.04
250.717	22.87
250.934	2.39
251.151	0.34
251.368	12.63
251.585	26.96
251.801	0.34
252.018	-13.99
252.235	55.64
252.451	16.73
252.668	84.31
252.885	16.73
253.102	78.16
253.318	84.31
253.535	8.53
253.752	10.58
253.968	59.73
254.185	6.49
254.401	-28.33
254.618	72.02
254.835	65.88
255.051	12.63
255.268	61.78
255.484	72.02
255.701	2.39
255.917	-42.67
256.134	-24.23
256.351	2.39
256.567	18.77
256.784	-3.75
257	-7.85
257.217	4.44
257.433	16.73
257.65	-11.95
257.866	121.17
258.082	49.49
258.299	-13.99
258.515	78.16
258.732	39.25
258.948	26.96
259.165	57.68
259.381	2.39
259.597	72.02
259.814	59.73
260.03	47.44
260.246	41.3
260.463	39.25
260.679	61.78
260.895	33.11
261.112	61.78
261.328	-11.95
261.544	14.68
261.761	131.41
261.977	4.44
262.193	-38.57
262.409	82.26
262.626	72.02
262.842	53.59
263.058	-36.52
263.274	47.44
263.49	12.63
263.707	35.16
263.923	4.44
264.139	-22.19
264.355	18.77
264.571	129.36
264.787	2.39
265.004	33.11
265.22	-9.9
265.436	8.53
265.652	-11.95
265.868	-1.71
266.084	106.84
266.3	-11.95
266.516	33.11
266.732	0.34
266.948	57.68
267.164	24.92
267.38	63.83
267.596	72.02
267.812	98.64
268.028	-28.33
268.244	20.82
268.46	57.68
268.676	20.82
268.892	12.63
269.108	-13.99
269.324	51.54
269.54	8.53
269.756	45.4
269.972	-22.19
270.188	59.73
270.403	45.4
270.619	-20.14
270.835	76.12
271.051	-36.52
271.267	-7.85
271.483	20.82
271.698	84.31
271.914	24.92
272.13	-7.85
272.346	37.2
272.562	55.64
272.777	-3.75
272.993	20.82
273.209	102.74
273.425	16.73
273.64	-13.99
273.856	39.25
274.072	80.21
274.287	37.2
274.503	65.88
274.719	14.68
274.934	18.77
275.15	2.39
275.366	29.01
275.581	6.49
275.797	26.96
276.012	57.68
276.228	-34.47
276.444	78.16
276.659	-24.23
276.875	-16.04
277.09	18.77
277.306	51.54
277.521	14.68
277.737	37.2
277.952	14.68
278.168	-1.71
278.383	-24.23
278.599	-28.33
278.814	-18.09
279.03	-24.23
279.245	72.02
279.461	22.87
279.676	14.68
279.892	26.96
280.107	22.87
280.322	-16.04
280.538	-28.33
280.753	-22.19
280.969	49.49
281.184	-18.09
281.399	45.4
281.615	37.2
281.83	80.21
282.045	-59.05
282.26	-75.43
282.476	8.53
282.691	35.16
282.906	88.4
283.122	78.16
283.337	65.88
283.552	88.4
283.767	-32.43
283.983	57.68
284.198	10.58
284.413	57.68
284.628	-1.71
284.843	39.25
285.058	22.87
285.274	12.63
285.489	94.55
285.704	129.36
285.919	20.82
286.134	39.25
286.349	100.69
286.564	26.96
286.779	53.59
286.995	2.39
287.21	53.59
287.425	-28.33
287.64	-48.81
287.855	82.26
288.07	12.63
288.285	92.5
288.5	57.68
288.715	39.25
288.93	18.77
289.145	16.73
289.36	35.16
289.575	117.08
289.79	69.97
290.004	53.59
290.219	51.54
290.434	96.6
290.649	37.2
290.864	8.53
291.079	26.96
291.294	86.36
291.509	67.92
291.724	-11.95
291.938	88.4
292.153	51.54
292.368	22.87
292.583	90.45
292.798	14.68
293.012	69.97
293.227	-5.8
293.442	-30.38
293.657	41.3
293.871	39.25
294.086	121.17
294.301	2.39
294.516	55.64
294.73	43.35
294.945	-3.75
295.16	104.79
295.374	57.68
295.589	45.4
295.804	-5.8
296.018	47.44
296.233	100.69
296.447	22.87
296.662	26.96
296.877	47.44
297.091	39.25
297.306	74.07
297.52	53.59
297.735	35.16
297.949	-57
298.164	4.44
298.378	80.21
298.593	10.58
298.807	-3.75
299.022	22.87
299.236	43.35
299.451	22.87
299.665	29.01
299.88	31.06
300.094	6.49
300.309	-34.47
300.523	22.87
300.737	57.68
300.952	0.34
301.166	-46.76
301.381	12.63
301.595	29.01
301.809	14.68
302.024	43.35
302.238	20.82
302.452	151.89
302.667	24.92
302.881	76.12
303.095	-1.71
303.309	35.16
303.524	43.35
303.738	8.53
303.952	31.06
304.166	162.13
304.381	-11.95
304.595	57.68
304.809	119.12
305.023	37.2
305.237	-7.85
305.452	-3.75
305.666	45.4
305.88	-30.38
306.094	69.97
306.308	0.34
306.522	8.53
306.736	80.21
306.95	96.6
307.164	-5.8
307.379	37.2
307.593	86.36
307.807	74.07
308.021	100.69
308.235	4.44
308.449	-18.09
308.663	-11.95
308.877	143.7
309.091	53.59
309.305	74.07
309.519	18.77
309.733	26.96
309.947	-32.43
310.161	76.12
310.374	-20.14
310.588	100.69
310.802	14.68
311.016	29.01
311.23	-18.09
311.444	2.39
311.658	29.01
311.872	20.82
312.085	67.92
312.299	-16.04
312.513	-18.09
312.727	86.36
312.941	51.54
313.154	69.97
313.368	-36.52
313.582	-20.14
313.796	-1.71
314.009	53.59
314.223	20.82
314.437	51.54
314.651	53.59
314.864	51.54
315.078	67.92
315.292	29.01
315.505	41.3
315.719	16.73
315.933	37.2
316.146	24.92
316.36	78.16
316.573	80.21
316.787	45.4
317.001	-13.99
317.214	22.87
317.428	-5.8
317.641	67.92
317.855	10.58
318.068	143.7
318.282	55.64
318.495	131.41
318.709	-1.71
318.922	51.54
319.136	119.12
319.349	106.84
319.563	35.16
319.776	98.64
319.99	-75.43
320.203	57.68
320.417	33.11
320.63	57.68
320.843	-38.57
321.057	115.03
321.27	63.83
321.483	69.97
321.697	57.68
321.91	92.5
322.124	84.31
322.337	26.96
322.55	45.4
322.763	22.87
322.977	-40.62
323.19	37.2
323.403	-13.99
323.617	-38.57
323.83	20.82
324.043	82.26
324.256	26.96
324.469	102.74
324.683	102.74
324.896	16.73
325.109	49.49
325.322	31.06
325.535	41.3
325.748	96.6
325.962	41.3
326.175	145.75
326.388	90.45
326.601	69.97
326.814	96.6
327.027	57.68
327.24	61.78
327.453	59.73
327.666	63.83
327.879	88.4
328.092	10.58
328.305	29.01
328.518	-7.85
328.731	14.68
328.944	6.49
329.157	43.35
329.37	16.73
329.583	69.97
329.796	84.31
330.009	57.68
330.222	22.87
330.435	49.49
330.648	33.11
330.861	37.2
331.073	63.83
331.286	16.73
331.499	53.59
331.712	-69.29
331.925	-30.38
332.138	39.25
332.35	102.74
332.563	-1.71
332.776	22.87
332.989	22.87
333.202	12.63
333.414	-1.71
333.627	29.01
333.84	26.96
334.053	47.44
334.265	-18.09
334.478	43.35
334.691	12.63
334.903	6.49
335.116	24.92
335.329	86.36
335.541	37.2
335.754	119.12
335.966	-18.09
336.179	39.25
336.392	8.53
336.604	26.96
336.817	29.01
337.029	-5.8
337.242	6.49
337.454	86.36
337.667	65.88
337.88	69.97
338.092	88.4
338.305	57.68
338.517	96.6
338.729	37.2
338.942	65.88
339.154	-1.71
339.367	49.49
339.579	65.88
339.792	-42.67
340.004	16.73
340.217	88.4
340.429	37.2
340.641	29.01
340.854	80.21
341.066	41.3
341.278	84.31
341.491	102.74
341.703	33.11
341.915	61.78
342.128	37.2
342.34	22.87
342.552	16.73
342.764	12.63
342.977	6.49
343.189	29.01
343.401	35.16
343.613	-9.9
343.826	84.31
344.038	-5.8
344.25	43.35
344.462	33.11
344.674	41.3
344.886	6.49
345.099	-3.75
345.311	22.87
345.523	69.97
345.735	-42.67
345.947	108.88
346.159	22.87
346.371	100.69
346.583	22.87
346.795	69.97
347.007	59.73
347.219	24.92
347.431	29.01
347.643	57.68
347.855	39.25
348.067	22.87
348.279	-9.9
348.491	16.73
348.703	-13.99
348.915	18.77
349.127	51.54
349.339	24.92
349.551	16.73
349.763	115.03
349.975	72.02
350.187	82.26
350.399	10.58
350.61	76.12
350.822	39.25
351.034	4.44
351.246	45.4
351.458	76.12
351.669	59.73
351.881	59.73
352.093	24.92
352.305	-9.9
352.517	47.44
352.728	63.83
352.94	47.44
353.152	47.44
353.363	35.16
353.575	135.51
353.787	63.83
353.999	49.49
354.21	31.06
354.422	-32.43
354.633	31.06
354.845	14.68
355.057	67.92
355.268	65.88
355.48	37.2
355.692	16.73
355.903	80.21
356.115	-3.75
356.326	24.92
356.538	57.68
356.749	51.54
356.961	98.64
357.172	4.44
357.384	49.49
357.595	51.54
357.807	84.31
358.018	22.87
358.23	90.45
358.441	-13.99
358.653	43.35
358.864	92.5
359.075	4.44
359.287	112.98
359.498	55.64
359.709	20.82
359.921	26.96
360.132	47.44
360.344	100.69
360.555	100.69
360.766	59.73
360.977	-18.09
361.189	18.77
361.4	49.49
361.611	106.84
361.823	115.03
362.034	-3.75
362.245	84.31
362.456	57.68
362.667	47.44
362.879	47.44
363.09	63.83
363.301	74.07
363.512	6.49
363.723	63.83
363.935	98.64
364.146	90.45
364.357	-16.04
364.568	112.98
364.779	33.11
364.99	63.83
365.201	24.92
365.412	41.3
365.623	31.06
365.834	57.68
366.045	57.68
366.256	108.88
366.467	-20.14
366.678	78.16
366.889	82.26
367.1	49.49
367.311	108.88
367.522	29.01
367.733	24.92
367.944	43.35
368.155	37.2
368.366	133.46
368.577	45.4
368.788	98.64
368.999	-3.75
369.209	108.88
369.42	18.77
369.631	104.79
369.842	10.58
370.053	67.92
370.264	35.16
370.474	0.34
370.685	33.11
370.896	39.25
371.107	57.68
371.317	67.92
371.528	6.49
371.739	49.49
371.95	55.64
372.16	82.26
372.371	-30.38
372.582	35.16
372.792	51.54
373.003	96.6
373.214	162.13
373.424	102.74
373.635	-1.71
373.846	100.69
374.056	76.12
374.267	98.64
374.477	49.49
374.688	18.77
374.898	53.59
375.109	22.87
375.319	74.07
375.53	82.26
375.74	53.59
375.951	-26.28
376.161	59.73
376.372	59.73
376.582	6.49
376.793	-46.76
377.003	74.07
377.214	2.39
377.424	61.78
377.635	45.4
377.845	72.02
378.055	41.3
378.266	20.82
378.476	100.69
378.686	6.49
378.897	6.49
379.107	-1.71
379.317	43.35
379.528	18.77
379.738	57.68
379.948	67.92
380.158	94.55
380.369	31.06
380.579	49.49
380.789	47.44
380.999	49.49
381.21	72.02
381.42	94.55
381.63	112.98
381.84	37.2
382.05	61.78
382.261	63.83
382.471	39.25
382.681	-13.99
382.891	61.78
383.101	78.16
383.311	110.93
383.521	-38.57
383.731	22.87
383.941	43.35
384.151	-3.75
384.361	43.35
384.571	55.64
384.781	63.83
384.991	82.26
385.201	121.17
385.411	45.4
385.621	-20.14
385.831	67.92
386.041	37.2
386.251	102.74
386.461	12.63
386.671	47.44
386.881	37.2
387.091	57.68
387.301	129.36
387.511	82.26
387.72	51.54
387.93	45.4
388.14	94.55
388.35	80.21
388.56	55.64
388.769	41.3
388.979	82.26
389.189	-3.75
389.399	22.87
389.609	78.16
389.818	24.92
390.028	102.74
390.238	-24.23
390.447	43.35
390.657	78.16
390.867	78.16
391.076	65.88
391.286	29.01
391.496	22.87
391.705	35.16
391.915	33.11
392.125	104.79
392.334	45.4
392.544	6.49
392.753	100.69
392.963	92.5
393.172	94.55
393.382	39.25
393.591	110.93
393.801	108.88
394.01	108.88
394.22	12.63
394.429	57.68
394.639	110.93
394.848	51.54
395.058	49.49
395.267	100.69
395.477	74.07
395.686	84.31
395.895	123.22
396.105	135.51
396.314	53.59
396.524	63.83
396.733	55.64
396.942	108.88
397.152	39.25
397.361	78.16
397.57	78.16
397.78	49.49
397.989	-9.9
398.198	145.75
398.407	110.93
398.617	67.92
398.826	72.02
399.035	108.88
399.244	26.96
399.453	92.5
399.663	94.55
399.872	55.64
400.081	96.6
400.29	55.64
400.499	94.55
400.708	158.03
400.917	69.97
401.127	123.22
401.336	59.73
401.545	102.74
401.754	104.79
401.963	162.13
402.172	37.2
402.381	166.23
402.59	96.6
402.799	69.97
403.008	92.5
403.217	92.5
403.426	162.13
403.635	110.93
403.844	92.5
404.053	176.47
404.262	76.12
404.471	170.32
404.68	98.64
404.888	129.36
405.097	102.74
405.306	137.56
405.515	104.79
405.724	90.45
405.933	69.97
406.142	123.22
406.35	201.04
406.559	117.08
406.768	137.56
406.977	166.23
407.185	110.93
407.394	172.37
407.603	133.46
407.812	221.52
408.02	213.33
408.229	143.7
408.438	149.84
408.646	123.22
408.855	135.51
409.064	155.99
409.272	178.51
409.481	231.76
409.69	172.37
409.898	170.32
410.107	194.9
410.315	215.38
410.524	242
410.733	168.27
410.941	242
411.15	276.82
411.358	321.87
411.567	239.95
411.775	239.95
411.984	274.77
412.192	313.68
412.401	276.82
412.609	373.07
412.818	336.21
413.026	375.12
413.234	348.5
413.443	399.7
413.651	401.74
413.86	364.88
414.068	502.09
414.276	483.66
414.485	430.41
414.693	498
414.901	559.44
415.11	409.94
415.318	491.85
415.526	516.43
415.734	561.48
415.943	614.73
416.151	606.54
416.359	618.83
416.567	631.12
416.776	639.31
416.984	710.99
417.192	678.22
417.4	684.36
417.608	670.03
417.817	829.77
418.025	764.23
418.233	831.82
418.441	815.43
418.649	815.43
418.857	905.54
419.065	921.93
419.273	969.03
419.481	928.07
419.689	971.08
419.897	1161.54
420.105	1093.96
420.313	1100.1
420.521	1126.72
420.729	1177.92
420.937	1167.68
421.145	1198.4
421.353	1370.43
421.561	1388.86
421.769	1501.5
421.977	1421.63
422.185	1376.58
422.393	1661.24
422.601	1550.65
422.809	1464.64
423.017	1560.89
423.224	1687.87
423.432	1804.6
423.64	1782.07
423.848	1931.58
424.056	1954.1
424.263	1986.87
424.471	1995.06
424.679	2017.59
424.887	2117.94
425.094	2259.25
425.302	2402.61
425.51	2455.86
425.718	2312.5
425.925	2312.5
426.133	2513.2
426.341	2613.55
426.548	2787.63
426.756	2804.01
426.964	2793.77
427.171	2988.33
427.379	3066.15
427.586	3021.1
427.794	3223.84
428.001	3346.72
428.209	3488.03
428.417	3410.21
428.624	3752.22
428.832	3649.82
429.039	3655.97
429.247	3741.98
429.454	4108.57
429.662	4243.73
429.869	4040.98
430.076	4376.85
430.284	4172.05
430.491	4243.73
430.699	4602.13
430.906	4520.21
431.114	4612.37
431.321	4780.3
431.528	5019.91
431.736	5439.75
431.943	5517.57
432.15	5341.44
432.358	5404.93
432.565	5871.87
432.772	5542.14
432.979	5976.31
433.187	5923.07
433.394	6162.68
433.601	6623.47
433.808	6498.55
434.016	6523.12
434.223	6734.06
434.43	7219.43
434.637	7225.58
434.844	7420.13
435.052	7569.63
435.259	7633.12
435.466	7536.87
435.673	7430.37
435.88	8098.01
436.087	8566.99
436.294	8724.69
436.501	8474.84
436.708	8478.93
436.915	8898.77
437.122	9195.72
437.329	9273.54
437.537	9535.68
437.743	9830.59
437.95	9652.42
438.157	10051.77
438.364	10461.37
438.571	10451.13
438.778	10666.16
438.985	11200.68
439.192	11008.17
439.399	11600.04
439.606	11014.32
439.813	11638.95
440.02	12320.92
440.227	12175.52
440.433	12058.78
440.64	12503.19
440.847	12423.32
441.054	12718.23
441.261	13568.13
441.467	13471.88
441.674	13926.53
441.881	14049.41
442.088	14266.49
442.294	14096.51
442.501	14676.09
442.708	14620.79
442.914	15288.43
443.121	16091.23
443.328	15411.31
443.534	16470.11
443.741	16025.7
443.948	16087.14
444.154	17160.27
444.361	16996.43
444.568	17061.97
444.774	17035.35
444.981	17377.36
445.187	17727.56
445.394	18470.97
445.6	18362.43
445.807	20025.38
446.013	19050.55
446.22	19626.03
446.426	20693.02
446.633	20785.18
446.839	21245.97
447.046	20477.98
447.252	21477.39
447.459	21854.22
447.665	21536.78
447.871	22274.05
448.078	23427.06
448.284	22317.06
448.491	22898.68
448.697	23857.13
448.903	24422.37
449.11	24291.3
449.316	24147.94
449.522	24346.59
449.728	25143.25
449.935	25415.63
450.141	25294.8
450.347	25716.68
450.553	24954.84
450.76	25389.01
450.966	26587.07
451.172	26052.55
451.378	26470.34
451.584	26224.58
451.791	27074.49
451.997	26730.43
452.203	27176.89
452.409	27350.96
452.615	27361.2
452.821	26191.81
453.027	25700.3
453.233	27369.4
453.44	26175.43
453.646	26406.85
453.852	26630.08
454.058	27283.38
454.264	26060.74
454.47	26490.82
454.676	25796.56
454.882	26941.37
455.088	24559.58
455.294	24758.24
455.5	25411.54
455.705	25264.08
455.911	24774.62
456.117	24100.84
456.323	23658.48
456.529	22853.62
456.735	23732.2
456.941	22927.35
457.147	22890.49
457.352	22054.92
457.558	21567.5
457.764	21766.15
457.97	21352.46
458.176	20815.9
458.381	20863
458.587	19718.18
458.793	20033.57
458.999	18786.36
459.204	19902.5
459.41	19738.66
459.616	18251.84
459.821	18219.07
460.027	18147.39
460.233	17518.67
460.438	17139.79
460.644	17074.26
460.85	16519.26
461.055	16111.71
461.261	16138.34
461.466	14841.97
461.672	14336.12
461.878	15423.59
462.083	14528.63
462.289	14299.26
462.494	13944.96
462.7	13305.99
462.905	13029.52
463.111	13435.02
463.316	13635.72
463.522	13158.54
463.727	13193.36
463.932	13514.89
464.138	12992.66
464.343	13172.88
464.549	12773.52
464.754	13246.6
464.959	13168.78
465.165	13242.51
465.37	12349.59
465.575	12210.33
465.781	12779.67
465.986	12939.41
466.191	12325.02
466.397	12017.82
466.602	11561.12
466.807	11870.37
467.012	12036.25
467.218	11868.32
467.423	11851.94
467.628	12097.69
467.833	12232.86
468.038	11886.75
