Data from USB4F104151__20__10-21-23-459.txt Node

Date: Wed Mar 12 10:21:23 EDT 2025
User: louis
Spectrometer: USB4F10415
Trigger mode: 4
Integration Time (sec): 3.000000E-2
Scans to average: 1
Electric dark correction enabled: true
Nonlinearity correction enabled: false
Boxcar width: 0
XAxis mode: Wavelengths
Number of Pixels in Spectrum: 3648
>>>>>Begin Spectral Data<<<<<
178.204	-177.49
178.424	-177.49
178.644	-177.49
178.864	-181.59
179.084	-91.48
179.304	-3.41
179.524	-9.56
179.744	33.45
179.964	2.73
180.184	-1.37
180.404	82.6
180.624	-21.84
180.844	-81.24
181.064	21.16
181.283	21.16
181.503	-17.75
181.723	-25.94
181.943	-64.85
182.163	92.84
182.383	-30.04
182.602	-30.04
182.822	-23.89
183.042	25.26
183.262	25.26
183.482	76.46
183.701	49.83
183.921	19.11
184.141	-50.52
184.361	27.31
184.58	-48.47
184.8	-7.51
185.02	-93.52
185.239	62.12
185.459	29.35
185.679	66.22
185.898	-75.09
186.118	-1.37
186.338	62.12
186.557	82.6
186.777	2.73
186.997	39.59
187.216	-11.61
187.436	82.6
187.655	21.16
187.875	21.16
188.095	84.65
188.314	4.78
188.534	68.27
188.753	-40.28
188.973	78.51
189.192	-27.99
189.412	-38.23
189.631	60.07
189.851	15.02
190.07	98.99
190.29	4.78
190.509	37.55
190.729	-3.41
190.948	0.68
191.168	152.23
191.387	70.31
191.607	-34.13
191.826	-38.23
192.045	-27.99
192.265	23.21
192.484	-73.04
192.704	-3.41
192.923	-30.04
193.142	74.41
193.362	-52.56
193.581	49.83
193.8	-30.04
194.02	43.69
194.239	43.69
194.458	58.03
194.678	-40.28
194.897	21.16
195.116	70.31
195.335	41.64
195.555	86.7
195.774	0.68
195.993	47.79
196.212	68.27
196.432	-34.13
196.651	39.59
196.87	-7.51
197.089	29.35
197.308	25.26
197.528	72.36
197.747	-7.51
197.966	66.22
198.185	74.41
198.404	-3.41
198.623	39.59
198.842	-3.41
199.062	74.41
199.281	53.93
199.5	8.87
199.719	19.11
199.938	49.83
200.157	-1.37
200.376	29.35
200.595	-7.51
200.814	39.59
201.033	-21.84
201.252	64.17
201.471	29.35
201.69	4.78
201.909	33.45
202.128	15.02
202.347	51.88
202.566	-11.61
202.785	17.07
203.004	58.03
203.223	72.36
203.442	-64.85
203.661	10.92
203.879	8.87
204.098	55.98
204.317	-5.46
204.536	35.5
204.755	-64.85
204.974	-13.65
205.193	6.83
205.411	64.17
205.63	8.87
205.849	-27.99
206.068	-7.51
206.287	29.35
206.505	0.68
206.724	12.97
206.943	-9.56
207.162	-7.51
207.381	17.07
207.599	29.35
207.818	29.35
208.037	-81.24
208.255	12.97
208.474	0.68
208.693	-17.75
208.911	15.02
209.13	-7.51
209.349	-17.75
209.567	-3.41
209.786	53.93
210.005	94.89
210.223	23.21
210.442	-85.33
210.661	29.35
210.879	-3.41
211.098	-15.7
211.316	17.07
211.535	68.27
211.753	21.16
211.972	-1.37
212.191	2.73
212.409	8.87
212.628	6.83
212.846	15.02
213.065	66.22
213.283	53.93
213.502	-21.84
213.72	35.5
213.938	17.07
214.157	80.55
214.375	58.03
214.594	-103.76
214.812	53.93
215.031	68.27
215.249	23.21
215.467	-3.41
215.686	64.17
215.904	45.74
216.122	-46.42
216.341	-7.51
216.559	21.16
216.778	10.92
216.996	19.11
217.214	-19.8
217.432	47.79
217.651	31.4
217.869	60.07
218.087	-7.51
218.306	-32.08
218.524	88.75
218.742	41.64
218.96	62.12
219.179	-19.8
219.397	-1.37
219.615	39.59
219.833	43.69
220.051	53.93
220.27	35.5
220.488	-7.51
220.706	62.12
220.924	68.27
221.142	-23.89
221.36	-1.37
221.578	12.97
221.796	35.5
222.015	-42.32
222.233	4.78
222.451	53.93
222.669	25.26
222.887	47.79
223.105	-27.99
223.323	21.16
223.541	8.87
223.759	-1.37
223.977	6.83
224.195	66.22
224.413	-46.42
224.631	76.46
224.849	31.4
225.067	41.64
225.285	96.94
225.503	-36.18
225.721	-19.8
225.939	70.31
226.157	25.26
226.375	84.65
226.592	-44.37
226.81	-23.89
227.028	47.79
227.246	78.51
227.464	-27.99
227.682	58.03
227.9	-23.89
228.117	21.16
228.335	37.55
228.553	-30.04
228.771	-7.51
228.989	-15.7
229.206	-15.7
229.424	-17.75
229.642	-11.61
229.86	-23.89
230.077	39.59
230.295	47.79
230.513	27.31
230.731	-23.89
230.948	55.98
231.166	80.55
231.384	-36.18
231.601	27.31
231.819	-83.28
232.037	0.68
232.254	-34.13
232.472	4.78
232.689	6.83
232.907	21.16
233.125	62.12
233.342	6.83
233.56	47.79
233.777	-1.37
233.995	80.55
234.213	37.55
234.43	39.59
234.648	23.21
234.865	15.02
235.083	0.68
235.3	-11.61
235.518	35.5
235.735	-3.41
235.953	58.03
236.17	29.35
236.388	64.17
236.605	55.98
236.822	25.26
237.04	4.78
237.257	25.26
237.475	4.78
237.692	31.4
237.909	17.07
238.127	-7.51
238.344	12.97
238.562	58.03
238.779	-34.13
238.996	-75.09
239.214	-34.13
239.431	82.6
239.648	21.16
239.865	76.46
240.083	-5.46
240.3	49.83
240.517	37.55
240.735	64.17
240.952	113.32
241.169	125.61
241.386	41.64
241.603	-7.51
241.821	-15.7
242.038	101.03
242.255	51.88
242.472	-30.04
242.689	-23.89
242.907	19.11
243.124	-32.08
243.341	17.07
243.558	-23.89
243.775	-42.32
243.992	-1.37
244.209	98.99
244.426	41.64
244.643	17.07
244.86	-68.95
245.078	-9.56
245.295	41.64
245.512	17.07
245.729	33.45
245.946	45.74
246.163	-13.65
246.38	-11.61
246.597	8.87
246.814	25.26
247.031	66.22
247.248	-7.51
247.464	51.88
247.681	33.45
247.898	29.35
248.115	39.59
248.332	-50.52
248.549	74.41
248.766	43.69
248.983	49.83
249.2	70.31
249.417	43.69
249.633	6.83
249.85	39.59
250.067	23.21
250.284	-11.61
250.501	-71
250.717	74.41
250.934	66.22
251.151	-23.89
251.368	49.83
251.585	41.64
251.801	25.26
252.018	-38.23
252.235	43.69
252.451	-40.28
252.668	35.5
252.885	39.59
253.102	29.35
253.318	-48.47
253.535	-32.08
253.752	-11.61
253.968	8.87
254.185	-83.28
254.401	8.87
254.618	-25.94
254.835	-56.66
255.051	92.84
255.268	10.92
255.484	70.31
255.701	74.41
255.917	82.6
256.134	29.35
256.351	66.22
256.567	53.93
256.784	53.93
257	-1.37
257.217	33.45
257.433	60.07
257.65	27.31
257.866	-3.41
258.082	-13.65
258.299	6.83
258.515	105.13
258.732	4.78
258.948	0.68
259.165	43.69
259.381	-38.23
259.597	-1.37
259.814	21.16
260.03	6.83
260.246	64.17
260.463	0.68
260.679	8.87
260.895	88.75
261.112	2.73
261.328	49.83
261.544	51.88
261.761	25.26
261.977	15.02
262.193	-13.65
262.409	29.35
262.626	-27.99
262.842	-13.65
263.058	53.93
263.274	45.74
263.49	-73.04
263.707	10.92
263.923	-34.13
264.139	-3.41
264.355	39.59
264.571	41.64
264.787	-9.56
265.004	47.79
265.22	17.07
265.436	39.59
265.652	8.87
265.868	15.02
266.084	-7.51
266.3	-15.7
266.516	-15.7
266.732	10.92
266.948	12.97
267.164	6.83
267.38	29.35
267.596	31.4
267.812	101.03
268.028	21.16
268.244	21.16
268.46	6.83
268.676	-87.38
268.892	62.12
269.108	41.64
269.324	45.74
269.54	8.87
269.756	-34.13
269.972	-36.18
270.188	-7.51
270.403	-36.18
270.619	-27.99
270.835	55.98
271.051	25.26
271.267	10.92
271.483	78.51
271.698	-7.51
271.914	47.79
272.13	-77.14
272.346	27.31
272.562	31.4
272.777	66.22
272.993	55.98
273.209	-48.47
273.425	41.64
273.64	15.02
273.856	39.59
274.072	25.26
274.287	25.26
274.503	-60.76
274.719	-48.47
274.934	-15.7
275.15	-27.99
275.366	15.02
275.581	-23.89
275.797	-21.84
276.012	17.07
276.228	6.83
276.444	25.26
276.659	55.98
276.875	29.35
277.09	43.69
277.306	21.16
277.521	8.87
277.737	25.26
277.952	76.46
278.168	-40.28
278.383	94.89
278.599	-1.37
278.814	31.4
279.03	0.68
279.245	105.13
279.461	4.78
279.676	8.87
279.892	-25.94
280.107	29.35
280.322	41.64
280.538	25.26
280.753	-25.94
280.969	4.78
281.184	58.03
281.399	82.6
281.615	62.12
281.83	92.84
282.045	19.11
282.26	4.78
282.476	43.69
282.691	76.46
282.906	-7.51
283.122	84.65
283.337	27.31
283.552	4.78
283.767	-25.94
283.983	29.35
284.198	78.51
284.413	53.93
284.628	21.16
284.843	64.17
285.058	78.51
285.274	-40.28
285.489	-93.52
285.704	68.27
285.919	-7.51
286.134	17.07
286.349	88.75
286.564	4.78
286.779	12.97
286.995	-7.51
287.21	-15.7
287.425	-32.08
287.64	33.45
287.855	105.13
288.07	23.21
288.285	21.16
288.5	66.22
288.715	107.18
288.93	47.79
289.145	29.35
289.36	76.46
289.575	-25.94
289.79	25.26
290.004	2.73
290.219	168.62
290.434	78.51
290.649	-27.99
290.864	-32.08
291.079	51.88
291.294	-13.65
291.509	37.55
291.724	6.83
291.938	8.87
292.153	35.5
292.368	41.64
292.583	-15.7
292.798	0.68
293.012	-15.7
293.227	-11.61
293.442	-46.42
293.657	64.17
293.871	41.64
294.086	-19.8
294.301	8.87
294.516	86.7
294.73	0.68
294.945	58.03
295.16	-40.28
295.374	66.22
295.589	129.7
295.804	58.03
296.018	21.16
296.233	107.18
296.447	68.27
296.662	23.21
296.877	25.26
297.091	-1.37
297.306	37.55
297.52	15.02
297.735	31.4
297.949	66.22
298.164	80.55
298.378	86.7
298.593	35.5
298.807	17.07
299.022	27.31
299.236	-11.61
299.451	17.07
299.665	6.83
299.88	33.45
300.094	86.7
300.309	53.93
300.523	88.75
300.737	47.79
300.952	25.26
301.166	39.59
301.381	-19.8
301.595	41.64
301.809	-1.37
302.024	-5.46
302.238	0.68
302.452	49.83
302.667	-54.61
302.881	103.08
303.095	49.83
303.309	41.64
303.524	41.64
303.738	8.87
303.952	-36.18
304.166	58.03
304.381	-64.85
304.595	41.64
304.809	21.16
305.023	-50.52
305.237	-15.7
305.452	8.87
305.666	25.26
305.88	39.59
306.094	-1.37
306.308	0.68
306.522	-11.61
306.736	41.64
306.95	72.36
307.164	-15.7
307.379	98.99
307.593	103.08
307.807	0.68
308.021	45.74
308.235	2.73
308.449	25.26
308.663	35.5
308.877	68.27
309.091	4.78
309.305	90.79
309.519	19.11
309.733	-13.65
309.947	6.83
310.161	-1.37
310.374	74.41
310.588	21.16
310.802	4.78
311.016	12.97
311.23	76.46
311.444	-19.8
311.658	72.36
311.872	2.73
312.085	60.07
312.299	121.51
312.513	2.73
312.727	49.83
312.941	55.98
313.154	10.92
313.368	33.45
313.582	45.74
313.796	43.69
314.009	17.07
314.223	64.17
314.437	-27.99
314.651	0.68
314.864	-15.7
315.078	8.87
315.292	2.73
315.505	55.98
315.719	66.22
315.933	15.02
316.146	90.79
316.36	-3.41
316.573	23.21
316.787	35.5
317.001	-48.47
317.214	-34.13
317.428	37.55
317.641	-40.28
317.855	-21.84
318.068	-7.51
318.282	0.68
318.495	31.4
318.709	17.07
318.922	64.17
319.136	72.36
319.349	19.11
319.563	29.35
319.776	53.93
319.99	-27.99
320.203	74.41
320.417	-3.41
320.63	74.41
320.843	96.94
321.057	35.5
321.27	-48.47
321.483	58.03
321.697	123.56
321.91	-48.47
322.124	6.83
322.337	-1.37
322.55	-27.99
322.763	6.83
322.977	8.87
323.19	0.68
323.403	33.45
323.617	41.64
323.83	31.4
324.043	21.16
324.256	12.97
324.469	4.78
324.683	37.55
324.896	41.64
325.109	-40.28
325.322	-56.66
325.535	53.93
325.748	78.51
325.962	64.17
326.175	60.07
326.388	17.07
326.601	82.6
326.814	55.98
327.027	62.12
327.24	8.87
327.453	-54.61
327.666	10.92
327.879	15.02
328.092	-40.28
328.305	-5.46
328.518	2.73
328.731	23.21
328.944	-5.46
329.157	82.6
329.37	15.02
329.583	146.09
329.796	49.83
330.009	-19.8
330.222	68.27
330.435	-32.08
330.648	74.41
330.861	4.78
331.073	-23.89
331.286	41.64
331.499	33.45
331.712	-5.46
331.925	74.41
332.138	41.64
332.35	-1.37
332.563	-19.8
332.776	96.94
332.989	-32.08
333.202	10.92
333.414	51.88
333.627	31.4
333.84	-52.56
334.053	33.45
334.265	17.07
334.478	-7.51
334.691	78.51
334.903	41.64
335.116	12.97
335.329	78.51
335.541	15.02
335.754	45.74
335.966	25.26
336.179	-21.84
336.392	17.07
336.604	-1.37
336.817	8.87
337.029	-7.51
337.242	-52.56
337.454	94.89
337.667	-25.94
337.88	101.03
338.092	12.97
338.305	10.92
338.517	15.02
338.729	17.07
338.942	31.4
339.154	64.17
339.367	-3.41
339.579	21.16
339.792	-17.75
340.004	80.55
340.217	0.68
340.429	6.83
340.641	64.17
340.854	27.31
341.066	4.78
341.278	55.98
341.491	70.31
341.703	19.11
341.915	39.59
342.128	27.31
342.34	49.83
342.552	17.07
342.764	6.83
342.977	12.97
343.189	23.21
343.401	90.79
343.613	72.36
343.826	29.35
344.038	-40.28
344.25	-27.99
344.462	21.16
344.674	-1.37
344.886	0.68
345.099	43.69
345.311	58.03
345.523	21.16
345.735	-15.7
345.947	82.6
346.159	25.26
346.371	41.64
346.583	-36.18
346.795	152.23
347.007	0.68
347.219	6.83
347.431	21.16
347.643	35.5
347.855	27.31
348.067	41.64
348.279	-30.04
348.491	41.64
348.703	31.4
348.915	15.02
349.127	-7.51
349.339	58.03
349.551	0.68
349.763	41.64
349.975	4.78
350.187	76.46
350.399	66.22
350.61	21.16
350.822	43.69
351.034	2.73
351.246	21.16
351.458	60.07
351.669	27.31
351.881	27.31
352.093	64.17
352.305	74.41
352.517	-32.08
352.728	55.98
352.94	90.79
353.152	43.69
353.363	41.64
353.575	66.22
353.787	55.98
353.999	15.02
354.21	98.99
354.422	76.46
354.633	78.51
354.845	17.07
355.057	6.83
355.268	0.68
355.48	25.26
355.692	29.35
355.903	43.69
356.115	-23.89
356.326	45.74
356.538	-17.75
356.749	27.31
356.961	0.68
357.172	10.92
357.384	64.17
357.595	64.17
357.807	15.02
358.018	17.07
358.23	-5.46
358.441	84.65
358.653	107.18
358.864	-1.37
359.075	8.87
359.287	39.59
359.498	45.74
359.709	33.45
359.921	33.45
360.132	98.99
360.344	23.21
360.555	33.45
360.766	43.69
360.977	4.78
361.189	96.94
361.4	25.26
361.611	25.26
361.823	107.18
362.034	43.69
362.245	25.26
362.456	86.7
362.667	101.03
362.879	53.93
363.09	0.68
363.301	12.97
363.512	-7.51
363.723	58.03
363.935	62.12
364.146	37.55
364.357	31.4
364.568	19.11
364.779	41.64
364.99	58.03
365.201	43.69
365.412	27.31
365.623	0.68
365.834	105.13
366.045	-40.28
366.256	115.37
366.467	115.37
366.678	70.31
366.889	17.07
367.1	31.4
367.311	0.68
367.522	29.35
367.733	68.27
367.944	49.83
368.155	8.87
368.366	-58.71
368.577	62.12
368.788	39.59
368.999	4.78
369.209	49.83
369.42	55.98
369.631	41.64
369.842	70.31
370.053	8.87
370.264	107.18
370.474	-36.18
370.685	0.68
370.896	33.45
371.107	41.64
371.317	49.83
371.528	-17.75
371.739	82.6
371.95	92.84
372.16	45.74
372.371	25.26
372.582	47.79
372.792	17.07
373.003	49.83
373.214	58.03
373.424	27.31
373.635	-21.84
373.846	129.7
374.056	12.97
374.267	21.16
374.477	58.03
374.688	78.51
374.898	25.26
375.109	-42.32
375.319	90.79
375.53	121.51
375.74	74.41
375.951	35.5
376.161	-15.7
376.372	92.84
376.582	-36.18
376.793	37.55
377.003	-36.18
377.214	27.31
377.424	84.65
377.635	33.45
377.845	0.68
378.055	39.59
378.266	-21.84
378.476	68.27
378.686	-7.51
378.897	31.4
379.107	92.84
379.317	68.27
379.528	70.31
379.738	-3.41
379.948	-25.94
380.158	25.26
380.369	-21.84
380.579	82.6
380.789	53.93
380.999	17.07
381.21	74.41
381.42	76.46
381.63	51.88
381.84	21.16
382.05	109.23
382.261	105.13
382.471	58.03
382.681	15.02
382.891	76.46
383.101	-13.65
383.311	78.51
383.521	15.02
383.731	8.87
383.941	-3.41
384.151	-17.75
384.361	41.64
384.571	70.31
384.781	55.98
384.991	51.88
385.201	90.79
385.411	68.27
385.621	8.87
385.831	8.87
386.041	33.45
386.251	0.68
386.461	144.04
386.671	17.07
386.881	49.83
387.091	115.37
387.301	39.59
387.511	84.65
387.72	49.83
387.93	0.68
388.14	29.35
388.35	43.69
388.56	101.03
388.769	35.5
388.979	82.6
389.189	23.21
389.399	15.02
389.609	94.89
389.818	94.89
390.028	-13.65
390.238	39.59
390.447	6.83
390.657	111.27
390.867	41.64
391.076	6.83
391.286	-15.7
391.496	72.36
391.705	-40.28
391.915	90.79
392.125	129.7
392.334	-1.37
392.544	58.03
392.753	113.32
392.963	72.36
393.172	51.88
393.382	41.64
393.591	119.46
393.801	21.16
394.01	152.23
394.22	103.08
394.429	17.07
394.639	27.31
394.848	27.31
395.058	58.03
395.267	82.6
395.477	8.87
395.686	29.35
395.895	86.7
396.105	164.52
396.314	66.22
396.524	103.08
396.733	139.94
396.942	152.23
397.152	55.98
397.361	148.14
397.57	141.99
397.78	127.66
397.989	103.08
398.198	199.34
398.407	135.85
398.617	39.59
398.826	125.61
399.035	84.65
399.244	107.18
399.453	70.31
399.663	96.94
399.872	62.12
400.081	98.99
400.29	82.6
400.499	98.99
400.708	133.8
400.917	144.04
401.127	68.27
401.336	101.03
401.545	137.9
401.754	129.7
401.963	58.03
402.172	127.66
402.381	131.75
402.59	94.89
402.799	137.9
403.008	92.84
403.217	127.66
403.426	156.33
403.635	144.04
403.844	121.51
404.053	113.32
404.262	98.99
404.471	170.66
404.68	148.14
404.888	123.56
405.097	74.41
405.306	160.42
405.515	156.33
405.724	135.85
405.933	187.05
406.142	123.56
406.35	213.67
406.559	174.76
406.768	178.86
406.977	244.39
407.185	131.75
407.394	189.1
407.603	150.18
407.812	195.24
408.02	287.4
408.229	248.49
408.438	252.58
408.646	191.14
408.855	219.82
409.064	205.48
409.272	293.54
409.481	293.54
409.69	291.49
409.898	367.27
410.107	281.25
410.315	342.69
410.524	244.39
410.733	354.98
410.941	334.5
411.15	387.75
411.358	385.7
411.567	385.7
411.775	422.56
411.984	447.14
412.192	479.91
412.401	377.51
412.609	457.38
412.818	541.35
413.026	490.15
413.234	481.96
413.443	555.68
413.651	502.44
413.86	590.5
414.068	594.59
414.276	674.46
414.485	662.18
414.693	686.75
414.901	744.1
415.11	758.43
415.318	686.75
415.526	647.84
415.734	823.97
415.943	836.25
416.151	893.6
416.359	809.63
416.567	922.27
416.776	905.88
416.984	930.46
417.192	1039
417.4	957.08
417.608	946.84
417.817	1014.43
418.025	1120.92
418.233	1194.65
418.441	1092.25
418.649	1229.46
418.857	1247.9
419.065	1376.92
419.273	1329.81
419.481	1333.91
419.689	1565.33
419.897	1462.93
420.105	1647.25
420.313	1643.15
420.521	1712.78
420.729	1737.36
420.937	1788.56
421.145	1852.05
421.353	2040.46
421.561	1931.92
421.769	2124.43
421.977	2087.56
422.185	2134.67
422.393	2296.46
422.601	2400.9
422.809	2318.98
423.017	2384.52
423.224	2523.78
423.432	2589.32
423.64	2601.6
423.848	2839.17
424.056	2736.77
424.263	2988.67
424.471	3074.68
424.679	3156.6
424.887	3207.8
425.094	3193.47
425.302	3275.38
425.51	3361.4
425.718	3517.05
425.925	3654.26
426.133	3687.03
426.341	4012.65
426.548	4006.51
426.756	3973.74
426.964	4262.51
427.171	4424.3
427.379	4418.15
427.586	4633.19
427.794	4692.58
428.001	5007.97
428.209	5237.34
428.417	5194.33
428.624	5546.58
428.832	5505.62
429.039	5380.7
429.247	5347.93
429.454	5984.85
429.662	6193.74
429.869	6034
430.076	6279.75
430.284	6109.77
430.491	6576.71
430.699	6736.45
430.906	6869.57
431.114	6885.95
431.321	7279.16
431.528	7252.54
431.736	7703.09
431.943	8237.61
432.15	7699
432.358	7916.08
432.565	8405.55
432.772	8397.35
432.979	8628.77
433.187	8755.75
433.394	9177.63
433.601	9734.68
433.808	9712.15
434.016	9335.32
434.223	9912.85
434.43	10582.54
434.637	10404.36
434.844	11110.91
435.052	11309.57
435.259	10955.27
435.466	11084.29
435.673	10945.03
435.88	11942.39
436.087	12261.87
436.294	12354.03
436.501	12198.38
436.708	12401.13
436.915	12921.32
437.122	13386.21
437.329	13238.75
437.537	13894.1
437.743	13836.76
437.95	13863.38
438.157	14717.39
438.364	15157.7
438.571	14881.22
438.778	15266.24
438.985	16370.1
439.192	15839.67
439.399	16468.4
439.606	16011.7
439.813	16978.34
440.02	17850.78
440.227	17678.75
440.433	17435.04
440.64	17994.14
440.847	18135.45
441.054	18274.71
441.261	19425.67
441.467	19327.36
441.674	19767.68
441.881	20416.88
442.088	20035.96
442.294	20230.52
442.501	20947.31
442.708	21006.7
442.914	22100.31
443.121	22813.01
443.328	22102.36
443.534	23916.86
443.741	23236.94
443.948	22851.92
444.154	24586.55
444.361	24193.34
444.568	24817.97
444.774	24516.92
444.981	24826.16
445.187	25512.23
445.394	26689.81
445.6	26265.88
445.807	28643.57
446.013	27414.79
446.22	27988.22
446.426	28723.44
446.633	29262.06
446.839	30159.07
447.046	29006.06
447.252	30580.95
447.459	30800.08
447.665	30298.33
447.871	31609.03
448.078	33073.33
448.284	31332.56
448.491	32147.65
448.697	33585.32
448.903	34279.58
449.11	34070.69
449.316	33640.62
449.522	34209.95
449.728	34777.24
449.935	35371.15
450.141	34971.8
450.347	35715.21
450.553	34762.9
450.76	35115.15
450.966	36270.21
451.172	35903.62
451.378	36272.26
451.584	35950.73
451.791	36849.78
451.997	36577.4
452.203	37404.78
452.409	36968.57
452.615	36675.71
452.821	35412.11
453.027	34994.32
453.233	37138.55
453.44	35487.89
453.646	35842.18
453.852	35563.66
454.058	36681.85
454.264	35260.56
454.47	36171.91
454.676	35299.47
454.882	36284.54
455.088	32784.57
455.294	33669.29
455.5	34162.85
455.705	34332.83
455.911	33374.38
456.117	32327.87
456.323	31715.53
456.529	30208.22
456.735	31119.57
456.941	30712.02
457.147	30173.41
457.352	29004.02
457.558	28616.95
457.764	28899.57
457.97	28195.07
458.176	27412.74
458.381	27613.45
458.587	26059.04
458.793	26130.72
458.999	24981.81
459.204	26802.45
459.41	26288.41
459.616	24437.05
459.821	24160.57
460.027	23984.44
460.233	23767.36
460.438	22681.94
460.644	22661.46
460.85	21891.42
461.055	21483.87
461.261	21418.34
461.466	19784.06
461.672	19374.47
461.878	20787.57
462.083	19186.05
462.289	19102.09
462.494	18712.97
462.7	18014.62
462.905	17611.17
463.111	18039.19
463.316	18106.77
463.522	17818.01
463.727	17885.59
463.932	17367.46
464.138	17703.32
464.343	17613.21
464.549	17103.27
464.754	17678.75
464.959	17717.66
465.165	17545.63
465.37	16705.96
465.575	16380.34
465.781	17004.97
465.986	17035.69
466.191	16497.07
466.397	15915.45
466.602	15182.28
466.807	16118.2
467.012	16107.96
467.218	16046.52
467.423	15653.31
