Data from USB4F104151__220__10-30-09-602.txt Node

Date: Wed Mar 12 10:30:09 EDT 2025
User: louis
Spectrometer: USB4F10415
Trigger mode: 4
Integration Time (sec): 3.000000E-2
Scans to average: 1
Electric dark correction enabled: true
Nonlinearity correction enabled: false
Boxcar width: 0
XAxis mode: Wavelengths
Number of Pixels in Spectrum: 3648
>>>>>Begin Spectral Data<<<<<
178.204	-113.49
178.424	-113.49
178.644	-113.49
178.864	-117.59
179.084	-150.36
179.304	54.44
179.524	11.43
179.744	-52.05
179.964	-19.29
180.184	-64.34
180.404	17.58
180.624	-19.29
180.844	76.97
181.064	-50
181.283	19.63
181.503	-7
181.723	31.91
181.943	21.67
182.163	56.49
182.383	-25.43
182.602	79.02
182.822	-7
183.042	60.59
183.262	-21.33
183.482	62.63
183.701	-45.91
183.921	36.01
184.141	31.91
184.361	66.73
184.58	85.16
184.8	62.63
185.02	17.58
185.239	42.15
185.459	-15.19
185.679	44.2
185.898	-35.67
186.118	9.39
186.338	-78.68
186.557	44.2
186.777	38.06
186.997	154.79
187.216	1.19
187.436	38.06
187.655	95.4
187.875	76.97
188.095	-21.33
188.314	38.06
188.534	31.91
188.753	54.44
188.973	3.24
189.192	76.97
189.412	9.39
189.631	97.45
189.851	1.19
190.07	42.15
190.29	36.01
190.509	-43.86
190.729	11.43
190.948	25.77
191.168	72.87
191.387	42.15
191.607	9.39
191.826	-11.09
192.045	97.45
192.265	23.72
192.484	44.2
192.704	-2.9
192.923	-33.62
193.142	58.54
193.362	33.96
193.581	-15.19
193.8	42.15
194.02	-13.14
194.239	-0.85
194.458	56.49
194.678	-45.91
194.897	83.11
195.116	48.3
195.335	9.39
195.555	52.39
195.774	72.87
195.993	-13.14
196.212	19.63
196.432	9.39
196.651	29.87
196.87	40.11
197.089	79.02
197.308	124.07
197.528	103.59
197.747	5.29
197.966	29.87
198.185	130.22
198.404	76.97
198.623	46.25
198.842	7.34
199.062	25.77
199.281	68.78
199.5	5.29
199.719	25.77
199.938	62.63
200.157	9.39
200.376	11.43
200.595	46.25
200.814	44.2
201.033	13.48
201.252	99.5
201.471	-2.9
201.69	111.78
201.909	13.48
202.128	-35.67
202.347	58.54
202.566	3.24
202.785	-17.24
203.004	-21.33
203.223	42.15
203.442	19.63
203.661	99.5
203.879	93.35
204.098	40.11
204.317	-62.29
204.536	36.01
204.755	50.35
204.974	27.82
205.193	-7
205.411	115.88
205.63	29.87
205.849	11.43
206.068	-13.14
206.287	-21.33
206.505	95.4
206.724	52.39
206.943	1.19
207.162	44.2
207.381	27.82
207.599	1.19
207.818	66.73
208.037	9.39
208.255	3.24
208.474	50.35
208.693	-9.05
208.911	68.78
209.13	54.44
209.349	13.48
209.567	66.73
209.786	-41.81
210.005	-29.52
210.223	38.06
210.442	13.48
210.661	-19.29
210.879	70.83
211.098	79.02
211.316	-11.09
211.535	83.11
211.753	54.44
211.972	-7
212.191	-19.29
212.409	79.02
212.628	81.07
212.846	-47.96
213.065	-4.95
213.283	17.58
213.502	23.72
213.72	50.35
213.938	-2.9
214.157	54.44
214.375	21.67
214.594	-45.91
214.812	25.77
215.031	-11.09
215.249	-11.09
215.467	25.77
215.686	79.02
215.904	60.59
216.122	21.67
216.341	62.63
216.559	23.72
216.778	83.11
216.996	76.97
217.214	-9.05
217.432	-7
217.651	-50
217.869	-27.48
218.087	58.54
218.306	79.02
218.524	29.87
218.742	23.72
218.96	17.58
219.179	44.2
219.397	60.59
219.615	93.35
219.833	38.06
220.051	58.54
220.27	105.64
220.488	-27.48
220.706	-50
220.924	3.24
221.142	58.54
221.36	19.63
221.578	36.01
221.796	-27.48
222.015	19.63
222.233	89.26
222.451	134.31
222.669	17.58
222.887	79.02
223.105	-27.48
223.323	79.02
223.541	21.67
223.759	93.35
223.977	29.87
224.195	70.83
224.413	29.87
224.631	25.77
224.849	21.67
225.067	42.15
225.285	-64.34
225.503	52.39
225.721	-29.52
225.939	27.82
226.157	-11.09
226.375	66.73
226.592	89.26
226.81	-4.95
227.028	19.63
227.246	89.26
227.464	38.06
227.682	70.83
227.9	3.24
228.117	25.77
228.335	-29.52
228.553	-9.05
228.771	-4.95
228.989	21.67
229.206	48.3
229.424	31.91
229.642	31.91
229.86	-19.29
230.077	60.59
230.295	17.58
230.513	-35.67
230.731	113.83
230.948	72.87
231.166	136.36
231.384	13.48
231.601	-37.72
231.819	81.07
232.037	-47.96
232.254	-41.81
232.472	25.77
232.689	46.25
232.907	76.97
233.125	68.78
233.342	19.63
233.56	29.87
233.777	91.31
233.995	27.82
234.213	148.65
234.43	46.25
234.648	25.77
234.865	-17.24
235.083	-4.95
235.3	-2.9
235.518	60.59
235.735	29.87
235.953	48.3
236.17	-29.52
236.388	-2.9
236.605	17.58
236.822	52.39
237.04	5.29
237.257	7.34
237.475	-52.05
237.692	7.34
237.909	-29.52
238.127	-11.09
238.344	93.35
238.562	5.29
238.779	19.63
238.996	-29.52
239.214	74.92
239.431	38.06
239.648	40.11
239.865	83.11
240.083	21.67
240.3	-0.85
240.517	95.4
240.735	87.21
240.952	5.29
241.169	3.24
241.386	46.25
241.603	-29.52
241.821	-23.38
242.038	27.82
242.255	11.43
242.472	13.48
242.689	60.59
242.907	17.58
243.124	25.77
243.341	31.91
243.558	58.54
243.775	44.2
243.992	68.78
244.209	36.01
244.426	83.11
244.643	21.67
244.86	50.35
245.078	44.2
245.295	-17.24
245.512	29.87
245.729	70.83
245.946	87.21
246.163	44.2
246.38	15.53
246.597	17.58
246.814	13.48
247.031	5.29
247.248	66.73
247.464	87.21
247.681	-11.09
247.898	1.19
248.115	62.63
248.332	-21.33
248.549	66.73
248.766	13.48
248.983	72.87
249.2	25.77
249.417	48.3
249.633	13.48
249.85	52.39
250.067	11.43
250.284	17.58
250.501	38.06
250.717	103.59
250.934	-70.48
251.151	-2.9
251.368	17.58
251.585	13.48
251.801	64.68
252.018	40.11
252.235	54.44
252.451	13.48
252.668	5.29
252.885	-27.48
253.102	-2.9
253.318	-21.33
253.535	-9.05
253.752	38.06
253.968	-11.09
254.185	11.43
254.401	62.63
254.618	60.59
254.835	-9.05
255.051	113.83
255.268	70.83
255.484	56.49
255.701	-13.14
255.917	54.44
256.134	-11.09
256.351	-2.9
256.567	-13.14
256.784	-52.05
257	25.77
257.217	56.49
257.433	-23.38
257.65	83.11
257.866	-56.15
258.082	42.15
258.299	-2.9
258.515	46.25
258.732	46.25
258.948	60.59
259.165	-9.05
259.381	15.53
259.597	70.83
259.814	-15.19
260.03	31.91
260.246	19.63
260.463	60.59
260.679	40.11
260.895	3.24
261.112	1.19
261.328	-29.52
261.544	27.82
261.761	122.02
261.977	70.83
262.193	-52.05
262.409	54.44
262.626	38.06
262.842	54.44
263.058	60.59
263.274	27.82
263.49	36.01
263.707	-21.33
263.923	60.59
264.139	-27.48
264.355	83.11
264.571	-13.14
264.787	38.06
265.004	7.34
265.22	38.06
265.436	1.19
265.652	-43.86
265.868	83.11
266.084	70.83
266.3	9.39
266.516	-25.43
266.732	19.63
266.948	72.87
267.164	27.82
267.38	9.39
267.596	-11.09
267.812	38.06
268.028	38.06
268.244	-27.48
268.46	11.43
268.676	33.96
268.892	113.83
269.108	31.91
269.324	54.44
269.54	-4.95
269.756	9.39
269.972	33.96
270.188	83.11
270.403	36.01
270.619	-0.85
270.835	-35.67
271.051	-0.85
271.267	-7
271.483	17.58
271.698	40.11
271.914	76.97
272.13	-23.38
272.346	83.11
272.562	19.63
272.777	105.64
272.993	-0.85
273.209	42.15
273.425	9.39
273.64	-37.72
273.856	46.25
274.072	40.11
274.287	50.35
274.503	52.39
274.719	23.72
274.934	42.15
275.15	29.87
275.366	17.58
275.581	62.63
275.797	-2.9
276.012	42.15
276.228	54.44
276.444	119.98
276.659	60.59
276.875	21.67
277.09	27.82
277.306	60.59
277.521	44.2
277.737	-0.85
277.952	42.15
278.168	-66.39
278.383	9.39
278.599	-31.57
278.814	17.58
279.03	87.21
279.245	62.63
279.461	33.96
279.676	79.02
279.892	-33.62
280.107	-54.1
280.322	9.39
280.538	25.77
280.753	-2.9
280.969	119.98
281.184	148.65
281.399	25.77
281.615	-9.05
281.83	31.91
282.045	46.25
282.26	38.06
282.476	17.58
282.691	76.97
282.906	-35.67
283.122	5.29
283.337	3.24
283.552	44.2
283.767	13.48
283.983	15.53
284.198	-7
284.413	70.83
284.628	-0.85
284.843	23.72
285.058	-11.09
285.274	64.68
285.489	-19.29
285.704	105.64
285.919	36.01
286.134	21.67
286.349	50.35
286.564	56.49
286.779	3.24
286.995	1.19
287.21	74.92
287.425	40.11
287.64	-43.86
287.855	66.73
288.07	-15.19
288.285	-11.09
288.5	21.67
288.715	9.39
288.93	27.82
289.145	15.53
289.36	17.58
289.575	64.68
289.79	25.77
290.004	23.72
290.219	66.73
290.434	9.39
290.649	-21.33
290.864	31.91
291.079	-43.86
291.294	97.45
291.509	-0.85
291.724	25.77
291.938	42.15
292.153	38.06
292.368	15.53
292.583	83.11
292.798	56.49
293.012	46.25
293.227	-17.24
293.442	29.87
293.657	38.06
293.871	54.44
294.086	-27.48
294.301	101.55
294.516	76.97
294.73	44.2
294.945	36.01
295.16	9.39
295.374	74.92
295.589	42.15
295.804	9.39
296.018	29.87
296.233	72.87
296.447	31.91
296.662	46.25
296.877	5.29
297.091	11.43
297.306	17.58
297.52	-25.43
297.735	103.59
297.949	60.59
298.164	7.34
298.378	27.82
298.593	1.19
298.807	-19.29
299.022	-39.76
299.236	97.45
299.451	-11.09
299.665	3.24
299.88	36.01
300.094	50.35
300.309	54.44
300.523	62.63
300.737	48.3
300.952	25.77
301.166	-7
301.381	-17.24
301.595	3.24
301.809	29.87
302.024	33.96
302.238	21.67
302.452	52.39
302.667	68.78
302.881	54.44
303.095	64.68
303.309	85.16
303.524	54.44
303.738	-4.95
303.952	-15.19
304.166	23.72
304.381	-2.9
304.595	44.2
304.809	-45.91
305.023	128.17
305.237	3.24
305.452	21.67
305.666	17.58
305.88	29.87
306.094	-0.85
306.308	95.4
306.522	31.91
306.736	-43.86
306.95	109.74
307.164	46.25
307.379	21.67
307.593	74.92
307.807	36.01
308.021	38.06
308.235	107.69
308.449	50.35
308.663	31.91
308.877	160.94
309.091	58.54
309.305	60.59
309.519	-27.48
309.733	85.16
309.947	17.58
310.161	99.5
310.374	66.73
310.588	87.21
310.802	21.67
311.016	109.74
311.23	99.5
311.444	25.77
311.658	-37.72
311.872	95.4
312.085	36.01
312.299	1.19
312.513	105.64
312.727	-7
312.941	5.29
313.154	74.92
313.368	62.63
313.582	52.39
313.796	38.06
314.009	-50
314.223	5.29
314.437	54.44
314.651	3.24
314.864	-27.48
315.078	-0.85
315.292	76.97
315.505	-21.33
315.719	31.91
315.933	66.73
316.146	-7
316.36	-4.95
316.573	38.06
316.787	38.06
317.001	29.87
317.214	-23.38
317.428	-23.38
317.641	23.72
317.855	58.54
318.068	66.73
318.282	46.25
318.495	68.78
318.709	62.63
318.922	83.11
319.136	99.5
319.349	111.78
319.563	44.2
319.776	25.77
319.99	-15.19
320.203	36.01
320.417	33.96
320.63	87.21
320.843	48.3
321.057	-4.95
321.27	54.44
321.483	46.25
321.697	-7
321.91	44.2
322.124	-37.72
322.337	74.92
322.55	58.54
322.763	46.25
322.977	-15.19
323.19	70.83
323.403	27.82
323.617	38.06
323.83	64.68
324.043	15.53
324.256	42.15
324.469	1.19
324.683	29.87
324.896	17.58
325.109	17.58
325.322	60.59
325.535	38.06
325.748	126.12
325.962	9.39
326.175	-2.9
326.388	58.54
326.601	36.01
326.814	142.5
327.027	27.82
327.24	79.02
327.453	-45.91
327.666	87.21
327.879	-4.95
328.092	70.83
328.305	48.3
328.518	60.59
328.731	-17.24
328.944	25.77
329.157	-4.95
329.37	46.25
329.583	95.4
329.796	81.07
330.009	-35.67
330.222	87.21
330.435	33.96
330.648	70.83
330.861	-37.72
331.073	21.67
331.286	19.63
331.499	-9.05
331.712	85.16
331.925	11.43
332.138	1.19
332.35	109.74
332.563	3.24
332.776	83.11
332.989	36.01
333.202	76.97
333.414	13.48
333.627	44.2
333.84	91.31
334.053	124.07
334.265	29.87
334.478	60.59
334.691	5.29
334.903	48.3
335.116	-11.09
335.329	38.06
335.541	72.87
335.754	152.74
335.966	-15.19
336.179	38.06
336.392	64.68
336.604	29.87
336.817	46.25
337.029	119.98
337.242	128.17
337.454	31.91
337.667	23.72
337.88	60.59
338.092	95.4
338.305	29.87
338.517	103.59
338.729	68.78
338.942	46.25
339.154	64.68
339.367	-4.95
339.579	-2.9
339.792	42.15
340.004	56.49
340.217	36.01
340.429	52.39
340.641	5.29
340.854	13.48
341.066	-43.86
341.278	42.15
341.491	60.59
341.703	46.25
341.915	72.87
342.128	33.96
342.34	-0.85
342.552	62.63
342.764	23.72
342.977	27.82
343.189	95.4
343.401	87.21
343.613	42.15
343.826	52.39
344.038	31.91
344.25	101.55
344.462	48.3
344.674	23.72
344.886	17.58
345.099	66.73
345.311	107.69
345.523	33.96
345.735	-41.81
345.947	56.49
346.159	33.96
346.371	68.78
346.583	72.87
346.795	95.4
347.007	79.02
347.219	54.44
347.431	50.35
347.643	13.48
347.855	17.58
348.067	72.87
348.279	-29.52
348.491	76.97
348.703	87.21
348.915	23.72
349.127	-21.33
349.339	36.01
349.551	-0.85
349.763	119.98
349.975	87.21
350.187	58.54
350.399	33.96
350.61	25.77
350.822	3.24
351.034	68.78
351.246	23.72
351.458	5.29
351.669	58.54
351.881	83.11
352.093	44.2
352.305	117.93
352.517	64.68
352.728	119.98
352.94	103.59
353.152	76.97
353.363	27.82
353.575	23.72
353.787	70.83
353.999	107.69
354.21	27.82
354.422	17.58
354.633	52.39
354.845	42.15
355.057	25.77
355.268	62.63
355.48	36.01
355.692	21.67
355.903	79.02
356.115	25.77
356.326	-43.86
356.538	54.44
356.749	66.73
356.961	97.45
357.172	-2.9
357.384	11.43
357.595	52.39
357.807	-2.9
358.018	101.55
358.23	79.02
358.441	56.49
358.653	105.64
358.864	-37.72
359.075	95.4
359.287	-2.9
359.498	62.63
359.709	56.49
359.921	52.39
360.132	46.25
360.344	25.77
360.555	42.15
360.766	50.35
360.977	46.25
361.189	115.88
361.4	29.87
361.611	115.88
361.823	19.63
362.034	111.78
362.245	-27.48
362.456	-4.95
362.667	-17.24
362.879	68.78
363.09	-4.95
363.301	31.91
363.512	-2.9
363.723	-19.29
363.935	-7
364.146	52.39
364.357	-35.67
364.568	72.87
364.779	29.87
364.99	17.58
365.201	5.29
365.412	74.92
365.623	-13.14
365.834	52.39
366.045	70.83
366.256	109.74
366.467	56.49
366.678	83.11
366.889	144.55
367.1	33.96
367.311	79.02
367.522	1.19
367.733	105.64
367.944	83.11
368.155	-4.95
368.366	99.5
368.577	109.74
368.788	58.54
368.999	-7
369.209	-80.72
369.42	81.07
369.631	66.73
369.842	46.25
370.053	29.87
370.264	52.39
370.474	68.78
370.685	64.68
370.896	44.2
371.107	117.93
371.317	74.92
371.528	64.68
371.739	105.64
371.95	95.4
372.16	29.87
372.371	46.25
372.582	29.87
372.792	72.87
373.003	79.02
373.214	-15.19
373.424	85.16
373.635	15.53
373.846	36.01
374.056	-11.09
374.267	50.35
374.477	93.35
374.688	48.3
374.898	19.63
375.109	64.68
375.319	50.35
375.53	-47.96
375.74	21.67
375.951	33.96
376.161	-7
376.372	83.11
376.582	-7
376.793	11.43
377.003	27.82
377.214	105.64
377.424	111.78
377.635	148.65
377.845	87.21
378.055	99.5
378.266	5.29
378.476	-11.09
378.686	74.92
378.897	21.67
379.107	91.31
379.317	119.98
379.528	68.78
379.738	119.98
379.948	-35.67
380.158	66.73
380.369	58.54
380.579	56.49
380.789	83.11
380.999	83.11
381.21	-21.33
381.42	140.46
381.63	-9.05
381.84	56.49
382.05	87.21
382.261	40.11
382.471	107.69
382.681	-15.19
382.891	119.98
383.101	66.73
383.311	-19.29
383.521	-15.19
383.731	66.73
383.941	128.17
384.151	29.87
384.361	-2.9
384.571	79.02
384.781	3.24
384.991	76.97
385.201	33.96
385.411	13.48
385.621	-21.33
385.831	91.31
386.041	70.83
386.251	42.15
386.461	93.35
386.671	79.02
386.881	52.39
387.091	72.87
387.301	103.59
387.511	79.02
387.72	58.54
387.93	101.55
388.14	64.68
388.35	68.78
388.56	81.07
388.769	42.15
388.979	38.06
389.189	52.39
389.399	48.3
389.609	-9.05
389.818	144.55
390.028	74.92
390.238	58.54
390.447	95.4
390.657	25.77
390.867	97.45
391.076	-13.14
391.286	89.26
391.496	15.53
391.705	56.49
391.915	130.22
392.125	103.59
392.334	85.16
392.544	29.87
392.753	1.19
392.963	50.35
393.172	128.17
393.382	91.31
393.591	109.74
393.801	-11.09
394.01	111.78
394.22	148.65
394.429	91.31
394.639	72.87
394.848	76.97
395.058	103.59
395.267	42.15
395.477	111.78
395.686	17.58
395.895	66.73
396.105	203.94
396.314	66.73
396.524	89.26
396.733	95.4
396.942	107.69
397.152	85.16
397.361	107.69
397.57	62.63
397.78	101.55
397.989	111.78
398.198	148.65
398.407	95.4
398.617	205.99
398.826	64.68
399.035	87.21
399.244	177.32
399.453	128.17
399.663	117.93
399.872	132.26
400.081	101.55
400.29	210.09
400.499	152.74
400.708	152.74
400.917	109.74
401.127	119.98
401.336	169.13
401.545	218.28
401.754	224.42
401.963	183.46
402.172	103.59
402.381	160.94
402.59	107.69
402.799	140.46
403.008	150.7
403.217	181.42
403.426	122.02
403.635	109.74
403.844	167.08
404.053	144.55
404.262	103.59
404.471	228.52
404.68	226.47
404.888	158.89
405.097	93.35
405.306	251.05
405.515	218.28
405.724	183.46
405.933	111.78
406.142	193.7
406.35	177.32
406.559	199.85
406.768	167.08
406.977	218.28
407.185	279.72
407.394	191.66
407.603	238.76
407.812	240.81
408.02	212.14
408.229	275.62
408.438	257.19
408.646	249
408.855	242.85
409.064	294.05
409.272	300.2
409.481	228.52
409.69	287.91
409.898	271.53
410.107	347.3
410.315	400.55
410.524	300.2
410.733	445.6
410.941	339.11
411.15	437.41
411.358	382.12
411.567	425.12
411.775	359.59
411.984	459.94
412.192	464.04
412.401	386.21
412.609	504.99
412.818	498.85
413.026	545.95
413.234	431.27
413.443	509.09
413.651	570.53
413.86	625.83
414.068	648.35
414.276	625.83
414.485	636.06
414.693	638.11
414.901	742.56
415.11	818.33
415.318	826.53
415.526	824.48
415.734	879.77
415.943	857.25
416.151	851.1
416.359	849.05
416.567	930.97
416.776	900.25
416.984	1066.14
417.192	1023.13
417.4	1012.89
417.608	1012.89
417.817	1041.56
418.025	1082.52
418.233	1266.84
418.441	1225.88
418.649	1232.02
418.857	1344.66
419.065	1375.38
419.273	1389.72
419.481	1389.72
419.689	1471.64
419.897	1701.01
420.105	1545.36
420.313	1647.76
420.521	1614.99
420.729	1791.12
420.937	1825.93
421.145	1940.62
421.353	1948.81
421.561	2026.64
421.769	2032.78
421.977	2174.09
422.185	2110.6
422.393	2274.44
422.601	2477.19
422.809	2407.56
423.017	2303.11
423.224	2544.77
423.432	2669.7
423.64	2577.54
423.848	2849.92
424.056	2794.62
424.263	3058.81
424.471	3026.04
424.679	3071.1
424.887	3320.95
425.094	3275.9
425.302	3341.43
425.51	3417.21
425.718	3597.43
425.925	3685.49
426.133	3728.5
426.341	3902.58
426.548	4013.17
426.756	4183.15
426.964	4211.82
427.171	4441.19
427.379	4496.49
427.586	4754.53
427.794	4883.55
428.001	5031.01
428.209	5467.22
428.417	5065.82
428.624	5448.79
428.832	5440.6
429.039	5426.26
429.247	5510.23
429.454	6009.93
429.662	6478.92
429.869	6048.85
430.076	6397
430.284	6032.46
430.491	6413.38
430.699	6782.02
430.906	6908.99
431.114	6863.94
431.321	7224.38
431.528	7263.29
431.736	7615.54
431.943	8102.96
432.15	7771.19
432.358	8041.52
432.565	8283.18
432.772	8365.1
432.979	8983.59
433.187	9040.93
433.394	9110.56
433.601	9526.3
433.808	9815.06
434.016	9552.92
434.223	9872.4
434.43	10703.88
434.637	10382.35
434.844	11076.61
435.052	11230.21
435.259	11195.39
435.466	11068.42
435.673	11162.62
435.88	11740.15
436.087	12504.04
436.294	12594.15
436.501	12311.53
436.708	12645.35
436.915	12796.9
437.122	13216.74
437.329	13462.49
437.537	13786.07
437.743	14162.9
437.95	14091.22
438.157	14769.1
438.364	15199.17
438.571	15135.68
438.778	15111.11
438.985	16516.01
439.192	16036.79
439.399	16487.34
439.606	16198.58
439.813	17068.97
440.02	18066.33
440.227	17847.19
440.433	17478.56
440.64	17949.59
440.847	17951.64
441.054	18394
441.261	19999.61
441.467	19688.32
441.674	19596.16
441.881	20280.18
442.088	20308.85
442.294	20208.5
442.501	20953.96
442.708	20902.76
442.914	22203.22
443.121	22856.53
443.328	22246.23
443.534	23681.86
443.741	23503.68
443.948	22770.51
444.154	24593.2
444.361	24525.62
444.568	24673.07
444.774	24501.04
444.981	24785.71
445.187	25355.05
445.394	26129.18
445.6	25934.62
445.807	28601.08
446.013	27439.88
446.22	28062.46
446.426	29094.64
446.633	29440.75
446.839	30728.92
447.046	28932.85
447.252	30454.49
447.459	30833.36
447.665	30483.16
447.871	31738.57
448.078	33047.22
448.284	31562.44
448.491	32641.72
448.697	33522.35
448.903	34122.4
449.11	33956.52
449.316	33378.99
449.522	34183.84
449.728	35068.56
449.935	35269.26
450.141	35553.93
450.347	36407.94
450.553	35087
450.76	35404.43
450.966	36563.58
451.172	36051.59
451.378	36776.57
451.584	36508.29
451.791	37067.38
451.997	37124.72
452.203	37735.02
452.409	37438.06
452.615	37180.02
452.821	35951.24
453.027	35510.92
453.233	37231.22
453.44	35551.88
453.646	36160.13
453.852	36612.73
454.058	36950.65
454.264	35496.59
454.47	36504.19
454.676	35191.44
454.882	36522.62
455.088	33442.48
455.294	34036.39
455.5	34568.86
455.705	35209.87
455.911	33993.38
456.117	32709.3
456.323	32449.21
456.529	30376.67
456.735	31879.88
456.941	31118.03
457.147	30644.95
457.352	29657.83
457.558	29367.02
457.764	29367.02
457.97	28861.17
458.176	28414.71
458.381	28506.87
458.587	26825.49
458.793	26788.63
458.999	25422.63
459.204	27071.25
459.41	26637.08
459.616	24877.87
459.821	24922.93
460.027	24460.09
460.233	24226.62
460.438	22799.18
460.644	23327.56
460.85	21949.28
461.055	21807.97
461.261	21953.37
461.466	20222.84
461.672	19635.07
461.878	20865.9
462.083	19622.78
462.289	19125.13
462.494	19071.88
462.7	18207.64
462.905	17791.9
463.111	18305.94
463.316	18285.46
463.522	18066.33
463.727	18013.08
463.932	18203.54
464.138	17724.32
464.343	17816.47
464.549	17400.74
464.754	17855.39
464.959	17615.77
465.165	17464.22
465.37	16898.98
465.575	16493.49
465.781	17187.75
465.986	17013.67
466.191	16491.44
466.397	16425.9
466.602	15475.65
466.807	16192.44
467.012	16126.9
467.218	16180.15
467.423	15739.83
