Data from USB4F104151__180__10-27-51-257.txt Node

Date: Wed Mar 12 10:27:51 EDT 2025
User: louis
Spectrometer: USB4F10415
Trigger mode: 4
Integration Time (sec): 3.000000E-2
Scans to average: 1
Electric dark correction enabled: true
Nonlinearity correction enabled: false
Boxcar width: 0
XAxis mode: Wavelengths
Number of Pixels in Spectrum: 3648
>>>>>Begin Spectral Data<<<<<
178.204	-147.11
178.424	-147.11
178.644	-147.11
178.864	-118.44
179.084	-169.64
179.304	-34.47
179.524	22.87
179.744	-13.99
179.964	26.96
180.184	29.01
180.404	24.92
180.624	-16.04
180.844	0.34
181.064	-16.04
181.283	-38.57
181.503	29.01
181.723	-13.99
181.943	18.77
182.163	61.78
182.383	43.35
182.602	43.35
182.822	47.44
183.042	29.01
183.262	37.2
183.482	14.68
183.701	-9.9
183.921	37.2
184.141	-34.47
184.361	-1.71
184.58	14.68
184.8	-16.04
185.02	-26.28
185.239	22.87
185.459	16.73
185.679	-28.33
185.898	-77.48
186.118	61.78
186.338	-1.71
186.557	41.3
186.777	-28.33
186.997	-32.43
187.216	-22.19
187.436	-30.38
187.655	55.64
187.875	0.34
188.095	45.4
188.314	-28.33
188.534	96.6
188.753	-48.81
188.973	14.68
189.192	-1.71
189.412	51.54
189.631	-9.9
189.851	41.3
190.07	-28.33
190.29	8.53
190.509	-3.75
190.729	-16.04
190.948	31.06
191.168	61.78
191.387	53.59
191.607	55.64
191.826	-11.95
192.045	49.49
192.265	-44.71
192.484	4.44
192.704	6.49
192.923	26.96
193.142	104.79
193.362	-11.95
193.581	31.06
193.8	33.11
194.02	16.73
194.239	-16.04
194.458	-18.09
194.678	-13.99
194.897	74.07
195.116	4.44
195.335	0.34
195.555	33.11
195.774	20.82
195.993	55.64
196.212	20.82
196.432	31.06
196.651	47.44
196.87	-32.43
197.089	74.07
197.308	-59.05
197.528	57.68
197.747	-5.8
197.966	-13.99
198.185	86.36
198.404	41.3
198.623	35.16
198.842	4.44
199.062	-11.95
199.281	14.68
199.5	49.49
199.719	16.73
199.938	69.97
200.157	53.59
200.376	31.06
200.595	20.82
200.814	16.73
201.033	-3.75
201.252	22.87
201.471	35.16
201.69	18.77
201.909	26.96
202.128	-28.33
202.347	20.82
202.566	57.68
202.785	-44.71
203.004	-67.24
203.223	67.92
203.442	59.73
203.661	-1.71
203.879	6.49
204.098	24.92
204.317	6.49
204.536	72.02
204.755	29.01
204.974	35.16
205.193	-9.9
205.411	57.68
205.63	69.97
205.849	8.53
206.068	-18.09
206.287	-36.52
206.505	-1.71
206.724	16.73
206.943	-11.95
207.162	-57
207.381	86.36
207.599	-20.14
207.818	26.96
208.037	20.82
208.255	-16.04
208.474	31.06
208.693	57.68
208.911	-95.91
209.13	22.87
209.349	53.59
209.567	37.2
209.786	94.55
210.005	57.68
210.223	55.64
210.442	33.11
210.661	80.21
210.879	-16.04
211.098	65.88
211.316	10.58
211.535	37.2
211.753	-50.86
211.972	41.3
212.191	-3.75
212.409	18.77
212.628	41.3
212.846	31.06
213.065	24.92
213.283	61.78
213.502	61.78
213.72	41.3
213.938	26.96
214.157	90.45
214.375	-1.71
214.594	-7.85
214.812	20.82
215.031	31.06
215.249	-9.9
215.467	37.2
215.686	43.35
215.904	26.96
216.122	8.53
216.341	29.01
216.559	-16.04
216.778	110.93
216.996	69.97
217.214	-22.19
217.432	-50.86
217.651	-3.75
217.869	45.4
218.087	41.3
218.306	6.49
218.524	12.63
218.742	6.49
218.96	72.02
219.179	12.63
219.397	14.68
219.615	78.16
219.833	88.4
220.051	-13.99
220.27	125.27
220.488	33.11
220.706	-16.04
220.924	-89.77
221.142	57.68
221.36	20.82
221.578	20.82
221.796	16.73
222.015	-18.09
222.233	80.21
222.451	47.44
222.669	31.06
222.887	76.12
223.105	0.34
223.323	35.16
223.541	-9.9
223.759	20.82
223.977	20.82
224.195	18.77
224.413	41.3
224.631	47.44
224.849	6.49
225.067	57.68
225.285	-30.38
225.503	115.03
225.721	12.63
225.939	53.59
226.157	8.53
226.375	47.44
226.592	-54.95
226.81	-28.33
227.028	20.82
227.246	33.11
227.464	8.53
227.682	45.4
227.9	-26.28
228.117	-3.75
228.335	59.73
228.553	-22.19
228.771	8.53
228.989	-40.62
229.206	0.34
229.424	-32.43
229.642	-50.86
229.86	41.3
230.077	-38.57
230.295	-9.9
230.513	57.68
230.731	90.45
230.948	24.92
231.166	37.2
231.384	-9.9
231.601	10.58
231.819	16.73
232.037	-61.1
232.254	-65.19
232.472	37.2
232.689	4.44
232.907	24.92
233.125	-7.85
233.342	98.64
233.56	33.11
233.777	0.34
233.995	2.39
234.213	49.49
234.43	51.54
234.648	92.5
234.865	51.54
235.083	24.92
235.3	6.49
235.518	0.34
235.735	76.12
235.953	22.87
236.17	-16.04
236.388	4.44
236.605	8.53
236.822	47.44
237.04	-11.95
237.257	-20.14
237.475	-24.23
237.692	-32.43
237.909	41.3
238.127	65.88
238.344	65.88
238.562	16.73
238.779	-32.43
238.996	-38.57
239.214	90.45
239.431	61.78
239.648	2.39
239.865	98.64
240.083	-24.23
240.3	74.07
240.517	12.63
240.735	49.49
240.952	29.01
241.169	69.97
241.386	26.96
241.603	33.11
241.821	-22.19
242.038	-26.28
242.255	47.44
242.472	-18.09
242.689	-3.75
242.907	86.36
243.124	74.07
243.341	-9.9
243.558	-40.62
243.775	47.44
243.992	-32.43
244.209	35.16
244.426	94.55
244.643	88.4
244.86	20.82
245.078	24.92
245.295	4.44
245.512	-26.28
245.729	-65.19
245.946	51.54
246.163	33.11
246.38	-57
246.597	47.44
246.814	4.44
247.031	0.34
247.248	47.44
247.464	-3.75
247.681	51.54
247.898	86.36
248.115	65.88
248.332	-24.23
248.549	18.77
248.766	31.06
248.983	47.44
249.2	63.83
249.417	65.88
249.633	-57
249.85	65.88
250.067	49.49
250.284	74.07
250.501	24.92
250.717	135.51
250.934	26.96
251.151	22.87
251.368	12.63
251.585	12.63
251.801	18.77
252.018	106.84
252.235	6.49
252.451	-77.48
252.668	-11.95
252.885	47.44
253.102	-18.09
253.318	26.96
253.535	-3.75
253.752	16.73
253.968	45.4
254.185	33.11
254.401	0.34
254.618	51.54
254.835	47.44
255.051	84.31
255.268	43.35
255.484	14.68
255.701	4.44
255.917	61.78
256.134	-7.85
256.351	76.12
256.567	98.64
256.784	-3.75
257	-1.71
257.217	22.87
257.433	-11.95
257.65	8.53
257.866	-20.14
258.082	37.2
258.299	8.53
258.515	24.92
258.732	55.64
258.948	20.82
259.165	16.73
259.381	41.3
259.597	82.26
259.814	96.6
260.03	16.73
260.246	37.2
260.463	76.12
260.679	-16.04
260.895	119.12
261.112	63.83
261.328	-38.57
261.544	98.64
261.761	119.12
261.977	-16.04
262.193	18.77
262.409	49.49
262.626	-11.95
262.842	55.64
263.058	-24.23
263.274	59.73
263.49	33.11
263.707	31.06
263.923	-11.95
264.139	53.59
264.355	49.49
264.571	98.64
264.787	26.96
265.004	67.92
265.22	-7.85
265.436	4.44
265.652	-54.95
265.868	37.2
266.084	29.01
266.3	-18.09
266.516	4.44
266.732	-24.23
266.948	6.49
267.164	67.92
267.38	-57
267.596	63.83
267.812	-3.75
268.028	2.39
268.244	24.92
268.46	-54.95
268.676	22.87
268.892	41.3
269.108	-1.71
269.324	-24.23
269.54	-3.75
269.756	80.21
269.972	-24.23
270.188	20.82
270.403	-44.71
270.619	65.88
270.835	0.34
271.051	59.73
271.267	57.68
271.483	100.69
271.698	16.73
271.914	78.16
272.13	82.26
272.346	-7.85
272.562	61.78
272.777	8.53
272.993	18.77
273.209	45.4
273.425	131.41
273.64	14.68
273.856	78.16
274.072	43.35
274.287	-71.34
274.503	39.25
274.719	33.11
274.934	-9.9
275.15	-3.75
275.366	53.59
275.581	-18.09
275.797	53.59
276.012	43.35
276.228	31.06
276.444	37.2
276.659	69.97
276.875	-1.71
277.09	92.5
277.306	65.88
277.521	45.4
277.737	-32.43
277.952	86.36
278.168	0.34
278.383	-11.95
278.599	39.25
278.814	88.4
279.03	76.12
279.245	80.21
279.461	24.92
279.676	51.54
279.892	31.06
280.107	16.73
280.322	-57
280.538	-18.09
280.753	63.83
280.969	51.54
281.184	67.92
281.399	47.44
281.615	69.97
281.83	57.68
282.045	-34.47
282.26	20.82
282.476	47.44
282.691	49.49
282.906	26.96
283.122	10.58
283.337	88.4
283.552	-16.04
283.767	29.01
283.983	78.16
284.198	-57
284.413	33.11
284.628	-65.19
284.843	-34.47
285.058	18.77
285.274	47.44
285.489	-28.33
285.704	106.84
285.919	41.3
286.134	94.55
286.349	49.49
286.564	41.3
286.779	108.88
286.995	-16.04
287.21	-85.67
287.425	74.07
287.64	24.92
287.855	-1.71
288.07	-7.85
288.285	18.77
288.5	65.88
288.715	29.01
288.93	-30.38
289.145	-30.38
289.36	78.16
289.575	43.35
289.79	-22.19
290.004	20.82
290.219	61.78
290.434	63.83
290.649	39.25
290.864	82.26
291.079	-18.09
291.294	-30.38
291.509	-26.28
291.724	-1.71
291.938	22.87
292.153	65.88
292.368	26.96
292.583	37.2
292.798	80.21
293.012	-9.9
293.227	31.06
293.442	31.06
293.657	82.26
293.871	37.2
294.086	63.83
294.301	117.08
294.516	74.07
294.73	92.5
294.945	-11.95
295.16	-1.71
295.374	16.73
295.589	74.07
295.804	-26.28
296.018	24.92
296.233	55.64
296.447	-11.95
296.662	18.77
296.877	94.55
297.091	4.44
297.306	49.49
297.52	49.49
297.735	110.93
297.949	-38.57
298.164	37.2
298.378	2.39
298.593	26.96
298.807	-34.47
299.022	78.16
299.236	-30.38
299.451	20.82
299.665	2.39
299.88	12.63
300.094	37.2
300.309	100.69
300.523	-18.09
300.737	-7.85
300.952	67.92
301.166	61.78
301.381	8.53
301.595	-7.85
301.809	63.83
302.024	39.25
302.238	-40.62
302.452	45.4
302.667	53.59
302.881	24.92
303.095	0.34
303.309	6.49
303.524	-1.71
303.738	65.88
303.952	16.73
304.166	6.49
304.381	-1.71
304.595	39.25
304.809	10.58
305.023	-3.75
305.237	63.83
305.452	39.25
305.666	-48.81
305.88	29.01
306.094	63.83
306.308	-7.85
306.522	16.73
306.736	-28.33
306.95	12.63
307.164	55.64
307.379	53.59
307.593	65.88
307.807	86.36
308.021	96.6
308.235	51.54
308.449	98.64
308.663	16.73
308.877	26.96
309.091	12.63
309.305	82.26
309.519	-26.28
309.733	94.55
309.947	-34.47
310.161	135.51
310.374	67.92
310.588	-3.75
310.802	-1.71
311.016	43.35
311.23	33.11
311.444	12.63
311.658	55.64
311.872	10.58
312.085	55.64
312.299	61.78
312.513	8.53
312.727	-22.19
312.941	-20.14
313.154	29.01
313.368	-11.95
313.582	29.01
313.796	37.2
314.009	35.16
314.223	20.82
314.437	41.3
314.651	-20.14
314.864	22.87
315.078	69.97
315.292	-13.99
315.505	-81.58
315.719	29.01
315.933	86.36
316.146	-24.23
316.36	-18.09
316.573	-28.33
316.787	-42.67
317.001	10.58
317.214	33.11
317.428	33.11
317.641	33.11
317.855	33.11
318.068	37.2
318.282	55.64
318.495	31.06
318.709	-52.91
318.922	39.25
319.136	84.31
319.349	37.2
319.563	67.92
319.776	-5.8
319.99	-46.76
320.203	-16.04
320.417	14.68
320.63	100.69
320.843	88.4
321.057	33.11
321.27	4.44
321.483	33.11
321.697	41.3
321.91	31.06
322.124	49.49
322.337	2.39
322.55	39.25
322.763	33.11
322.977	8.53
323.19	-13.99
323.403	-13.99
323.617	-11.95
323.83	-13.99
324.043	-46.76
324.256	78.16
324.469	33.11
324.683	69.97
324.896	82.26
325.109	-20.14
325.322	43.35
325.535	47.44
325.748	61.78
325.962	14.68
326.175	-57
326.388	37.2
326.601	90.45
326.814	45.4
327.027	49.49
327.24	102.74
327.453	-3.75
327.666	57.68
327.879	-1.71
328.092	41.3
328.305	131.41
328.518	-18.09
328.731	-11.95
328.944	59.73
329.157	96.6
329.37	-5.8
329.583	78.16
329.796	-1.71
330.009	-59.05
330.222	-9.9
330.435	41.3
330.648	-50.86
330.861	72.02
331.073	29.01
331.286	-9.9
331.499	59.73
331.712	14.68
331.925	82.26
332.138	24.92
332.35	115.03
332.563	29.01
332.776	115.03
332.989	51.54
333.202	55.64
333.414	33.11
333.627	-40.62
333.84	12.63
334.053	14.68
334.265	20.82
334.478	-1.71
334.691	35.16
334.903	2.39
335.116	-7.85
335.329	31.06
335.541	108.88
335.754	43.35
335.966	37.2
336.179	49.49
336.392	45.4
336.604	65.88
336.817	88.4
337.029	47.44
337.242	-32.43
337.454	10.58
337.667	57.68
337.88	49.49
338.092	57.68
338.305	41.3
338.517	24.92
338.729	35.16
338.942	29.01
339.154	-11.95
339.367	-38.57
339.579	-40.62
339.792	-44.71
340.004	110.93
340.217	-24.23
340.429	22.87
340.641	43.35
340.854	-59.05
341.066	33.11
341.278	69.97
341.491	88.4
341.703	63.83
341.915	61.78
342.128	96.6
342.34	-34.47
342.552	63.83
342.764	98.64
342.977	78.16
343.189	26.96
343.401	-28.33
343.613	-20.14
343.826	45.4
344.038	-3.75
344.25	43.35
344.462	10.58
344.674	53.59
344.886	94.55
345.099	33.11
345.311	53.59
345.523	53.59
345.735	-69.29
345.947	80.21
346.159	18.77
346.371	37.2
346.583	4.44
346.795	43.35
347.007	-42.67
347.219	49.49
347.431	47.44
347.643	69.97
347.855	31.06
348.067	37.2
348.279	98.64
348.491	41.3
348.703	26.96
348.915	0.34
349.127	10.58
349.339	24.92
349.551	-42.67
349.763	88.4
349.975	4.44
350.187	20.82
350.399	29.01
350.61	82.26
350.822	31.06
351.034	-7.85
351.246	0.34
351.458	29.01
351.669	41.3
351.881	24.92
352.093	45.4
352.305	-11.95
352.517	-38.57
352.728	47.44
352.94	39.25
353.152	-5.8
353.363	47.44
353.575	20.82
353.787	61.78
353.999	72.02
354.21	65.88
354.422	-16.04
354.633	2.39
354.845	-16.04
355.057	31.06
355.268	-9.9
355.48	96.6
355.692	-24.23
355.903	26.96
356.115	8.53
356.326	-5.8
356.538	31.06
356.749	74.07
356.961	37.2
357.172	-61.1
357.384	43.35
357.595	100.69
357.807	-48.81
358.018	0.34
358.23	14.68
358.441	155.99
358.653	-3.75
358.864	29.01
359.075	35.16
359.287	-20.14
359.498	31.06
359.709	-1.71
359.921	-24.23
360.132	26.96
360.344	-26.28
360.555	37.2
360.766	96.6
360.977	69.97
361.189	65.88
361.4	41.3
361.611	67.92
361.823	-32.43
362.034	53.59
362.245	8.53
362.456	24.92
362.667	67.92
362.879	35.16
363.09	-34.47
363.301	-5.8
363.512	51.54
363.723	29.01
363.935	-50.86
364.146	72.02
364.357	0.34
364.568	31.06
364.779	-36.52
364.99	0.34
365.201	67.92
365.412	115.03
365.623	14.68
365.834	57.68
366.045	78.16
366.256	47.44
366.467	16.73
366.678	8.53
366.889	16.73
367.1	-26.28
367.311	82.26
367.522	-40.62
367.733	88.4
367.944	69.97
368.155	55.64
368.366	57.68
368.577	98.64
368.788	-5.8
368.999	43.35
369.209	24.92
369.42	24.92
369.631	151.89
369.842	82.26
370.053	53.59
370.264	24.92
370.474	82.26
370.685	84.31
370.896	117.08
371.107	88.4
371.317	98.64
371.528	-32.43
371.739	49.49
371.95	-26.28
372.16	82.26
372.371	49.49
372.582	-114.34
372.792	65.88
373.003	49.49
373.214	24.92
373.424	37.2
373.635	53.59
373.846	41.3
374.056	8.53
374.267	51.54
374.477	127.32
374.688	-11.95
374.898	33.11
375.109	-18.09
375.319	65.88
375.53	45.4
375.74	65.88
375.951	-1.71
376.161	10.58
376.372	-16.04
376.582	39.25
376.793	24.92
377.003	55.64
377.214	76.12
377.424	100.69
377.635	-48.81
377.845	39.25
378.055	61.78
378.266	16.73
378.476	14.68
378.686	47.44
378.897	53.59
379.107	55.64
379.317	16.73
379.528	16.73
379.738	63.83
379.948	-11.95
380.158	16.73
380.369	4.44
380.579	33.11
380.789	106.84
380.999	39.25
381.21	33.11
381.42	106.84
381.63	16.73
381.84	49.49
382.05	2.39
382.261	41.3
382.471	90.45
382.681	-24.23
382.891	6.49
383.101	61.78
383.311	-9.9
383.521	78.16
383.731	57.68
383.941	59.73
384.151	110.93
384.361	2.39
384.571	102.74
384.781	4.44
384.991	39.25
385.201	57.68
385.411	65.88
385.621	24.92
385.831	76.12
386.041	84.31
386.251	57.68
386.461	88.4
386.671	16.73
386.881	59.73
387.091	10.58
387.301	0.34
387.511	-40.62
387.72	69.97
387.93	61.78
388.14	57.68
388.35	41.3
388.56	82.26
388.769	-5.8
388.979	0.34
389.189	61.78
389.399	80.21
389.609	55.64
389.818	98.64
390.028	53.59
390.238	-11.95
390.447	92.5
390.657	31.06
390.867	63.83
391.076	49.49
391.286	108.88
391.496	57.68
391.705	29.01
391.915	90.45
392.125	26.96
392.334	57.68
392.544	90.45
392.753	96.6
392.963	96.6
393.172	49.49
393.382	8.53
393.591	63.83
393.801	74.07
394.01	174.42
394.22	123.22
394.429	45.4
394.639	47.44
394.848	4.44
395.058	33.11
395.267	43.35
395.477	92.5
395.686	78.16
395.895	104.79
396.105	24.92
396.314	31.06
396.524	-1.71
396.733	45.4
396.942	86.36
397.152	115.03
397.361	90.45
397.57	96.6
397.78	61.78
397.989	82.26
398.198	59.73
398.407	74.07
398.617	57.68
398.826	110.93
399.035	100.69
399.244	22.87
399.453	69.97
399.663	90.45
399.872	98.64
400.081	55.64
400.29	100.69
400.499	72.02
400.708	125.27
400.917	129.36
401.127	88.4
401.336	51.54
401.545	76.12
401.754	96.6
401.963	145.75
402.172	41.3
402.381	147.8
402.59	137.56
402.799	35.16
403.008	170.32
403.217	108.88
403.426	98.64
403.635	35.16
403.844	158.03
404.053	106.84
404.262	74.07
404.471	180.56
404.68	106.84
404.888	119.12
405.097	110.93
405.306	174.42
405.515	110.93
405.724	108.88
405.933	137.56
406.142	135.51
406.35	98.64
406.559	84.31
406.768	119.12
406.977	119.12
407.185	188.75
407.394	180.56
407.603	221.52
407.812	203.09
408.02	176.47
408.229	145.75
408.438	119.12
408.646	110.93
408.855	188.75
409.064	194.9
409.272	237.91
409.481	231.76
409.69	285.01
409.898	225.62
410.107	205.14
410.315	299.34
410.524	262.48
410.733	285.01
410.941	258.39
411.15	354.64
411.358	299.34
411.567	319.82
411.775	393.55
411.984	332.11
412.192	373.07
412.401	295.25
412.609	405.84
412.818	313.68
413.026	328.02
413.234	424.27
413.443	334.16
413.651	416.08
413.86	426.32
414.068	508.24
414.276	487.76
414.485	475.47
414.693	545.1
414.901	604.49
415.11	506.19
415.318	573.77
415.526	536.91
415.734	610.64
415.943	618.83
416.151	665.93
416.359	620.88
416.567	692.55
416.776	686.41
416.984	821.58
417.192	725.32
417.4	686.41
417.608	803.15
417.817	772.43
418.025	809.29
418.233	907.59
418.441	782.67
418.649	893.26
418.857	1093.96
419.065	1024.33
419.273	964.93
419.481	1034.57
419.689	1126.72
419.897	1122.63
420.105	1210.69
420.313	1233.22
420.521	1290.56
420.729	1339.71
420.937	1368.38
421.145	1284.42
421.353	1433.92
421.561	1491.26
421.769	1562.94
421.977	1515.84
422.185	1571.13
422.393	1687.87
422.601	1765.69
422.809	1687.87
423.017	1890.62
423.224	1855.8
423.432	1925.43
423.64	1921.34
423.848	2081.08
424.056	2031.93
424.263	2095.41
424.471	2240.82
424.679	2296.11
424.887	2287.92
425.094	2375.99
425.302	2281.78
425.51	2488.62
425.718	2529.58
425.925	2621.74
426.133	2672.94
426.341	2826.54
426.548	2939.18
426.756	3033.38
426.964	2976.04
427.171	3291.43
427.379	3408.16
427.586	3273
427.794	3350.82
428.001	3637.53
428.209	3688.73
428.417	3801.37
428.624	3957.02
428.832	4075.8
429.039	4010.26
429.247	4020.5
429.454	4202.77
429.662	4538.64
429.869	4534.54
430.076	4602.13
430.284	4495.63
430.491	4643.09
430.699	4991.24
430.906	5015.82
431.114	4954.38
431.321	5224.71
431.528	5329.16
431.736	5634.3
431.943	5953.79
432.15	5642.5
432.358	5835
432.565	6056.18
432.772	6136.06
432.979	6410.48
433.187	6433.01
433.394	6480.11
433.601	7006.44
433.808	7084.27
434.016	6998.25
434.223	7135.46
434.43	7616.74
434.637	7659.74
434.844	7874.78
435.052	7833.82
435.259	8126.68
435.466	8241.37
435.673	8177.88
435.88	8601.81
436.087	9230.54
436.294	8949.96
436.501	8808.65
436.708	8956.11
436.915	9228.49
437.122	9763.01
437.329	9722.05
437.537	10039.48
437.743	10299.58
437.95	10031.29
438.157	10715.31
438.364	11092.14
438.571	11092.14
438.778	11116.72
438.985	11970.72
439.192	11704.48
439.399	12011.68
439.606	11896.99
439.813	12302.49
440.02	13078.67
440.227	13029.52
440.433	12712.08
440.64	13422.73
440.847	13082.77
441.054	13541.51
441.261	14260.35
441.467	13916.29
441.674	14233.72
441.881	14844.02
442.088	14796.92
442.294	14579.83
442.501	15198.32
442.708	15290.48
442.914	15943.78
443.121	16791.64
443.328	16388.19
443.534	17541.19
443.741	16941.14
443.948	16676.95
444.154	17965.12
444.361	18010.18
444.568	17700.94
444.774	17739.85
444.981	18090.05
445.187	18686.01
445.394	19335.21
445.6	19036.21
445.807	20908.05
446.013	20215.84
446.22	20441.12
446.426	21200.91
446.633	21391.37
446.839	22108.16
447.046	20846.62
447.252	22329.34
447.459	22448.13
447.665	22075.4
447.871	23103.48
448.078	24094.69
448.284	23138.29
448.491	23832.55
448.697	24842.2
448.903	24862.68
449.11	24872.92
449.316	24741.85
449.522	25001.94
449.728	25462.74
449.935	25862.09
450.141	25700.3
450.347	26314.69
450.553	25577.42
450.76	25741.26
450.966	26462.15
451.172	26353.6
451.378	26875.84
451.584	26453.95
451.791	26902.46
451.997	26777.53
452.203	27449.27
452.409	27137.98
452.615	27258.81
452.821	26054.6
453.027	25751.5
453.233	27058.1
453.44	25999.3
453.646	26468.29
453.852	26445.76
454.058	26724.29
454.264	25995.21
454.47	26273.73
454.676	25999.3
454.882	26599.36
455.088	24389.6
455.294	24768.48
455.5	24768.48
455.705	25370.58
455.911	24375.27
456.117	23762.92
456.323	23517.17
456.529	22067.2
456.735	23111.67
456.941	22542.33
457.147	21999.62
457.352	21633.04
457.558	21264.4
457.764	21317.65
457.97	21098.52
458.176	20373.53
458.381	20283.42
458.587	19261.49
458.793	19238.96
458.999	18270.27
459.204	19544.11
459.41	19068.98
459.616	18028.61
459.821	17850.44
460.027	17666.12
460.233	17236.05
460.438	16513.11
460.644	16615.51
460.85	15736.93
461.055	15681.64
461.261	15628.39
461.466	14340.22
461.672	14084.22
461.878	15128.69
462.083	14418.04
462.289	13738.12
462.494	13883.52
462.7	13248.65
462.905	12914.83
463.111	13191.31
463.316	13297.8
463.522	12916.88
463.727	12914.83
463.932	12963.98
464.138	12851.35
464.343	12884.11
464.549	12531.86
464.754	13041.81
464.959	12949.65
465.165	12914.83
465.37	12230.81
465.575	11915.42
465.781	12159.13
465.986	12394.65
466.191	12150.94
466.397	11856.03
466.602	11206.83
466.807	11776.16
467.012	11690.15
467.218	11579.56
467.423	11280.55
467.628	11421.86
467.833	11972.77
