Data from USB4F104151__19__10-21-16-710.txt Node

Date: Wed Mar 12 10:21:16 EDT 2025
User: louis
Spectrometer: USB4F10415
Trigger mode: 4
Integration Time (sec): 3.000000E-2
Scans to average: 1
Electric dark correction enabled: true
Nonlinearity correction enabled: false
Boxcar width: 0
XAxis mode: Wavelengths
Number of Pixels in Spectrum: 3648
>>>>>Begin Spectral Data<<<<<
178.204	-133.29
178.424	-133.29
178.644	-133.29
178.864	-135.34
179.084	-151.72
179.304	-12.46
179.524	-41.13
179.744	5.97
179.964	71.51
180.184	-0.17
180.404	32.6
180.624	-43.18
180.844	-41.13
181.064	24.4
181.283	8.02
181.503	-61.61
181.723	57.17
181.943	-20.65
182.163	40.79
182.383	-26.79
182.602	-22.7
182.822	38.74
183.042	3.93
183.262	67.41
183.482	57.17
183.701	48.98
183.921	-49.32
184.141	-47.27
184.361	5.97
184.58	3.93
184.8	48.98
185.02	24.4
185.239	53.08
185.459	-69.8
185.679	42.84
185.898	-32.94
186.118	-16.55
186.338	-12.46
186.557	-0.17
186.777	77.65
186.997	48.98
187.216	10.07
187.436	44.88
187.655	85.84
187.875	69.46
188.095	48.98
188.314	30.55
188.534	57.17
188.753	-0.17
188.973	32.6
189.192	65.36
189.412	46.93
189.631	-4.27
189.851	73.56
190.07	91.99
190.29	-43.18
190.509	10.07
190.729	20.31
190.948	40.79
191.168	159.57
191.387	-28.84
191.607	-37.03
191.826	77.65
192.045	57.17
192.265	73.56
192.484	8.02
192.704	10.07
192.923	16.21
193.142	116.56
193.362	-10.41
193.581	48.98
193.8	12.12
194.02	59.22
194.239	32.6
194.458	53.08
194.678	65.36
194.897	40.79
195.116	-30.89
195.335	3.93
195.555	24.4
195.774	22.36
195.993	1.88
196.212	83.8
196.432	10.07
196.651	55.12
196.87	-45.23
197.089	65.36
197.308	16.21
197.528	106.32
197.747	-24.75
197.966	51.03
198.185	91.99
198.404	36.69
198.623	85.84
198.842	65.36
199.062	30.55
199.281	-12.46
199.5	48.98
199.719	14.17
199.938	30.55
200.157	28.5
200.376	36.69
200.595	83.8
200.814	-51.37
201.033	53.08
201.252	10.07
201.471	16.21
201.69	20.31
201.909	26.45
202.128	1.88
202.347	77.65
202.566	65.36
202.785	30.55
203.004	28.5
203.223	42.84
203.442	22.36
203.661	12.12
203.879	-20.65
204.098	14.17
204.317	1.88
204.536	77.65
204.755	28.5
204.974	67.41
205.193	22.36
205.411	165.71
205.63	3.93
205.849	75.6
206.068	-12.46
206.287	20.31
206.505	-8.36
206.724	3.93
206.943	51.03
207.162	32.6
207.381	42.84
207.599	-16.55
207.818	28.5
208.037	46.93
208.255	106.32
208.474	-24.75
208.693	67.41
208.911	8.02
209.13	30.55
209.349	-45.23
209.567	12.12
209.786	55.12
210.005	73.56
210.223	96.08
210.442	-28.84
210.661	3.93
210.879	-2.22
211.098	63.32
211.316	77.65
211.535	30.55
211.753	1.88
211.972	91.99
212.191	-0.17
212.409	91.99
212.628	36.69
212.846	48.98
213.065	63.32
213.283	135
213.502	61.27
213.72	10.07
213.938	30.55
214.157	81.75
214.375	55.12
214.594	-0.17
214.812	61.27
215.031	3.93
215.249	53.08
215.467	3.93
215.686	-24.75
215.904	79.7
216.122	-12.46
216.341	100.18
216.559	32.6
216.778	106.32
216.996	14.17
217.214	-6.31
217.432	34.64
217.651	28.5
217.869	81.75
218.087	108.37
218.306	-37.03
218.524	75.6
218.742	40.79
218.96	75.6
219.179	20.31
219.397	3.93
219.615	94.04
219.833	135
220.051	10.07
220.27	20.31
220.488	61.27
220.706	30.55
220.924	-4.27
221.142	46.93
221.36	77.65
221.578	-2.22
221.796	61.27
222.015	12.12
222.233	53.08
222.451	65.36
222.669	44.88
222.887	14.17
223.105	-20.65
223.323	51.03
223.541	100.18
223.759	91.99
223.977	-22.7
224.195	14.17
224.413	44.88
224.631	5.97
224.849	-61.61
225.067	53.08
225.285	30.55
225.503	26.45
225.721	-28.84
225.939	57.17
226.157	69.46
226.375	178
226.592	32.6
226.81	40.79
227.028	83.8
227.246	55.12
227.464	-8.36
227.682	59.22
227.9	46.93
228.117	8.02
228.335	-45.23
228.553	-24.75
228.771	-4.27
228.989	42.84
229.206	36.69
229.424	-37.03
229.642	-4.27
229.86	36.69
230.077	38.74
230.295	46.93
230.513	89.94
230.731	-24.75
230.948	44.88
231.166	20.31
231.384	3.93
231.601	-12.46
231.819	61.27
232.037	-53.42
232.254	8.02
232.472	28.5
232.689	-2.22
232.907	-16.55
233.125	-22.7
233.342	91.99
233.56	-10.41
233.777	-30.89
233.995	-12.46
234.213	20.31
234.43	28.5
234.648	38.74
234.865	3.93
235.083	24.4
235.3	42.84
235.518	73.56
235.735	28.5
235.953	14.17
236.17	135
236.388	67.41
236.605	71.51
236.822	59.22
237.04	38.74
237.257	14.17
237.475	-4.27
237.692	34.64
237.909	38.74
238.127	-4.27
238.344	94.04
238.562	-2.22
238.779	69.46
238.996	-0.17
239.214	20.31
239.431	100.18
239.648	28.5
239.865	20.31
240.083	42.84
240.3	57.17
240.517	-12.46
240.735	26.45
240.952	51.03
241.169	63.32
241.386	-73.9
241.603	102.23
241.821	-30.89
242.038	73.56
242.255	1.88
242.472	18.26
242.689	73.56
242.907	110.42
243.124	34.64
243.341	108.37
243.558	10.07
243.775	51.03
243.992	-47.27
244.209	10.07
244.426	16.21
244.643	75.6
244.86	61.27
245.078	53.08
245.295	67.41
245.512	-22.7
245.729	-6.31
245.946	26.45
246.163	63.32
246.38	69.46
246.597	-28.84
246.814	28.5
247.031	53.08
247.248	24.4
247.464	53.08
247.681	20.31
247.898	26.45
248.115	-6.31
248.332	-34.99
248.549	79.7
248.766	-10.41
248.983	-49.32
249.2	112.47
249.417	81.75
249.633	-2.22
249.85	98.13
250.067	110.42
250.284	34.64
250.501	63.32
250.717	94.04
250.934	-28.84
251.151	-49.32
251.368	67.41
251.585	34.64
251.801	-22.7
252.018	-0.17
252.235	48.98
252.451	10.07
252.668	85.84
252.885	-6.31
253.102	73.56
253.318	-32.94
253.535	12.12
253.752	-14.51
253.968	-12.46
254.185	94.04
254.401	44.88
254.618	44.88
254.835	67.41
255.051	94.04
255.268	46.93
255.484	-0.17
255.701	44.88
255.917	40.79
256.134	51.03
256.351	30.55
256.567	69.46
256.784	48.98
257	-39.08
257.217	91.99
257.433	44.88
257.65	26.45
257.866	114.52
258.082	30.55
258.299	46.93
258.515	8.02
258.732	-39.08
258.948	-45.23
259.165	40.79
259.381	40.79
259.597	36.69
259.814	5.97
260.03	53.08
260.246	34.64
260.463	18.26
260.679	104.28
260.895	40.79
261.112	83.8
261.328	-37.03
261.544	-26.79
261.761	32.6
261.977	71.51
262.193	-12.46
262.409	65.36
262.626	114.52
262.842	87.89
263.058	28.5
263.274	61.27
263.49	-20.65
263.707	32.6
263.923	59.22
264.139	22.36
264.355	-14.51
264.571	77.65
264.787	48.98
265.004	28.5
265.22	36.69
265.436	55.12
265.652	20.31
265.868	16.21
266.084	61.27
266.3	28.5
266.516	24.4
266.732	10.07
266.948	34.64
267.164	91.99
267.38	75.6
267.596	38.74
267.812	61.27
268.028	71.51
268.244	44.88
268.46	32.6
268.676	12.12
268.892	12.12
269.108	16.21
269.324	16.21
269.54	20.31
269.756	30.55
269.972	24.4
270.188	53.08
270.403	38.74
270.619	71.51
270.835	22.36
271.051	3.93
271.267	-12.46
271.483	22.36
271.698	81.75
271.914	83.8
272.13	42.84
272.346	20.31
272.562	75.6
272.777	-20.65
272.993	51.03
273.209	28.5
273.425	46.93
273.64	10.07
273.856	128.85
274.072	-6.31
274.287	32.6
274.503	40.79
274.719	44.88
274.934	3.93
275.15	-10.41
275.366	53.08
275.581	5.97
275.797	67.41
276.012	-6.31
276.228	1.88
276.444	67.41
276.659	130.9
276.875	8.02
277.09	-4.27
277.306	112.47
277.521	-20.65
277.737	32.6
277.952	46.93
278.168	69.46
278.383	30.55
278.599	94.04
278.814	8.02
279.03	-4.27
279.245	24.4
279.461	40.79
279.676	22.36
279.892	10.07
280.107	-37.03
280.322	16.21
280.538	30.55
280.753	53.08
280.969	34.64
281.184	3.93
281.399	96.08
281.615	-22.7
281.83	63.32
282.045	46.93
282.26	28.5
282.476	63.32
282.691	130.9
282.906	36.69
283.122	42.84
283.337	69.46
283.552	57.17
283.767	-16.55
283.983	147.28
284.198	32.6
284.413	48.98
284.628	53.08
284.843	69.46
285.058	51.03
285.274	63.32
285.489	38.74
285.704	67.41
285.919	-18.6
286.134	-10.41
286.349	-28.84
286.564	77.65
286.779	53.08
286.995	12.12
287.21	40.79
287.425	-18.6
287.64	-37.03
287.855	53.08
288.07	51.03
288.285	44.88
288.5	18.26
288.715	69.46
288.93	5.97
289.145	42.84
289.36	32.6
289.575	42.84
289.79	26.45
290.004	53.08
290.219	116.56
290.434	20.31
290.649	-20.65
290.864	26.45
291.079	30.55
291.294	75.6
291.509	91.99
291.724	28.5
291.938	28.5
292.153	44.88
292.368	5.97
292.583	1.88
292.798	71.51
293.012	-8.36
293.227	36.69
293.442	-24.75
293.657	20.31
293.871	20.31
294.086	12.12
294.301	59.22
294.516	14.17
294.73	53.08
294.945	94.04
295.16	59.22
295.374	8.02
295.589	-4.27
295.804	32.6
296.018	65.36
296.233	30.55
296.447	71.51
296.662	38.74
296.877	30.55
297.091	48.98
297.306	12.12
297.52	3.93
297.735	44.88
297.949	57.17
298.164	48.98
298.378	28.5
298.593	42.84
298.807	16.21
299.022	-34.99
299.236	38.74
299.451	67.41
299.665	48.98
299.88	42.84
300.094	87.89
300.309	28.5
300.523	67.41
300.737	18.26
300.952	20.31
301.166	38.74
301.381	112.47
301.595	69.46
301.809	36.69
302.024	28.5
302.238	20.31
302.452	3.93
302.667	71.51
302.881	116.56
303.095	44.88
303.309	1.88
303.524	55.12
303.738	1.88
303.952	3.93
304.166	34.64
304.381	38.74
304.595	18.26
304.809	98.13
305.023	98.13
305.237	40.79
305.452	26.45
305.666	10.07
305.88	48.98
306.094	26.45
306.308	110.42
306.522	96.08
306.736	34.64
306.95	71.51
307.164	5.97
307.379	44.88
307.593	96.08
307.807	114.52
308.021	1.88
308.235	53.08
308.449	-0.17
308.663	63.32
308.877	42.84
309.091	48.98
309.305	38.74
309.519	38.74
309.733	67.41
309.947	42.84
310.161	38.74
310.374	104.28
310.588	114.52
310.802	24.4
311.016	38.74
311.23	104.28
311.444	40.79
311.658	55.12
311.872	77.65
312.085	-45.23
312.299	141.14
312.513	65.36
312.727	10.07
312.941	14.17
313.154	53.08
313.368	102.23
313.582	67.41
313.796	32.6
314.009	51.03
314.223	98.13
314.437	59.22
314.651	18.26
314.864	40.79
315.078	-20.65
315.292	16.21
315.505	96.08
315.719	44.88
315.933	69.46
316.146	57.17
316.36	24.4
316.573	55.12
316.787	34.64
317.001	182.1
317.214	44.88
317.428	42.84
317.641	26.45
317.855	-16.55
318.068	24.4
318.282	40.79
318.495	73.56
318.709	40.79
318.922	40.79
319.136	112.47
319.349	116.56
319.563	30.55
319.776	71.51
319.99	57.17
320.203	-20.65
320.417	81.75
320.63	8.02
320.843	71.51
321.057	1.88
321.27	51.03
321.483	46.93
321.697	81.75
321.91	77.65
322.124	24.4
322.337	59.22
322.55	69.46
322.763	48.98
322.977	44.88
323.19	5.97
323.403	59.22
323.617	94.04
323.83	63.32
324.043	18.26
324.256	42.84
324.469	3.93
324.683	48.98
324.896	34.64
325.109	69.46
325.322	-49.32
325.535	81.75
325.748	34.64
325.962	122.71
326.175	51.03
326.388	-6.31
326.601	83.8
326.814	48.98
327.027	81.75
327.24	87.89
327.453	20.31
327.666	38.74
327.879	1.88
328.092	77.65
328.305	10.07
328.518	32.6
328.731	30.55
328.944	10.07
329.157	44.88
329.37	-16.55
329.583	85.84
329.796	83.8
330.009	-16.55
330.222	22.36
330.435	57.17
330.648	1.88
330.861	51.03
331.073	32.6
331.286	100.18
331.499	-37.03
331.712	22.36
331.925	87.89
332.138	12.12
332.35	36.69
332.563	-47.27
332.776	94.04
332.989	3.93
333.202	46.93
333.414	53.08
333.627	12.12
333.84	-16.55
334.053	20.31
334.265	42.84
334.478	75.6
334.691	91.99
334.903	100.18
335.116	53.08
335.329	69.46
335.541	77.65
335.754	77.65
335.966	69.46
336.179	8.02
336.392	36.69
336.604	65.36
336.817	143.19
337.029	42.84
337.242	44.88
337.454	79.7
337.667	108.37
337.88	28.5
338.092	46.93
338.305	91.99
338.517	-24.75
338.729	53.08
338.942	114.52
339.154	22.36
339.367	26.45
339.579	59.22
339.792	-12.46
340.004	65.36
340.217	44.88
340.429	44.88
340.641	30.55
340.854	34.64
341.066	34.64
341.278	67.41
341.491	59.22
341.703	28.5
341.915	-47.27
342.128	28.5
342.34	65.36
342.552	34.64
342.764	44.88
342.977	89.94
343.189	-4.27
343.401	8.02
343.613	77.65
343.826	20.31
344.038	44.88
344.25	30.55
344.462	42.84
344.674	83.8
344.886	-20.65
345.099	-16.55
345.311	3.93
345.523	-61.61
345.735	14.17
345.947	18.26
346.159	42.84
346.371	-24.75
346.583	57.17
346.795	55.12
347.007	-39.08
347.219	63.32
347.431	53.08
347.643	20.31
347.855	-32.94
348.067	106.32
348.279	-47.27
348.491	114.52
348.703	71.51
348.915	65.36
349.127	28.5
349.339	-10.41
349.551	44.88
349.763	53.08
349.975	-26.79
350.187	75.6
350.399	53.08
350.61	67.41
350.822	98.13
351.034	46.93
351.246	112.47
351.458	124.76
351.669	36.69
351.881	51.03
352.093	135
352.305	83.8
352.517	65.36
352.728	98.13
352.94	89.94
353.152	28.5
353.363	57.17
353.575	28.5
353.787	155.47
353.999	36.69
354.21	149.33
354.422	12.12
354.633	12.12
354.845	53.08
355.057	38.74
355.268	34.64
355.48	30.55
355.692	-6.31
355.903	91.99
356.115	26.45
356.326	36.69
356.538	132.95
356.749	-14.51
356.961	73.56
357.172	36.69
357.384	-39.08
357.595	118.61
357.807	53.08
358.018	16.21
358.23	30.55
358.441	71.51
358.653	79.7
358.864	77.65
359.075	20.31
359.287	20.31
359.498	171.86
359.709	110.42
359.921	-12.46
360.132	-32.94
360.344	79.7
360.555	32.6
360.766	71.51
360.977	-20.65
361.189	85.84
361.4	22.36
361.611	94.04
361.823	126.8
362.034	32.6
362.245	40.79
362.456	16.21
362.667	94.04
362.879	12.12
363.09	5.97
363.301	53.08
363.512	75.6
363.723	71.51
363.935	-0.17
364.146	94.04
364.357	71.51
364.568	12.12
364.779	36.69
364.99	32.6
365.201	53.08
365.412	48.98
365.623	-6.31
365.834	46.93
366.045	42.84
366.256	-43.18
366.467	36.69
366.678	14.17
366.889	-16.55
367.1	57.17
367.311	18.26
367.522	36.69
367.733	26.45
367.944	18.26
368.155	104.28
368.366	67.41
368.577	20.31
368.788	65.36
368.999	-24.75
369.209	106.32
369.42	137.04
369.631	81.75
369.842	-0.17
370.053	108.37
370.264	124.76
370.474	53.08
370.685	34.64
370.896	42.84
371.107	91.99
371.317	169.81
371.528	102.23
371.739	102.23
371.95	110.42
372.16	122.71
372.371	-53.42
372.582	26.45
372.792	53.08
373.003	77.65
373.214	69.46
373.424	48.98
373.635	63.32
373.846	77.65
374.056	91.99
374.267	46.93
374.477	-22.7
374.688	59.22
374.898	73.56
375.109	75.6
375.319	-8.36
375.53	130.9
375.74	24.4
375.951	67.41
376.161	18.26
376.372	71.51
376.582	26.45
376.793	147.28
377.003	63.32
377.214	26.45
377.424	81.75
377.635	26.45
377.845	100.18
378.055	118.61
378.266	16.21
378.476	42.84
378.686	96.08
378.897	42.84
379.107	36.69
379.317	110.42
379.528	36.69
379.738	114.52
379.948	14.17
380.158	59.22
380.369	69.46
380.579	51.03
380.789	40.79
380.999	26.45
381.21	73.56
381.42	122.71
381.63	94.04
381.84	94.04
382.05	3.93
382.261	63.32
382.471	75.6
382.681	24.4
382.891	110.42
383.101	-39.08
383.311	69.46
383.521	71.51
383.731	118.61
383.941	40.79
384.151	75.6
384.361	22.36
384.571	44.88
384.781	55.12
384.991	126.8
385.201	69.46
385.411	71.51
385.621	108.37
385.831	81.75
386.041	36.69
386.251	100.18
386.461	106.32
386.671	-69.8
386.881	104.28
387.091	3.93
387.301	132.95
387.511	106.32
387.72	36.69
387.93	65.36
388.14	16.21
388.35	61.27
388.56	79.7
388.769	149.33
388.979	44.88
389.189	-8.36
389.399	94.04
389.609	69.46
389.818	16.21
390.028	65.36
390.238	63.32
390.447	83.8
390.657	77.65
390.867	91.99
391.076	55.12
391.286	100.18
391.496	51.03
391.705	89.94
391.915	118.61
392.125	102.23
392.334	22.36
392.544	65.36
392.753	94.04
392.963	73.56
393.172	91.99
393.382	89.94
393.591	104.28
393.801	28.5
394.01	114.52
394.22	96.08
394.429	67.41
394.639	151.38
394.848	112.47
395.058	118.61
395.267	94.04
395.477	79.7
395.686	48.98
395.895	157.52
396.105	116.56
396.314	122.71
396.524	73.56
396.733	61.27
396.942	100.18
397.152	139.09
397.361	106.32
397.57	46.93
397.78	77.65
397.989	147.28
398.198	157.52
398.407	141.14
398.617	61.27
398.826	100.18
399.035	81.75
399.244	94.04
399.453	135
399.663	40.79
399.872	20.31
400.081	53.08
400.29	108.37
400.499	81.75
400.708	167.76
400.917	108.37
401.127	186.19
401.336	110.42
401.545	200.53
401.754	135
401.963	157.52
402.172	12.12
402.381	194.39
402.59	130.9
402.799	55.12
403.008	116.56
403.217	241.49
403.426	65.36
403.635	143.19
403.844	132.95
404.053	159.57
404.262	122.71
404.471	218.96
404.68	208.72
404.888	192.34
405.097	169.81
405.306	110.42
405.515	237.39
405.724	221.01
405.933	272.21
406.142	223.06
406.35	218.96
406.559	196.43
406.768	188.24
406.977	274.26
407.185	249.68
407.394	200.53
407.603	261.97
407.812	261.97
408.02	270.16
408.229	272.21
408.438	313.17
408.646	270.16
408.855	257.87
409.064	329.55
409.272	286.54
409.481	362.32
409.69	290.64
409.898	321.36
410.107	403.28
410.315	429.9
410.524	399.18
410.733	360.27
410.941	395.09
411.15	386.9
411.358	474.96
411.567	446.29
411.775	479.05
411.984	438.09
412.192	438.09
412.401	431.95
412.609	454.48
412.818	552.78
413.026	601.93
413.234	511.82
413.443	534.35
413.651	612.17
413.86	556.88
414.068	610.12
414.276	651.08
414.485	646.99
414.693	728.91
414.901	800.59
415.11	776.01
415.318	780.11
415.526	814.92
415.734	902.98
415.943	847.69
416.151	851.78
416.359	913.22
416.567	970.57
416.776	978.76
416.984	1038.15
417.192	1181.51
417.4	1034.05
417.608	1113.92
417.817	1169.22
418.025	1292.1
418.233	1267.52
418.441	1255.23
418.649	1343.3
418.857	1386.3
419.065	1490.75
419.273	1382.21
419.481	1478.46
419.689	1550.14
419.897	1589.05
420.105	1630.01
420.313	1744.7
420.521	1843
420.729	1738.55
420.937	1767.23
421.145	1896.25
421.353	2041.65
421.561	2125.62
421.769	2174.77
421.977	2291.51
422.185	2148.15
422.393	2365.23
422.601	2518.83
422.809	2541.36
423.017	2559.79
423.224	2582.32
423.432	2744.11
423.64	2713.39
423.848	2957.1
424.056	2924.33
424.263	3143.46
424.471	3284.77
424.679	3221.28
424.887	3440.42
425.094	3493.66
425.302	3522.34
425.51	3653.41
425.718	3774.24
425.925	3712.8
426.133	3880.73
426.341	4149.01
426.548	4372.24
426.756	4439.83
426.964	4302.61
427.171	4620.05
427.379	4747.02
427.586	4939.53
427.794	5029.64
428.001	5166.85
428.209	5404.42
428.417	5496.58
428.624	5826.3
428.832	5787.39
429.039	5801.72
429.247	5635.84
429.454	6342.39
429.662	6749.93
429.869	6373.11
430.076	6639.34
430.284	6477.55
430.491	6868.72
430.699	7239.4
430.906	7085.8
431.114	7413.48
431.321	7454.44
431.528	7577.31
431.736	8273.62
431.943	8580.82
432.15	8048.35
432.358	8396.5
432.565	8875.73
432.772	8752.85
432.979	9154.25
433.187	9465.54
433.394	9457.35
433.601	10190.52
433.808	10165.95
434.016	9971.39
434.223	10385.08
434.43	11202.22
434.637	10976.94
434.844	11456.17
435.052	11695.78
435.259	11560.61
435.466	11685.54
435.673	11648.68
435.88	12414.62
436.087	13055.63
436.294	13096.59
436.501	12607.12
436.708	13016.72
436.915	13551.24
437.122	14005.89
437.329	14040.7
437.537	14392.95
437.743	14806.64
437.95	14673.53
438.157	15351.4
438.364	15785.57
438.571	15943.27
438.778	15908.45
438.985	17512.01
439.192	16973.39
439.399	17094.22
439.606	16889.43
439.813	17747.53
440.02	18921.01
440.227	18593.34
440.433	18251.33
440.64	18996.79
440.847	18697.78
441.054	19248.69
441.261	20796.95
441.467	20289.06
441.674	20815.38
441.881	21642.76
442.088	21388.81
442.294	21403.15
442.501	21593.61
442.708	22242.82
442.914	23494.13
443.121	24024.55
443.328	23285.23
443.534	25036.25
443.741	24561.12
443.948	24169.96
444.154	25875.91
444.361	25556.43
444.568	25746.89
444.774	25572.82
444.981	26056.14
445.187	26758.59
445.394	28044.71
445.6	27473.33
445.807	30381.45
446.013	28581.28
446.22	29199.77
446.426	30631.3
446.633	30649.73
446.839	31620.47
447.046	30127.5
447.252	32032.11
447.459	32044.4
447.665	31982.96
447.871	33074.52
448.078	34645.32
448.284	33140.06
448.491	33629.52
448.697	35224.89
448.903	36113.71
449.11	35480.89
449.316	34972.99
449.522	35775.8
449.728	36762.92
449.935	37233.95
450.141	36664.61
450.347	37747.99
450.553	36244.78
450.76	36717.86
450.966	37926.16
451.172	37633.3
451.378	38698.25
451.584	37895.44
451.791	38694.15
451.997	38501.64
452.203	38978.82
452.409	39204.1
452.615	39103.74
452.821	37184.8
453.027	36990.24
453.233	38829.32
453.44	37115.17
453.646	37741.85
453.852	37664.02
454.058	38407.44
454.264	36922.66
454.47	37965.07
454.676	36640.04
454.882	38102.29
455.088	34747.72
455.294	35116.35
455.5	35556.66
455.705	36093.23
455.911	34506.05
456.117	33703.25
456.323	33412.44
456.529	31970.67
456.735	33154.4
456.941	32197.99
457.147	31978.86
457.352	30686.59
457.558	30045.58
457.764	30334.34
457.97	29648.27
458.176	29037.98
458.381	29146.52
458.587	27846.06
458.793	27671.98
458.999	26082.76
459.204	27698.61
459.41	27379.12
459.616	25785.8
459.821	25804.24
460.027	25327.06
460.233	25093.59
460.438	23786.99
460.644	23842.28
460.85	22959.61
461.055	22496.77
461.261	22373.89
461.466	20895.25
461.672	20207.14
461.878	21605.9
462.083	20155.94
462.289	19721.77
462.494	19602.99
462.7	19002.93
462.905	18277.95
463.111	18767.41
463.316	19131.95
463.522	19002.93
463.727	18599.48
463.932	18484.8
464.138	18525.75
464.343	18288.19
464.549	17774.15
464.754	18650.68
464.959	18570.81
465.165	18339.39
465.37	17612.36
465.575	16768.6
465.781	17641.03
465.986	17823.3
466.191	16858.71
466.397	16959.06
466.602	16023.14
466.807	16524.89
467.012	16528.99
467.218	16471.64
467.423	16412.25
