Data from USB4F104151__130__10-25-23-464.txt Node

Date: Wed Mar 12 10:25:23 EDT 2025
User: louis
Spectrometer: USB4F10415
Trigger mode: 4
Integration Time (sec): 3.000000E-2
Scans to average: 1
Electric dark correction enabled: true
Nonlinearity correction enabled: false
Boxcar width: 0
XAxis mode: Wavelengths
Number of Pixels in Spectrum: 3648
>>>>>Begin Spectral Data<<<<<
178.204	-106.49
178.424	-106.49
178.644	-106.49
178.864	-129.02
179.084	-120.83
179.304	-34.82
179.524	36.86
179.744	77.82
179.964	28.67
180.184	12.29
180.404	43.01
180.624	18.43
180.844	-40.96
181.064	-40.96
181.283	-26.62
181.503	-32.77
181.723	-40.96
181.943	8.19
182.163	61.44
182.383	-2.05
182.602	-6.14
182.822	45.06
183.042	-6.14
183.262	10.24
183.482	104.45
183.701	32.77
183.921	-2.05
184.141	-69.63
184.361	30.72
184.58	49.15
184.8	32.77
185.02	22.53
185.239	34.82
185.459	45.06
185.679	67.58
185.898	-28.67
186.118	73.73
186.338	73.73
186.557	8.19
186.777	51.2
186.997	77.82
187.216	36.86
187.436	106.49
187.655	57.34
187.875	45.06
188.095	98.3
188.314	73.73
188.534	49.15
188.753	-10.24
188.973	43.01
189.192	94.21
189.412	-0
189.631	75.77
189.851	22.53
190.07	61.44
190.29	22.53
190.509	-12.29
190.729	34.82
190.948	86.01
191.168	116.73
191.387	59.39
191.607	-26.62
191.826	14.34
192.045	65.53
192.265	-14.34
192.484	124.93
192.704	-8.19
192.923	8.19
193.142	49.15
193.362	69.63
193.581	38.91
193.8	73.73
194.02	61.44
194.239	65.53
194.458	34.82
194.678	40.96
194.897	47.1
195.116	14.34
195.335	65.53
195.555	30.72
195.774	10.24
195.993	36.86
196.212	-16.38
196.432	4.1
196.651	12.29
196.87	-28.67
197.089	53.25
197.308	104.45
197.528	100.35
197.747	-63.49
197.966	40.96
198.185	88.06
198.404	-12.29
198.623	-16.38
198.842	30.72
199.062	57.34
199.281	94.21
199.5	4.1
199.719	81.92
199.938	88.06
200.157	38.91
200.376	20.48
200.595	75.77
200.814	47.1
201.033	26.62
201.252	24.58
201.471	40.96
201.69	57.34
201.909	-18.43
202.128	20.48
202.347	43.01
202.566	16.38
202.785	16.38
203.004	-14.34
203.223	100.35
203.442	73.73
203.661	79.87
203.879	-8.19
204.098	40.96
204.317	-53.25
204.536	40.96
204.755	71.68
204.974	124.93
205.193	30.72
205.411	120.83
205.63	67.58
205.849	73.73
206.068	26.62
206.287	8.19
206.505	90.11
206.724	38.91
206.943	30.72
207.162	16.38
207.381	-40.96
207.599	8.19
207.818	61.44
208.037	24.58
208.255	28.67
208.474	40.96
208.693	24.58
208.911	12.29
209.13	65.53
209.349	16.38
209.567	28.67
209.786	145.41
210.005	47.1
210.223	16.38
210.442	-0
210.661	-10.24
210.879	-2.05
211.098	18.43
211.316	90.11
211.535	49.15
211.753	40.96
211.972	114.69
212.191	40.96
212.409	131.07
212.628	71.68
212.846	26.62
213.065	49.15
213.283	124.93
213.502	59.39
213.72	-32.77
213.938	-12.29
214.157	8.19
214.375	36.86
214.594	24.58
214.812	45.06
215.031	57.34
215.249	24.58
215.467	102.4
215.686	49.15
215.904	110.59
216.122	57.34
216.341	131.07
216.559	51.2
216.778	63.49
216.996	100.35
217.214	53.25
217.432	-0
217.651	61.44
217.869	24.58
218.087	-4.1
218.306	57.34
218.524	65.53
218.742	43.01
218.96	65.53
219.179	12.29
219.397	69.63
219.615	32.77
219.833	-16.38
220.051	45.06
220.27	96.25
220.488	67.58
220.706	53.25
220.924	-12.29
221.142	-4.1
221.36	-8.19
221.578	94.21
221.796	38.91
222.015	47.1
222.233	34.82
222.451	137.21
222.669	26.62
222.887	98.3
223.105	30.72
223.323	63.49
223.541	-57.34
223.759	65.53
223.977	83.97
224.195	73.73
224.413	120.83
224.631	71.68
224.849	22.53
225.067	45.06
225.285	63.49
225.503	26.62
225.721	-34.82
225.939	-0
226.157	43.01
226.375	104.45
226.592	-12.29
226.81	53.25
227.028	71.68
227.246	32.77
227.464	63.49
227.682	49.15
227.9	-8.19
228.117	30.72
228.335	28.67
228.553	174.08
228.771	26.62
228.989	36.86
229.206	106.49
229.424	-47.1
229.642	24.58
229.86	49.15
230.077	65.53
230.295	51.2
230.513	71.68
230.731	94.21
230.948	73.73
231.166	18.43
231.384	47.1
231.601	6.14
231.819	14.34
232.037	-36.86
232.254	-0
232.472	-0
232.689	81.92
232.907	71.68
233.125	79.87
233.342	53.25
233.56	63.49
233.777	-30.72
233.995	24.58
234.213	79.87
234.43	20.48
234.648	24.58
234.865	73.73
235.083	55.3
235.3	106.49
235.518	75.77
235.735	106.49
235.953	112.64
236.17	16.38
236.388	55.3
236.605	8.19
236.822	86.01
237.04	49.15
237.257	55.3
237.475	-0
237.692	88.06
237.909	53.25
238.127	-2.05
238.344	53.25
238.562	112.64
238.779	43.01
238.996	-18.43
239.214	-32.77
239.431	94.21
239.648	-6.14
239.865	81.92
240.083	34.82
240.3	6.14
240.517	30.72
240.735	-16.38
240.952	57.34
241.169	16.38
241.386	73.73
241.603	18.43
241.821	53.25
242.038	63.49
242.255	18.43
242.472	61.44
242.689	102.4
242.907	59.39
243.124	-18.43
243.341	-16.38
243.558	-12.29
243.775	-16.38
243.992	49.15
244.209	92.16
244.426	14.34
244.643	26.62
244.86	-32.77
245.078	57.34
245.295	32.77
245.512	34.82
245.729	8.19
245.946	53.25
246.163	40.96
246.38	-0
246.597	49.15
246.814	77.82
247.031	45.06
247.248	73.73
247.464	24.58
247.681	49.15
247.898	-18.43
248.115	63.49
248.332	-20.48
248.549	131.07
248.766	2.05
248.983	165.89
249.2	-8.19
249.417	-0
249.633	10.24
249.85	36.86
250.067	28.67
250.284	40.96
250.501	55.3
250.717	69.63
250.934	24.58
251.151	32.77
251.368	14.34
251.585	145.41
251.801	63.49
252.018	-12.29
252.235	20.48
252.451	22.53
252.668	30.72
252.885	20.48
253.102	49.15
253.318	77.82
253.535	6.14
253.752	45.06
253.968	24.58
254.185	12.29
254.401	14.34
254.618	73.73
254.835	14.34
255.051	69.63
255.268	22.53
255.484	-14.34
255.701	55.3
255.917	131.07
256.134	-47.1
256.351	32.77
256.567	-28.67
256.784	57.34
257	18.43
257.217	116.73
257.433	38.91
257.65	14.34
257.866	81.92
258.082	73.73
258.299	40.96
258.515	65.53
258.732	-12.29
258.948	2.05
259.165	67.58
259.381	38.91
259.597	59.39
259.814	40.96
260.03	75.77
260.246	6.14
260.463	73.73
260.679	100.35
260.895	30.72
261.112	49.15
261.328	32.77
261.544	-12.29
261.761	116.73
261.977	26.62
262.193	16.38
262.409	100.35
262.626	86.01
262.842	-18.43
263.058	36.86
263.274	102.4
263.49	14.34
263.707	92.16
263.923	-2.05
264.139	-34.82
264.355	-4.1
264.571	8.19
264.787	-10.24
265.004	61.44
265.22	30.72
265.436	-36.86
265.652	40.96
265.868	88.06
266.084	28.67
266.3	81.92
266.516	-28.67
266.732	28.67
266.948	-36.86
267.164	40.96
267.38	122.88
267.596	47.1
267.812	69.63
268.028	57.34
268.244	32.77
268.46	94.21
268.676	40.96
268.892	22.53
269.108	34.82
269.324	61.44
269.54	102.4
269.756	20.48
269.972	30.72
270.188	65.53
270.403	49.15
270.619	16.38
270.835	12.29
271.051	-10.24
271.267	-24.58
271.483	94.21
271.698	-6.14
271.914	100.35
272.13	69.63
272.346	18.43
272.562	22.53
272.777	112.64
272.993	4.1
273.209	116.73
273.425	38.91
273.64	-12.29
273.856	63.49
274.072	57.34
274.287	57.34
274.503	106.49
274.719	81.92
274.934	129.02
275.15	47.1
275.366	16.38
275.581	-12.29
275.797	59.39
276.012	83.97
276.228	81.92
276.444	-6.14
276.659	40.96
276.875	-8.19
277.09	-16.38
277.306	90.11
277.521	24.58
277.737	-18.43
277.952	90.11
278.168	18.43
278.383	16.38
278.599	118.78
278.814	55.3
279.03	18.43
279.245	69.63
279.461	14.34
279.676	51.2
279.892	30.72
280.107	86.01
280.322	-4.1
280.538	73.73
280.753	73.73
280.969	34.82
281.184	22.53
281.399	129.02
281.615	12.29
281.83	34.82
282.045	12.29
282.26	-12.29
282.476	6.14
282.691	75.77
282.906	16.38
283.122	55.3
283.337	53.25
283.552	94.21
283.767	26.62
283.983	24.58
284.198	112.64
284.413	102.4
284.628	38.91
284.843	24.58
285.058	12.29
285.274	-4.1
285.489	-49.15
285.704	73.73
285.919	6.14
286.134	63.49
286.349	51.2
286.564	88.06
286.779	122.88
286.995	-22.53
287.21	22.53
287.425	98.3
287.64	-12.29
287.855	38.91
288.07	6.14
288.285	61.44
288.5	147.45
288.715	57.34
288.93	-4.1
289.145	47.1
289.36	40.96
289.575	63.49
289.79	67.58
290.004	26.62
290.219	36.86
290.434	30.72
290.649	90.11
290.864	122.88
291.079	28.67
291.294	-22.53
291.509	102.4
291.724	110.59
291.938	47.1
292.153	112.64
292.368	4.1
292.583	79.87
292.798	118.78
293.012	-22.53
293.227	43.01
293.442	-53.25
293.657	86.01
293.871	149.5
294.086	47.1
294.301	110.59
294.516	34.82
294.73	-10.24
294.945	8.19
295.16	81.92
295.374	145.41
295.589	-18.43
295.804	90.11
296.018	110.59
296.233	104.45
296.447	65.53
296.662	-83.97
296.877	126.97
297.091	8.19
297.306	34.82
297.52	92.16
297.735	14.34
297.949	47.1
298.164	36.86
298.378	-8.19
298.593	45.06
298.807	77.82
299.022	49.15
299.236	88.06
299.451	28.67
299.665	30.72
299.88	-45.06
300.094	63.49
300.309	133.12
300.523	36.86
300.737	49.15
300.952	51.2
301.166	12.29
301.381	40.96
301.595	63.49
301.809	36.86
302.024	75.77
302.238	12.29
302.452	90.11
302.667	88.06
302.881	96.25
303.095	81.92
303.309	94.21
303.524	102.4
303.738	-0
303.952	55.3
304.166	14.34
304.381	-0
304.595	28.67
304.809	96.25
305.023	57.34
305.237	59.39
305.452	30.72
305.666	114.69
305.88	-4.1
306.094	86.01
306.308	77.82
306.522	69.63
306.736	34.82
306.95	75.77
307.164	20.48
307.379	73.73
307.593	126.97
307.807	55.3
308.021	102.4
308.235	32.77
308.449	-32.77
308.663	-12.29
308.877	100.35
309.091	49.15
309.305	12.29
309.519	32.77
309.733	126.97
309.947	65.53
310.161	112.64
310.374	83.97
310.588	81.92
310.802	69.63
311.016	20.48
311.23	137.21
311.444	71.68
311.658	106.49
311.872	73.73
312.085	51.2
312.299	69.63
312.513	53.25
312.727	112.64
312.941	-18.43
313.154	63.49
313.368	73.73
313.582	55.3
313.796	36.86
314.009	81.92
314.223	53.25
314.437	32.77
314.651	69.63
314.864	51.2
315.078	-10.24
315.292	4.1
315.505	34.82
315.719	49.15
315.933	104.45
316.146	88.06
316.36	-28.67
316.573	98.3
316.787	40.96
317.001	32.77
317.214	-18.43
317.428	51.2
317.641	90.11
317.855	49.15
318.068	65.53
318.282	63.49
318.495	53.25
318.709	53.25
318.922	24.58
319.136	-8.19
319.349	153.6
319.563	61.44
319.776	-0
319.99	-4.1
320.203	92.16
320.417	75.77
320.63	26.62
320.843	71.68
321.057	51.2
321.27	14.34
321.483	34.82
321.697	98.3
321.91	22.53
322.124	59.39
322.337	106.49
322.55	24.58
322.763	28.67
322.977	55.3
323.19	139.26
323.403	30.72
323.617	-16.38
323.83	36.86
324.043	32.77
324.256	94.21
324.469	47.1
324.683	67.58
324.896	-10.24
325.109	47.1
325.322	2.05
325.535	18.43
325.748	59.39
325.962	18.43
326.175	65.53
326.388	63.49
326.601	24.58
326.814	129.02
327.027	47.1
327.24	71.68
327.453	-8.19
327.666	65.53
327.879	47.1
328.092	22.53
328.305	16.38
328.518	86.01
328.731	88.06
328.944	110.59
329.157	63.49
329.37	57.34
329.583	135.17
329.796	112.64
330.009	-2.05
330.222	65.53
330.435	38.91
330.648	34.82
330.861	65.53
331.073	34.82
331.286	14.34
331.499	90.11
331.712	16.38
331.925	61.44
332.138	100.35
332.35	49.15
332.563	16.38
332.776	4.1
332.989	32.77
333.202	-8.19
333.414	28.67
333.627	106.49
333.84	16.38
334.053	106.49
334.265	53.25
334.478	47.1
334.691	14.34
334.903	90.11
335.116	108.54
335.329	22.53
335.541	55.3
335.754	98.3
335.966	40.96
336.179	122.88
336.392	16.38
336.604	36.86
336.817	67.58
337.029	73.73
337.242	36.86
337.454	126.97
337.667	38.91
337.88	120.83
338.092	24.58
338.305	79.87
338.517	8.19
338.729	129.02
338.942	81.92
339.154	75.77
339.367	71.68
339.579	2.05
339.792	32.77
340.004	61.44
340.217	36.86
340.429	38.91
340.641	30.72
340.854	26.62
341.066	77.82
341.278	149.5
341.491	69.63
341.703	94.21
341.915	18.43
342.128	36.86
342.34	49.15
342.552	49.15
342.764	94.21
342.977	98.3
343.189	8.19
343.401	43.01
343.613	53.25
343.826	83.97
344.038	96.25
344.25	36.86
344.462	30.72
344.674	53.25
344.886	77.82
345.099	133.12
345.311	98.3
345.523	-4.1
345.735	36.86
345.947	145.41
346.159	96.25
346.371	110.59
346.583	51.2
346.795	106.49
347.007	-24.58
347.219	141.31
347.431	-6.14
347.643	49.15
347.855	49.15
348.067	149.5
348.279	12.29
348.491	116.73
348.703	61.44
348.915	102.4
349.127	34.82
349.339	77.82
349.551	55.3
349.763	16.38
349.975	98.3
350.187	112.64
350.399	143.36
350.61	38.91
350.822	32.77
351.034	79.87
351.246	81.92
351.458	32.77
351.669	36.86
351.881	69.63
352.093	200.7
352.305	110.59
352.517	65.53
352.728	69.63
352.94	22.53
353.152	88.06
353.363	75.77
353.575	59.39
353.787	88.06
353.999	57.34
354.21	145.41
354.422	69.63
354.633	77.82
354.845	47.1
355.057	102.4
355.268	124.93
355.48	-16.38
355.692	-45.06
355.903	-14.34
356.115	63.49
356.326	-16.38
356.538	98.3
356.749	104.45
356.961	86.01
357.172	122.88
357.384	8.19
357.595	12.29
357.807	32.77
358.018	73.73
358.23	-0
358.441	120.83
358.653	34.82
358.864	20.48
359.075	20.48
359.287	53.25
359.498	63.49
359.709	-2.05
359.921	53.25
360.132	-24.58
360.344	108.54
360.555	40.96
360.766	65.53
360.977	102.4
361.189	57.34
361.4	96.25
361.611	47.1
361.823	135.17
362.034	90.11
362.245	20.48
362.456	69.63
362.667	79.87
362.879	106.49
363.09	12.29
363.301	22.53
363.512	61.44
363.723	40.96
363.935	77.82
364.146	36.86
364.357	81.92
364.568	94.21
364.779	45.06
364.99	149.5
365.201	112.64
365.412	114.69
365.623	16.38
365.834	86.01
366.045	69.63
366.256	-12.29
366.467	32.77
366.678	63.49
366.889	92.16
367.1	92.16
367.311	102.4
367.522	-24.58
367.733	92.16
367.944	86.01
368.155	63.49
368.366	45.06
368.577	129.02
368.788	98.3
368.999	36.86
369.209	88.06
369.42	133.12
369.631	28.67
369.842	69.63
370.053	53.25
370.264	61.44
370.474	100.35
370.685	24.58
370.896	-36.86
371.107	112.64
371.317	61.44
371.528	65.53
371.739	135.17
371.95	49.15
372.16	16.38
372.371	16.38
372.582	34.82
372.792	47.1
373.003	81.92
373.214	63.49
373.424	124.93
373.635	-4.1
373.846	120.83
374.056	26.62
374.267	100.35
374.477	30.72
374.688	49.15
374.898	114.69
375.109	36.86
375.319	40.96
375.53	53.25
375.74	135.17
375.951	51.2
376.161	22.53
376.372	47.1
376.582	-18.43
376.793	73.73
377.003	26.62
377.214	65.53
377.424	67.58
377.635	71.68
377.845	83.97
378.055	63.49
378.266	57.34
378.476	40.96
378.686	63.49
378.897	67.58
379.107	92.16
379.317	112.64
379.528	55.3
379.738	86.01
379.948	49.15
380.158	131.07
380.369	159.74
380.579	69.63
380.789	22.53
380.999	83.97
381.21	110.59
381.42	149.5
381.63	71.68
381.84	34.82
382.05	163.84
382.261	149.5
382.471	45.06
382.681	24.58
382.891	96.25
383.101	104.45
383.311	102.4
383.521	55.3
383.731	129.02
383.941	45.06
384.151	71.68
384.361	126.97
384.571	116.73
384.781	94.21
384.991	159.74
385.201	69.63
385.411	63.49
385.621	63.49
385.831	65.53
386.041	-0
386.251	79.87
386.461	135.17
386.671	120.83
386.881	45.06
387.091	43.01
387.301	106.49
387.511	34.82
387.72	204.8
387.93	112.64
388.14	12.29
388.35	61.44
388.56	71.68
388.769	180.22
388.979	106.49
389.189	61.44
389.399	-0
389.609	126.97
389.818	79.87
390.028	24.58
390.238	102.4
390.447	-8.19
390.657	75.77
390.867	110.59
391.076	71.68
391.286	81.92
391.496	47.1
391.705	106.49
391.915	69.63
392.125	114.69
392.334	81.92
392.544	153.6
392.753	57.34
392.963	47.1
393.172	75.77
393.382	61.44
393.591	141.31
393.801	102.4
394.01	188.41
394.22	120.83
394.429	163.84
394.639	49.15
394.848	47.1
395.058	110.59
395.267	28.67
395.477	155.65
395.686	133.12
395.895	184.32
396.105	212.99
396.314	94.21
396.524	69.63
396.733	112.64
396.942	100.35
397.152	98.3
397.361	178.17
397.57	153.6
397.78	110.59
397.989	153.6
398.198	163.84
398.407	133.12
398.617	131.07
398.826	98.3
399.035	110.59
399.244	139.26
399.453	106.49
399.663	200.7
399.872	169.98
400.081	182.27
400.29	122.88
400.499	139.26
400.708	174.08
400.917	133.12
401.127	139.26
401.336	110.59
401.545	172.03
401.754	129.02
401.963	122.88
402.172	116.73
402.381	182.27
402.59	198.65
402.799	106.49
403.008	194.56
403.217	104.45
403.426	139.26
403.635	151.55
403.844	120.83
404.053	98.3
404.262	65.53
404.471	215.04
404.68	155.65
404.888	196.6
405.097	163.84
405.306	180.22
405.515	176.13
405.724	272.38
405.933	235.52
406.142	186.37
406.35	217.08
406.559	196.6
406.768	286.72
406.977	212.99
407.185	231.42
407.394	325.63
407.603	276.48
407.812	245.76
408.02	229.37
408.229	243.71
408.438	307.2
408.646	264.19
408.855	278.52
409.064	354.3
409.272	299
409.481	368.63
409.69	325.63
409.898	376.83
410.107	370.68
410.315	374.78
410.524	401.4
410.733	364.54
410.941	440.31
411.15	438.27
411.358	489.46
411.567	534.52
411.775	423.93
411.984	546.81
412.192	550.9
412.401	559.1
412.609	511.99
412.818	636.92
413.026	514.04
413.234	612.34
413.443	606.2
413.651	602.1
413.86	669.69
414.068	729.08
414.276	727.03
414.485	743.41
414.693	704.5
414.901	831.48
415.11	841.72
415.318	882.67
415.526	892.91
415.734	931.83
415.943	917.49
416.151	950.26
416.359	1003.5
416.567	1085.42
416.776	1093.62
416.984	1181.68
417.192	1208.3
417.4	1171.44
417.608	1175.53
417.817	1226.73
418.025	1304.56
418.233	1331.18
418.441	1368.04
418.649	1411.05
418.857	1525.74
419.065	1572.84
419.273	1675.24
419.481	1607.66
419.689	1742.82
419.897	1763.3
420.105	1755.11
420.313	1845.22
420.521	1908.71
420.729	1966.05
420.937	2152.42
421.145	2170.85
421.353	2185.18
421.561	2338.78
421.769	2367.45
421.977	2461.66
422.185	2498.52
422.393	2611.16
422.601	2658.26
422.809	2754.52
423.017	2777.05
423.224	3006.42
423.432	2930.64
423.64	2992.08
423.848	3301.33
424.056	3186.64
424.263	3590.09
424.471	3336.14
424.679	3356.62
424.887	3686.34
425.094	3817.41
425.302	3776.45
425.51	4007.87
425.718	4032.45
425.925	4155.33
426.133	4251.58
426.341	4472.76
426.548	4771.77
426.756	4794.29
426.964	4710.33
427.171	5103.54
427.379	5148.59
427.586	5289.9
427.794	5466.03
428.001	5783.46
428.209	5889.96
428.417	5844.9
428.624	6193.06
428.832	6221.73
429.039	6246.3
429.247	6145.95
429.454	6649.75
429.662	7313.3
429.869	6784.92
430.076	7202.71
430.284	6969.24
430.491	7219.09
430.699	7778.19
430.906	7841.67
431.114	7790.47
431.321	8124.29
431.528	8249.22
431.736	8927.1
431.943	9156.47
432.15	9043.83
432.358	9199.48
432.565	9545.58
432.772	9490.29
432.979	10037.09
433.187	10104.68
433.394	10342.24
433.601	10970.97
433.808	10964.82
434.016	11073.37
434.223	11431.76
434.43	12021.58
434.637	11618.13
434.844	12584.77
435.052	13053.75
435.259	12736.32
435.466	12912.44
435.673	12801.85
435.88	13711.15
436.087	14116.65
436.294	14257.96
436.501	13709.1
436.708	14317.35
436.915	14761.76
437.122	15224.6
437.329	15314.71
437.537	15679.25
437.743	15765.26
437.95	15935.24
438.157	16617.22
438.364	17313.53
438.571	17473.27
438.778	17243.9
438.985	18896.61
439.192	18345.7
439.399	18843.36
439.606	18278.12
439.813	19439.32
440.02	20717.25
440.227	20215.5
440.433	19922.64
440.64	20643.52
440.847	20569.8
441.054	21071.55
441.261	22286
441.467	21780.15
441.674	22410.92
441.881	23514.78
442.088	23514.78
442.294	23246.49
442.501	23565.98
442.708	23871.12
442.914	25112.19
443.121	26205.81
443.328	25595.51
443.534	27256.42
443.741	26418.8
443.948	26113.65
444.154	28018.26
444.361	27999.83
444.568	28083.8
444.774	28085.84
444.981	28155.47
445.187	29238.85
445.394	30498.35
445.6	29965.88
445.807	32914.95
446.013	31483.42
446.22	31940.12
446.426	32929.29
446.633	33709.57
446.839	34510.32
447.046	32902.67
447.252	34651.63
447.459	35276.26
447.665	34332.15
447.871	36603.35
448.078	38069.69
448.284	35861.98
448.491	37299.65
448.697	38442.42
448.903	38929.84
449.11	39099.82
449.316	38092.22
449.522	39380.39
449.728	39708.07
449.935	40451.48
450.141	40043.93
450.347	40990.09
450.553	39683.49
450.76	40105.37
450.966	41727.36
451.172	41043.34
451.378	42046.85
451.584	41299.34
451.791	42165.63
451.997	41823.62
452.203	42550.65
452.409	42513.78
452.615	42485.11
452.821	40545.69
453.027	40154.52
453.233	42544.5
453.44	40459.67
453.646	40891.79
453.852	41084.3
454.058	41930.11
454.264	40390.04
454.47	41334.15
454.676	40383.9
454.882	41796.99
455.088	38049.21
455.294	38817.2
455.5	39275.94
455.705	40037.79
455.911	38133.18
456.117	37221.83
456.323	36793.81
456.529	35010.03
456.735	36400.6
456.941	35444.2
457.147	34579.95
457.352	33701.37
457.558	33570.3
457.764	33752.57
457.97	32759.31
458.176	31905.31
458.381	32044.57
458.587	30412.34
458.793	30418.48
458.999	28995.14
459.204	31047.21
459.41	30242.35
459.616	28218.96
459.821	28145.23
460.027	28180.05
460.233	27692.63
460.438	26279.53
460.644	26156.66
460.85	25167.49
461.055	24927.88
461.261	24729.22
461.466	23099.04
461.672	22281.9
461.878	24067.73
462.083	22279.85
462.289	21941.94
462.494	21583.54
462.7	20932.29
462.905	20442.82
463.111	20797.12
463.316	20786.88
463.522	20465.35
463.727	20682.44
463.932	20520.65
464.138	20274.89
464.343	20541.13
464.549	19637.97
464.754	20532.93
464.959	20405.96
465.165	20070.09
465.37	19320.54
465.575	18898.66
465.781	19480.28
465.986	19586.77
466.191	18734.82
466.397	18556.64
466.602	17444.6
466.807	18427.62
