Data from USB4F104151__228__10-30-16-771.txt Node

Date: Wed Mar 12 10:30:16 EDT 2025
User: louis
Spectrometer: USB4F10415
Trigger mode: 4
Integration Time (sec): 3.000000E-2
Scans to average: 1
Electric dark correction enabled: true
Nonlinearity correction enabled: false
Boxcar width: 0
XAxis mode: Wavelengths
Number of Pixels in Spectrum: 3648
>>>>>Begin Spectral Data<<<<<
178.204	-26.28
178.424	-26.28
178.644	-26.28
178.864	-77.48
179.084	-126.63
179.304	63.83
179.524	-9.9
179.744	-9.9
179.964	55.64
180.184	14.68
180.404	-7.85
180.624	-50.86
180.844	-3.75
181.064	-46.76
181.283	6.49
181.503	-30.38
181.723	18.77
181.943	-57
182.163	69.97
182.383	-1.71
182.602	33.11
182.822	53.59
183.042	92.5
183.262	-61.1
183.482	-16.04
183.701	37.2
183.921	29.01
184.141	78.16
184.361	49.49
184.58	65.88
184.8	74.07
185.02	6.49
185.239	63.83
185.459	-3.75
185.679	115.03
185.898	29.01
186.118	65.88
186.338	31.06
186.557	63.83
186.777	-24.23
186.997	-22.19
187.216	29.01
187.436	39.25
187.655	4.44
187.875	-5.8
188.095	22.87
188.314	59.73
188.534	14.68
188.753	24.92
188.973	47.44
189.192	69.97
189.412	51.54
189.631	26.96
189.851	41.3
190.07	80.21
190.29	4.44
190.509	-7.85
190.729	104.79
190.948	80.21
191.168	162.13
191.387	-26.28
191.607	16.73
191.826	-36.52
192.045	-34.47
192.265	49.49
192.484	-13.99
192.704	119.12
192.923	-63.15
193.142	96.6
193.362	59.73
193.581	31.06
193.8	39.25
194.02	-5.8
194.239	6.49
194.458	92.5
194.678	-52.91
194.897	41.3
195.116	2.39
195.335	20.82
195.555	43.35
195.774	82.26
195.993	18.77
196.212	45.4
196.432	12.63
196.651	78.16
196.87	137.56
197.089	104.79
197.308	102.74
197.528	74.07
197.747	72.02
197.966	24.92
198.185	49.49
198.404	63.83
198.623	33.11
198.842	43.35
199.062	43.35
199.281	84.31
199.5	22.87
199.719	59.73
199.938	43.35
200.157	37.2
200.376	74.07
200.595	131.41
200.814	-13.99
201.033	-65.19
201.252	41.3
201.471	20.82
201.69	53.59
201.909	63.83
202.128	86.36
202.347	117.08
202.566	26.96
202.785	31.06
203.004	92.5
203.223	72.02
203.442	72.02
203.661	22.87
203.879	31.06
204.098	-34.47
204.317	10.58
204.536	49.49
204.755	55.64
204.974	69.97
205.193	-28.33
205.411	63.83
205.63	55.64
205.849	78.16
206.068	-18.09
206.287	14.68
206.505	37.2
206.724	-5.8
206.943	43.35
207.162	-9.9
207.381	-3.75
207.599	65.88
207.818	51.54
208.037	59.73
208.255	67.92
208.474	51.54
208.693	47.44
208.911	24.92
209.13	61.78
209.349	41.3
209.567	86.36
209.786	31.06
210.005	37.2
210.223	90.45
210.442	-26.28
210.661	96.6
210.879	12.63
211.098	2.39
211.316	16.73
211.535	72.02
211.753	55.64
211.972	18.77
212.191	22.87
212.409	133.46
212.628	22.87
212.846	76.12
213.065	51.54
213.283	47.44
213.502	-7.85
213.72	51.54
213.938	51.54
214.157	-11.95
214.375	53.59
214.594	-7.85
214.812	37.2
215.031	20.82
215.249	22.87
215.467	-63.15
215.686	24.92
215.904	100.69
216.122	-13.99
216.341	22.87
216.559	35.16
216.778	49.49
216.996	94.55
217.214	-36.52
217.432	18.77
217.651	-5.8
217.869	20.82
218.087	35.16
218.306	49.49
218.524	84.31
218.742	45.4
218.96	108.88
219.179	37.2
219.397	47.44
219.615	80.21
219.833	33.11
220.051	63.83
220.27	55.64
220.488	100.69
220.706	51.54
220.924	80.21
221.142	61.78
221.36	-13.99
221.578	49.49
221.796	31.06
222.015	31.06
222.233	67.92
222.451	98.64
222.669	-11.95
222.887	76.12
223.105	-26.28
223.323	12.63
223.541	14.68
223.759	26.96
223.977	12.63
224.195	86.36
224.413	80.21
224.631	72.02
224.849	65.88
225.067	78.16
225.285	4.44
225.503	104.79
225.721	72.02
225.939	-5.8
226.157	37.2
226.375	90.45
226.592	-5.8
226.81	35.16
227.028	47.44
227.246	117.08
227.464	18.77
227.682	94.55
227.9	41.3
228.117	63.83
228.335	57.68
228.553	22.87
228.771	-22.19
228.989	59.73
229.206	29.01
229.424	65.88
229.642	-30.38
229.86	59.73
230.077	37.2
230.295	41.3
230.513	145.75
230.731	37.2
230.948	39.25
231.166	41.3
231.384	31.06
231.601	22.87
231.819	16.73
232.037	53.59
232.254	12.63
232.472	117.08
232.689	49.49
232.907	72.02
233.125	102.74
233.342	2.39
233.56	-1.71
233.777	43.35
233.995	59.73
234.213	35.16
234.43	72.02
234.648	-38.57
234.865	26.96
235.083	82.26
235.3	80.21
235.518	14.68
235.735	121.17
235.953	31.06
236.17	-38.57
236.388	57.68
236.605	82.26
236.822	92.5
237.04	61.78
237.257	22.87
237.475	-1.71
237.692	102.74
237.909	-9.9
238.127	41.3
238.344	-13.99
238.562	51.54
238.779	-44.71
238.996	37.2
239.214	-1.71
239.431	98.64
239.648	31.06
239.865	86.36
240.083	35.16
240.3	90.45
240.517	10.58
240.735	92.5
240.952	65.88
241.169	45.4
241.386	26.96
241.603	-11.95
241.821	2.39
242.038	41.3
242.255	96.6
242.472	-11.95
242.689	43.35
242.907	121.17
243.124	37.2
243.341	63.83
243.558	-34.47
243.775	8.53
243.992	-28.33
244.209	63.83
244.426	125.27
244.643	59.73
244.86	47.44
245.078	2.39
245.295	41.3
245.512	47.44
245.729	12.63
245.946	74.07
246.163	22.87
246.38	-7.85
246.597	37.2
246.814	18.77
247.031	31.06
247.248	57.68
247.464	57.68
247.681	59.73
247.898	6.49
248.115	84.31
248.332	-1.71
248.549	63.83
248.766	12.63
248.983	112.98
249.2	10.58
249.417	104.79
249.633	-48.81
249.85	20.82
250.067	-18.09
250.284	37.2
250.501	53.59
250.717	65.88
250.934	-1.71
251.151	2.39
251.368	33.11
251.585	10.58
251.801	26.96
252.018	76.12
252.235	39.25
252.451	-30.38
252.668	4.44
252.885	65.88
253.102	67.92
253.318	82.26
253.535	20.82
253.752	20.82
253.968	26.96
254.185	96.6
254.401	22.87
254.618	80.21
254.835	18.77
255.051	18.77
255.268	-1.71
255.484	39.25
255.701	-57
255.917	80.21
256.134	121.17
256.351	22.87
256.567	20.82
256.784	63.83
257	59.73
257.217	35.16
257.433	26.96
257.65	0.34
257.866	6.49
258.082	-11.95
258.299	-42.67
258.515	80.21
258.732	69.97
258.948	49.49
259.165	33.11
259.381	55.64
259.597	121.17
259.814	86.36
260.03	-1.71
260.246	84.31
260.463	69.97
260.679	35.16
260.895	0.34
261.112	39.25
261.328	31.06
261.544	-9.9
261.761	102.74
261.977	4.44
262.193	35.16
262.409	-7.85
262.626	20.82
262.842	53.59
263.058	41.3
263.274	53.59
263.49	72.02
263.707	49.49
263.923	104.79
264.139	2.39
264.355	29.01
264.571	29.01
264.787	65.88
265.004	22.87
265.22	18.77
265.436	53.59
265.652	6.49
265.868	20.82
266.084	47.44
266.3	29.01
266.516	31.06
266.732	10.58
266.948	55.64
267.164	41.3
267.38	55.64
267.596	63.83
267.812	39.25
268.028	2.39
268.244	6.49
268.46	26.96
268.676	47.44
268.892	82.26
269.108	-9.9
269.324	-67.24
269.54	90.45
269.756	125.27
269.972	20.82
270.188	74.07
270.403	2.39
270.619	39.25
270.835	14.68
271.051	-5.8
271.267	6.49
271.483	37.2
271.698	61.78
271.914	14.68
272.13	39.25
272.346	39.25
272.562	-46.76
272.777	65.88
272.993	22.87
273.209	22.87
273.425	-34.47
273.64	47.44
273.856	72.02
274.072	31.06
274.287	39.25
274.503	8.53
274.719	29.01
274.934	8.53
275.15	90.45
275.366	18.77
275.581	47.44
275.797	12.63
276.012	31.06
276.228	78.16
276.444	63.83
276.659	0.34
276.875	16.73
277.09	16.73
277.306	55.64
277.521	57.68
277.737	43.35
277.952	88.4
278.168	26.96
278.383	43.35
278.599	6.49
278.814	41.3
279.03	86.36
279.245	57.68
279.461	74.07
279.676	-1.71
279.892	4.44
280.107	76.12
280.322	-20.14
280.538	18.77
280.753	61.78
280.969	39.25
281.184	37.2
281.399	53.59
281.615	20.82
281.83	63.83
282.045	4.44
282.26	10.58
282.476	94.55
282.691	100.69
282.906	49.49
283.122	84.31
283.337	33.11
283.552	61.78
283.767	53.59
283.983	59.73
284.198	100.69
284.413	158.03
284.628	31.06
284.843	39.25
285.058	14.68
285.274	4.44
285.489	-34.47
285.704	61.78
285.919	59.73
286.134	-9.9
286.349	-28.33
286.564	49.49
286.779	22.87
286.995	78.16
287.21	-30.38
287.425	90.45
287.64	-34.47
287.855	31.06
288.07	-7.85
288.285	110.93
288.5	88.4
288.715	59.73
288.93	20.82
289.145	16.73
289.36	137.56
289.575	51.54
289.79	108.88
290.004	69.97
290.219	78.16
290.434	76.12
290.649	33.11
290.864	31.06
291.079	2.39
291.294	104.79
291.509	53.59
291.724	22.87
291.938	12.63
292.153	37.2
292.368	76.12
292.583	80.21
292.798	119.12
293.012	67.92
293.227	26.96
293.442	24.92
293.657	72.02
293.871	26.96
294.086	84.31
294.301	100.69
294.516	182.61
294.73	12.63
294.945	18.77
295.16	26.96
295.374	149.84
295.589	82.26
295.804	-9.9
296.018	37.2
296.233	82.26
296.447	41.3
296.662	53.59
296.877	74.07
297.091	53.59
297.306	92.5
297.52	29.01
297.735	22.87
297.949	29.01
298.164	100.69
298.378	78.16
298.593	43.35
298.807	94.55
299.022	-7.85
299.236	90.45
299.451	31.06
299.665	41.3
299.88	-22.19
300.094	100.69
300.309	90.45
300.523	76.12
300.737	49.49
300.952	106.84
301.166	22.87
301.381	31.06
301.595	94.55
301.809	16.73
302.024	43.35
302.238	-1.71
302.452	86.36
302.667	98.64
302.881	22.87
303.095	55.64
303.309	14.68
303.524	12.63
303.738	-16.04
303.952	18.77
304.166	22.87
304.381	8.53
304.595	10.58
304.809	45.4
305.023	41.3
305.237	47.44
305.452	69.97
305.666	57.68
305.88	53.59
306.094	45.4
306.308	35.16
306.522	98.64
306.736	76.12
306.95	33.11
307.164	37.2
307.379	-1.71
307.593	26.96
307.807	39.25
308.021	76.12
308.235	76.12
308.449	18.77
308.663	-48.81
308.877	63.83
309.091	22.87
309.305	104.79
309.519	-18.09
309.733	31.06
309.947	29.01
310.161	20.82
310.374	35.16
310.588	84.31
310.802	12.63
311.016	18.77
311.23	-54.95
311.444	-128.68
311.658	76.12
311.872	14.68
312.085	65.88
312.299	63.83
312.513	61.78
312.727	98.64
312.941	-1.71
313.154	135.51
313.368	96.6
313.582	76.12
313.796	12.63
314.009	33.11
314.223	-32.43
314.437	6.49
314.651	22.87
314.864	84.31
315.078	41.3
315.292	147.8
315.505	31.06
315.719	121.17
315.933	51.54
316.146	26.96
316.36	24.92
316.573	119.12
316.787	72.02
317.001	61.78
317.214	37.2
317.428	18.77
317.641	10.58
317.855	26.96
318.068	45.4
318.282	33.11
318.495	67.92
318.709	78.16
318.922	6.49
319.136	72.02
319.349	100.69
319.563	-16.04
319.776	39.25
319.99	6.49
320.203	90.45
320.417	4.44
320.63	31.06
320.843	51.54
321.057	78.16
321.27	84.31
321.483	-9.9
321.697	90.45
321.91	145.75
322.124	102.74
322.337	100.69
322.55	51.54
322.763	55.64
322.977	45.4
323.19	47.44
323.403	104.79
323.617	59.73
323.83	80.21
324.043	-1.71
324.256	67.92
324.469	22.87
324.683	76.12
324.896	-16.04
325.109	49.49
325.322	29.01
325.535	80.21
325.748	47.44
325.962	-1.71
326.175	14.68
326.388	22.87
326.601	55.64
326.814	-54.95
327.027	26.96
327.24	37.2
327.453	-50.86
327.666	100.69
327.879	88.4
328.092	-1.71
328.305	67.92
328.518	-9.9
328.731	72.02
328.944	-34.47
329.157	33.11
329.37	59.73
329.583	57.68
329.796	76.12
330.009	80.21
330.222	78.16
330.435	47.44
330.648	57.68
330.861	29.01
331.073	67.92
331.286	133.46
331.499	-26.28
331.712	22.87
331.925	45.4
332.138	43.35
332.35	151.89
332.563	-34.47
332.776	29.01
332.989	26.96
333.202	10.58
333.414	90.45
333.627	88.4
333.84	10.58
334.053	133.46
334.265	55.64
334.478	14.68
334.691	37.2
334.903	76.12
335.116	39.25
335.329	6.49
335.541	16.73
335.754	160.08
335.966	47.44
336.179	-3.75
336.392	47.44
336.604	47.44
336.817	51.54
337.029	43.35
337.242	104.79
337.454	143.7
337.667	29.01
337.88	-22.19
338.092	45.4
338.305	74.07
338.517	29.01
338.729	65.88
338.942	80.21
339.154	35.16
339.367	49.49
339.579	57.68
339.792	20.82
340.004	26.96
340.217	18.77
340.429	100.69
340.641	69.97
340.854	39.25
341.066	78.16
341.278	67.92
341.491	145.75
341.703	88.4
341.915	35.16
342.128	74.07
342.34	86.36
342.552	61.78
342.764	65.88
342.977	76.12
343.189	37.2
343.401	153.94
343.613	29.01
343.826	94.55
344.038	47.44
344.25	80.21
344.462	20.82
344.674	-13.99
344.886	65.88
345.099	131.41
345.311	18.77
345.523	63.83
345.735	6.49
345.947	100.69
346.159	47.44
346.371	67.92
346.583	43.35
346.795	80.21
347.007	31.06
347.219	31.06
347.431	55.64
347.643	131.41
347.855	47.44
348.067	39.25
348.279	39.25
348.491	96.6
348.703	29.01
348.915	108.88
349.127	-7.85
349.339	94.55
349.551	53.59
349.763	4.44
349.975	65.88
350.187	94.55
350.399	108.88
350.61	61.78
350.822	72.02
351.034	78.16
351.246	67.92
351.458	100.69
351.669	20.82
351.881	74.07
352.093	104.79
352.305	47.44
352.517	33.11
352.728	59.73
352.94	14.68
353.152	102.74
353.363	41.3
353.575	16.73
353.787	104.79
353.999	65.88
354.21	84.31
354.422	47.44
354.633	104.79
354.845	39.25
355.057	100.69
355.268	72.02
355.48	37.2
355.692	33.11
355.903	31.06
356.115	12.63
356.326	74.07
356.538	55.64
356.749	96.6
356.961	100.69
357.172	43.35
357.384	22.87
357.595	153.94
357.807	2.39
358.018	88.4
358.23	35.16
358.441	67.92
358.653	94.55
358.864	31.06
359.075	47.44
359.287	102.74
359.498	94.55
359.709	86.36
359.921	127.32
360.132	84.31
360.344	35.16
360.555	84.31
360.766	61.78
360.977	92.5
361.189	90.45
361.4	45.4
361.611	86.36
361.823	121.17
362.034	72.02
362.245	112.98
362.456	63.83
362.667	127.32
362.879	104.79
363.09	76.12
363.301	80.21
363.512	51.54
363.723	35.16
363.935	45.4
364.146	94.55
364.357	88.4
364.568	47.44
364.779	22.87
364.99	67.92
365.201	33.11
365.412	67.92
365.623	8.53
365.834	-13.99
366.045	0.34
366.256	33.11
366.467	131.41
366.678	80.21
366.889	92.5
367.1	100.69
367.311	112.98
367.522	-24.23
367.733	108.88
367.944	45.4
368.155	-38.57
368.366	100.69
368.577	94.55
368.788	65.88
368.999	86.36
369.209	43.35
369.42	96.6
369.631	112.98
369.842	74.07
370.053	57.68
370.264	170.32
370.474	74.07
370.685	131.41
370.896	55.64
371.107	145.75
371.317	98.64
371.528	67.92
371.739	102.74
371.95	59.73
372.16	84.31
372.371	37.2
372.582	76.12
372.792	55.64
373.003	22.87
373.214	-7.85
373.424	53.59
373.635	-26.28
373.846	115.03
374.056	96.6
374.267	59.73
374.477	31.06
374.688	63.83
374.898	18.77
375.109	74.07
375.319	-11.95
375.53	59.73
375.74	102.74
375.951	43.35
376.161	16.73
376.372	72.02
376.582	22.87
376.793	6.49
377.003	59.73
377.214	41.3
377.424	47.44
377.635	16.73
377.845	133.46
378.055	147.8
378.266	-57
378.476	86.36
378.686	69.97
378.897	115.03
379.107	51.54
379.317	74.07
379.528	72.02
379.738	78.16
379.948	12.63
380.158	92.5
380.369	29.01
380.579	59.73
380.789	98.64
380.999	158.03
381.21	51.54
381.42	168.27
381.63	31.06
381.84	67.92
382.05	92.5
382.261	-34.47
382.471	72.02
382.681	55.64
382.891	106.84
383.101	98.64
383.311	59.73
383.521	98.64
383.731	121.17
383.941	129.36
384.151	90.45
384.361	110.93
384.571	41.3
384.781	115.03
384.991	160.08
385.201	55.64
385.411	80.21
385.621	43.35
385.831	24.92
386.041	47.44
386.251	39.25
386.461	61.78
386.671	94.55
386.881	158.03
387.091	26.96
387.301	86.36
387.511	80.21
387.72	153.94
387.93	115.03
388.14	86.36
388.35	67.92
388.56	153.94
388.769	55.64
388.979	63.83
389.189	45.4
389.399	63.83
389.609	104.79
389.818	133.46
390.028	96.6
390.238	141.65
390.447	135.51
390.657	135.51
390.867	0.34
391.076	37.2
391.286	100.69
391.496	82.26
391.705	51.54
391.915	63.83
392.125	20.82
392.334	104.79
392.544	102.74
392.753	74.07
392.963	84.31
393.172	108.88
393.382	-30.38
393.591	100.69
393.801	92.5
394.01	123.22
394.22	88.4
394.429	53.59
394.639	55.64
394.848	151.89
395.058	84.31
395.267	53.59
395.477	141.65
395.686	145.75
395.895	102.74
396.105	117.08
396.314	131.41
396.524	117.08
396.733	72.02
396.942	194.9
397.152	121.17
397.361	129.36
397.57	129.36
397.78	174.42
397.989	96.6
398.198	88.4
398.407	65.88
398.617	125.27
398.826	94.55
399.035	158.03
399.244	110.93
399.453	180.56
399.663	143.7
399.872	151.89
400.081	108.88
400.29	244.05
400.499	90.45
400.708	80.21
400.917	137.56
401.127	61.78
401.336	51.54
401.545	256.34
401.754	170.32
401.963	168.27
402.172	213.33
402.381	219.47
402.59	186.71
402.799	135.51
403.008	147.8
403.217	190.8
403.426	223.57
403.635	63.83
403.844	162.13
404.053	121.17
404.262	168.27
404.471	217.43
404.68	143.7
404.888	180.56
405.097	190.8
405.306	129.36
405.515	256.34
405.724	184.66
405.933	291.15
406.142	188.75
406.35	248.15
406.559	158.03
406.768	207.19
406.977	262.48
407.185	211.28
407.394	248.15
407.603	248.15
407.812	262.48
408.02	258.39
408.229	334.16
408.438	305.49
408.646	262.48
408.855	317.78
409.064	354.64
409.272	307.54
409.481	360.78
409.69	264.53
409.898	309.58
410.107	498
410.315	342.35
410.524	356.69
410.733	440.65
410.941	416.08
411.15	387.41
411.358	448.85
411.567	637.26
411.775	432.46
411.984	491.85
412.192	502.09
412.401	547.15
412.609	575.82
412.818	532.81
413.026	627.02
413.234	667.98
413.443	753.99
413.651	678.22
413.86	643.4
414.068	756.04
414.276	713.03
414.485	723.27
414.693	725.32
414.901	825.67
415.11	821.58
415.318	819.53
415.526	837.96
415.734	973.13
415.943	981.32
416.151	1003.85
416.359	1075.52
416.567	932.17
416.776	1020.23
416.984	1163.59
417.192	1231.17
417.4	1132.87
417.608	1163.59
417.817	1231.17
418.025	1323.33
418.233	1313.09
418.441	1341.76
418.649	1321.28
418.857	1546.56
419.065	1472.83
419.273	1552.7
419.481	1624.38
419.689	1694.01
419.897	1790.27
420.105	1915.19
420.313	1886.52
420.521	1833.27
420.729	1950.01
420.937	2025.78
421.145	1964.34
421.353	2234.68
421.561	2185.52
421.769	2365.75
421.977	2320.69
422.185	2439.47
422.393	2580.78
422.601	2742.57
422.809	2666.8
423.017	2611.5
423.224	2801.96
423.432	2795.82
423.64	2885.93
423.848	3174.69
424.056	3111.21
424.263	3289.38
424.471	3328.29
424.679	3410.21
424.887	3653.92
425.094	3645.73
425.302	3696.92
425.51	3905.82
425.718	3997.98
425.925	4038.94
426.133	4256.02
426.341	4466.96
426.548	4546.83
426.756	4626.7
426.964	4565.26
427.171	4933.9
427.379	5089.54
427.586	5130.5
427.794	5249.29
428.001	5550.34
428.209	5814.52
428.417	5554.43
428.624	6091
428.832	6084.86
429.039	6185.21
429.247	6174.97
429.454	6666.48
429.662	7123.18
429.869	6574.32
430.076	7108.84
430.284	6867.18
430.491	7260.39
430.699	7469.28
430.906	7735.52
431.114	7481.57
431.321	8020.19
431.528	7960.8
431.736	8607.95
431.943	8982.73
432.15	8810.7
432.358	8814.8
432.565	9322.7
432.772	9210.06
432.979	9881.79
433.187	9971.9
433.394	10057.92
433.601	10746.03
433.808	10545.33
434.016	10643.63
434.223	11075.76
434.43	11792.55
434.637	11520.17
434.844	12312.73
435.052	12726.42
435.259	12466.33
435.466	12527.77
435.673	12322.97
435.88	13269.13
436.087	13916.29
436.294	13854.85
436.501	13453.45
436.708	13934.72
436.915	14344.31
437.122	14880.88
437.329	14903.41
437.537	15661.16
437.743	15603.82
437.95	15517.8
438.157	16322.65
438.364	16887.89
438.571	16697.43
438.778	16771.16
438.985	18614.33
439.192	17668.17
439.399	18223.17
439.606	17737.8
439.813	18980.92
440.02	20291.62
440.227	19611.69
440.433	19470.38
440.64	20107.3
440.847	19986.47
441.054	20330.53
441.261	21667.85
441.467	21663.75
441.674	22173.7
441.881	22571
442.088	22484.99
442.294	22628.35
442.501	23269.36
442.708	23543.79
442.914	24639.45
443.121	25425.87
443.328	25067.48
443.534	26466.24
443.741	25683.92
443.948	25399.25
444.154	27125.69
444.361	27080.63
444.568	27152.31
444.774	27209.65
444.981	27869.1
445.187	28358.56
445.394	29497.24
445.6	29474.71
445.807	31958.89
446.013	30635.91
446.22	31074.17
446.426	32237.42
446.633	32468.84
446.839	33544.02
447.046	32571.24
447.252	33648.47
447.459	33597.27
447.665	33906.51
447.871	35422.01
448.078	36851.49
448.284	35100.48
448.491	36073.26
448.697	37443.35
448.903	38037.26
449.11	38010.64
449.316	37068.58
449.522	38143.76
449.728	38989.57
449.935	39216.89
450.141	39114.5
450.347	40079.09
450.553	38571.78
450.76	39493.37
450.966	40273.65
451.172	40021.75
451.378	40828.65
451.584	40341.23
451.791	41242.34
451.997	40988.39
452.203	41524.96
452.409	41500.38
452.615	41553.63
452.821	39948.02
453.027	39497.47
453.233	41406.17
453.44	39771.89
453.646	40111.86
453.852	40335.09
454.058	41121.51
454.264	39608.06
454.47	40543.98
454.676	39612.15
454.882	40513.26
455.088	37093.15
455.294	37846.8
455.5	38323.98
455.705	38334.22
455.911	36880.16
456.117	36593.45
456.323	36030.26
456.529	33824.59
456.735	35440.44
456.941	34301.77
457.147	33736.53
457.352	32968.54
457.558	32681.83
457.764	32868.19
457.97	31967.09
458.176	31195
458.381	31401.85
458.587	29872.01
458.793	29685.65
458.999	28469.15
459.204	30232.46
459.41	29497.24
459.616	27277.24
459.821	27615.15
460.027	27432.88
460.233	26984.38
460.438	25642.96
460.644	25634.77
460.85	24836.06
461.055	24455.14
461.261	24043.49
461.466	22497.28
461.672	21843.98
461.878	23269.36
462.083	21708.81
462.289	21614.6
462.494	21266.45
462.7	20170.79
462.905	19640.36
463.111	20299.81
463.316	20471.84
463.522	20121.63
463.727	20181.03
463.932	19763.24
464.138	19824.68
464.343	19957.8
464.549	19341.36
464.754	19828.77
464.959	19820.58
465.165	19386.41
465.37	18632.76
465.575	18405.44
465.781	19314.73
465.986	19107.89
466.191	18364.48
466.397	18323.52
466.602	17471.56
466.807	18049.09
467.012	17866.82
467.218	17909.83
