Data from USB4F104151__131__10-25-44-671.txt Node

Date: Wed Mar 12 10:25:44 EDT 2025
User: louis
Spectrometer: USB4F10415
Trigger mode: 4
Integration Time (sec): 3.000000E-2
Scans to average: 1
Electric dark correction enabled: true
Nonlinearity correction enabled: false
Boxcar width: 0
XAxis mode: Wavelengths
Number of Pixels in Spectrum: 3648
>>>>>Begin Spectral Data<<<<<
178.204	-91.31
178.424	-91.31
178.644	-91.31
178.864	-42.15
179.084	-60.59
179.304	45.91
179.524	39.76
179.744	-44.2
179.964	19.29
180.184	-38.06
180.404	-1.19
180.624	-5.29
180.844	-50.35
181.064	-13.48
181.283	27.48
181.503	35.67
181.723	-15.53
181.943	29.52
182.163	76.63
182.383	-29.87
182.602	62.29
182.822	13.14
183.042	101.2
183.262	-15.53
183.482	19.29
183.701	84.82
183.921	29.52
184.141	-17.58
184.361	68.44
184.58	74.58
184.8	54.1
185.02	19.29
185.239	35.67
185.459	74.58
185.679	25.43
185.898	60.24
186.118	93.01
186.338	15.19
186.557	52.05
186.777	-42.15
186.997	11.09
187.216	43.86
187.436	-27.82
187.655	56.15
187.875	21.33
188.095	-25.77
188.314	72.53
188.534	-9.39
188.753	64.34
188.973	47.96
189.192	68.44
189.412	25.43
189.631	23.38
189.851	9.05
190.07	56.15
190.29	-15.53
190.509	19.29
190.729	23.38
190.948	56.15
191.168	152.4
191.387	115.54
191.607	62.29
191.826	84.82
192.045	17.24
192.265	19.29
192.484	56.15
192.704	52.05
192.923	0.85
193.142	119.64
193.362	123.73
193.581	50
193.8	76.63
194.02	56.15
194.239	90.96
194.458	-9.39
194.678	33.62
194.897	-5.29
195.116	52.05
195.335	9.05
195.555	109.4
195.774	76.63
195.993	33.62
196.212	-21.67
196.432	15.19
196.651	33.62
196.87	7
197.089	113.49
197.308	25.43
197.528	97.11
197.747	15.19
197.966	0.85
198.185	68.44
198.404	-11.43
198.623	97.11
198.842	7
199.062	35.67
199.281	35.67
199.5	9.05
199.719	111.44
199.938	93.01
200.157	37.72
200.376	-13.48
200.595	109.4
200.814	27.48
201.033	107.35
201.252	-5.29
201.471	43.86
201.69	115.54
201.909	56.15
202.128	90.96
202.347	-1.19
202.566	31.57
202.785	31.57
203.004	133.97
203.223	140.12
203.442	-15.53
203.661	-21.67
203.879	25.43
204.098	-7.34
204.317	29.52
204.536	29.52
204.755	101.2
204.974	27.48
205.193	21.33
205.411	56.15
205.63	60.24
205.849	21.33
206.068	-9.39
206.287	39.76
206.505	9.05
206.724	72.53
206.943	-21.67
207.162	70.48
207.381	60.24
207.599	19.29
207.818	-3.24
208.037	-7.34
208.255	76.63
208.474	35.67
208.693	54.1
208.911	-7.34
209.13	27.48
209.349	-5.29
209.567	50
209.786	47.96
210.005	-9.39
210.223	-56.49
210.442	-21.67
210.661	109.4
210.879	15.19
211.098	43.86
211.316	19.29
211.535	125.78
211.753	7
211.972	33.62
212.191	7
212.409	31.57
212.628	62.29
212.846	-3.24
213.065	25.43
213.283	43.86
213.502	-29.87
213.72	54.1
213.938	84.82
214.157	97.11
214.375	82.77
214.594	9.05
214.812	125.78
215.031	45.91
215.249	99.16
215.467	74.58
215.686	33.62
215.904	80.72
216.122	58.2
216.341	123.73
216.559	29.52
216.778	64.34
216.996	52.05
217.214	13.14
217.432	60.24
217.651	76.63
217.869	23.38
218.087	23.38
218.306	56.15
218.524	29.52
218.742	-1.19
218.96	25.43
219.179	23.38
219.397	68.44
219.615	187.22
219.833	97.11
220.051	2.9
220.27	66.39
220.488	19.29
220.706	111.44
220.924	68.44
221.142	27.48
221.36	66.39
221.578	23.38
221.796	88.92
222.015	72.53
222.233	68.44
222.451	78.68
222.669	39.76
222.887	58.2
223.105	9.05
223.323	-52.39
223.541	29.52
223.759	86.87
223.977	9.05
224.195	19.29
224.413	-25.77
224.631	4.95
224.849	72.53
225.067	33.62
225.285	-19.63
225.503	2.9
225.721	29.52
225.939	101.2
226.157	-33.96
226.375	121.68
226.592	60.24
226.81	-15.53
227.028	140.12
227.246	146.26
227.464	23.38
227.682	52.05
227.9	66.39
228.117	58.2
228.335	105.3
228.553	58.2
228.771	29.52
228.989	15.19
229.206	76.63
229.424	25.43
229.642	0.85
229.86	47.96
230.077	9.05
230.295	74.58
230.513	25.43
230.731	31.57
230.948	29.52
231.166	117.59
231.384	95.06
231.601	60.24
231.819	99.16
232.037	-17.58
232.254	-23.72
232.472	117.59
232.689	-64.68
232.907	133.97
233.125	-5.29
233.342	0.85
233.56	-7.34
233.777	7
233.995	72.53
234.213	68.44
234.43	66.39
234.648	47.96
234.865	84.82
235.083	15.19
235.3	27.48
235.518	35.67
235.735	144.21
235.953	45.91
236.17	68.44
236.388	84.82
236.605	4.95
236.822	70.48
237.04	43.86
237.257	-42.15
237.475	39.76
237.692	56.15
237.909	43.86
238.127	113.49
238.344	37.72
238.562	37.72
238.779	54.1
238.996	-1.19
239.214	50
239.431	4.95
239.648	117.59
239.865	9.05
240.083	43.86
240.3	-44.2
240.517	17.24
240.735	76.63
240.952	23.38
241.169	72.53
241.386	72.53
241.603	62.29
241.821	-70.83
242.038	84.82
242.255	4.95
242.472	64.34
242.689	54.1
242.907	47.96
243.124	80.72
243.341	60.24
243.558	27.48
243.775	-7.34
243.992	-103.59
244.209	35.67
244.426	19.29
244.643	70.48
244.86	37.72
245.078	84.82
245.295	64.34
245.512	56.15
245.729	25.43
245.946	80.72
246.163	33.62
246.38	15.19
246.597	70.48
246.814	88.92
247.031	41.81
247.248	13.14
247.464	56.15
247.681	47.96
247.898	60.24
248.115	13.14
248.332	15.19
248.549	7
248.766	74.58
248.983	60.24
249.2	47.96
249.417	133.97
249.633	27.48
249.85	7
250.067	-93.35
250.284	50
250.501	-9.39
250.717	142.16
250.934	13.14
251.151	21.33
251.368	50
251.585	9.05
251.801	-1.19
252.018	9.05
252.235	50
252.451	56.15
252.668	72.53
252.885	60.24
253.102	115.54
253.318	2.9
253.535	0.85
253.752	72.53
253.968	80.72
254.185	45.91
254.401	62.29
254.618	27.48
254.835	27.48
255.051	82.77
255.268	58.2
255.484	78.68
255.701	58.2
255.917	21.33
256.134	93.01
256.351	7
256.567	-46.25
256.784	17.24
257	21.33
257.217	11.09
257.433	76.63
257.65	142.16
257.866	-13.48
258.082	2.9
258.299	60.24
258.515	86.87
258.732	-9.39
258.948	25.43
259.165	4.95
259.381	72.53
259.597	64.34
259.814	35.67
260.03	66.39
260.246	37.72
260.463	-9.39
260.679	64.34
260.895	88.92
261.112	31.57
261.328	37.72
261.544	31.57
261.761	99.16
261.977	29.52
262.193	-21.67
262.409	11.09
262.626	70.48
262.842	37.72
263.058	0.85
263.274	78.68
263.49	-23.72
263.707	136.02
263.923	41.81
264.139	17.24
264.355	52.05
264.571	7
264.787	-13.48
265.004	78.68
265.22	64.34
265.436	-13.48
265.652	11.09
265.868	-25.77
266.084	43.86
266.3	21.33
266.516	76.63
266.732	35.67
266.948	101.2
267.164	11.09
267.38	43.86
267.596	133.97
267.812	68.44
268.028	66.39
268.244	23.38
268.46	70.48
268.676	-5.29
268.892	9.05
269.108	45.91
269.324	9.05
269.54	-29.87
269.756	39.76
269.972	52.05
270.188	60.24
270.403	23.38
270.619	58.2
270.835	68.44
271.051	-21.67
271.267	-19.63
271.483	66.39
271.698	43.86
271.914	117.59
272.13	15.19
272.346	-9.39
272.562	23.38
272.777	-1.19
272.993	25.43
273.209	2.9
273.425	68.44
273.64	-5.29
273.856	39.76
274.072	25.43
274.287	41.81
274.503	27.48
274.719	74.58
274.934	31.57
275.15	39.76
275.366	35.67
275.581	66.39
275.797	41.81
276.012	68.44
276.228	13.14
276.444	64.34
276.659	95.06
276.875	23.38
277.09	50
277.306	31.57
277.521	25.43
277.737	17.24
277.952	25.43
278.168	52.05
278.383	47.96
278.599	60.24
278.814	86.87
279.03	41.81
279.245	60.24
279.461	62.29
279.676	109.4
279.892	-5.29
280.107	23.38
280.322	27.48
280.538	9.05
280.753	109.4
280.969	23.38
281.184	9.05
281.399	84.82
281.615	74.58
281.83	58.2
282.045	56.15
282.26	37.72
282.476	58.2
282.691	52.05
282.906	-15.53
283.122	4.95
283.337	11.09
283.552	90.96
283.767	-29.87
283.983	74.58
284.198	-40.11
284.413	-11.43
284.628	-1.19
284.843	117.59
285.058	64.34
285.274	35.67
285.489	58.2
285.704	43.86
285.919	84.82
286.134	15.19
286.349	-46.25
286.564	-3.24
286.779	125.78
286.995	60.24
287.21	64.34
287.425	31.57
287.64	35.67
287.855	86.87
288.07	25.43
288.285	93.01
288.5	101.2
288.715	76.63
288.93	19.29
289.145	19.29
289.36	43.86
289.575	41.81
289.79	150.36
290.004	74.58
290.219	25.43
290.434	15.19
290.649	72.53
290.864	-29.87
291.079	47.96
291.294	-7.34
291.509	66.39
291.724	35.67
291.938	58.2
292.153	27.48
292.368	-11.43
292.583	-13.48
292.798	86.87
293.012	-1.19
293.227	9.05
293.442	117.59
293.657	43.86
293.871	111.44
294.086	29.52
294.301	45.91
294.516	27.48
294.73	54.1
294.945	72.53
295.16	29.52
295.374	90.96
295.589	60.24
295.804	21.33
296.018	11.09
296.233	37.72
296.447	-58.54
296.662	-23.72
296.877	-1.19
297.091	52.05
297.306	66.39
297.52	52.05
297.735	-5.29
297.949	31.57
298.164	23.38
298.378	47.96
298.593	19.29
298.807	39.76
299.022	39.76
299.236	82.77
299.451	4.95
299.665	9.05
299.88	11.09
300.094	113.49
300.309	56.15
300.523	68.44
300.737	52.05
300.952	60.24
301.166	23.38
301.381	-1.19
301.595	90.96
301.809	72.53
302.024	27.48
302.238	-5.29
302.452	109.4
302.667	7
302.881	99.16
303.095	76.63
303.309	80.72
303.524	50
303.738	97.11
303.952	76.63
304.166	27.48
304.381	29.52
304.595	13.14
304.809	7
305.023	21.33
305.237	0.85
305.452	41.81
305.666	52.05
305.88	23.38
306.094	-25.77
306.308	56.15
306.522	33.62
306.736	52.05
306.95	-9.39
307.164	60.24
307.379	13.14
307.593	41.81
307.807	72.53
308.021	50
308.235	58.2
308.449	15.19
308.663	2.9
308.877	121.68
309.091	84.82
309.305	88.92
309.519	-66.73
309.733	64.34
309.947	-9.39
310.161	109.4
310.374	19.29
310.588	119.64
310.802	45.91
311.016	97.11
311.23	47.96
311.444	31.57
311.658	47.96
311.872	86.87
312.085	-13.48
312.299	76.63
312.513	25.43
312.727	19.29
312.941	19.29
313.154	74.58
313.368	70.48
313.582	66.39
313.796	70.48
314.009	41.81
314.223	23.38
314.437	58.2
314.651	0.85
314.864	23.38
315.078	27.48
315.292	-17.58
315.505	76.63
315.719	19.29
315.933	21.33
316.146	60.24
316.36	2.9
316.573	25.43
316.787	4.95
317.001	76.63
317.214	93.01
317.428	64.34
317.641	25.43
317.855	52.05
318.068	43.86
318.282	78.68
318.495	121.68
318.709	72.53
318.922	66.39
319.136	70.48
319.349	90.96
319.563	-19.63
319.776	60.24
319.99	-5.29
320.203	25.43
320.417	70.48
320.63	39.76
320.843	82.77
321.057	11.09
321.27	-5.29
321.483	45.91
321.697	84.82
321.91	9.05
322.124	-31.91
322.337	97.11
322.55	125.78
322.763	52.05
322.977	-5.29
323.19	17.24
323.403	76.63
323.617	52.05
323.83	93.01
324.043	60.24
324.256	60.24
324.469	4.95
324.683	166.74
324.896	25.43
325.109	23.38
325.322	47.96
325.535	66.39
325.748	2.9
325.962	31.57
326.175	29.52
326.388	66.39
326.601	41.81
326.814	101.2
327.027	9.05
327.24	121.68
327.453	17.24
327.666	52.05
327.879	82.77
328.092	43.86
328.305	60.24
328.518	23.38
328.731	-1.19
328.944	31.57
329.157	23.38
329.37	-27.82
329.583	27.48
329.796	23.38
330.009	21.33
330.222	27.48
330.435	43.86
330.648	4.95
330.861	50
331.073	103.25
331.286	56.15
331.499	70.48
331.712	-13.48
331.925	35.67
332.138	84.82
332.35	23.38
332.563	43.86
332.776	62.29
332.989	54.1
333.202	60.24
333.414	15.19
333.627	129.88
333.84	76.63
334.053	109.4
334.265	29.52
334.478	93.01
334.691	80.72
334.903	58.2
335.116	109.4
335.329	-44.2
335.541	37.72
335.754	64.34
335.966	76.63
336.179	76.63
336.392	35.67
336.604	80.72
336.817	47.96
337.029	52.05
337.242	70.48
337.454	11.09
337.667	52.05
337.88	56.15
338.092	2.9
338.305	60.24
338.517	-15.53
338.729	80.72
338.942	88.92
339.154	90.96
339.367	62.29
339.579	-17.58
339.792	129.88
340.004	105.3
340.217	27.48
340.429	37.72
340.641	80.72
340.854	52.05
341.066	43.86
341.278	88.92
341.491	78.68
341.703	140.12
341.915	82.77
342.128	29.52
342.34	84.82
342.552	37.72
342.764	19.29
342.977	25.43
343.189	2.9
343.401	72.53
343.613	-11.43
343.826	56.15
344.038	47.96
344.25	111.44
344.462	33.62
344.674	60.24
344.886	68.44
345.099	43.86
345.311	72.53
345.523	80.72
345.735	82.77
345.947	76.63
346.159	93.01
346.371	113.49
346.583	-13.48
346.795	95.06
347.007	35.67
347.219	-7.34
347.431	72.53
347.643	-1.19
347.855	-33.96
348.067	47.96
348.279	-44.2
348.491	-9.39
348.703	148.31
348.915	109.4
349.127	-15.53
349.339	56.15
349.551	23.38
349.763	33.62
349.975	33.62
350.187	19.29
350.399	52.05
350.61	35.67
350.822	64.34
351.034	76.63
351.246	23.38
351.458	115.54
351.669	9.05
351.881	125.78
352.093	52.05
352.305	95.06
352.517	146.26
352.728	88.92
352.94	-1.19
353.152	23.38
353.363	76.63
353.575	33.62
353.787	140.12
353.999	2.9
354.21	90.96
354.422	2.9
354.633	88.92
354.845	64.34
355.057	-15.53
355.268	45.91
355.48	88.92
355.692	19.29
355.903	60.24
356.115	72.53
356.326	17.24
356.538	62.29
356.749	9.05
356.961	58.2
357.172	86.87
357.384	0.85
357.595	99.16
357.807	-5.29
358.018	19.29
358.23	37.72
358.441	129.88
358.653	150.36
358.864	-3.24
359.075	17.24
359.287	80.72
359.498	103.25
359.709	60.24
359.921	-36.01
360.132	66.39
360.344	25.43
360.555	37.72
360.766	70.48
360.977	88.92
361.189	109.4
361.4	43.86
361.611	56.15
361.823	150.36
362.034	37.72
362.245	15.19
362.456	23.38
362.667	35.67
362.879	-44.2
363.09	80.72
363.301	47.96
363.512	52.05
363.723	76.63
363.935	43.86
364.146	54.1
364.357	82.77
364.568	101.2
364.779	23.38
364.99	62.29
365.201	-15.53
365.412	84.82
365.623	31.57
365.834	23.38
366.045	93.01
366.256	115.54
366.467	62.29
366.678	-5.29
366.889	54.1
367.1	-3.24
367.311	142.16
367.522	-17.58
367.733	70.48
367.944	68.44
368.155	76.63
368.366	58.2
368.577	97.11
368.788	58.2
368.999	0.85
369.209	-5.29
369.42	76.63
369.631	144.21
369.842	23.38
370.053	19.29
370.264	66.39
370.474	119.64
370.685	54.1
370.896	29.52
371.107	111.44
371.317	127.83
371.528	0.85
371.739	80.72
371.95	52.05
372.16	54.1
372.371	68.44
372.582	-13.48
372.792	19.29
373.003	66.39
373.214	82.77
373.424	82.77
373.635	33.62
373.846	88.92
374.056	74.58
374.267	15.19
374.477	80.72
374.688	17.24
374.898	37.72
375.109	29.52
375.319	76.63
375.53	97.11
375.74	93.01
375.951	2.9
376.161	68.44
376.372	101.2
376.582	25.43
376.793	109.4
377.003	58.2
377.214	70.48
377.424	76.63
377.635	76.63
377.845	19.29
378.055	-21.67
378.266	50
378.476	105.3
378.686	86.87
378.897	76.63
379.107	64.34
379.317	39.76
379.528	58.2
379.738	144.21
379.948	17.24
380.158	52.05
380.369	52.05
380.579	146.26
380.789	13.14
380.999	41.81
381.21	109.4
381.42	74.58
381.63	52.05
381.84	68.44
382.05	125.78
382.261	158.55
382.471	80.72
382.681	60.24
382.891	133.97
383.101	7
383.311	41.81
383.521	88.92
383.731	101.2
383.941	119.64
384.151	15.19
384.361	111.44
384.571	107.35
384.781	50
384.991	19.29
385.201	121.68
385.411	-1.19
385.621	115.54
385.831	68.44
386.041	117.59
386.251	84.82
386.461	29.52
386.671	129.88
386.881	66.39
387.091	95.06
387.301	166.74
387.511	78.68
387.72	107.35
387.93	95.06
388.14	62.29
388.35	0.85
388.56	88.92
388.769	125.78
388.979	119.64
389.189	-23.72
389.399	97.11
389.609	45.91
389.818	90.96
390.028	31.57
390.238	70.48
390.447	66.39
390.657	93.01
390.867	82.77
391.076	-52.39
391.286	88.92
391.496	93.01
391.705	66.39
391.915	47.96
392.125	115.54
392.334	101.2
392.544	56.15
392.753	52.05
392.963	52.05
393.172	66.39
393.382	86.87
393.591	193.36
393.801	107.35
394.01	86.87
394.22	107.35
394.429	166.74
394.639	131.92
394.848	80.72
395.058	56.15
395.267	97.11
395.477	93.01
395.686	62.29
395.895	84.82
396.105	172.88
396.314	88.92
396.524	43.86
396.733	170.83
396.942	90.96
397.152	37.72
397.361	179.03
397.57	117.59
397.78	133.97
397.989	58.2
398.198	146.26
398.407	166.74
398.617	164.69
398.826	107.35
399.035	133.97
399.244	181.07
399.453	154.45
399.663	131.92
399.872	125.78
400.081	43.86
400.29	199.51
400.499	107.35
400.708	88.92
400.917	158.55
401.127	115.54
401.336	41.81
401.545	203.6
401.754	150.36
401.963	179.03
402.172	113.49
402.381	191.31
402.59	152.4
402.799	125.78
403.008	166.74
403.217	138.07
403.426	172.88
403.635	150.36
403.844	211.79
404.053	176.98
404.262	80.72
404.471	281.43
404.68	215.89
404.888	154.45
405.097	150.36
405.306	236.37
405.515	244.56
405.724	179.03
405.933	140.12
406.142	217.94
406.35	222.03
406.559	230.23
406.768	158.55
406.977	189.27
407.185	273.23
407.394	205.65
407.603	197.46
407.812	189.27
408.02	242.51
408.229	287.57
408.438	224.08
408.646	213.84
408.855	197.46
409.064	316.24
409.272	277.33
409.481	277.33
409.69	318.29
409.898	306
410.107	371.54
410.315	351.06
410.524	369.49
410.733	287.57
410.941	312.14
411.15	371.54
411.358	310.1
411.567	428.88
411.775	428.88
411.984	385.87
412.192	496.46
412.401	426.83
412.609	551.76
412.818	516.94
413.026	543.57
413.234	516.94
413.443	500.56
413.651	459.6
413.86	584.52
414.068	547.66
414.276	699.21
414.485	600.91
414.693	731.98
414.901	772.94
415.11	717.64
415.318	719.69
415.526	723.79
415.734	707.4
415.943	885.58
416.151	848.71
416.359	879.43
416.567	846.66
416.776	924.49
416.984	1088.32
417.192	1035.08
417.4	1000.26
417.608	1172.29
417.817	1051.46
418.025	1166.15
418.233	1155.91
418.441	1235.78
418.649	1280.83
418.857	1293.12
419.065	1368.9
419.273	1383.23
419.481	1385.28
419.689	1452.86
419.897	1448.77
420.105	1514.3
420.313	1612.6
420.521	1583.93
420.729	1610.56
420.937	1796.92
421.145	1854.27
421.353	1884.98
421.561	1968.95
421.769	1993.53
421.977	2048.82
422.185	2075.45
422.393	2294.58
422.601	2337.59
422.809	2394.93
423.017	2321.2
423.224	2622.25
423.432	2497.33
423.64	2597.68
423.848	2681.64
424.056	2720.56
424.263	2829.1
424.471	3042.09
424.679	2919.21
424.887	3189.54
425.094	3271.46
425.302	3302.18
425.51	3412.77
425.718	3451.68
425.925	3515.17
426.133	3556.13
426.341	3773.21
426.548	4066.07
426.756	3932.95
426.964	4154.13
427.171	4250.39
427.379	4449.04
427.586	4432.66
427.794	4543.25
428.001	4817.68
428.209	5008.14
428.417	4885.26
428.624	5319.43
428.832	5298.95
429.039	5182.21
429.247	5198.6
429.454	5698.3
429.662	6124.28
429.869	5597.95
430.076	6068.98
430.284	6195.96
430.491	6374.13
430.699	6585.07
430.906	6574.83
431.114	6449.91
431.321	6796.01
431.528	7183.08
431.736	7402.21
431.943	7854.81
432.15	7576.29
432.358	7774.94
432.565	8100.57
432.772	7926.49
432.979	8381.14
433.187	8569.55
433.394	8753.87
433.601	9155.27
433.808	9286.34
434.016	9253.58
434.223	9818.82
434.43	10046.14
434.637	9839.3
434.844	10574.52
435.052	10828.46
435.259	10732.21
435.466	10764.98
435.673	10654.39
435.88	11434.66
436.087	11831.97
436.294	12026.53
436.501	11637.41
436.708	12020.38
436.915	12399.26
437.122	13101.71
437.329	12796.56
437.537	13486.73
437.743	13179.53
437.95	13378.19
438.157	14027.39
438.364	14514.81
438.571	14500.47
438.778	14557.82
438.985	15848.04
439.192	15338.09
439.399	15755.88
439.606	15194.73
439.813	16329.31
440.02	17257.04
440.227	16988.75
440.433	16718.42
440.64	17535.56
440.847	17224.27
441.054	17969.73
441.261	18733.62
441.467	18477.63
441.674	18881.08
441.881	19632.68
442.088	19702.31
442.294	19429.93
442.501	19853.86
442.708	20449.82
442.914	21160.47
443.121	21918.21
443.328	21453.33
443.534	22706.68
443.741	22360.58
443.948	21910.02
444.154	23540.21
444.361	23390.7
444.568	23689.71
444.774	23448.05
444.981	23878.12
445.187	24551.9
445.394	25571.79
445.6	24945.11
445.807	27816.36
446.013	26362.31
446.22	26872.25
446.426	27789.74
446.633	27867.56
446.839	29028.76
447.046	28160.42
447.252	29692.3
447.459	29223.32
447.665	29290.9
447.871	30521.73
448.078	31742.32
448.284	30273.93
448.491	31064.44
448.697	31897.97
448.903	32321.9
449.11	32457.06
449.316	32250.22
449.522	32983.39
449.728	33620.31
449.935	33669.46
450.141	33698.13
450.347	34742.6
450.553	33423.7
450.76	33917.26
450.966	34597.19
451.172	34715.97
451.378	35162.43
451.584	34754.88
451.791	35150.14
451.997	35057.98
452.203	35858.74
452.409	35770.68
452.615	35252.54
452.821	34277.71
453.027	33915.22
453.233	35465.53
453.44	34021.71
453.646	34267.47
453.852	34799.94
454.058	35197.24
454.264	33767.76
454.47	34384.2
454.676	34212.17
454.882	34705.73
455.088	31875.44
455.294	32469.35
455.5	32465.25
455.705	32840.03
455.911	31723.89
456.117	30966.14
456.323	30648.71
456.529	29026.71
456.735	30284.17
456.941	29311.38
457.147	28993.95
457.352	28115.37
457.558	27670.96
457.764	27685.29
457.97	27058.62
458.176	26476.99
458.381	26837.44
458.587	25344.47
458.793	25248.21
458.999	24017.38
459.204	25610.7
459.41	25215.44
459.616	23570.93
459.821	23540.21
460.027	23314.93
460.233	22737.4
460.438	21631.5
460.644	22133.25
460.85	20924.95
461.055	20644.38
461.261	20673.05
461.466	18866.74
461.672	18498.11
461.878	19786.28
462.083	18577.98
462.289	18258.49
462.494	18047.55
462.7	17173.07
462.905	16753.24
463.111	17220.17
463.316	17306.19
463.522	16882.26
463.727	17050.19
463.932	17191.5
464.138	17054.29
464.343	17060.43
464.549	16431.71
464.754	17009.23
464.959	16699.99
465.165	16468.57
465.37	15925.86
465.575	15635.05
465.781	16374.36
465.986	16450.14
466.191	15628.9
466.397	15381.1
466.602	14731.89
466.807	15348.33
467.012	15207.02
467.218	15153.77
467.423	14955.12
467.628	15166.06
467.833	15639.14
468.038	15110.77
