Data from USB4F104151__281__10-42-09-043.txt Node

Date: Wed Mar 12 10:42:09 EDT 2025
User: louis
Spectrometer: USB4F10415
Trigger mode: 4
Integration Time (sec): 3.000000E-2
Scans to average: 1
Electric dark correction enabled: true
Nonlinearity correction enabled: false
Boxcar width: 0
XAxis mode: Wavelengths
Number of Pixels in Spectrum: 3648
>>>>>Begin Spectral Data<<<<<
178.204	-148.99
178.424	-148.99
178.644	-148.99
178.864	-85.5
179.084	-110.08
179.304	16.9
179.524	14.85
179.744	-24.06
179.964	-1.54
180.184	18.94
180.404	-3.58
180.624	-42.5
180.844	45.57
181.064	-17.92
181.283	37.38
181.503	6.66
181.723	-50.69
181.943	-34.3
182.163	111.1
182.383	2.56
182.602	20.99
182.822	64
183.042	27.14
183.262	-42.5
183.482	-79.36
183.701	-3.58
183.921	-13.82
184.141	45.57
184.361	2.56
184.58	-15.87
184.8	-5.63
185.02	-73.21
185.239	51.71
185.459	53.76
185.679	59.9
185.898	25.09
186.118	29.18
186.338	39.42
186.557	88.57
186.777	-36.35
186.997	18.94
187.216	-22.02
187.436	8.7
187.655	2.56
187.875	31.23
188.095	-71.17
188.314	39.42
188.534	25.09
188.753	-30.21
188.973	-60.93
189.192	27.14
189.412	14.85
189.631	37.38
189.851	14.85
190.07	4.61
190.29	-38.4
190.509	10.75
190.729	-32.26
190.948	123.39
191.168	98.81
191.387	35.33
191.607	-5.63
191.826	111.1
192.045	-17.92
192.265	6.66
192.484	43.52
192.704	61.95
192.923	-34.3
193.142	96.77
193.362	8.7
193.581	72.19
193.8	72.19
194.02	39.42
194.239	-15.87
194.458	68.09
194.678	-22.02
194.897	61.95
195.116	45.57
195.335	4.61
195.555	66.05
195.774	0.51
195.993	4.61
196.212	29.18
196.432	29.18
196.651	45.57
196.87	6.66
197.089	82.43
197.308	92.67
197.528	31.23
197.747	-9.73
197.966	-15.87
198.185	41.47
198.404	35.33
198.623	98.81
198.842	-5.63
199.062	45.57
199.281	90.62
199.5	94.72
199.719	29.18
199.938	45.57
200.157	-5.63
200.376	25.09
200.595	96.77
200.814	14.85
201.033	-26.11
201.252	82.43
201.471	27.14
201.69	16.9
201.909	61.95
202.128	39.42
202.347	6.66
202.566	78.33
202.785	2.56
203.004	41.47
203.223	98.81
203.442	23.04
203.661	20.99
203.879	29.18
204.098	8.7
204.317	4.61
204.536	-17.92
204.755	14.85
204.974	51.71
205.193	53.76
205.411	98.81
205.63	35.33
205.849	37.38
206.068	-7.68
206.287	4.61
206.505	27.14
206.724	39.42
206.943	55.81
207.162	2.56
207.381	10.75
207.599	-1.54
207.818	6.66
208.037	10.75
208.255	18.94
208.474	20.99
208.693	-32.26
208.911	-7.68
209.13	47.62
209.349	43.52
209.567	55.81
209.786	117.25
210.005	35.33
210.223	78.33
210.442	-19.97
210.661	-42.5
210.879	0.51
211.098	33.28
211.316	47.62
211.535	92.67
211.753	31.23
211.972	59.9
212.191	39.42
212.409	53.76
212.628	37.38
212.846	84.48
213.065	39.42
213.283	-1.54
213.502	2.56
213.72	10.75
213.938	-26.11
214.157	-26.11
214.375	72.19
214.594	-38.4
214.812	-34.3
215.031	74.24
215.249	-9.73
215.467	61.95
215.686	0.51
215.904	51.71
216.122	-26.11
216.341	57.86
216.559	14.85
216.778	72.19
216.996	82.43
217.214	141.82
217.432	90.62
217.651	10.75
217.869	-9.73
218.087	2.56
218.306	-52.74
218.524	88.57
218.742	18.94
218.96	27.14
219.179	20.99
219.397	43.52
219.615	53.76
219.833	-17.92
220.051	-1.54
220.27	33.28
220.488	10.75
220.706	-34.3
220.924	14.85
221.142	-30.21
221.36	137.73
221.578	20.99
221.796	23.04
222.015	2.56
222.233	111.1
222.451	31.23
222.669	88.57
222.887	-17.92
223.105	18.94
223.323	47.62
223.541	72.19
223.759	47.62
223.977	-54.78
224.195	18.94
224.413	94.72
224.631	117.25
224.849	64
225.067	88.57
225.285	23.04
225.503	31.23
225.721	-67.07
225.939	-5.63
226.157	37.38
226.375	113.15
226.592	-62.98
226.81	29.18
227.028	27.14
227.246	74.24
227.464	2.56
227.682	123.39
227.9	68.09
228.117	84.48
228.335	20.99
228.553	57.86
228.771	-5.63
228.989	14.85
229.206	47.62
229.424	23.04
229.642	33.28
229.86	35.33
230.077	55.81
230.295	45.57
230.513	10.75
230.731	45.57
230.948	43.52
231.166	66.05
231.384	41.47
231.601	27.14
231.819	96.77
232.037	-5.63
232.254	64
232.472	55.81
232.689	96.77
232.907	18.94
233.125	80.38
233.342	47.62
233.56	55.81
233.777	-17.92
233.995	55.81
234.213	102.91
234.43	29.18
234.648	-11.78
234.865	100.86
235.083	45.57
235.3	-24.06
235.518	53.76
235.735	49.66
235.953	57.86
236.17	-54.78
236.388	14.85
236.605	43.52
236.822	78.33
237.04	127.49
237.257	-75.26
237.475	-5.63
237.692	-17.92
237.909	25.09
238.127	20.99
238.344	23.04
238.562	51.71
238.779	-1.54
238.996	39.42
239.214	-52.74
239.431	96.77
239.648	64
239.865	107.01
240.083	70.14
240.3	2.56
240.517	31.23
240.735	35.33
240.952	49.66
241.169	88.57
241.386	61.95
241.603	-17.92
241.821	2.56
242.038	-52.74
242.255	2.56
242.472	25.09
242.689	68.09
242.907	27.14
243.124	39.42
243.341	-50.69
243.558	43.52
243.775	45.57
243.992	2.56
244.209	43.52
244.426	10.75
244.643	37.38
244.86	-24.06
245.078	74.24
245.295	27.14
245.512	64
245.729	43.52
245.946	31.23
246.163	12.8
246.38	29.18
246.597	-11.78
246.814	0.51
247.031	23.04
247.248	18.94
247.464	6.66
247.681	102.91
247.898	27.14
248.115	-13.82
248.332	-13.82
248.549	88.57
248.766	102.91
248.983	8.7
249.2	55.81
249.417	70.14
249.633	-15.87
249.85	-9.73
250.067	72.19
250.284	61.95
250.501	-22.02
250.717	78.33
250.934	39.42
251.151	20.99
251.368	53.76
251.585	-42.5
251.801	53.76
252.018	47.62
252.235	117.25
252.451	14.85
252.668	20.99
252.885	96.77
253.102	35.33
253.318	8.7
253.535	37.38
253.752	35.33
253.968	51.71
254.185	20.99
254.401	51.71
254.618	-5.63
254.835	25.09
255.051	80.38
255.268	100.86
255.484	55.81
255.701	80.38
255.917	-3.58
256.134	-36.35
256.351	-3.58
256.567	-11.78
256.784	43.52
257	-3.58
257.217	20.99
257.433	39.42
257.65	16.9
257.866	98.81
258.082	-13.82
258.299	41.47
258.515	35.33
258.732	-7.68
258.948	14.85
259.165	14.85
259.381	-17.92
259.597	47.62
259.814	12.8
260.03	53.76
260.246	88.57
260.463	39.42
260.679	80.38
260.895	12.8
261.112	82.43
261.328	14.85
261.544	45.57
261.761	74.24
261.977	-5.63
262.193	2.56
262.409	59.9
262.626	37.38
262.842	104.96
263.058	-7.68
263.274	80.38
263.49	-3.58
263.707	80.38
263.923	51.71
264.139	-17.92
264.355	10.75
264.571	92.67
264.787	66.05
265.004	88.57
265.22	55.81
265.436	25.09
265.652	47.62
265.868	27.14
266.084	8.7
266.3	41.47
266.516	4.61
266.732	18.94
266.948	57.86
267.164	31.23
267.38	90.62
267.596	70.14
267.812	66.05
268.028	20.99
268.244	23.04
268.46	80.38
268.676	-11.78
268.892	82.43
269.108	-79.36
269.324	14.85
269.54	72.19
269.756	47.62
269.972	-30.21
270.188	74.24
270.403	-22.02
270.619	29.18
270.835	27.14
271.051	-11.78
271.267	-13.82
271.483	49.66
271.698	59.9
271.914	4.61
272.13	43.52
272.346	-44.54
272.562	12.8
272.777	90.62
272.993	39.42
273.209	51.71
273.425	-5.63
273.64	-67.07
273.856	23.04
274.072	-11.78
274.287	37.38
274.503	61.95
274.719	51.71
274.934	80.38
275.15	-19.97
275.366	-58.88
275.581	18.94
275.797	20.99
276.012	61.95
276.228	-1.54
276.444	4.61
276.659	98.81
276.875	-46.59
277.09	51.71
277.306	4.61
277.521	31.23
277.737	23.04
277.952	27.14
278.168	-9.73
278.383	-38.4
278.599	-1.54
278.814	76.29
279.03	55.81
279.245	16.9
279.461	104.96
279.676	39.42
279.892	-22.02
280.107	-30.21
280.322	6.66
280.538	23.04
280.753	-3.58
280.969	31.23
281.184	-9.73
281.399	29.18
281.615	90.62
281.83	29.18
282.045	16.9
282.26	-62.98
282.476	49.66
282.691	80.38
282.906	68.09
283.122	20.99
283.337	12.8
283.552	80.38
283.767	27.14
283.983	35.33
284.198	59.9
284.413	51.71
284.628	-34.3
284.843	27.14
285.058	47.62
285.274	51.71
285.489	113.15
285.704	68.09
285.919	-3.58
286.134	-26.11
286.349	72.19
286.564	45.57
286.779	111.1
286.995	74.24
287.21	-36.35
287.425	59.9
287.64	61.95
287.855	92.67
288.07	23.04
288.285	57.86
288.5	47.62
288.715	68.09
288.93	2.56
289.145	-9.73
289.36	25.09
289.575	59.9
289.79	92.67
290.004	41.47
290.219	31.23
290.434	20.99
290.649	-7.68
290.864	45.57
291.079	10.75
291.294	74.24
291.509	47.62
291.724	-5.63
291.938	47.62
292.153	143.87
292.368	10.75
292.583	6.66
292.798	14.85
293.012	2.56
293.227	78.33
293.442	64
293.657	92.67
293.871	84.48
294.086	20.99
294.301	82.43
294.516	29.18
294.73	68.09
294.945	23.04
295.16	43.52
295.374	78.33
295.589	68.09
295.804	23.04
296.018	107.01
296.233	76.29
296.447	10.75
296.662	72.19
296.877	80.38
297.091	-11.78
297.306	64
297.52	49.66
297.735	98.81
297.949	-13.82
298.164	86.53
298.378	-11.78
298.593	45.57
298.807	-28.16
299.022	92.67
299.236	6.66
299.451	-17.92
299.665	18.94
299.88	55.81
300.094	31.23
300.309	35.33
300.523	-38.4
300.737	88.57
300.952	12.8
301.166	6.66
301.381	55.81
301.595	61.95
301.809	102.91
302.024	16.9
302.238	-30.21
302.452	31.23
302.667	-5.63
302.881	104.96
303.095	49.66
303.309	51.71
303.524	-11.78
303.738	80.38
303.952	82.43
304.166	64
304.381	18.94
304.595	78.33
304.809	37.38
305.023	55.81
305.237	86.53
305.452	29.18
305.666	80.38
305.88	92.67
306.094	12.8
306.308	109.05
306.522	78.33
306.736	39.42
306.95	47.62
307.164	18.94
307.379	57.86
307.593	127.49
307.807	29.18
308.021	82.43
308.235	104.96
308.449	-28.16
308.663	18.94
308.877	156.16
309.091	14.85
309.305	18.94
309.519	18.94
309.733	115.2
309.947	37.38
310.161	25.09
310.374	78.33
310.588	113.15
310.802	14.85
311.016	23.04
311.23	143.87
311.444	-30.21
311.658	94.72
311.872	61.95
312.085	64
312.299	61.95
312.513	43.52
312.727	39.42
312.941	35.33
313.154	68.09
313.368	6.66
313.582	45.57
313.796	-17.92
314.009	-50.69
314.223	59.9
314.437	78.33
314.651	107.01
314.864	4.61
315.078	68.09
315.292	27.14
315.505	-62.98
315.719	70.14
315.933	25.09
316.146	72.19
316.36	45.57
316.573	35.33
316.787	-9.73
317.001	59.9
317.214	39.42
317.428	74.24
317.641	-3.58
317.855	23.04
318.068	82.43
318.282	-28.16
318.495	70.14
318.709	10.75
318.922	-34.3
319.136	37.38
319.349	25.09
319.563	41.47
319.776	-3.58
319.99	31.23
320.203	59.9
320.417	14.85
320.63	125.44
320.843	109.05
321.057	-1.54
321.27	57.86
321.483	2.56
321.697	72.19
321.91	64
322.124	2.56
322.337	80.38
322.55	20.99
322.763	12.8
322.977	33.28
323.19	-3.58
323.403	-15.87
323.617	64
323.83	59.9
324.043	29.18
324.256	66.05
324.469	23.04
324.683	86.53
324.896	14.85
325.109	47.62
325.322	43.52
325.535	98.81
325.748	29.18
325.962	25.09
326.175	53.76
326.388	92.67
326.601	57.86
326.814	76.29
327.027	66.05
327.24	10.75
327.453	-50.69
327.666	61.95
327.879	45.57
328.092	70.14
328.305	20.99
328.518	113.15
328.731	-17.92
328.944	37.38
329.157	2.56
329.37	61.95
329.583	49.66
329.796	78.33
330.009	8.7
330.222	14.85
330.435	-5.63
330.648	59.9
330.861	47.62
331.073	61.95
331.286	57.86
331.499	115.2
331.712	70.14
331.925	70.14
332.138	92.67
332.35	64
332.563	27.14
332.776	109.05
332.989	35.33
333.202	43.52
333.414	55.81
333.627	27.14
333.84	45.57
334.053	94.72
334.265	-50.69
334.478	43.52
334.691	43.52
334.903	-9.73
335.116	-81.41
335.329	76.29
335.541	113.15
335.754	51.71
335.966	4.61
336.179	23.04
336.392	20.99
336.604	66.05
336.817	-30.21
337.029	14.85
337.242	4.61
337.454	135.68
337.667	70.14
337.88	90.62
338.092	45.57
338.305	66.05
338.517	-28.16
338.729	72.19
338.942	88.57
339.154	35.33
339.367	-3.58
339.579	55.81
339.792	41.47
340.004	14.85
340.217	64
340.429	43.52
340.641	33.28
340.854	78.33
341.066	53.76
341.278	8.7
341.491	33.28
341.703	41.47
341.915	-89.6
342.128	158.21
342.34	61.95
342.552	-17.92
342.764	37.38
342.977	16.9
343.189	53.76
343.401	2.56
343.613	-46.59
343.826	39.42
344.038	51.71
344.25	25.09
344.462	51.71
344.674	90.62
344.886	4.61
345.099	57.86
345.311	102.91
345.523	-17.92
345.735	-7.68
345.947	31.23
346.159	53.76
346.371	2.56
346.583	14.85
346.795	47.62
347.007	78.33
347.219	111.1
347.431	78.33
347.643	43.52
347.855	68.09
348.067	92.67
348.279	31.23
348.491	49.66
348.703	-7.68
348.915	23.04
349.127	74.24
349.339	61.95
349.551	43.52
349.763	29.18
349.975	4.61
350.187	137.73
350.399	66.05
350.61	143.87
350.822	2.56
351.034	31.23
351.246	43.52
351.458	23.04
351.669	68.09
351.881	102.91
352.093	94.72
352.305	51.71
352.517	8.7
352.728	76.29
352.94	82.43
353.152	14.85
353.363	70.14
353.575	66.05
353.787	51.71
353.999	53.76
354.21	-1.54
354.422	29.18
354.633	47.62
354.845	92.67
355.057	47.62
355.268	14.85
355.48	-3.58
355.692	-40.45
355.903	70.14
356.115	33.28
356.326	27.14
356.538	86.53
356.749	90.62
356.961	115.2
357.172	68.09
357.384	47.62
357.595	-30.21
357.807	64
358.018	-19.97
358.23	53.76
358.441	4.61
358.653	29.18
358.864	96.77
359.075	31.23
359.287	98.81
359.498	98.81
359.709	59.9
359.921	88.57
360.132	80.38
360.344	49.66
360.555	31.23
360.766	55.81
360.977	12.8
361.189	12.8
361.4	2.56
361.611	-7.68
361.823	59.9
362.034	74.24
362.245	64
362.456	107.01
362.667	39.42
362.879	41.47
363.09	66.05
363.301	-5.63
363.512	47.62
363.723	29.18
363.935	49.66
364.146	84.48
364.357	47.62
364.568	100.86
364.779	8.7
364.99	131.58
365.201	-34.3
365.412	18.94
365.623	-17.92
365.834	68.09
366.045	53.76
366.256	37.38
366.467	66.05
366.678	119.29
366.889	74.24
367.1	31.23
367.311	94.72
367.522	31.23
367.733	59.9
367.944	92.67
368.155	-19.97
368.366	90.62
368.577	100.86
368.788	57.86
368.999	-1.54
369.209	109.05
369.42	53.76
369.631	141.82
369.842	59.9
370.053	80.38
370.264	72.19
370.474	43.52
370.685	94.72
370.896	55.81
371.107	39.42
371.317	25.09
371.528	64
371.739	20.99
371.95	51.71
372.16	121.34
372.371	64
372.582	68.09
372.792	31.23
373.003	78.33
373.214	64
373.424	14.85
373.635	90.62
373.846	104.96
374.056	53.76
374.267	80.38
374.477	92.67
374.688	14.85
374.898	37.38
375.109	51.71
375.319	92.67
375.53	61.95
375.74	47.62
375.951	-13.82
376.161	88.57
376.372	27.14
376.582	-9.73
376.793	137.73
377.003	64
377.214	20.99
377.424	31.23
377.635	37.38
377.845	72.19
378.055	102.91
378.266	29.18
378.476	53.76
378.686	-19.97
378.897	59.9
379.107	55.81
379.317	39.42
379.528	29.18
379.738	27.14
379.948	39.42
380.158	109.05
380.369	74.24
380.579	55.81
380.789	47.62
380.999	53.76
381.21	88.57
381.42	98.81
381.63	139.77
381.84	47.62
382.05	86.53
382.261	113.15
382.471	31.23
382.681	111.1
382.891	84.48
383.101	100.86
383.311	2.56
383.521	94.72
383.731	59.9
383.941	43.52
384.151	66.05
384.361	78.33
384.571	25.09
384.781	68.09
384.991	80.38
385.201	145.92
385.411	6.66
385.621	51.71
385.831	84.48
386.041	47.62
386.251	86.53
386.461	94.72
386.671	-5.63
386.881	64
387.091	-17.92
387.301	139.77
387.511	61.95
387.72	145.92
387.93	70.14
388.14	64
388.35	68.09
388.56	158.21
388.769	156.16
388.979	88.57
389.189	43.52
389.399	74.24
389.609	94.72
389.818	92.67
390.028	57.86
390.238	100.86
390.447	104.96
390.657	96.77
390.867	84.48
391.076	57.86
391.286	109.05
391.496	129.53
391.705	76.29
391.915	129.53
392.125	37.38
392.334	125.44
392.544	107.01
392.753	45.57
392.963	78.33
393.172	39.42
393.382	109.05
393.591	80.38
393.801	66.05
394.01	115.2
394.22	127.49
394.429	102.91
394.639	78.33
394.848	100.86
395.058	145.92
395.267	92.67
395.477	123.39
395.686	51.71
395.895	143.87
396.105	182.78
396.314	82.43
396.524	104.96
396.733	111.1
396.942	104.96
397.152	180.73
397.361	121.34
397.57	92.67
397.78	119.29
397.989	125.44
398.198	168.45
398.407	172.54
398.617	55.81
398.826	84.48
399.035	147.97
399.244	109.05
399.453	90.62
399.663	86.53
399.872	137.73
400.081	156.16
400.29	133.63
400.499	80.38
400.708	158.21
400.917	162.3
401.127	141.82
401.336	100.86
401.545	186.88
401.754	102.91
401.963	111.1
402.172	201.21
402.381	141.82
402.59	96.77
402.799	78.33
403.008	143.87
403.217	86.53
403.426	184.83
403.635	156.16
403.844	166.4
404.053	199.16
404.262	100.86
404.471	205.31
404.68	168.45
404.888	199.16
405.097	92.67
405.306	209.4
405.515	193.02
405.724	186.88
405.933	211.45
406.142	217.6
406.35	186.88
406.559	209.4
406.768	244.22
406.977	246.27
407.185	184.83
407.394	238.08
407.603	225.79
407.812	307.71
408.02	258.56
408.229	352.76
408.438	264.7
408.646	276.99
408.855	328.19
409.064	326.14
409.272	254.46
409.481	393.72
409.69	272.89
409.898	311.8
410.107	365.05
410.315	322.04
410.524	373.24
410.733	403.96
410.941	451.07
411.15	453.11
411.358	412.15
411.567	471.54
411.775	385.53
411.984	393.72
412.192	565.75
412.401	455.16
412.609	539.13
412.818	674.29
413.026	596.47
413.234	565.75
413.443	561.66
413.651	729.59
413.86	700.92
414.068	852.47
414.276	711.16
414.485	664.05
414.693	784.88
414.901	842.23
415.11	825.84
415.318	799.22
415.526	877.04
415.734	811.51
415.943	954.87
416.151	948.72
416.359	1014.26
416.567	1034.74
416.776	1094.13
416.984	1159.66
417.192	1100.27
417.4	1083.89
417.608	1180.14
417.817	1247.72
418.025	1296.88
418.233	1257.96
418.441	1382.89
418.649	1413.61
418.857	1466.86
419.065	1626.6
419.273	1503.72
419.481	1606.12
419.689	1708.52
419.897	1765.86
420.105	1843.68
420.313	1858.02
420.521	1823.2
420.729	2003.43
420.937	1978.85
421.145	2111.97
421.353	2157.02
421.561	2277.85
421.769	2261.47
421.977	2380.25
422.185	2417.12
422.393	2464.22
422.601	2705.88
422.809	2767.32
423.017	2791.89
423.224	2925.01
423.432	3113.42
423.64	2918.87
423.848	3262.93
424.056	3142.1
424.263	3492.3
424.471	3525.07
424.679	3449.29
424.887	3709.38
425.094	3899.84
425.302	3809.73
425.51	3828.17
425.718	4016.58
425.925	4086.21
426.133	4460.99
426.341	4442.56
426.548	4878.77
426.756	4815.29
426.964	4848.05
427.171	5177.78
427.379	5353.9
427.586	5403.05
427.794	5419.44
428.001	5749.16
428.209	6089.12
428.417	6009.25
428.624	6298.02
428.832	6259.1
429.039	6181.28
429.247	6265.25
429.454	6795.67
429.662	7215.51
429.869	6666.65
430.076	7346.58
430.284	7186.83
430.491	7496.08
430.699	7971.21
430.906	7778.7
431.114	8065.41
431.321	8259.97
431.528	8470.91
431.736	8855.93
431.943	9451.89
432.15	9136.5
432.358	9245.04
432.565	9593.2
432.772	9767.27
432.979	10309.99
433.187	10244.45
433.394	10539.36
433.601	11090.26
433.808	10869.08
434.016	11094.36
434.223	11716.94
434.43	12509.51
434.637	12071.24
434.844	12591.42
435.052	13277.49
435.259	12824.89
435.466	13271.35
435.673	12876.09
435.88	13764.91
436.087	14514.47
436.294	14358.82
436.501	14102.82
436.708	14676.26
436.915	14799.13
437.122	15849.74
437.329	15614.23
437.537	15941.9
437.743	16261.38
437.95	16050.44
438.157	16965.89
438.364	17475.83
438.571	17432.82
438.778	17682.67
438.985	19386.58
439.192	18585.83
439.399	19149.02
439.606	19030.24
439.813	20033.74
440.02	21096.64
440.227	20732.1
440.433	20453.58
440.64	21391.55
440.847	21070.01
441.054	21377.21
441.261	22741.16
441.467	22544.55
441.674	23218.33
441.881	23998.61
442.088	23920.79
442.294	23621.78
442.501	24395.92
442.708	25067.65
442.914	25968.76
443.121	26820.71
443.328	26210.42
443.534	27830.36
443.741	27175.01
443.948	26806.37
444.154	29053
444.361	28643.4
444.568	28856.39
444.774	29032.52
444.981	29055.04
445.187	30072.89
445.394	31332.39
445.6	30650.41
445.807	33837.05
446.013	32532.5
446.22	32790.54
446.426	34052.09
446.633	34091
446.839	35938.27
447.046	34045.94
447.252	36138.97
447.459	36042.71
447.665	35940.32
447.871	37040.07
448.078	38748.08
448.284	36997.07
448.491	37810.11
448.697	39407.53
448.903	39827.36
449.11	40265.63
449.316	39546.79
449.522	39964.57
449.728	41025.42
449.935	41592.71
450.141	41295.75
450.347	42397.56
450.553	40845.2
450.76	41275.27
450.966	42585.97
451.172	42106.75
451.378	42934.13
451.584	42133.37
451.791	43229.04
451.997	42864.5
452.203	44003.17
452.409	43503.46
452.615	43200.36
452.821	41748.35
453.027	41224.07
453.233	43388.78
453.44	41385.86
453.646	41975.68
453.852	42551.16
454.058	42704.76
454.264	41471.88
454.47	42076.03
454.676	41291.66
454.882	42581.88
455.088	39221.16
455.294	39399.33
455.5	39548.84
455.705	40458.13
455.911	38731.7
456.117	37924.8
456.323	37646.27
456.529	35295.21
456.735	36976.59
456.941	35336.16
457.147	35129.32
457.352	33742.85
457.558	33548.29
457.764	34062.33
457.97	32847.88
458.176	32272.4
458.381	32239.64
458.587	30973.99
458.793	30707.76
458.999	29073.48
459.204	31121.45
459.41	30455.86
459.616	28446.8
459.821	28299.34
460.027	28510.28
460.233	27768.92
460.438	26329.2
460.644	26497.13
460.85	25626.74
461.055	25489.53
461.261	24768.65
461.466	23365.79
461.672	22349.99
461.878	24219.79
462.083	22745.25
462.289	22079.66
462.494	21971.12
462.7	21086.4
462.905	20390.09
463.111	21059.77
463.316	21522.62
463.522	20928.7
463.727	21022.91
463.932	20586.69
464.138	20676.8
464.343	20697.28
464.549	19970.26
464.754	20883.65
464.959	20560.07
465.165	20809.92
465.37	19542.23
465.575	18952.41
465.781	19953.87
465.986	19935.44
466.191	19370.2
466.397	18839.78
466.602	18536.68
466.807	18835.68
467.012	18790.63
467.218	18847.97
467.423	18421.99
467.628	18522.34
