Data from USB4F104151__222__10-30-12-512.txt Node

Date: Wed Mar 12 10:30:12 EDT 2025
User: louis
Spectrometer: USB4F10415
Trigger mode: 4
Integration Time (sec): 3.000000E-2
Scans to average: 1
Electric dark correction enabled: true
Nonlinearity correction enabled: false
Boxcar width: 0
XAxis mode: Wavelengths
Number of Pixels in Spectrum: 3648
>>>>>Begin Spectral Data<<<<<
178.204	-73.9
178.424	-73.9
178.644	-73.9
178.864	-106.67
179.084	-53.42
179.304	20.31
179.524	12.12
179.744	-82.09
179.964	-22.7
180.184	48.98
180.404	24.4
180.624	-24.75
180.844	18.26
181.064	5.97
181.283	3.93
181.503	-30.89
181.723	26.45
181.943	14.17
182.163	57.17
182.383	-20.65
182.602	126.8
182.822	46.93
183.042	-10.41
183.262	16.21
183.482	55.12
183.701	30.55
183.921	67.41
184.141	67.41
184.361	30.55
184.58	-12.46
184.8	20.31
185.02	42.84
185.239	-63.66
185.459	53.08
185.679	36.69
185.898	-4.27
186.118	-20.65
186.338	53.08
186.557	40.79
186.777	61.27
186.997	42.84
187.216	-69.8
187.436	34.64
187.655	67.41
187.875	14.17
188.095	-39.08
188.314	30.55
188.534	30.55
188.753	53.08
188.973	-26.79
189.192	3.93
189.412	1.88
189.631	96.08
189.851	20.31
190.07	32.6
190.29	71.51
190.509	48.98
190.729	-30.89
190.948	63.32
191.168	106.32
191.387	51.03
191.607	32.6
191.826	55.12
192.045	-14.51
192.265	5.97
192.484	42.84
192.704	34.64
192.923	3.93
193.142	57.17
193.362	91.99
193.581	-0.17
193.8	67.41
194.02	102.23
194.239	-18.6
194.458	63.32
194.678	18.26
194.897	55.12
195.116	42.84
195.335	12.12
195.555	18.26
195.774	-4.27
195.993	8.02
196.212	-39.08
196.432	-18.6
196.651	36.69
196.87	10.07
197.089	132.95
197.308	71.51
197.528	112.47
197.747	10.07
197.966	-30.89
198.185	96.08
198.404	-12.46
198.623	87.89
198.842	1.88
199.062	118.61
199.281	73.56
199.5	46.93
199.719	14.17
199.938	36.69
200.157	55.12
200.376	16.21
200.595	94.04
200.814	28.5
201.033	61.27
201.252	94.04
201.471	10.07
201.69	8.02
201.909	28.5
202.128	57.17
202.347	38.74
202.566	-28.84
202.785	59.22
203.004	-6.31
203.223	79.7
203.442	-18.6
203.661	18.26
203.879	69.46
204.098	24.4
204.317	-12.46
204.536	83.8
204.755	-26.79
204.974	-18.6
205.193	30.55
205.411	102.23
205.63	-41.13
205.849	51.03
206.068	22.36
206.287	-0.17
206.505	12.12
206.724	12.12
206.943	-71.85
207.162	20.31
207.381	81.75
207.599	32.6
207.818	-26.79
208.037	69.46
208.255	-12.46
208.474	44.88
208.693	20.31
208.911	59.22
209.13	46.93
209.349	8.02
209.567	34.64
209.786	42.84
210.005	46.93
210.223	32.6
210.442	-34.99
210.661	51.03
210.879	24.4
211.098	48.98
211.316	61.27
211.535	-14.51
211.753	-24.75
211.972	71.51
212.191	-4.27
212.409	30.55
212.628	20.31
212.846	3.93
213.065	32.6
213.283	59.22
213.502	-24.75
213.72	61.27
213.938	44.88
214.157	38.74
214.375	51.03
214.594	36.69
214.812	59.22
215.031	-28.84
215.249	20.31
215.467	73.56
215.686	-18.6
215.904	96.08
216.122	48.98
216.341	-45.23
216.559	26.45
216.778	63.32
216.996	102.23
217.214	44.88
217.432	-49.32
217.651	34.64
217.869	1.88
218.087	40.79
218.306	-14.51
218.524	79.7
218.742	46.93
218.96	-24.75
219.179	-24.75
219.397	5.97
219.615	112.47
219.833	77.65
220.051	-18.6
220.27	44.88
220.488	73.56
220.706	67.41
220.924	5.97
221.142	83.8
221.36	-24.75
221.578	-12.46
221.796	100.18
222.015	44.88
222.233	96.08
222.451	34.64
222.669	1.88
222.887	16.21
223.105	-34.99
223.323	16.21
223.541	-10.41
223.759	20.31
223.977	12.12
224.195	55.12
224.413	5.97
224.631	44.88
224.849	-10.41
225.067	94.04
225.285	24.4
225.503	-2.22
225.721	-14.51
225.939	38.74
226.157	-22.7
226.375	71.51
226.592	-34.99
226.81	36.69
227.028	-20.65
227.246	12.12
227.464	55.12
227.682	55.12
227.9	-28.84
228.117	16.21
228.335	20.31
228.553	-12.46
228.771	46.93
228.989	14.17
229.206	28.5
229.424	8.02
229.642	53.08
229.86	3.93
230.077	51.03
230.295	-28.84
230.513	87.89
230.731	51.03
230.948	75.6
231.166	77.65
231.384	-16.55
231.601	-8.36
231.819	85.84
232.037	34.64
232.254	-28.84
232.472	-100.52
232.689	40.79
232.907	42.84
233.125	20.31
233.342	8.02
233.56	59.22
233.777	-55.47
233.995	-18.6
234.213	55.12
234.43	71.51
234.648	65.36
234.865	65.36
235.083	65.36
235.3	36.69
235.518	18.26
235.735	38.74
235.953	79.7
236.17	53.08
236.388	38.74
236.605	34.64
236.822	110.42
237.04	-45.23
237.257	20.31
237.475	18.26
237.692	-0.17
237.909	36.69
238.127	8.02
238.344	61.27
238.562	46.93
238.779	22.36
238.996	26.45
239.214	63.32
239.431	83.8
239.648	77.65
239.865	53.08
240.083	24.4
240.3	-53.42
240.517	18.26
240.735	5.97
240.952	61.27
241.169	44.88
241.386	36.69
241.603	38.74
241.821	42.84
242.038	71.51
242.255	104.28
242.472	55.12
242.689	110.42
242.907	108.37
243.124	16.21
243.341	12.12
243.558	-26.79
243.775	34.64
243.992	28.5
244.209	46.93
244.426	51.03
244.643	40.79
244.86	53.08
245.078	10.07
245.295	-10.41
245.512	1.88
245.729	30.55
245.946	71.51
246.163	73.56
246.38	-34.99
246.597	36.69
246.814	-0.17
247.031	51.03
247.248	-37.03
247.464	-22.7
247.681	59.22
247.898	14.17
248.115	63.32
248.332	28.5
248.549	63.32
248.766	87.89
248.983	75.6
249.2	18.26
249.417	79.7
249.633	12.12
249.85	79.7
250.067	61.27
250.284	32.6
250.501	67.41
250.717	61.27
250.934	24.4
251.151	8.02
251.368	-4.27
251.585	61.27
251.801	46.93
252.018	3.93
252.235	81.75
252.451	38.74
252.668	20.31
252.885	38.74
253.102	-10.41
253.318	-6.31
253.535	-6.31
253.752	28.5
253.968	24.4
254.185	22.36
254.401	28.5
254.618	20.31
254.835	-4.27
255.051	89.94
255.268	-34.99
255.484	20.31
255.701	22.36
255.917	51.03
256.134	3.93
256.351	42.84
256.567	28.5
256.784	18.26
257	14.17
257.217	-20.65
257.433	36.69
257.65	48.98
257.866	38.74
258.082	-59.56
258.299	28.5
258.515	65.36
258.732	-2.22
258.948	30.55
259.165	34.64
259.381	38.74
259.597	8.02
259.814	59.22
260.03	102.23
260.246	14.17
260.463	-16.55
260.679	106.32
260.895	20.31
261.112	8.02
261.328	24.4
261.544	1.88
261.761	83.8
261.977	-18.6
262.193	-20.65
262.409	-18.6
262.626	3.93
262.842	16.21
263.058	14.17
263.274	87.89
263.49	118.61
263.707	59.22
263.923	-26.79
264.139	-18.6
264.355	28.5
264.571	55.12
264.787	30.55
265.004	34.64
265.22	67.41
265.436	5.97
265.652	5.97
265.868	71.51
266.084	-34.99
266.3	28.5
266.516	1.88
266.732	30.55
266.948	30.55
267.164	53.08
267.38	28.5
267.596	71.51
267.812	42.84
268.028	46.93
268.244	28.5
268.46	24.4
268.676	46.93
268.892	53.08
269.108	51.03
269.324	59.22
269.54	-2.22
269.756	69.46
269.972	-24.75
270.188	63.32
270.403	-6.31
270.619	57.17
270.835	46.93
271.051	-18.6
271.267	51.03
271.483	-4.27
271.698	77.65
271.914	83.8
272.13	34.64
272.346	65.36
272.562	5.97
272.777	61.27
272.993	96.08
273.209	46.93
273.425	38.74
273.64	30.55
273.856	53.08
274.072	-4.27
274.287	14.17
274.503	-18.6
274.719	34.64
274.934	3.93
275.15	46.93
275.366	96.08
275.581	-20.65
275.797	83.8
276.012	24.4
276.228	1.88
276.444	26.45
276.659	89.94
276.875	57.17
277.09	55.12
277.306	98.13
277.521	-30.89
277.737	16.21
277.952	48.98
278.168	38.74
278.383	34.64
278.599	32.6
278.814	79.7
279.03	3.93
279.245	96.08
279.461	16.21
279.676	3.93
279.892	22.36
280.107	73.56
280.322	-18.6
280.538	73.56
280.753	59.22
280.969	-37.03
281.184	55.12
281.399	-12.46
281.615	57.17
281.83	12.12
282.045	22.36
282.26	-24.75
282.476	55.12
282.691	114.52
282.906	61.27
283.122	36.69
283.337	30.55
283.552	55.12
283.767	-51.37
283.983	87.89
284.198	46.93
284.413	83.8
284.628	-30.89
284.843	34.64
285.058	124.76
285.274	-26.79
285.489	44.88
285.704	71.51
285.919	32.6
286.134	44.88
286.349	-10.41
286.564	28.5
286.779	55.12
286.995	-2.22
287.21	-34.99
287.425	55.12
287.64	3.93
287.855	-18.6
288.07	-45.23
288.285	30.55
288.5	96.08
288.715	38.74
288.93	40.79
289.145	42.84
289.36	81.75
289.575	57.17
289.79	65.36
290.004	32.6
290.219	12.12
290.434	20.31
290.649	-24.75
290.864	75.6
291.079	53.08
291.294	10.07
291.509	24.4
291.724	20.31
291.938	-4.27
292.153	48.98
292.368	-34.99
292.583	32.6
292.798	5.97
293.012	24.4
293.227	42.84
293.442	-47.27
293.657	-12.46
293.871	34.64
294.086	26.45
294.301	12.12
294.516	59.22
294.73	79.7
294.945	18.26
295.16	3.93
295.374	59.22
295.589	110.42
295.804	69.46
296.018	83.8
296.233	53.08
296.447	94.04
296.662	10.07
296.877	46.93
297.091	8.02
297.306	10.07
297.52	38.74
297.735	81.75
297.949	44.88
298.164	57.17
298.378	71.51
298.593	22.36
298.807	-18.6
299.022	-49.32
299.236	53.08
299.451	10.07
299.665	14.17
299.88	42.84
300.094	-51.37
300.309	38.74
300.523	46.93
300.737	-30.89
300.952	81.75
301.166	104.28
301.381	-45.23
301.595	108.37
301.809	24.4
302.024	30.55
302.238	1.88
302.452	71.51
302.667	24.4
302.881	-8.36
303.095	94.04
303.309	20.31
303.524	63.32
303.738	63.32
303.952	-18.6
304.166	30.55
304.381	42.84
304.595	94.04
304.809	5.97
305.023	96.08
305.237	83.8
305.452	61.27
305.666	12.12
305.88	102.23
306.094	46.93
306.308	81.75
306.522	36.69
306.736	96.08
306.95	12.12
307.164	155.47
307.379	-2.22
307.593	46.93
307.807	32.6
308.021	75.6
308.235	38.74
308.449	87.89
308.663	71.51
308.877	36.69
309.091	51.03
309.305	32.6
309.519	18.26
309.733	18.26
309.947	10.07
310.161	24.4
310.374	30.55
310.588	87.89
310.802	-32.94
311.016	63.32
311.23	106.32
311.444	26.45
311.658	48.98
311.872	-2.22
312.085	63.32
312.299	89.94
312.513	42.84
312.727	42.84
312.941	34.64
313.154	46.93
313.368	14.17
313.582	87.89
313.796	85.84
314.009	-43.18
314.223	79.7
314.437	-14.51
314.651	-2.22
314.864	22.36
315.078	20.31
315.292	46.93
315.505	-14.51
315.719	40.79
315.933	40.79
316.146	32.6
316.36	-39.08
316.573	71.51
316.787	48.98
317.001	-6.31
317.214	-10.41
317.428	81.75
317.641	-125.1
317.855	61.27
318.068	57.17
318.282	96.08
318.495	135
318.709	28.5
318.922	-20.65
319.136	116.56
319.349	53.08
319.563	20.31
319.776	71.51
319.99	34.64
320.203	69.46
320.417	79.7
320.63	61.27
320.843	77.65
321.057	34.64
321.27	55.12
321.483	12.12
321.697	77.65
321.91	12.12
322.124	89.94
322.337	38.74
322.55	18.26
322.763	16.21
322.977	-16.55
323.19	46.93
323.403	38.74
323.617	30.55
323.83	124.76
324.043	42.84
324.256	22.36
324.469	3.93
324.683	91.99
324.896	-30.89
325.109	149.33
325.322	12.12
325.535	89.94
325.748	106.32
325.962	30.55
326.175	51.03
326.388	53.08
326.601	14.17
326.814	77.65
327.027	22.36
327.24	69.46
327.453	20.31
327.666	10.07
327.879	61.27
328.092	20.31
328.305	75.6
328.518	22.36
328.731	63.32
328.944	-2.22
329.157	-16.55
329.37	34.64
329.583	100.18
329.796	51.03
330.009	-12.46
330.222	18.26
330.435	30.55
330.648	18.26
330.861	83.8
331.073	48.98
331.286	59.22
331.499	28.5
331.712	-67.75
331.925	1.88
332.138	-0.17
332.35	28.5
332.563	16.21
332.776	28.5
332.989	67.41
333.202	-39.08
333.414	53.08
333.627	24.4
333.84	-16.55
334.053	51.03
334.265	1.88
334.478	18.26
334.691	26.45
334.903	63.32
335.116	94.04
335.329	94.04
335.541	55.12
335.754	71.51
335.966	36.69
336.179	57.17
336.392	63.32
336.604	14.17
336.817	55.12
337.029	108.37
337.242	44.88
337.454	61.27
337.667	44.88
337.88	38.74
338.092	38.74
338.305	59.22
338.517	51.03
338.729	114.52
338.942	28.5
339.154	-20.65
339.367	1.88
339.579	55.12
339.792	-55.47
340.004	73.56
340.217	22.36
340.429	67.41
340.641	59.22
340.854	28.5
341.066	102.23
341.278	30.55
341.491	145.24
341.703	26.45
341.915	30.55
342.128	116.56
342.34	-6.31
342.552	-0.17
342.764	30.55
342.977	18.26
343.189	-2.22
343.401	5.97
343.613	24.4
343.826	24.4
344.038	59.22
344.25	48.98
344.462	-22.7
344.674	32.6
344.886	61.27
345.099	98.13
345.311	32.6
345.523	73.56
345.735	38.74
345.947	34.64
346.159	30.55
346.371	48.98
346.583	-6.31
346.795	161.62
347.007	79.7
347.219	57.17
347.431	18.26
347.643	83.8
347.855	18.26
348.067	106.32
348.279	-14.51
348.491	34.64
348.703	-57.51
348.915	67.41
349.127	22.36
349.339	53.08
349.551	1.88
349.763	108.37
349.975	-55.47
350.187	-2.22
350.399	3.93
350.61	26.45
350.822	-6.31
351.034	10.07
351.246	94.04
351.458	69.46
351.669	30.55
351.881	69.46
352.093	85.84
352.305	55.12
352.517	61.27
352.728	171.86
352.94	46.93
353.152	40.79
353.363	12.12
353.575	38.74
353.787	57.17
353.999	44.88
354.21	-2.22
354.422	30.55
354.633	-6.31
354.845	-4.27
355.057	30.55
355.268	40.79
355.48	26.45
355.692	12.12
355.903	67.41
356.115	77.65
356.326	30.55
356.538	53.08
356.749	91.99
356.961	116.56
357.172	51.03
357.384	53.08
357.595	57.17
357.807	100.18
358.018	71.51
358.23	61.27
358.441	65.36
358.653	18.26
358.864	-4.27
359.075	-8.36
359.287	22.36
359.498	169.81
359.709	38.74
359.921	44.88
360.132	-24.75
360.344	110.42
360.555	36.69
360.766	59.22
360.977	24.4
361.189	38.74
361.4	-0.17
361.611	108.37
361.823	61.27
362.034	73.56
362.245	-20.65
362.456	87.89
362.667	87.89
362.879	36.69
363.09	30.55
363.301	59.22
363.512	28.5
363.723	44.88
363.935	10.07
364.146	57.17
364.357	48.98
364.568	87.89
364.779	-8.36
364.99	67.41
365.201	57.17
365.412	128.85
365.623	85.84
365.834	65.36
366.045	91.99
366.256	83.8
366.467	65.36
366.678	104.28
366.889	135
367.1	51.03
367.311	94.04
367.522	34.64
367.733	71.51
367.944	77.65
368.155	-2.22
368.366	57.17
368.577	87.89
368.788	167.76
368.999	-6.31
369.209	16.21
369.42	87.89
369.631	71.51
369.842	71.51
370.053	30.55
370.264	112.47
370.474	141.14
370.685	24.4
370.896	51.03
371.107	73.56
371.317	91.99
371.528	96.08
371.739	94.04
371.95	94.04
372.16	87.89
372.371	40.79
372.582	104.28
372.792	51.03
373.003	44.88
373.214	-18.6
373.424	112.47
373.635	32.6
373.846	48.98
374.056	67.41
374.267	100.18
374.477	79.7
374.688	73.56
374.898	28.5
375.109	120.66
375.319	46.93
375.53	59.22
375.74	51.03
375.951	57.17
376.161	5.97
376.372	139.09
376.582	46.93
376.793	44.88
377.003	59.22
377.214	77.65
377.424	79.7
377.635	104.28
377.845	26.45
378.055	67.41
378.266	44.88
378.476	61.27
378.686	79.7
378.897	147.28
379.107	34.64
379.317	16.21
379.528	79.7
379.738	65.36
379.948	67.41
380.158	59.22
380.369	71.51
380.579	59.22
380.789	44.88
380.999	61.27
381.21	26.45
381.42	98.13
381.63	38.74
381.84	137.04
382.05	79.7
382.261	55.12
382.471	44.88
382.681	77.65
382.891	94.04
383.101	147.28
383.311	-22.7
383.521	67.41
383.731	118.61
383.941	85.84
384.151	53.08
384.361	96.08
384.571	137.04
384.781	-14.51
384.991	120.66
385.201	79.7
385.411	57.17
385.621	87.89
385.831	5.97
386.041	42.84
386.251	38.74
386.461	-22.7
386.671	40.79
386.881	67.41
387.091	106.32
387.301	91.99
387.511	38.74
387.72	81.75
387.93	100.18
388.14	63.32
388.35	77.65
388.56	124.76
388.769	104.28
388.979	67.41
389.189	77.65
389.399	24.4
389.609	67.41
389.818	75.6
390.028	124.76
390.238	5.97
390.447	28.5
390.657	91.99
390.867	48.98
391.076	14.17
391.286	55.12
391.496	75.6
391.705	91.99
391.915	77.65
392.125	155.47
392.334	79.7
392.544	75.6
392.753	104.28
392.963	-8.36
393.172	51.03
393.382	26.45
393.591	77.65
393.801	79.7
394.01	114.52
394.22	110.42
394.429	153.43
394.639	55.12
394.848	120.66
395.058	145.24
395.267	87.89
395.477	112.47
395.686	63.32
395.895	141.14
396.105	126.8
396.314	145.24
396.524	81.75
396.733	122.71
396.942	79.7
397.152	100.18
397.361	102.23
397.57	122.71
397.78	112.47
397.989	120.66
398.198	91.99
398.407	139.09
398.617	118.61
398.826	112.47
399.035	120.66
399.244	87.89
399.453	5.97
399.663	85.84
399.872	180.05
400.081	53.08
400.29	194.39
400.499	141.14
400.708	75.6
400.917	137.04
401.127	48.98
401.336	61.27
401.545	135
401.754	149.33
401.963	161.62
402.172	69.46
402.381	135
402.59	165.71
402.799	132.95
403.008	137.04
403.217	163.67
403.426	104.28
403.635	96.08
403.844	208.72
404.053	124.76
404.262	143.19
404.471	188.24
404.68	167.76
404.888	169.81
405.097	116.56
405.306	143.19
405.515	155.47
405.724	186.19
405.933	165.71
406.142	145.24
406.35	208.72
406.559	231.25
406.768	194.39
406.977	259.92
407.185	178
407.394	304.98
407.603	167.76
407.812	257.87
408.02	155.47
408.229	239.44
408.438	264.02
408.646	202.58
408.855	249.68
409.064	358.22
409.272	255.83
409.481	333.65
409.69	341.84
409.898	382.8
410.107	374.61
410.315	339.79
410.524	403.28
410.733	440.14
410.941	350.03
411.15	407.38
411.358	421.71
411.567	423.76
411.775	419.66
411.984	485.2
412.192	477.01
412.401	477.01
412.609	534.35
412.818	501.58
413.026	632.65
413.234	630.6
413.443	702.28
413.651	657.23
413.86	603.98
414.068	679.75
414.276	675.66
414.485	722.76
414.693	743.24
414.901	882.5
415.11	759.63
415.318	735.05
415.526	792.39
415.734	847.69
415.943	960.33
416.151	919.37
416.359	978.76
416.567	1013.57
416.776	1005.38
416.984	1019.72
417.192	1042.25
417.4	1058.63
417.608	1132.36
417.817	1285.95
418.025	1255.23
418.233	1322.82
418.441	1201.99
418.649	1341.25
418.857	1419.07
419.065	1470.27
419.273	1453.89
419.481	1623.87
419.689	1619.77
419.897	1638.2
420.105	1728.31
420.313	1838.91
420.521	1873.72
420.729	1916.73
420.937	1906.49
421.145	2021.17
421.353	2080.57
421.561	2178.87
421.769	2248.5
421.977	2322.23
422.185	2324.27
422.393	2512.69
422.601	2629.42
422.809	2598.7
423.017	2545.45
423.224	2735.92
423.432	2783.02
423.64	2856.75
423.848	3047.21
424.056	3016.49
424.263	3170.08
424.471	3180.32
424.679	3329.83
424.887	3548.96
425.094	3632.93
425.302	3589.92
425.51	3690.27
425.718	3868.44
425.925	3827.48
426.133	4181.78
426.341	4007.7
426.548	4382.48
426.756	4314.9
426.964	4491.02
427.171	4828.94
427.379	4845.32
427.586	4974.35
427.794	5074.7
428.001	5316.36
428.209	5551.87
428.417	5480.19
428.624	6053.62
428.832	5846.78
429.039	5932.79
429.247	5826.3
429.454	6369.01
429.662	6928.11
429.869	6547.19
430.076	6788.85
430.284	6590.19
430.491	7022.31
430.699	7411.43
430.906	7292.65
431.114	7462.63
431.321	7632.61
431.528	7778.01
431.736	8253.14
431.943	8685.26
432.15	8498.9
432.358	8408.79
432.565	9068.23
432.772	9113.29
432.979	9463.49
433.187	9643.71
433.394	9703.11
433.601	10380.98
433.808	10368.7
434.016	10329.78
434.223	10737.33
434.43	11177.64
434.637	11075.24
434.844	11701.92
435.052	11857.57
435.259	11837.09
435.466	12080.8
435.673	11787.94
435.88	12928.66
436.087	13129.36
436.294	13291.15
436.501	12994.19
436.708	13299.34
436.915	13715.08
437.122	14519.93
437.329	14698.1
437.537	14863.99
437.743	15154.8
437.95	14941.81
438.157	15767.14
438.364	16424.54
438.571	16277.08
438.778	16584.28
438.985	17688.14
439.192	17047.12
439.399	17663.56
439.606	17231.44
439.813	17985.09
440.02	19390
440.227	18730.55
440.433	18992.69
440.64	19385.9
440.847	19199.54
441.054	19826.21
441.261	21055
441.467	20727.32
441.674	21122.58
441.881	21753.35
442.088	21739.02
442.294	21765.64
442.501	22212.1
442.708	22832.63
442.914	23756.27
443.121	24403.42
443.328	23911.91
443.534	25599.44
443.741	25169.37
443.948	24384.99
444.154	26373.57
444.361	26082.76
444.568	26262.98
444.774	26189.25
444.981	26510.78
445.187	27385.27
445.394	28335.52
445.6	28380.58
445.807	30780.8
446.013	29406.61
446.22	29916.56
446.426	30905.73
446.633	31477.11
446.839	32413.03
447.046	31305.08
447.252	32793.95
447.459	32943.45
447.665	32533.86
447.871	33815.89
448.078	35216.7
448.284	33455.45
448.491	34852.16
448.697	36031.79
448.903	36650.28
449.11	36386.09
449.316	35892.53
449.522	36947.23
449.728	37805.33
449.935	37924.11
450.141	37635.35
450.347	38800.65
450.553	37590.3
450.76	37522.71
450.966	39240.96
451.172	38479.11
451.378	39464.19
451.584	38780.17
451.791	39542.01
451.997	39634.17
452.203	40041.71
452.409	40160.5
452.615	39664.89
452.821	38331.66
453.027	38001.94
453.233	40113.39
453.44	38290.7
453.646	38946.05
453.852	38755.59
454.058	39632.12
454.264	38032.66
454.47	39079.17
454.676	38372.62
454.882	39290.11
455.088	35882.29
455.294	36445.48
455.5	36748.58
455.705	37408.03
455.911	35681.59
456.117	34831.68
456.323	34411.85
456.529	32656.74
456.735	34002.25
456.941	33142.11
457.147	32482.66
457.352	31860.08
457.558	31229.3
457.764	31188.35
457.97	30877.05
458.176	29857.17
458.381	29781.39
458.587	28759.45
458.793	28800.41
458.999	27553.2
459.204	28911
459.41	28263.85
459.616	26400.19
459.821	26531.26
460.027	26236.36
460.233	26115.53
460.438	24329.7
460.644	24731.1
460.85	23795.18
461.055	23365.1
461.261	23213.56
461.466	21433.87
461.672	21112.34
461.878	22365.7
462.083	20919.83
462.289	20731.42
462.494	20313.63
462.7	19514.92
462.905	18996.79
463.111	19627.56
463.316	19856.93
463.522	19273.26
463.727	19213.87
463.932	19111.47
464.138	19166.77
464.343	19328.56
464.549	18560.57
464.754	19127.86
464.959	18972.21
465.165	18710.07
465.37	18081.35
465.575	17557.07
465.781	18419.26
465.986	18595.39
466.191	17882.69
466.397	17303.12
466.602	16926.29
466.807	17083.98
467.012	17088.08
467.218	17137.23
467.423	16866.9
467.628	16932.43
