Data from USB4F104151__55__10-23-43-814.txt Node

Date: Wed Mar 12 10:23:43 EDT 2025
User: louis
Spectrometer: USB4F10415
Trigger mode: 4
Integration Time (sec): 3.000000E-2
Scans to average: 1
Electric dark correction enabled: true
Nonlinearity correction enabled: false
Boxcar width: 0
XAxis mode: Wavelengths
Number of Pixels in Spectrum: 3648
>>>>>Begin Spectral Data<<<<<
178.204	-52.56
178.424	-52.56
178.644	-52.56
178.864	-134.48
179.084	-136.53
179.304	45.74
179.524	-95.57
179.744	33.45
179.964	-54.61
180.184	-52.56
180.404	-23.89
180.624	45.74
180.844	35.5
181.064	-58.71
181.283	58.03
181.503	-19.8
181.723	86.7
181.943	-27.99
182.163	82.6
182.383	53.93
182.602	66.22
182.822	62.12
183.042	6.83
183.262	-21.84
183.482	58.03
183.701	-23.89
183.921	37.55
184.141	21.16
184.361	12.97
184.58	8.87
184.8	39.59
185.02	-36.18
185.239	37.55
185.459	-7.51
185.679	51.88
185.898	-15.7
186.118	31.4
186.338	25.26
186.557	17.07
186.777	17.07
186.997	27.31
187.216	-11.61
187.436	39.59
187.655	76.46
187.875	23.21
188.095	10.92
188.314	23.21
188.534	39.59
188.753	-54.61
188.973	29.35
189.192	15.02
189.412	84.65
189.631	25.26
189.851	74.41
190.07	23.21
190.29	21.16
190.509	33.45
190.729	76.46
190.948	25.26
191.168	217.77
191.387	68.27
191.607	45.74
191.826	105.13
192.045	-15.7
192.265	2.73
192.484	-3.41
192.704	66.22
192.923	-64.85
193.142	94.89
193.362	62.12
193.581	8.87
193.8	74.41
194.02	78.51
194.239	49.83
194.458	2.73
194.678	12.97
194.897	-30.04
195.116	103.08
195.335	53.93
195.555	90.79
195.774	58.03
195.993	35.5
196.212	23.21
196.432	-11.61
196.651	31.4
196.87	88.75
197.089	17.07
197.308	96.94
197.528	0.68
197.747	-17.75
197.966	43.69
198.185	-3.41
198.404	68.27
198.623	33.45
198.842	60.07
199.062	-3.41
199.281	62.12
199.5	25.26
199.719	35.5
199.938	17.07
200.157	68.27
200.376	76.46
200.595	92.84
200.814	6.83
201.033	6.83
201.252	12.97
201.471	15.02
201.69	21.16
201.909	-13.65
202.128	2.73
202.347	58.03
202.566	29.35
202.785	12.97
203.004	47.79
203.223	82.6
203.442	21.16
203.661	33.45
203.879	-3.41
204.098	2.73
204.317	37.55
204.536	29.35
204.755	68.27
204.974	-25.94
205.193	17.07
205.411	101.03
205.63	-5.46
205.849	4.78
206.068	2.73
206.287	39.59
206.505	103.08
206.724	49.83
206.943	-40.28
207.162	19.11
207.381	-9.56
207.599	27.31
207.818	60.07
208.037	43.69
208.255	31.4
208.474	15.02
208.693	92.84
208.911	84.65
209.13	68.27
209.349	86.7
209.567	53.93
209.786	111.27
210.005	-3.41
210.223	-32.08
210.442	8.87
210.661	78.51
210.879	45.74
211.098	-44.37
211.316	35.5
211.535	29.35
211.753	27.31
211.972	21.16
212.191	-30.04
212.409	15.02
212.628	41.64
212.846	-5.46
213.065	29.35
213.283	86.7
213.502	51.88
213.72	74.41
213.938	33.45
214.157	90.79
214.375	62.12
214.594	64.17
214.812	45.74
215.031	80.55
215.249	78.51
215.467	-11.61
215.686	43.69
215.904	60.07
216.122	17.07
216.341	15.02
216.559	51.88
216.778	101.03
216.996	21.16
217.214	-13.65
217.432	0.68
217.651	62.12
217.869	-25.94
218.087	-58.71
218.306	-38.23
218.524	25.26
218.742	-36.18
218.96	-19.8
219.179	86.7
219.397	43.69
219.615	58.03
219.833	121.51
220.051	2.73
220.27	84.65
220.488	4.78
220.706	103.08
220.924	8.87
221.142	-30.04
221.36	4.78
221.578	10.92
221.796	8.87
222.015	31.4
222.233	78.51
222.451	17.07
222.669	-13.65
222.887	29.35
223.105	15.02
223.323	15.02
223.541	-13.65
223.759	35.5
223.977	37.55
224.195	84.65
224.413	41.64
224.631	8.87
224.849	-9.56
225.067	129.7
225.285	-21.84
225.503	35.5
225.721	29.35
225.939	17.07
226.157	84.65
226.375	62.12
226.592	17.07
226.81	-38.23
227.028	12.97
227.246	41.64
227.464	-1.37
227.682	33.45
227.9	53.93
228.117	10.92
228.335	45.74
228.553	41.64
228.771	41.64
228.989	31.4
229.206	12.97
229.424	60.07
229.642	45.74
229.86	25.26
230.077	0.68
230.295	-3.41
230.513	17.07
230.731	35.5
230.948	88.75
231.166	101.03
231.384	-13.65
231.601	25.26
231.819	31.4
232.037	35.5
232.254	-46.42
232.472	27.31
232.689	-15.7
232.907	66.22
233.125	43.69
233.342	35.5
233.56	-21.84
233.777	25.26
233.995	25.26
234.213	2.73
234.43	19.11
234.648	-9.56
234.865	19.11
235.083	88.75
235.3	92.84
235.518	84.65
235.735	17.07
235.953	39.59
236.17	21.16
236.388	80.55
236.605	51.88
236.822	58.03
237.04	8.87
237.257	62.12
237.475	-3.41
237.692	92.84
237.909	-13.65
238.127	35.5
238.344	53.93
238.562	43.69
238.779	-36.18
238.996	-30.04
239.214	-1.37
239.431	37.55
239.648	43.69
239.865	12.97
240.083	8.87
240.3	33.45
240.517	19.11
240.735	58.03
240.952	47.79
241.169	41.64
241.386	-52.56
241.603	-27.99
241.821	25.26
242.038	33.45
242.255	43.69
242.472	23.21
242.689	78.51
242.907	45.74
243.124	55.98
243.341	111.27
243.558	-62.8
243.775	12.97
243.992	-19.8
244.209	-15.7
244.426	94.89
244.643	115.37
244.86	-23.89
245.078	21.16
245.295	25.26
245.512	-13.65
245.729	31.4
245.946	66.22
246.163	103.08
246.38	88.75
246.597	29.35
246.814	94.89
247.031	37.55
247.248	10.92
247.464	53.93
247.681	70.31
247.898	-27.99
248.115	12.97
248.332	-36.18
248.549	123.56
248.766	94.89
248.983	6.83
249.2	60.07
249.417	33.45
249.633	12.97
249.85	12.97
250.067	-23.89
250.284	15.02
250.501	62.12
250.717	37.55
250.934	25.26
251.151	49.83
251.368	27.31
251.585	23.21
251.801	86.7
252.018	103.08
252.235	51.88
252.451	-30.04
252.668	0.68
252.885	41.64
253.102	41.64
253.318	92.84
253.535	23.21
253.752	10.92
253.968	103.08
254.185	19.11
254.401	-71
254.618	33.45
254.835	15.02
255.051	-5.46
255.268	-38.23
255.484	62.12
255.701	-19.8
255.917	43.69
256.134	-15.7
256.351	-3.41
256.567	4.78
256.784	21.16
257	33.45
257.217	80.55
257.433	19.11
257.65	33.45
257.866	-32.08
258.082	-27.99
258.299	8.87
258.515	53.93
258.732	8.87
258.948	-5.46
259.165	23.21
259.381	-52.56
259.597	-23.89
259.814	19.11
260.03	37.55
260.246	70.31
260.463	98.99
260.679	53.93
260.895	6.83
261.112	58.03
261.328	29.35
261.544	62.12
261.761	107.18
261.977	12.97
262.193	-25.94
262.409	55.98
262.626	94.89
262.842	62.12
263.058	-25.94
263.274	15.02
263.49	27.31
263.707	8.87
263.923	-66.9
264.139	-3.41
264.355	45.74
264.571	94.89
264.787	25.26
265.004	17.07
265.22	51.88
265.436	82.6
265.652	17.07
265.868	68.27
266.084	66.22
266.3	-5.46
266.516	10.92
266.732	58.03
266.948	-71
267.164	-23.89
267.38	146.09
267.596	8.87
267.812	117.42
268.028	107.18
268.244	35.5
268.46	107.18
268.676	17.07
268.892	109.23
269.108	-30.04
269.324	37.55
269.54	60.07
269.756	98.99
269.972	-1.37
270.188	31.4
270.403	-34.13
270.619	60.07
270.835	-44.37
271.051	51.88
271.267	-1.37
271.483	49.83
271.698	62.12
271.914	51.88
272.13	0.68
272.346	74.41
272.562	41.64
272.777	70.31
272.993	37.55
273.209	37.55
273.425	-7.51
273.64	10.92
273.856	53.93
274.072	80.55
274.287	17.07
274.503	27.31
274.719	2.73
274.934	49.83
275.15	6.83
275.366	68.27
275.581	-5.46
275.797	51.88
276.012	107.18
276.228	-3.41
276.444	76.46
276.659	84.65
276.875	-5.46
277.09	29.35
277.306	51.88
277.521	74.41
277.737	66.22
277.952	43.69
278.168	-27.99
278.383	45.74
278.599	35.5
278.814	76.46
279.03	60.07
279.245	80.55
279.461	25.26
279.676	37.55
279.892	-7.51
280.107	-27.99
280.322	49.83
280.538	47.79
280.753	53.93
280.969	74.41
281.184	-3.41
281.399	6.83
281.615	66.22
281.83	-73.04
282.045	-11.61
282.26	49.83
282.476	6.83
282.691	80.55
282.906	29.35
283.122	51.88
283.337	113.32
283.552	37.55
283.767	45.74
283.983	68.27
284.198	2.73
284.413	78.51
284.628	-36.18
284.843	0.68
285.058	4.78
285.274	64.17
285.489	4.78
285.704	43.69
285.919	33.45
286.134	-3.41
286.349	29.35
286.564	33.45
286.779	53.93
286.995	15.02
287.21	15.02
287.425	-3.41
287.64	4.78
287.855	37.55
288.07	29.35
288.285	29.35
288.5	80.55
288.715	12.97
288.93	74.41
289.145	15.02
289.36	64.17
289.575	-52.56
289.79	60.07
290.004	15.02
290.219	74.41
290.434	12.97
290.649	0.68
290.864	45.74
291.079	-27.99
291.294	96.94
291.509	74.41
291.724	12.97
291.938	53.93
292.153	58.03
292.368	127.66
292.583	103.08
292.798	115.37
293.012	101.03
293.227	74.41
293.442	29.35
293.657	12.97
293.871	101.03
294.086	76.46
294.301	8.87
294.516	29.35
294.73	53.93
294.945	-66.9
295.16	98.99
295.374	90.79
295.589	66.22
295.804	27.31
296.018	47.79
296.233	39.59
296.447	35.5
296.662	23.21
296.877	19.11
297.091	92.84
297.306	8.87
297.52	70.31
297.735	17.07
297.949	-19.8
298.164	86.7
298.378	62.12
298.593	6.83
298.807	29.35
299.022	25.26
299.236	37.55
299.451	72.36
299.665	23.21
299.88	8.87
300.094	4.78
300.309	15.02
300.523	62.12
300.737	47.79
300.952	62.12
301.166	35.5
301.381	21.16
301.595	78.51
301.809	29.35
302.024	43.69
302.238	70.31
302.452	62.12
302.667	-3.41
302.881	127.66
303.095	-3.41
303.309	88.75
303.524	19.11
303.738	12.97
303.952	53.93
304.166	53.93
304.381	45.74
304.595	90.79
304.809	-3.41
305.023	70.31
305.237	49.83
305.452	25.26
305.666	21.16
305.88	29.35
306.094	94.89
306.308	148.14
306.522	74.41
306.736	70.31
306.95	76.46
307.164	33.45
307.379	-27.99
307.593	49.83
307.807	74.41
308.021	58.03
308.235	10.92
308.449	43.69
308.663	-30.04
308.877	49.83
309.091	121.51
309.305	86.7
309.519	-11.61
309.733	53.93
309.947	58.03
310.161	37.55
310.374	25.26
310.588	60.07
310.802	-58.71
311.016	74.41
311.23	-40.28
311.444	-56.66
311.658	-7.51
311.872	55.98
312.085	-66.9
312.299	31.4
312.513	35.5
312.727	64.17
312.941	-27.99
313.154	6.83
313.368	78.51
313.582	-52.56
313.796	74.41
314.009	6.83
314.223	-17.75
314.437	68.27
314.651	86.7
314.864	-3.41
315.078	-25.94
315.292	33.45
315.505	-13.65
315.719	82.6
315.933	35.5
316.146	23.21
316.36	33.45
316.573	4.78
316.787	94.89
317.001	45.74
317.214	2.73
317.428	-3.41
317.641	31.4
317.855	41.64
318.068	62.12
318.282	27.31
318.495	68.27
318.709	-11.61
318.922	35.5
319.136	76.46
319.349	43.69
319.563	8.87
319.776	101.03
319.99	-11.61
320.203	105.13
320.417	86.7
320.63	70.31
320.843	86.7
321.057	29.35
321.27	8.87
321.483	74.41
321.697	84.65
321.91	-40.28
322.124	103.08
322.337	139.94
322.55	58.03
322.763	43.69
322.977	-5.46
323.19	25.26
323.403	96.94
323.617	49.83
323.83	66.22
324.043	76.46
324.256	0.68
324.469	4.78
324.683	66.22
324.896	43.69
325.109	17.07
325.322	-7.51
325.535	131.75
325.748	78.51
325.962	6.83
326.175	66.22
326.388	92.84
326.601	74.41
326.814	86.7
327.027	66.22
327.24	-11.61
327.453	2.73
327.666	58.03
327.879	35.5
328.092	8.87
328.305	78.51
328.518	37.55
328.731	84.65
328.944	-30.04
329.157	33.45
329.37	15.02
329.583	121.51
329.796	113.32
330.009	31.4
330.222	6.83
330.435	45.74
330.648	-36.18
330.861	68.27
331.073	10.92
331.286	35.5
331.499	53.93
331.712	-5.46
331.925	58.03
332.138	68.27
332.35	17.07
332.563	66.22
332.776	70.31
332.989	21.16
333.202	51.88
333.414	96.94
333.627	35.5
333.84	31.4
334.053	35.5
334.265	-38.23
334.478	-5.46
334.691	74.41
334.903	-27.99
335.116	-7.51
335.329	98.99
335.541	8.87
335.754	51.88
335.966	37.55
336.179	45.74
336.392	76.46
336.604	92.84
336.817	107.18
337.029	21.16
337.242	33.45
337.454	70.31
337.667	21.16
337.88	70.31
338.092	60.07
338.305	96.94
338.517	6.83
338.729	68.27
338.942	41.64
339.154	25.26
339.367	21.16
339.579	123.56
339.792	-3.41
340.004	94.89
340.217	70.31
340.429	68.27
340.641	12.97
340.854	29.35
341.066	10.92
341.278	66.22
341.491	92.84
341.703	41.64
341.915	12.97
342.128	25.26
342.34	72.36
342.552	-3.41
342.764	53.93
342.977	51.88
343.189	62.12
343.401	33.45
343.613	-11.61
343.826	45.74
344.038	0.68
344.25	0.68
344.462	43.69
344.674	70.31
344.886	10.92
345.099	86.7
345.311	62.12
345.523	25.26
345.735	37.55
345.947	68.27
346.159	-7.51
346.371	47.79
346.583	43.69
346.795	107.18
347.007	29.35
347.219	62.12
347.431	-11.61
347.643	72.36
347.855	33.45
348.067	90.79
348.279	0.68
348.491	66.22
348.703	107.18
348.915	45.74
349.127	2.73
349.339	-3.41
349.551	21.16
349.763	10.92
349.975	41.64
350.187	33.45
350.399	84.65
350.61	64.17
350.822	-40.28
351.034	41.64
351.246	19.11
351.458	125.61
351.669	82.6
351.881	37.55
352.093	92.84
352.305	78.51
352.517	33.45
352.728	-21.84
352.94	72.36
353.152	76.46
353.363	-71
353.575	51.88
353.787	60.07
353.999	109.23
354.21	12.97
354.422	0.68
354.633	39.59
354.845	4.78
355.057	98.99
355.268	76.46
355.48	129.7
355.692	-3.41
355.903	55.98
356.115	-19.8
356.326	4.78
356.538	98.99
356.749	-5.46
356.961	80.55
357.172	-48.47
357.384	43.69
357.595	49.83
357.807	78.51
358.018	21.16
358.23	-5.46
358.441	68.27
358.653	43.69
358.864	10.92
359.075	-13.65
359.287	19.11
359.498	33.45
359.709	41.64
359.921	58.03
360.132	62.12
360.344	49.83
360.555	15.02
360.766	17.07
360.977	74.41
361.189	84.65
361.4	23.21
361.611	94.89
361.823	70.31
362.034	19.11
362.245	2.73
362.456	41.64
362.667	62.12
362.879	78.51
363.09	29.35
363.301	-7.51
363.512	101.03
363.723	62.12
363.935	98.99
364.146	62.12
364.357	66.22
364.568	23.21
364.779	4.78
364.99	43.69
365.201	98.99
365.412	49.83
365.623	84.65
365.834	135.85
366.045	43.69
366.256	35.5
366.467	23.21
366.678	0.68
366.889	96.94
367.1	10.92
367.311	51.88
367.522	19.11
367.733	72.36
367.944	51.88
368.155	62.12
368.366	80.55
368.577	8.87
368.788	125.61
368.999	60.07
369.209	43.69
369.42	74.41
369.631	98.99
369.842	98.99
370.053	19.11
370.264	-23.89
370.474	-19.8
370.685	29.35
370.896	35.5
371.107	74.41
371.317	64.17
371.528	33.45
371.739	84.65
371.95	123.56
372.16	33.45
372.371	6.83
372.582	88.75
372.792	101.03
373.003	-9.56
373.214	105.13
373.424	119.46
373.635	70.31
373.846	31.4
374.056	137.9
374.267	58.03
374.477	43.69
374.688	17.07
374.898	88.75
375.109	78.51
375.319	64.17
375.53	78.51
375.74	68.27
375.951	98.99
376.161	-5.46
376.372	90.79
376.582	70.31
376.793	74.41
377.003	45.74
377.214	55.98
377.424	45.74
377.635	12.97
377.845	51.88
378.055	86.7
378.266	43.69
378.476	15.02
378.686	53.93
378.897	58.03
379.107	6.83
379.317	53.93
379.528	62.12
379.738	2.73
379.948	27.31
380.158	78.51
380.369	55.98
380.579	127.66
380.789	31.4
380.999	123.56
381.21	121.51
381.42	115.37
381.63	70.31
381.84	96.94
382.05	41.64
382.261	82.6
382.471	103.08
382.681	41.64
382.891	53.93
383.101	62.12
383.311	8.87
383.521	62.12
383.731	64.17
383.941	127.66
384.151	60.07
384.361	105.13
384.571	80.55
384.781	98.99
384.991	25.26
385.201	53.93
385.411	135.85
385.621	78.51
385.831	39.59
386.041	55.98
386.251	37.55
386.461	111.27
386.671	37.55
386.881	98.99
387.091	84.65
387.301	119.46
387.511	103.08
387.72	74.41
387.93	78.51
388.14	15.02
388.35	98.99
388.56	51.88
388.769	70.31
388.979	58.03
389.189	31.4
389.399	53.93
389.609	137.9
389.818	115.37
390.028	82.6
390.238	111.27
390.447	29.35
390.657	-3.41
390.867	33.45
391.076	86.7
391.286	43.69
391.496	98.99
391.705	98.99
391.915	103.08
392.125	58.03
392.334	58.03
392.544	139.94
392.753	70.31
392.963	101.03
393.172	74.41
393.382	66.22
393.591	125.61
393.801	103.08
394.01	144.04
394.22	66.22
394.429	35.5
394.639	90.79
394.848	64.17
395.058	82.6
395.267	58.03
395.477	94.89
395.686	135.85
395.895	123.56
396.105	158.38
396.314	131.75
396.524	80.55
396.733	166.57
396.942	199.34
397.152	144.04
397.361	88.75
397.57	47.79
397.78	47.79
397.989	109.23
398.198	139.94
398.407	103.08
398.617	135.85
398.826	88.75
399.035	88.75
399.244	113.32
399.453	41.64
399.663	129.7
399.872	135.85
400.081	148.14
400.29	133.8
400.499	197.29
400.708	193.19
400.917	156.33
401.127	144.04
401.336	131.75
401.545	176.81
401.754	139.94
401.963	156.33
402.172	103.08
402.381	166.57
402.59	135.85
402.799	139.94
403.008	129.7
403.217	115.37
403.426	185
403.635	185
403.844	223.91
404.053	74.41
404.262	144.04
404.471	217.77
404.68	139.94
404.888	185
405.097	185
405.306	207.53
405.515	193.19
405.724	211.62
405.933	250.53
406.142	242.34
406.35	174.76
406.559	213.67
406.768	191.14
406.977	301.73
407.185	264.87
407.394	279.21
407.603	240.3
407.812	330.41
408.02	299.69
408.229	248.49
408.438	209.58
408.646	207.53
408.855	297.64
409.064	318.12
409.272	359.08
409.481	352.93
409.69	361.13
409.898	314.02
410.107	320.17
410.315	420.52
410.524	344.74
410.733	387.75
410.941	463.52
411.15	467.62
411.358	438.95
411.567	463.52
411.775	461.48
411.984	504.48
412.192	545.44
412.401	510.63
412.609	590.5
412.818	541.35
413.026	586.4
413.234	660.13
413.443	627.36
413.651	559.78
413.86	651.94
414.068	750.24
414.276	701.09
414.485	744.1
414.693	807.58
414.901	787.1
415.11	830.11
415.318	783.01
415.526	873.12
415.734	903.84
415.943	895.64
416.151	1008.28
416.359	936.6
416.567	1045.15
416.776	1114.78
416.984	1131.16
417.192	1133.21
417.4	1233.56
417.608	1077.91
417.817	1217.18
418.025	1307.29
418.233	1397.4
418.441	1397.4
418.649	1413.78
418.857	1507.99
419.065	1626.77
419.273	1520.28
419.481	1512.08
419.689	1749.65
419.897	1792.66
420.105	1827.47
420.313	1866.38
420.521	1933.97
420.729	1999.5
420.937	1976.97
421.145	2171.53
421.353	2265.74
421.561	2314.89
421.769	2407.05
421.977	2454.15
422.185	2382.47
422.393	2491.01
422.601	2732.67
422.809	2744.96
423.017	2681.47
423.224	2814.59
423.432	2910.85
423.64	2921.09
423.848	3230.33
424.056	3119.74
424.263	3381.88
424.471	3445.37
424.679	3492.47
424.887	3684.98
425.094	3764.85
425.302	3846.77
425.51	3994.22
425.718	3986.03
425.925	4141.68
426.133	4182.63
426.341	4409.96
426.548	4637.28
426.756	4692.58
426.964	4911.71
427.171	5108.32
427.379	5206.62
427.586	5180
427.794	5438.04
428.001	5575.25
428.209	6023.76
428.417	5747.28
428.624	6199.88
428.832	6206.03
429.039	6201.93
429.247	6328.91
429.454	6931.01
429.662	7064.13
429.869	6773.32
430.076	7365.18
430.284	6959.68
430.491	7268.92
430.699	7934.51
430.906	7787.06
431.114	7918.13
431.321	8340.01
431.528	8366.63
431.736	8827.43
431.943	9163.29
432.15	8962.59
432.358	9151.01
432.565	9554.46
432.772	9431.58
432.979	9957.91
433.187	10160.66
433.394	10273.29
433.601	11035.14
433.808	10908.16
434.016	10797.57
434.223	11446.78
434.43	12018.16
434.637	11653.62
434.844	12282.35
435.052	12798.44
435.259	12517.87
435.466	12806.63
435.673	12526.06
435.88	13560.28
436.087	14086.61
436.294	14059.99
436.501	13621.72
436.708	14303.7
436.915	14344.66
437.122	15374.78
437.329	15204.8
437.537	15616.44
437.743	15825.34
437.95	15727.03
438.157	16576.94
438.364	17273.25
438.571	17035.69
438.778	17123.75
438.985	18661.77
439.192	18002.33
439.399	18776.46
439.606	17990.04
439.813	18997.64
440.02	20291.96
440.227	20402.55
440.433	19904.89
440.64	20666.74
440.847	20320.63
441.054	20937.07
441.261	22227.29
441.467	22061.4
441.674	22337.88
441.881	23130.44
442.088	23245.13
442.294	22956.36
442.501	23658.82
442.708	24224.06
442.914	25108.78
443.121	26108.19
443.328	25241.9
443.534	27085.07
443.741	26431.77
443.948	25868.58
444.154	27781.38
444.361	27490.57
444.568	27826.43
444.774	27640.07
444.981	28260.6
445.187	28860.66
445.394	30257.37
445.6	29464.81
445.807	32471.23
446.013	30937.3
446.22	31621.32
446.426	33200.3
446.633	33505.45
446.839	34154.66
447.046	33149.1
447.252	34494.62
447.459	34576.54
447.665	34891.93
447.871	36163.71
448.078	37347.44
448.284	35764.36
448.491	36685.95
448.697	37914.73
448.903	38731.87
449.11	38615.13
449.316	38260.83
449.522	38893.66
449.728	40087.62
449.935	40239.17
450.141	39960.65
450.347	41105.46
450.553	39721.04
450.76	40243.27
450.966	41324.6
451.172	40689.73
451.378	41697.33
451.584	41187.38
451.791	42051.62
451.997	41895.98
452.203	42354.72
452.409	42485.79
452.615	42104.87
452.821	40826.94
453.027	40114.25
453.233	42248.23
453.44	40339.52
453.646	41123.9
453.852	40976.44
454.058	42184.74
454.264	40347.72
454.47	41359.41
454.676	40204.36
454.882	41789.49
455.088	37544.05
455.294	38445.15
455.5	38676.57
455.705	39381.07
455.911	38033.51
456.117	37296.24
456.323	36407.42
456.529	34773.14
456.735	36313.22
456.941	35405.97
457.147	34642.07
457.352	33845.41
457.558	33284.27
457.764	33042.61
457.97	32440.51
458.176	31688.9
458.381	31748.29
458.587	30222.56
458.793	30120.16
458.999	28780.79
459.204	30888.15
459.41	30081.25
459.616	27986.18
459.821	28094.72
460.027	28000.51
460.233	27416.84
460.438	25893.15
460.644	26394.9
460.85	25143.59
461.055	24729.91
461.261	24928.56
461.466	22782.29
461.672	22278.49
461.878	23595.33
462.083	22294.87
462.289	21928.28
462.494	21490.02
462.7	20664.69
462.905	19986.81
463.111	20746.61
463.316	20797.81
463.522	20679.02
463.727	20136.31
463.932	20402.55
464.138	20238.71
464.343	20218.23
464.549	19571.07
464.754	20556.14
464.959	20420.98
465.165	19724.67
465.37	19200.39
465.575	18557.33
465.781	19362.18
465.986	19693.95
466.191	18708.88
466.397	18475.41
466.602	17641.89
466.807	18637.2
467.012	18358.67
467.218	18219.41
467.423	18364.82
