Data from USB4F104151__169__10-27-25-279.txt Node

Date: Wed Mar 12 10:27:25 EDT 2025
User: louis
Spectrometer: USB4F10415
Trigger mode: 4
Integration Time (sec): 3.000000E-2
Scans to average: 1
Electric dark correction enabled: true
Nonlinearity correction enabled: false
Boxcar width: 0
XAxis mode: Wavelengths
Number of Pixels in Spectrum: 3648
>>>>>Begin Spectral Data<<<<<
178.204	-109.05
178.424	-109.05
178.644	-109.05
178.864	-88.57
179.084	-139.77
179.304	-0.51
179.524	15.87
179.744	-2.56
179.964	65.02
180.184	-31.23
180.404	13.82
180.624	42.5
180.844	22.02
181.064	-51.71
181.283	15.87
181.503	-14.85
181.723	-74.24
181.943	-64
182.163	11.78
182.383	67.07
182.602	-2.56
182.822	56.83
183.042	22.02
183.262	67.07
183.482	69.12
183.701	34.3
183.921	58.88
184.141	46.59
184.361	60.93
184.58	-27.14
184.8	-2.56
185.02	17.92
185.239	79.36
185.459	7.68
185.679	-2.56
185.898	22.02
186.118	11.78
186.338	36.35
186.557	83.45
186.777	50.69
186.997	105.98
187.216	-18.94
187.436	83.45
187.655	30.21
187.875	103.93
188.095	-25.09
188.314	83.45
188.534	56.83
188.753	50.69
188.973	17.92
189.192	24.06
189.412	54.78
189.631	24.06
189.851	89.6
190.07	71.17
190.29	-49.66
190.509	60.93
190.729	-16.9
190.948	62.98
191.168	116.22
191.387	73.21
191.607	-4.61
191.826	-25.09
192.045	99.84
192.265	26.11
192.484	42.5
192.704	24.06
192.923	-31.23
193.142	54.78
193.362	54.78
193.581	28.16
193.8	32.26
194.02	81.41
194.239	32.26
194.458	-41.47
194.678	-6.66
194.897	22.02
195.116	24.06
195.335	-18.94
195.555	26.11
195.774	44.54
195.993	65.02
196.212	40.45
196.432	-10.75
196.651	-80.38
196.87	34.3
197.089	65.02
197.308	67.07
197.528	56.83
197.747	36.35
197.966	-23.04
198.185	56.83
198.404	5.63
198.623	26.11
198.842	34.3
199.062	71.17
199.281	110.08
199.5	69.12
199.719	34.3
199.938	-4.61
200.157	108.03
200.376	-14.85
200.595	81.41
200.814	-6.66
201.033	97.79
201.252	71.17
201.471	42.5
201.69	34.3
201.909	38.4
202.128	79.36
202.347	-8.7
202.566	30.21
202.785	19.97
203.004	48.64
203.223	75.26
203.442	17.92
203.661	48.64
203.879	28.16
204.098	54.78
204.317	3.58
204.536	71.17
204.755	7.68
204.974	5.63
205.193	13.82
205.411	11.78
205.63	69.12
205.849	58.88
206.068	67.07
206.287	87.55
206.505	108.03
206.724	-16.9
206.943	-20.99
207.162	52.74
207.381	-16.9
207.599	-31.23
207.818	112.13
208.037	-18.94
208.255	-6.66
208.474	71.17
208.693	50.69
208.911	13.82
209.13	42.5
209.349	81.41
209.567	42.5
209.786	85.5
210.005	13.82
210.223	62.98
210.442	73.21
210.661	67.07
210.879	-23.04
211.098	-2.56
211.316	3.58
211.535	22.02
211.753	17.92
211.972	24.06
212.191	116.22
212.409	-6.66
212.628	91.65
212.846	-14.85
213.065	79.36
213.283	71.17
213.502	22.02
213.72	19.97
213.938	36.35
214.157	67.07
214.375	-16.9
214.594	62.98
214.812	-6.66
215.031	89.6
215.249	42.5
215.467	15.87
215.686	54.78
215.904	65.02
216.122	19.97
216.341	48.64
216.559	108.03
216.778	40.45
216.996	28.16
217.214	42.5
217.432	75.26
217.651	46.59
217.869	22.02
218.087	-2.56
218.306	69.12
218.524	9.73
218.742	36.35
218.96	26.11
219.179	-18.94
219.397	28.16
219.615	44.54
219.833	26.11
220.051	52.74
220.27	79.36
220.488	17.92
220.706	1.54
220.924	50.69
221.142	42.5
221.36	30.21
221.578	1.54
221.796	-14.85
222.015	22.02
222.233	44.54
222.451	62.98
222.669	17.92
222.887	38.4
223.105	56.83
223.323	-45.57
223.541	-2.56
223.759	75.26
223.977	34.3
224.195	67.07
224.413	-2.56
224.631	52.74
224.849	40.45
225.067	91.65
225.285	40.45
225.503	89.6
225.721	54.78
225.939	48.64
226.157	40.45
226.375	112.13
226.592	40.45
226.81	56.83
227.028	-14.85
227.246	97.79
227.464	9.73
227.682	67.07
227.9	58.88
228.117	40.45
228.335	42.5
228.553	26.11
228.771	-31.23
228.989	11.78
229.206	30.21
229.424	38.4
229.642	-12.8
229.86	56.83
230.077	87.55
230.295	24.06
230.513	46.59
230.731	79.36
230.948	75.26
231.166	75.26
231.384	-8.7
231.601	73.21
231.819	42.5
232.037	34.3
232.254	15.87
232.472	-25.09
232.689	-18.94
232.907	71.17
233.125	26.11
233.342	5.63
233.56	-2.56
233.777	69.12
233.995	9.73
234.213	112.13
234.43	42.5
234.648	52.74
234.865	50.69
235.083	-8.7
235.3	30.21
235.518	50.69
235.735	142.85
235.953	-0.51
236.17	67.07
236.388	101.89
236.605	32.26
236.822	34.3
237.04	38.4
237.257	48.64
237.475	-33.28
237.692	26.11
237.909	40.45
238.127	-53.76
238.344	26.11
238.562	-29.18
238.779	58.88
238.996	-2.56
239.214	-6.66
239.431	79.36
239.648	75.26
239.865	65.02
240.083	7.68
240.3	44.54
240.517	-10.75
240.735	-6.66
240.952	75.26
241.169	56.83
241.386	15.87
241.603	71.17
241.821	-20.99
242.038	77.31
242.255	69.12
242.472	-6.66
242.689	136.7
242.907	19.97
243.124	-8.7
243.341	24.06
243.558	50.69
243.775	36.35
243.992	46.59
244.209	46.59
244.426	75.26
244.643	17.92
244.86	32.26
245.078	58.88
245.295	38.4
245.512	65.02
245.729	79.36
245.946	19.97
246.163	134.65
246.38	83.45
246.597	-14.85
246.814	54.78
247.031	75.26
247.248	75.26
247.464	128.51
247.681	17.92
247.898	62.98
248.115	-16.9
248.332	-8.7
248.549	71.17
248.766	169.47
248.983	60.93
249.2	-33.28
249.417	3.58
249.633	-18.94
249.85	36.35
250.067	-31.23
250.284	62.98
250.501	48.64
250.717	52.74
250.934	-31.23
251.151	17.92
251.368	99.84
251.585	32.26
251.801	52.74
252.018	-59.9
252.235	22.02
252.451	-29.18
252.668	87.55
252.885	67.07
253.102	87.55
253.318	44.54
253.535	-27.14
253.752	36.35
253.968	-29.18
254.185	-37.38
254.401	34.3
254.618	87.55
254.835	110.08
255.051	101.89
255.268	5.63
255.484	42.5
255.701	-2.56
255.917	105.98
256.134	50.69
256.351	85.5
256.567	124.41
256.784	67.07
257	7.68
257.217	108.03
257.433	24.06
257.65	79.36
257.866	32.26
258.082	-27.14
258.299	-47.62
258.515	108.03
258.732	36.35
258.948	26.11
259.165	-23.04
259.381	1.54
259.597	-39.42
259.814	44.54
260.03	48.64
260.246	91.65
260.463	65.02
260.679	50.69
260.895	-12.8
261.112	50.69
261.328	81.41
261.544	-6.66
261.761	110.08
261.977	34.3
262.193	-18.94
262.409	58.88
262.626	9.73
262.842	34.3
263.058	9.73
263.274	67.07
263.49	71.17
263.707	40.45
263.923	114.17
264.139	17.92
264.355	5.63
264.571	32.26
264.787	75.26
265.004	32.26
265.22	-29.18
265.436	-20.99
265.652	52.74
265.868	67.07
266.084	65.02
266.3	13.82
266.516	81.41
266.732	-20.99
266.948	-6.66
267.164	30.21
267.38	38.4
267.596	112.13
267.812	-6.66
268.028	122.37
268.244	-33.28
268.46	67.07
268.676	54.78
268.892	42.5
269.108	34.3
269.324	42.5
269.54	30.21
269.756	65.02
269.972	-31.23
270.188	54.78
270.403	52.74
270.619	38.4
270.835	50.69
271.051	1.54
271.267	56.83
271.483	46.59
271.698	71.17
271.914	-29.18
272.13	42.5
272.346	42.5
272.562	-0.51
272.777	38.4
272.993	-55.81
273.209	11.78
273.425	9.73
273.64	67.07
273.856	-10.75
274.072	-31.23
274.287	28.16
274.503	17.92
274.719	69.12
274.934	71.17
275.15	-14.85
275.366	30.21
275.581	9.73
275.797	60.93
276.012	85.5
276.228	24.06
276.444	7.68
276.659	28.16
276.875	30.21
277.09	-35.33
277.306	-2.56
277.521	56.83
277.737	15.87
277.952	91.65
278.168	62.98
278.383	105.98
278.599	93.69
278.814	38.4
279.03	48.64
279.245	83.45
279.461	9.73
279.676	54.78
279.892	50.69
280.107	40.45
280.322	46.59
280.538	134.65
280.753	54.78
280.969	52.74
281.184	30.21
281.399	42.5
281.615	50.69
281.83	65.02
282.045	-0.51
282.26	11.78
282.476	13.82
282.691	26.11
282.906	42.5
283.122	26.11
283.337	40.45
283.552	42.5
283.767	13.82
283.983	56.83
284.198	3.58
284.413	15.87
284.628	34.3
284.843	50.69
285.058	101.89
285.274	-76.29
285.489	83.45
285.704	67.07
285.919	-2.56
286.134	40.45
286.349	3.58
286.564	19.97
286.779	99.84
286.995	-25.09
287.21	32.26
287.425	-20.99
287.64	40.45
287.855	34.3
288.07	28.16
288.285	30.21
288.5	67.07
288.715	67.07
288.93	7.68
289.145	50.69
289.36	60.93
289.575	52.74
289.79	13.82
290.004	24.06
290.219	26.11
290.434	-98.81
290.649	54.78
290.864	87.55
291.079	-37.38
291.294	81.41
291.509	73.21
291.724	77.31
291.938	40.45
292.153	11.78
292.368	26.11
292.583	7.68
292.798	50.69
293.012	75.26
293.227	-14.85
293.442	-0.51
293.657	-51.71
293.871	153.09
294.086	56.83
294.301	87.55
294.516	79.36
294.73	48.64
294.945	-25.09
295.16	54.78
295.374	34.3
295.589	71.17
295.804	42.5
296.018	17.92
296.233	54.78
296.447	67.07
296.662	9.73
296.877	171.52
297.091	60.93
297.306	40.45
297.52	81.41
297.735	46.59
297.949	26.11
298.164	71.17
298.378	22.02
298.593	-68.09
298.807	13.82
299.022	9.73
299.236	32.26
299.451	-20.99
299.665	62.98
299.88	50.69
300.094	30.21
300.309	30.21
300.523	67.07
300.737	17.92
300.952	75.26
301.166	75.26
301.381	32.26
301.595	1.54
301.809	46.59
302.024	85.5
302.238	75.26
302.452	54.78
302.667	99.84
302.881	9.73
303.095	50.69
303.309	42.5
303.524	48.64
303.738	30.21
303.952	22.02
304.166	71.17
304.381	-14.85
304.595	118.27
304.809	42.5
305.023	101.89
305.237	65.02
305.452	24.06
305.666	-0.51
305.88	54.78
306.094	58.88
306.308	112.13
306.522	7.68
306.736	99.84
306.95	62.98
307.164	73.21
307.379	30.21
307.593	-49.66
307.807	-2.56
308.021	42.5
308.235	91.65
308.449	71.17
308.663	-16.9
308.877	173.57
309.091	40.45
309.305	38.4
309.519	87.55
309.733	50.69
309.947	3.58
310.161	69.12
310.374	56.83
310.588	30.21
310.802	22.02
311.016	5.63
311.23	-31.23
311.444	60.93
311.658	58.88
311.872	73.21
312.085	69.12
312.299	91.65
312.513	26.11
312.727	69.12
312.941	44.54
313.154	73.21
313.368	7.68
313.582	30.21
313.796	24.06
314.009	-8.7
314.223	54.78
314.437	-12.8
314.651	34.3
314.864	103.93
315.078	5.63
315.292	-12.8
315.505	30.21
315.719	122.37
315.933	30.21
316.146	112.13
316.36	38.4
316.573	62.98
316.787	34.3
317.001	99.84
317.214	-23.04
317.428	15.87
317.641	50.69
317.855	-41.47
318.068	77.31
318.282	62.98
318.495	67.07
318.709	89.6
318.922	17.92
319.136	103.93
319.349	108.03
319.563	67.07
319.776	67.07
319.99	-76.29
320.203	58.88
320.417	50.69
320.63	38.4
320.843	77.31
321.057	44.54
321.27	22.02
321.483	24.06
321.697	77.31
321.91	9.73
322.124	54.78
322.337	40.45
322.55	26.11
322.763	-2.56
322.977	1.54
323.19	32.26
323.403	-0.51
323.617	-6.66
323.83	75.26
324.043	38.4
324.256	75.26
324.469	7.68
324.683	62.98
324.896	17.92
325.109	36.35
325.322	30.21
325.535	32.26
325.748	42.5
325.962	38.4
326.175	22.02
326.388	71.17
326.601	130.56
326.814	5.63
327.027	56.83
327.24	110.08
327.453	-18.94
327.666	56.83
327.879	108.03
328.092	77.31
328.305	87.55
328.518	-10.75
328.731	87.55
328.944	-0.51
329.157	-18.94
329.37	89.6
329.583	60.93
329.796	99.84
330.009	1.54
330.222	62.98
330.435	-47.62
330.648	22.02
330.861	-23.04
331.073	7.68
331.286	75.26
331.499	34.3
331.712	-6.66
331.925	62.98
332.138	-8.7
332.35	103.93
332.563	44.54
332.776	26.11
332.989	-25.09
333.202	-16.9
333.414	-8.7
333.627	112.13
333.84	34.3
334.053	95.74
334.265	114.17
334.478	11.78
334.691	1.54
334.903	56.83
335.116	-23.04
335.329	24.06
335.541	73.21
335.754	89.6
335.966	9.73
336.179	50.69
336.392	36.35
336.604	17.92
336.817	56.83
337.029	114.17
337.242	1.54
337.454	116.22
337.667	28.16
337.88	58.88
338.092	81.41
338.305	22.02
338.517	-14.85
338.729	67.07
338.942	-0.51
339.154	34.3
339.367	54.78
339.579	83.45
339.792	-12.8
340.004	69.12
340.217	50.69
340.429	62.98
340.641	3.58
340.854	11.78
341.066	-12.8
341.278	85.5
341.491	69.12
341.703	120.32
341.915	17.92
342.128	5.63
342.34	-0.51
342.552	30.21
342.764	34.3
342.977	26.11
343.189	48.64
343.401	101.89
343.613	34.3
343.826	67.07
344.038	-4.61
344.25	42.5
344.462	17.92
344.674	-20.99
344.886	56.83
345.099	153.09
345.311	-31.23
345.523	-0.51
345.735	36.35
345.947	60.93
346.159	81.41
346.371	32.26
346.583	36.35
346.795	89.6
347.007	73.21
347.219	42.5
347.431	42.5
347.643	69.12
347.855	46.59
348.067	17.92
348.279	-76.29
348.491	-84.48
348.703	40.45
348.915	26.11
349.127	38.4
349.339	77.31
349.551	9.73
349.763	144.89
349.975	32.26
350.187	3.58
350.399	48.64
350.61	124.41
350.822	9.73
351.034	-6.66
351.246	75.26
351.458	108.03
351.669	83.45
351.881	91.65
352.093	97.79
352.305	81.41
352.517	73.21
352.728	71.17
352.94	50.69
353.152	58.88
353.363	79.36
353.575	89.6
353.787	95.74
353.999	67.07
354.21	136.7
354.422	50.69
354.633	7.68
354.845	22.02
355.057	24.06
355.268	46.59
355.48	50.69
355.692	46.59
355.903	11.78
356.115	62.98
356.326	-23.04
356.538	103.93
356.749	77.31
356.961	65.02
357.172	-2.56
357.384	52.74
357.595	48.64
357.807	5.63
358.018	9.73
358.23	87.55
358.441	91.65
358.653	124.41
358.864	34.3
359.075	71.17
359.287	-29.18
359.498	189.95
359.709	17.92
359.921	26.11
360.132	71.17
360.344	116.22
360.555	26.11
360.766	75.26
360.977	48.64
361.189	101.89
361.4	128.51
361.611	77.31
361.823	46.59
362.034	95.74
362.245	-29.18
362.456	77.31
362.667	71.17
362.879	116.22
363.09	17.92
363.301	87.55
363.512	26.11
363.723	-39.42
363.935	75.26
364.146	112.13
364.357	73.21
364.568	91.65
364.779	128.51
364.99	62.98
365.201	89.6
365.412	67.07
365.623	34.3
365.834	97.79
366.045	44.54
366.256	95.74
366.467	69.12
366.678	22.02
366.889	-18.94
367.1	5.63
367.311	112.13
367.522	-6.66
367.733	28.16
367.944	101.89
368.155	9.73
368.366	77.31
368.577	91.65
368.788	3.58
368.999	30.21
369.209	69.12
369.42	101.89
369.631	17.92
369.842	110.08
370.053	30.21
370.264	144.89
370.474	73.21
370.685	1.54
370.896	38.4
371.107	13.82
371.317	71.17
371.528	83.45
371.739	73.21
371.95	91.65
372.16	67.07
372.371	105.98
372.582	75.26
372.792	85.5
373.003	101.89
373.214	-6.66
373.424	-35.33
373.635	93.69
373.846	19.97
374.056	79.36
374.267	101.89
374.477	71.17
374.688	114.17
374.898	60.93
375.109	79.36
375.319	67.07
375.53	19.97
375.74	75.26
375.951	54.78
376.161	22.02
376.372	120.32
376.582	-10.75
376.793	97.79
377.003	71.17
377.214	73.21
377.424	19.97
377.635	103.93
377.845	81.41
378.055	93.69
378.266	5.63
378.476	26.11
378.686	62.98
378.897	85.5
379.107	105.98
379.317	114.17
379.528	17.92
379.738	120.32
379.948	42.5
380.158	65.02
380.369	9.73
380.579	22.02
380.789	9.73
380.999	7.68
381.21	62.98
381.42	114.17
381.63	81.41
381.84	1.54
382.05	22.02
382.261	134.65
382.471	97.79
382.681	-43.52
382.891	42.5
383.101	62.98
383.311	9.73
383.521	42.5
383.731	48.64
383.941	62.98
384.151	99.84
384.361	62.98
384.571	50.69
384.781	7.68
384.991	105.98
385.201	142.85
385.411	52.74
385.621	46.59
385.831	95.74
386.041	105.98
386.251	34.3
386.461	116.22
386.671	13.82
386.881	52.74
387.091	140.8
387.301	-0.51
387.511	173.57
387.72	-14.85
387.93	46.59
388.14	26.11
388.35	99.84
388.56	52.74
388.769	91.65
388.979	81.41
389.189	50.69
389.399	-14.85
389.609	71.17
389.818	93.69
390.028	38.4
390.238	132.61
390.447	54.78
390.657	62.98
390.867	36.35
391.076	34.3
391.286	22.02
391.496	65.02
391.705	17.92
391.915	75.26
392.125	83.45
392.334	140.8
392.544	114.17
392.753	148.99
392.963	95.74
393.172	67.07
393.382	75.26
393.591	36.35
393.801	110.08
394.01	146.94
394.22	87.55
394.429	69.12
394.639	24.06
394.848	93.69
395.058	46.59
395.267	91.65
395.477	103.93
395.686	28.16
395.895	124.41
396.105	148.99
396.314	95.74
396.524	97.79
396.733	50.69
396.942	128.51
397.152	69.12
397.361	101.89
397.57	97.79
397.78	138.75
397.989	120.32
398.198	89.6
398.407	52.74
398.617	99.84
398.826	112.13
399.035	67.07
399.244	34.3
399.453	83.45
399.663	138.75
399.872	108.03
400.081	97.79
400.29	171.52
400.499	38.4
400.708	151.04
400.917	144.89
401.127	128.51
401.336	99.84
401.545	181.76
401.754	196.09
401.963	144.89
402.172	146.94
402.381	62.98
402.59	146.94
402.799	71.17
403.008	163.33
403.217	124.41
403.426	99.84
403.635	157.18
403.844	-23.04
404.053	108.03
404.262	194.05
404.471	198.14
404.68	173.57
404.888	89.6
405.097	126.46
405.306	153.09
405.515	159.23
405.724	128.51
405.933	253.44
406.142	187.9
406.35	151.04
406.559	230.91
406.768	247.29
406.977	181.76
407.185	218.62
407.394	171.52
407.603	138.75
407.812	226.81
408.02	296.44
408.229	187.9
408.438	194.05
408.646	175.61
408.855	228.86
409.064	271.87
409.272	255.48
409.481	284.16
409.69	226.81
409.898	280.06
410.107	237.05
410.315	321.02
410.524	357.88
410.733	288.25
410.941	359.93
411.15	292.35
411.358	417.27
411.567	366.07
411.775	445.95
411.984	456.19
412.192	452.09
412.401	349.69
412.609	433.66
412.818	523.77
413.026	531.96
413.234	462.33
413.443	511.48
413.651	493.05
413.86	542.2
414.068	634.36
414.276	642.55
414.485	669.17
414.693	603.64
414.901	689.65
415.11	646.65
415.318	648.69
415.526	648.69
415.734	722.42
415.943	738.8
416.151	765.43
416.359	781.81
416.567	787.96
416.776	828.92
416.984	992.75
417.192	945.65
417.4	919.03
417.608	935.41
417.817	943.6
418.025	1054.19
418.233	1095.15
418.441	1105.39
418.649	1175.02
418.857	1263.08
419.065	1291.76
419.273	1183.21
419.481	1250.8
419.689	1295.85
419.897	1414.63
420.105	1492.46
420.313	1504.75
420.521	1506.79
420.729	1525.22
420.937	1613.29
421.145	1662.44
421.353	1783.27
421.561	1775.08
421.769	1848.8
421.977	1938.91
422.185	2043.36
422.393	2000.35
422.601	2151.9
422.809	2090.46
423.017	2164.19
423.224	2227.68
423.432	2389.47
423.64	2303.45
423.848	2667.99
424.056	2557.4
424.263	2663.9
424.471	2754.01
424.679	2708.95
424.887	2962.9
425.094	3110.35
425.302	2993.62
425.51	3104.21
425.718	3134.93
425.925	3214.8
426.133	3362.25
426.341	3665.35
426.548	3694.02
426.756	3720.65
426.964	3763.65
427.171	3995.08
427.379	4033.99
427.586	4212.16
427.794	4109.76
428.001	4349.37
428.209	4816.31
428.417	4718.01
428.624	4777.4
428.832	4947.38
429.039	4816.31
429.247	5004.72
429.454	5416.37
429.662	5916.07
429.869	5348.78
430.076	5866.92
430.284	5565.87
430.491	5805.48
430.699	6270.37
430.906	6004.13
431.114	6112.67
431.321	6548.89
431.528	6520.22
431.736	6989.21
431.943	7245.2
432.15	7144.85
432.358	7175.57
432.565	7638.41
432.772	7650.7
432.979	7972.23
433.187	7923.08
433.394	8095.11
433.601	8570.24
433.808	8783.23
434.016	8422.78
434.223	9008.5
434.43	9520.49
434.637	9436.53
434.844	9958.76
435.052	10173.8
435.259	10112.36
435.466	10038.63
435.673	9971.05
435.88	10847.58
436.087	11410.77
436.294	11162.97
436.501	11226.45
436.708	11150.68
436.915	11431.25
437.122	12039.5
437.329	11896.14
437.537	12567.87
437.743	12606.78
437.95	12459.33
438.157	13139.26
438.364	13712.69
438.571	13466.93
438.778	13573.42
438.985	15095.07
439.192	14419.24
439.399	14931.23
439.606	14472.48
439.813	15346.97
440.02	16252.17
440.227	16172.3
440.433	15613.2
440.64	16229.64
440.847	16266.5
441.054	16547.08
441.261	17675.51
441.467	17591.54
441.674	18019.57
441.881	18320.62
442.088	18248.94
442.294	18210.03
442.501	19008.73
442.708	18969.82
442.914	19784.91
443.121	20552.9
443.328	20165.84
443.534	21402.81
443.741	20759.75
443.948	20421.83
444.154	22416.55
444.361	21845.17
444.568	22211.76
444.774	22109.36
444.981	22555.82
445.187	22967.46
445.394	24216.72
445.6	23608.47
445.807	26037.36
446.013	24560.78
446.22	25216.13
446.426	26354.8
446.633	26797.16
446.839	27200.61
447.046	26147.95
447.252	27782.23
447.459	27579.48
447.665	27307.1
447.871	28918.85
448.078	30354.48
448.284	28626
448.491	29549.63
448.697	30026.81
448.903	30897.19
449.11	30823.47
449.316	30231.6
449.522	30893.1
449.728	31853.59
449.935	32480.27
450.141	31872.03
450.347	32863.24
450.553	31267.87
450.76	31786.01
450.966	32893.96
451.172	32590.86
451.378	33231.88
451.584	32459.79
451.791	33586.18
451.997	33176.58
452.203	33707.01
452.409	33911.8
452.615	33659.9
452.821	32379.92
453.027	31831.07
453.233	33573.89
453.44	32216.08
453.646	32494.61
453.852	32936.97
454.058	33369.09
454.264	31779.87
454.47	32777.23
454.676	31941.66
454.882	32871.43
455.088	30055.48
455.294	30690.35
455.5	30864.43
455.705	31345.7
455.911	30217.27
456.117	29260.87
456.323	29035.59
456.529	27483.23
456.735	28478.54
456.941	27747.42
457.147	27333.73
457.352	26449
457.558	26205.3
457.764	26350.7
457.97	25791.61
458.176	25355.39
458.381	25068.67
458.587	23813.27
458.793	23925.91
458.999	22430.89
459.204	24298.64
459.41	23577.75
459.616	22090.93
459.821	22095.02
460.027	22119.6
460.233	21546.17
460.438	20567.24
460.644	20643.01
460.85	19739.86
461.055	19444.95
461.261	19614.93
461.466	17898.73
461.672	17337.59
461.878	18578.66
462.083	17577.2
462.289	17050.88
462.494	16925.95
462.7	16090.38
462.905	15975.69
463.111	16567.56
463.316	16502.02
463.522	16215.3
463.727	16215.3
463.932	16137.48
464.138	15916.3
464.343	15983.88
464.549	15432.98
464.754	15981.84
464.959	15791.38
465.165	15717.65
465.37	15068.44
465.575	14744.86
465.781	15176.98
465.986	15408.4
466.191	14753.05
466.397	14507.3
466.602	13854
466.807	14495.01
467.012	14476.58
467.218	14411.04
467.423	14001.45
467.628	14210.34
467.833	14882.08
