Data from USB4F104151__59__10-23-53-563.txt Node

Date: Wed Mar 12 10:23:53 EDT 2025
User: louis
Spectrometer: USB4F10415
Trigger mode: 4
Integration Time (sec): 3.000000E-2
Scans to average: 1
Electric dark correction enabled: true
Nonlinearity correction enabled: false
Boxcar width: 0
XAxis mode: Wavelengths
Number of Pixels in Spectrum: 3648
>>>>>Begin Spectral Data<<<<<
178.204	-76.12
178.424	-76.12
178.644	-76.12
178.864	-102.74
179.084	-82.26
179.304	32.43
179.524	-31.06
179.744	42.67
179.964	83.63
180.184	-65.88
180.404	-39.25
180.624	42.67
180.844	7.85
181.064	-24.92
181.283	-47.44
181.503	-2.39
181.723	1.71
181.943	-20.82
182.163	32.43
182.383	67.24
182.602	24.23
182.822	83.63
183.042	28.33
183.262	32.43
183.482	-55.64
183.701	24.23
183.921	7.85
184.141	-35.16
184.361	42.67
184.58	16.04
184.8	13.99
185.02	5.8
185.239	46.76
185.459	57
185.679	100.01
185.898	59.05
186.118	16.04
186.338	-43.35
186.557	57
186.777	18.09
186.997	44.71
187.216	1.71
187.436	16.04
187.655	30.38
187.875	61.1
188.095	-39.25
188.314	106.15
188.534	79.53
188.753	-39.25
188.973	46.76
189.192	132.78
189.412	7.85
189.631	79.53
189.851	-72.02
190.07	46.76
190.29	-59.73
190.509	13.99
190.729	16.04
190.948	59.05
191.168	67.24
191.387	63.15
191.607	-43.35
191.826	-74.07
192.045	-8.53
192.265	9.9
192.484	50.86
192.704	79.53
192.923	-10.58
193.142	71.34
193.362	122.54
193.581	44.71
193.8	24.23
194.02	-16.73
194.239	-41.3
194.458	3.75
194.678	-10.58
194.897	50.86
195.116	-39.25
195.335	-22.87
195.555	11.95
195.774	3.75
195.993	-16.73
196.212	20.14
196.432	20.14
196.651	71.34
196.87	28.33
197.089	67.24
197.308	48.81
197.528	48.81
197.747	-45.4
197.966	9.9
198.185	93.87
198.404	-31.06
198.623	18.09
198.842	34.47
199.062	57
199.281	63.15
199.5	102.06
199.719	46.76
199.938	83.63
200.157	5.8
200.376	-2.39
200.595	69.29
200.814	7.85
201.033	-14.68
201.252	61.1
201.471	77.48
201.69	59.05
201.909	9.9
202.128	97.96
202.347	65.19
202.566	-57.68
202.785	-18.77
203.004	11.95
203.223	57
203.442	42.67
203.661	44.71
203.879	24.23
204.098	42.67
204.317	-14.68
204.536	34.47
204.755	7.85
204.974	20.14
205.193	110.25
205.411	52.91
205.63	95.91
205.849	59.05
206.068	-20.82
206.287	-24.92
206.505	59.05
206.724	-22.87
206.943	87.72
207.162	26.28
207.381	75.43
207.599	75.43
207.818	22.19
208.037	40.62
208.255	5.8
208.474	32.43
208.693	73.39
208.911	65.19
209.13	147.11
209.349	40.62
209.567	1.71
209.786	16.04
210.005	91.82
210.223	36.52
210.442	-29.01
210.661	48.81
210.879	13.99
211.098	18.09
211.316	42.67
211.535	44.71
211.753	-2.39
211.972	48.81
212.191	-2.39
212.409	42.67
212.628	30.38
212.846	-22.87
213.065	20.14
213.283	46.76
213.502	-24.92
213.72	16.04
213.938	-24.92
214.157	40.62
214.375	44.71
214.594	-18.77
214.812	20.14
215.031	-39.25
215.249	50.86
215.467	57
215.686	118.44
215.904	85.67
216.122	59.05
216.341	36.52
216.559	28.33
216.778	161.45
216.996	48.81
217.214	24.23
217.432	26.28
217.651	-20.82
217.869	50.86
218.087	71.34
218.306	-41.3
218.524	42.67
218.742	38.57
218.96	159.4
219.179	24.23
219.397	63.15
219.615	24.23
219.833	97.96
220.051	13.99
220.27	-33.11
220.488	38.57
220.706	46.76
220.924	38.57
221.142	79.53
221.36	18.09
221.578	28.33
221.796	34.47
222.015	22.19
222.233	-6.49
222.451	54.95
222.669	-57.68
222.887	67.24
223.105	-33.11
223.323	48.81
223.541	24.23
223.759	77.48
223.977	18.09
224.195	-14.68
224.413	-6.49
224.631	87.72
224.849	46.76
225.067	1.71
225.285	36.52
225.503	26.28
225.721	26.28
225.939	36.52
226.157	18.09
226.375	114.34
226.592	-47.44
226.81	73.39
227.028	57
227.246	16.04
227.464	54.95
227.682	114.34
227.9	79.53
228.117	71.34
228.335	79.53
228.553	65.19
228.771	50.86
228.989	71.34
229.206	54.95
229.424	120.49
229.642	-16.73
229.86	5.8
230.077	34.47
230.295	26.28
230.513	40.62
230.731	-0.34
230.948	57
231.166	40.62
231.384	-51.54
231.601	40.62
231.819	79.53
232.037	-26.96
232.254	30.38
232.472	48.81
232.689	46.76
232.907	24.23
233.125	16.04
233.342	11.95
233.56	54.95
233.777	63.15
233.995	57
234.213	95.91
234.43	87.72
234.648	95.91
234.865	42.67
235.083	22.19
235.3	5.8
235.518	48.81
235.735	59.05
235.953	89.77
236.17	26.28
236.388	-39.25
236.605	13.99
236.822	97.96
237.04	108.2
237.257	38.57
237.475	16.04
237.692	134.82
237.909	16.04
238.127	83.63
238.344	46.76
238.562	18.09
238.779	13.99
238.996	-29.01
239.214	75.43
239.431	42.67
239.648	32.43
239.865	26.28
240.083	7.85
240.3	11.95
240.517	48.81
240.735	-55.64
240.952	42.67
241.169	75.43
241.386	-20.82
241.603	26.28
241.821	-20.82
242.038	50.86
242.255	16.04
242.472	52.91
242.689	65.19
242.907	11.95
243.124	24.23
243.341	36.52
243.558	26.28
243.775	67.24
243.992	-14.68
244.209	1.71
244.426	75.43
244.643	36.52
244.86	-31.06
245.078	22.19
245.295	-0.34
245.512	24.23
245.729	44.71
245.946	46.76
246.163	32.43
246.38	-26.96
246.597	-6.49
246.814	42.67
247.031	9.9
247.248	-24.92
247.464	-49.49
247.681	48.81
247.898	46.76
248.115	-4.44
248.332	18.09
248.549	54.95
248.766	79.53
248.983	91.82
249.2	100.01
249.417	59.05
249.633	104.11
249.85	3.75
250.067	-14.68
250.284	13.99
250.501	63.15
250.717	124.58
250.934	20.14
251.151	-41.3
251.368	50.86
251.585	57
251.801	54.95
252.018	40.62
252.235	67.24
252.451	22.19
252.668	-18.77
252.885	108.2
253.102	7.85
253.318	26.28
253.535	11.95
253.752	108.2
253.968	48.81
254.185	-31.06
254.401	-6.49
254.618	81.58
254.835	-10.58
255.051	38.57
255.268	-20.82
255.484	-59.73
255.701	-4.44
255.917	57
256.134	18.09
256.351	83.63
256.567	-8.53
256.784	11.95
257	48.81
257.217	48.81
257.433	63.15
257.65	81.58
257.866	54.95
258.082	36.52
258.299	-31.06
258.515	54.95
258.732	22.19
258.948	40.62
259.165	108.2
259.381	-8.53
259.597	54.95
259.814	-37.2
260.03	54.95
260.246	9.9
260.463	38.57
260.679	110.25
260.895	18.09
261.112	57
261.328	-41.3
261.544	85.67
261.761	59.05
261.977	-43.35
262.193	24.23
262.409	-8.53
262.626	-31.06
262.842	87.72
263.058	40.62
263.274	69.29
263.49	87.72
263.707	34.47
263.923	7.85
264.139	22.19
264.355	38.57
264.571	57
264.787	50.86
265.004	59.05
265.22	126.63
265.436	-29.01
265.652	-22.87
265.868	93.87
266.084	-2.39
266.3	46.76
266.516	-0.34
266.732	34.47
266.948	50.86
267.164	-2.39
267.38	7.85
267.596	42.67
267.812	120.49
268.028	132.78
268.244	73.39
268.46	102.06
268.676	57
268.892	87.72
269.108	-24.92
269.324	16.04
269.54	61.1
269.756	11.95
269.972	22.19
270.188	-18.77
270.403	1.71
270.619	81.58
270.835	34.47
271.051	77.48
271.267	-41.3
271.483	-16.73
271.698	38.57
271.914	24.23
272.13	-31.06
272.346	1.71
272.562	34.47
272.777	67.24
272.993	65.19
273.209	5.8
273.425	32.43
273.64	65.19
273.856	-2.39
274.072	54.95
274.287	30.38
274.503	13.99
274.719	71.34
274.934	-4.44
275.15	11.95
275.366	3.75
275.581	34.47
275.797	42.67
276.012	52.91
276.228	7.85
276.444	-35.16
276.659	65.19
276.875	5.8
277.09	48.81
277.306	32.43
277.521	46.76
277.737	73.39
277.952	13.99
278.168	42.67
278.383	83.63
278.599	1.71
278.814	16.04
279.03	77.48
279.245	36.52
279.461	75.43
279.676	93.87
279.892	22.19
280.107	73.39
280.322	-24.92
280.538	18.09
280.753	3.75
280.969	48.81
281.184	18.09
281.399	-57.68
281.615	75.43
281.83	63.15
282.045	-0.34
282.26	155.3
282.476	46.76
282.691	5.8
282.906	22.19
283.122	20.14
283.337	-6.49
283.552	132.78
283.767	24.23
283.983	34.47
284.198	16.04
284.413	-8.53
284.628	-2.39
284.843	16.04
285.058	57
285.274	5.8
285.489	75.43
285.704	32.43
285.919	46.76
286.134	40.62
286.349	24.23
286.564	16.04
286.779	54.95
286.995	38.57
287.21	59.05
287.425	73.39
287.64	20.14
287.855	95.91
288.07	5.8
288.285	46.76
288.5	63.15
288.715	89.77
288.93	-16.73
289.145	40.62
289.36	44.71
289.575	-0.34
289.79	77.48
290.004	46.76
290.219	85.67
290.434	-2.39
290.649	1.71
290.864	-22.87
291.079	5.8
291.294	9.9
291.509	59.05
291.724	38.57
291.938	46.76
292.153	63.15
292.368	54.95
292.583	120.49
292.798	59.05
293.012	36.52
293.227	11.95
293.442	30.38
293.657	87.72
293.871	42.67
294.086	73.39
294.301	100.01
294.516	28.33
294.73	42.67
294.945	26.28
295.16	-18.77
295.374	73.39
295.589	5.8
295.804	65.19
296.018	36.52
296.233	-20.82
296.447	20.14
296.662	7.85
296.877	26.28
297.091	-6.49
297.306	77.48
297.52	34.47
297.735	28.33
297.949	-6.49
298.164	75.43
298.378	40.62
298.593	-16.73
298.807	67.24
299.022	-0.34
299.236	126.63
299.451	65.19
299.665	-39.25
299.88	52.91
300.094	50.86
300.309	24.23
300.523	26.28
300.737	7.85
300.952	3.75
301.166	40.62
301.381	26.28
301.595	26.28
301.809	54.95
302.024	50.86
302.238	-59.73
302.452	110.25
302.667	36.52
302.881	83.63
303.095	59.05
303.309	18.09
303.524	-20.82
303.738	9.9
303.952	9.9
304.166	75.43
304.381	28.33
304.595	44.71
304.809	22.19
305.023	38.57
305.237	13.99
305.452	32.43
305.666	50.86
305.88	38.57
306.094	-2.39
306.308	-20.82
306.522	83.63
306.736	9.9
306.95	50.86
307.164	44.71
307.379	38.57
307.593	48.81
307.807	75.43
308.021	46.76
308.235	50.86
308.449	50.86
308.663	34.47
308.877	100.01
309.091	83.63
309.305	57
309.519	16.04
309.733	44.71
309.947	-6.49
310.161	34.47
310.374	59.05
310.588	73.39
310.802	11.95
311.016	-10.58
311.23	95.91
311.444	28.33
311.658	-2.39
311.872	87.72
312.085	54.95
312.299	79.53
312.513	67.24
312.727	73.39
312.941	13.99
313.154	1.71
313.368	44.71
313.582	100.01
313.796	28.33
314.009	1.71
314.223	95.91
314.437	95.91
314.651	-12.63
314.864	59.05
315.078	1.71
315.292	42.67
315.505	75.43
315.719	5.8
315.933	65.19
316.146	46.76
316.36	54.95
316.573	32.43
316.787	161.45
317.001	54.95
317.214	42.67
317.428	59.05
317.641	34.47
317.855	26.28
318.068	59.05
318.282	9.9
318.495	42.67
318.709	100.01
318.922	48.81
319.136	46.76
319.349	1.71
319.563	59.05
319.776	48.81
319.99	40.62
320.203	46.76
320.417	104.11
320.63	89.77
320.843	190.12
321.057	81.58
321.27	112.3
321.483	34.47
321.697	104.11
321.91	-24.92
322.124	16.04
322.337	87.72
322.55	46.76
322.763	9.9
322.977	9.9
323.19	38.57
323.403	81.58
323.617	75.43
323.83	95.91
324.043	16.04
324.256	81.58
324.469	-8.53
324.683	100.01
324.896	13.99
325.109	42.67
325.322	50.86
325.535	36.52
325.748	73.39
325.962	95.91
326.175	34.47
326.388	22.19
326.601	114.34
326.814	-2.39
327.027	87.72
327.24	52.91
327.453	50.86
327.666	63.15
327.879	75.43
328.092	3.75
328.305	59.05
328.518	57
328.731	44.71
328.944	114.34
329.157	30.38
329.37	67.24
329.583	46.76
329.796	42.67
330.009	67.24
330.222	79.53
330.435	38.57
330.648	42.67
330.861	69.29
331.073	97.96
331.286	57
331.499	83.63
331.712	-24.92
331.925	83.63
332.138	34.47
332.35	83.63
332.563	-37.2
332.776	79.53
332.989	-4.44
333.202	5.8
333.414	106.15
333.627	9.9
333.84	20.14
334.053	73.39
334.265	38.57
334.478	20.14
334.691	75.43
334.903	104.11
335.116	52.91
335.329	97.96
335.541	44.71
335.754	112.3
335.966	26.28
336.179	85.67
336.392	5.8
336.604	42.67
336.817	40.62
337.029	81.58
337.242	81.58
337.454	81.58
337.667	67.24
337.88	91.82
338.092	32.43
338.305	46.76
338.517	32.43
338.729	-8.53
338.942	36.52
339.154	13.99
339.367	36.52
339.579	16.04
339.792	71.34
340.004	122.54
340.217	26.28
340.429	42.67
340.641	-26.96
340.854	50.86
341.066	46.76
341.278	132.78
341.491	61.1
341.703	7.85
341.915	32.43
342.128	71.34
342.34	-29.01
342.552	38.57
342.764	38.57
342.977	71.34
343.189	100.01
343.401	38.57
343.613	46.76
343.826	100.01
344.038	81.58
344.25	95.91
344.462	50.86
344.674	38.57
344.886	69.29
345.099	91.82
345.311	75.43
345.523	69.29
345.735	-16.73
345.947	91.82
346.159	63.15
346.371	95.91
346.583	73.39
346.795	149.16
347.007	40.62
347.219	26.28
347.431	57
347.643	85.67
347.855	59.05
348.067	22.19
348.279	38.57
348.491	65.19
348.703	91.82
348.915	69.29
349.127	9.9
349.339	50.86
349.551	-4.44
349.763	89.77
349.975	-6.49
350.187	138.92
350.399	46.76
350.61	69.29
350.822	177.83
351.034	46.76
351.246	34.47
351.458	30.38
351.669	89.77
351.881	54.95
352.093	59.05
352.305	120.49
352.517	57
352.728	81.58
352.94	108.2
353.152	87.72
353.363	59.05
353.575	-0.34
353.787	24.23
353.999	61.1
354.21	83.63
354.422	34.47
354.633	38.57
354.845	77.48
355.057	75.43
355.268	26.28
355.48	63.15
355.692	40.62
355.903	26.28
356.115	-35.16
356.326	-14.68
356.538	77.48
356.749	50.86
356.961	126.63
357.172	-2.39
357.384	18.09
357.595	75.43
357.807	95.91
358.018	30.38
358.23	67.24
358.441	153.26
358.653	110.25
358.864	-20.82
359.075	-22.87
359.287	124.58
359.498	54.95
359.709	79.53
359.921	-14.68
360.132	40.62
360.344	30.38
360.555	28.33
360.766	42.67
360.977	59.05
361.189	5.8
361.4	-10.58
361.611	140.97
361.823	54.95
362.034	59.05
362.245	-41.3
362.456	85.67
362.667	93.87
362.879	-2.39
363.09	89.77
363.301	65.19
363.512	61.1
363.723	46.76
363.935	18.09
364.146	59.05
364.357	38.57
364.568	32.43
364.779	42.67
364.99	67.24
365.201	54.95
365.412	112.3
365.623	-53.59
365.834	18.09
366.045	26.28
366.256	108.2
366.467	89.77
366.678	-0.34
366.889	46.76
367.1	-22.87
367.311	87.72
367.522	42.67
367.733	44.71
367.944	79.53
368.155	-4.44
368.366	59.05
368.577	81.58
368.788	81.58
368.999	85.67
369.209	59.05
369.42	36.52
369.631	91.82
369.842	50.86
370.053	11.95
370.264	54.95
370.474	71.34
370.685	38.57
370.896	20.14
371.107	118.44
371.317	75.43
371.528	54.95
371.739	118.44
371.95	57
372.16	44.71
372.371	40.62
372.582	57
372.792	79.53
373.003	9.9
373.214	79.53
373.424	71.34
373.635	75.43
373.846	1.71
374.056	128.68
374.267	67.24
374.477	95.91
374.688	46.76
374.898	9.9
375.109	100.01
375.319	128.68
375.53	71.34
375.74	108.2
375.951	54.95
376.161	5.8
376.372	50.86
376.582	24.23
376.793	97.96
377.003	81.58
377.214	108.2
377.424	85.67
377.635	69.29
377.845	18.09
378.055	75.43
378.266	59.05
378.476	-57.68
378.686	42.67
378.897	100.01
379.107	36.52
379.317	57
379.528	13.99
379.738	48.81
379.948	-4.44
380.158	91.82
380.369	-10.58
380.579	163.5
380.789	52.91
380.999	63.15
381.21	73.39
381.42	149.16
381.63	50.86
381.84	108.2
382.05	120.49
382.261	73.39
382.471	89.77
382.681	36.52
382.891	13.99
383.101	163.5
383.311	100.01
383.521	48.81
383.731	116.39
383.941	120.49
384.151	11.95
384.361	48.81
384.571	83.63
384.781	59.05
384.991	112.3
385.201	65.19
385.411	85.67
385.621	67.24
385.831	67.24
386.041	24.23
386.251	71.34
386.461	67.24
386.671	40.62
386.881	136.87
387.091	63.15
387.301	128.68
387.511	89.77
387.72	30.38
387.93	122.54
388.14	67.24
388.35	83.63
388.56	110.25
388.769	149.16
388.979	110.25
389.189	59.05
389.399	132.78
389.609	59.05
389.818	106.15
390.028	69.29
390.238	93.87
390.447	-4.44
390.657	42.67
390.867	63.15
391.076	34.47
391.286	83.63
391.496	102.06
391.705	91.82
391.915	54.95
392.125	157.35
392.334	34.47
392.544	110.25
392.753	85.67
392.963	7.85
393.172	87.72
393.382	42.67
393.591	124.58
393.801	93.87
394.01	138.92
394.22	91.82
394.429	85.67
394.639	87.72
394.848	100.01
395.058	108.2
395.267	122.54
395.477	190.12
395.686	171.69
395.895	132.78
396.105	116.39
396.314	153.26
396.524	128.68
396.733	50.86
396.942	106.15
397.152	220.84
397.361	149.16
397.57	163.5
397.78	112.3
397.989	140.97
398.198	153.26
398.407	85.67
398.617	136.87
398.826	16.04
399.035	81.58
399.244	134.82
399.453	87.72
399.663	102.06
399.872	122.54
400.081	163.5
400.29	171.69
400.499	104.11
400.708	183.98
400.917	114.34
401.127	112.3
401.336	73.39
401.545	222.89
401.754	292.52
401.963	161.45
402.172	104.11
402.381	26.28
402.59	128.68
402.799	169.64
403.008	128.68
403.217	91.82
403.426	112.3
403.635	138.92
403.844	181.93
404.053	235.18
404.262	202.41
404.471	216.74
404.68	216.74
404.888	108.2
405.097	169.64
405.306	241.32
405.515	220.84
405.724	186.02
405.933	220.84
406.142	218.79
406.35	247.46
406.559	263.85
406.768	151.21
406.977	245.41
407.185	286.37
407.394	286.37
407.603	220.84
407.812	257.7
408.02	243.37
408.229	269.99
408.438	267.94
408.646	239.27
408.855	222.89
409.064	272.04
409.272	321.19
409.481	290.47
409.69	362.15
409.898	337.57
410.107	368.29
410.315	386.72
410.524	349.86
410.733	388.77
410.941	444.07
411.15	390.82
411.358	433.83
411.567	470.69
411.775	480.93
411.984	431.78
412.192	521.89
412.401	534.18
412.609	489.12
412.818	552.61
413.026	603.81
413.234	536.23
413.443	587.43
413.651	673.44
413.86	695.97
414.068	665.25
414.276	786.08
414.485	745.12
414.693	777.89
414.901	747.17
415.11	863.9
415.318	822.94
415.526	880.29
415.734	837.28
415.943	904.86
416.151	1029.79
416.359	906.91
416.567	980.64
416.776	1033.88
416.984	1140.38
417.192	1146.52
417.4	1171.1
417.608	1115.8
417.817	1177.24
418.025	1316.5
418.233	1437.33
418.441	1433.24
418.649	1390.23
418.857	1459.86
419.065	1554.07
419.273	1431.19
419.481	1568.4
419.689	1631.89
419.897	1707.66
420.105	1683.09
420.313	1957.52
420.521	1930.89
420.729	1857.17
420.937	2014.86
421.145	2074.25
421.353	2051.72
421.561	2238.09
421.769	2291.34
421.977	2442.89
422.185	2281.1
422.393	2506.37
422.601	2627.2
422.809	2668.16
423.017	2705.03
423.224	2782.85
423.432	3004.03
423.64	2819.71
423.848	3155.58
424.056	3088
424.263	3393.14
424.471	3288.7
424.679	3309.18
424.887	3573.36
425.094	3700.34
425.302	3702.39
425.51	3743.35
425.718	4032.11
425.925	4095.6
426.133	4105.84
426.341	4318.82
426.548	4513.38
426.756	4509.29
426.964	4509.29
427.171	4955.74
427.379	5004.89
427.586	5033.57
427.794	5338.71
428.001	5486.17
428.209	5774.93
428.417	5633.62
428.624	6190.67
428.832	6153.8
429.039	6069.84
429.247	6157.9
429.454	6661.7
429.662	7009.86
429.869	6567.49
430.076	7075.39
430.284	6901.31
430.491	7278.14
430.699	7446.07
430.906	7536.18
431.114	7659.06
431.321	8035.89
431.528	8117.81
431.736	8574.5
431.943	9178.65
432.15	8711.72
432.358	8865.32
432.565	9342.49
432.772	9287.2
432.979	9602.58
433.187	9926.16
433.394	10182.16
433.601	10733.06
433.808	10692.1
434.016	10606.09
434.223	10987.01
434.43	11728.38
434.637	11517.43
434.844	12160.5
435.052	12324.33
435.259	12396.01
435.466	12389.87
435.673	12367.34
435.88	12991.97
436.087	13864.41
436.294	13919.7
436.501	13483.48
436.708	13716.95
436.915	14112.21
437.122	14976.45
437.329	14908.87
437.537	15273.41
437.743	15580.6
437.95	15281.6
438.157	16096.69
438.364	16698.8
438.571	16819.63
438.778	16971.18
438.985	18298.26
439.192	17589.66
439.399	18101.65
439.606	17606.05
439.813	18714
440.02	20065.66
440.227	19776.89
440.433	19275.14
440.64	20118.9
440.847	19860.86
441.054	20540.79
441.261	21822.81
441.467	21683.55
441.674	21718.37
441.881	22746.45
442.088	22512.98
442.294	22371.67
442.501	23207.24
442.708	23409.99
442.914	24560.95
443.121	25328.94
443.328	24818.99
443.534	26686.74
443.741	25605.41
443.948	25363.75
444.154	27125
444.361	26979.6
444.568	27403.53
444.774	27274.51
444.981	27542.79
445.187	28396.79
445.394	29576.42
445.6	28970.22
445.807	32091.33
446.013	30311.64
446.22	30907.6
446.426	32263.36
446.633	32367.8
446.839	33787.05
447.046	32433.34
447.252	33963.17
447.459	34022.56
447.665	33496.24
447.871	35077.27
448.078	36711.55
448.284	34686.11
448.491	35691.66
448.697	37137.52
448.903	38276.19
449.11	37776.49
449.316	37256.31
449.522	37786.73
449.728	38802.52
449.935	38724.7
450.141	39031.9
450.347	40203.33
450.553	38677.6
450.76	39107.67
450.966	40068.17
451.172	39664.72
451.378	41241.65
451.584	39859.27
451.791	40920.12
451.997	41006.14
452.203	41368.63
452.409	41522.23
452.615	41159.73
452.821	39398.48
453.027	39232.6
453.233	41090.1
453.44	39683.15
453.646	40217.67
453.852	39937.1
454.058	40539.2
454.264	39031.9
454.47	39849.03
454.676	39384.15
454.882	40412.23
455.088	37059.7
455.294	37727.34
455.5	37958.76
455.705	38419.55
455.911	36940.92
456.117	36269.19
456.323	35611.79
456.529	34063.52
456.735	35036.31
456.941	34333.85
457.147	33764.52
457.352	32726.2
457.558	32314.56
457.764	32556.22
457.97	31839.43
458.176	31087.82
458.381	31315.15
458.587	29330.67
458.793	29244.65
458.999	27956.48
459.204	29969.63
459.41	29291.76
459.616	27165.96
459.821	26967.31
460.027	26819.86
460.233	26567.96
460.438	25224.49
460.644	25281.83
460.85	24511.8
461.055	24012.09
461.261	24263.99
461.466	22295.89
461.672	21581.15
461.878	23237.96
462.083	21597.54
462.289	21439.84
462.494	21028.2
462.7	20104.57
462.905	19588.48
463.111	20104.57
463.316	20340.08
463.522	19785.08
463.727	20065.66
463.932	19434.88
464.138	19443.07
464.343	19733.89
464.549	19162.5
464.754	20053.37
464.959	19748.22
465.165	19617.15
465.37	18781.58
465.575	18111.89
465.781	18623.89
465.986	18898.31
466.191	18038.17
466.397	18056.6
466.602	17182.12
466.807	17493.41
467.012	17573.28
467.218	18046.36
467.423	17634.72
467.628	17829.27
467.833	18294.16
