Data from USB4F104151__189__10-28-45-365.txt Node

Date: Wed Mar 12 10:28:45 EDT 2025
User: louis
Spectrometer: USB4F10415
Trigger mode: 4
Integration Time (sec): 3.000000E-2
Scans to average: 1
Electric dark correction enabled: true
Nonlinearity correction enabled: false
Boxcar width: 0
XAxis mode: Wavelengths
Number of Pixels in Spectrum: 3648
>>>>>Begin Spectral Data<<<<<
178.204	-65.71
178.424	-65.71
178.644	-65.71
178.864	-90.28
179.084	-98.47
179.304	-6.31
179.524	32.6
179.744	-16.55
179.964	-28.84
180.184	20.31
180.404	-12.46
180.624	3.93
180.844	34.64
181.064	-34.99
181.283	67.41
181.503	-77.99
181.723	18.26
181.943	-57.51
182.163	53.08
182.383	1.88
182.602	124.76
182.822	44.88
183.042	102.23
183.262	-22.7
183.482	100.18
183.701	73.56
183.921	83.8
184.141	-8.36
184.361	77.65
184.58	-20.65
184.8	3.93
185.02	16.21
185.239	51.03
185.459	34.64
185.679	77.65
185.898	-8.36
186.118	-18.6
186.338	69.46
186.557	73.56
186.777	-18.6
186.997	69.46
187.216	94.04
187.436	51.03
187.655	-8.36
187.875	30.55
188.095	-8.36
188.314	63.32
188.534	57.17
188.753	1.88
188.973	61.27
189.192	91.99
189.412	81.75
189.631	-39.08
189.851	48.98
190.07	110.42
190.29	3.93
190.509	18.26
190.729	-43.18
190.948	77.65
191.168	110.42
191.387	63.32
191.607	34.64
191.826	79.7
192.045	44.88
192.265	-6.31
192.484	73.56
192.704	48.98
192.923	16.21
193.142	110.42
193.362	32.6
193.581	106.32
193.8	8.02
194.02	67.41
194.239	-8.36
194.458	8.02
194.678	48.98
194.897	14.17
195.116	102.23
195.335	100.18
195.555	100.18
195.774	116.56
195.993	55.12
196.212	57.17
196.432	-0.17
196.651	32.6
196.87	61.27
197.089	85.84
197.308	42.84
197.528	98.13
197.747	3.93
197.966	46.93
198.185	42.84
198.404	69.46
198.623	40.79
198.842	69.46
199.062	157.52
199.281	44.88
199.5	-6.31
199.719	55.12
199.938	100.18
200.157	69.46
200.376	-14.51
200.595	91.99
200.814	-26.79
201.033	36.69
201.252	73.56
201.471	20.31
201.69	112.47
201.909	48.98
202.128	81.75
202.347	46.93
202.566	63.32
202.785	44.88
203.004	48.98
203.223	100.18
203.442	42.84
203.661	38.74
203.879	61.27
204.098	-12.46
204.317	1.88
204.536	63.32
204.755	18.26
204.974	20.31
205.193	67.41
205.411	124.76
205.63	44.88
205.849	30.55
206.068	77.65
206.287	12.12
206.505	87.89
206.724	120.66
206.943	-2.22
207.162	61.27
207.381	79.7
207.599	30.55
207.818	55.12
208.037	-2.22
208.255	120.66
208.474	104.28
208.693	94.04
208.911	67.41
209.13	24.4
209.349	34.64
209.567	53.08
209.786	55.12
210.005	32.6
210.223	30.55
210.442	100.18
210.661	53.08
210.879	59.22
211.098	77.65
211.316	40.79
211.535	36.69
211.753	36.69
211.972	34.64
212.191	-0.17
212.409	79.7
212.628	91.99
212.846	-43.18
213.065	96.08
213.283	112.47
213.502	59.22
213.72	3.93
213.938	59.22
214.157	24.4
214.375	75.6
214.594	67.41
214.812	32.6
215.031	3.93
215.249	36.69
215.467	-18.6
215.686	-6.31
215.904	96.08
216.122	42.84
216.341	44.88
216.559	30.55
216.778	51.03
216.996	122.71
217.214	126.8
217.432	28.5
217.651	81.75
217.869	51.03
218.087	36.69
218.306	18.26
218.524	51.03
218.742	85.84
218.96	149.33
219.179	44.88
219.397	71.51
219.615	53.08
219.833	73.56
220.051	-4.27
220.27	96.08
220.488	53.08
220.706	81.75
220.924	-12.46
221.142	32.6
221.36	36.69
221.578	48.98
221.796	65.36
222.015	46.93
222.233	81.75
222.451	147.28
222.669	85.84
222.887	48.98
223.105	5.97
223.323	91.99
223.541	-24.75
223.759	44.88
223.977	36.69
224.195	61.27
224.413	94.04
224.631	114.52
224.849	130.9
225.067	122.71
225.285	73.56
225.503	-32.94
225.721	1.88
225.939	-4.27
226.157	36.69
226.375	28.5
226.592	83.8
226.81	77.65
227.028	30.55
227.246	57.17
227.464	59.22
227.682	108.37
227.9	34.64
228.117	96.08
228.335	53.08
228.553	-6.31
228.771	36.69
228.989	14.17
229.206	96.08
229.424	79.7
229.642	32.6
229.86	59.22
230.077	71.51
230.295	102.23
230.513	102.23
230.731	112.47
230.948	48.98
231.166	53.08
231.384	32.6
231.601	73.56
231.819	94.04
232.037	42.84
232.254	65.36
232.472	61.27
232.689	81.75
232.907	98.13
233.125	55.12
233.342	53.08
233.56	85.84
233.777	46.93
233.995	87.89
234.213	79.7
234.43	57.17
234.648	81.75
234.865	20.31
235.083	124.76
235.3	16.21
235.518	77.65
235.735	108.37
235.953	61.27
236.17	44.88
236.388	83.8
236.605	36.69
236.822	69.46
237.04	81.75
237.257	106.32
237.475	83.8
237.692	75.6
237.909	59.22
238.127	69.46
238.344	55.12
238.562	91.99
238.779	79.7
238.996	126.8
239.214	65.36
239.431	-28.84
239.648	24.4
239.865	87.89
240.083	108.37
240.3	59.22
240.517	73.56
240.735	32.6
240.952	94.04
241.169	63.32
241.386	48.98
241.603	34.64
241.821	-12.46
242.038	94.04
242.255	63.32
242.472	30.55
242.689	28.5
242.907	42.84
243.124	24.4
243.341	77.65
243.558	22.36
243.775	26.45
243.992	40.79
244.209	73.56
244.426	110.42
244.643	20.31
244.86	-14.51
245.078	36.69
245.295	102.23
245.512	85.84
245.729	77.65
245.946	36.69
246.163	104.28
246.38	36.69
246.597	87.89
246.814	-26.79
247.031	69.46
247.248	57.17
247.464	110.42
247.681	38.74
247.898	98.13
248.115	55.12
248.332	-51.37
248.549	106.32
248.766	77.65
248.983	85.84
249.2	-6.31
249.417	122.71
249.633	44.88
249.85	139.09
250.067	61.27
250.284	20.31
250.501	61.27
250.717	81.75
250.934	79.7
251.151	40.79
251.368	38.74
251.585	51.03
251.801	67.41
252.018	12.12
252.235	18.26
252.451	96.08
252.668	3.93
252.885	51.03
253.102	100.18
253.318	69.46
253.535	61.27
253.752	75.6
253.968	24.4
254.185	53.08
254.401	110.42
254.618	59.22
254.835	96.08
255.051	69.46
255.268	73.56
255.484	40.79
255.701	32.6
255.917	89.94
256.134	77.65
256.351	73.56
256.567	14.17
256.784	75.6
257	79.7
257.217	38.74
257.433	-6.31
257.65	40.79
257.866	34.64
258.082	12.12
258.299	26.45
258.515	114.52
258.732	34.64
258.948	1.88
259.165	79.7
259.381	-6.31
259.597	124.76
259.814	79.7
260.03	65.36
260.246	120.66
260.463	55.12
260.679	79.7
260.895	16.21
261.112	51.03
261.328	59.22
261.544	16.21
261.761	77.65
261.977	65.36
262.193	16.21
262.409	59.22
262.626	75.6
262.842	85.84
263.058	53.08
263.274	108.37
263.49	-6.31
263.707	73.56
263.923	53.08
264.139	91.99
264.355	53.08
264.571	118.61
264.787	42.84
265.004	112.47
265.22	79.7
265.436	165.71
265.652	46.93
265.868	48.98
266.084	18.26
266.3	14.17
266.516	32.6
266.732	5.97
266.948	38.74
267.164	28.5
267.38	34.64
267.596	77.65
267.812	85.84
268.028	40.79
268.244	53.08
268.46	73.56
268.676	34.64
268.892	141.14
269.108	-20.65
269.324	53.08
269.54	24.4
269.756	48.98
269.972	36.69
270.188	26.45
270.403	42.84
270.619	57.17
270.835	139.09
271.051	32.6
271.267	40.79
271.483	85.84
271.698	135
271.914	81.75
272.13	102.23
272.346	122.71
272.562	-4.27
272.777	118.61
272.993	59.22
273.209	141.14
273.425	38.74
273.64	36.69
273.856	24.4
274.072	65.36
274.287	-12.46
274.503	46.93
274.719	36.69
274.934	81.75
275.15	-8.36
275.366	139.09
275.581	61.27
275.797	75.6
276.012	30.55
276.228	61.27
276.444	94.04
276.659	65.36
276.875	-16.55
277.09	42.84
277.306	104.28
277.521	32.6
277.737	-4.27
277.952	141.14
278.168	-14.51
278.383	28.5
278.599	28.5
278.814	91.99
279.03	79.7
279.245	130.9
279.461	69.46
279.676	98.13
279.892	53.08
280.107	1.88
280.322	-20.65
280.538	69.46
280.753	73.56
280.969	26.45
281.184	46.93
281.399	126.8
281.615	53.08
281.83	102.23
282.045	18.26
282.26	20.31
282.476	36.69
282.691	20.31
282.906	75.6
283.122	1.88
283.337	61.27
283.552	61.27
283.767	48.98
283.983	38.74
284.198	30.55
284.413	83.8
284.628	18.26
284.843	81.75
285.058	135
285.274	40.79
285.489	30.55
285.704	61.27
285.919	91.99
286.134	48.98
286.349	28.5
286.564	20.31
286.779	108.37
286.995	108.37
287.21	48.98
287.425	69.46
287.64	71.51
287.855	83.8
288.07	67.41
288.285	77.65
288.5	85.84
288.715	34.64
288.93	-34.99
289.145	65.36
289.36	100.18
289.575	-10.41
289.79	77.65
290.004	48.98
290.219	71.51
290.434	40.79
290.649	55.12
290.864	67.41
291.079	53.08
291.294	83.8
291.509	104.28
291.724	26.45
291.938	67.41
292.153	114.52
292.368	81.75
292.583	149.33
292.798	61.27
293.012	102.23
293.227	91.99
293.442	75.6
293.657	73.56
293.871	110.42
294.086	59.22
294.301	151.38
294.516	26.45
294.73	65.36
294.945	36.69
295.16	18.26
295.374	143.19
295.589	110.42
295.804	34.64
296.018	69.46
296.233	153.43
296.447	61.27
296.662	-32.94
296.877	96.08
297.091	79.7
297.306	38.74
297.52	-4.27
297.735	48.98
297.949	28.5
298.164	102.23
298.378	44.88
298.593	30.55
298.807	5.97
299.022	85.84
299.236	57.17
299.451	85.84
299.665	44.88
299.88	53.08
300.094	12.12
300.309	-45.23
300.523	-12.46
300.737	106.32
300.952	118.61
301.166	61.27
301.381	46.93
301.595	69.46
301.809	32.6
302.024	28.5
302.238	81.75
302.452	67.41
302.667	48.98
302.881	116.56
303.095	77.65
303.309	57.17
303.524	24.4
303.738	100.18
303.952	-22.7
304.166	114.52
304.381	44.88
304.595	85.84
304.809	-14.51
305.023	69.46
305.237	10.07
305.452	44.88
305.666	26.45
305.88	57.17
306.094	94.04
306.308	75.6
306.522	53.08
306.736	126.8
306.95	59.22
307.164	32.6
307.379	48.98
307.593	132.95
307.807	55.12
308.021	116.56
308.235	149.33
308.449	-8.36
308.663	91.99
308.877	147.28
309.091	91.99
309.305	79.7
309.519	36.69
309.733	145.24
309.947	48.98
310.161	120.66
310.374	61.27
310.588	98.13
310.802	-6.31
311.016	-8.36
311.23	65.36
311.444	14.17
311.658	175.95
311.872	73.56
312.085	75.6
312.299	110.42
312.513	69.46
312.727	40.79
312.941	-41.13
313.154	81.75
313.368	81.75
313.582	104.28
313.796	3.93
314.009	79.7
314.223	135
314.437	118.61
314.651	59.22
314.864	36.69
315.078	-26.79
315.292	106.32
315.505	69.46
315.719	89.94
315.933	61.27
316.146	102.23
316.36	116.56
316.573	102.23
316.787	-8.36
317.001	159.57
317.214	53.08
317.428	81.75
317.641	94.04
317.855	96.08
318.068	77.65
318.282	85.84
318.495	77.65
318.709	34.64
318.922	44.88
319.136	126.8
319.349	77.65
319.563	24.4
319.776	73.56
319.99	120.66
320.203	87.89
320.417	67.41
320.63	106.32
320.843	108.37
321.057	130.9
321.27	48.98
321.483	51.03
321.697	63.32
321.91	59.22
322.124	59.22
322.337	110.42
322.55	63.32
322.763	63.32
322.977	91.99
323.19	1.88
323.403	3.93
323.617	36.69
323.83	116.56
324.043	40.79
324.256	53.08
324.469	63.32
324.683	32.6
324.896	89.94
325.109	44.88
325.322	10.07
325.535	63.32
325.748	75.6
325.962	59.22
326.175	46.93
326.388	102.23
326.601	81.75
326.814	116.56
327.027	132.95
327.24	122.71
327.453	59.22
327.666	61.27
327.879	22.36
328.092	55.12
328.305	85.84
328.518	75.6
328.731	126.8
328.944	-16.55
329.157	100.18
329.37	89.94
329.583	126.8
329.796	100.18
330.009	69.46
330.222	53.08
330.435	59.22
330.648	48.98
330.861	118.61
331.073	126.8
331.286	143.19
331.499	44.88
331.712	-34.99
331.925	73.56
332.138	55.12
332.35	137.04
332.563	8.02
332.776	186.19
332.989	36.69
333.202	30.55
333.414	53.08
333.627	96.08
333.84	28.5
334.053	22.36
334.265	-12.46
334.478	81.75
334.691	8.02
334.903	77.65
335.116	57.17
335.329	77.65
335.541	118.61
335.754	184.15
335.966	161.62
336.179	116.56
336.392	16.21
336.604	26.45
336.817	87.89
337.029	63.32
337.242	116.56
337.454	102.23
337.667	34.64
337.88	165.71
338.092	83.8
338.305	118.61
338.517	26.45
338.729	81.75
338.942	110.42
339.154	34.64
339.367	12.12
339.579	51.03
339.792	120.66
340.004	51.03
340.217	57.17
340.429	26.45
340.641	61.27
340.854	28.5
341.066	-55.47
341.278	94.04
341.491	100.18
341.703	108.37
341.915	34.64
342.128	126.8
342.34	18.26
342.552	98.13
342.764	110.42
342.977	98.13
343.189	126.8
343.401	1.88
343.613	102.23
343.826	61.27
344.038	24.4
344.25	94.04
344.462	61.27
344.674	96.08
344.886	118.61
345.099	81.75
345.311	32.6
345.523	32.6
345.735	-28.84
345.947	42.84
346.159	20.31
346.371	22.36
346.583	71.51
346.795	104.28
347.007	120.66
347.219	63.32
347.431	44.88
347.643	194.39
347.855	20.31
348.067	77.65
348.279	83.8
348.491	-12.46
348.703	1.88
348.915	-20.65
349.127	26.45
349.339	32.6
349.551	102.23
349.763	100.18
349.975	73.56
350.187	65.36
350.399	139.09
350.61	157.52
350.822	10.07
351.034	73.56
351.246	51.03
351.458	122.71
351.669	61.27
351.881	8.02
352.093	61.27
352.305	106.32
352.517	36.69
352.728	132.95
352.94	102.23
353.152	57.17
353.363	38.74
353.575	87.89
353.787	44.88
353.999	102.23
354.21	106.32
354.422	12.12
354.633	55.12
354.845	75.6
355.057	53.08
355.268	53.08
355.48	100.18
355.692	36.69
355.903	57.17
356.115	87.89
356.326	81.75
356.538	71.51
356.749	71.51
356.961	149.33
357.172	32.6
357.384	26.45
357.595	53.08
357.807	67.41
358.018	118.61
358.23	100.18
358.441	96.08
358.653	139.09
358.864	61.27
359.075	55.12
359.287	112.47
359.498	89.94
359.709	137.04
359.921	63.32
360.132	85.84
360.344	87.89
360.555	12.12
360.766	30.55
360.977	59.22
361.189	130.9
361.4	130.9
361.611	124.76
361.823	130.9
362.034	151.38
362.245	51.03
362.456	135
362.667	73.56
362.879	89.94
363.09	34.64
363.301	85.84
363.512	32.6
363.723	36.69
363.935	32.6
364.146	143.19
364.357	67.41
364.568	155.47
364.779	77.65
364.99	124.76
365.201	44.88
365.412	94.04
365.623	61.27
365.834	128.85
366.045	51.03
366.256	-4.27
366.467	61.27
366.678	83.8
366.889	120.66
367.1	44.88
367.311	24.4
367.522	44.88
367.733	36.69
367.944	139.09
368.155	69.46
368.366	-4.27
368.577	85.84
368.788	59.22
368.999	69.46
369.209	53.08
369.42	157.52
369.631	110.42
369.842	141.14
370.053	61.27
370.264	48.98
370.474	22.36
370.685	100.18
370.896	69.46
371.107	81.75
371.317	87.89
371.528	34.64
371.739	77.65
371.95	53.08
372.16	28.5
372.371	51.03
372.582	42.84
372.792	85.84
373.003	171.86
373.214	53.08
373.424	10.07
373.635	104.28
373.846	178
374.056	81.75
374.267	61.27
374.477	116.56
374.688	116.56
374.898	85.84
375.109	81.75
375.319	96.08
375.53	141.14
375.74	83.8
375.951	116.56
376.161	118.61
376.372	157.52
376.582	85.84
376.793	102.23
377.003	38.74
377.214	75.6
377.424	104.28
377.635	161.62
377.845	53.08
378.055	120.66
378.266	32.6
378.476	32.6
378.686	153.43
378.897	89.94
379.107	132.95
379.317	128.85
379.528	118.61
379.738	116.56
379.948	120.66
380.158	145.24
380.369	100.18
380.579	120.66
380.789	118.61
380.999	30.55
381.21	75.6
381.42	110.42
381.63	69.46
381.84	173.91
382.05	122.71
382.261	192.34
382.471	132.95
382.681	106.32
382.891	151.38
383.101	141.14
383.311	36.69
383.521	79.7
383.731	94.04
383.941	155.47
384.151	130.9
384.361	102.23
384.571	114.52
384.781	85.84
384.991	116.56
385.201	173.91
385.411	124.76
385.621	85.84
385.831	40.79
386.041	71.51
386.251	71.51
386.461	118.61
386.671	75.6
386.881	77.65
387.091	79.7
387.301	96.08
387.511	83.8
387.72	89.94
387.93	83.8
388.14	118.61
388.35	122.71
388.56	102.23
388.769	145.24
388.979	46.93
389.189	67.41
389.399	98.13
389.609	96.08
389.818	130.9
390.028	75.6
390.238	163.67
390.447	34.64
390.657	122.71
390.867	112.47
391.076	120.66
391.286	24.4
391.496	128.85
391.705	85.84
391.915	184.15
392.125	114.52
392.334	149.33
392.544	147.28
392.753	108.37
392.963	114.52
393.172	108.37
393.382	118.61
393.591	122.71
393.801	120.66
394.01	173.91
394.22	110.42
394.429	83.8
394.639	118.61
394.848	126.8
395.058	77.65
395.267	100.18
395.477	149.33
395.686	171.86
395.895	143.19
396.105	153.43
396.314	173.91
396.524	81.75
396.733	178
396.942	231.25
397.152	122.71
397.361	198.48
397.57	196.43
397.78	180.05
397.989	126.8
398.198	190.29
398.407	171.86
398.617	128.85
398.826	106.32
399.035	165.71
399.244	126.8
399.453	165.71
399.663	96.08
399.872	118.61
400.081	143.19
400.29	163.67
400.499	132.95
400.708	229.2
400.917	184.15
401.127	210.77
401.336	196.43
401.545	221.01
401.754	180.05
401.963	126.8
402.172	239.44
402.381	163.67
402.59	229.2
402.799	157.52
403.008	147.28
403.217	155.47
403.426	124.76
403.635	218.96
403.844	135
404.053	159.57
404.262	173.91
404.471	223.06
404.68	173.91
404.888	249.68
405.097	204.63
405.306	249.68
405.515	196.43
405.724	235.35
405.933	280.4
406.142	280.4
406.35	327.5
406.559	294.74
406.768	214.87
406.977	413.52
407.185	384.85
407.394	329.55
407.603	216.91
407.812	354.13
408.02	311.12
408.229	307.02
408.438	370.51
408.646	315.22
408.855	323.41
409.064	434
409.272	421.71
409.481	411.47
409.69	507.73
409.898	345.94
410.107	499.53
410.315	397.14
410.524	405.33
410.733	440.14
410.941	536.4
411.15	546.64
411.358	589.64
411.567	589.64
411.775	532.3
411.984	565.07
412.192	614.22
412.401	595.79
412.609	747.34
412.818	794.44
413.026	724.81
413.234	634.7
413.443	722.76
413.651	737.1
413.86	773.96
414.068	769.87
414.276	896.84
414.485	884.55
414.693	933.7
414.901	978.76
415.11	948.04
415.318	954.18
415.526	1040.2
415.734	1040.2
415.943	993.09
416.151	1187.65
416.359	1191.75
416.567	1167.17
416.776	1240.9
416.984	1281.86
417.192	1322.82
417.4	1384.26
417.608	1337.15
417.817	1441.6
418.025	1568.57
418.233	1705.79
418.441	1660.73
418.649	1797.95
418.857	1795.9
419.065	1744.7
419.273	1765.18
419.481	1953.59
419.689	2002.74
419.897	2027.32
420.105	2152.24
420.313	2170.68
420.521	2342.71
420.729	2293.55
420.937	2449.2
421.145	2567.98
421.353	2690.86
421.561	2778.92
421.769	2678.57
421.977	2787.11
422.185	2866.99
422.393	3151.65
422.601	3198.76
422.809	3249.96
423.017	3252
423.224	3378.98
423.432	3508
423.64	3489.57
423.848	3735.32
424.056	3669.79
424.263	4050.71
424.471	3987.22
424.679	4140.82
424.887	4282.13
425.094	4402.96
425.302	4581.14
425.51	4620.05
425.718	4771.6
425.925	4855.56
426.133	4968.2
426.341	5199.62
426.548	5472
426.756	5496.58
426.964	5560.06
427.171	5996.28
427.379	6106.87
427.586	6219.51
427.794	6436.6
428.001	6805.23
428.209	6987.5
428.417	6799.09
428.624	7321.32
428.832	7321.32
429.039	7249.64
429.247	7194.34
429.454	7909.08
429.662	8511.19
429.869	7890.65
430.076	8472.28
430.284	8212.18
430.491	8554.19
430.699	9236.17
430.906	9064.14
431.114	9385.67
431.321	9508.55
431.528	9608.9
431.736	10225.34
431.943	10827.44
432.15	10448.57
432.358	10776.24
432.565	11062.96
432.772	11040.43
432.979	11779.75
433.187	11982.49
433.394	11914.91
433.601	12902.03
433.808	12768.91
434.016	12871.31
434.223	13350.54
434.43	14126.72
434.637	13905.54
434.844	14753.4
435.052	15081.07
435.259	14798.45
435.466	14974.58
435.673	15046.26
435.88	15781.48
436.087	16516.7
436.294	16623.19
436.501	16170.59
436.708	16778.84
436.915	17305.17
437.122	17704.52
437.329	17927.75
437.537	18394.68
437.743	18828.85
437.95	18728.5
438.157	19531.31
438.364	20100.64
438.571	20287.01
438.778	20487.71
438.985	22201.86
439.192	21313.04
439.399	22203.91
439.606	21448.21
439.813	23178.74
440.02	24241.64
440.227	23657.96
440.433	23737.84
440.64	24475.1
440.847	24124.9
441.054	24716.76
441.261	26160.58
441.467	25785.8
441.674	26367.43
441.881	27334.07
442.088	27321.78
442.294	26977.72
442.501	27991.47
442.708	28368.29
442.914	29883.79
443.121	30729.6
443.328	30084.49
443.534	31731.06
443.741	31126.91
443.948	30784.9
444.154	32798.05
444.361	32558.44
444.568	32808.29
444.774	32984.41
444.981	33254.75
445.187	34602.31
445.394	35609.91
445.6	35296.57
445.807	38573.32
446.013	37047.58
446.22	37268.76
446.426	38866.18
446.633	39232.77
446.839	40582.38
447.046	38515.98
447.252	40774.89
447.459	41137.38
447.665	40641.77
447.871	42335.44
448.078	44104.88
448.284	42300.62
448.491	43173.06
448.697	44864.68
448.903	45298.85
449.11	45624.48
449.316	45216.93
449.522	45880.47
449.728	46955.66
449.935	47023.24
450.141	47256.71
450.347	48448.63
450.553	46810.25
450.76	47447.17
450.966	48706.67
451.172	47936.63
451.378	49243.24
451.584	48403.57
451.791	49194.09
451.997	49323.11
452.203	50168.92
452.409	50347.09
452.615	50177.11
452.821	47914.11
453.027	47363.2
453.233	49831
453.44	47506.56
453.646	48548.98
453.852	48358.52
454.058	49192.04
454.264	47412.35
454.47	48901.23
454.676	47430.79
454.882	48884.84
455.088	44713.13
455.294	45530.27
455.5	45743.26
455.705	46650.51
455.911	44969.13
456.117	43785.4
456.323	43410.62
456.529	40901.86
456.735	42982.6
456.941	41407.71
457.147	40867.05
457.352	39896.31
457.558	39439.61
457.764	39255.29
457.97	38487.31
458.176	37780.76
458.381	37776.66
458.587	35996.98
458.793	35949.87
458.999	34301.26
459.204	36443.43
459.41	35867.95
459.616	33611.09
459.821	33414.49
460.027	33056.09
460.233	32404.84
460.438	30975.36
460.644	31427.96
460.85	29891.98
461.055	29633.94
461.261	29468.05
461.466	27248.05
461.672	26701.25
461.878	28290.47
462.083	26109.38
462.289	25824.72
462.494	25896.39
462.7	24704.48
462.905	24010.21
463.111	24714.72
463.316	24667.61
463.522	24376.8
463.727	24481.25
463.932	24393.19
464.138	24139.24
464.343	24036.84
464.549	23606.77
464.754	24331.75
464.959	23903.72
465.165	24120.81
465.37	22742.52
465.575	22437.37
465.781	23199.22
465.986	23338.48
466.191	22459.9
