Data from USB4F104151__229__10-30-17-071.txt Node

Date: Wed Mar 12 10:30:17 EDT 2025
User: louis
Spectrometer: USB4F10415
Trigger mode: 4
Integration Time (sec): 3.000000E-2
Scans to average: 1
Electric dark correction enabled: true
Nonlinearity correction enabled: false
Boxcar width: 0
XAxis mode: Wavelengths
Number of Pixels in Spectrum: 3648
>>>>>Begin Spectral Data<<<<<
178.204	-133.29
178.424	-133.29
178.644	-133.29
178.864	-80.04
179.084	-125.1
179.304	-2.22
179.524	26.45
179.744	-41.13
179.964	5.97
180.184	-16.55
180.404	28.5
180.624	46.93
180.844	-8.36
181.064	-63.66
181.283	18.26
181.503	42.84
181.723	-37.03
181.943	-57.51
182.163	5.97
182.383	57.17
182.602	18.26
182.822	3.93
183.042	26.45
183.262	14.17
183.482	61.27
183.701	75.6
183.921	55.12
184.141	8.02
184.361	65.36
184.58	36.69
184.8	24.4
185.02	-12.46
185.239	98.13
185.459	16.21
185.679	20.31
185.898	96.08
186.118	36.69
186.338	81.75
186.557	61.27
186.777	30.55
186.997	75.6
187.216	1.88
187.436	20.31
187.655	94.04
187.875	34.64
188.095	36.69
188.314	-14.51
188.534	55.12
188.753	114.52
188.973	36.69
189.192	24.4
189.412	-6.31
189.631	-6.31
189.851	87.89
190.07	104.28
190.29	10.07
190.509	96.08
190.729	-67.75
190.948	79.7
191.168	135
191.387	89.94
191.607	5.97
191.826	5.97
192.045	94.04
192.265	94.04
192.484	46.93
192.704	22.36
192.923	36.69
193.142	118.61
193.362	69.46
193.581	32.6
193.8	5.97
194.02	42.84
194.239	12.12
194.458	96.08
194.678	63.32
194.897	44.88
195.116	46.93
195.335	24.4
195.555	-10.41
195.774	48.98
195.993	81.75
196.212	85.84
196.432	34.64
196.651	87.89
196.87	5.97
197.089	96.08
197.308	48.98
197.528	96.08
197.747	-16.55
197.966	24.4
198.185	83.8
198.404	63.32
198.623	94.04
198.842	81.75
199.062	53.08
199.281	73.56
199.5	46.93
199.719	83.8
199.938	-2.22
200.157	40.79
200.376	26.45
200.595	42.84
200.814	98.13
201.033	16.21
201.252	137.04
201.471	77.65
201.69	63.32
201.909	-4.27
202.128	-22.7
202.347	53.08
202.566	8.02
202.785	14.17
203.004	81.75
203.223	182.1
203.442	42.84
203.661	12.12
203.879	122.71
204.098	77.65
204.317	32.6
204.536	34.64
204.755	5.97
204.974	-8.36
205.193	55.12
205.411	81.75
205.63	77.65
205.849	73.56
206.068	14.17
206.287	36.69
206.505	63.32
206.724	73.56
206.943	-45.23
207.162	38.74
207.381	42.84
207.599	71.51
207.818	18.26
208.037	53.08
208.255	46.93
208.474	75.6
208.693	46.93
208.911	53.08
209.13	3.93
209.349	32.6
209.567	12.12
209.786	12.12
210.005	16.21
210.223	28.5
210.442	59.22
210.661	40.79
210.879	16.21
211.098	-53.42
211.316	16.21
211.535	44.88
211.753	-4.27
211.972	77.65
212.191	44.88
212.409	71.51
212.628	104.28
212.846	16.21
213.065	94.04
213.283	34.64
213.502	-0.17
213.72	71.51
213.938	40.79
214.157	24.4
214.375	18.26
214.594	69.46
214.812	65.36
215.031	-8.36
215.249	16.21
215.467	124.76
215.686	24.4
215.904	77.65
216.122	3.93
216.341	61.27
216.559	18.26
216.778	42.84
216.996	77.65
217.214	16.21
217.432	-4.27
217.651	46.93
217.869	26.45
218.087	102.23
218.306	-51.37
218.524	18.26
218.742	55.12
218.96	73.56
219.179	-18.6
219.397	89.94
219.615	81.75
219.833	87.89
220.051	-8.36
220.27	42.84
220.488	46.93
220.706	-8.36
220.924	-37.03
221.142	44.88
221.36	40.79
221.578	73.56
221.796	71.51
222.015	63.32
222.233	69.46
222.451	71.51
222.669	36.69
222.887	65.36
223.105	46.93
223.323	-43.18
223.541	10.07
223.759	42.84
223.977	5.97
224.195	-57.51
224.413	20.31
224.631	55.12
224.849	102.23
225.067	57.17
225.285	53.08
225.503	79.7
225.721	53.08
225.939	30.55
226.157	48.98
226.375	63.32
226.592	-59.56
226.81	46.93
227.028	63.32
227.246	143.19
227.464	8.02
227.682	83.8
227.9	48.98
228.117	10.07
228.335	130.9
228.553	5.97
228.771	36.69
228.989	59.22
229.206	48.98
229.424	65.36
229.642	65.36
229.86	14.17
230.077	40.79
230.295	106.32
230.513	40.79
230.731	53.08
230.948	53.08
231.166	102.23
231.384	44.88
231.601	-37.03
231.819	114.52
232.037	-8.36
232.254	40.79
232.472	87.89
232.689	59.22
232.907	14.17
233.125	77.65
233.342	16.21
233.56	-51.37
233.777	-10.41
233.995	137.04
234.213	83.8
234.43	73.56
234.648	30.55
234.865	63.32
235.083	65.36
235.3	61.27
235.518	81.75
235.735	61.27
235.953	71.51
236.17	14.17
236.388	89.94
236.605	22.36
236.822	83.8
237.04	28.5
237.257	-51.37
237.475	71.51
237.692	42.84
237.909	24.4
238.127	-22.7
238.344	61.27
238.562	61.27
238.779	48.98
238.996	77.65
239.214	40.79
239.431	16.21
239.648	55.12
239.865	30.55
240.083	89.94
240.3	91.99
240.517	48.98
240.735	42.84
240.952	46.93
241.169	139.09
241.386	30.55
241.603	48.98
241.821	-41.13
242.038	65.36
242.255	32.6
242.472	-30.89
242.689	75.6
242.907	114.52
243.124	-28.84
243.341	57.17
243.558	55.12
243.775	32.6
243.992	-26.79
244.209	-10.41
244.426	130.9
244.643	53.08
244.86	16.21
245.078	106.32
245.295	-4.27
245.512	44.88
245.729	10.07
245.946	8.02
246.163	118.61
246.38	10.07
246.597	14.17
246.814	-61.61
247.031	85.84
247.248	63.32
247.464	32.6
247.681	53.08
247.898	59.22
248.115	46.93
248.332	36.69
248.549	38.74
248.766	159.57
248.983	69.46
249.2	40.79
249.417	96.08
249.633	20.31
249.85	44.88
250.067	104.28
250.284	12.12
250.501	40.79
250.717	32.6
250.934	18.26
251.151	67.41
251.368	34.64
251.585	89.94
251.801	44.88
252.018	12.12
252.235	42.84
252.451	69.46
252.668	83.8
252.885	118.61
253.102	-8.36
253.318	112.47
253.535	46.93
253.752	57.17
253.968	44.88
254.185	-39.08
254.401	55.12
254.618	8.02
254.835	100.18
255.051	139.09
255.268	53.08
255.484	75.6
255.701	8.02
255.917	69.46
256.134	42.84
256.351	135
256.567	-75.95
256.784	44.88
257	69.46
257.217	-26.79
257.433	20.31
257.65	63.32
257.866	-0.17
258.082	32.6
258.299	10.07
258.515	10.07
258.732	3.93
258.948	63.32
259.165	26.45
259.381	57.17
259.597	-24.75
259.814	67.41
260.03	14.17
260.246	89.94
260.463	120.66
260.679	24.4
260.895	59.22
261.112	32.6
261.328	16.21
261.544	18.26
261.761	137.04
261.977	38.74
262.193	14.17
262.409	85.84
262.626	91.99
262.842	18.26
263.058	57.17
263.274	139.09
263.49	22.36
263.707	53.08
263.923	-6.31
264.139	22.36
264.355	57.17
264.571	96.08
264.787	40.79
265.004	85.84
265.22	22.36
265.436	55.12
265.652	24.4
265.868	85.84
266.084	65.36
266.3	61.27
266.516	75.6
266.732	-32.94
266.948	55.12
267.164	24.4
267.38	57.17
267.596	22.36
267.812	112.47
268.028	38.74
268.244	73.56
268.46	53.08
268.676	67.41
268.892	1.88
269.108	-2.22
269.324	40.79
269.54	5.97
269.756	73.56
269.972	46.93
270.188	53.08
270.403	-28.84
270.619	69.46
270.835	63.32
271.051	96.08
271.267	20.31
271.483	-6.31
271.698	48.98
271.914	98.13
272.13	59.22
272.346	48.98
272.562	-20.65
272.777	110.42
272.993	-30.89
273.209	5.97
273.425	-41.13
273.64	-24.75
273.856	32.6
274.072	87.89
274.287	96.08
274.503	-6.31
274.719	30.55
274.934	26.45
275.15	5.97
275.366	44.88
275.581	5.97
275.797	69.46
276.012	73.56
276.228	22.36
276.444	16.21
276.659	53.08
276.875	44.88
277.09	-16.55
277.306	-4.27
277.521	32.6
277.737	-0.17
277.952	3.93
278.168	71.51
278.383	89.94
278.599	3.93
278.814	106.32
279.03	-22.7
279.245	143.19
279.461	-37.03
279.676	102.23
279.892	-20.65
280.107	3.93
280.322	36.69
280.538	16.21
280.753	5.97
280.969	132.95
281.184	16.21
281.399	89.94
281.615	-2.22
281.83	36.69
282.045	55.12
282.26	51.03
282.476	79.7
282.691	63.32
282.906	67.41
283.122	48.98
283.337	30.55
283.552	22.36
283.767	24.4
283.983	1.88
284.198	26.45
284.413	130.9
284.628	-43.18
284.843	8.02
285.058	8.02
285.274	18.26
285.489	-6.31
285.704	89.94
285.919	34.64
286.134	59.22
286.349	71.51
286.564	57.17
286.779	69.46
286.995	26.45
287.21	42.84
287.425	42.84
287.64	-0.17
287.855	61.27
288.07	38.74
288.285	120.66
288.5	94.04
288.715	126.8
288.93	100.18
289.145	-39.08
289.36	48.98
289.575	3.93
289.79	32.6
290.004	57.17
290.219	57.17
290.434	-12.46
290.649	53.08
290.864	-92.33
291.079	57.17
291.294	-8.36
291.509	73.56
291.724	89.94
291.938	75.6
292.153	42.84
292.368	-49.32
292.583	87.89
292.798	8.02
293.012	79.7
293.227	57.17
293.442	34.64
293.657	44.88
293.871	102.23
294.086	28.5
294.301	10.07
294.516	16.21
294.73	12.12
294.945	67.41
295.16	-32.94
295.374	98.13
295.589	145.24
295.804	65.36
296.018	-4.27
296.233	44.88
296.447	36.69
296.662	28.5
296.877	71.51
297.091	65.36
297.306	10.07
297.52	-41.13
297.735	63.32
297.949	57.17
298.164	96.08
298.378	42.84
298.593	73.56
298.807	-26.79
299.022	118.61
299.236	44.88
299.451	20.31
299.665	65.36
299.88	26.45
300.094	57.17
300.309	57.17
300.523	40.79
300.737	85.84
300.952	16.21
301.166	100.18
301.381	12.12
301.595	-8.36
301.809	20.31
302.024	1.88
302.238	24.4
302.452	73.56
302.667	73.56
302.881	38.74
303.095	100.18
303.309	-12.46
303.524	14.17
303.738	36.69
303.952	28.5
304.166	-8.36
304.381	48.98
304.595	32.6
304.809	-16.55
305.023	48.98
305.237	-4.27
305.452	61.27
305.666	85.84
305.88	137.04
306.094	26.45
306.308	-32.94
306.522	57.17
306.736	48.98
306.95	20.31
307.164	40.79
307.379	-34.99
307.593	69.46
307.807	139.09
308.021	65.36
308.235	28.5
308.449	-14.51
308.663	130.9
308.877	83.8
309.091	51.03
309.305	110.42
309.519	75.6
309.733	55.12
309.947	24.4
310.161	94.04
310.374	-6.31
310.588	51.03
310.802	16.21
311.016	67.41
311.23	38.74
311.444	8.02
311.658	94.04
311.872	77.65
312.085	79.7
312.299	69.46
312.513	26.45
312.727	96.08
312.941	63.32
313.154	38.74
313.368	-43.18
313.582	71.51
313.796	106.32
314.009	3.93
314.223	38.74
314.437	114.52
314.651	65.36
314.864	3.93
315.078	79.7
315.292	-4.27
315.505	102.23
315.719	44.88
315.933	116.56
316.146	40.79
316.36	3.93
316.573	110.42
316.787	65.36
317.001	79.7
317.214	81.75
317.428	22.36
317.641	-0.17
317.855	81.75
318.068	94.04
318.282	26.45
318.495	141.14
318.709	87.89
318.922	98.13
319.136	100.18
319.349	126.8
319.563	38.74
319.776	85.84
319.99	-4.27
320.203	63.32
320.417	42.84
320.63	83.8
320.843	79.7
321.057	14.17
321.27	71.51
321.483	63.32
321.697	28.5
321.91	57.17
322.124	46.93
322.337	42.84
322.55	38.74
322.763	24.4
322.977	77.65
323.19	-22.7
323.403	-8.36
323.617	-4.27
323.83	61.27
324.043	-37.03
324.256	71.51
324.469	8.02
324.683	81.75
324.896	85.84
325.109	10.07
325.322	-8.36
325.535	91.99
325.748	18.26
325.962	57.17
326.175	48.98
326.388	135
326.601	69.46
326.814	102.23
327.027	104.28
327.24	69.46
327.453	24.4
327.666	55.12
327.879	53.08
328.092	42.84
328.305	77.65
328.518	59.22
328.731	57.17
328.944	120.66
329.157	55.12
329.37	34.64
329.583	98.13
329.796	71.51
330.009	20.31
330.222	73.56
330.435	46.93
330.648	40.79
330.861	87.89
331.073	-2.22
331.286	73.56
331.499	91.99
331.712	55.12
331.925	10.07
332.138	59.22
332.35	71.51
332.563	73.56
332.776	104.28
332.989	36.69
333.202	-0.17
333.414	46.93
333.627	81.75
333.84	-8.36
334.053	149.33
334.265	10.07
334.478	32.6
334.691	-16.55
334.903	46.93
335.116	22.36
335.329	30.55
335.541	65.36
335.754	81.75
335.966	24.4
336.179	73.56
336.392	81.75
336.604	75.6
336.817	77.65
337.029	73.56
337.242	36.69
337.454	69.46
337.667	26.45
337.88	77.65
338.092	8.02
338.305	40.79
338.517	12.12
338.729	124.76
338.942	110.42
339.154	20.31
339.367	67.41
339.579	36.69
339.792	71.51
340.004	96.08
340.217	89.94
340.429	44.88
340.641	36.69
340.854	34.64
341.066	57.17
341.278	81.75
341.491	120.66
341.703	20.31
341.915	12.12
342.128	42.84
342.34	46.93
342.552	44.88
342.764	-26.79
342.977	42.84
343.189	87.89
343.401	57.17
343.613	3.93
343.826	65.36
344.038	26.45
344.25	38.74
344.462	44.88
344.674	85.84
344.886	-0.17
345.099	145.24
345.311	77.65
345.523	18.26
345.735	-0.17
345.947	118.61
346.159	108.37
346.371	46.93
346.583	42.84
346.795	139.09
347.007	-8.36
347.219	40.79
347.431	48.98
347.643	110.42
347.855	-18.6
348.067	48.98
348.279	-80.04
348.491	85.84
348.703	16.21
348.915	69.46
349.127	34.64
349.339	24.4
349.551	38.74
349.763	98.13
349.975	36.69
350.187	51.03
350.399	81.75
350.61	69.46
350.822	-20.65
351.034	102.23
351.246	-10.41
351.458	12.12
351.669	20.31
351.881	85.84
352.093	77.65
352.305	143.19
352.517	46.93
352.728	63.32
352.94	73.56
353.152	24.4
353.363	71.51
353.575	65.36
353.787	75.6
353.999	145.24
354.21	63.32
354.422	-8.36
354.633	-4.27
354.845	104.28
355.057	77.65
355.268	104.28
355.48	120.66
355.692	22.36
355.903	59.22
356.115	10.07
356.326	53.08
356.538	94.04
356.749	46.93
356.961	75.6
357.172	81.75
357.384	5.97
357.595	114.52
357.807	100.18
358.018	73.56
358.23	122.71
358.441	149.33
358.653	128.85
358.864	-0.17
359.075	48.98
359.287	20.31
359.498	91.99
359.709	63.32
359.921	34.64
360.132	94.04
360.344	18.26
360.555	96.08
360.766	18.26
360.977	40.79
361.189	159.57
361.4	98.13
361.611	104.28
361.823	73.56
362.034	96.08
362.245	46.93
362.456	-34.99
362.667	32.6
362.879	124.76
363.09	57.17
363.301	34.64
363.512	55.12
363.723	163.67
363.935	73.56
364.146	98.13
364.357	34.64
364.568	94.04
364.779	83.8
364.99	63.32
365.201	40.79
365.412	106.32
365.623	46.93
365.834	57.17
366.045	44.88
366.256	55.12
366.467	67.41
366.678	46.93
366.889	10.07
367.1	36.69
367.311	77.65
367.522	135
367.733	48.98
367.944	94.04
368.155	53.08
368.366	14.17
368.577	28.5
368.788	77.65
368.999	53.08
369.209	16.21
369.42	130.9
369.631	161.62
369.842	48.98
370.053	57.17
370.264	126.8
370.474	65.36
370.685	38.74
370.896	55.12
371.107	89.94
371.317	48.98
371.528	55.12
371.739	57.17
371.95	153.43
372.16	85.84
372.371	73.56
372.582	106.32
372.792	53.08
373.003	71.51
373.214	69.46
373.424	81.75
373.635	71.51
373.846	89.94
374.056	38.74
374.267	26.45
374.477	110.42
374.688	110.42
374.898	51.03
375.109	110.42
375.319	36.69
375.53	102.23
375.74	149.33
375.951	69.46
376.161	-6.31
376.372	59.22
376.582	40.79
376.793	81.75
377.003	71.51
377.214	51.03
377.424	40.79
377.635	59.22
377.845	114.52
378.055	145.24
378.266	69.46
378.476	110.42
378.686	71.51
378.897	46.93
379.107	57.17
379.317	61.27
379.528	57.17
379.738	100.18
379.948	8.02
380.158	59.22
380.369	-8.36
380.579	83.8
380.789	112.47
380.999	73.56
381.21	73.56
381.42	85.84
381.63	69.46
381.84	157.52
382.05	167.76
382.261	100.18
382.471	48.98
382.681	83.8
382.891	135
383.101	102.23
383.311	-0.17
383.521	96.08
383.731	40.79
383.941	85.84
384.151	40.79
384.361	81.75
384.571	112.47
384.781	104.28
384.991	116.56
385.201	110.42
385.411	79.7
385.621	137.04
385.831	57.17
386.041	94.04
386.251	75.6
386.461	69.46
386.671	89.94
386.881	57.17
387.091	32.6
387.301	87.89
387.511	87.89
387.72	75.6
387.93	91.99
388.14	36.69
388.35	57.17
388.56	81.75
388.769	126.8
388.979	137.04
389.189	34.64
389.399	14.17
389.609	112.47
389.818	38.74
390.028	106.32
390.238	73.56
390.447	147.28
390.657	137.04
390.867	34.64
391.076	61.27
391.286	40.79
391.496	44.88
391.705	48.98
391.915	48.98
392.125	79.7
392.334	102.23
392.544	135
392.753	89.94
392.963	89.94
393.172	126.8
393.382	94.04
393.591	161.62
393.801	-18.6
394.01	118.61
394.22	128.85
394.429	110.42
394.639	89.94
394.848	106.32
395.058	112.47
395.267	61.27
395.477	173.91
395.686	143.19
395.895	110.42
396.105	87.89
396.314	151.38
396.524	87.89
396.733	81.75
396.942	153.43
397.152	94.04
397.361	106.32
397.57	112.47
397.78	147.28
397.989	65.36
398.198	141.14
398.407	147.28
398.617	73.56
398.826	171.86
399.035	128.85
399.244	112.47
399.453	130.9
399.663	151.38
399.872	149.33
400.081	128.85
400.29	178
400.499	139.09
400.708	194.39
400.917	108.37
401.127	94.04
401.336	153.43
401.545	171.86
401.754	151.38
401.963	159.57
402.172	102.23
402.381	59.22
402.59	180.05
402.799	178
403.008	223.06
403.217	94.04
403.426	218.96
403.635	155.47
403.844	259.92
404.053	167.76
404.262	171.86
404.471	188.24
404.68	225.11
404.888	178
405.097	184.15
405.306	208.72
405.515	216.91
405.724	153.43
405.933	180.05
406.142	202.58
406.35	196.43
406.559	245.59
406.768	261.97
406.977	341.84
407.185	253.78
407.394	186.19
407.603	210.77
407.812	329.55
408.02	284.5
408.229	268.11
408.438	282.45
408.646	251.73
408.855	292.69
409.064	399.18
409.272	352.08
409.481	380.75
409.69	292.69
409.898	350.03
410.107	384.85
410.315	376.66
410.524	386.9
410.733	431.95
410.941	339.79
411.15	456.53
411.358	460.62
411.567	446.29
411.775	532.3
411.984	479.05
412.192	483.15
412.401	444.24
412.609	589.64
412.818	565.07
413.026	601.93
413.234	554.83
413.443	573.26
413.651	638.8
413.86	698.19
414.068	667.47
414.276	692.04
414.485	749.39
414.693	780.11
414.901	776.01
415.11	765.77
415.318	862.02
415.526	945.99
415.734	909.13
415.943	937.8
416.151	1066.82
416.359	962.37
416.567	1079.11
416.776	1103.68
416.984	1150.79
417.192	1171.27
417.4	1171.27
417.608	1095.49
417.817	1134.4
418.025	1249.09
418.233	1361.73
418.441	1365.82
418.649	1414.98
418.857	1462.08
419.065	1521.47
419.273	1582.91
419.481	1701.69
419.689	1693.5
419.897	1744.7
420.105	1797.95
420.313	1761.08
420.521	1982.26
420.729	1972.02
420.937	2049.85
421.145	2066.23
421.353	2211.64
421.561	2223.92
421.769	2303.79
421.977	2449.2
422.185	2369.33
422.393	2592.56
422.601	2711.34
422.809	2744.11
423.017	2602.8
423.224	2866.99
423.432	2903.85
423.64	2938.66
423.848	3184.42
424.056	2973.48
424.263	3313.44
424.471	3399.46
424.679	3405.6
424.887	3649.31
425.094	3712.8
425.302	3667.74
425.51	3823.39
425.718	3917.59
425.925	4028.18
426.133	4325.14
426.341	4359.95
426.548	4542.22
426.756	4654.86
426.964	4538.13
427.171	4964.11
427.379	5048.07
427.586	5121.8
427.794	5330.69
428.001	5543.68
428.209	5797.63
428.417	5715.71
428.624	6186.74
428.832	6045.43
429.039	6129.4
429.247	6006.52
429.454	6649.58
429.662	6975.21
429.869	6645.49
430.076	6954.73
430.284	6852.33
430.491	7106.28
430.699	7804.64
430.906	7536.35
431.114	7681.76
431.321	7999.2
431.528	8158.94
431.736	8681.17
431.943	9105.1
432.15	8675.02
432.358	9103.05
432.565	9490.12
432.772	9479.88
432.979	9742.02
433.187	9912
433.394	9948.86
433.601	10665.65
433.808	10739.38
434.016	10653.36
434.223	10970.8
434.43	11648.68
434.637	11622.05
434.844	12095.13
435.052	12594.84
435.259	12465.82
435.466	12402.33
435.673	12265.11
435.88	13084.3
436.087	13739.65
436.294	13850.24
436.501	13526.66
436.708	13700.74
436.915	14083.71
437.122	14999.15
437.329	14696.05
437.537	15367.79
437.743	15498.86
437.95	15447.66
438.157	16295.52
438.364	16887.38
438.571	16840.28
438.778	16832.08
438.985	18380.35
439.192	17841.73
439.399	18406.97
439.606	17735.24
439.813	18878.01
440.02	19748.39
440.227	19654.19
440.433	19387.95
440.64	20248.1
440.847	20008.48
441.054	20665.88
441.261	21990.92
441.467	21474.83
441.674	21827.08
441.881	22906.36
442.088	22808.06
442.294	22423.04
442.501	23170.55
442.708	23385.58
442.914	24438.24
443.121	25525.71
443.328	24866.27
443.534	26396.1
443.741	25849.29
443.948	25316.82
444.154	27159.99
444.361	26963.39
444.568	27061.69
444.774	27307.44
444.981	27655.6
445.187	27979.18
445.394	29468.05
445.6	29224.34
445.807	32001.39
446.013	30694.78
446.22	31135.1
446.426	32247.15
446.633	32253.29
446.839	33629.52
447.046	32263.53
447.252	34028.88
447.459	34094.41
447.665	33768.79
447.871	35546.42
448.078	36932.9
448.284	35106.11
448.491	35783.99
448.697	37295.39
448.903	37944.59
449.11	37885.2
449.316	37315.87
449.522	37782.8
449.728	38776.07
449.935	39451.9
450.141	39306.49
450.347	40453.36
450.553	38593.8
450.76	39208.19
450.966	40174.83
451.172	40039.67
451.378	40635.63
451.584	40248.56
451.791	41454.81
451.997	40985.83
452.203	41538.78
452.409	41477.34
452.615	41526.49
452.821	39464.19
453.027	39120.13
453.233	41333.98
453.44	39322.88
453.646	39816.44
453.852	39769.33
454.058	40994.02
454.264	39683.32
454.47	40197.36
454.676	39445.76
454.882	40852.71
455.088	37233.95
455.294	37653.78
455.5	38339.85
455.705	38616.33
455.911	37229.85
456.117	36545.83
456.323	35949.87
456.529	33793.36
456.735	35689.78
456.941	34383.18
457.147	33916.24
457.352	32888.16
457.558	31993.2
457.764	32871.78
457.97	31937.9
458.176	31319.42
458.381	31161.72
458.587	29898.13
458.793	29482.39
458.999	28427.68
459.204	30127.5
459.41	29468.05
459.616	27395.51
459.821	27389.36
460.027	27559.34
460.233	26754.49
460.438	25533.9
460.644	25738.7
460.85	24677.85
461.055	24090.09
461.261	24286.69
461.466	22502.91
461.672	21843.46
461.878	23291.38
462.083	21841.42
462.289	21601.8
462.494	21173.78
462.7	20280.86
462.905	19775.02
463.111	20586.01
463.316	20530.72
463.522	20117.03
463.727	20241.95
463.932	19885.61
464.138	19861.03
464.343	20078.11
464.549	19183.15
464.754	20233.76
464.959	19627.56
465.165	19897.89
465.37	18935.35
465.575	18423.36
465.781	18953.78
465.986	19047.99
466.191	18531.9
466.397	18343.49
466.602	17245.77
466.807	17991.23
467.012	18042.43
467.218	17923.65
