Data from USB4F104151__92__10-24-29-679.txt Node

Date: Wed Mar 12 10:24:29 EDT 2025
User: louis
Spectrometer: USB4F10415
Trigger mode: 4
Integration Time (sec): 3.000000E-2
Scans to average: 1
Electric dark correction enabled: true
Nonlinearity correction enabled: false
Boxcar width: 0
XAxis mode: Wavelengths
Number of Pixels in Spectrum: 3648
>>>>>Begin Spectral Data<<<<<
178.204	-134.14
178.424	-134.14
178.644	-134.14
178.864	-130.05
179.084	-119.81
179.304	-39.94
179.524	-64.51
179.744	3.07
179.964	-1.02
180.184	58.37
180.404	44.03
180.624	62.46
180.844	33.79
181.064	-27.65
181.283	-60.42
181.503	7.17
181.723	-15.36
181.943	-87.04
182.163	103.42
182.383	60.42
182.602	56.32
182.822	62.46
183.042	39.94
183.262	-27.65
183.482	3.07
183.701	27.65
183.921	82.94
184.141	-1.02
184.361	54.27
184.58	-1.02
184.8	25.6
185.02	13.31
185.239	82.94
185.459	66.56
185.679	5.12
185.898	-74.75
186.118	80.89
186.338	54.27
186.557	46.08
186.777	56.32
186.997	37.89
187.216	-13.31
187.436	66.56
187.655	54.27
187.875	-31.74
188.095	11.26
188.314	33.79
188.534	-9.22
188.753	5.12
188.973	33.79
189.192	56.32
189.412	3.07
189.631	87.04
189.851	-37.89
190.07	95.23
190.29	33.79
190.509	27.65
190.729	21.5
190.948	76.8
191.168	58.37
191.387	54.27
191.607	-48.13
191.826	84.99
192.045	-3.07
192.265	39.94
192.484	50.18
192.704	-29.7
192.923	62.46
193.142	54.27
193.362	44.03
193.581	41.98
193.8	1.02
194.02	62.46
194.239	-29.7
194.458	15.36
194.678	-7.17
194.897	111.61
195.116	29.7
195.335	74.75
195.555	37.89
195.774	48.13
195.993	56.32
196.212	54.27
196.432	62.46
196.651	-17.41
196.87	33.79
197.089	74.75
197.308	13.31
197.528	31.74
197.747	17.41
197.966	29.7
198.185	154.62
198.404	-23.55
198.623	84.99
198.842	27.65
199.062	58.37
199.281	46.08
199.5	31.74
199.719	21.5
199.938	113.66
200.157	117.76
200.376	-27.65
200.595	39.94
200.814	54.27
201.033	62.46
201.252	46.08
201.471	31.74
201.69	99.33
201.909	35.84
202.128	48.13
202.347	109.57
202.566	-11.26
202.785	13.31
203.004	97.28
203.223	109.57
203.442	-39.94
203.661	27.65
203.879	58.37
204.098	56.32
204.317	-29.7
204.536	37.89
204.755	37.89
204.974	68.61
205.193	-7.17
205.411	87.04
205.63	44.03
205.849	15.36
206.068	50.18
206.287	17.41
206.505	68.61
206.724	54.27
206.943	13.31
207.162	15.36
207.381	84.99
207.599	72.7
207.818	-21.5
208.037	3.07
208.255	21.5
208.474	52.22
208.693	44.03
208.911	117.76
209.13	119.81
209.349	50.18
209.567	125.95
209.786	5.12
210.005	113.66
210.223	89.09
210.442	48.13
210.661	82.94
210.879	9.22
211.098	1.02
211.316	17.41
211.535	64.51
211.753	-5.12
211.972	31.74
212.191	-44.03
212.409	89.09
212.628	62.46
212.846	-29.7
213.065	54.27
213.283	87.04
213.502	33.79
213.72	48.13
213.938	-9.22
214.157	-19.46
214.375	-9.22
214.594	60.42
214.812	-5.12
215.031	-5.12
215.249	-19.46
215.467	21.5
215.686	27.65
215.904	74.75
216.122	13.31
216.341	23.55
216.559	95.23
216.778	101.37
216.996	17.41
217.214	19.46
217.432	52.22
217.651	13.31
217.869	15.36
218.087	-1.02
218.306	46.08
218.524	93.18
218.742	74.75
218.96	9.22
219.179	-21.5
219.397	87.04
219.615	52.22
219.833	82.94
220.051	13.31
220.27	31.74
220.488	54.27
220.706	19.46
220.924	-15.36
221.142	23.55
221.36	9.22
221.578	99.33
221.796	39.94
222.015	60.42
222.233	35.84
222.451	33.79
222.669	1.02
222.887	89.09
223.105	-27.65
223.323	-74.75
223.541	7.17
223.759	78.85
223.977	19.46
224.195	33.79
224.413	66.56
224.631	-62.46
224.849	91.13
225.067	-3.07
225.285	44.03
225.503	23.55
225.721	-15.36
225.939	84.99
226.157	99.33
226.375	136.19
226.592	-64.51
226.81	-48.13
227.028	76.8
227.246	111.61
227.464	3.07
227.682	21.5
227.9	84.99
228.117	41.98
228.335	9.22
228.553	54.27
228.771	21.5
228.989	76.8
229.206	46.08
229.424	72.7
229.642	3.07
229.86	56.32
230.077	78.85
230.295	105.47
230.513	46.08
230.731	21.5
230.948	119.81
231.166	39.94
231.384	29.7
231.601	-52.22
231.819	76.8
232.037	-13.31
232.254	-5.12
232.472	21.5
232.689	58.37
232.907	107.52
233.125	60.42
233.342	9.22
233.56	21.5
233.777	-13.31
233.995	105.47
234.213	66.56
234.43	1.02
234.648	-21.5
234.865	29.7
235.083	119.81
235.3	60.42
235.518	103.42
235.735	68.61
235.953	56.32
236.17	-11.26
236.388	19.46
236.605	35.84
236.822	91.13
237.04	52.22
237.257	33.79
237.475	9.22
237.692	-15.36
237.909	-29.7
238.127	44.03
238.344	66.56
238.562	-31.74
238.779	-31.74
238.996	33.79
239.214	46.08
239.431	107.52
239.648	41.98
239.865	21.5
240.083	60.42
240.3	64.51
240.517	62.46
240.735	7.17
240.952	80.89
241.169	136.19
241.386	41.98
241.603	15.36
241.821	7.17
242.038	107.52
242.255	99.33
242.472	17.41
242.689	19.46
242.907	-33.79
243.124	35.84
243.341	-56.32
243.558	25.6
243.775	-27.65
243.992	-13.31
244.209	1.02
244.426	35.84
244.643	95.23
244.86	-3.07
245.078	52.22
245.295	119.81
245.512	48.13
245.729	31.74
245.946	54.27
246.163	41.98
246.38	80.89
246.597	17.41
246.814	-3.07
247.031	23.55
247.248	37.89
247.464	9.22
247.681	103.42
247.898	74.75
248.115	58.37
248.332	13.31
248.549	37.89
248.766	93.18
248.983	5.12
249.2	-11.26
249.417	68.61
249.633	5.12
249.85	74.75
250.067	-3.07
250.284	-7.17
250.501	3.07
250.717	46.08
250.934	-50.18
251.151	54.27
251.368	54.27
251.585	7.17
251.801	70.65
252.018	62.46
252.235	128
252.451	31.74
252.668	-3.07
252.885	95.23
253.102	25.6
253.318	3.07
253.535	29.7
253.752	7.17
253.968	19.46
254.185	-15.36
254.401	-7.17
254.618	-52.22
254.835	7.17
255.051	39.94
255.268	17.41
255.484	50.18
255.701	93.18
255.917	54.27
256.134	164.86
256.351	-9.22
256.567	-25.6
256.784	31.74
257	44.03
257.217	119.81
257.433	25.6
257.65	173.05
257.866	7.17
258.082	19.46
258.299	-66.56
258.515	-37.89
258.732	29.7
258.948	7.17
259.165	-11.26
259.381	82.94
259.597	15.36
259.814	11.26
260.03	-5.12
260.246	115.71
260.463	103.42
260.679	72.7
260.895	64.51
261.112	19.46
261.328	-15.36
261.544	13.31
261.761	154.62
261.977	39.94
262.193	-52.22
262.409	70.65
262.626	21.5
262.842	19.46
263.058	-5.12
263.274	35.84
263.49	95.23
263.707	93.18
263.923	60.42
264.139	5.12
264.355	37.89
264.571	128
264.787	46.08
265.004	46.08
265.22	44.03
265.436	-27.65
265.652	89.09
265.868	78.85
266.084	31.74
266.3	-17.41
266.516	72.7
266.732	50.18
266.948	58.37
267.164	37.89
267.38	91.13
267.596	33.79
267.812	93.18
268.028	27.65
268.244	31.74
268.46	-3.07
268.676	78.85
268.892	50.18
269.108	-66.56
269.324	-9.22
269.54	41.98
269.756	91.13
269.972	66.56
270.188	54.27
270.403	-11.26
270.619	123.9
270.835	17.41
271.051	52.22
271.267	50.18
271.483	23.55
271.698	52.22
271.914	35.84
272.13	66.56
272.346	82.94
272.562	125.95
272.777	60.42
272.993	48.13
273.209	95.23
273.425	84.99
273.64	-46.08
273.856	95.23
274.072	62.46
274.287	29.7
274.503	29.7
274.719	46.08
274.934	52.22
275.15	33.79
275.366	58.37
275.581	21.5
275.797	82.94
276.012	-33.79
276.228	19.46
276.444	13.31
276.659	89.09
276.875	31.74
277.09	56.32
277.306	-3.07
277.521	64.51
277.737	95.23
277.952	74.75
278.168	37.89
278.383	-7.17
278.599	121.85
278.814	1.02
279.03	7.17
279.245	117.76
279.461	48.13
279.676	37.89
279.892	-5.12
280.107	-11.26
280.322	50.18
280.538	91.13
280.753	-19.46
280.969	107.52
281.184	7.17
281.399	64.51
281.615	17.41
281.83	82.94
282.045	-23.55
282.26	33.79
282.476	70.65
282.691	64.51
282.906	15.36
283.122	13.31
283.337	1.02
283.552	31.74
283.767	44.03
283.983	66.56
284.198	35.84
284.413	84.99
284.628	-60.42
284.843	27.65
285.058	48.13
285.274	-9.22
285.489	70.65
285.704	7.17
285.919	41.98
286.134	-23.55
286.349	-29.7
286.564	39.94
286.779	52.22
286.995	15.36
287.21	-7.17
287.425	54.27
287.64	64.51
287.855	62.46
288.07	9.22
288.285	64.51
288.5	46.08
288.715	82.94
288.93	74.75
289.145	-21.5
289.36	41.98
289.575	7.17
289.79	152.57
290.004	48.13
290.219	76.8
290.434	78.85
290.649	-19.46
290.864	52.22
291.079	1.02
291.294	70.65
291.509	103.42
291.724	23.55
291.938	25.6
292.153	44.03
292.368	41.98
292.583	62.46
292.798	66.56
293.012	33.79
293.227	50.18
293.442	58.37
293.657	70.65
293.871	125.95
294.086	33.79
294.301	160.77
294.516	60.42
294.73	80.89
294.945	-25.6
295.16	5.12
295.374	111.61
295.589	78.85
295.804	37.89
296.018	62.46
296.233	25.6
296.447	78.85
296.662	54.27
296.877	109.57
297.091	48.13
297.306	13.31
297.52	19.46
297.735	72.7
297.949	80.89
298.164	117.76
298.378	23.55
298.593	9.22
298.807	11.26
299.022	68.61
299.236	87.04
299.451	21.5
299.665	60.42
299.88	95.23
300.094	132.09
300.309	113.66
300.523	21.5
300.737	19.46
300.952	66.56
301.166	87.04
301.381	1.02
301.595	-11.26
301.809	72.7
302.024	-3.07
302.238	21.5
302.452	19.46
302.667	82.94
302.881	109.57
303.095	72.7
303.309	39.94
303.524	60.42
303.738	82.94
303.952	-9.22
304.166	41.98
304.381	84.99
304.595	128
304.809	-35.84
305.023	-23.55
305.237	1.02
305.452	93.18
305.666	95.23
305.88	37.89
306.094	52.22
306.308	35.84
306.522	78.85
306.736	-11.26
306.95	78.85
307.164	11.26
307.379	119.81
307.593	33.79
307.807	62.46
308.021	164.86
308.235	52.22
308.449	54.27
308.663	9.22
308.877	95.23
309.091	76.8
309.305	21.5
309.519	1.02
309.733	113.66
309.947	31.74
310.161	29.7
310.374	48.13
310.588	50.18
310.802	-31.74
311.016	95.23
311.23	46.08
311.444	70.65
311.658	93.18
311.872	52.22
312.085	146.43
312.299	115.71
312.513	115.71
312.727	-46.08
312.941	76.8
313.154	17.41
313.368	82.94
313.582	70.65
313.796	46.08
314.009	41.98
314.223	173.05
314.437	41.98
314.651	66.56
314.864	11.26
315.078	64.51
315.292	27.65
315.505	17.41
315.719	17.41
315.933	25.6
316.146	46.08
316.36	29.7
316.573	87.04
316.787	33.79
317.001	68.61
317.214	44.03
317.428	101.37
317.641	-31.74
317.855	48.13
318.068	62.46
318.282	82.94
318.495	54.27
318.709	87.04
318.922	50.18
319.136	15.36
319.349	56.32
319.563	9.22
319.776	58.37
319.99	46.08
320.203	58.37
320.417	-11.26
320.63	35.84
320.843	111.61
321.057	50.18
321.27	-5.12
321.483	84.99
321.697	115.71
321.91	19.46
322.124	37.89
322.337	11.26
322.55	25.6
322.763	93.18
322.977	11.26
323.19	37.89
323.403	-1.02
323.617	74.75
323.83	70.65
324.043	68.61
324.256	-46.08
324.469	-5.12
324.683	89.09
324.896	70.65
325.109	13.31
325.322	-50.18
325.535	72.7
325.748	46.08
325.962	5.12
326.175	-1.02
326.388	33.79
326.601	50.18
326.814	31.74
327.027	15.36
327.24	148.48
327.453	70.65
327.666	21.5
327.879	25.6
328.092	68.61
328.305	3.07
328.518	5.12
328.731	113.66
328.944	82.94
329.157	91.13
329.37	138.24
329.583	72.7
329.796	78.85
330.009	58.37
330.222	62.46
330.435	82.94
330.648	-15.36
330.861	44.03
331.073	134.14
331.286	66.56
331.499	134.14
331.712	19.46
331.925	-21.5
332.138	-9.22
332.35	62.46
332.563	1.02
332.776	125.95
332.989	39.94
333.202	11.26
333.414	58.37
333.627	74.75
333.84	48.13
334.053	62.46
334.265	5.12
334.478	74.75
334.691	46.08
334.903	-3.07
335.116	37.89
335.329	21.5
335.541	21.5
335.754	93.18
335.966	56.32
336.179	-44.03
336.392	62.46
336.604	11.26
336.817	97.28
337.029	39.94
337.242	46.08
337.454	44.03
337.667	115.71
337.88	48.13
338.092	97.28
338.305	-7.17
338.517	46.08
338.729	128
338.942	64.51
339.154	50.18
339.367	-27.65
339.579	95.23
339.792	9.22
340.004	103.42
340.217	27.65
340.429	-3.07
340.641	95.23
340.854	56.32
341.066	52.22
341.278	62.46
341.491	82.94
341.703	48.13
341.915	39.94
342.128	78.85
342.34	56.32
342.552	-13.31
342.764	103.42
342.977	76.8
343.189	-11.26
343.401	76.8
343.613	-29.7
343.826	7.17
344.038	44.03
344.25	46.08
344.462	78.85
344.674	87.04
344.886	11.26
345.099	29.7
345.311	50.18
345.523	44.03
345.735	62.46
345.947	-44.03
346.159	76.8
346.371	41.98
346.583	64.51
346.795	125.95
347.007	39.94
347.219	72.7
347.431	5.12
347.643	60.42
347.855	148.48
348.067	93.18
348.279	-1.02
348.491	82.94
348.703	33.79
348.915	-23.55
349.127	-9.22
349.339	82.94
349.551	-62.46
349.763	82.94
349.975	66.56
350.187	91.13
350.399	54.27
350.61	46.08
350.822	62.46
351.034	46.08
351.246	91.13
351.458	107.52
351.669	50.18
351.881	89.09
352.093	84.99
352.305	-15.36
352.517	82.94
352.728	123.9
352.94	95.23
353.152	46.08
353.363	105.47
353.575	68.61
353.787	60.42
353.999	121.85
354.21	78.85
354.422	48.13
354.633	54.27
354.845	23.55
355.057	80.89
355.268	111.61
355.48	119.81
355.692	44.03
355.903	82.94
356.115	27.65
356.326	37.89
356.538	50.18
356.749	29.7
356.961	72.7
357.172	82.94
357.384	91.13
357.595	33.79
357.807	70.65
358.018	15.36
358.23	21.5
358.441	119.81
358.653	76.8
358.864	9.22
359.075	101.37
359.287	103.42
359.498	134.14
359.709	37.89
359.921	87.04
360.132	54.27
360.344	46.08
360.555	48.13
360.766	138.24
360.977	74.75
361.189	123.9
361.4	58.37
361.611	70.65
361.823	78.85
362.034	107.52
362.245	80.89
362.456	66.56
362.667	44.03
362.879	46.08
363.09	56.32
363.301	103.42
363.512	134.14
363.723	48.13
363.935	-25.6
364.146	117.76
364.357	44.03
364.568	87.04
364.779	27.65
364.99	58.37
365.201	109.57
365.412	74.75
365.623	1.02
365.834	130.05
366.045	115.71
366.256	128
366.467	17.41
366.678	99.33
366.889	-29.7
367.1	80.89
367.311	125.95
367.522	60.42
367.733	91.13
367.944	41.98
368.155	44.03
368.366	54.27
368.577	84.99
368.788	41.98
368.999	29.7
369.209	27.65
369.42	134.14
369.631	62.46
369.842	117.76
370.053	-27.65
370.264	41.98
370.474	17.41
370.685	95.23
370.896	78.85
371.107	64.51
371.317	74.75
371.528	54.27
371.739	95.23
371.95	50.18
372.16	33.79
372.371	37.89
372.582	41.98
372.792	62.46
373.003	1.02
373.214	70.65
373.424	15.36
373.635	56.32
373.846	109.57
374.056	80.89
374.267	82.94
374.477	105.47
374.688	50.18
374.898	54.27
375.109	54.27
375.319	44.03
375.53	89.09
375.74	72.7
375.951	52.22
376.161	62.46
376.372	37.89
376.582	13.31
376.793	130.05
377.003	62.46
377.214	52.22
377.424	44.03
377.635	107.52
377.845	46.08
378.055	93.18
378.266	72.7
378.476	113.66
378.686	101.37
378.897	134.14
379.107	101.37
379.317	87.04
379.528	37.89
379.738	56.32
379.948	46.08
380.158	70.65
380.369	31.74
380.579	9.22
380.789	66.56
380.999	87.04
381.21	52.22
381.42	72.7
381.63	54.27
381.84	68.61
382.05	128
382.261	82.94
382.471	21.5
382.681	64.51
382.891	123.9
383.101	134.14
383.311	93.18
383.521	76.8
383.731	84.99
383.941	99.33
384.151	70.65
384.361	25.6
384.571	101.37
384.781	58.37
384.991	117.76
385.201	70.65
385.411	132.09
385.621	70.65
385.831	-46.08
386.041	25.6
386.251	70.65
386.461	76.8
386.671	50.18
386.881	23.55
387.091	78.85
387.301	205.82
387.511	11.26
387.72	130.05
387.93	46.08
388.14	99.33
388.35	52.22
388.56	115.71
388.769	113.66
388.979	62.46
389.189	52.22
389.399	25.6
389.609	74.75
389.818	54.27
390.028	70.65
390.238	13.31
390.447	80.89
390.657	60.42
390.867	70.65
391.076	62.46
391.286	-5.12
391.496	82.94
391.705	66.56
391.915	68.61
392.125	99.33
392.334	105.47
392.544	125.95
392.753	44.03
392.963	82.94
393.172	60.42
393.382	136.19
393.591	171.01
393.801	46.08
394.01	113.66
394.22	123.9
394.429	37.89
394.639	76.8
394.848	68.61
395.058	58.37
395.267	109.57
395.477	103.42
395.686	68.61
395.895	171.01
396.105	214.01
396.314	107.52
396.524	58.37
396.733	29.7
396.942	148.48
397.152	201.72
397.361	99.33
397.57	134.14
397.78	166.91
397.989	158.72
398.198	218.11
398.407	177.15
398.617	91.13
398.826	101.37
399.035	76.8
399.244	234.49
399.453	128
399.663	74.75
399.872	197.63
400.081	74.75
400.29	158.72
400.499	144.38
400.708	152.57
400.917	134.14
401.127	142.33
401.336	97.28
401.545	171.01
401.754	177.15
401.963	168.96
402.172	132.09
402.381	146.43
402.59	119.81
402.799	144.38
403.008	168.96
403.217	132.09
403.426	162.81
403.635	119.81
403.844	164.86
404.053	107.52
404.262	138.24
404.471	209.92
404.68	185.34
404.888	158.72
405.097	222.2
405.306	199.68
405.515	252.92
405.724	156.67
405.933	254.97
406.142	230.4
406.35	254.97
406.559	138.24
406.768	226.3
406.977	205.82
407.185	324.6
407.394	250.88
407.603	224.25
407.812	275.45
408.02	365.56
408.229	338.94
408.438	230.4
408.646	302.08
408.855	295.93
409.064	312.32
409.272	322.56
409.481	273.4
409.69	287.74
409.898	322.56
410.107	359.42
410.315	388.09
410.524	340.99
410.733	422.91
410.941	381.95
411.15	375.8
411.358	453.63
411.567	453.63
411.775	560.12
411.984	435.19
412.192	525.3
412.401	611.32
412.609	560.12
412.818	599.03
413.026	607.22
413.234	621.56
413.443	617.46
413.651	685.05
413.86	701.43
414.068	775.16
414.276	775.16
414.485	738.29
414.693	873.46
414.901	816.12
415.11	814.07
415.318	859.12
415.526	910.32
415.734	914.42
415.943	967.67
416.151	1010.67
416.359	1029.1
416.567	1043.44
416.776	1068.02
416.984	1143.79
417.192	1117.17
417.4	1102.83
417.608	1223.66
417.817	1291.24
418.025	1299.44
418.233	1450.99
418.441	1393.64
418.649	1463.27
418.857	1520.62
419.065	1528.81
419.273	1508.33
419.481	1698.79
419.689	1672.17
419.897	1760.23
420.105	1868.77
420.313	2026.47
420.521	1901.54
420.729	2012.13
420.937	2008.03
421.145	2085.86
421.353	2216.93
421.561	2231.26
421.769	2296.8
421.977	2341.85
422.185	2470.87
422.393	2700.25
422.601	2665.43
422.809	2730.97
423.017	2862.04
423.224	2843.6
423.432	2950.1
423.64	2968.53
423.848	3277.77
424.056	3142.61
424.263	3462.09
424.471	3353.55
424.679	3406.8
424.887	3656.65
425.094	3800.01
425.302	3826.63
425.51	3957.7
425.718	4017.09
425.925	4103.11
426.133	4115.39
426.341	4608.95
426.548	4645.82
426.756	4694.97
426.964	4815.8
427.171	4940.72
427.379	5088.18
427.586	5319.6
427.794	5538.73
428.001	5596.07
428.209	5944.23
428.417	5845.93
428.624	6202.27
428.832	6316.96
429.039	6259.62
429.247	6181.79
429.454	6876.06
429.662	7113.62
429.869	6697.88
430.076	7291.79
430.284	6994.84
430.491	7269.27
430.699	7676.81
430.906	7891.85
431.114	8072.07
431.321	8162.18
431.528	8348.54
431.736	8745.85
431.943	9368.43
432.15	8956.79
432.358	9147.25
432.565	9337.71
432.772	9579.37
432.979	10001.26
433.187	10195.81
433.394	10226.53
433.601	10949.46
433.808	10959.7
434.016	10879.83
434.223	11522.9
434.43	11998.02
434.637	11932.49
434.844	12526.4
435.052	12763.97
435.259	12704.57
435.466	12643.14
435.673	12798.78
435.88	13562.67
436.087	14334.76
436.294	14134.06
436.501	13564.72
436.708	14213.93
436.915	14588.71
437.122	15463.19
437.329	15264.54
437.537	15641.36
437.743	15911.69
437.95	15758.1
438.157	16642.82
438.364	17093.37
438.571	17328.89
438.778	17279.74
438.985	19174.11
439.192	18354.92
439.399	18739.94
439.606	18250.47
439.813	19446.49
440.02	20656.84
440.227	20142.8
440.433	19813.07
440.64	20619.97
440.847	20284.11
441.054	20726.47
441.261	22448.81
441.467	22031.02
441.674	22346.41
441.881	22839.97
442.088	23343.77
442.294	22876.83
442.501	23730.84
442.708	24009.36
442.914	24906.37
443.121	26266.22
443.328	25447.04
443.534	27306.59
443.741	26098.29
443.948	26253.94
444.154	27841.11
444.361	27425.37
444.568	27957.85
444.774	27849.3
444.981	28277.33
445.187	28869.19
445.394	30456.37
445.6	29792.83
445.807	32807.44
446.013	31332.9
446.22	31922.71
446.426	32858.63
446.633	33380.87
446.839	34529.78
447.046	33270.28
447.252	34552.3
447.459	34742.77
447.665	34789.87
447.871	36233.69
448.078	37407.17
448.284	35932.64
448.491	36530.64
448.697	38459.83
448.903	38521.27
449.11	39020.97
449.316	38074.81
449.522	38900.14
449.728	39958.94
449.935	39748
450.141	39854.5
450.347	40966.54
450.553	39563.68
450.76	40051.1
450.966	41064.85
451.172	40436.12
451.378	41687.43
451.584	40892.82
451.791	41830.79
451.997	41386.38
452.203	41920.9
452.409	42101.12
452.615	42226.04
452.821	41062.8
453.027	40065.44
453.233	42267
453.44	40192.41
453.646	41025.93
453.852	40950.16
454.058	41509.25
454.264	40069.53
454.47	41236.87
454.676	40149.4
454.882	41494.92
455.088	37857.73
455.294	38146.49
455.5	38818.22
455.705	39020.97
455.911	37693.89
456.117	36704.72
456.323	36028.89
456.529	34441.71
456.735	36084.19
456.941	35068.39
457.147	34740.72
457.352	33362.43
457.558	32780.81
457.764	33243.65
457.97	31984.15
458.176	31537.69
458.381	31830.55
458.587	30022.2
458.793	30214.71
458.999	28342.86
459.204	30411.31
459.41	29850.17
459.616	27587.16
459.821	27603.55
460.027	27667.03
460.233	27122.27
460.438	25645.69
460.644	26120.82
460.85	24953.48
461.055	24502.92
461.261	24412.81
461.466	22690.47
461.672	21842.61
461.878	23487.13
462.083	22002.35
462.289	21676.73
462.494	21697.2
462.7	20357.83
462.905	19768.02
463.111	20624.07
463.316	20550.34
463.522	20085.45
463.727	20067.02
463.932	19999.44
464.138	19911.38
464.343	20181.71
464.549	19524.31
464.754	20208.33
464.959	19825.36
465.165	19966.67
465.37	19210.97
465.575	18483.94
465.781	19155.68
465.986	19241.69
466.191	18703.07
466.397	18299.62
466.602	17339.13
466.807	17953.52
467.012	18207.47
467.218	18080.49
