Data from USB4F104151__51__10-23-41-894.txt Node

Date: Wed Mar 12 10:23:41 EDT 2025
User: louis
Spectrometer: USB4F10415
Trigger mode: 4
Integration Time (sec): 3.000000E-2
Scans to average: 1
Electric dark correction enabled: true
Nonlinearity correction enabled: false
Boxcar width: 0
XAxis mode: Wavelengths
Number of Pixels in Spectrum: 3648
>>>>>Begin Spectral Data<<<<<
178.204	-151.55
178.424	-151.55
178.644	-151.55
178.864	-110.59
179.084	-51.2
179.304	-20.48
179.524	-26.62
179.744	-6.14
179.964	-8.19
180.184	-10.24
180.404	49.15
180.624	32.77
180.844	-71.68
181.064	-24.58
181.283	2.05
181.503	53.25
181.723	30.72
181.943	-30.72
182.163	49.15
182.383	-20.48
182.602	83.97
182.822	83.97
183.042	-10.24
183.262	36.86
183.482	30.72
183.701	61.44
183.921	24.58
184.141	90.11
184.361	53.25
184.58	-49.15
184.8	92.16
185.02	79.87
185.239	83.97
185.459	53.25
185.679	100.35
185.898	40.96
186.118	47.1
186.338	57.34
186.557	73.73
186.777	40.96
186.997	75.77
187.216	43.01
187.436	12.29
187.655	12.29
187.875	-6.14
188.095	10.24
188.314	61.44
188.534	59.39
188.753	-6.14
188.973	28.67
189.192	65.53
189.412	-0
189.631	67.58
189.851	-22.53
190.07	65.53
190.29	18.43
190.509	-36.86
190.729	83.97
190.948	16.38
191.168	206.84
191.387	53.25
191.607	10.24
191.826	-0
192.045	20.48
192.265	110.59
192.484	43.01
192.704	4.1
192.923	34.82
193.142	110.59
193.362	14.34
193.581	102.4
193.8	36.86
194.02	32.77
194.239	45.06
194.458	100.35
194.678	-4.1
194.897	55.3
195.116	32.77
195.335	-6.14
195.555	63.49
195.774	36.86
195.993	83.97
196.212	53.25
196.432	4.1
196.651	24.58
196.87	-16.38
197.089	34.82
197.308	2.05
197.528	-16.38
197.747	59.39
197.966	28.67
198.185	96.25
198.404	-0
198.623	77.82
198.842	73.73
199.062	77.82
199.281	73.73
199.5	67.58
199.719	43.01
199.938	51.2
200.157	110.59
200.376	-22.53
200.595	73.73
200.814	2.05
201.033	61.44
201.252	67.58
201.471	55.3
201.69	92.16
201.909	63.49
202.128	-12.29
202.347	24.58
202.566	24.58
202.785	-0
203.004	20.48
203.223	47.1
203.442	24.58
203.661	65.53
203.879	53.25
204.098	20.48
204.317	-49.15
204.536	79.87
204.755	26.62
204.974	18.43
205.193	110.59
205.411	139.26
205.63	47.1
205.849	6.14
206.068	53.25
206.287	4.1
206.505	14.34
206.724	86.01
206.943	-2.05
207.162	-26.62
207.381	-10.24
207.599	71.68
207.818	57.34
208.037	40.96
208.255	43.01
208.474	57.34
208.693	14.34
208.911	12.29
209.13	49.15
209.349	51.2
209.567	92.16
209.786	26.62
210.005	-14.34
210.223	36.86
210.442	36.86
210.661	159.74
210.879	6.14
211.098	61.44
211.316	40.96
211.535	75.77
211.753	67.58
211.972	73.73
212.191	16.38
212.409	18.43
212.628	12.29
212.846	-28.67
213.065	67.58
213.283	2.05
213.502	20.48
213.72	34.82
213.938	59.39
214.157	8.19
214.375	6.14
214.594	2.05
214.812	-24.58
215.031	-24.58
215.249	-8.19
215.467	40.96
215.686	104.45
215.904	12.29
216.122	16.38
216.341	200.7
216.559	98.3
216.778	81.92
216.996	55.3
217.214	71.68
217.432	114.69
217.651	-12.29
217.869	-0
218.087	22.53
218.306	53.25
218.524	26.62
218.742	26.62
218.96	38.91
219.179	10.24
219.397	20.48
219.615	51.2
219.833	24.58
220.051	81.92
220.27	34.82
220.488	120.83
220.706	114.69
220.924	32.77
221.142	12.29
221.36	28.67
221.578	2.05
221.796	53.25
222.015	40.96
222.233	-24.58
222.451	40.96
222.669	28.67
222.887	90.11
223.105	-8.19
223.323	77.82
223.541	-18.43
223.759	40.96
223.977	10.24
224.195	36.86
224.413	61.44
224.631	75.77
224.849	86.01
225.067	75.77
225.285	-49.15
225.503	81.92
225.721	4.1
225.939	36.86
226.157	88.06
226.375	120.83
226.592	-40.96
226.81	-18.43
227.028	61.44
227.246	135.17
227.464	24.58
227.682	53.25
227.9	83.97
228.117	69.63
228.335	28.67
228.553	22.53
228.771	40.96
228.989	90.11
229.206	18.43
229.424	18.43
229.642	22.53
229.86	-28.67
230.077	43.01
230.295	98.3
230.513	49.15
230.731	81.92
230.948	77.82
231.166	94.21
231.384	22.53
231.601	47.1
231.819	75.77
232.037	45.06
232.254	59.39
232.472	6.14
232.689	4.1
232.907	106.49
233.125	81.92
233.342	116.73
233.56	43.01
233.777	65.53
233.995	45.06
234.213	28.67
234.43	38.91
234.648	-34.82
234.865	34.82
235.083	57.34
235.3	18.43
235.518	61.44
235.735	100.35
235.953	151.55
236.17	69.63
236.388	53.25
236.605	12.29
236.822	40.96
237.04	2.05
237.257	26.62
237.475	83.97
237.692	10.24
237.909	18.43
238.127	24.58
238.344	106.49
238.562	118.78
238.779	-8.19
238.996	40.96
239.214	40.96
239.431	77.82
239.648	-10.24
239.865	10.24
240.083	49.15
240.3	71.68
240.517	8.19
240.735	81.92
240.952	26.62
241.169	83.97
241.386	69.63
241.603	-22.53
241.821	-14.34
242.038	4.1
242.255	43.01
242.472	51.2
242.689	43.01
242.907	65.53
243.124	45.06
243.341	55.3
243.558	59.39
243.775	-32.77
243.992	57.34
244.209	75.77
244.426	47.1
244.643	96.25
244.86	-18.43
245.078	51.2
245.295	96.25
245.512	36.86
245.729	24.58
245.946	81.92
246.163	26.62
246.38	22.53
246.597	24.58
246.814	67.58
247.031	57.34
247.248	-14.34
247.464	88.06
247.681	-36.86
247.898	118.78
248.115	86.01
248.332	69.63
248.549	59.39
248.766	30.72
248.983	26.62
249.2	20.48
249.417	63.49
249.633	14.34
249.85	116.73
250.067	12.29
250.284	100.35
250.501	61.44
250.717	88.06
250.934	61.44
251.151	8.19
251.368	4.1
251.585	-14.34
251.801	-18.43
252.018	28.67
252.235	67.58
252.451	22.53
252.668	-4.1
252.885	26.62
253.102	86.01
253.318	81.92
253.535	24.58
253.752	28.67
253.968	53.25
254.185	36.86
254.401	4.1
254.618	47.1
254.835	-6.14
255.051	79.87
255.268	22.53
255.484	12.29
255.701	28.67
255.917	18.43
256.134	32.77
256.351	-14.34
256.567	-14.34
256.784	26.62
257	36.86
257.217	40.96
257.433	45.06
257.65	28.67
257.866	-14.34
258.082	55.3
258.299	2.05
258.515	20.48
258.732	73.73
258.948	38.91
259.165	34.82
259.381	110.59
259.597	65.53
259.814	-4.1
260.03	32.77
260.246	53.25
260.463	-4.1
260.679	45.06
260.895	24.58
261.112	81.92
261.328	-6.14
261.544	77.82
261.761	118.78
261.977	32.77
262.193	100.35
262.409	-57.34
262.626	122.88
262.842	94.21
263.058	30.72
263.274	73.73
263.49	24.58
263.707	12.29
263.923	94.21
264.139	2.05
264.355	92.16
264.571	96.25
264.787	110.59
265.004	79.87
265.22	-20.48
265.436	-12.29
265.652	12.29
265.868	69.63
266.084	-22.53
266.3	61.44
266.516	61.44
266.732	18.43
266.948	65.53
267.164	-22.53
267.38	122.88
267.596	40.96
267.812	67.58
268.028	102.4
268.244	36.86
268.46	114.69
268.676	14.34
268.892	98.3
269.108	34.82
269.324	-28.67
269.54	-2.05
269.756	49.15
269.972	45.06
270.188	118.78
270.403	40.96
270.619	45.06
270.835	36.86
271.051	-4.1
271.267	40.96
271.483	49.15
271.698	55.3
271.914	61.44
272.13	120.83
272.346	57.34
272.562	8.19
272.777	90.11
272.993	124.93
273.209	24.58
273.425	61.44
273.64	59.39
273.856	63.49
274.072	49.15
274.287	47.1
274.503	28.67
274.719	106.49
274.934	-6.14
275.15	61.44
275.366	106.49
275.581	49.15
275.797	36.86
276.012	36.86
276.228	32.77
276.444	96.25
276.659	129.02
276.875	24.58
277.09	24.58
277.306	20.48
277.521	98.3
277.737	22.53
277.952	40.96
278.168	61.44
278.383	-32.77
278.599	24.58
278.814	51.2
279.03	-18.43
279.245	131.07
279.461	36.86
279.676	-28.67
279.892	18.43
280.107	106.49
280.322	4.1
280.538	16.38
280.753	-8.19
280.969	69.63
281.184	49.15
281.399	131.07
281.615	-22.53
281.83	26.62
282.045	26.62
282.26	40.96
282.476	4.1
282.691	98.3
282.906	24.58
283.122	108.54
283.337	32.77
283.552	59.39
283.767	53.25
283.983	73.73
284.198	61.44
284.413	57.34
284.628	-28.67
284.843	30.72
285.058	47.1
285.274	-4.1
285.489	8.19
285.704	86.01
285.919	102.4
286.134	24.58
286.349	32.77
286.564	32.77
286.779	43.01
286.995	75.77
287.21	49.15
287.425	61.44
287.64	38.91
287.855	22.53
288.07	-14.34
288.285	83.97
288.5	30.72
288.715	-6.14
288.93	34.82
289.145	61.44
289.36	71.68
289.575	77.82
289.79	38.91
290.004	12.29
290.219	32.77
290.434	69.63
290.649	69.63
290.864	16.38
291.079	71.68
291.294	102.4
291.509	90.11
291.724	40.96
291.938	36.86
292.153	77.82
292.368	53.25
292.583	65.53
292.798	51.2
293.012	94.21
293.227	61.44
293.442	34.82
293.657	-26.62
293.871	104.45
294.086	-14.34
294.301	81.92
294.516	69.63
294.73	81.92
294.945	32.77
295.16	83.97
295.374	100.35
295.589	67.58
295.804	-24.58
296.018	-24.58
296.233	139.26
296.447	169.98
296.662	26.62
296.877	73.73
297.091	53.25
297.306	126.97
297.52	-12.29
297.735	28.67
297.949	43.01
298.164	22.53
298.378	-63.49
298.593	-8.19
298.807	49.15
299.022	83.97
299.236	2.05
299.451	75.77
299.665	20.48
299.88	81.92
300.094	57.34
300.309	79.87
300.523	100.35
300.737	36.86
300.952	53.25
301.166	137.21
301.381	26.62
301.595	65.53
301.809	63.49
302.024	-14.34
302.238	18.43
302.452	55.3
302.667	16.38
302.881	40.96
303.095	36.86
303.309	73.73
303.524	30.72
303.738	47.1
303.952	20.48
304.166	36.86
304.381	-88.06
304.595	98.3
304.809	-2.05
305.023	2.05
305.237	45.06
305.452	67.58
305.666	69.63
305.88	65.53
306.094	-10.24
306.308	65.53
306.522	73.73
306.736	120.83
306.95	16.38
307.164	32.77
307.379	-6.14
307.593	131.07
307.807	45.06
308.021	4.1
308.235	53.25
308.449	86.01
308.663	2.05
308.877	110.59
309.091	92.16
309.305	34.82
309.519	36.86
309.733	96.25
309.947	-4.1
310.161	112.64
310.374	98.3
310.588	45.06
310.802	-45.06
311.016	55.3
311.23	61.44
311.444	34.82
311.658	38.91
311.872	71.68
312.085	51.2
312.299	57.34
312.513	108.54
312.727	61.44
312.941	32.77
313.154	8.19
313.368	8.19
313.582	86.01
313.796	90.11
314.009	2.05
314.223	30.72
314.437	-51.2
314.651	98.3
314.864	2.05
315.078	-94.21
315.292	-43.01
315.505	10.24
315.719	92.16
315.933	102.4
316.146	67.58
316.36	-28.67
316.573	69.63
316.787	126.97
317.001	32.77
317.214	45.06
317.428	-0
317.641	55.3
317.855	16.38
318.068	-10.24
318.282	71.68
318.495	110.59
318.709	108.54
318.922	45.06
319.136	139.26
319.349	98.3
319.563	12.29
319.776	73.73
319.99	71.68
320.203	55.3
320.417	81.92
320.63	90.11
320.843	94.21
321.057	61.44
321.27	57.34
321.483	67.58
321.697	-8.19
321.91	-12.29
322.124	4.1
322.337	-4.1
322.55	75.77
322.763	49.15
322.977	45.06
323.19	67.58
323.403	65.53
323.617	120.83
323.83	30.72
324.043	71.68
324.256	120.83
324.469	96.25
324.683	43.01
324.896	-38.91
325.109	-20.48
325.322	86.01
325.535	83.97
325.748	133.12
325.962	-10.24
326.175	47.1
326.388	6.14
326.601	28.67
326.814	34.82
327.027	100.35
327.24	65.53
327.453	28.67
327.666	69.63
327.879	131.07
328.092	124.93
328.305	20.48
328.518	116.73
328.731	12.29
328.944	88.06
329.157	30.72
329.37	18.43
329.583	110.59
329.796	53.25
330.009	86.01
330.222	122.88
330.435	53.25
330.648	69.63
330.861	133.12
331.073	-2.05
331.286	61.44
331.499	73.73
331.712	112.64
331.925	26.62
332.138	92.16
332.35	8.19
332.563	24.58
332.776	94.21
332.989	59.39
333.202	18.43
333.414	59.39
333.627	59.39
333.84	59.39
334.053	-6.14
334.265	18.43
334.478	55.3
334.691	18.43
334.903	59.39
335.116	12.29
335.329	14.34
335.541	112.64
335.754	34.82
335.966	14.34
336.179	69.63
336.392	104.45
336.604	77.82
336.817	94.21
337.029	12.29
337.242	61.44
337.454	135.17
337.667	86.01
337.88	73.73
338.092	69.63
338.305	69.63
338.517	36.86
338.729	77.82
338.942	40.96
339.154	4.1
339.367	69.63
339.579	61.44
339.792	-4.1
340.004	118.78
340.217	61.44
340.429	81.92
340.641	55.3
340.854	-0
341.066	92.16
341.278	63.49
341.491	110.59
341.703	98.3
341.915	75.77
342.128	135.17
342.34	-12.29
342.552	51.2
342.764	61.44
342.977	36.86
343.189	36.86
343.401	83.97
343.613	-12.29
343.826	100.35
344.038	10.24
344.25	65.53
344.462	90.11
344.674	61.44
344.886	45.06
345.099	16.38
345.311	118.78
345.523	81.92
345.735	34.82
345.947	86.01
346.159	26.62
346.371	116.73
346.583	-20.48
346.795	100.35
347.007	36.86
347.219	94.21
347.431	4.1
347.643	110.59
347.855	32.77
348.067	114.69
348.279	94.21
348.491	83.97
348.703	110.59
348.915	57.34
349.127	16.38
349.339	51.2
349.551	-4.1
349.763	151.55
349.975	-0
350.187	65.53
350.399	102.4
350.61	75.77
350.822	24.58
351.034	114.69
351.246	67.58
351.458	102.4
351.669	24.58
351.881	30.72
352.093	98.3
352.305	124.93
352.517	116.73
352.728	81.92
352.94	-10.24
353.152	49.15
353.363	126.97
353.575	96.25
353.787	90.11
353.999	77.82
354.21	114.69
354.422	75.77
354.633	94.21
354.845	81.92
355.057	16.38
355.268	10.24
355.48	129.02
355.692	67.58
355.903	34.82
356.115	73.73
356.326	10.24
356.538	38.91
356.749	75.77
356.961	96.25
357.172	-36.86
357.384	51.2
357.595	219.13
357.807	12.29
358.018	79.87
358.23	65.53
358.441	88.06
358.653	75.77
358.864	55.3
359.075	57.34
359.287	79.87
359.498	110.59
359.709	-36.86
359.921	57.34
360.132	61.44
360.344	32.77
360.555	77.82
360.766	51.2
360.977	61.44
361.189	126.97
361.4	14.34
361.611	57.34
361.823	149.5
362.034	122.88
362.245	57.34
362.456	118.78
362.667	-38.91
362.879	59.39
363.09	81.92
363.301	114.69
363.512	18.43
363.723	71.68
363.935	28.67
364.146	100.35
364.357	-20.48
364.568	47.1
364.779	-4.1
364.99	8.19
365.201	69.63
365.412	124.93
365.623	30.72
365.834	20.48
366.045	43.01
366.256	49.15
366.467	108.54
366.678	143.36
366.889	36.86
367.1	67.58
367.311	63.49
367.522	59.39
367.733	92.16
367.944	47.1
368.155	12.29
368.366	83.97
368.577	83.97
368.788	57.34
368.999	53.25
369.209	8.19
369.42	204.8
369.631	120.83
369.842	47.1
370.053	81.92
370.264	71.68
370.474	49.15
370.685	81.92
370.896	38.91
371.107	90.11
371.317	51.2
371.528	45.06
371.739	141.31
371.95	45.06
372.16	69.63
372.371	94.21
372.582	73.73
372.792	40.96
373.003	4.1
373.214	116.73
373.424	94.21
373.635	73.73
373.846	40.96
374.056	57.34
374.267	63.49
374.477	55.3
374.688	77.82
374.898	67.58
375.109	30.72
375.319	118.78
375.53	98.3
375.74	12.29
375.951	47.1
376.161	96.25
376.372	61.44
376.582	81.92
376.793	96.25
377.003	24.58
377.214	49.15
377.424	90.11
377.635	71.68
377.845	51.2
378.055	63.49
378.266	69.63
378.476	4.1
378.686	69.63
378.897	88.06
379.107	63.49
379.317	81.92
379.528	38.91
379.738	55.3
379.948	22.53
380.158	135.17
380.369	61.44
380.579	83.97
380.789	79.87
380.999	100.35
381.21	53.25
381.42	102.4
381.63	61.44
381.84	149.5
382.05	38.91
382.261	16.38
382.471	86.01
382.681	75.77
382.891	63.49
383.101	114.69
383.311	67.58
383.521	83.97
383.731	143.36
383.941	112.64
384.151	139.26
384.361	118.78
384.571	36.86
384.781	47.1
384.991	122.88
385.201	110.59
385.411	151.55
385.621	47.1
385.831	116.73
386.041	86.01
386.251	151.55
386.461	94.21
386.671	57.34
386.881	28.67
387.091	73.73
387.301	110.59
387.511	131.07
387.72	71.68
387.93	73.73
388.14	-8.19
388.35	69.63
388.56	98.3
388.769	143.36
388.979	112.64
389.189	90.11
389.399	83.97
389.609	2.05
389.818	65.53
390.028	73.73
390.238	102.4
390.447	98.3
390.657	94.21
390.867	61.44
391.076	69.63
391.286	114.69
391.496	43.01
391.705	118.78
391.915	81.92
392.125	94.21
392.334	83.97
392.544	114.69
392.753	159.74
392.963	98.3
393.172	75.77
393.382	14.34
393.591	141.31
393.801	112.64
394.01	122.88
394.22	149.5
394.429	110.59
394.639	83.97
394.848	116.73
395.058	110.59
395.267	131.07
395.477	114.69
395.686	92.16
395.895	174.08
396.105	204.8
396.314	129.02
396.524	120.83
396.733	61.44
396.942	145.41
397.152	131.07
397.361	112.64
397.57	135.17
397.78	163.84
397.989	102.4
398.198	137.21
398.407	92.16
398.617	131.07
398.826	94.21
399.035	135.17
399.244	139.26
399.453	57.34
399.663	153.6
399.872	219.13
400.081	129.02
400.29	94.21
400.499	110.59
400.708	192.51
400.917	110.59
401.127	167.93
401.336	174.08
401.545	137.21
401.754	153.6
401.963	90.11
402.172	118.78
402.381	77.82
402.59	135.17
402.799	176.13
403.008	221.18
403.217	172.03
403.426	159.74
403.635	135.17
403.844	118.78
404.053	184.32
404.262	135.17
404.471	243.71
404.68	188.41
404.888	182.27
405.097	120.83
405.306	210.94
405.515	180.22
405.724	284.67
405.933	221.18
406.142	237.56
406.35	229.37
406.559	290.81
406.768	204.8
406.977	282.62
407.185	296.96
407.394	192.51
407.603	212.99
407.812	249.85
408.02	385.02
408.229	221.18
408.438	282.62
408.646	311.29
408.855	260.09
409.064	331.77
409.272	395.26
409.481	290.81
409.69	274.43
409.898	321.53
410.107	356.35
410.315	372.73
410.524	419.83
410.733	458.74
410.941	413.69
411.15	452.6
411.358	385.02
411.567	509.94
411.775	458.74
411.984	501.75
412.192	487.42
412.401	573.43
412.609	579.58
412.818	561.14
413.026	575.48
413.234	583.67
413.443	659.45
413.651	702.45
413.86	624.63
414.068	765.94
414.276	671.73
414.485	743.41
414.693	733.17
414.901	854
415.11	790.52
415.318	802.8
415.526	802.8
415.734	823.28
415.943	966.64
416.151	942.07
416.359	1032.18
416.567	1073.14
416.776	1077.23
416.984	1064.94
417.192	1243.12
417.4	1163.25
417.608	1144.81
417.817	1228.78
418.025	1298.41
418.233	1396.71
418.441	1284.08
418.649	1531.88
418.857	1566.7
419.065	1615.85
419.273	1517.54
419.481	1550.31
419.689	1781.73
419.897	1742.82
420.105	1785.83
420.313	2029.54
420.521	1880.04
420.729	1992.67
420.937	2060.26
421.145	2068.45
421.353	2123.74
421.561	2254.81
421.769	2217.95
421.977	2412.51
422.185	2494.43
422.393	2695.13
422.601	2711.51
422.809	2680.79
423.017	2834.39
423.224	2936.79
423.432	3024.85
423.64	2854.87
423.848	3338.19
424.056	3133.39
424.263	3334.09
424.471	3352.52
424.679	3526.6
424.887	3534.79
425.094	3704.78
425.302	3798.98
425.51	3788.74
425.718	4030.4
425.925	4136.9
426.133	4280.25
426.341	4413.37
426.548	4534.2
426.756	4632.51
426.964	4679.61
427.171	5060.53
427.379	5095.35
427.586	5171.12
427.794	5418.93
428.001	5541.8
428.209	5742.5
428.417	5732.26
428.624	6104.99
428.832	5947.3
429.039	6303.65
429.247	6205.35
429.454	6750.1
429.662	7057.3
429.869	6764.44
430.076	7237.52
430.284	6944.66
430.491	7206.8
430.699	7870.34
430.906	7495.57
431.114	7837.58
431.321	7968.65
431.528	8333.18
431.736	8646.52
431.943	8904.57
432.15	8941.43
432.358	9015.16
432.565	9559.92
432.772	9367.41
432.979	9856.87
433.187	9834.35
433.394	10059.62
433.601	10841.95
433.808	10909.53
434.016	10858.33
434.223	11132.76
434.43	11822.92
434.637	11663.18
434.844	12240.71
435.052	12508.99
435.259	12513.09
435.466	12693.31
435.673	12498.75
435.88	13168.44
436.087	13997.87
436.294	13866.8
436.501	13659.95
436.708	13932.33
436.915	14499.62
437.122	14976.8
437.329	14796.57
437.537	15310.61
437.743	15513.36
437.95	15474.45
438.157	16144.14
438.364	17092.35
438.571	16756.48
438.778	16877.31
438.985	18517.73
439.192	17929.97
439.399	18335.46
439.606	18366.18
439.813	19089.12
440.02	20428.49
440.227	19709.65
440.433	19740.37
440.64	20274.89
440.847	20195.02
441.054	20618.95
441.261	21900.98
441.467	21751.48
441.674	22011.57
441.881	22660.77
442.088	22679.21
442.294	22607.53
442.501	23393.95
442.708	24014.48
442.914	24477.32
443.121	25566.84
443.328	24888.96
443.534	26680.94
443.741	26265.2
443.948	25806.45
444.154	27893.33
444.361	27182.69
444.568	27895.38
444.774	27532.89
444.981	27971.16
445.187	28560.97
445.394	29810.23
445.6	29343.3
445.807	32245.27
446.013	30731.82
446.22	31295.01
446.426	32341.52
446.633	32771.6
446.839	33816.06
447.046	32521.74
447.252	34176.5
447.459	34190.84
447.665	33687.04
447.871	35345.89
448.078	36550.1
448.284	35540.45
448.491	36388.31
448.697	37406.15
448.903	38081.98
449.11	38174.14
449.316	37557.7
449.522	38376.89
449.728	39261.61
449.935	39515.56
450.141	39724.45
450.347	40390.04
450.553	39384.49
450.76	39525.8
450.966	40627.6
451.172	39871.9
451.378	41084.3
451.584	40486.29
451.791	41493.89
451.997	41170.32
452.203	42317.18
452.409	41745.79
452.615	41430.41
452.821	39986.59
453.027	39890.34
453.233	41670.02
453.44	39736.74
453.646	40228.25
453.852	40850.83
454.058	40883.6
454.264	39353.77
454.47	40390.04
454.676	39642.53
454.882	41311.63
455.088	37561.79
455.294	38098.36
455.5	38401.46
455.705	38731.18
455.911	36992.46
456.117	36488.66
456.323	36402.64
456.529	33656.32
456.735	35565.03
456.941	34412.02
457.147	33969.66
457.352	33140.23
457.558	32552.46
457.764	32792.08
457.97	32095.77
458.176	31280.67
458.381	31401.5
458.587	30025.27
458.793	29849.14
458.999	28423.76
459.204	30268.98
459.41	29494.85
459.616	27711.07
459.821	27493.98
460.027	27727.45
460.233	26844.77
460.438	25779.83
460.644	25732.73
460.85	24686.22
461.055	24266.38
461.261	24432.27
461.466	22570.66
461.672	21753.52
461.878	23133.85
462.083	22134.45
462.289	21530.3
462.494	21518.01
462.7	20551.37
462.905	19703.51
463.111	20539.08
463.316	20692.68
463.522	20303.56
463.727	20360.91
463.932	20158.16
464.138	19515.09
464.343	20010.7
464.549	19175.13
464.754	19939.02
464.959	20025.04
465.165	19926.74
465.37	19121.88
465.575	18386.66
465.781	19060.45
465.986	19361.5
466.191	18419.43
466.397	18046.7
466.602	17426.17
466.807	18034.41
467.012	17942.25
