Data from USB4F104151__230__10-30-17-371.txt Node

Date: Wed Mar 12 10:30:17 EDT 2025
User: louis
Spectrometer: USB4F10415
Trigger mode: 4
Integration Time (sec): 3.000000E-2
Scans to average: 1
Electric dark correction enabled: true
Nonlinearity correction enabled: false
Boxcar width: 0
XAxis mode: Wavelengths
Number of Pixels in Spectrum: 3648
>>>>>Begin Spectral Data<<<<<
178.204	-135.17
178.424	-135.17
178.644	-135.17
178.864	-92.16
179.084	-163.84
179.304	4.1
179.524	-38.91
179.744	51.2
179.964	28.67
180.184	32.77
180.404	-47.1
180.624	-30.72
180.844	12.29
181.064	-12.29
181.283	36.86
181.503	-16.38
181.723	-20.48
181.943	-14.34
182.163	73.73
182.383	-4.1
182.602	45.06
182.822	47.1
183.042	67.58
183.262	53.25
183.482	4.1
183.701	18.43
183.921	59.39
184.141	32.77
184.361	116.73
184.58	24.58
184.8	43.01
185.02	32.77
185.239	61.44
185.459	96.25
185.679	104.45
185.898	-34.82
186.118	47.1
186.338	-47.1
186.557	98.3
186.777	26.62
186.997	57.34
187.216	-10.24
187.436	157.69
187.655	4.1
187.875	43.01
188.095	61.44
188.314	55.3
188.534	22.53
188.753	-14.34
188.973	94.21
189.192	18.43
189.412	-0
189.631	-28.67
189.851	26.62
190.07	100.35
190.29	-6.14
190.509	51.2
190.729	-16.38
190.948	61.44
191.168	116.73
191.387	24.58
191.607	40.96
191.826	-24.58
192.045	28.67
192.265	28.67
192.484	34.82
192.704	36.86
192.923	8.19
193.142	92.16
193.362	100.35
193.581	81.92
193.8	-8.19
194.02	22.53
194.239	55.3
194.458	22.53
194.678	67.58
194.897	14.34
195.116	-34.82
195.335	32.77
195.555	69.63
195.774	-0
195.993	49.15
196.212	22.53
196.432	59.39
196.651	28.67
196.87	6.14
197.089	45.06
197.308	106.49
197.528	61.44
197.747	-0
197.966	14.34
198.185	75.77
198.404	34.82
198.623	2.05
198.842	59.39
199.062	14.34
199.281	36.86
199.5	59.39
199.719	122.88
199.938	104.45
200.157	20.48
200.376	20.48
200.595	67.58
200.814	45.06
201.033	61.44
201.252	-4.1
201.471	81.92
201.69	53.25
201.909	67.58
202.128	126.97
202.347	-8.19
202.566	24.58
202.785	18.43
203.004	24.58
203.223	106.49
203.442	53.25
203.661	49.15
203.879	16.38
204.098	98.3
204.317	86.01
204.536	49.15
204.755	77.82
204.974	40.96
205.193	10.24
205.411	38.91
205.63	61.44
205.849	51.2
206.068	-6.14
206.287	8.19
206.505	34.82
206.724	40.96
206.943	106.49
207.162	45.06
207.381	-4.1
207.599	26.62
207.818	30.72
208.037	-0
208.255	-36.86
208.474	-12.29
208.693	4.1
208.911	49.15
209.13	40.96
209.349	34.82
209.567	71.68
209.786	69.63
210.005	94.21
210.223	73.73
210.442	20.48
210.661	94.21
210.879	34.82
211.098	88.06
211.316	-57.34
211.535	92.16
211.753	-26.62
211.972	43.01
212.191	8.19
212.409	57.34
212.628	16.38
212.846	59.39
213.065	77.82
213.283	67.58
213.502	-30.72
213.72	-6.14
213.938	108.54
214.157	65.53
214.375	67.58
214.594	12.29
214.812	69.63
215.031	28.67
215.249	28.67
215.467	45.06
215.686	34.82
215.904	88.06
216.122	69.63
216.341	83.97
216.559	59.39
216.778	18.43
216.996	-4.1
217.214	-8.19
217.432	12.29
217.651	32.77
217.869	88.06
218.087	43.01
218.306	61.44
218.524	67.58
218.742	-59.39
218.96	53.25
219.179	43.01
219.397	2.05
219.615	43.01
219.833	8.19
220.051	-32.77
220.27	116.73
220.488	143.36
220.706	53.25
220.924	-24.58
221.142	-6.14
221.36	-20.48
221.578	-22.53
221.796	32.77
222.015	116.73
222.233	32.77
222.451	63.49
222.669	26.62
222.887	75.77
223.105	34.82
223.323	14.34
223.541	43.01
223.759	94.21
223.977	36.86
224.195	20.48
224.413	77.82
224.631	49.15
224.849	65.53
225.067	53.25
225.285	43.01
225.503	57.34
225.721	-12.29
225.939	8.19
226.157	-6.14
226.375	-0
226.592	4.1
226.81	36.86
227.028	65.53
227.246	122.88
227.464	108.54
227.682	67.58
227.9	-20.48
228.117	14.34
228.335	40.96
228.553	14.34
228.771	59.39
228.989	47.1
229.206	30.72
229.424	73.73
229.642	59.39
229.86	104.45
230.077	122.88
230.295	8.19
230.513	65.53
230.731	63.49
230.948	20.48
231.166	108.54
231.384	61.44
231.601	67.58
231.819	51.2
232.037	45.06
232.254	22.53
232.472	43.01
232.689	-10.24
232.907	79.87
233.125	53.25
233.342	45.06
233.56	-32.77
233.777	-28.67
233.995	34.82
234.213	4.1
234.43	43.01
234.648	49.15
234.865	20.48
235.083	77.82
235.3	83.97
235.518	30.72
235.735	77.82
235.953	75.77
236.17	69.63
236.388	81.92
236.605	51.2
236.822	75.77
237.04	69.63
237.257	28.67
237.475	53.25
237.692	65.53
237.909	53.25
238.127	-30.72
238.344	47.1
238.562	79.87
238.779	100.35
238.996	-0
239.214	38.91
239.431	61.44
239.648	34.82
239.865	14.34
240.083	81.92
240.3	53.25
240.517	18.43
240.735	55.3
240.952	61.44
241.169	16.38
241.386	92.16
241.603	10.24
241.821	-53.25
242.038	69.63
242.255	92.16
242.472	61.44
242.689	28.67
242.907	86.01
243.124	40.96
243.341	38.91
243.558	96.25
243.775	-12.29
243.992	-0
244.209	77.82
244.426	124.93
244.643	49.15
244.86	4.1
245.078	51.2
245.295	61.44
245.512	53.25
245.729	69.63
245.946	96.25
246.163	53.25
246.38	110.59
246.597	59.39
246.814	34.82
247.031	40.96
247.248	73.73
247.464	45.06
247.681	34.82
247.898	51.2
248.115	86.01
248.332	57.34
248.549	104.45
248.766	90.11
248.983	75.77
249.2	28.67
249.417	69.63
249.633	75.77
249.85	110.59
250.067	49.15
250.284	-28.67
250.501	110.59
250.717	49.15
250.934	28.67
251.151	49.15
251.368	22.53
251.585	36.86
251.801	-14.34
252.018	20.48
252.235	61.44
252.451	98.3
252.668	4.1
252.885	53.25
253.102	-10.24
253.318	38.91
253.535	40.96
253.752	94.21
253.968	45.06
254.185	-0
254.401	92.16
254.618	38.91
254.835	49.15
255.051	57.34
255.268	61.44
255.484	114.69
255.701	-0
255.917	73.73
256.134	34.82
256.351	79.87
256.567	-14.34
256.784	63.49
257	20.48
257.217	65.53
257.433	45.06
257.65	-12.29
257.866	108.54
258.082	38.91
258.299	61.44
258.515	32.77
258.732	-10.24
258.948	47.1
259.165	143.36
259.381	71.68
259.597	81.92
259.814	139.26
260.03	47.1
260.246	-12.29
260.463	14.34
260.679	24.58
260.895	6.14
261.112	45.06
261.328	47.1
261.544	49.15
261.761	38.91
261.977	2.05
262.193	24.58
262.409	94.21
262.626	43.01
262.842	28.67
263.058	20.48
263.274	110.59
263.49	10.24
263.707	45.06
263.923	-32.77
264.139	-20.48
264.355	67.58
264.571	45.06
264.787	57.34
265.004	114.69
265.22	94.21
265.436	36.86
265.652	34.82
265.868	112.64
266.084	4.1
266.3	151.55
266.516	55.3
266.732	10.24
266.948	8.19
267.164	55.3
267.38	51.2
267.596	69.63
267.812	51.2
268.028	69.63
268.244	36.86
268.46	118.78
268.676	-0
268.892	28.67
269.108	59.39
269.324	65.53
269.54	55.3
269.756	47.1
269.972	45.06
270.188	71.68
270.403	-45.06
270.619	45.06
270.835	32.77
271.051	53.25
271.267	86.01
271.483	79.87
271.698	63.49
271.914	69.63
272.13	83.97
272.346	75.77
272.562	55.3
272.777	90.11
272.993	30.72
273.209	-53.25
273.425	30.72
273.64	59.39
273.856	120.83
274.072	61.44
274.287	-16.38
274.503	34.82
274.719	79.87
274.934	43.01
275.15	18.43
275.366	40.96
275.581	-14.34
275.797	75.77
276.012	116.73
276.228	43.01
276.444	4.1
276.659	73.73
276.875	-8.19
277.09	-36.86
277.306	65.53
277.521	88.06
277.737	77.82
277.952	-6.14
278.168	24.58
278.383	108.54
278.599	18.43
278.814	153.6
279.03	-32.77
279.245	16.38
279.461	49.15
279.676	75.77
279.892	10.24
280.107	24.58
280.322	18.43
280.538	53.25
280.753	47.1
280.969	61.44
281.184	8.19
281.399	59.39
281.615	53.25
281.83	83.97
282.045	-0
282.26	6.14
282.476	40.96
282.691	-22.53
282.906	81.92
283.122	34.82
283.337	-6.14
283.552	10.24
283.767	-20.48
283.983	55.3
284.198	24.58
284.413	88.06
284.628	20.48
284.843	36.86
285.058	-18.43
285.274	100.35
285.489	57.34
285.704	133.12
285.919	45.06
286.134	98.3
286.349	-6.14
286.564	53.25
286.779	69.63
286.995	45.06
287.21	12.29
287.425	49.15
287.64	83.97
287.855	88.06
288.07	-6.14
288.285	108.54
288.5	51.2
288.715	49.15
288.93	38.91
289.145	83.97
289.36	55.3
289.575	116.73
289.79	88.06
290.004	73.73
290.219	57.34
290.434	-32.77
290.649	63.49
290.864	-0
291.079	47.1
291.294	69.63
291.509	90.11
291.724	90.11
291.938	102.4
292.153	83.97
292.368	116.73
292.583	36.86
292.798	36.86
293.012	86.01
293.227	86.01
293.442	73.73
293.657	20.48
293.871	114.69
294.086	59.39
294.301	75.77
294.516	45.06
294.73	24.58
294.945	53.25
295.16	24.58
295.374	69.63
295.589	116.73
295.804	43.01
296.018	22.53
296.233	32.77
296.447	53.25
296.662	12.29
296.877	75.77
297.091	55.3
297.306	22.53
297.52	40.96
297.735	61.44
297.949	86.01
298.164	36.86
298.378	71.68
298.593	-26.62
298.807	51.2
299.022	83.97
299.236	118.78
299.451	86.01
299.665	61.44
299.88	-26.62
300.094	57.34
300.309	61.44
300.523	81.92
300.737	65.53
300.952	81.92
301.166	77.82
301.381	61.44
301.595	32.77
301.809	149.5
302.024	28.67
302.238	24.58
302.452	108.54
302.667	22.53
302.881	141.31
303.095	61.44
303.309	8.19
303.524	20.48
303.738	38.91
303.952	16.38
304.166	61.44
304.381	47.1
304.595	120.83
304.809	38.91
305.023	65.53
305.237	18.43
305.452	30.72
305.666	36.86
305.88	16.38
306.094	167.93
306.308	90.11
306.522	45.06
306.736	49.15
306.95	92.16
307.164	92.16
307.379	-36.86
307.593	26.62
307.807	75.77
308.021	43.01
308.235	73.73
308.449	10.24
308.663	67.58
308.877	143.36
309.091	32.77
309.305	131.07
309.519	-6.14
309.733	61.44
309.947	94.21
310.161	57.34
310.374	59.39
310.588	106.49
310.802	-28.67
311.016	-16.38
311.23	45.06
311.444	40.96
311.658	69.63
311.872	86.01
312.085	57.34
312.299	73.73
312.513	92.16
312.727	98.3
312.941	45.06
313.154	47.1
313.368	86.01
313.582	55.3
313.796	88.06
314.009	45.06
314.223	55.3
314.437	118.78
314.651	94.21
314.864	6.14
315.078	57.34
315.292	-4.1
315.505	63.49
315.719	30.72
315.933	65.53
316.146	67.58
316.36	53.25
316.573	59.39
316.787	22.53
317.001	49.15
317.214	-36.86
317.428	124.93
317.641	26.62
317.855	6.14
318.068	61.44
318.282	67.58
318.495	149.5
318.709	49.15
318.922	77.82
319.136	106.49
319.349	120.83
319.563	40.96
319.776	98.3
319.99	30.72
320.203	18.43
320.417	59.39
320.63	-14.34
320.843	88.06
321.057	88.06
321.27	-0
321.483	86.01
321.697	28.67
321.91	73.73
322.124	34.82
322.337	53.25
322.55	20.48
322.763	53.25
322.977	49.15
323.19	51.2
323.403	106.49
323.617	112.64
323.83	26.62
324.043	90.11
324.256	118.78
324.469	45.06
324.683	96.25
324.896	73.73
325.109	57.34
325.322	14.34
325.535	120.83
325.748	61.44
325.962	59.39
326.175	30.72
326.388	40.96
326.601	161.79
326.814	69.63
327.027	10.24
327.24	190.46
327.453	-8.19
327.666	28.67
327.879	20.48
328.092	167.93
328.305	53.25
328.518	40.96
328.731	77.82
328.944	14.34
329.157	28.67
329.37	47.1
329.583	143.36
329.796	65.53
330.009	28.67
330.222	-2.05
330.435	57.34
330.648	57.34
330.861	24.58
331.073	69.63
331.286	43.01
331.499	65.53
331.712	53.25
331.925	55.3
332.138	61.44
332.35	110.59
332.563	-34.82
332.776	61.44
332.989	-12.29
333.202	40.96
333.414	18.43
333.627	38.91
333.84	67.58
334.053	45.06
334.265	34.82
334.478	49.15
334.691	20.48
334.903	122.88
335.116	86.01
335.329	57.34
335.541	-38.91
335.754	112.64
335.966	2.05
336.179	94.21
336.392	2.05
336.604	38.91
336.817	43.01
337.029	55.3
337.242	32.77
337.454	102.4
337.667	43.01
337.88	83.97
338.092	45.06
338.305	106.49
338.517	43.01
338.729	114.69
338.942	83.97
339.154	20.48
339.367	6.14
339.579	147.45
339.792	55.3
340.004	36.86
340.217	67.58
340.429	32.77
340.641	-14.34
340.854	59.39
341.066	49.15
341.278	77.82
341.491	65.53
341.703	92.16
341.915	53.25
342.128	131.07
342.34	-0
342.552	108.54
342.764	36.86
342.977	40.96
343.189	36.86
343.401	43.01
343.613	26.62
343.826	26.62
344.038	77.82
344.25	71.68
344.462	75.77
344.674	79.87
344.886	112.64
345.099	114.69
345.311	-16.38
345.523	-43.01
345.735	-16.38
345.947	6.14
346.159	83.97
346.371	6.14
346.583	32.77
346.795	53.25
347.007	12.29
347.219	131.07
347.431	20.48
347.643	92.16
347.855	16.38
348.067	86.01
348.279	67.58
348.491	92.16
348.703	75.77
348.915	77.82
349.127	-0
349.339	12.29
349.551	34.82
349.763	32.77
349.975	53.25
350.187	77.82
350.399	22.53
350.61	40.96
350.822	34.82
351.034	102.4
351.246	69.63
351.458	67.58
351.669	16.38
351.881	59.39
352.093	94.21
352.305	75.77
352.517	135.17
352.728	81.92
352.94	77.82
353.152	75.77
353.363	18.43
353.575	53.25
353.787	126.97
353.999	192.51
354.21	120.83
354.422	96.25
354.633	51.2
354.845	77.82
355.057	65.53
355.268	92.16
355.48	149.5
355.692	-14.34
355.903	43.01
356.115	4.1
356.326	20.48
356.538	53.25
356.749	67.58
356.961	69.63
357.172	32.77
357.384	12.29
357.595	94.21
357.807	88.06
358.018	-4.1
358.23	-14.34
358.441	172.03
358.653	133.12
358.864	51.2
359.075	77.82
359.287	57.34
359.498	40.96
359.709	-8.19
359.921	77.82
360.132	77.82
360.344	79.87
360.555	24.58
360.766	63.49
360.977	53.25
361.189	153.6
361.4	26.62
361.611	40.96
361.823	137.21
362.034	32.77
362.245	14.34
362.456	12.29
362.667	59.39
362.879	20.48
363.09	53.25
363.301	100.35
363.512	90.11
363.723	8.19
363.935	69.63
364.146	71.68
364.357	73.73
364.568	118.78
364.779	77.82
364.99	73.73
365.201	77.82
365.412	86.01
365.623	143.36
365.834	53.25
366.045	65.53
366.256	53.25
366.467	53.25
366.678	26.62
366.889	118.78
367.1	90.11
367.311	61.44
367.522	12.29
367.733	88.06
367.944	155.65
368.155	-0
368.366	131.07
368.577	81.92
368.788	67.58
368.999	67.58
369.209	126.97
369.42	112.64
369.631	180.22
369.842	20.48
370.053	51.2
370.264	108.54
370.474	32.77
370.685	2.05
370.896	77.82
371.107	104.45
371.317	75.77
371.528	65.53
371.739	67.58
371.95	94.21
372.16	106.49
372.371	12.29
372.582	83.97
372.792	53.25
373.003	6.14
373.214	69.63
373.424	90.11
373.635	53.25
373.846	79.87
374.056	30.72
374.267	81.92
374.477	77.82
374.688	77.82
374.898	32.77
375.109	71.68
375.319	57.34
375.53	100.35
375.74	92.16
375.951	43.01
376.161	79.87
376.372	67.58
376.582	32.77
376.793	110.59
377.003	-0
377.214	88.06
377.424	81.92
377.635	110.59
377.845	112.64
378.055	61.44
378.266	34.82
378.476	-8.19
378.686	88.06
378.897	34.82
379.107	122.88
379.317	176.13
379.528	-4.1
379.738	114.69
379.948	28.67
380.158	53.25
380.369	61.44
380.579	98.3
380.789	90.11
380.999	69.63
381.21	108.54
381.42	59.39
381.63	112.64
381.84	67.58
382.05	122.88
382.261	79.87
382.471	61.44
382.681	40.96
382.891	110.59
383.101	79.87
383.311	51.2
383.521	69.63
383.731	102.4
383.941	149.5
384.151	145.41
384.361	92.16
384.571	30.72
384.781	165.89
384.991	106.49
385.201	147.45
385.411	114.69
385.621	61.44
385.831	69.63
386.041	192.51
386.251	92.16
386.461	81.92
386.671	67.58
386.881	96.25
387.091	116.73
387.301	100.35
387.511	129.02
387.72	100.35
387.93	-36.86
388.14	30.72
388.35	-2.05
388.56	122.88
388.769	67.58
388.979	57.34
389.189	32.77
389.399	169.98
389.609	106.49
389.818	59.39
390.028	118.78
390.238	108.54
390.447	20.48
390.657	137.21
390.867	63.49
391.076	49.15
391.286	131.07
391.496	75.77
391.705	96.25
391.915	129.02
392.125	108.54
392.334	88.06
392.544	129.02
392.753	45.06
392.963	61.44
393.172	126.97
393.382	102.4
393.591	139.26
393.801	94.21
394.01	212.99
394.22	126.97
394.429	16.38
394.639	143.36
394.848	118.78
395.058	94.21
395.267	135.17
395.477	139.26
395.686	98.3
395.895	157.69
396.105	124.93
396.314	159.74
396.524	51.2
396.733	153.6
396.942	145.41
397.152	155.65
397.361	124.93
397.57	145.41
397.78	196.6
397.989	124.93
398.198	180.22
398.407	141.31
398.617	114.69
398.826	200.7
399.035	38.91
399.244	178.17
399.453	129.02
399.663	108.54
399.872	133.12
400.081	124.93
400.29	143.36
400.499	135.17
400.708	184.32
400.917	147.45
401.127	143.36
401.336	155.65
401.545	133.12
401.754	155.65
401.963	172.03
402.172	159.74
402.381	69.63
402.59	159.74
402.799	141.31
403.008	192.51
403.217	212.99
403.426	112.64
403.635	133.12
403.844	186.37
404.053	45.06
404.262	194.56
404.471	212.99
404.68	169.98
404.888	167.93
405.097	143.36
405.306	172.03
405.515	225.28
405.724	194.56
405.933	276.48
406.142	245.76
406.35	198.65
406.559	247.8
406.768	174.08
406.977	286.72
407.185	239.61
407.394	296.96
407.603	182.27
407.812	256
408.02	282.62
408.229	249.85
408.438	284.67
408.646	360.44
408.855	317.44
409.064	323.58
409.272	327.67
409.481	460.79
409.69	280.57
409.898	344.06
410.107	374.78
410.315	378.87
410.524	430.07
410.733	385.02
410.941	393.21
411.15	413.69
411.358	454.65
411.567	479.22
411.775	495.61
411.984	446.46
412.192	532.47
412.401	548.86
412.609	622.58
412.818	536.57
413.026	579.58
413.234	624.63
413.443	606.2
413.651	587.77
413.86	704.5
414.068	735.22
414.276	669.69
414.485	735.22
414.693	892.91
414.901	843.76
415.11	794.61
415.318	843.76
415.526	946.16
415.734	958.45
415.943	940.02
416.151	890.87
416.359	1032.18
416.567	1120.24
416.776	1058.8
416.984	1079.28
417.192	1200.11
417.4	1269.74
417.608	1185.77
417.817	1234.93
418.025	1366
418.233	1339.37
418.441	1388.52
418.649	1449.96
418.857	1492.97
419.065	1617.9
419.273	1521.64
419.481	1519.59
419.689	1675.24
419.897	1710.05
420.105	1699.81
420.313	1859.56
420.521	1894.37
420.729	1880.04
420.937	1990.63
421.145	2136.03
421.353	2156.51
421.561	2271.2
421.769	2256.86
421.977	2357.21
422.185	2392.03
422.393	2418.65
422.601	2719.7
422.809	2615.26
423.017	2744.28
423.224	2768.85
423.432	3022.8
423.64	2971.6
423.848	3375.05
424.056	2990.03
424.263	3342.28
424.471	3252.17
424.679	3540.94
424.887	3643.34
425.094	3780.55
425.302	3715.02
425.51	3975.11
425.718	4020.16
425.925	3966.92
426.133	4202.43
426.341	4476.86
426.548	4638.65
426.756	4480.96
426.964	4716.47
427.171	4945.84
427.379	5212.08
427.586	5255.09
427.794	5189.55
428.001	5449.64
428.209	5803.94
428.417	5717.93
428.624	6025.12
428.832	6180.77
429.039	6084.52
429.247	6098.85
429.454	6655.9
429.662	7264.15
429.869	6455.2
430.076	7114.64
430.284	6875.03
430.491	7120.79
430.699	7659.4
430.906	7575.44
431.114	7841.67
431.321	7999.37
431.528	8288.13
431.736	8734.59
431.943	9000.82
432.15	8914.81
432.358	8992.63
432.565	9543.53
432.772	9496.43
432.979	9924.46
433.187	10071.91
433.394	10323.81
433.601	10829.66
433.808	10987.35
434.016	10520.42
434.223	11138.9
434.43	11829.07
434.637	11603.79
434.844	12328.77
435.052	12429.12
435.259	12590.91
435.466	12689.21
435.673	12289.86
435.88	13309.75
436.087	13885.23
436.294	13801.26
436.501	13659.95
436.708	13733.68
436.915	14417.7
437.122	15060.76
437.329	14970.65
437.537	15306.52
437.743	15564.56
437.95	15439.64
438.157	16066.31
438.364	16912.13
438.571	16733.95
438.778	17045.24
438.985	18691.81
439.192	17745.65
439.399	18431.72
439.606	17872.62
439.813	18910.94
440.02	20186.83
440.227	19705.56
440.433	19408.6
440.64	20125.39
440.847	20051.66
441.054	20586.18
441.261	21933.75
441.467	21341.88
441.674	22107.82
441.881	23109.28
442.088	22607.53
442.294	22326.96
442.501	23226.01
442.708	23668.37
442.914	24700.55
443.121	25364.09
443.328	24974.98
443.534	26549.87
443.741	25687.67
443.948	25630.33
444.154	27580
444.361	27577.95
444.568	27563.61
444.774	27467.36
444.981	27674.2
445.187	28427.85
445.394	29908.54
445.6	29419.07
445.807	31735.32
446.013	30604.84
446.22	31223.33
446.426	32437.78
446.633	32300.56
446.839	33816.06
447.046	32146.97
447.252	34246.13
447.459	34190.84
447.665	33945.08
447.871	35446.24
448.078	36849.1
448.284	35087.85
448.491	36052.44
448.697	37354.95
448.903	38161.85
449.11	38008.25
449.316	37283.27
449.522	38348.21
449.728	39390.63
449.935	39556.52
450.141	39566.76
450.347	40170.91
450.553	39300.52
450.76	39550.37
450.966	40535.45
451.172	40199.58
451.378	40951.18
451.584	40277.4
451.791	41538.95
451.997	40787.35
452.203	41411.98
452.409	42075.52
452.615	41614.72
452.821	39712.16
453.027	39564.71
453.233	41465.22
453.44	39802.27
453.646	40166.81
453.852	40707.47
454.058	40885.65
454.264	39474.6
454.47	40199.58
454.676	39413.16
454.882	40873.36
455.088	37154.25
455.294	37656
455.5	38110.65
455.705	38387.13
455.911	37223.88
456.117	36462.04
456.323	35878.36
456.529	34192.89
456.735	35694.05
456.941	34700.78
457.147	33857.02
457.352	32919.05
457.558	32318.99
457.764	32654.86
457.97	32196.12
458.176	31796.76
458.381	31483.42
458.587	29945.4
458.793	29937.21
458.999	28167.76
459.204	30281.27
459.41	29500.99
459.616	27422.3
459.821	27522.65
460.027	27491.93
460.233	26916.45
460.438	25734.78
460.644	25990.77
460.85	24733.32
461.055	24106.64
461.261	24174.22
461.466	22490.79
461.672	21782.2
461.878	23223.97
462.083	21935.79
462.289	21497.53
462.494	21159.61
462.7	20510.41
462.905	19791.57
463.111	20342.47
463.316	20682.44
463.522	20373.19
463.727	20074.19
463.932	19996.37
464.138	19799.76
464.343	20242.12
464.549	19619.54
464.754	19758.8
464.959	19865.3
465.165	19678.93
465.37	18892.51
465.575	18757.35
465.781	19054.3
465.986	19412.7
466.191	18554.6
466.397	18323.18
466.602	17213.18
466.807	18056.94
467.012	18138.86
