Data from USB4F104151__15__10-21-04-832.txt Node

Date: Wed Mar 12 10:21:04 EDT 2025
User: louis
Spectrometer: USB4F10415
Trigger mode: 4
Integration Time (sec): 3.000000E-2
Scans to average: 1
Electric dark correction enabled: true
Nonlinearity correction enabled: false
Boxcar width: 0
XAxis mode: Wavelengths
Number of Pixels in Spectrum: 3648
>>>>>Begin Spectral Data<<<<<
178.204	-44.71
178.424	-44.71
178.644	-44.71
178.864	-65.19
179.084	-138.92
179.304	-46.76
179.524	0.34
179.744	43.35
179.964	41.3
180.184	61.78
180.404	-5.8
180.624	4.44
180.844	-32.43
181.064	-81.58
181.283	-30.38
181.503	55.64
181.723	-9.9
181.943	10.58
182.163	90.45
182.383	12.63
182.602	14.68
182.822	-9.9
183.042	45.4
183.262	51.54
183.482	22.87
183.701	-91.82
183.921	2.39
184.141	29.01
184.361	26.96
184.58	43.35
184.8	61.78
185.02	-30.38
185.239	33.11
185.459	45.4
185.679	49.49
185.898	-34.47
186.118	78.16
186.338	39.25
186.557	49.49
186.777	2.39
186.997	47.44
187.216	31.06
187.436	43.35
187.655	39.25
187.875	-38.57
188.095	-42.67
188.314	92.5
188.534	61.78
188.753	24.92
188.973	82.26
189.192	53.59
189.412	16.73
189.631	22.87
189.851	29.01
190.07	49.49
190.29	31.06
190.509	-13.99
190.729	51.54
190.948	80.21
191.168	80.21
191.387	26.96
191.607	2.39
191.826	10.58
192.045	39.25
192.265	74.07
192.484	10.58
192.704	37.2
192.923	-81.58
193.142	80.21
193.362	84.31
193.581	39.25
193.8	47.44
194.02	43.35
194.239	33.11
194.458	35.16
194.678	6.49
194.897	65.88
195.116	-3.75
195.335	37.2
195.555	10.58
195.774	-20.14
195.993	135.51
196.212	10.58
196.432	100.69
196.651	-44.71
196.87	-16.04
197.089	135.51
197.308	31.06
197.528	57.68
197.747	10.58
197.966	59.73
198.185	86.36
198.404	-18.09
198.623	2.39
198.842	57.68
199.062	43.35
199.281	10.58
199.5	29.01
199.719	26.96
199.938	43.35
200.157	55.64
200.376	22.87
200.595	39.25
200.814	49.49
201.033	65.88
201.252	69.97
201.471	84.31
201.69	82.26
201.909	-1.71
202.128	51.54
202.347	22.87
202.566	-5.8
202.785	8.53
203.004	-28.33
203.223	59.73
203.442	43.35
203.661	-52.91
203.879	20.82
204.098	69.97
204.317	12.63
204.536	69.97
204.755	-9.9
204.974	6.49
205.193	55.64
205.411	84.31
205.63	82.26
205.849	45.4
206.068	-22.19
206.287	39.25
206.505	61.78
206.724	-30.38
206.943	-3.75
207.162	31.06
207.381	24.92
207.599	18.77
207.818	22.87
208.037	-26.28
208.255	74.07
208.474	6.49
208.693	74.07
208.911	35.16
209.13	35.16
209.349	78.16
209.567	86.36
209.786	24.92
210.005	63.83
210.223	22.87
210.442	6.49
210.661	67.92
210.879	92.5
211.098	-50.86
211.316	26.96
211.535	2.39
211.753	-9.9
211.972	24.92
212.191	8.53
212.409	74.07
212.628	59.73
212.846	0.34
213.065	31.06
213.283	104.79
213.502	26.96
213.72	2.39
213.938	-5.8
214.157	2.39
214.375	14.68
214.594	112.98
214.812	108.88
215.031	35.16
215.249	-1.71
215.467	18.77
215.686	-38.57
215.904	92.5
216.122	18.77
216.341	12.63
216.559	108.88
216.778	61.78
216.996	102.74
217.214	-87.72
217.432	-22.19
217.651	49.49
217.869	8.53
218.087	31.06
218.306	69.97
218.524	59.73
218.742	41.3
218.96	45.4
219.179	39.25
219.397	55.64
219.615	49.49
219.833	20.82
220.051	18.77
220.27	12.63
220.488	37.2
220.706	78.16
220.924	74.07
221.142	49.49
221.36	35.16
221.578	-44.71
221.796	2.39
222.015	18.77
222.233	24.92
222.451	10.58
222.669	-9.9
222.887	10.58
223.105	24.92
223.323	98.64
223.541	51.54
223.759	10.58
223.977	37.2
224.195	35.16
224.413	100.69
224.631	69.97
224.849	18.77
225.067	31.06
225.285	14.68
225.503	45.4
225.721	-26.28
225.939	-26.28
226.157	80.21
226.375	178.51
226.592	10.58
226.81	59.73
227.028	10.58
227.246	51.54
227.464	74.07
227.682	-7.85
227.9	41.3
228.117	84.31
228.335	127.32
228.553	24.92
228.771	59.73
228.989	22.87
229.206	4.44
229.424	37.2
229.642	-24.23
229.86	31.06
230.077	31.06
230.295	51.54
230.513	92.5
230.731	41.3
230.948	-16.04
231.166	92.5
231.384	26.96
231.601	49.49
231.819	84.31
232.037	49.49
232.254	-18.09
232.472	45.4
232.689	-28.33
232.907	12.63
233.125	24.92
233.342	61.78
233.56	-48.81
233.777	-3.75
233.995	-16.04
234.213	43.35
234.43	92.5
234.648	24.92
234.865	63.83
235.083	41.3
235.3	57.68
235.518	96.6
235.735	53.59
235.953	133.46
236.17	-3.75
236.388	22.87
236.605	82.26
236.822	35.16
237.04	94.55
237.257	74.07
237.475	-9.9
237.692	26.96
237.909	51.54
238.127	35.16
238.344	108.88
238.562	121.17
238.779	29.01
238.996	39.25
239.214	41.3
239.431	12.63
239.648	-30.38
239.865	84.31
240.083	22.87
240.3	18.77
240.517	-7.85
240.735	39.25
240.952	74.07
241.169	74.07
241.386	18.77
241.603	49.49
241.821	-13.99
242.038	106.84
242.255	6.49
242.472	-42.67
242.689	59.73
242.907	8.53
243.124	39.25
243.341	59.73
243.558	-1.71
243.775	-89.77
243.992	39.25
244.209	35.16
244.426	35.16
244.643	96.6
244.86	16.73
245.078	49.49
245.295	10.58
245.512	55.64
245.729	-22.19
245.946	10.58
246.163	117.08
246.38	84.31
246.597	39.25
246.814	-28.33
247.031	-30.38
247.248	-30.38
247.464	0.34
247.681	53.59
247.898	82.26
248.115	37.2
248.332	16.73
248.549	80.21
248.766	88.4
248.983	74.07
249.2	88.4
249.417	59.73
249.633	59.73
249.85	45.4
250.067	53.59
250.284	12.63
250.501	39.25
250.717	121.17
250.934	69.97
251.151	26.96
251.368	47.44
251.585	35.16
251.801	51.54
252.018	65.88
252.235	18.77
252.451	33.11
252.668	20.82
252.885	108.88
253.102	57.68
253.318	26.96
253.535	-28.33
253.752	24.92
253.968	29.01
254.185	-9.9
254.401	-7.85
254.618	6.49
254.835	-5.8
255.051	76.12
255.268	67.92
255.484	84.31
255.701	33.11
255.917	2.39
256.134	-1.71
256.351	29.01
256.567	37.2
256.784	-28.33
257	41.3
257.217	82.26
257.433	10.58
257.65	31.06
257.866	84.31
258.082	39.25
258.299	57.68
258.515	35.16
258.732	18.77
258.948	43.35
259.165	35.16
259.381	80.21
259.597	61.78
259.814	49.49
260.03	49.49
260.246	31.06
260.463	51.54
260.679	35.16
260.895	51.54
261.112	35.16
261.328	18.77
261.544	82.26
261.761	133.46
261.977	53.59
262.193	-20.14
262.409	45.4
262.626	61.78
262.842	49.49
263.058	18.77
263.274	16.73
263.49	-22.19
263.707	141.65
263.923	127.32
264.139	-9.9
264.355	51.54
264.571	96.6
264.787	78.16
265.004	106.84
265.22	-30.38
265.436	26.96
265.652	39.25
265.868	78.16
266.084	-18.09
266.3	49.49
266.516	29.01
266.732	-7.85
266.948	-5.8
267.164	33.11
267.38	112.98
267.596	35.16
267.812	123.22
268.028	43.35
268.244	39.25
268.46	45.4
268.676	-7.85
268.892	-26.28
269.108	-61.1
269.324	2.39
269.54	-42.67
269.756	80.21
269.972	22.87
270.188	22.87
270.403	-40.62
270.619	88.4
270.835	10.58
271.051	2.39
271.267	-7.85
271.483	-1.71
271.698	-32.43
271.914	-16.04
272.13	84.31
272.346	39.25
272.562	82.26
272.777	43.35
272.993	14.68
273.209	47.44
273.425	104.79
273.64	-3.75
273.856	43.35
274.072	55.64
274.287	-40.62
274.503	10.58
274.719	78.16
274.934	47.44
275.15	-40.62
275.366	84.31
275.581	57.68
275.797	84.31
276.012	45.4
276.228	12.63
276.444	26.96
276.659	65.88
276.875	0.34
277.09	47.44
277.306	24.92
277.521	55.64
277.737	37.2
277.952	133.46
278.168	0.34
278.383	86.36
278.599	43.35
278.814	6.49
279.03	-5.8
279.245	100.69
279.461	4.44
279.676	80.21
279.892	-36.52
280.107	-48.81
280.322	45.4
280.538	76.12
280.753	-9.9
280.969	-40.62
281.184	74.07
281.399	16.73
281.615	125.27
281.83	53.59
282.045	2.39
282.26	78.16
282.476	84.31
282.691	-5.8
282.906	10.58
283.122	49.49
283.337	35.16
283.552	47.44
283.767	10.58
283.983	59.73
284.198	-22.19
284.413	-13.99
284.628	-22.19
284.843	49.49
285.058	33.11
285.274	51.54
285.489	-22.19
285.704	102.74
285.919	10.58
286.134	31.06
286.349	33.11
286.564	26.96
286.779	18.77
286.995	76.12
287.21	2.39
287.425	-5.8
287.64	-18.09
287.855	2.39
288.07	-20.14
288.285	45.4
288.5	121.17
288.715	67.92
288.93	41.3
289.145	-36.52
289.36	8.53
289.575	16.73
289.79	22.87
290.004	90.45
290.219	24.92
290.434	76.12
290.649	-48.81
290.864	41.3
291.079	-16.04
291.294	35.16
291.509	16.73
291.724	104.79
291.938	10.58
292.153	37.2
292.368	67.92
292.583	41.3
292.798	125.27
293.012	90.45
293.227	69.97
293.442	57.68
293.657	76.12
293.871	151.89
294.086	-54.95
294.301	84.31
294.516	63.83
294.73	63.83
294.945	35.16
295.16	22.87
295.374	43.35
295.589	59.73
295.804	2.39
296.018	-36.52
296.233	108.88
296.447	98.64
296.662	-16.04
296.877	29.01
297.091	88.4
297.306	22.87
297.52	39.25
297.735	-9.9
297.949	49.49
298.164	-42.67
298.378	14.68
298.593	72.02
298.807	12.63
299.022	94.55
299.236	90.45
299.451	51.54
299.665	39.25
299.88	22.87
300.094	49.49
300.309	-3.75
300.523	4.44
300.737	80.21
300.952	-40.62
301.166	22.87
301.381	26.96
301.595	39.25
301.809	10.58
302.024	-79.53
302.238	26.96
302.452	12.63
302.667	24.92
302.881	26.96
303.095	47.44
303.309	26.96
303.524	88.4
303.738	31.06
303.952	-42.67
304.166	29.01
304.381	49.49
304.595	155.99
304.809	6.49
305.023	59.73
305.237	2.39
305.452	4.44
305.666	53.59
305.88	-13.99
306.094	-5.8
306.308	8.53
306.522	80.21
306.736	147.8
306.95	88.4
307.164	49.49
307.379	96.6
307.593	59.73
307.807	43.35
308.021	90.45
308.235	82.26
308.449	16.73
308.663	43.35
308.877	141.65
309.091	-1.71
309.305	86.36
309.519	2.39
309.733	26.96
309.947	14.68
310.161	137.56
310.374	57.68
310.588	31.06
310.802	39.25
311.016	-1.71
311.23	31.06
311.444	2.39
311.658	47.44
311.872	47.44
312.085	18.77
312.299	35.16
312.513	37.2
312.727	65.88
312.941	-13.99
313.154	31.06
313.368	22.87
313.582	33.11
313.796	10.58
314.009	0.34
314.223	92.5
314.437	-5.8
314.651	22.87
314.864	115.03
315.078	-9.9
315.292	16.73
315.505	-67.24
315.719	0.34
315.933	41.3
316.146	-5.8
316.36	33.11
316.573	82.26
316.787	72.02
317.001	65.88
317.214	-54.95
317.428	147.8
317.641	-30.38
317.855	45.4
318.068	0.34
318.282	57.68
318.495	47.44
318.709	8.53
318.922	74.07
319.136	121.17
319.349	29.01
319.563	-11.95
319.776	49.49
319.99	59.73
320.203	67.92
320.417	35.16
320.63	35.16
320.843	59.73
321.057	65.88
321.27	-26.28
321.483	51.54
321.697	59.73
321.91	100.69
322.124	67.92
322.337	98.64
322.55	-5.8
322.763	82.26
322.977	29.01
323.19	8.53
323.403	26.96
323.617	158.03
323.83	76.12
324.043	39.25
324.256	102.74
324.469	39.25
324.683	35.16
324.896	18.77
325.109	59.73
325.322	-18.09
325.535	180.56
325.748	80.21
325.962	8.53
326.175	-5.8
326.388	-9.9
326.601	92.5
326.814	0.34
327.027	55.64
327.24	35.16
327.453	51.54
327.666	47.44
327.879	108.88
328.092	-7.85
328.305	72.02
328.518	4.44
328.731	10.58
328.944	-7.85
329.157	22.87
329.37	84.31
329.583	102.74
329.796	59.73
330.009	-18.09
330.222	-26.28
330.435	41.3
330.648	108.88
330.861	37.2
331.073	39.25
331.286	43.35
331.499	12.63
331.712	6.49
331.925	10.58
332.138	67.92
332.35	117.08
332.563	4.44
332.776	39.25
332.989	16.73
333.202	43.35
333.414	6.49
333.627	4.44
333.84	76.12
334.053	115.03
334.265	37.2
334.478	45.4
334.691	55.64
334.903	59.73
335.116	6.49
335.329	47.44
335.541	98.64
335.754	72.02
335.966	22.87
336.179	31.06
336.392	104.79
336.604	86.36
336.817	61.78
337.029	100.69
337.242	6.49
337.454	14.68
337.667	6.49
337.88	82.26
338.092	82.26
338.305	2.39
338.517	55.64
338.729	24.92
338.942	104.79
339.154	84.31
339.367	31.06
339.579	47.44
339.792	51.54
340.004	96.6
340.217	76.12
340.429	-5.8
340.641	-7.85
340.854	43.35
341.066	14.68
341.278	78.16
341.491	102.74
341.703	127.32
341.915	-22.19
342.128	102.74
342.34	6.49
342.552	57.68
342.764	39.25
342.977	43.35
343.189	41.3
343.401	26.96
343.613	35.16
343.826	86.36
344.038	2.39
344.25	18.77
344.462	-9.9
344.674	47.44
344.886	35.16
345.099	63.83
345.311	35.16
345.523	55.64
345.735	49.49
345.947	67.92
346.159	53.59
346.371	18.77
346.583	67.92
346.795	170.32
347.007	-79.53
347.219	76.12
347.431	47.44
347.643	86.36
347.855	55.64
348.067	-11.95
348.279	10.58
348.491	90.45
348.703	43.35
348.915	76.12
349.127	49.49
349.339	10.58
349.551	-32.43
349.763	67.92
349.975	0.34
350.187	94.55
350.399	123.22
350.61	16.73
350.822	-7.85
351.034	65.88
351.246	84.31
351.458	0.34
351.669	10.58
351.881	69.97
352.093	2.39
352.305	37.2
352.517	96.6
352.728	151.89
352.94	72.02
353.152	45.4
353.363	-16.04
353.575	145.75
353.787	12.63
353.999	84.31
354.21	115.03
354.422	88.4
354.633	72.02
354.845	22.87
355.057	76.12
355.268	69.97
355.48	76.12
355.692	67.92
355.903	67.92
356.115	59.73
356.326	31.06
356.538	102.74
356.749	49.49
356.961	76.12
357.172	14.68
357.384	65.88
357.595	125.27
357.807	-18.09
358.018	-3.75
358.23	12.63
358.441	108.88
358.653	55.64
358.864	33.11
359.075	69.97
359.287	14.68
359.498	37.2
359.709	59.73
359.921	67.92
360.132	82.26
360.344	69.97
360.555	43.35
360.766	51.54
360.977	45.4
361.189	96.6
361.4	16.73
361.611	-1.71
361.823	10.58
362.034	0.34
362.245	20.82
362.456	63.83
362.667	49.49
362.879	49.49
363.09	72.02
363.301	31.06
363.512	72.02
363.723	8.53
363.935	2.39
364.146	90.45
364.357	47.44
364.568	121.17
364.779	115.03
364.99	51.54
365.201	31.06
365.412	92.5
365.623	-52.91
365.834	94.55
366.045	39.25
366.256	76.12
366.467	59.73
366.678	49.49
366.889	6.49
367.1	-42.67
367.311	82.26
367.522	-22.19
367.733	96.6
367.944	84.31
368.155	90.45
368.366	6.49
368.577	133.46
368.788	98.64
368.999	8.53
369.209	31.06
369.42	151.89
369.631	67.92
369.842	100.69
370.053	14.68
370.264	35.16
370.474	-26.28
370.685	59.73
370.896	49.49
371.107	88.4
371.317	78.16
371.528	-26.28
371.739	133.46
371.95	-11.95
372.16	115.03
372.371	18.77
372.582	43.35
372.792	86.36
373.003	51.54
373.214	43.35
373.424	69.97
373.635	24.92
373.846	61.78
374.056	43.35
374.267	35.16
374.477	31.06
374.688	22.87
374.898	92.5
375.109	108.88
375.319	35.16
375.53	98.64
375.74	41.3
375.951	115.03
376.161	84.31
376.372	69.97
376.582	45.4
376.793	72.02
377.003	-79.53
377.214	108.88
377.424	45.4
377.635	55.64
377.845	45.4
378.055	43.35
378.266	-11.95
378.476	33.11
378.686	110.93
378.897	112.98
379.107	49.49
379.317	94.55
379.528	8.53
379.738	80.21
379.948	24.92
380.158	8.53
380.369	20.82
380.579	67.92
380.789	-30.38
380.999	43.35
381.21	22.87
381.42	80.21
381.63	31.06
381.84	90.45
382.05	100.69
382.261	45.4
382.471	72.02
382.681	84.31
382.891	49.49
383.101	57.68
383.311	16.73
383.521	72.02
383.731	29.01
383.941	125.27
384.151	2.39
384.361	18.77
384.571	41.3
384.781	45.4
384.991	37.2
385.201	8.53
385.411	102.74
385.621	137.56
385.831	100.69
386.041	26.96
386.251	115.03
386.461	129.36
386.671	76.12
386.881	112.98
387.091	12.63
387.301	164.18
387.511	86.36
387.72	96.6
387.93	39.25
388.14	14.68
388.35	112.98
388.56	72.02
388.769	67.92
388.979	82.26
389.189	26.96
389.399	57.68
389.609	49.49
389.818	67.92
390.028	63.83
390.238	63.83
390.447	33.11
390.657	121.17
390.867	35.16
391.076	84.31
391.286	80.21
391.496	76.12
391.705	133.46
391.915	172.37
392.125	96.6
392.334	67.92
392.544	57.68
392.753	112.98
392.963	35.16
393.172	155.99
393.382	16.73
393.591	92.5
393.801	51.54
394.01	104.79
394.22	133.46
394.429	108.88
394.639	117.08
394.848	61.78
395.058	151.89
395.267	96.6
395.477	96.6
395.686	51.54
395.895	186.71
396.105	106.84
396.314	121.17
396.524	100.69
396.733	57.68
396.942	84.31
397.152	121.17
397.361	82.26
397.57	108.88
397.78	123.22
397.989	125.27
398.198	160.08
398.407	115.03
398.617	47.44
398.826	112.98
399.035	67.92
399.244	47.44
399.453	203.09
399.663	94.55
399.872	108.88
400.081	147.8
400.29	108.88
400.499	141.65
400.708	133.46
400.917	135.51
401.127	102.74
401.336	43.35
401.545	76.12
401.754	158.03
401.963	10.58
402.172	100.69
402.381	84.31
402.59	127.32
402.799	143.7
403.008	117.08
403.217	14.68
403.426	141.65
403.635	72.02
403.844	225.62
404.053	149.84
404.262	149.84
404.471	192.85
404.68	141.65
404.888	76.12
405.097	100.69
405.306	74.07
405.515	207.19
405.724	133.46
405.933	237.91
406.142	174.42
406.35	217.43
406.559	112.98
406.768	172.37
406.977	223.57
407.185	207.19
407.394	164.18
407.603	158.03
407.812	182.61
408.02	321.87
408.229	239.95
408.438	198.99
408.646	231.76
408.855	260.43
409.064	280.91
409.272	321.87
409.481	270.67
409.69	285.01
409.898	305.49
410.107	385.36
410.315	368.98
410.524	387.41
410.733	416.08
410.941	358.74
411.15	330.06
411.358	311.63
411.567	399.7
411.775	436.56
411.984	422.22
412.192	450.89
412.401	444.75
412.609	446.8
412.818	534.86
413.026	514.38
413.234	504.14
413.443	549.2
413.651	545.1
413.86	565.58
414.068	608.59
414.276	674.12
414.485	629.07
414.693	690.51
414.901	731.47
415.11	825.67
415.318	725.32
415.526	768.33
415.734	862.54
415.943	733.51
416.151	772.43
416.359	813.38
416.567	907.59
416.776	944.45
416.984	1061.19
417.192	1005.89
417.4	981.32
417.608	1028.42
417.817	1126.72
418.025	1063.24
418.233	1210.69
418.441	1106.24
418.649	1253.7
418.857	1257.79
419.065	1327.43
419.273	1388.86
419.481	1327.43
419.689	1517.89
419.897	1564.99
420.105	1579.33
420.313	1591.61
420.521	1702.2
420.729	1706.3
420.937	1806.65
421.145	1845.56
421.353	1941.82
421.561	1945.91
421.769	2095.41
421.977	2044.21
422.185	2165.04
422.393	2236.72
422.601	2316.59
422.809	2244.92
423.017	2378.03
423.224	2525.49
423.432	2507.06
423.64	2496.82
423.848	2754.86
424.056	2718
424.263	2918.7
424.471	2951.46
424.679	2967.85
424.887	3242.28
425.094	3340.58
425.302	3268.9
425.51	3334.43
425.718	3569.95
425.925	3641.63
426.133	3621.15
426.341	3932.44
426.548	4051.22
426.756	3975.45
426.964	4184.34
427.171	4159.77
427.379	4387.09
427.586	4485.39
427.794	4516.11
428.001	4917.51
428.209	4987.15
428.417	4997.39
428.624	5327.11
428.832	5476.61
429.039	5288.2
429.247	5316.87
429.454	5730.56
429.662	6205.69
429.869	5832.96
430.076	6387.96
430.284	5910.78
430.491	6381.81
430.699	6590.7
430.906	6746.35
431.114	6760.69
431.321	6930.67
431.528	7063.79
431.736	7661.79
431.943	7780.57
432.15	7786.72
432.358	7766.24
432.565	8089.82
432.772	8136.92
432.979	8722.64
433.187	8820.94
433.394	8820.94
433.601	9410.76
433.808	9210.06
434.016	9533.64
434.223	9750.72
434.43	10340.54
434.637	10227.9
434.844	10651.83
435.052	10870.96
435.259	10633.4
435.466	10850.48
435.673	10821.81
435.88	11538.6
436.087	11983.01
436.294	12265.63
436.501	11727.01
436.708	12247.19
436.915	12443.8
437.122	13183.12
437.329	12877.97
437.537	13361.29
437.743	13451.4
437.95	13570.18
438.157	14241.92
438.364	14649.46
438.571	14778.48
438.778	14643.32
438.985	16126.05
439.192	15358.06
439.399	15919.2
439.606	15517.8
439.813	16552.02
440.02	17610.82
440.227	17221.71
440.433	16855.12
440.64	17645.64
440.847	17649.74
441.054	17866.82
441.261	18884.66
441.467	18681.91
441.674	19429.42
441.881	19941.41
442.088	19525.68
442.294	19529.77
442.501	20166.69
442.708	20619.29
442.914	21477.39
443.121	21995.53
443.328	21569.55
443.534	22943.74
443.741	22048.77
443.948	22302.72
444.154	23767.02
444.361	23525.36
444.568	23920.62
444.774	23689.2
444.981	24086.5
445.187	24551.39
445.394	26052.55
445.6	25536.46
445.807	27670.45
446.013	26355.65
446.22	27045.82
446.426	28340.13
446.633	28397.48
446.839	29323.16
447.046	28022.7
447.252	29749.14
447.459	29513.62
447.665	29235.1
447.871	30773.12
448.078	32014.19
448.284	30476.16
448.491	31391.61
448.697	32403.3
448.903	33220.44
449.11	33111.9
449.316	32548.71
449.522	32757.6
449.728	33789.78
449.935	34504.52
450.141	34111.31
450.347	34846.53
450.553	34051.92
450.76	33941.33
450.966	35262.27
451.172	34631.49
451.378	35499.83
451.584	34924.35
451.791	35768.12
451.997	35319.61
452.203	36327.21
452.409	36030.26
452.615	35637.05
452.821	34516.81
453.027	34107.21
453.233	36097.84
453.44	34269
453.646	34881.35
453.852	34725.7
454.058	35544.89
454.264	34250.57
454.47	34836.29
454.676	34113.36
454.882	35217.21
455.088	32264.04
455.294	32692.07
455.5	32862.05
455.705	33148.76
455.911	32089.96
456.117	31113.08
456.323	30936.96
456.529	29435.8
456.735	30609.28
456.941	29644.69
457.147	28876.7
457.352	28143.53
457.558	27924.4
457.764	28194.73
457.97	27242.42
458.176	26728.38
458.381	26601.41
458.587	25370.58
458.793	25587.66
458.999	24227.81
459.204	25907.15
459.41	25069.53
459.616	23611.37
459.821	23607.28
460.027	23443.44
460.233	22722.55
460.438	21841.93
460.644	22056.96
460.85	20928.53
461.055	20762.65
461.261	20535.32
461.466	19064.88
461.672	18620.47
461.878	20105.25
462.083	18556.99
462.289	18116.67
462.494	18036.8
462.7	17389.64
462.905	16994.39
463.111	17432.65
463.316	17225.81
463.522	17033.3
463.727	17184.85
463.932	17154.13
464.138	17004.63
464.343	16887.89
464.549	16476.25
464.754	16961.62
464.959	17100.88
465.165	16984.15
465.37	16181.34
465.575	15767.65
465.781	16191.58
465.986	16425.05
466.191	15552.62
466.397	15720.55
466.602	14780.53
466.807	15282.28
467.012	15247.47
467.218	15249.52
467.423	15134.83
467.628	15220.85
467.833	15622.25
