Data from USB4F104151__193__10-29-26-617.txt Node

Date: Wed Mar 12 10:29:26 EDT 2025
User: louis
Spectrometer: USB4F10415
Trigger mode: 4
Integration Time (sec): 3.000000E-2
Scans to average: 1
Electric dark correction enabled: true
Nonlinearity correction enabled: false
Boxcar width: 0
XAxis mode: Wavelengths
Number of Pixels in Spectrum: 3648
>>>>>Begin Spectral Data<<<<<
178.204	-60.59
178.424	-60.59
178.644	-60.59
178.864	-97.45
179.084	-89.26
179.304	27.48
179.524	19.29
179.744	-31.91
179.964	23.38
180.184	25.43
180.404	7
180.624	54.1
180.844	-50.35
181.064	-15.53
181.283	-13.48
181.503	-15.53
181.723	-29.87
181.943	-19.63
182.163	9.05
182.383	31.57
182.602	2.9
182.822	70.48
183.042	25.43
183.262	-21.67
183.482	11.09
183.701	58.2
183.921	-27.82
184.141	2.9
184.361	29.52
184.58	-23.72
184.8	95.06
185.02	39.76
185.239	50
185.459	-36.01
185.679	72.53
185.898	-85.16
186.118	33.62
186.338	-40.11
186.557	33.62
186.777	21.33
186.997	0.85
187.216	9.05
187.436	21.33
187.655	17.24
187.875	27.48
188.095	-9.39
188.314	-27.82
188.534	72.53
188.753	117.59
188.973	41.81
189.192	70.48
189.412	7
189.631	-46.25
189.851	-5.29
190.07	84.82
190.29	-29.87
190.509	7
190.729	52.05
190.948	74.58
191.168	162.64
191.387	50
191.607	68.44
191.826	-11.43
192.045	-7.34
192.265	-3.24
192.484	60.24
192.704	13.14
192.923	4.95
193.142	140.12
193.362	35.67
193.581	95.06
193.8	-19.63
194.02	113.49
194.239	-48.3
194.458	56.15
194.678	-19.63
194.897	25.43
195.116	9.05
195.335	54.1
195.555	39.76
195.774	25.43
195.993	43.86
196.212	-25.77
196.432	72.53
196.651	-7.34
196.87	-56.49
197.089	82.77
197.308	21.33
197.528	37.72
197.747	-15.53
197.966	50
198.185	90.96
198.404	-48.3
198.623	33.62
198.842	23.38
199.062	13.14
199.281	-9.39
199.5	-25.77
199.719	-11.43
199.938	-11.43
200.157	31.57
200.376	-27.82
200.595	7
200.814	-21.67
201.033	37.72
201.252	39.76
201.471	-31.91
201.69	47.96
201.909	45.91
202.128	74.58
202.347	47.96
202.566	78.68
202.785	52.05
203.004	11.09
203.223	62.29
203.442	9.05
203.661	-19.63
203.879	21.33
204.098	29.52
204.317	13.14
204.536	45.91
204.755	-15.53
204.974	107.35
205.193	60.24
205.411	56.15
205.63	-5.29
205.849	11.09
206.068	-17.58
206.287	2.9
206.505	58.2
206.724	25.43
206.943	-1.19
207.162	52.05
207.381	45.91
207.599	54.1
207.818	45.91
208.037	52.05
208.255	50
208.474	39.76
208.693	60.24
208.911	33.62
209.13	52.05
209.349	117.59
209.567	101.2
209.786	115.54
210.005	39.76
210.223	-11.43
210.442	23.38
210.661	70.48
210.879	25.43
211.098	-11.43
211.316	31.57
211.535	72.53
211.753	58.2
211.972	39.76
212.191	-25.77
212.409	113.49
212.628	21.33
212.846	-54.44
213.065	84.82
213.283	15.19
213.502	0.85
213.72	60.24
213.938	21.33
214.157	-27.82
214.375	35.67
214.594	50
214.812	7
215.031	35.67
215.249	-50.35
215.467	41.81
215.686	54.1
215.904	127.83
216.122	7
216.341	45.91
216.559	0.85
216.778	58.2
216.996	62.29
217.214	97.11
217.432	2.9
217.651	-38.06
217.869	35.67
218.087	0.85
218.306	72.53
218.524	31.57
218.742	-7.34
218.96	45.91
219.179	117.59
219.397	-21.67
219.615	78.68
219.833	-1.19
220.051	-3.24
220.27	54.1
220.488	11.09
220.706	29.52
220.924	68.44
221.142	74.58
221.36	-1.19
221.578	78.68
221.796	33.62
222.015	-15.53
222.233	23.38
222.451	109.4
222.669	33.62
222.887	19.29
223.105	-9.39
223.323	-15.53
223.541	64.34
223.759	45.91
223.977	60.24
224.195	13.14
224.413	88.92
224.631	33.62
224.849	64.34
225.067	119.64
225.285	31.57
225.503	-29.87
225.721	-72.87
225.939	-68.78
226.157	-7.34
226.375	84.82
226.592	2.9
226.81	-52.39
227.028	50
227.246	82.77
227.464	29.52
227.682	-36.01
227.9	11.09
228.117	-42.15
228.335	9.05
228.553	0.85
228.771	33.62
228.989	109.4
229.206	62.29
229.424	35.67
229.642	56.15
229.86	39.76
230.077	45.91
230.295	47.96
230.513	52.05
230.731	9.05
230.948	15.19
231.166	25.43
231.384	29.52
231.601	15.19
231.819	78.68
232.037	-15.53
232.254	-36.01
232.472	-19.63
232.689	-48.3
232.907	99.16
233.125	50
233.342	-9.39
233.56	66.39
233.777	21.33
233.995	2.9
234.213	56.15
234.43	31.57
234.648	-40.11
234.865	72.53
235.083	21.33
235.3	66.39
235.518	21.33
235.735	4.95
235.953	35.67
236.17	7
236.388	50
236.605	62.29
236.822	45.91
237.04	29.52
237.257	58.2
237.475	-23.72
237.692	-31.91
237.909	23.38
238.127	-1.19
238.344	-5.29
238.562	37.72
238.779	-7.34
238.996	41.81
239.214	33.62
239.431	31.57
239.648	70.48
239.865	19.29
240.083	9.05
240.3	21.33
240.517	-3.24
240.735	-9.39
240.952	31.57
241.169	84.82
241.386	58.2
241.603	78.68
241.821	-40.11
242.038	115.54
242.255	50
242.472	9.05
242.689	88.92
242.907	80.72
243.124	62.29
243.341	0.85
243.558	9.05
243.775	4.95
243.992	-19.63
244.209	35.67
244.426	33.62
244.643	58.2
244.86	-60.59
245.078	90.96
245.295	58.2
245.512	23.38
245.729	31.57
245.946	31.57
246.163	-40.11
246.38	95.06
246.597	33.62
246.814	99.16
247.031	54.1
247.248	60.24
247.464	47.96
247.681	62.29
247.898	72.53
248.115	60.24
248.332	0.85
248.549	121.68
248.766	47.96
248.983	109.4
249.2	62.29
249.417	41.81
249.633	50
249.85	31.57
250.067	54.1
250.284	25.43
250.501	-3.24
250.717	35.67
250.934	-36.01
251.151	-31.91
251.368	43.86
251.585	9.05
251.801	66.39
252.018	11.09
252.235	23.38
252.451	-3.24
252.668	-15.53
252.885	86.87
253.102	105.3
253.318	13.14
253.535	39.76
253.752	50
253.968	-5.29
254.185	-11.43
254.401	-44.2
254.618	131.92
254.835	-3.24
255.051	-19.63
255.268	82.77
255.484	11.09
255.701	-5.29
255.917	74.58
256.134	-7.34
256.351	88.92
256.567	4.95
256.784	-42.15
257	-25.77
257.217	52.05
257.433	115.54
257.65	0.85
257.866	103.25
258.082	68.44
258.299	-27.82
258.515	15.19
258.732	80.72
258.948	29.52
259.165	7
259.381	-3.24
259.597	37.72
259.814	35.67
260.03	-23.72
260.246	-62.63
260.463	138.07
260.679	62.29
260.895	29.52
261.112	45.91
261.328	50
261.544	4.95
261.761	99.16
261.977	27.48
262.193	17.24
262.409	23.38
262.626	7
262.842	19.29
263.058	-25.77
263.274	68.44
263.49	95.06
263.707	62.29
263.923	7
264.139	39.76
264.355	-13.48
264.571	62.29
264.787	74.58
265.004	31.57
265.22	39.76
265.436	99.16
265.652	19.29
265.868	72.53
266.084	9.05
266.3	86.87
266.516	19.29
266.732	17.24
266.948	21.33
267.164	23.38
267.38	50
267.596	-19.63
267.812	95.06
268.028	37.72
268.244	-1.19
268.46	2.9
268.676	35.67
268.892	25.43
269.108	82.77
269.324	23.38
269.54	47.96
269.756	41.81
269.972	37.72
270.188	47.96
270.403	2.9
270.619	-5.29
270.835	23.38
271.051	-29.87
271.267	-7.34
271.483	-48.3
271.698	31.57
271.914	0.85
272.13	33.62
272.346	66.39
272.562	-7.34
272.777	17.24
272.993	0.85
273.209	74.58
273.425	-72.87
273.64	4.95
273.856	15.19
274.072	-46.25
274.287	15.19
274.503	115.54
274.719	0.85
274.934	41.81
275.15	15.19
275.366	17.24
275.581	-52.39
275.797	31.57
276.012	62.29
276.228	88.92
276.444	43.86
276.659	19.29
276.875	-33.96
277.09	82.77
277.306	-23.72
277.521	2.9
277.737	-48.3
277.952	80.72
278.168	39.76
278.383	52.05
278.599	25.43
278.814	15.19
279.03	19.29
279.245	101.2
279.461	99.16
279.676	50
279.892	-81.07
280.107	50
280.322	-27.82
280.538	58.2
280.753	37.72
280.969	76.63
281.184	-81.07
281.399	25.43
281.615	-11.43
281.83	21.33
282.045	29.52
282.26	41.81
282.476	45.91
282.691	72.53
282.906	-52.39
283.122	-1.19
283.337	7
283.552	29.52
283.767	54.1
283.983	43.86
284.198	52.05
284.413	35.67
284.628	7
284.843	60.24
285.058	25.43
285.274	4.95
285.489	-3.24
285.704	62.29
285.919	60.24
286.134	54.1
286.349	41.81
286.564	52.05
286.779	66.39
286.995	23.38
287.21	-50.35
287.425	17.24
287.64	41.81
287.855	-23.72
288.07	-13.48
288.285	62.29
288.5	50
288.715	2.9
288.93	2.9
289.145	2.9
289.36	29.52
289.575	97.11
289.79	15.19
290.004	9.05
290.219	-5.29
290.434	-1.19
290.649	72.53
290.864	15.19
291.079	31.57
291.294	60.24
291.509	50
291.724	58.2
291.938	43.86
292.153	45.91
292.368	47.96
292.583	162.64
292.798	17.24
293.012	0.85
293.227	15.19
293.442	45.91
293.657	52.05
293.871	74.58
294.086	68.44
294.301	50
294.516	9.05
294.73	21.33
294.945	-58.54
295.16	37.72
295.374	37.72
295.589	52.05
295.804	-23.72
296.018	70.48
296.233	31.57
296.447	11.09
296.662	2.9
296.877	62.29
297.091	13.14
297.306	41.81
297.52	2.9
297.735	-23.72
297.949	47.96
298.164	70.48
298.378	50
298.593	4.95
298.807	58.2
299.022	54.1
299.236	25.43
299.451	31.57
299.665	37.72
299.88	37.72
300.094	70.48
300.309	115.54
300.523	-25.77
300.737	0.85
300.952	23.38
301.166	50
301.381	-3.24
301.595	37.72
301.809	54.1
302.024	-7.34
302.238	88.92
302.452	88.92
302.667	25.43
302.881	111.44
303.095	41.81
303.309	76.63
303.524	-5.29
303.738	31.57
303.952	19.29
304.166	50
304.381	-76.97
304.595	39.76
304.809	9.05
305.023	-21.67
305.237	27.48
305.452	45.91
305.666	-3.24
305.88	119.64
306.094	-7.34
306.308	33.62
306.522	45.91
306.736	43.86
306.95	29.52
307.164	-23.72
307.379	7
307.593	43.86
307.807	58.2
308.021	37.72
308.235	82.77
308.449	-3.24
308.663	2.9
308.877	123.73
309.091	78.68
309.305	101.2
309.519	2.9
309.733	27.48
309.947	27.48
310.161	56.15
310.374	15.19
310.588	9.05
310.802	62.29
311.016	88.92
311.23	7
311.444	27.48
311.658	2.9
311.872	103.25
312.085	60.24
312.299	82.77
312.513	41.81
312.727	37.72
312.941	-1.19
313.154	47.96
313.368	93.01
313.582	19.29
313.796	25.43
314.009	43.86
314.223	33.62
314.437	148.31
314.651	45.91
314.864	90.96
315.078	-21.67
315.292	2.9
315.505	41.81
315.719	74.58
315.933	76.63
316.146	39.76
316.36	21.33
316.573	105.3
316.787	15.19
317.001	-1.19
317.214	50
317.428	11.09
317.641	13.14
317.855	13.14
318.068	39.76
318.282	56.15
318.495	62.29
318.709	-3.24
318.922	119.64
319.136	37.72
319.349	45.91
319.563	-11.43
319.776	121.68
319.99	37.72
320.203	27.48
320.417	-17.58
320.63	88.92
320.843	97.11
321.057	-7.34
321.27	13.14
321.483	101.2
321.697	54.1
321.91	45.91
322.124	93.01
322.337	31.57
322.55	41.81
322.763	-1.19
322.977	-11.43
323.19	37.72
323.403	56.15
323.617	27.48
323.83	88.92
324.043	-25.77
324.256	29.52
324.469	0.85
324.683	23.38
324.896	58.2
325.109	76.63
325.322	-68.78
325.535	33.62
325.748	23.38
325.962	-23.72
326.175	66.39
326.388	95.06
326.601	88.92
326.814	17.24
327.027	-11.43
327.24	52.05
327.453	21.33
327.666	72.53
327.879	25.43
328.092	90.96
328.305	56.15
328.518	76.63
328.731	-11.43
328.944	45.91
329.157	45.91
329.37	-25.77
329.583	84.82
329.796	111.44
330.009	25.43
330.222	35.67
330.435	58.2
330.648	43.86
330.861	140.12
331.073	54.1
331.286	111.44
331.499	76.63
331.712	-68.78
331.925	2.9
332.138	60.24
332.35	33.62
332.563	45.91
332.776	64.34
332.989	62.29
333.202	64.34
333.414	47.96
333.627	131.92
333.84	9.05
334.053	-3.24
334.265	56.15
334.478	9.05
334.691	131.92
334.903	97.11
335.116	13.14
335.329	56.15
335.541	125.78
335.754	90.96
335.966	41.81
336.179	-7.34
336.392	82.77
336.604	25.43
336.817	60.24
337.029	47.96
337.242	50
337.454	47.96
337.667	64.34
337.88	58.2
338.092	56.15
338.305	21.33
338.517	47.96
338.729	121.68
338.942	88.92
339.154	-48.3
339.367	70.48
339.579	47.96
339.792	82.77
340.004	90.96
340.217	-13.48
340.429	70.48
340.641	-64.68
340.854	31.57
341.066	15.19
341.278	60.24
341.491	113.49
341.703	25.43
341.915	66.39
342.128	45.91
342.34	29.52
342.552	-1.19
342.764	45.91
342.977	74.58
343.189	17.24
343.401	13.14
343.613	17.24
343.826	17.24
344.038	7
344.25	41.81
344.462	-3.24
344.674	23.38
344.886	0.85
345.099	99.16
345.311	45.91
345.523	41.81
345.735	84.82
345.947	84.82
346.159	0.85
346.371	29.52
346.583	45.91
346.795	68.44
347.007	-33.96
347.219	66.39
347.431	66.39
347.643	78.68
347.855	11.09
348.067	33.62
348.279	-27.82
348.491	25.43
348.703	45.91
348.915	21.33
349.127	-27.82
349.339	47.96
349.551	47.96
349.763	70.48
349.975	21.33
350.187	103.25
350.399	31.57
350.61	62.29
350.822	50
351.034	23.38
351.246	-1.19
351.458	70.48
351.669	52.05
351.881	-7.34
352.093	37.72
352.305	41.81
352.517	86.87
352.728	97.11
352.94	70.48
353.152	23.38
353.363	74.58
353.575	78.68
353.787	88.92
353.999	-33.96
354.21	109.4
354.422	90.96
354.633	-3.24
354.845	21.33
355.057	50
355.268	111.44
355.48	74.58
355.692	-19.63
355.903	-17.58
356.115	72.53
356.326	-7.34
356.538	115.54
356.749	80.72
356.961	88.92
357.172	33.62
357.384	35.67
357.595	25.43
357.807	56.15
358.018	21.33
358.23	2.9
358.441	152.4
358.653	52.05
358.864	-1.19
359.075	103.25
359.287	78.68
359.498	95.06
359.709	47.96
359.921	43.86
360.132	-7.34
360.344	95.06
360.555	58.2
360.766	60.24
360.977	64.34
361.189	76.63
361.4	60.24
361.611	56.15
361.823	35.67
362.034	95.06
362.245	82.77
362.456	74.58
362.667	43.86
362.879	56.15
363.09	9.05
363.301	-3.24
363.512	88.92
363.723	62.29
363.935	-48.3
364.146	78.68
364.357	119.64
364.568	113.49
364.779	13.14
364.99	-31.91
365.201	11.09
365.412	19.29
365.623	-64.68
365.834	99.16
366.045	58.2
366.256	97.11
366.467	13.14
366.678	29.52
366.889	0.85
367.1	-9.39
367.311	39.76
367.522	-25.77
367.733	117.59
367.944	39.76
368.155	95.06
368.366	43.86
368.577	74.58
368.788	7
368.999	9.05
369.209	80.72
369.42	97.11
369.631	66.39
369.842	33.62
370.053	97.11
370.264	68.44
370.474	7
370.685	95.06
370.896	70.48
371.107	127.83
371.317	88.92
371.528	45.91
371.739	72.53
371.95	39.76
372.16	35.67
372.371	82.77
372.582	43.86
372.792	72.53
373.003	127.83
373.214	25.43
373.424	117.59
373.635	37.72
373.846	50
374.056	68.44
374.267	82.77
374.477	4.95
374.688	117.59
374.898	-11.43
375.109	50
375.319	62.29
375.53	52.05
375.74	129.88
375.951	86.87
376.161	47.96
376.372	39.76
376.582	78.68
376.793	109.4
377.003	29.52
377.214	64.34
377.424	60.24
377.635	13.14
377.845	39.76
378.055	60.24
378.266	31.57
378.476	25.43
378.686	70.48
378.897	97.11
379.107	66.39
379.317	37.72
379.528	9.05
379.738	99.16
379.948	25.43
380.158	105.3
380.369	70.48
380.579	125.78
380.789	45.91
380.999	64.34
381.21	19.29
381.42	140.12
381.63	84.82
381.84	99.16
382.05	50
382.261	107.35
382.471	107.35
382.681	101.2
382.891	86.87
383.101	47.96
383.311	33.62
383.521	33.62
383.731	201.55
383.941	52.05
384.151	93.01
384.361	29.52
384.571	70.48
384.781	90.96
384.991	76.63
385.201	33.62
385.411	113.49
385.621	136.02
385.831	4.95
386.041	60.24
386.251	45.91
386.461	62.29
386.671	41.81
386.881	39.76
387.091	23.38
387.301	88.92
387.511	86.87
387.72	105.3
387.93	43.86
388.14	54.1
388.35	56.15
388.56	80.72
388.769	170.83
388.979	80.72
389.189	-5.29
389.399	54.1
389.609	68.44
389.818	80.72
390.028	62.29
390.238	99.16
390.447	93.01
390.657	82.77
390.867	56.15
391.076	37.72
391.286	93.01
391.496	88.92
391.705	66.39
391.915	39.76
392.125	156.5
392.334	72.53
392.544	97.11
392.753	93.01
392.963	76.63
393.172	101.2
393.382	148.31
393.591	189.27
393.801	66.39
394.01	107.35
394.22	107.35
394.429	54.1
394.639	127.83
394.848	109.4
395.058	123.73
395.267	107.35
395.477	43.86
395.686	185.17
395.895	136.02
396.105	193.36
396.314	93.01
396.524	101.2
396.733	43.86
396.942	160.59
397.152	82.77
397.361	113.49
397.57	88.92
397.78	119.64
397.989	136.02
398.198	105.3
398.407	119.64
398.617	111.44
398.826	156.5
399.035	197.46
399.244	127.83
399.453	72.53
399.663	115.54
399.872	133.97
400.081	117.59
400.29	156.5
400.499	115.54
400.708	113.49
400.917	101.2
401.127	185.17
401.336	115.54
401.545	103.25
401.754	148.31
401.963	158.55
402.172	189.27
402.381	129.88
402.59	148.31
402.799	90.96
403.008	183.12
403.217	129.88
403.426	156.5
403.635	144.21
403.844	168.79
404.053	222.03
404.262	226.13
404.471	185.17
404.68	248.66
404.888	158.55
405.097	203.6
405.306	199.51
405.515	222.03
405.724	242.51
405.933	170.83
406.142	254.8
406.35	277.33
406.559	234.32
406.768	258.9
406.977	277.33
407.185	193.36
407.394	250.71
407.603	226.13
407.812	234.32
408.02	222.03
408.229	289.62
408.438	287.57
408.646	310.1
408.855	332.62
409.064	314.19
409.272	295.76
409.481	349.01
409.69	306
409.898	422.73
410.107	371.54
410.315	496.46
410.524	400.21
410.733	443.21
410.941	510.8
411.15	467.79
411.358	500.56
411.567	553.8
411.775	533.33
411.984	508.75
412.192	574.28
412.401	539.47
412.609	670.54
412.818	613.2
413.026	705.35
413.234	723.79
413.443	740.17
413.651	707.4
413.86	744.27
414.068	787.27
414.276	846.66
414.485	836.42
414.693	852.81
414.901	932.68
415.11	981.83
415.318	1055.56
415.526	992.07
415.734	1037.13
415.943	1045.32
416.151	1135.43
416.359	1153.86
416.567	1219.39
416.776	1157.96
416.984	1209.15
417.192	1348.42
417.4	1311.55
417.608	1377.09
417.817	1385.28
418.025	1475.39
418.233	1524.54
418.441	1401.66
418.649	1592.13
418.857	1655.61
419.065	1725.24
419.273	1694.52
419.481	1766.2
419.689	1997.62
419.897	1925.94
420.105	2044.73
420.313	2118.45
420.521	2212.66
420.729	2194.23
420.937	2284.34
421.145	2294.58
421.353	2528.05
421.561	2589.49
421.769	2661.16
421.977	2759.47
422.185	2714.41
422.393	2982.7
422.601	3111.72
422.809	3142.44
423.017	3074.85
423.224	3134.25
423.432	3298.08
423.64	3394.34
423.848	3744.54
424.056	3496.74
424.263	3891.99
424.471	3830.55
424.679	3918.62
424.887	4199.19
425.094	4207.38
425.302	4213.53
425.51	4369.17
425.718	4393.75
425.925	4621.07
426.133	4651.79
426.341	5008.14
426.548	5266.18
426.756	5206.79
426.964	5352.2
427.171	5628.67
427.379	5802.75
427.586	6011.64
427.794	6198.01
428.001	6329.08
428.209	6679.28
428.417	6456.05
428.624	6990.57
428.832	7000.81
429.039	6988.52
429.247	6918.89
429.454	7619.3
429.662	8168.15
429.869	7490.28
430.076	8119
430.284	7881.44
430.491	8207.06
430.699	8743.63
430.906	8569.55
431.114	8886.99
431.321	9106.12
431.528	9407.17
431.736	9753.28
431.943	10492.6
432.15	9906.88
432.358	10191.55
432.565	10691.25
432.772	10611.38
432.979	11387.56
433.187	11174.57
433.394	11524.77
433.601	12356.25
433.808	12335.77
434.016	12325.53
434.223	12847.76
434.43	13435.53
434.637	13257.36
434.844	14101.12
435.052	14279.29
435.259	14385.79
435.466	14617.21
435.673	14238.33
435.88	15184.49
436.087	16345.69
436.294	16224.86
436.501	15692.39
436.708	16005.73
436.915	16509.53
437.122	17140.3
437.329	17089.1
437.537	17885.76
437.743	18139.71
437.95	17904.2
438.157	18760.25
438.364	19511.85
438.571	19182.13
438.778	19431.98
438.985	21582.35
439.192	20597.28
439.399	21207.57
439.606	20761.11
439.813	21699.08
440.02	23304.69
440.227	23046.65
440.433	22376.96
440.64	23491.05
440.847	23042.55
441.054	23749.1
441.261	25117.14
441.467	24977.88
441.674	25534.93
441.881	26161.61
442.088	26745.28
442.294	25962.95
442.501	26876.35
442.708	27687.34
442.914	28615.07
443.121	29403.54
443.328	28707.23
443.534	31029.63
443.741	29682.06
443.948	29688.21
444.154	31418.74
444.361	31328.63
444.568	32014.7
444.774	31590.77
444.981	31910.25
445.187	32711.01
445.394	34285.9
445.6	34048.33
445.807	37038.37
446.013	35268.92
446.22	36071.73
446.426	37546.26
446.633	37949.71
446.839	38934.79
447.046	37529.88
447.252	39571.71
447.459	39782.65
447.665	39225.6
447.871	40737
448.078	42584.27
448.284	40538.35
448.491	41808.09
448.697	43610.3
448.903	43968.69
449.11	43700.41
449.316	42723.53
449.522	43784.38
449.728	45328.55
449.935	45349.03
450.141	45183.14
450.347	46258.32
450.553	44730.54
450.76	45410.46
450.966	46950.54
451.172	46309.52
451.378	47249.54
451.584	46434.45
451.791	47593.6
451.997	47147.14
452.203	48132.21
452.409	48031.86
452.615	47689.85
452.821	46094.49
453.027	45375.65
453.233	47552.64
453.44	46121.11
453.646	46532.75
453.852	46856.33
454.058	47503.49
454.264	45846.68
454.47	46633.1
454.676	45213.86
454.882	46862.47
455.088	43206.85
455.294	43899.06
455.5	44071.09
455.705	44976.3
455.911	43305.15
456.117	42004.69
456.323	41378.01
456.529	39180.54
456.735	41134.31
456.941	39856.37
457.147	39452.92
457.352	38234.38
457.558	37480.73
457.764	37730.58
457.97	37296.41
458.176	36190.51
458.381	36317.48
458.587	34474.31
458.793	34206.03
458.999	32629.09
459.204	34859.33
459.41	34453.83
459.616	31471.99
459.821	31981.93
460.027	31770.99
460.233	30988.67
460.438	29581.71
460.644	29573.52
460.85	28832.16
461.055	28086.7
461.261	27771.31
461.466	25987.53
461.672	25395.67
461.878	26937.79
462.083	25160.15
462.289	24852.95
462.494	24500.7
462.7	23382.51
462.905	22956.54
463.111	23599.6
463.316	23781.87
463.522	23142.9
463.727	23452.14
463.932	23038.45
464.138	23083.51
464.343	23142.9
464.549	22426.11
464.754	23175.67
464.959	23091.7
465.165	22745.59
465.37	21965.32
465.575	21451.28
465.781	21977.61
465.986	22274.56
466.191	21279.25
466.397	21305.87
466.602	19798.57
466.807	21039.64
467.012	20908.57
467.218	20646.43
467.423	20290.08
467.628	20990.49
467.833	21248.53
468.038	20703.77
468.244	20335.14
468.449	20990.49
468.654	19870.25
