Data from USB4F104151__182__10-27-54-406.txt Node

Date: Wed Mar 12 10:27:54 EDT 2025
User: louis
Spectrometer: USB4F10415
Trigger mode: 4
Integration Time (sec): 3.000000E-2
Scans to average: 1
Electric dark correction enabled: true
Nonlinearity correction enabled: false
Boxcar width: 0
XAxis mode: Wavelengths
Number of Pixels in Spectrum: 3648
>>>>>Begin Spectral Data<<<<<
178.204	-112.98
178.424	-112.98
178.644	-112.98
178.864	-104.79
179.084	-121.17
179.304	-20.82
179.524	9.9
179.744	44.71
179.964	-29.01
180.184	57
180.404	-14.68
180.624	-74.07
180.844	42.67
181.064	-43.35
181.283	34.47
181.503	-10.58
181.723	3.75
181.943	30.38
182.163	-6.49
182.383	-10.58
182.602	-8.53
182.822	59.05
183.042	63.15
183.262	73.39
183.482	-43.35
183.701	-35.16
183.921	-12.63
184.141	40.62
184.361	1.71
184.58	22.19
184.8	7.85
185.02	-14.68
185.239	26.28
185.459	24.23
185.679	-22.87
185.898	34.47
186.118	-8.53
186.338	59.05
186.557	26.28
186.777	-2.39
186.997	13.99
187.216	5.8
187.436	67.24
187.655	40.62
187.875	89.77
188.095	-16.73
188.314	24.23
188.534	54.95
188.753	71.34
188.973	38.57
189.192	36.52
189.412	73.39
189.631	46.76
189.851	50.86
190.07	24.23
190.29	18.09
190.509	-63.83
190.729	-10.58
190.948	28.33
191.168	81.58
191.387	100.01
191.607	52.91
191.826	48.81
192.045	11.95
192.265	-35.16
192.484	44.71
192.704	40.62
192.923	22.19
193.142	73.39
193.362	28.33
193.581	-8.53
193.8	75.43
194.02	16.04
194.239	50.86
194.458	-10.58
194.678	81.58
194.897	69.29
195.116	16.04
195.335	67.24
195.555	32.43
195.774	30.38
195.993	59.05
196.212	30.38
196.432	-57.68
196.651	-2.39
196.87	65.19
197.089	48.81
197.308	46.76
197.528	7.85
197.747	13.99
197.966	102.06
198.185	77.48
198.404	-2.39
198.623	-8.53
198.842	-10.58
199.062	13.99
199.281	-8.53
199.5	71.34
199.719	28.33
199.938	22.19
200.157	75.43
200.376	48.81
200.595	48.81
200.814	1.71
201.033	-0.34
201.252	1.71
201.471	-74.07
201.69	59.05
201.909	65.19
202.128	16.04
202.347	-47.44
202.566	28.33
202.785	16.04
203.004	-31.06
203.223	79.53
203.442	13.99
203.661	-43.35
203.879	-29.01
204.098	5.8
204.317	-57.68
204.536	59.05
204.755	95.91
204.974	18.09
205.193	-4.44
205.411	91.82
205.63	30.38
205.849	18.09
206.068	75.43
206.287	-39.25
206.505	28.33
206.724	40.62
206.943	-39.25
207.162	-69.97
207.381	28.33
207.599	-35.16
207.818	67.24
208.037	-6.49
208.255	-8.53
208.474	-8.53
208.693	42.67
208.911	-86.36
209.13	34.47
209.349	54.95
209.567	65.19
209.786	-6.49
210.005	40.62
210.223	40.62
210.442	79.53
210.661	75.43
210.879	67.24
211.098	-12.63
211.316	50.86
211.535	134.82
211.753	18.09
211.972	40.62
212.191	-6.49
212.409	-20.82
212.628	57
212.846	67.24
213.065	46.76
213.283	89.77
213.502	-43.35
213.72	97.96
213.938	-45.4
214.157	-22.87
214.375	22.19
214.594	108.2
214.812	13.99
215.031	42.67
215.249	93.87
215.467	34.47
215.686	-43.35
215.904	48.81
216.122	-41.3
216.341	-2.39
216.559	-6.49
216.778	5.8
216.996	32.43
217.214	75.43
217.432	-14.68
217.651	16.04
217.869	-33.11
218.087	42.67
218.306	-16.73
218.524	38.57
218.742	36.52
218.96	71.34
219.179	-33.11
219.397	-29.01
219.615	132.78
219.833	34.47
220.051	32.43
220.27	-55.64
220.488	-0.34
220.706	-10.58
220.924	44.71
221.142	63.15
221.36	34.47
221.578	-6.49
221.796	38.57
222.015	52.91
222.233	28.33
222.451	42.67
222.669	46.76
222.887	26.28
223.105	75.43
223.323	13.99
223.541	7.85
223.759	-2.39
223.977	34.47
224.195	87.72
224.413	71.34
224.631	26.28
224.849	1.71
225.067	81.58
225.285	-8.53
225.503	-29.01
225.721	-82.26
225.939	18.09
226.157	36.52
226.375	104.11
226.592	-6.49
226.81	59.05
227.028	-2.39
227.246	106.15
227.464	-16.73
227.682	102.06
227.9	44.71
228.117	54.95
228.335	-16.73
228.553	-35.16
228.771	46.76
228.989	-49.49
229.206	32.43
229.424	24.23
229.642	13.99
229.86	20.14
230.077	63.15
230.295	22.19
230.513	57
230.731	44.71
230.948	77.48
231.166	132.78
231.384	-35.16
231.601	83.63
231.819	112.3
232.037	42.67
232.254	-2.39
232.472	77.48
232.689	-12.63
232.907	9.9
233.125	13.99
233.342	46.76
233.56	50.86
233.777	36.52
233.995	32.43
234.213	26.28
234.43	9.9
234.648	1.71
234.865	-39.25
235.083	34.47
235.3	81.58
235.518	5.8
235.735	85.67
235.953	106.15
236.17	16.04
236.388	59.05
236.605	44.71
236.822	18.09
237.04	-18.77
237.257	79.53
237.475	1.71
237.692	85.67
237.909	91.82
238.127	5.8
238.344	13.99
238.562	38.57
238.779	-47.44
238.996	-22.87
239.214	75.43
239.431	46.76
239.648	67.24
239.865	102.06
240.083	9.9
240.3	67.24
240.517	-10.58
240.735	54.95
240.952	65.19
241.169	97.96
241.386	1.71
241.603	34.47
241.821	28.33
242.038	18.09
242.255	42.67
242.472	-61.78
242.689	44.71
242.907	67.24
243.124	28.33
243.341	32.43
243.558	1.71
243.775	18.09
243.992	-10.58
244.209	57
244.426	106.15
244.643	38.57
244.86	9.9
245.078	85.67
245.295	40.62
245.512	42.67
245.729	18.09
245.946	52.91
246.163	42.67
246.38	-29.01
246.597	5.8
246.814	-14.68
247.031	-55.64
247.248	89.77
247.464	54.95
247.681	61.1
247.898	42.67
248.115	83.63
248.332	13.99
248.549	34.47
248.766	75.43
248.983	44.71
249.2	30.38
249.417	38.57
249.633	63.15
249.85	50.86
250.067	9.9
250.284	46.76
250.501	124.58
250.717	57
250.934	-39.25
251.151	-8.53
251.368	48.81
251.585	42.67
251.801	114.34
252.018	63.15
252.235	5.8
252.451	16.04
252.668	18.09
252.885	-10.58
253.102	52.91
253.318	-4.44
253.535	40.62
253.752	-10.58
253.968	24.23
254.185	-69.97
254.401	46.76
254.618	97.96
254.835	18.09
255.051	116.39
255.268	32.43
255.484	-35.16
255.701	59.05
255.917	67.24
256.134	-82.26
256.351	77.48
256.567	5.8
256.784	71.34
257	-6.49
257.217	75.43
257.433	28.33
257.65	46.76
257.866	65.19
258.082	-22.87
258.299	-18.77
258.515	-20.82
258.732	-37.2
258.948	46.76
259.165	38.57
259.381	-26.96
259.597	36.52
259.814	16.04
260.03	30.38
260.246	42.67
260.463	34.47
260.679	67.24
260.895	108.2
261.112	65.19
261.328	100.01
261.544	59.05
261.761	36.52
261.977	32.43
262.193	-4.44
262.409	48.81
262.626	97.96
262.842	30.38
263.058	3.75
263.274	34.47
263.49	9.9
263.707	83.63
263.923	93.87
264.139	48.81
264.355	-37.2
264.571	42.67
264.787	-0.34
265.004	97.96
265.22	67.24
265.436	50.86
265.652	-31.06
265.868	104.11
266.084	-6.49
266.3	30.38
266.516	42.67
266.732	-6.49
266.948	65.19
267.164	50.86
267.38	75.43
267.596	50.86
267.812	52.91
268.028	48.81
268.244	-24.92
268.46	36.52
268.676	46.76
268.892	48.81
269.108	-49.49
269.324	59.05
269.54	65.19
269.756	59.05
269.972	20.14
270.188	26.28
270.403	54.95
270.619	-10.58
270.835	13.99
271.051	3.75
271.267	-31.06
271.483	7.85
271.698	36.52
271.914	9.9
272.13	1.71
272.346	42.67
272.562	63.15
272.777	63.15
272.993	-29.01
273.209	54.95
273.425	34.47
273.64	-14.68
273.856	69.29
274.072	48.81
274.287	36.52
274.503	46.76
274.719	50.86
274.934	13.99
275.15	13.99
275.366	42.67
275.581	-0.34
275.797	1.71
276.012	108.2
276.228	32.43
276.444	13.99
276.659	52.91
276.875	-20.82
277.09	65.19
277.306	-31.06
277.521	9.9
277.737	32.43
277.952	97.96
278.168	32.43
278.383	-18.77
278.599	-14.68
278.814	32.43
279.03	54.95
279.245	95.91
279.461	-8.53
279.676	87.72
279.892	-78.16
280.107	-12.63
280.322	34.47
280.538	52.91
280.753	1.71
280.969	83.63
281.184	13.99
281.399	42.67
281.615	112.3
281.83	46.76
282.045	-6.49
282.26	3.75
282.476	-6.49
282.691	91.82
282.906	30.38
283.122	26.28
283.337	34.47
283.552	-33.11
283.767	28.33
283.983	24.23
284.198	-22.87
284.413	-2.39
284.628	-8.53
284.843	-55.64
285.058	38.57
285.274	-4.44
285.489	34.47
285.704	38.57
285.919	-31.06
286.134	16.04
286.349	9.9
286.564	22.19
286.779	104.11
286.995	30.38
287.21	61.1
287.425	3.75
287.64	-10.58
287.855	3.75
288.07	20.14
288.285	30.38
288.5	34.47
288.715	38.57
288.93	44.71
289.145	-26.96
289.36	42.67
289.575	18.09
289.79	77.48
290.004	-26.96
290.219	89.77
290.434	-72.02
290.649	87.72
290.864	16.04
291.079	-39.25
291.294	71.34
291.509	13.99
291.724	-24.92
291.938	-26.96
292.153	44.71
292.368	54.95
292.583	34.47
292.798	26.28
293.012	75.43
293.227	24.23
293.442	-0.34
293.657	95.91
293.871	57
294.086	-16.73
294.301	87.72
294.516	67.24
294.73	18.09
294.945	38.57
295.16	20.14
295.374	69.29
295.589	26.28
295.804	18.09
296.018	79.53
296.233	18.09
296.447	95.91
296.662	20.14
296.877	46.76
297.091	40.62
297.306	100.01
297.52	38.57
297.735	54.95
297.949	87.72
298.164	54.95
298.378	28.33
298.593	16.04
298.807	-43.35
299.022	97.96
299.236	87.72
299.451	9.9
299.665	22.19
299.88	79.53
300.094	-6.49
300.309	50.86
300.523	16.04
300.737	9.9
300.952	89.77
301.166	-8.53
301.381	-6.49
301.595	77.48
301.809	57
302.024	-16.73
302.238	-8.53
302.452	1.71
302.667	32.43
302.881	28.33
303.095	-22.87
303.309	83.63
303.524	44.71
303.738	-84.31
303.952	38.57
304.166	57
304.381	28.33
304.595	59.05
304.809	61.1
305.023	9.9
305.237	67.24
305.452	-43.35
305.666	42.67
305.88	7.85
306.094	112.3
306.308	42.67
306.522	42.67
306.736	57
306.95	24.23
307.164	13.99
307.379	28.33
307.593	108.2
307.807	34.47
308.021	65.19
308.235	11.95
308.449	-2.39
308.663	-41.3
308.877	40.62
309.091	106.15
309.305	50.86
309.519	42.67
309.733	-6.49
309.947	34.47
310.161	-26.96
310.374	38.57
310.588	18.09
310.802	18.09
311.016	-0.34
311.23	9.9
311.444	83.63
311.658	20.14
311.872	75.43
312.085	-22.87
312.299	13.99
312.513	9.9
312.727	91.82
312.941	61.1
313.154	24.23
313.368	18.09
313.582	34.47
313.796	85.67
314.009	48.81
314.223	34.47
314.437	20.14
314.651	79.53
314.864	-8.53
315.078	22.19
315.292	5.8
315.505	67.24
315.719	75.43
315.933	20.14
316.146	1.71
316.36	52.91
316.573	71.34
316.787	48.81
317.001	16.04
317.214	40.62
317.428	63.15
317.641	-18.77
317.855	73.39
318.068	75.43
318.282	-2.39
318.495	65.19
318.709	69.29
318.922	-20.82
319.136	106.15
319.349	91.82
319.563	32.43
319.776	32.43
319.99	18.09
320.203	57
320.417	20.14
320.63	69.29
320.843	65.19
321.057	13.99
321.27	124.58
321.483	-2.39
321.697	13.99
321.91	79.53
322.124	57
322.337	38.57
322.55	30.38
322.763	59.05
322.977	-26.96
323.19	-4.44
323.403	32.43
323.617	59.05
323.83	81.58
324.043	50.86
324.256	28.33
324.469	11.95
324.683	67.24
324.896	100.01
325.109	87.72
325.322	9.9
325.535	71.34
325.748	7.85
325.962	75.43
326.175	32.43
326.388	-26.96
326.601	-14.68
326.814	-4.44
327.027	40.62
327.24	83.63
327.453	-35.16
327.666	48.81
327.879	112.3
328.092	18.09
328.305	34.47
328.518	93.87
328.731	28.33
328.944	18.09
329.157	46.76
329.37	40.62
329.583	95.91
329.796	128.68
330.009	5.8
330.222	100.01
330.435	-12.63
330.648	91.82
330.861	9.9
331.073	5.8
331.286	79.53
331.499	95.91
331.712	71.34
331.925	-10.58
332.138	34.47
332.35	40.62
332.563	42.67
332.776	132.78
332.989	57
333.202	18.09
333.414	28.33
333.627	81.58
333.84	20.14
334.053	42.67
334.265	26.28
334.478	44.71
334.691	87.72
334.903	54.95
335.116	48.81
335.329	165.54
335.541	40.62
335.754	95.91
335.966	13.99
336.179	26.28
336.392	18.09
336.604	59.05
336.817	65.19
337.029	30.38
337.242	93.87
337.454	26.28
337.667	-6.49
337.88	112.3
338.092	73.39
338.305	11.95
338.517	13.99
338.729	28.33
338.942	122.54
339.154	38.57
339.367	30.38
339.579	59.05
339.792	-4.44
340.004	106.15
340.217	1.71
340.429	18.09
340.641	34.47
340.854	36.52
341.066	50.86
341.278	79.53
341.491	102.06
341.703	5.8
341.915	20.14
342.128	28.33
342.34	-31.06
342.552	50.86
342.764	-6.49
342.977	46.76
343.189	124.58
343.401	52.91
343.613	18.09
343.826	48.81
344.038	57
344.25	128.68
344.462	42.67
344.674	26.28
344.886	5.8
345.099	108.2
345.311	-39.25
345.523	22.19
345.735	-6.49
345.947	11.95
346.159	-22.87
346.371	16.04
346.583	-2.39
346.795	67.24
347.007	81.58
347.219	97.96
347.431	-2.39
347.643	54.95
347.855	75.43
348.067	67.24
348.279	77.48
348.491	3.75
348.703	40.62
348.915	48.81
349.127	40.62
349.339	69.29
349.551	-35.16
349.763	7.85
349.975	38.57
350.187	52.91
350.399	44.71
350.61	120.49
350.822	75.43
351.034	97.96
351.246	46.76
351.458	93.87
351.669	38.57
351.881	9.9
352.093	124.58
352.305	22.19
352.517	83.63
352.728	46.76
352.94	54.95
353.152	75.43
353.363	-29.01
353.575	149.16
353.787	40.62
353.999	24.23
354.21	77.48
354.422	-2.39
354.633	11.95
354.845	50.86
355.057	81.58
355.268	52.91
355.48	50.86
355.692	67.24
355.903	-2.39
356.115	95.91
356.326	-22.87
356.538	104.11
356.749	67.24
356.961	50.86
357.172	5.8
357.384	50.86
357.595	42.67
357.807	83.63
358.018	-26.96
358.23	81.58
358.441	108.2
358.653	126.63
358.864	59.05
359.075	16.04
359.287	34.47
359.498	48.81
359.709	11.95
359.921	18.09
360.132	161.45
360.344	34.47
360.555	-47.44
360.766	32.43
360.977	1.71
361.189	-10.58
361.4	87.72
361.611	44.71
361.823	57
362.034	52.91
362.245	-24.92
362.456	67.24
362.667	73.39
362.879	63.15
363.09	-10.58
363.301	42.67
363.512	-43.35
363.723	87.72
363.935	32.43
364.146	32.43
364.357	-2.39
364.568	54.95
364.779	-43.35
364.99	16.04
365.201	3.75
365.412	65.19
365.623	-10.58
365.834	34.47
366.045	3.75
366.256	128.68
366.467	81.58
366.678	57
366.889	26.28
367.1	75.43
367.311	63.15
367.522	69.29
367.733	18.09
367.944	130.73
368.155	-24.92
368.366	143.02
368.577	38.57
368.788	71.34
368.999	5.8
369.209	32.43
369.42	106.15
369.631	163.5
369.842	5.8
370.053	50.86
370.264	59.05
370.474	11.95
370.685	32.43
370.896	34.47
371.107	71.34
371.317	59.05
371.528	-6.49
371.739	112.3
371.95	38.57
372.16	83.63
372.371	-41.3
372.582	18.09
372.792	40.62
373.003	18.09
373.214	-16.73
373.424	46.76
373.635	7.85
373.846	67.24
374.056	40.62
374.267	38.57
374.477	16.04
374.688	-43.35
374.898	5.8
375.109	71.34
375.319	42.67
375.53	13.99
375.74	46.76
375.951	79.53
376.161	5.8
376.372	50.86
376.582	26.28
376.793	46.76
377.003	38.57
377.214	52.91
377.424	-8.53
377.635	85.67
377.845	-14.68
378.055	54.95
378.266	-0.34
378.476	57
378.686	50.86
378.897	-0.34
379.107	48.81
379.317	28.33
379.528	-14.68
379.738	20.14
379.948	5.8
380.158	108.2
380.369	-4.44
380.579	143.02
380.789	1.71
380.999	3.75
381.21	46.76
381.42	104.11
381.63	-33.11
381.84	38.57
382.05	75.43
382.261	42.67
382.471	24.23
382.681	59.05
382.891	118.44
383.101	-18.77
383.311	7.85
383.521	20.14
383.731	106.15
383.941	63.15
384.151	42.67
384.361	18.09
384.571	104.11
384.781	50.86
384.991	128.68
385.201	79.53
385.411	-20.82
385.621	-16.73
385.831	-16.73
386.041	16.04
386.251	-65.88
386.461	46.76
386.671	54.95
386.881	112.3
387.091	73.39
387.301	93.87
387.511	104.11
387.72	48.81
387.93	79.53
388.14	-14.68
388.35	75.43
388.56	83.63
388.769	-14.68
388.979	65.19
389.189	32.43
389.399	38.57
389.609	130.73
389.818	26.28
390.028	40.62
390.238	67.24
390.447	-12.63
390.657	11.95
390.867	-41.3
391.076	-22.87
391.286	100.01
391.496	34.47
391.705	46.76
391.915	79.53
392.125	108.2
392.334	3.75
392.544	42.67
392.753	108.2
392.963	28.33
393.172	32.43
393.382	106.15
393.591	120.49
393.801	5.8
394.01	173.74
394.22	67.24
394.429	97.96
394.639	85.67
394.848	71.34
395.058	112.3
395.267	112.3
395.477	89.77
395.686	75.43
395.895	57
396.105	149.16
396.314	91.82
396.524	87.72
396.733	11.95
396.942	106.15
397.152	18.09
397.361	57
397.57	106.15
397.78	126.63
397.989	110.25
398.198	83.63
398.407	112.3
398.617	110.25
398.826	71.34
399.035	126.63
399.244	120.49
399.453	116.39
399.663	136.87
399.872	145.06
400.081	77.48
400.29	124.58
400.499	104.11
400.708	169.64
400.917	114.34
401.127	124.58
401.336	38.57
401.545	138.92
401.754	145.06
401.963	59.05
402.172	87.72
402.381	126.63
402.59	110.25
402.799	95.91
403.008	108.2
403.217	132.78
403.426	177.83
403.635	100.01
403.844	153.26
404.053	147.11
404.262	91.82
404.471	188.07
404.68	130.73
404.888	104.11
405.097	196.26
405.306	108.2
405.515	71.34
405.724	116.39
405.933	151.21
406.142	265.89
406.35	181.93
406.559	136.87
406.768	190.12
406.977	181.93
407.185	167.59
407.394	157.35
407.603	151.21
407.812	210.6
408.02	263.85
408.229	272.04
408.438	278.18
408.646	188.07
408.855	220.84
409.064	192.17
409.272	194.22
409.481	210.6
409.69	163.5
409.898	218.79
410.107	259.75
410.315	253.61
410.524	296.61
410.733	374.44
410.941	206.5
411.15	431.78
411.358	343.72
411.567	343.72
411.775	325.29
411.984	435.88
412.192	339.62
412.401	353.96
412.609	415.4
412.818	425.64
413.026	468.64
413.234	466.6
413.443	458.4
413.651	528.03
413.86	501.41
414.068	517.79
414.276	515.75
414.485	489.12
414.693	501.41
414.901	634.53
415.11	673.44
415.318	726.69
415.526	730.78
415.734	792.22
415.943	765.6
416.151	708.26
416.359	784.03
416.567	812.7
416.776	859.81
416.984	972.44
417.192	1025.69
417.4	937.63
417.608	911
417.817	937.63
418.025	960.16
418.233	1019.55
418.441	1029.79
418.649	1091.23
418.857	1164.95
419.065	1240.73
419.273	1195.67
419.481	1259.16
419.689	1316.5
419.897	1398.42
420.105	1418.9
420.313	1459.86
420.521	1414.81
420.729	1590.93
420.937	1549.97
421.145	1568.4
421.353	1717.9
421.561	1816.21
421.769	1840.78
421.977	1996.43
422.185	1984.14
422.393	2164.36
422.601	2164.36
422.809	2170.51
423.017	2229.9
423.224	2315.91
423.432	2330.25
423.64	2377.35
423.848	2623.11
424.056	2506.37
424.263	2700.93
424.471	2526.85
424.679	2610.82
424.887	2870.91
425.094	3047.04
425.302	2854.53
425.51	2983.55
425.718	3233.4
425.925	3278.46
426.133	3180.15
426.341	3669.62
426.548	3614.32
426.756	3690.1
426.964	3645.04
427.171	3905.14
427.379	4011.63
427.586	4140.65
427.794	4109.93
428.001	4499.05
428.209	4548.2
428.417	4517.48
428.624	4927.07
428.832	4910.69
429.039	4759.14
429.247	4662.88
429.454	5420.63
429.662	5527.13
429.869	5219.93
430.076	5529.17
430.284	5490.26
430.491	5727.83
430.699	6088.27
430.906	5996.11
431.114	5998.16
431.321	6315.59
431.528	6551.11
431.736	6762.05
431.943	7077.44
432.15	6932.03
432.358	7118.4
432.565	7423.55
432.772	7286.33
432.979	7677.49
433.187	7945.78
433.394	7790.13
433.601	8390.19
433.808	8402.47
434.016	8543.78
434.223	8689.19
434.43	9418.27
434.637	9012.77
434.844	9659.93
435.052	10006.03
435.259	9905.68
435.466	10044.95
435.673	9795.09
435.88	10485.26
436.087	11040.26
436.294	11038.21
436.501	10855.94
436.708	11140.61
436.915	11357.69
437.122	11851.25
437.329	11857.4
437.537	12226.03
437.743	12406.25
437.95	12402.16
438.157	12813.8
438.364	13295.07
438.571	13501.92
438.778	13702.62
438.985	14671.31
439.192	14061.01
439.399	14624.2
439.606	14331.34
439.813	15064.52
440.02	15879.61
440.227	15619.52
440.433	15451.58
440.64	16092.6
440.847	15809.98
441.054	16291.25
441.261	17481.12
441.467	17028.52
441.674	17505.7
441.881	17864.09
442.088	17759.64
442.294	17759.64
442.501	18410.9
442.708	18709.9
442.914	19441.03
443.121	20043.13
443.328	19639.68
443.534	21132.65
443.741	20395.38
443.948	20006.27
444.154	21874.01
444.361	21564.77
444.568	21564.77
444.774	21687.65
444.981	21847.39
445.187	22642
445.394	23762.24
445.6	23381.32
445.807	25320.74
446.013	24339.77
446.22	25005.36
446.426	25689.38
446.633	25892.13
446.839	26627.35
447.046	25738.53
447.252	26930.45
447.459	27223.31
447.665	27047.18
447.871	28159.23
448.078	29302
448.284	27675.91
448.491	28710.13
448.697	29822.18
448.903	30436.57
449.11	30358.75
449.316	29471.98
449.522	30141.66
449.728	31323.34
449.935	31431.88
450.141	30928.08
450.347	31931.59
450.553	30477.53
450.76	31300.81
450.966	32144.58
451.172	31945.92
451.378	32312.51
451.584	31524.04
451.791	32773.3
451.997	32519.35
452.203	32822.45
452.409	33139.89
452.615	32885.94
452.821	31565
453.027	31149.26
453.233	32863.41
453.44	31386.83
453.646	31968.45
453.852	32132.29
454.058	32451.77
454.264	31116.5
454.47	32222.4
454.676	31575.24
454.882	32412.86
455.088	29742.31
455.294	29680.87
455.5	30235.87
455.705	30633.18
455.911	29609.19
456.117	28771.57
456.323	28558.58
456.529	26973.46
456.735	28120.32
456.941	27157.77
457.147	26971.41
457.352	26049.82
457.558	25687.33
457.764	25269.55
457.97	25287.98
458.176	24659.25
458.381	24784.18
458.587	23493.96
458.793	23479.62
458.999	22504.79
459.204	23846.21
459.41	23182.66
459.616	21448.04
459.821	21464.42
460.027	21628.26
460.233	21038.44
460.438	20135.29
460.644	20104.57
460.85	19344.77
461.055	19152.26
461.261	19070.34
461.466	17616.29
461.672	17192.36
461.878	18492.82
462.083	17200.55
462.289	17163.68
462.494	16752.04
462.7	16213.43
462.905	15603.13
463.111	16139.7
463.316	16178.61
463.522	15971.77
463.727	15715.77
463.932	15762.87
464.138	15652.28
464.343	15650.24
464.549	15074.76
464.754	15982.01
464.959	15990.2
465.165	15592.89
465.37	14810.57
465.575	14368.21
465.781	15087.04
465.986	15160.77
466.191	14599.63
466.397	14048.72
466.602	13651.42
466.807	14091.73
467.012	14138.83
467.218	13864.41
467.423	13864.41
467.628	14140.88
