Data from USB4F104151__109__10-24-51-000.txt Node

Date: Wed Mar 12 10:24:51 EDT 2025
User: louis
Spectrometer: USB4F10415
Trigger mode: 4
Integration Time (sec): 3.000000E-2
Scans to average: 1
Electric dark correction enabled: true
Nonlinearity correction enabled: false
Boxcar width: 0
XAxis mode: Wavelengths
Number of Pixels in Spectrum: 3648
>>>>>Begin Spectral Data<<<<<
178.204	-84.31
178.424	-84.31
178.644	-84.31
178.864	-186.71
179.084	-76.12
179.304	-24.92
179.524	-22.87
179.744	1.71
179.964	-35.16
180.184	24.23
180.404	91.82
180.624	30.38
180.844	5.8
181.064	-43.35
181.283	-6.49
181.503	-22.87
181.723	1.71
181.943	-86.36
182.163	46.76
182.383	28.33
182.602	50.86
182.822	67.24
183.042	28.33
183.262	11.95
183.482	3.75
183.701	-35.16
183.921	-10.58
184.141	-45.4
184.361	38.57
184.58	-49.49
184.8	91.82
185.02	32.43
185.239	54.95
185.459	59.05
185.679	9.9
185.898	-10.58
186.118	13.99
186.338	1.71
186.557	73.39
186.777	22.19
186.997	18.09
187.216	116.39
187.436	136.87
187.655	18.09
187.875	30.38
188.095	3.75
188.314	20.14
188.534	46.76
188.753	-6.49
188.973	-2.39
189.192	59.05
189.412	5.8
189.631	22.19
189.851	11.95
190.07	85.67
190.29	-10.58
190.509	3.75
190.729	63.15
190.948	38.57
191.168	177.83
191.387	85.67
191.607	-41.3
191.826	24.23
192.045	36.52
192.265	54.95
192.484	30.38
192.704	22.19
192.923	24.23
193.142	50.86
193.362	-2.39
193.581	5.8
193.8	38.57
194.02	9.9
194.239	3.75
194.458	181.93
194.678	-55.64
194.897	128.68
195.116	50.86
195.335	5.8
195.555	18.09
195.774	34.47
195.993	118.44
196.212	-10.58
196.432	42.67
196.651	22.19
196.87	38.57
197.089	75.43
197.308	-29.01
197.528	-16.73
197.747	79.53
197.966	-4.44
198.185	46.76
198.404	22.19
198.623	16.04
198.842	104.11
199.062	18.09
199.281	59.05
199.5	75.43
199.719	-18.77
199.938	85.67
200.157	7.85
200.376	30.38
200.595	5.8
200.814	3.75
201.033	22.19
201.252	63.15
201.471	44.71
201.69	-10.58
201.909	11.95
202.128	54.95
202.347	87.72
202.566	112.3
202.785	-49.49
203.004	-65.88
203.223	73.39
203.442	59.05
203.661	-18.77
203.879	63.15
204.098	24.23
204.317	-2.39
204.536	38.57
204.755	42.67
204.974	20.14
205.193	38.57
205.411	50.86
205.63	3.75
205.849	9.9
206.068	13.99
206.287	22.19
206.505	9.9
206.724	-37.2
206.943	30.38
207.162	22.19
207.381	42.67
207.599	-10.58
207.818	40.62
208.037	-6.49
208.255	11.95
208.474	85.67
208.693	-18.77
208.911	5.8
209.13	67.24
209.349	16.04
209.567	46.76
209.786	77.48
210.005	32.43
210.223	-80.21
210.442	24.23
210.661	87.72
210.879	7.85
211.098	1.71
211.316	-2.39
211.535	26.28
211.753	77.48
211.972	-6.49
212.191	-16.73
212.409	-2.39
212.628	59.05
212.846	11.95
213.065	40.62
213.283	104.11
213.502	118.44
213.72	38.57
213.938	11.95
214.157	5.8
214.375	20.14
214.594	-43.35
214.812	24.23
215.031	36.52
215.249	34.47
215.467	32.43
215.686	13.99
215.904	93.87
216.122	20.14
216.341	24.23
216.559	5.8
216.778	-6.49
216.996	-45.4
217.214	75.43
217.432	38.57
217.651	28.33
217.869	3.75
218.087	13.99
218.306	46.76
218.524	30.38
218.742	5.8
218.96	20.14
219.179	1.71
219.397	-35.16
219.615	48.81
219.833	40.62
220.051	-69.97
220.27	36.52
220.488	85.67
220.706	13.99
220.924	52.91
221.142	-4.44
221.36	61.1
221.578	-22.87
221.796	30.38
222.015	44.71
222.233	-14.68
222.451	34.47
222.669	-10.58
222.887	44.71
223.105	-26.96
223.323	-10.58
223.541	5.8
223.759	85.67
223.977	-53.59
224.195	-53.59
224.413	42.67
224.631	-14.68
224.849	75.43
225.067	67.24
225.285	-24.92
225.503	52.91
225.721	-24.92
225.939	40.62
226.157	97.96
226.375	134.82
226.592	22.19
226.81	40.62
227.028	50.86
227.246	91.82
227.464	-31.06
227.682	42.67
227.9	-6.49
228.117	1.71
228.335	65.19
228.553	28.33
228.771	28.33
228.989	-8.53
229.206	85.67
229.424	-6.49
229.642	18.09
229.86	9.9
230.077	-4.44
230.295	67.24
230.513	48.81
230.731	77.48
230.948	9.9
231.166	-16.73
231.384	38.57
231.601	63.15
231.819	-8.53
232.037	26.28
232.254	-29.01
232.472	11.95
232.689	-37.2
232.907	-37.2
233.125	42.67
233.342	-18.77
233.56	-43.35
233.777	-2.39
233.995	5.8
234.213	61.1
234.43	30.38
234.648	-53.59
234.865	59.05
235.083	-2.39
235.3	54.95
235.518	38.57
235.735	18.09
235.953	59.05
236.17	44.71
236.388	24.23
236.605	63.15
236.822	79.53
237.04	24.23
237.257	40.62
237.475	44.71
237.692	13.99
237.909	20.14
238.127	-31.06
238.344	5.8
238.562	28.33
238.779	1.71
238.996	-20.82
239.214	59.05
239.431	26.28
239.648	63.15
239.865	16.04
240.083	5.8
240.3	67.24
240.517	-8.53
240.735	46.76
240.952	11.95
241.169	-0.34
241.386	-14.68
241.603	-8.53
241.821	-6.49
242.038	71.34
242.255	44.71
242.472	3.75
242.689	50.86
242.907	95.91
243.124	77.48
243.341	-6.49
243.558	5.8
243.775	50.86
243.992	-55.64
244.209	22.19
244.426	67.24
244.643	-18.77
244.86	-4.44
245.078	3.75
245.295	11.95
245.512	79.53
245.729	-8.53
245.946	-12.63
246.163	-18.77
246.38	59.05
246.597	26.28
246.814	44.71
247.031	-86.36
247.248	85.67
247.464	1.71
247.681	38.57
247.898	-4.44
248.115	67.24
248.332	-14.68
248.549	52.91
248.766	69.29
248.983	71.34
249.2	-24.92
249.417	22.19
249.633	40.62
249.85	-2.39
250.067	5.8
250.284	26.28
250.501	44.71
250.717	102.06
250.934	-29.01
251.151	-0.34
251.368	34.47
251.585	79.53
251.801	59.05
252.018	-55.64
252.235	42.67
252.451	7.85
252.668	26.28
252.885	34.47
253.102	-2.39
253.318	50.86
253.535	57
253.752	1.71
253.968	-10.58
254.185	-14.68
254.401	26.28
254.618	28.33
254.835	-43.35
255.051	59.05
255.268	5.8
255.484	-53.59
255.701	73.39
255.917	-20.82
256.134	-12.63
256.351	-47.44
256.567	-10.58
256.784	44.71
257	-0.34
257.217	-49.49
257.433	85.67
257.65	20.14
257.866	9.9
258.082	-69.97
258.299	9.9
258.515	32.43
258.732	-39.25
258.948	-35.16
259.165	83.63
259.381	-39.25
259.597	24.23
259.814	-22.87
260.03	20.14
260.246	73.39
260.463	42.67
260.679	100.01
260.895	22.19
261.112	-10.58
261.328	16.04
261.544	-6.49
261.761	87.72
261.977	-20.82
262.193	-94.55
262.409	-2.39
262.626	-29.01
262.842	-6.49
263.058	5.8
263.274	13.99
263.49	-59.73
263.707	-0.34
263.923	13.99
264.139	44.71
264.355	22.19
264.571	40.62
264.787	54.95
265.004	-6.49
265.22	-35.16
265.436	5.8
265.652	-8.53
265.868	73.39
266.084	3.75
266.3	11.95
266.516	-14.68
266.732	34.47
266.948	18.09
267.164	57
267.38	-0.34
267.596	54.95
267.812	67.24
268.028	-33.11
268.244	-6.49
268.46	50.86
268.676	48.81
268.892	-6.49
269.108	-4.44
269.324	34.47
269.54	-4.44
269.756	13.99
269.972	13.99
270.188	-2.39
270.403	-35.16
270.619	32.43
270.835	30.38
271.051	-2.39
271.267	-24.92
271.483	-43.35
271.698	-6.49
271.914	26.28
272.13	38.57
272.346	13.99
272.562	28.33
272.777	52.91
272.993	13.99
273.209	5.8
273.425	54.95
273.64	-10.58
273.856	57
274.072	-39.25
274.287	18.09
274.503	40.62
274.719	-49.49
274.934	44.71
275.15	73.39
275.366	36.52
275.581	-35.16
275.797	22.19
276.012	65.19
276.228	91.82
276.444	16.04
276.659	132.78
276.875	-31.06
277.09	83.63
277.306	-4.44
277.521	52.91
277.737	22.19
277.952	18.09
278.168	34.47
278.383	11.95
278.599	54.95
278.814	42.67
279.03	5.8
279.245	69.29
279.461	20.14
279.676	77.48
279.892	-10.58
280.107	-8.53
280.322	-12.63
280.538	30.38
280.753	3.75
280.969	-37.2
281.184	28.33
281.399	77.48
281.615	46.76
281.83	32.43
282.045	-51.54
282.26	28.33
282.476	-4.44
282.691	87.72
282.906	30.38
283.122	34.47
283.337	16.04
283.552	110.25
283.767	7.85
283.983	28.33
284.198	-12.63
284.413	57
284.628	9.9
284.843	42.67
285.058	81.58
285.274	7.85
285.489	-35.16
285.704	18.09
285.919	-39.25
286.134	13.99
286.349	42.67
286.564	54.95
286.779	28.33
286.995	-0.34
287.21	20.14
287.425	54.95
287.64	-4.44
287.855	50.86
288.07	22.19
288.285	63.15
288.5	50.86
288.715	71.34
288.93	26.28
289.145	38.57
289.36	-26.96
289.575	52.91
289.79	11.95
290.004	46.76
290.219	-6.49
290.434	34.47
290.649	9.9
290.864	69.29
291.079	11.95
291.294	57
291.509	11.95
291.724	59.05
291.938	28.33
292.153	30.38
292.368	-4.44
292.583	-18.77
292.798	59.05
293.012	50.86
293.227	48.81
293.442	85.67
293.657	87.72
293.871	67.24
294.086	46.76
294.301	118.44
294.516	87.72
294.73	61.1
294.945	40.62
295.16	50.86
295.374	20.14
295.589	24.23
295.804	-0.34
296.018	38.57
296.233	71.34
296.447	30.38
296.662	91.82
296.877	100.01
297.091	32.43
297.306	69.29
297.52	5.8
297.735	38.57
297.949	77.48
298.164	65.19
298.378	-20.82
298.593	36.52
298.807	46.76
299.022	59.05
299.236	28.33
299.451	52.91
299.665	-6.49
299.88	16.04
300.094	1.71
300.309	54.95
300.523	-29.01
300.737	-47.44
300.952	36.52
301.166	75.43
301.381	24.23
301.595	-10.58
301.809	5.8
302.024	-53.59
302.238	46.76
302.452	-4.44
302.667	87.72
302.881	22.19
303.095	13.99
303.309	28.33
303.524	54.95
303.738	22.19
303.952	-4.44
304.166	-8.53
304.381	-43.35
304.595	13.99
304.809	13.99
305.023	-0.34
305.237	32.43
305.452	40.62
305.666	20.14
305.88	-22.87
306.094	52.91
306.308	61.1
306.522	46.76
306.736	69.29
306.95	87.72
307.164	28.33
307.379	26.28
307.593	110.25
307.807	7.85
308.021	124.58
308.235	11.95
308.449	20.14
308.663	54.95
308.877	136.87
309.091	-10.58
309.305	-2.39
309.519	-26.96
309.733	24.23
309.947	-72.02
310.161	-14.68
310.374	13.99
310.588	79.53
310.802	11.95
311.016	100.01
311.23	34.47
311.444	-84.31
311.658	-2.39
311.872	11.95
312.085	38.57
312.299	-35.16
312.513	97.96
312.727	38.57
312.941	-6.49
313.154	59.05
313.368	65.19
313.582	54.95
313.796	20.14
314.009	7.85
314.223	61.1
314.437	-12.63
314.651	59.05
314.864	-51.54
315.078	34.47
315.292	30.38
315.505	1.71
315.719	38.57
315.933	-4.44
316.146	63.15
316.36	-29.01
316.573	104.11
316.787	-2.39
317.001	95.91
317.214	-6.49
317.428	42.67
317.641	61.1
317.855	52.91
318.068	75.43
318.282	-8.53
318.495	85.67
318.709	5.8
318.922	-20.82
319.136	100.01
319.349	-6.49
319.563	28.33
319.776	16.04
319.99	11.95
320.203	-26.96
320.417	-26.96
320.63	38.57
320.843	112.3
321.057	11.95
321.27	-35.16
321.483	-0.34
321.697	13.99
321.91	22.19
322.124	63.15
322.337	18.09
322.55	38.57
322.763	22.19
322.977	63.15
323.19	63.15
323.403	30.38
323.617	-0.34
323.83	30.38
324.043	22.19
324.256	44.71
324.469	52.91
324.683	67.24
324.896	-6.49
325.109	16.04
325.322	52.91
325.535	50.86
325.748	59.05
325.962	-14.68
326.175	48.81
326.388	18.09
326.601	79.53
326.814	46.76
327.027	42.67
327.24	114.34
327.453	-31.06
327.666	89.77
327.879	71.34
328.092	67.24
328.305	-16.73
328.518	-22.87
328.731	34.47
328.944	46.76
329.157	-35.16
329.37	63.15
329.583	79.53
329.796	54.95
330.009	-26.96
330.222	30.38
330.435	26.28
330.648	81.58
330.861	26.28
331.073	44.71
331.286	102.06
331.499	77.48
331.712	-8.53
331.925	145.06
332.138	20.14
332.35	91.82
332.563	-16.73
332.776	28.33
332.989	11.95
333.202	11.95
333.414	-10.58
333.627	-10.58
333.84	36.52
334.053	128.68
334.265	-2.39
334.478	-55.64
334.691	75.43
334.903	59.05
335.116	5.8
335.329	110.25
335.541	54.95
335.754	16.04
335.966	52.91
336.179	7.85
336.392	24.23
336.604	32.43
336.817	20.14
337.029	16.04
337.242	67.24
337.454	-10.58
337.667	89.77
337.88	65.19
338.092	93.87
338.305	32.43
338.517	20.14
338.729	52.91
338.942	-2.39
339.154	61.1
339.367	-16.73
339.579	100.01
339.792	79.53
340.004	61.1
340.217	63.15
340.429	61.1
340.641	-26.96
340.854	89.77
341.066	81.58
341.278	69.29
341.491	136.87
341.703	-29.01
341.915	18.09
342.128	136.87
342.34	50.86
342.552	1.71
342.764	63.15
342.977	50.86
343.189	40.62
343.401	46.76
343.613	-55.64
343.826	-4.44
344.038	3.75
344.25	26.28
344.462	-12.63
344.674	16.04
344.886	13.99
345.099	-26.96
345.311	61.1
345.523	42.67
345.735	-49.49
345.947	46.76
346.159	-92.5
346.371	42.67
346.583	38.57
346.795	79.53
347.007	34.47
347.219	-16.73
347.431	38.57
347.643	77.48
347.855	-10.58
348.067	112.3
348.279	-4.44
348.491	36.52
348.703	81.58
348.915	63.15
349.127	52.91
349.339	13.99
349.551	46.76
349.763	83.63
349.975	38.57
350.187	52.91
350.399	46.76
350.61	-0.34
350.822	11.95
351.034	73.39
351.246	46.76
351.458	54.95
351.669	32.43
351.881	79.53
352.093	63.15
352.305	124.58
352.517	22.19
352.728	130.73
352.94	59.05
353.152	36.52
353.363	-10.58
353.575	46.76
353.787	65.19
353.999	38.57
354.21	65.19
354.422	20.14
354.633	61.1
354.845	48.81
355.057	26.28
355.268	34.47
355.48	100.01
355.692	81.58
355.903	48.81
356.115	-14.68
356.326	-43.35
356.538	-4.44
356.749	48.81
356.961	28.33
357.172	13.99
357.384	50.86
357.595	186.02
357.807	40.62
358.018	89.77
358.23	61.1
358.441	22.19
358.653	34.47
358.864	-22.87
359.075	-33.11
359.287	-2.39
359.498	-41.3
359.709	93.87
359.921	32.43
360.132	-12.63
360.344	13.99
360.555	40.62
360.766	26.28
360.977	108.2
361.189	57
361.4	-10.58
361.611	122.54
361.823	104.11
362.034	77.48
362.245	-47.44
362.456	36.52
362.667	71.34
362.879	7.85
363.09	5.8
363.301	67.24
363.512	83.63
363.723	-22.87
363.935	34.47
364.146	79.53
364.357	-18.77
364.568	48.81
364.779	42.67
364.99	38.57
365.201	9.9
365.412	38.57
365.623	-4.44
365.834	9.9
366.045	9.9
366.256	97.96
366.467	26.28
366.678	81.58
366.889	106.15
367.1	46.76
367.311	126.63
367.522	-29.01
367.733	42.67
367.944	73.39
368.155	-4.44
368.366	134.82
368.577	24.23
368.788	63.15
368.999	18.09
369.209	48.81
369.42	95.91
369.631	79.53
369.842	87.72
370.053	20.14
370.264	40.62
370.474	18.09
370.685	71.34
370.896	11.95
371.107	22.19
371.317	59.05
371.528	34.47
371.739	5.8
371.95	36.52
372.16	67.24
372.371	34.47
372.582	75.43
372.792	83.63
373.003	134.82
373.214	61.1
373.424	71.34
373.635	3.75
373.846	50.86
374.056	20.14
374.267	73.39
374.477	104.11
374.688	46.76
374.898	26.28
375.109	48.81
375.319	44.71
375.53	91.82
375.74	34.47
375.951	20.14
376.161	-12.63
376.372	89.77
376.582	46.76
376.793	116.39
377.003	36.52
377.214	-43.35
377.424	-2.39
377.635	30.38
377.845	-26.96
378.055	83.63
378.266	11.95
378.476	50.86
378.686	75.43
378.897	50.86
379.107	71.34
379.317	81.58
379.528	-0.34
379.738	61.1
379.948	5.8
380.158	112.3
380.369	87.72
380.579	161.45
380.789	63.15
380.999	61.1
381.21	110.25
381.42	116.39
381.63	95.91
381.84	83.63
382.05	77.48
382.261	52.91
382.471	91.82
382.681	44.71
382.891	54.95
383.101	65.19
383.311	100.01
383.521	52.91
383.731	116.39
383.941	32.43
384.151	38.57
384.361	44.71
384.571	102.06
384.781	52.91
384.991	77.48
385.201	48.81
385.411	65.19
385.621	20.14
385.831	30.38
386.041	157.35
386.251	91.82
386.461	67.24
386.671	69.29
386.881	63.15
387.091	71.34
387.301	79.53
387.511	73.39
387.72	71.34
387.93	40.62
388.14	30.38
388.35	54.95
388.56	132.78
388.769	106.15
388.979	52.91
389.189	-2.39
389.399	116.39
389.609	112.3
389.818	104.11
390.028	89.77
390.238	9.9
390.447	69.29
390.657	93.87
390.867	87.72
391.076	40.62
391.286	50.86
391.496	28.33
391.705	91.82
391.915	132.78
392.125	50.86
392.334	75.43
392.544	126.63
392.753	110.25
392.963	50.86
393.172	36.52
393.382	13.99
393.591	40.62
393.801	77.48
394.01	75.43
394.22	54.95
394.429	30.38
394.639	1.71
394.848	59.05
395.058	77.48
395.267	134.82
395.477	59.05
395.686	46.76
395.895	114.34
396.105	126.63
396.314	85.67
396.524	132.78
396.733	97.96
396.942	183.98
397.152	52.91
397.361	77.48
397.57	95.91
397.78	73.39
397.989	87.72
398.198	183.98
398.407	54.95
398.617	65.19
398.826	128.68
399.035	190.12
399.244	95.91
399.453	54.95
399.663	93.87
399.872	136.87
400.081	108.2
400.29	112.3
400.499	44.71
400.708	104.11
400.917	145.06
401.127	161.45
401.336	134.82
401.545	161.45
401.754	120.49
401.963	69.29
402.172	100.01
402.381	118.44
402.59	83.63
402.799	145.06
403.008	102.06
403.217	151.21
403.426	186.02
403.635	95.91
403.844	128.68
404.053	165.54
404.262	186.02
404.471	169.64
404.68	198.31
404.888	126.63
405.097	202.41
405.306	208.55
405.515	138.92
405.724	155.3
405.933	153.26
406.142	171.69
406.35	138.92
406.559	136.87
406.768	288.42
406.977	224.94
407.185	161.45
407.394	192.17
407.603	126.63
407.812	177.83
408.02	296.61
408.229	300.71
408.438	231.08
408.646	161.45
408.855	284.33
409.064	276.13
409.272	210.6
409.481	186.02
409.69	255.65
409.898	265.89
410.107	241.32
410.315	304.81
410.524	333.48
410.733	370.34
410.941	386.72
411.15	439.97
411.358	362.15
411.567	386.72
411.775	458.4
411.984	431.78
412.192	552.61
412.401	429.73
412.609	503.46
412.818	591.52
413.026	509.6
413.234	525.99
413.443	544.42
413.651	538.27
413.86	591.52
414.068	620.19
414.276	657.06
414.485	657.06
414.693	652.96
414.901	865.95
415.11	685.73
415.318	726.69
415.526	700.06
415.734	804.51
415.943	837.28
416.151	931.48
416.359	882.33
416.567	915.1
416.776	939.68
416.984	986.78
417.192	984.73
417.4	978.59
417.608	1060.51
417.817	1128.09
418.025	1144.47
418.233	1181.34
418.441	1300.12
418.649	1187.48
418.857	1283.74
419.065	1336.98
419.273	1349.27
419.481	1496.72
419.689	1509.01
419.897	1592.98
420.105	1543.83
420.313	1672.85
420.521	1703.57
420.729	1711.76
420.937	1879.69
421.145	1879.69
421.353	1937.04
421.561	1963.66
421.769	2090.63
421.977	2127.5
422.185	2176.65
422.393	2199.18
422.601	2430.6
422.809	2352.77
423.017	2377.35
423.224	2522.76
423.432	2633.35
423.64	2713.22
423.848	2854.53
424.056	2731.65
424.263	2969.21
424.471	2979.45
424.679	3049.08
424.887	3251.83
425.094	3409.53
425.302	3331.7
425.51	3479.16
425.718	3585.65
425.925	3634.8
426.133	3620.47
426.341	3868.27
426.548	4107.88
426.756	4028.01
426.964	4189.8
427.171	4376.17
427.379	4562.53
427.586	4570.72
427.794	4712.03
428.001	4953.7
428.209	5209.69
428.417	5135.96
428.624	5455.45
428.832	5467.74
429.039	5402.2
429.247	5437.02
429.454	5930.58
429.662	6346.31
429.869	5908.05
430.076	6305.35
430.284	6118.99
430.491	6241.87
430.699	6811.2
430.906	6710.85
431.114	6649.41
431.321	7253.56
431.528	7194.17
431.736	7642.68
431.943	8160.81
432.15	7839.28
432.358	7933.49
432.565	8322.6
432.772	8255.02
432.979	8717.86
433.187	8846.88
433.394	8959.52
433.601	9600.54
433.808	9666.07
434.016	9463.32
434.223	9852.44
434.43	10163.73
434.637	10264.08
434.844	10634.76
435.052	11048.45
435.259	11027.97
435.466	11085.31
435.673	11070.98
435.88	11746.81
436.087	12248.56
436.294	12484.08
436.501	12054
436.708	12353.01
436.915	12723.69
437.122	13438.43
437.329	13268.45
437.537	13823.45
437.743	14018
437.95	13952.47
438.157	14448.08
438.364	14888.39
438.571	15054.28
438.778	15121.86
438.985	16549.29
439.192	15746.49
439.399	16393.65
439.606	15844.79
439.813	16770.47
440.02	18019.74
440.227	17376.67
440.433	17274.28
440.64	18216.34
440.847	17831.32
441.054	18437.52
441.261	19623.3
441.467	19176.84
441.674	19623.3
441.881	20071.8
442.088	20342.13
442.294	20254.07
442.501	20579.7
442.708	21138.79
442.914	22062.43
443.121	22752.59
443.328	22025.56
443.534	23504.2
443.741	22744.4
443.948	22764.88
444.154	24313.14
444.361	24042.81
444.568	24345.91
444.774	24210.75
444.981	24939.82
445.187	25236.78
445.394	26324.25
445.6	26004.77
445.807	28566.77
446.013	27313.42
446.22	27852.03
446.426	28763.38
446.633	29314.28
446.839	30010.59
447.046	28806.39
447.252	30219.49
447.459	30463.19
447.665	30186.72
447.871	31493.32
448.078	32984.24
448.284	31468.75
448.491	31878.34
448.697	33354.93
448.903	33782.95
449.11	34002.08
449.316	33483.95
449.522	34274.46
449.728	34581.66
449.935	34917.53
450.141	34856.09
450.347	35914.89
450.553	34811.03
450.76	34827.42
450.966	36062.34
451.172	35916.93
451.378	36551.8
451.584	35830.92
451.791	36596.86
451.997	36686.97
452.203	36963.45
452.409	37053.56
452.615	37076.08
452.821	35527.82
453.027	35433.61
453.233	37076.08
453.44	35544.2
453.646	36045.96
453.852	36473.98
454.058	36557.95
454.264	35540.11
454.47	36062.34
454.676	35339.41
454.882	36445.31
455.088	33541.29
455.294	33936.55
455.5	33881.25
455.705	34778.26
455.911	33207.47
456.117	32337.09
456.323	31964.35
456.529	30399.71
456.735	31775.94
456.941	30954.71
457.147	30350.56
457.352	29338.86
457.558	28828.91
457.764	28767.48
457.97	28499.19
458.176	28052.73
458.381	28052.73
458.587	26293.53
458.793	26500.37
458.999	24868.14
459.204	26625.3
459.41	26170.65
459.616	24075.58
459.821	24333.62
460.027	24192.31
460.233	23725.38
460.438	22478.16
460.644	22889.81
460.85	21912.92
461.055	21300.58
461.261	21376.36
461.466	19740.03
461.672	19269
461.878	20934
462.083	19309.96
462.289	18943.37
462.494	18816.4
462.7	18048.41
462.905	17366.43
463.111	18154.9
463.316	17952.15
463.522	17878.43
463.727	17892.76
463.932	17747.36
464.138	17589.66
464.343	17532.32
464.549	17245.6
464.754	17849.75
464.959	17366.43
465.165	17180.07
465.37	16852.39
465.575	16307.63
465.781	16979.37
465.986	17040.81
466.191	16307.63
466.397	16057.78
466.602	15252.93
466.807	16051.64
467.012	15746.49
467.218	15666.62
