Data from USB4F104151__24__10-21-36-388.txt Node

Date: Wed Mar 12 10:21:36 EDT 2025
User: louis
Spectrometer: USB4F10415
Trigger mode: 4
Integration Time (sec): 3.000000E-2
Scans to average: 1
Electric dark correction enabled: true
Nonlinearity correction enabled: false
Boxcar width: 0
XAxis mode: Wavelengths
Number of Pixels in Spectrum: 3648
>>>>>Begin Spectral Data<<<<<
178.204	-67.41
178.424	-67.41
178.644	-67.41
178.864	-104.28
179.084	-57.17
179.304	16.55
179.524	16.55
179.744	53.42
179.964	32.94
180.184	8.36
180.404	14.51
180.624	30.89
180.844	-42.84
181.064	-44.88
181.283	-104.28
181.503	-22.36
181.723	41.13
181.943	-5.97
182.163	22.7
182.383	-26.45
182.602	110.76
182.822	-3.93
183.042	-32.6
183.262	71.85
183.482	-46.93
183.701	18.6
183.921	73.9
184.141	10.41
184.361	88.23
184.58	45.23
184.8	10.41
185.02	22.7
185.239	61.61
185.459	2.22
185.679	73.9
185.898	20.65
186.118	108.71
186.338	55.47
186.557	-3.93
186.777	-10.07
186.997	41.13
187.216	-5.97
187.436	71.85
187.655	30.89
187.875	96.43
188.095	22.7
188.314	94.38
188.534	-10.07
188.753	32.94
188.973	-10.07
189.192	59.56
189.412	12.46
189.631	41.13
189.851	47.27
190.07	92.33
190.29	-1.88
190.509	26.79
190.729	32.94
190.948	71.85
191.168	186.54
191.387	133.29
191.607	8.36
191.826	-3.93
192.045	-44.88
192.265	8.36
192.484	63.66
192.704	39.08
192.923	80.04
193.142	94.38
193.362	55.47
193.581	75.95
193.8	12.46
194.02	-30.55
194.239	67.75
194.458	86.19
194.678	-5.97
194.897	75.95
195.116	67.75
195.335	57.51
195.555	37.03
195.774	10.41
195.993	39.08
196.212	63.66
196.432	4.27
196.651	53.42
196.87	10.41
197.089	59.56
197.308	-38.74
197.528	2.22
197.747	-18.26
197.966	-30.55
198.185	12.46
198.404	2.22
198.623	18.6
198.842	51.37
199.062	57.51
199.281	18.6
199.5	69.8
199.719	30.89
199.938	61.61
200.157	104.62
200.376	57.51
200.595	34.99
200.814	88.23
201.033	-12.12
201.252	34.99
201.471	22.7
201.69	94.38
201.909	-1.88
202.128	-5.97
202.347	-40.79
202.566	12.46
202.785	-22.36
203.004	26.79
203.223	161.96
203.442	-10.07
203.661	14.51
203.879	-38.74
204.098	94.38
204.317	-18.26
204.536	28.84
204.755	37.03
204.974	34.99
205.193	43.18
205.411	108.71
205.63	34.99
205.849	10.41
206.068	57.51
206.287	10.41
206.505	30.89
206.724	-46.93
206.943	65.71
207.162	77.99
207.381	-61.27
207.599	-5.97
207.818	80.04
208.037	69.8
208.255	12.46
208.474	34.99
208.693	4.27
208.911	28.84
209.13	26.79
209.349	43.18
209.567	43.18
209.786	77.99
210.005	121
210.223	24.75
210.442	69.8
210.661	4.27
210.879	49.32
211.098	8.36
211.316	-38.74
211.535	90.28
211.753	-104.28
211.972	20.65
212.191	45.23
212.409	-24.4
212.628	57.51
212.846	2.22
213.065	100.52
213.283	63.66
213.502	-20.31
213.72	67.75
213.938	12.46
214.157	22.7
214.375	51.37
214.594	0.17
214.812	86.19
215.031	34.99
215.249	39.08
215.467	98.47
215.686	-1.88
215.904	43.18
216.122	-10.07
216.341	41.13
216.559	6.31
216.778	45.23
216.996	-24.4
217.214	34.99
217.432	-30.55
217.651	104.62
217.869	98.47
218.087	39.08
218.306	6.31
218.524	18.6
218.742	18.6
218.96	63.66
219.179	90.28
219.397	16.55
219.615	32.94
219.833	37.03
220.051	37.03
220.27	92.33
220.488	80.04
220.706	69.8
220.924	6.31
221.142	71.85
221.36	4.27
221.578	34.99
221.796	86.19
222.015	12.46
222.233	92.33
222.451	100.52
222.669	6.31
222.887	22.7
223.105	51.37
223.323	63.66
223.541	8.36
223.759	71.85
223.977	57.51
224.195	8.36
224.413	90.28
224.631	18.6
224.849	-59.22
225.067	73.9
225.285	0.17
225.503	45.23
225.721	53.42
225.939	18.6
226.157	75.95
226.375	106.67
226.592	12.46
226.81	47.27
227.028	106.67
227.246	51.37
227.464	-3.93
227.682	45.23
227.9	104.62
228.117	37.03
228.335	24.75
228.553	-22.36
228.771	133.29
228.989	32.94
229.206	55.47
229.424	-10.07
229.642	-12.12
229.86	-61.27
230.077	88.23
230.295	88.23
230.513	37.03
230.731	-1.88
230.948	53.42
231.166	121
231.384	37.03
231.601	53.42
231.819	51.37
232.037	10.41
232.254	-42.84
232.472	106.67
232.689	53.42
232.907	6.31
233.125	20.65
233.342	0.17
233.56	-28.5
233.777	55.47
233.995	39.08
234.213	65.71
234.43	12.46
234.648	28.84
234.865	37.03
235.083	51.37
235.3	94.38
235.518	8.36
235.735	-22.36
235.953	22.7
236.17	26.79
236.388	12.46
236.605	22.7
236.822	-3.93
237.04	22.7
237.257	73.9
237.475	-14.17
237.692	47.27
237.909	-14.17
238.127	-20.31
238.344	86.19
238.562	73.9
238.779	-26.45
238.996	-14.17
239.214	45.23
239.431	-34.64
239.648	41.13
239.865	94.38
240.083	65.71
240.3	28.84
240.517	-10.07
240.735	84.14
240.952	82.09
241.169	84.14
241.386	82.09
241.603	-1.88
241.821	41.13
242.038	123.05
242.255	-1.88
242.472	20.65
242.689	69.8
242.907	61.61
243.124	-14.17
243.341	22.7
243.558	6.31
243.775	47.27
243.992	-5.97
244.209	26.79
244.426	88.23
244.643	28.84
244.86	-5.97
245.078	20.65
245.295	22.7
245.512	22.7
245.729	26.79
245.946	51.37
246.163	26.79
246.38	18.6
246.597	43.18
246.814	-1.88
247.031	88.23
247.248	-14.17
247.464	63.66
247.681	32.94
247.898	0.17
248.115	28.84
248.332	-12.12
248.549	22.7
248.766	55.47
248.983	-59.22
249.2	22.7
249.417	14.51
249.633	18.6
249.85	47.27
250.067	39.08
250.284	57.51
250.501	63.66
250.717	-10.07
250.934	26.79
251.151	14.51
251.368	4.27
251.585	-18.26
251.801	2.22
252.018	-18.26
252.235	51.37
252.451	0.17
252.668	-40.79
252.885	104.62
253.102	2.22
253.318	-24.4
253.535	-18.26
253.752	6.31
253.968	59.56
254.185	-10.07
254.401	53.42
254.618	-26.45
254.835	-5.97
255.051	41.13
255.268	12.46
255.484	75.95
255.701	-5.97
255.917	69.8
256.134	10.41
256.351	57.51
256.567	-14.17
256.784	34.99
257	-61.27
257.217	121
257.433	4.27
257.65	75.95
257.866	53.42
258.082	-87.89
258.299	39.08
258.515	24.75
258.732	32.94
258.948	-30.55
259.165	47.27
259.381	67.75
259.597	-42.84
259.814	16.55
260.03	-36.69
260.246	57.51
260.463	80.04
260.679	94.38
260.895	22.7
261.112	59.56
261.328	30.89
261.544	34.99
261.761	47.27
261.977	26.79
262.193	-30.55
262.409	121
262.626	6.31
262.842	110.76
263.058	-53.08
263.274	26.79
263.49	71.85
263.707	30.89
263.923	2.22
264.139	10.41
264.355	28.84
264.571	71.85
264.787	67.75
265.004	77.99
265.22	2.22
265.436	-46.93
265.652	-18.26
265.868	16.55
266.084	53.42
266.3	24.75
266.516	49.32
266.732	73.9
266.948	114.86
267.164	18.6
267.38	16.55
267.596	30.89
267.812	92.33
268.028	22.7
268.244	30.89
268.46	59.56
268.676	-12.12
268.892	59.56
269.108	22.7
269.324	34.99
269.54	-10.07
269.756	49.32
269.972	-59.22
270.188	-34.64
270.403	0.17
270.619	106.67
270.835	96.43
271.051	59.56
271.267	20.65
271.483	26.79
271.698	12.46
271.914	10.41
272.13	24.75
272.346	28.84
272.562	-34.64
272.777	61.61
272.993	43.18
273.209	26.79
273.425	26.79
273.64	59.56
273.856	53.42
274.072	8.36
274.287	-1.88
274.503	73.9
274.719	18.6
274.934	53.42
275.15	37.03
275.366	24.75
275.581	20.65
275.797	6.31
276.012	14.51
276.228	26.79
276.444	6.31
276.659	-10.07
276.875	-71.51
277.09	53.42
277.306	47.27
277.521	37.03
277.737	41.13
277.952	100.52
278.168	43.18
278.383	63.66
278.599	-10.07
278.814	63.66
279.03	4.27
279.245	59.56
279.461	53.42
279.676	2.22
279.892	-63.32
280.107	73.9
280.322	2.22
280.538	-10.07
280.753	-1.88
280.969	-22.36
281.184	55.47
281.399	71.85
281.615	10.41
281.83	65.71
282.045	61.61
282.26	-1.88
282.476	51.37
282.691	-10.07
282.906	45.23
283.122	24.75
283.337	80.04
283.552	100.52
283.767	14.51
283.983	26.79
284.198	86.19
284.413	10.41
284.628	-59.22
284.843	53.42
285.058	55.47
285.274	63.66
285.489	-61.27
285.704	6.31
285.919	45.23
286.134	16.55
286.349	-26.45
286.564	59.56
286.779	96.43
286.995	16.55
287.21	-5.97
287.425	45.23
287.64	20.65
287.855	80.04
288.07	-5.97
288.285	39.08
288.5	55.47
288.715	55.47
288.93	-57.17
289.145	53.42
289.36	10.41
289.575	-10.07
289.79	55.47
290.004	6.31
290.219	71.85
290.434	37.03
290.649	34.99
290.864	22.7
291.079	30.89
291.294	92.33
291.509	49.32
291.724	28.84
291.938	-34.64
292.153	39.08
292.368	53.42
292.583	129.19
292.798	71.85
293.012	55.47
293.227	-18.26
293.442	-57.17
293.657	28.84
293.871	59.56
294.086	4.27
294.301	55.47
294.516	59.56
294.73	49.32
294.945	88.23
295.16	55.47
295.374	2.22
295.589	67.75
295.804	34.99
296.018	-5.97
296.233	69.8
296.447	86.19
296.662	30.89
296.877	104.62
297.091	102.57
297.306	24.75
297.52	22.7
297.735	98.47
297.949	12.46
298.164	86.19
298.378	8.36
298.593	28.84
298.807	51.37
299.022	30.89
299.236	102.57
299.451	53.42
299.665	-46.93
299.88	34.99
300.094	67.75
300.309	37.03
300.523	-18.26
300.737	10.41
300.952	47.27
301.166	-14.17
301.381	39.08
301.595	14.51
301.809	51.37
302.024	28.84
302.238	16.55
302.452	112.81
302.667	14.51
302.881	26.79
303.095	96.43
303.309	32.94
303.524	-38.74
303.738	30.89
303.952	-18.26
304.166	73.9
304.381	-24.4
304.595	71.85
304.809	37.03
305.023	90.28
305.237	30.89
305.452	75.95
305.666	-24.4
305.88	80.04
306.094	22.7
306.308	51.37
306.522	133.29
306.736	67.75
306.95	26.79
307.164	65.71
307.379	24.75
307.593	94.38
307.807	51.37
308.021	110.76
308.235	53.42
308.449	34.99
308.663	2.22
308.877	192.68
309.091	45.23
309.305	37.03
309.519	34.99
309.733	51.37
309.947	55.47
310.161	80.04
310.374	67.75
310.588	94.38
310.802	86.19
311.016	47.27
311.23	37.03
311.444	4.27
311.658	75.95
311.872	-10.07
312.085	4.27
312.299	84.14
312.513	20.65
312.727	28.84
312.941	-53.08
313.154	53.42
313.368	59.56
313.582	20.65
313.796	77.99
314.009	47.27
314.223	63.66
314.437	24.75
314.651	145.58
314.864	14.51
315.078	43.18
315.292	30.89
315.505	4.27
315.719	71.85
315.933	69.8
316.146	26.79
316.36	8.36
316.573	51.37
316.787	-28.5
317.001	92.33
317.214	102.57
317.428	30.89
317.641	30.89
317.855	71.85
318.068	10.41
318.282	-3.93
318.495	37.03
318.709	-18.26
318.922	-10.07
319.136	123.05
319.349	75.95
319.563	88.23
319.776	51.37
319.99	86.19
320.203	-28.5
320.417	59.56
320.63	22.7
320.843	88.23
321.057	55.47
321.27	67.75
321.483	30.89
321.697	116.9
321.91	41.13
322.124	43.18
322.337	110.76
322.55	6.31
322.763	51.37
322.977	34.99
323.19	65.71
323.403	-3.93
323.617	45.23
323.83	80.04
324.043	37.03
324.256	57.51
324.469	6.31
324.683	69.8
324.896	112.81
325.109	108.71
325.322	28.84
325.535	61.61
325.748	94.38
325.962	53.42
326.175	88.23
326.388	63.66
326.601	45.23
326.814	-28.5
327.027	30.89
327.24	69.8
327.453	-10.07
327.666	63.66
327.879	53.42
328.092	63.66
328.305	65.71
328.518	20.65
328.731	18.6
328.944	-1.88
329.157	39.08
329.37	-1.88
329.583	18.6
329.796	71.85
330.009	51.37
330.222	14.51
330.435	94.38
330.648	28.84
330.861	43.18
331.073	14.51
331.286	49.32
331.499	84.14
331.712	12.46
331.925	-18.26
332.138	73.9
332.35	10.41
332.563	26.79
332.776	59.56
332.989	63.66
333.202	12.46
333.414	18.6
333.627	34.99
333.84	30.89
334.053	22.7
334.265	30.89
334.478	77.99
334.691	57.51
334.903	67.75
335.116	41.13
335.329	28.84
335.541	80.04
335.754	88.23
335.966	-1.88
336.179	-20.31
336.392	88.23
336.604	43.18
336.817	116.9
337.029	104.62
337.242	49.32
337.454	22.7
337.667	-3.93
337.88	69.8
338.092	63.66
338.305	121
338.517	-20.31
338.729	55.47
338.942	18.6
339.154	94.38
339.367	-14.17
339.579	69.8
339.792	88.23
340.004	96.43
340.217	14.51
340.429	53.42
340.641	77.99
340.854	71.85
341.066	65.71
341.278	53.42
341.491	20.65
341.703	98.47
341.915	55.47
342.128	47.27
342.34	34.99
342.552	47.27
342.764	49.32
342.977	55.47
343.189	32.94
343.401	22.7
343.613	75.95
343.826	75.95
344.038	-14.17
344.25	45.23
344.462	88.23
344.674	53.42
344.886	32.94
345.099	22.7
345.311	106.67
345.523	41.13
345.735	69.8
345.947	43.18
346.159	61.61
346.371	75.95
346.583	37.03
346.795	82.09
347.007	26.79
347.219	22.7
347.431	4.27
347.643	37.03
347.855	53.42
348.067	69.8
348.279	75.95
348.491	28.84
348.703	55.47
348.915	6.31
349.127	-26.45
349.339	26.79
349.551	16.55
349.763	121
349.975	20.65
350.187	14.51
350.399	55.47
350.61	71.85
350.822	104.62
351.034	32.94
351.246	28.84
351.458	86.19
351.669	0.17
351.881	12.46
352.093	84.14
352.305	67.75
352.517	2.22
352.728	49.32
352.94	82.09
353.152	8.36
353.363	96.43
353.575	82.09
353.787	41.13
353.999	32.94
354.21	61.61
354.422	20.65
354.633	34.99
354.845	-18.26
355.057	22.7
355.268	-36.69
355.48	34.99
355.692	22.7
355.903	28.84
356.115	-1.88
356.326	-16.21
356.538	8.36
356.749	-5.97
356.961	53.42
357.172	63.66
357.384	73.9
357.595	69.8
357.807	-8.02
358.018	55.47
358.23	69.8
358.441	110.76
358.653	28.84
358.864	82.09
359.075	55.47
359.287	80.04
359.498	47.27
359.709	88.23
359.921	-14.17
360.132	14.51
360.344	118.95
360.555	170.15
360.766	-1.88
360.977	69.8
361.189	102.57
361.4	59.56
361.611	77.99
361.823	51.37
362.034	43.18
362.245	67.75
362.456	12.46
362.667	-10.07
362.879	49.32
363.09	96.43
363.301	84.14
363.512	67.75
363.723	45.23
363.935	4.27
364.146	37.03
364.357	22.7
364.568	114.86
364.779	55.47
364.99	88.23
365.201	37.03
365.412	86.19
365.623	12.46
365.834	67.75
366.045	24.75
366.256	14.51
366.467	55.47
366.678	16.55
366.889	45.23
367.1	26.79
367.311	108.71
367.522	67.75
367.733	106.67
367.944	100.52
368.155	-53.08
368.366	14.51
368.577	45.23
368.788	51.37
368.999	-46.93
369.209	61.61
369.42	94.38
369.631	153.77
369.842	41.13
370.053	22.7
370.264	116.9
370.474	30.89
370.685	96.43
370.896	14.51
371.107	53.42
371.317	131.24
371.528	92.33
371.739	75.95
371.95	-5.97
372.16	49.32
372.371	-14.17
372.582	53.42
372.792	96.43
373.003	24.75
373.214	14.51
373.424	51.37
373.635	22.7
373.846	80.04
374.056	84.14
374.267	2.22
374.477	166.06
374.688	32.94
374.898	47.27
375.109	47.27
375.319	53.42
375.53	116.9
375.74	32.94
375.951	-12.12
376.161	65.71
376.372	75.95
376.582	114.86
376.793	24.75
377.003	71.85
377.214	8.36
377.424	86.19
377.635	80.04
377.845	34.99
378.055	121
378.266	84.14
378.476	57.51
378.686	39.08
378.897	100.52
379.107	114.86
379.317	86.19
379.528	45.23
379.738	80.04
379.948	30.89
380.158	90.28
380.369	59.56
380.579	100.52
380.789	18.6
380.999	10.41
381.21	39.08
381.42	164.01
381.63	63.66
381.84	80.04
382.05	22.7
382.261	102.57
382.471	112.81
382.681	100.52
382.891	28.84
383.101	92.33
383.311	59.56
383.521	39.08
383.731	28.84
383.941	88.23
384.151	20.65
384.361	57.51
384.571	55.47
384.781	63.66
384.991	41.13
385.201	41.13
385.411	116.9
385.621	18.6
385.831	65.71
386.041	63.66
386.251	14.51
386.461	104.62
386.671	26.79
386.881	102.57
387.091	43.18
387.301	73.9
387.511	47.27
387.72	77.99
387.93	77.99
388.14	34.99
388.35	59.56
388.56	104.62
388.769	96.43
388.979	32.94
389.189	30.89
389.399	71.85
389.609	67.75
389.818	116.9
390.028	75.95
390.238	28.84
390.447	14.51
390.657	108.71
390.867	67.75
391.076	104.62
391.286	125.1
391.496	129.19
391.705	-18.26
391.915	82.09
392.125	176.3
392.334	65.71
392.544	88.23
392.753	14.51
392.963	65.71
393.172	123.05
393.382	73.9
393.591	112.81
393.801	112.81
394.01	102.57
394.22	106.67
394.429	121
394.639	49.32
394.848	69.8
395.058	127.14
395.267	127.14
395.477	88.23
395.686	43.18
395.895	104.62
396.105	102.57
396.314	90.28
396.524	57.51
396.733	47.27
396.942	123.05
397.152	55.47
397.361	67.75
397.57	65.71
397.78	96.43
397.989	77.99
398.198	127.14
398.407	157.86
398.617	110.76
398.826	159.91
399.035	133.29
399.244	71.85
399.453	2.22
399.663	159.91
399.872	75.95
400.081	145.58
400.29	121
400.499	98.47
400.708	190.63
400.917	80.04
401.127	129.19
401.336	55.47
401.545	180.39
401.754	96.43
401.963	67.75
402.172	77.99
402.381	67.75
402.59	34.99
402.799	133.29
403.008	108.71
403.217	137.38
403.426	106.67
403.635	108.71
403.844	170.15
404.053	155.82
404.262	121
404.471	141.48
404.68	166.06
404.888	170.15
405.097	153.77
405.306	141.48
405.515	161.96
405.724	82.09
405.933	125.1
406.142	145.58
406.35	209.06
406.559	151.72
406.768	211.11
406.977	194.73
407.185	180.39
407.394	194.73
407.603	186.54
407.812	231.59
408.02	264.36
408.229	239.78
408.438	209.06
408.646	231.59
408.855	280.74
409.064	309.41
409.272	235.69
409.481	207.02
409.69	356.52
409.898	317.61
410.107	340.13
410.315	313.51
410.524	305.32
410.733	395.43
410.941	391.33
411.15	383.14
411.358	403.62
411.567	420
411.775	344.23
411.984	385.19
412.192	493.73
412.401	569.51
412.609	553.12
412.818	530.59
413.026	524.45
413.234	479.4
413.443	477.35
413.651	557.22
413.86	602.27
414.068	647.33
414.276	626.85
414.485	604.32
414.693	655.52
414.901	733.34
415.11	700.58
415.318	690.34
415.526	690.34
415.734	831.65
415.943	833.69
416.151	854.17
416.359	891.04
416.567	829.6
416.776	888.99
416.984	985.24
417.192	1022.11
417.4	944.28
417.608	985.24
417.817	987.29
418.025	1015.96
418.233	1206.42
418.441	1171.61
418.649	1179.8
418.857	1257.62
419.065	1251.48
419.273	1337.49
419.481	1333.4
419.689	1497.24
419.897	1468.56
420.105	1491.09
420.313	1552.53
420.521	1550.48
420.729	1587.35
420.937	1659.03
421.145	1767.57
421.353	1886.35
421.561	1970.32
421.769	2039.95
421.977	2035.85
422.185	2074.76
422.393	2228.36
422.601	2338.95
422.809	2230.41
423.017	2341
423.224	2341
423.432	2357.38
423.64	2437.25
423.848	2689.15
424.056	2566.28
424.263	2881.66
424.471	2889.85
424.679	2889.85
424.887	2955.39
425.094	3201.15
425.302	3254.39
425.51	3297.4
425.718	3334.26
425.925	3516.53
426.133	3469.43
426.341	3623.03
426.548	3897.46
426.756	3782.77
426.964	4036.72
427.171	4165.74
427.379	4261.99
427.586	4386.92
427.794	4395.11
428.001	4647.01
428.209	4935.78
428.417	4819.04
428.624	5204.06
428.832	5068.89
429.039	5103.71
429.247	5156.96
429.454	5613.65
429.662	5967.95
429.869	5822.55
430.076	6107.21
430.284	5722.2
430.491	6080.59
430.699	6344.78
430.906	6320.2
431.114	6547.53
431.321	6686.79
431.528	6877.25
431.736	7290.94
431.943	7493.69
432.15	7393.34
432.358	7673.91
432.565	7882.8
432.772	7917.62
432.979	8245.29
433.187	8343.6
433.394	8400.94
433.601	8972.32
433.808	9107.49
434.016	9146.4
434.223	9420.83
434.43	9916.44
434.637	9826.32
434.844	10434.57
435.052	10475.53
435.259	10672.14
435.466	10473.48
435.673	10426.38
435.88	11374.59
436.087	11581.43
436.294	11804.66
436.501	11448.32
436.708	11913.2
436.915	12234.74
437.122	12695.53
437.329	12490.73
437.537	12963.81
437.743	13131.75
437.95	12994.53
438.157	13656.03
438.364	14366.67
438.571	14063.57
438.778	14159.83
438.985	15697.85
439.192	14985.16
439.399	15407.04
439.606	15087.56
439.813	15744.95
440.02	16988.07
440.227	16582.57
440.433	16523.18
440.64	17074.09
440.847	16943.02
441.054	17297.31
441.261	18159.51
441.467	17979.29
441.674	18599.82
441.881	19156.87
442.088	18900.87
442.294	19001.22
442.501	19543.94
442.708	19890.04
442.914	20742
443.121	21350.24
443.328	21018.47
443.534	22392.66
443.741	21505.89
443.948	21555.04
444.154	23277.38
444.361	23119.69
444.568	23213.9
444.774	23273.29
444.981	23476.04
445.187	24241.98
445.394	25106.22
445.6	24645.43
445.807	26820.37
446.013	25943.84
446.22	26183.45
446.426	27332.36
446.633	27571.97
446.839	28559.09
447.046	27322.12
447.252	28739.32
447.459	28827.38
447.665	28430.07
447.871	29798.12
448.078	30674.65
448.284	29699.81
448.491	30052.06
448.697	31473.35
448.903	31909.57
449.11	32036.55
449.316	31375.05
449.522	32075.46
449.728	32683.7
449.935	32988.85
450.141	33097.39
450.347	33861.29
450.553	32460.48
450.76	32976.56
450.966	33982.12
451.172	33994.4
451.378	34610.84
451.584	33818.28
451.791	34614.94
451.997	34375.33
452.203	34887.32
452.409	34860.69
452.615	34645.66
452.821	33400.49
453.027	33019.57
453.233	34786.97
453.44	33334.96
453.646	33695.4
453.852	33787.56
454.058	34145.95
454.264	33451.69
454.47	34025.12
454.676	32804.53
454.882	33803.94
455.088	31166.16
455.294	31704.77
455.5	31805.13
455.705	32229.05
455.911	30598.87
456.117	30238.43
456.323	29605.61
456.529	28012.29
456.735	29548.26
456.941	28800.76
457.147	28092.16
457.352	27406.09
457.558	27062.03
457.764	27418.38
457.97	26474.26
458.176	26079
458.381	26042.14
458.587	24641.33
458.793	24885.04
458.999	23301.96
459.204	25003.82
459.41	24559.41
459.616	22988.62
459.821	22771.54
460.027	22447.96
460.233	22239.06
460.438	21299.05
460.644	21419.88
460.85	20549.49
461.055	20129.66
461.261	20113.27
461.466	18532.24
461.672	18261.91
461.878	19412.87
462.083	17872.79
462.289	17674.14
462.494	17518.5
462.7	16883.63
462.905	16490.42
463.111	16730.03
463.316	16916.39
463.522	16617.39
463.727	16674.73
463.932	16437.17
464.138	16365.49
464.343	16596.91
464.549	16142.26
464.754	16406.45
464.959	16340.91
465.165	16365.49
465.37	15550.4
465.575	15255.49
465.781	15880.12
465.986	16215.99
466.191	15591.36
466.397	14862.28
466.602	14358.48
466.807	14901.19
467.012	14882.76
467.218	14817.22
467.423	14813.13
467.628	14800.84
