Data from USB4F104151__215__10-29-57-513.txt Node

Date: Wed Mar 12 10:29:57 EDT 2025
User: louis
Spectrometer: USB4F10415
Trigger mode: 4
Integration Time (sec): 3.000000E-2
Scans to average: 1
Electric dark correction enabled: true
Nonlinearity correction enabled: false
Boxcar width: 0
XAxis mode: Wavelengths
Number of Pixels in Spectrum: 3648
>>>>>Begin Spectral Data<<<<<
178.204	-51.54
178.424	-51.54
178.644	-51.54
178.864	-102.74
179.084	-112.98
179.304	-45.4
179.524	30.38
179.744	-47.44
179.964	18.09
180.184	40.62
180.404	34.47
180.624	28.33
180.844	-12.63
181.064	-29.01
181.283	-18.77
181.503	-39.25
181.723	40.62
181.943	-10.58
182.163	13.99
182.383	63.15
182.602	40.62
182.822	116.39
183.042	-20.82
183.262	73.39
183.482	-22.87
183.701	1.71
183.921	67.24
184.141	52.91
184.361	46.76
184.58	-16.73
184.8	16.04
185.02	36.52
185.239	36.52
185.459	22.19
185.679	77.48
185.898	9.9
186.118	36.52
186.338	18.09
186.557	50.86
186.777	3.75
186.997	32.43
187.216	61.1
187.436	102.06
187.655	50.86
187.875	67.24
188.095	5.8
188.314	48.81
188.534	110.25
188.753	81.58
188.973	34.47
189.192	147.11
189.412	91.82
189.631	106.15
189.851	63.15
190.07	59.05
190.29	-12.63
190.509	67.24
190.729	-16.73
190.948	118.44
191.168	161.45
191.387	106.15
191.607	81.58
191.826	24.23
192.045	34.47
192.265	61.1
192.484	97.96
192.704	13.99
192.923	22.19
193.142	73.39
193.362	104.11
193.581	1.71
193.8	57
194.02	42.67
194.239	32.43
194.458	91.82
194.678	-14.68
194.897	69.29
195.116	-26.96
195.335	54.95
195.555	87.72
195.774	40.62
195.993	63.15
196.212	38.57
196.432	-26.96
196.651	-10.58
196.87	46.76
197.089	120.49
197.308	126.63
197.528	9.9
197.747	3.75
197.966	93.87
198.185	120.49
198.404	13.99
198.623	69.29
198.842	83.63
199.062	32.43
199.281	85.67
199.5	26.28
199.719	138.92
199.938	18.09
200.157	71.34
200.376	79.53
200.595	48.81
200.814	30.38
201.033	32.43
201.252	130.73
201.471	75.43
201.69	93.87
201.909	97.96
202.128	63.15
202.347	32.43
202.566	44.71
202.785	50.86
203.004	-92.5
203.223	97.96
203.442	3.75
203.661	-12.63
203.879	48.81
204.098	7.85
204.317	-63.83
204.536	67.24
204.755	36.52
204.974	87.72
205.193	-14.68
205.411	132.78
205.63	132.78
205.849	188.07
206.068	-41.3
206.287	30.38
206.505	71.34
206.724	61.1
206.943	20.14
207.162	63.15
207.381	46.76
207.599	5.8
207.818	46.76
208.037	-33.11
208.255	100.01
208.474	1.71
208.693	71.34
208.911	36.52
209.13	61.1
209.349	73.39
209.567	42.67
209.786	48.81
210.005	95.91
210.223	100.01
210.442	-4.44
210.661	28.33
210.879	122.54
211.098	42.67
211.316	38.57
211.535	34.47
211.753	-24.92
211.972	140.97
212.191	16.04
212.409	95.91
212.628	-12.63
212.846	40.62
213.065	32.43
213.283	61.1
213.502	-14.68
213.72	1.71
213.938	5.8
214.157	44.71
214.375	22.19
214.594	63.15
214.812	79.53
215.031	3.75
215.249	-4.44
215.467	54.95
215.686	1.71
215.904	155.3
216.122	87.72
216.341	71.34
216.559	5.8
216.778	42.67
216.996	128.68
217.214	36.52
217.432	20.14
217.651	48.81
217.869	20.14
218.087	30.38
218.306	-12.63
218.524	61.1
218.742	11.95
218.96	26.28
219.179	-14.68
219.397	130.73
219.615	100.01
219.833	11.95
220.051	22.19
220.27	77.48
220.488	52.91
220.706	46.76
220.924	-22.87
221.142	54.95
221.36	26.28
221.578	102.06
221.796	16.04
222.015	50.86
222.233	28.33
222.451	13.99
222.669	-2.39
222.887	59.05
223.105	75.43
223.323	-10.58
223.541	75.43
223.759	-16.73
223.977	-10.58
224.195	93.87
224.413	28.33
224.631	65.19
224.849	34.47
225.067	120.49
225.285	54.95
225.503	24.23
225.721	30.38
225.939	100.01
226.157	18.09
226.375	48.81
226.592	13.99
226.81	22.19
227.028	95.91
227.246	59.05
227.464	81.58
227.682	95.91
227.9	-6.49
228.117	28.33
228.335	26.28
228.553	-55.64
228.771	-2.39
228.989	34.47
229.206	59.05
229.424	52.91
229.642	26.28
229.86	67.24
230.077	46.76
230.295	87.72
230.513	120.49
230.731	38.57
230.948	73.39
231.166	34.47
231.384	20.14
231.601	59.05
231.819	153.26
232.037	-0.34
232.254	-16.73
232.472	71.34
232.689	61.1
232.907	112.3
233.125	46.76
233.342	-22.87
233.56	13.99
233.777	61.1
233.995	75.43
234.213	59.05
234.43	59.05
234.648	79.53
234.865	102.06
235.083	-65.88
235.3	32.43
235.518	75.43
235.735	40.62
235.953	124.58
236.17	81.58
236.388	100.01
236.605	5.8
236.822	63.15
237.04	-26.96
237.257	3.75
237.475	54.95
237.692	73.39
237.909	9.9
238.127	57
238.344	69.29
238.562	145.06
238.779	30.38
238.996	28.33
239.214	11.95
239.431	65.19
239.648	28.33
239.865	24.23
240.083	63.15
240.3	91.82
240.517	85.67
240.735	110.25
240.952	52.91
241.169	97.96
241.386	75.43
241.603	-2.39
241.821	-8.53
242.038	50.86
242.255	46.76
242.472	7.85
242.689	89.77
242.907	46.76
243.124	63.15
243.341	16.04
243.558	83.63
243.775	-2.39
243.992	65.19
244.209	18.09
244.426	32.43
244.643	104.11
244.86	3.75
245.078	61.1
245.295	79.53
245.512	50.86
245.729	5.8
245.946	108.2
246.163	69.29
246.38	46.76
246.597	20.14
246.814	-37.2
247.031	40.62
247.248	87.72
247.464	61.1
247.681	50.86
247.898	75.43
248.115	34.47
248.332	-18.77
248.549	112.3
248.766	83.63
248.983	34.47
249.2	32.43
249.417	46.76
249.633	26.28
249.85	65.19
250.067	20.14
250.284	36.52
250.501	22.19
250.717	20.14
250.934	52.91
251.151	36.52
251.368	-6.49
251.585	38.57
251.801	50.86
252.018	18.09
252.235	-6.49
252.451	3.75
252.668	-14.68
252.885	71.34
253.102	50.86
253.318	54.95
253.535	48.81
253.752	32.43
253.968	112.3
254.185	46.76
254.401	1.71
254.618	36.52
254.835	63.15
255.051	102.06
255.268	95.91
255.484	28.33
255.701	81.58
255.917	81.58
256.134	-18.77
256.351	89.77
256.567	63.15
256.784	-0.34
257	30.38
257.217	108.2
257.433	63.15
257.65	30.38
257.866	71.34
258.082	54.95
258.299	-10.58
258.515	22.19
258.732	16.04
258.948	61.1
259.165	22.19
259.381	18.09
259.597	52.91
259.814	46.76
260.03	13.99
260.246	30.38
260.463	102.06
260.679	75.43
260.895	63.15
261.112	22.19
261.328	61.1
261.544	9.9
261.761	140.97
261.977	79.53
262.193	44.71
262.409	32.43
262.626	-18.77
262.842	-8.53
263.058	-2.39
263.274	9.9
263.49	61.1
263.707	30.38
263.923	79.53
264.139	65.19
264.355	71.34
264.571	81.58
264.787	75.43
265.004	83.63
265.22	63.15
265.436	36.52
265.652	57
265.868	108.2
266.084	46.76
266.3	-18.77
266.516	-6.49
266.732	7.85
266.948	79.53
267.164	36.52
267.38	38.57
267.596	18.09
267.812	52.91
268.028	75.43
268.244	18.09
268.46	61.1
268.676	28.33
268.892	79.53
269.108	61.1
269.324	-16.73
269.54	13.99
269.756	75.43
269.972	52.91
270.188	50.86
270.403	67.24
270.619	81.58
270.835	5.8
271.051	69.29
271.267	-14.68
271.483	67.24
271.698	132.78
271.914	73.39
272.13	89.77
272.346	67.24
272.562	24.23
272.777	67.24
272.993	48.81
273.209	54.95
273.425	11.95
273.64	16.04
273.856	97.96
274.072	40.62
274.287	54.95
274.503	71.34
274.719	46.76
274.934	-31.06
275.15	-55.64
275.366	52.91
275.581	-8.53
275.797	42.67
276.012	59.05
276.228	20.14
276.444	20.14
276.659	120.49
276.875	57
277.09	-18.77
277.306	50.86
277.521	89.77
277.737	95.91
277.952	108.2
278.168	65.19
278.383	18.09
278.599	69.29
278.814	151.21
279.03	36.52
279.245	116.39
279.461	28.33
279.676	54.95
279.892	54.95
280.107	-2.39
280.322	13.99
280.538	71.34
280.753	7.85
280.969	54.95
281.184	-29.01
281.399	46.76
281.615	50.86
281.83	73.39
282.045	-33.11
282.26	-10.58
282.476	20.14
282.691	95.91
282.906	38.57
283.122	34.47
283.337	85.67
283.552	79.53
283.767	7.85
283.983	54.95
284.198	61.1
284.413	79.53
284.628	5.8
284.843	54.95
285.058	118.44
285.274	20.14
285.489	18.09
285.704	120.49
285.919	11.95
286.134	106.15
286.349	48.81
286.564	65.19
286.779	57
286.995	26.28
287.21	52.91
287.425	42.67
287.64	7.85
287.855	32.43
288.07	34.47
288.285	38.57
288.5	128.68
288.715	59.05
288.93	-69.97
289.145	59.05
289.36	36.52
289.575	-10.58
289.79	83.63
290.004	28.33
290.219	46.76
290.434	75.43
290.649	13.99
290.864	46.76
291.079	63.15
291.294	87.72
291.509	50.86
291.724	122.54
291.938	22.19
292.153	95.91
292.368	7.85
292.583	36.52
292.798	48.81
293.012	128.68
293.227	11.95
293.442	59.05
293.657	75.43
293.871	38.57
294.086	52.91
294.301	32.43
294.516	102.06
294.73	48.81
294.945	13.99
295.16	16.04
295.374	95.91
295.589	38.57
295.804	106.15
296.018	63.15
296.233	67.24
296.447	57
296.662	38.57
296.877	124.58
297.091	28.33
297.306	40.62
297.52	61.1
297.735	57
297.949	-22.87
298.164	183.98
298.378	-26.96
298.593	-10.58
298.807	-20.82
299.022	28.33
299.236	120.49
299.451	-6.49
299.665	71.34
299.88	11.95
300.094	22.19
300.309	1.71
300.523	65.19
300.737	-26.96
300.952	9.9
301.166	79.53
301.381	59.05
301.595	77.48
301.809	46.76
302.024	13.99
302.238	-2.39
302.452	7.85
302.667	30.38
302.881	128.68
303.095	79.53
303.309	11.95
303.524	38.57
303.738	1.71
303.952	13.99
304.166	91.82
304.381	44.71
304.595	132.78
304.809	18.09
305.023	3.75
305.237	9.9
305.452	38.57
305.666	52.91
305.88	18.09
306.094	100.01
306.308	75.43
306.522	36.52
306.736	65.19
306.95	95.91
307.164	69.29
307.379	71.34
307.593	118.44
307.807	24.23
308.021	126.63
308.235	69.29
308.449	67.24
308.663	46.76
308.877	149.16
309.091	30.38
309.305	93.87
309.519	22.19
309.733	77.48
309.947	48.81
310.161	102.06
310.374	136.87
310.588	116.39
310.802	46.76
311.016	145.06
311.23	104.11
311.444	20.14
311.658	89.77
311.872	124.58
312.085	112.3
312.299	79.53
312.513	77.48
312.727	102.06
312.941	59.05
313.154	20.14
313.368	67.24
313.582	118.44
313.796	11.95
314.009	32.43
314.223	102.06
314.437	52.91
314.651	42.67
314.864	63.15
315.078	-14.68
315.292	20.14
315.505	24.23
315.719	87.72
315.933	93.87
316.146	108.2
316.36	28.33
316.573	89.77
316.787	65.19
317.001	77.48
317.214	-10.58
317.428	40.62
317.641	42.67
317.855	114.34
318.068	-31.06
318.282	130.73
318.495	75.43
318.709	67.24
318.922	30.38
319.136	95.91
319.349	11.95
319.563	165.54
319.776	126.63
319.99	165.54
320.203	48.81
320.417	30.38
320.63	81.58
320.843	175.78
321.057	42.67
321.27	32.43
321.483	95.91
321.697	48.81
321.91	36.52
322.124	24.23
322.337	95.91
322.55	24.23
322.763	87.72
322.977	44.71
323.19	11.95
323.403	38.57
323.617	136.87
323.83	110.25
324.043	54.95
324.256	134.82
324.469	42.67
324.683	75.43
324.896	1.71
325.109	83.63
325.322	46.76
325.535	95.91
325.748	18.09
325.962	-6.49
326.175	20.14
326.388	67.24
326.601	63.15
326.814	16.04
327.027	50.86
327.24	77.48
327.453	28.33
327.666	85.67
327.879	50.86
328.092	69.29
328.305	44.71
328.518	65.19
328.731	140.97
328.944	36.52
329.157	3.75
329.37	95.91
329.583	38.57
329.796	112.3
330.009	36.52
330.222	112.3
330.435	69.29
330.648	87.72
330.861	52.91
331.073	100.01
331.286	63.15
331.499	91.82
331.712	71.34
331.925	36.52
332.138	110.25
332.35	110.25
332.563	93.87
332.776	120.49
332.989	28.33
333.202	79.53
333.414	40.62
333.627	32.43
333.84	61.1
334.053	77.48
334.265	59.05
334.478	75.43
334.691	32.43
334.903	-0.34
335.116	-10.58
335.329	79.53
335.541	91.82
335.754	85.67
335.966	57
336.179	-22.87
336.392	95.91
336.604	28.33
336.817	95.91
337.029	77.48
337.242	9.9
337.454	89.77
337.667	116.39
337.88	112.3
338.092	85.67
338.305	52.91
338.517	59.05
338.729	54.95
338.942	-10.58
339.154	36.52
339.367	-0.34
339.579	143.02
339.792	44.71
340.004	143.02
340.217	89.77
340.429	75.43
340.641	104.11
340.854	71.34
341.066	5.8
341.278	136.87
341.491	120.49
341.703	108.2
341.915	40.62
342.128	63.15
342.34	52.91
342.552	91.82
342.764	67.24
342.977	79.53
343.189	89.77
343.401	46.76
343.613	3.75
343.826	40.62
344.038	7.85
344.25	87.72
344.462	93.87
344.674	124.58
344.886	52.91
345.099	128.68
345.311	104.11
345.523	128.68
345.735	-4.44
345.947	147.11
346.159	22.19
346.371	40.62
346.583	95.91
346.795	59.05
347.007	36.52
347.219	26.28
347.431	50.86
347.643	95.91
347.855	46.76
348.067	26.28
348.279	-24.92
348.491	7.85
348.703	50.86
348.915	54.95
349.127	54.95
349.339	-2.39
349.551	79.53
349.763	77.48
349.975	5.8
350.187	77.48
350.399	34.47
350.61	143.02
350.822	46.76
351.034	38.57
351.246	71.34
351.458	95.91
351.669	128.68
351.881	100.01
352.093	126.63
352.305	77.48
352.517	46.76
352.728	54.95
352.94	32.43
353.152	85.67
353.363	69.29
353.575	44.71
353.787	63.15
353.999	93.87
354.21	87.72
354.422	91.82
354.633	42.67
354.845	40.62
355.057	63.15
355.268	11.95
355.48	81.58
355.692	79.53
355.903	79.53
356.115	134.82
356.326	50.86
356.538	122.54
356.749	89.77
356.961	36.52
357.172	34.47
357.384	85.67
357.595	155.3
357.807	91.82
358.018	46.76
358.23	108.2
358.441	138.92
358.653	114.34
358.864	63.15
359.075	5.8
359.287	91.82
359.498	77.48
359.709	104.11
359.921	67.24
360.132	71.34
360.344	61.1
360.555	46.76
360.766	36.52
360.977	18.09
361.189	100.01
361.4	128.68
361.611	116.39
361.823	120.49
362.034	108.2
362.245	63.15
362.456	75.43
362.667	91.82
362.879	63.15
363.09	30.38
363.301	63.15
363.512	46.76
363.723	85.67
363.935	13.99
364.146	161.45
364.357	77.48
364.568	108.2
364.779	24.23
364.99	83.63
365.201	5.8
365.412	140.97
365.623	73.39
365.834	143.02
366.045	11.95
366.256	30.38
366.467	138.92
366.678	63.15
366.889	75.43
367.1	87.72
367.311	112.3
367.522	54.95
367.733	136.87
367.944	145.06
368.155	57
368.366	122.54
368.577	50.86
368.788	126.63
368.999	42.67
369.209	83.63
369.42	130.73
369.631	167.59
369.842	87.72
370.053	34.47
370.264	93.87
370.474	104.11
370.685	63.15
370.896	59.05
371.107	108.2
371.317	40.62
371.528	128.68
371.739	28.33
371.95	83.63
372.16	73.39
372.371	89.77
372.582	128.68
372.792	112.3
373.003	42.67
373.214	124.58
373.424	65.19
373.635	134.82
373.846	102.06
374.056	34.47
374.267	71.34
374.477	59.05
374.688	75.43
374.898	75.43
375.109	132.78
375.319	22.19
375.53	104.11
375.74	50.86
375.951	102.06
376.161	48.81
376.372	89.77
376.582	-49.49
376.793	91.82
377.003	61.1
377.214	54.95
377.424	110.25
377.635	143.02
377.845	42.67
378.055	112.3
378.266	97.96
378.476	104.11
378.686	120.49
378.897	63.15
379.107	95.91
379.317	67.24
379.528	61.1
379.738	132.78
379.948	40.62
380.158	48.81
380.369	124.58
380.579	61.1
380.789	85.67
380.999	75.43
381.21	89.77
381.42	151.21
381.63	30.38
381.84	130.73
382.05	120.49
382.261	77.48
382.471	85.67
382.681	104.11
382.891	128.68
383.101	63.15
383.311	81.58
383.521	186.02
383.731	52.91
383.941	134.82
384.151	136.87
384.361	63.15
384.571	95.91
384.781	85.67
384.991	153.26
385.201	165.54
385.411	93.87
385.621	140.97
385.831	61.1
386.041	159.4
386.251	34.47
386.461	30.38
386.671	65.19
386.881	167.59
387.091	16.04
387.301	89.77
387.511	138.92
387.72	179.88
387.93	110.25
388.14	71.34
388.35	75.43
388.56	118.44
388.769	112.3
388.979	112.3
389.189	106.15
389.399	118.44
389.609	118.44
389.818	30.38
390.028	112.3
390.238	126.63
390.447	106.15
390.657	140.97
390.867	65.19
391.076	100.01
391.286	153.26
391.496	73.39
391.705	75.43
391.915	50.86
392.125	130.73
392.334	9.9
392.544	59.05
392.753	149.16
392.963	157.35
393.172	100.01
393.382	95.91
393.591	145.06
393.801	93.87
394.01	181.93
394.22	145.06
394.429	140.97
394.639	130.73
394.848	128.68
395.058	79.53
395.267	112.3
395.477	161.45
395.686	122.54
395.895	112.3
396.105	126.63
396.314	202.41
396.524	130.73
396.733	186.02
396.942	183.98
397.152	136.87
397.361	192.17
397.57	181.93
397.78	155.3
397.989	104.11
398.198	204.46
398.407	151.21
398.617	120.49
398.826	114.34
399.035	255.65
399.244	171.69
399.453	214.7
399.663	194.22
399.872	218.79
400.081	161.45
400.29	173.74
400.499	153.26
400.708	231.08
400.917	122.54
401.127	169.64
401.336	241.32
401.545	216.74
401.754	224.94
401.963	247.46
402.172	138.92
402.381	192.17
402.59	120.49
402.799	151.21
403.008	292.52
403.217	253.61
403.426	216.74
403.635	165.54
403.844	163.5
404.053	206.5
404.262	145.06
404.471	231.08
404.68	222.89
404.888	216.74
405.097	190.12
405.306	251.56
405.515	249.51
405.724	294.57
405.933	304.81
406.142	245.41
406.35	241.32
406.559	319.14
406.768	263.85
406.977	339.62
407.185	325.29
407.394	345.77
407.603	298.66
407.812	220.84
408.02	380.58
408.229	308.9
408.438	288.42
408.646	321.19
408.855	390.82
409.064	435.88
409.272	358.05
409.481	351.91
409.69	423.59
409.898	376.48
410.107	480.93
410.315	558.75
410.524	468.64
410.733	542.37
410.941	427.68
411.15	601.76
411.358	538.27
411.567	693.92
411.775	616.1
411.984	614.05
412.192	587.43
412.401	681.63
412.609	773.79
412.818	698.02
413.026	747.17
413.234	775.84
413.443	677.54
413.651	784.03
413.86	859.81
414.068	833.18
414.276	937.63
414.485	857.76
414.693	962.2
414.901	1111.71
415.11	1062.55
415.318	1025.69
415.526	1066.65
415.734	1117.85
415.943	1230.49
416.151	1185.43
416.359	1109.66
416.567	1283.74
416.776	1353.37
416.984	1408.66
417.192	1457.81
417.4	1463.96
417.608	1449.62
417.817	1586.83
418.025	1644.18
418.233	1693.33
418.441	1664.66
418.649	1848.97
418.857	1908.37
419.065	1955.47
419.273	1896.08
419.481	2100.87
419.689	2156.17
419.897	2186.89
420.105	2260.62
420.313	2348.68
420.521	2395.78
420.729	2457.22
420.937	2432.65
421.145	2610.82
421.353	2844.29
421.561	2791.04
421.769	2903.68
421.977	3053.18
422.185	2981.5
422.393	3171.96
422.601	3446.39
422.809	3387
423.017	3536.5
423.224	3509.88
423.432	3784.3
423.64	3769.97
423.848	4185.71
424.056	3921.52
424.263	4300.39
424.471	4228.71
424.679	4372.07
424.887	4724.32
425.094	4666.98
425.302	4697.7
425.51	4984.41
425.718	5062.24
425.925	5058.14
426.133	5252.7
426.341	5619.28
426.548	5817.94
426.756	5781.07
426.964	5916.24
427.171	6202.96
427.379	6579.78
427.586	6499.91
427.794	6747.72
428.001	7063.1
428.209	7444.03
428.417	7247.42
428.624	7962.16
428.832	7718.45
429.039	7753.27
429.247	7759.41
429.454	8545.83
429.662	9053.73
429.869	8431.15
430.076	9023.01
430.284	8857.12
430.491	9236
430.699	9633.3
430.906	9532.95
431.114	9690.65
431.321	10055.19
431.528	10462.73
431.736	11111.94
431.943	11640.31
432.15	11234.82
432.358	11087.36
432.565	11816.44
432.772	11752.95
432.979	12441.07
433.187	12492.27
433.394	12826.09
433.601	13569.5
433.808	13637.08
434.016	13575.64
434.223	14058.96
434.43	14810.57
434.637	14577.1
434.844	15642.04
435.052	15584.7
435.259	15748.54
435.466	15963.58
435.673	15762.87
435.88	16569.77
436.087	17565.09
436.294	17601.95
436.501	17280.42
436.708	17667.49
436.915	18214.29
437.122	19254.66
437.329	19039.62
437.537	19660.16
437.743	19824
437.95	19625.34
438.157	20895.08
438.364	21620.06
438.571	21233
438.778	21525.86
438.985	23534.92
439.192	22764.88
439.399	23436.61
439.606	22596.95
439.813	24001.85
440.02	25400.62
440.227	24843.57
440.433	24726.83
440.64	26201.37
440.847	25451.81
441.054	26164.51
441.261	27903.23
441.467	27477.26
441.674	27888.9
441.881	28851.44
442.088	28749.04
442.294	28626.17
442.501	29336.81
442.708	30016.74
442.914	31499.47
443.121	32537.79
443.328	31472.84
443.534	34016.42
443.741	32642.23
443.948	31816.9
444.154	34839.7
444.361	34188.45
444.568	34872.47
444.774	34589.85
444.981	35294.35
445.187	35847.3
445.394	37561.45
445.6	36871.29
445.807	40379.46
446.013	38927.45
446.22	39795.79
446.426	41448.5
446.633	41045.05
446.839	42517.54
447.046	40787
447.252	43435.03
447.459	43394.07
447.665	42796.06
447.871	44540.93
448.078	46742.5
448.284	44239.88
448.491	45456.37
448.697	47453.14
448.903	47877.07
449.11	47885.26
449.316	47303.64
449.522	47993.81
449.728	49286.07
449.935	50009.01
450.141	48954.3
450.347	50852.77
450.553	49214.4
450.76	49806.26
450.966	51065.76
451.172	50488.23
451.378	51411.87
451.584	51018.66
451.791	51727.25
451.997	51446.68
452.203	52450.19
452.409	52431.75
452.615	52044.69
452.821	50410.41
453.027	50064.3
453.233	52265.87
453.44	49980.34
453.646	50477.99
453.852	50949.03
454.058	51835.8
454.264	49497.02
454.47	51119.01
454.676	49609.65
454.882	51501.98
455.088	46472.17
455.294	47705.04
455.5	47907.79
455.705	48427.98
455.911	46986.21
456.117	46013.42
456.323	45388.79
456.529	42734.62
456.735	44624.9
456.941	43416.6
457.147	42527.78
457.352	41368.63
457.558	41350.2
457.764	41096.25
457.97	40377.41
458.176	39758.92
458.381	39445.58
458.587	37330.03
458.793	37428.34
458.999	35837.06
459.204	38059.11
459.41	37213.3
459.616	34421.92
459.821	34849.94
460.027	34782.36
460.233	33768.62
460.438	32238.78
460.644	32484.54
460.85	31149.26
461.055	30360.8
461.261	30504.15
461.466	28335.35
461.672	27364.62
461.878	29367.53
462.083	27874.56
462.289	26842.39
462.494	26793.23
462.7	25441.57
462.905	24900.91
463.111	25603.36
463.316	25969.95
463.522	25398.57
463.727	25576.74
463.932	25740.58
464.138	25146.67
464.343	25111.85
464.549	24360.25
464.754	25341.22
464.959	25273.64
465.165	25048.36
465.37	24055.1
465.575	23385.41
465.781	24010.04
465.986	24507.7
466.191	23369.03
