Data from USB4F104151__252__10-39-42-569.txt Node

Date: Wed Mar 12 10:39:42 EDT 2025
User: louis
Spectrometer: USB4F10415
Trigger mode: 4
Integration Time (sec): 3.000000E-2
Scans to average: 1
Electric dark correction enabled: true
Nonlinearity correction enabled: false
Boxcar width: 0
XAxis mode: Wavelengths
Number of Pixels in Spectrum: 3648
>>>>>Begin Spectral Data<<<<<
178.204	-134.65
178.424	-134.65
178.644	-134.65
178.864	-67.07
179.084	-97.79
179.304	23.04
179.524	-62.98
179.744	-19.97
179.964	6.66
180.184	-26.11
180.404	0.51
180.624	27.14
180.844	76.29
181.064	-56.83
181.283	51.71
181.503	-28.16
181.723	8.7
181.943	-48.64
182.163	68.09
182.383	-15.87
182.602	70.14
182.822	39.42
183.042	2.56
183.262	-26.11
183.482	51.71
183.701	41.47
183.921	8.7
184.141	80.38
184.361	39.42
184.58	57.86
184.8	41.47
185.02	-3.58
185.239	-28.16
185.459	-40.45
185.679	-22.02
185.898	-15.87
186.118	47.62
186.338	27.14
186.557	98.81
186.777	80.38
186.997	-73.21
187.216	-3.58
187.436	20.99
187.655	47.62
187.875	12.8
188.095	16.9
188.314	57.86
188.534	131.58
188.753	14.85
188.973	70.14
189.192	53.76
189.412	25.09
189.631	25.09
189.851	16.9
190.07	55.81
190.29	39.42
190.509	25.09
190.729	-1.54
190.948	68.09
191.168	115.2
191.387	29.18
191.607	31.23
191.826	49.66
192.045	10.75
192.265	29.18
192.484	35.33
192.704	33.28
192.923	18.94
193.142	43.52
193.362	66.05
193.581	78.33
193.8	8.7
194.02	123.39
194.239	113.15
194.458	16.9
194.678	33.28
194.897	16.9
195.116	59.9
195.335	-3.58
195.555	74.24
195.774	33.28
195.993	41.47
196.212	-13.82
196.432	41.47
196.651	35.33
196.87	43.52
197.089	51.71
197.308	61.95
197.528	80.38
197.747	33.28
197.966	-17.92
198.185	47.62
198.404	-40.45
198.623	-19.97
198.842	41.47
199.062	-19.97
199.281	4.61
199.5	66.05
199.719	25.09
199.938	53.76
200.157	47.62
200.376	0.51
200.595	45.57
200.814	4.61
201.033	25.09
201.252	-30.21
201.471	37.38
201.69	43.52
201.909	53.76
202.128	14.85
202.347	84.48
202.566	-1.54
202.785	-9.73
203.004	-22.02
203.223	37.38
203.442	31.23
203.661	-3.58
203.879	64
204.098	-24.06
204.317	-46.59
204.536	43.52
204.755	68.09
204.974	12.8
205.193	43.52
205.411	53.76
205.63	16.9
205.849	-13.82
206.068	-22.02
206.287	-34.3
206.505	-15.87
206.724	33.28
206.943	41.47
207.162	-1.54
207.381	6.66
207.599	-44.54
207.818	39.42
208.037	8.7
208.255	-26.11
208.474	-28.16
208.693	25.09
208.911	10.75
209.13	37.38
209.349	88.57
209.567	41.47
209.786	57.86
210.005	39.42
210.223	-28.16
210.442	-54.78
210.661	68.09
210.879	25.09
211.098	-48.64
211.316	41.47
211.535	84.48
211.753	-3.58
211.972	-3.58
212.191	25.09
212.409	8.7
212.628	16.9
212.846	45.57
213.065	41.47
213.283	45.57
213.502	27.14
213.72	86.53
213.938	47.62
214.157	33.28
214.375	51.71
214.594	4.61
214.812	-17.92
215.031	6.66
215.249	-9.73
215.467	27.14
215.686	-32.26
215.904	111.1
216.122	-1.54
216.341	41.47
216.559	20.99
216.778	14.85
216.996	23.04
217.214	43.52
217.432	-32.26
217.651	-79.36
217.869	-5.63
218.087	31.23
218.306	66.05
218.524	0.51
218.742	4.61
218.96	39.42
219.179	-5.63
219.397	70.14
219.615	59.9
219.833	12.8
220.051	10.75
220.27	80.38
220.488	72.19
220.706	-17.92
220.924	25.09
221.142	8.7
221.36	-28.16
221.578	33.28
221.796	-15.87
222.015	29.18
222.233	29.18
222.451	121.34
222.669	-30.21
222.887	31.23
223.105	-5.63
223.323	55.81
223.541	39.42
223.759	27.14
223.977	20.99
224.195	94.72
224.413	55.81
224.631	29.18
224.849	51.71
225.067	64
225.285	-56.83
225.503	100.86
225.721	39.42
225.939	0.51
226.157	-44.54
226.375	0.51
226.592	43.52
226.81	-114.17
227.028	23.04
227.246	100.86
227.464	27.14
227.682	117.25
227.9	90.62
228.117	82.43
228.335	27.14
228.553	49.66
228.771	-7.68
228.989	45.57
229.206	-24.06
229.424	37.38
229.642	-17.92
229.86	-77.31
230.077	12.8
230.295	18.94
230.513	51.71
230.731	-3.58
230.948	90.62
231.166	82.43
231.384	33.28
231.601	-58.88
231.819	59.9
232.037	-32.26
232.254	-52.74
232.472	-11.78
232.689	-9.73
232.907	-3.58
233.125	0.51
233.342	33.28
233.56	4.61
233.777	33.28
233.995	16.9
234.213	68.09
234.43	115.2
234.648	49.66
234.865	-7.68
235.083	0.51
235.3	-30.21
235.518	57.86
235.735	51.71
235.953	123.39
236.17	82.43
236.388	94.72
236.605	47.62
236.822	49.66
237.04	176.64
237.257	33.28
237.475	47.62
237.692	84.48
237.909	35.33
238.127	0.51
238.344	25.09
238.562	-11.78
238.779	27.14
238.996	16.9
239.214	-36.35
239.431	72.19
239.648	4.61
239.865	51.71
240.083	0.51
240.3	55.81
240.517	-24.06
240.735	37.38
240.952	53.76
241.169	74.24
241.386	53.76
241.603	-7.68
241.821	41.47
242.038	113.15
242.255	14.85
242.472	86.53
242.689	84.48
242.907	-85.5
243.124	-71.17
243.341	6.66
243.558	25.09
243.775	-9.73
243.992	4.61
244.209	14.85
244.426	109.05
244.643	41.47
244.86	0.51
245.078	41.47
245.295	45.57
245.512	8.7
245.729	-38.4
245.946	12.8
246.163	-13.82
246.38	8.7
246.597	74.24
246.814	23.04
247.031	31.23
247.248	12.8
247.464	-11.78
247.681	29.18
247.898	37.38
248.115	-26.11
248.332	27.14
248.549	57.86
248.766	96.77
248.983	72.19
249.2	88.57
249.417	25.09
249.633	39.42
249.85	66.05
250.067	-9.73
250.284	14.85
250.501	20.99
250.717	121.34
250.934	-44.54
251.151	-13.82
251.368	47.62
251.585	8.7
251.801	39.42
252.018	33.28
252.235	33.28
252.451	-36.35
252.668	16.9
252.885	57.86
253.102	31.23
253.318	74.24
253.535	-15.87
253.752	-11.78
253.968	25.09
254.185	20.99
254.401	12.8
254.618	33.28
254.835	-32.26
255.051	49.66
255.268	37.38
255.484	55.81
255.701	70.14
255.917	6.66
256.134	0.51
256.351	-15.87
256.567	-17.92
256.784	16.9
257	-11.78
257.217	55.81
257.433	-7.68
257.65	31.23
257.866	33.28
258.082	0.51
258.299	33.28
258.515	39.42
258.732	-17.92
258.948	-13.82
259.165	25.09
259.381	55.81
259.597	12.8
259.814	6.66
260.03	6.66
260.246	-15.87
260.463	16.9
260.679	43.52
260.895	57.86
261.112	16.9
261.328	-3.58
261.544	4.61
261.761	80.38
261.977	23.04
262.193	16.9
262.409	100.86
262.626	47.62
262.842	33.28
263.058	45.57
263.274	6.66
263.49	49.66
263.707	43.52
263.923	84.48
264.139	-44.54
264.355	-15.87
264.571	47.62
264.787	4.61
265.004	57.86
265.22	41.47
265.436	10.75
265.652	0.51
265.868	12.8
266.084	6.66
266.3	-11.78
266.516	-11.78
266.732	10.75
266.948	-5.63
267.164	18.94
267.38	41.47
267.596	51.71
267.812	113.15
268.028	-13.82
268.244	10.75
268.46	78.33
268.676	-15.87
268.892	35.33
269.108	86.53
269.324	86.53
269.54	-75.26
269.756	100.86
269.972	-15.87
270.188	10.75
270.403	-3.58
270.619	107.01
270.835	-19.97
271.051	31.23
271.267	33.28
271.483	-11.78
271.698	57.86
271.914	57.86
272.13	47.62
272.346	23.04
272.562	-3.58
272.777	57.86
272.993	39.42
273.209	51.71
273.425	25.09
273.64	57.86
273.856	25.09
274.072	80.38
274.287	4.61
274.503	41.47
274.719	-7.68
274.934	8.7
275.15	14.85
275.366	10.75
275.581	-22.02
275.797	80.38
276.012	45.57
276.228	72.19
276.444	68.09
276.659	78.33
276.875	6.66
277.09	64
277.306	-30.21
277.521	98.81
277.737	43.52
277.952	76.29
278.168	33.28
278.383	98.81
278.599	-3.58
278.814	76.29
279.03	49.66
279.245	53.76
279.461	-19.97
279.676	68.09
279.892	-58.88
280.107	86.53
280.322	16.9
280.538	57.86
280.753	51.71
280.969	109.05
281.184	10.75
281.399	27.14
281.615	10.75
281.83	72.19
282.045	-46.59
282.26	25.09
282.476	49.66
282.691	90.62
282.906	78.33
283.122	53.76
283.337	-34.3
283.552	92.67
283.767	-32.26
283.983	41.47
284.198	8.7
284.413	-32.26
284.628	-26.11
284.843	86.53
285.058	-3.58
285.274	-36.35
285.489	16.9
285.704	49.66
285.919	41.47
286.134	109.05
286.349	8.7
286.564	-1.54
286.779	78.33
286.995	51.71
287.21	18.94
287.425	66.05
287.64	-28.16
287.855	18.94
288.07	41.47
288.285	86.53
288.5	45.57
288.715	76.29
288.93	33.28
289.145	68.09
289.36	8.7
289.575	55.81
289.79	66.05
290.004	-17.92
290.219	145.92
290.434	76.29
290.649	-7.68
290.864	23.04
291.079	55.81
291.294	35.33
291.509	20.99
291.724	25.09
291.938	-5.63
292.153	61.95
292.368	61.95
292.583	4.61
292.798	59.9
293.012	25.09
293.227	20.99
293.442	-28.16
293.657	35.33
293.871	98.81
294.086	86.53
294.301	94.72
294.516	86.53
294.73	59.9
294.945	82.43
295.16	27.14
295.374	68.09
295.589	84.48
295.804	4.61
296.018	84.48
296.233	-1.54
296.447	33.28
296.662	8.7
296.877	64
297.091	33.28
297.306	41.47
297.52	47.62
297.735	92.67
297.949	-34.3
298.164	35.33
298.378	70.14
298.593	45.57
298.807	14.85
299.022	49.66
299.236	127.49
299.451	6.66
299.665	29.18
299.88	12.8
300.094	18.94
300.309	-44.54
300.523	25.09
300.737	23.04
300.952	47.62
301.166	-5.63
301.381	-24.06
301.595	90.62
301.809	-40.45
302.024	68.09
302.238	47.62
302.452	137.73
302.667	29.18
302.881	80.38
303.095	127.49
303.309	74.24
303.524	-24.06
303.738	-28.16
303.952	-26.11
304.166	49.66
304.381	39.42
304.595	64
304.809	2.56
305.023	49.66
305.237	94.72
305.452	57.86
305.666	68.09
305.88	-1.54
306.094	96.77
306.308	-19.97
306.522	53.76
306.736	68.09
306.95	23.04
307.164	-19.97
307.379	4.61
307.593	78.33
307.807	86.53
308.021	121.34
308.235	57.86
308.449	12.8
308.663	-36.35
308.877	147.97
309.091	45.57
309.305	98.81
309.519	-19.97
309.733	135.68
309.947	27.14
310.161	96.77
310.374	14.85
310.588	55.81
310.802	59.9
311.016	12.8
311.23	68.09
311.444	41.47
311.658	23.04
311.872	0.51
312.085	47.62
312.299	41.47
312.513	55.81
312.727	94.72
312.941	27.14
313.154	82.43
313.368	27.14
313.582	109.05
313.796	-40.45
314.009	-40.45
314.223	35.33
314.437	88.57
314.651	12.8
314.864	57.86
315.078	-48.64
315.292	59.9
315.505	59.9
315.719	57.86
315.933	139.77
316.146	45.57
316.36	4.61
316.573	39.42
316.787	16.9
317.001	80.38
317.214	55.81
317.428	-54.78
317.641	-11.78
317.855	84.48
318.068	51.71
318.282	53.76
318.495	16.9
318.709	115.2
318.922	29.18
319.136	41.47
319.349	117.25
319.563	70.14
319.776	188.93
319.99	-22.02
320.203	10.75
320.417	-40.45
320.63	53.76
320.843	84.48
321.057	104.96
321.27	51.71
321.483	47.62
321.697	27.14
321.91	20.99
322.124	109.05
322.337	98.81
322.55	57.86
322.763	27.14
322.977	45.57
323.19	-1.54
323.403	41.47
323.617	74.24
323.83	82.43
324.043	0.51
324.256	49.66
324.469	-11.78
324.683	41.47
324.896	109.05
325.109	61.95
325.322	25.09
325.535	16.9
325.748	76.29
325.962	47.62
326.175	47.62
326.388	-19.97
326.601	64
326.814	29.18
327.027	37.38
327.24	43.52
327.453	57.86
327.666	45.57
327.879	23.04
328.092	82.43
328.305	55.81
328.518	-1.54
328.731	27.14
328.944	35.33
329.157	96.77
329.37	84.48
329.583	90.62
329.796	80.38
330.009	-34.3
330.222	70.14
330.435	88.57
330.648	53.76
330.861	2.56
331.073	84.48
331.286	51.71
331.499	33.28
331.712	80.38
331.925	135.68
332.138	4.61
332.35	98.81
332.563	10.75
332.776	92.67
332.989	47.62
333.202	16.9
333.414	-7.68
333.627	25.09
333.84	90.62
334.053	76.29
334.265	41.47
334.478	121.34
334.691	61.95
334.903	-26.11
335.116	8.7
335.329	20.99
335.541	82.43
335.754	109.05
335.966	113.15
336.179	86.53
336.392	23.04
336.604	100.86
336.817	47.62
337.029	43.52
337.242	0.51
337.454	57.86
337.667	90.62
337.88	39.42
338.092	53.76
338.305	66.05
338.517	14.85
338.729	49.66
338.942	8.7
339.154	53.76
339.367	16.9
339.579	76.29
339.792	31.23
340.004	61.95
340.217	23.04
340.429	45.57
340.641	39.42
340.854	64
341.066	31.23
341.278	25.09
341.491	113.15
341.703	84.48
341.915	37.38
342.128	55.81
342.34	23.04
342.552	-15.87
342.764	14.85
342.977	16.9
343.189	113.15
343.401	70.14
343.613	8.7
343.826	47.62
344.038	-38.4
344.25	76.29
344.462	18.94
344.674	41.47
344.886	86.53
345.099	70.14
345.311	23.04
345.523	27.14
345.735	-3.58
345.947	25.09
346.159	53.76
346.371	61.95
346.583	-77.31
346.795	111.1
347.007	-3.58
347.219	41.47
347.431	64
347.643	8.7
347.855	14.85
348.067	59.9
348.279	37.38
348.491	8.7
348.703	23.04
348.915	41.47
349.127	88.57
349.339	98.81
349.551	59.9
349.763	66.05
349.975	45.57
350.187	59.9
350.399	39.42
350.61	96.77
350.822	37.38
351.034	70.14
351.246	-7.68
351.458	74.24
351.669	94.72
351.881	82.43
352.093	72.19
352.305	121.34
352.517	152.06
352.728	107.01
352.94	8.7
353.152	-9.73
353.363	-7.68
353.575	147.97
353.787	37.38
353.999	59.9
354.21	47.62
354.422	37.38
354.633	74.24
354.845	66.05
355.057	-9.73
355.268	68.09
355.48	113.15
355.692	61.95
355.903	74.24
356.115	43.52
356.326	-9.73
356.538	33.28
356.749	61.95
356.961	111.1
357.172	84.48
357.384	45.57
357.595	74.24
357.807	49.66
358.018	113.15
358.23	55.81
358.441	125.44
358.653	43.52
358.864	35.33
359.075	135.68
359.287	27.14
359.498	94.72
359.709	49.66
359.921	92.67
360.132	35.33
360.344	41.47
360.555	29.18
360.766	4.61
360.977	113.15
361.189	59.9
361.4	33.28
361.611	125.44
361.823	2.56
362.034	88.57
362.245	53.76
362.456	45.57
362.667	156.16
362.879	10.75
363.09	39.42
363.301	86.53
363.512	18.94
363.723	29.18
363.935	2.56
364.146	12.8
364.357	43.52
364.568	82.43
364.779	37.38
364.99	70.14
365.201	-17.92
365.412	123.39
365.623	51.71
365.834	33.28
366.045	-13.82
366.256	-7.68
366.467	33.28
366.678	98.81
366.889	39.42
367.1	-24.06
367.311	8.7
367.522	2.56
367.733	139.77
367.944	107.01
368.155	57.86
368.366	45.57
368.577	39.42
368.788	43.52
368.999	92.67
369.209	45.57
369.42	152.06
369.631	133.63
369.842	74.24
370.053	92.67
370.264	78.33
370.474	45.57
370.685	39.42
370.896	25.09
371.107	49.66
371.317	111.1
371.528	96.77
371.739	115.2
371.95	33.28
372.16	115.2
372.371	31.23
372.582	64
372.792	53.76
373.003	51.71
373.214	-17.92
373.424	33.28
373.635	107.01
373.846	115.2
374.056	39.42
374.267	150.01
374.477	33.28
374.688	27.14
374.898	49.66
375.109	47.62
375.319	82.43
375.53	115.2
375.74	31.23
375.951	76.29
376.161	47.62
376.372	74.24
376.582	-28.16
376.793	84.48
377.003	29.18
377.214	70.14
377.424	53.76
377.635	39.42
377.845	-9.73
378.055	92.67
378.266	88.57
378.476	25.09
378.686	16.9
378.897	61.95
379.107	80.38
379.317	66.05
379.528	68.09
379.738	14.85
379.948	-19.97
380.158	119.29
380.369	82.43
380.579	45.57
380.789	61.95
380.999	66.05
381.21	37.38
381.42	104.96
381.63	55.81
381.84	139.77
382.05	117.25
382.261	119.29
382.471	80.38
382.681	25.09
382.891	137.73
383.101	33.28
383.311	94.72
383.521	4.61
383.731	55.81
383.941	82.43
384.151	37.38
384.361	25.09
384.571	72.19
384.781	18.94
384.991	117.25
385.201	135.68
385.411	66.05
385.621	49.66
385.831	-7.68
386.041	117.25
386.251	14.85
386.461	121.34
386.671	51.71
386.881	98.81
387.091	47.62
387.301	113.15
387.511	125.44
387.72	84.48
387.93	41.47
388.14	57.86
388.35	96.77
388.56	113.15
388.769	57.86
388.979	100.86
389.189	8.7
389.399	51.71
389.609	66.05
389.818	-1.54
390.028	49.66
390.238	92.67
390.447	-40.45
390.657	190.97
390.867	82.43
391.076	76.29
391.286	82.43
391.496	8.7
391.705	31.23
391.915	102.91
392.125	57.86
392.334	0.51
392.544	143.87
392.753	115.2
392.963	23.04
393.172	98.81
393.382	14.85
393.591	76.29
393.801	98.81
394.01	104.96
394.22	96.77
394.429	82.43
394.639	90.62
394.848	82.43
395.058	70.14
395.267	47.62
395.477	156.16
395.686	135.68
395.895	61.95
396.105	154.11
396.314	152.06
396.524	107.01
396.733	195.07
396.942	92.67
397.152	66.05
397.361	156.16
397.57	147.97
397.78	104.96
397.989	137.73
398.198	199.16
398.407	109.05
398.617	150.01
398.826	172.54
399.035	139.77
399.244	145.92
399.453	100.86
399.663	131.58
399.872	107.01
400.081	129.53
400.29	150.01
400.499	139.77
400.708	190.97
400.917	72.19
401.127	119.29
401.336	113.15
401.545	221.69
401.754	195.07
401.963	98.81
402.172	92.67
402.381	82.43
402.59	90.62
402.799	123.39
403.008	135.68
403.217	160.25
403.426	158.21
403.635	190.97
403.844	145.92
404.053	117.25
404.262	147.97
404.471	322.04
404.68	170.49
404.888	221.69
405.097	172.54
405.306	188.93
405.515	242.17
405.724	195.07
405.933	281.08
406.142	256.51
406.35	246.27
406.559	229.88
406.768	188.93
406.977	309.76
407.185	236.03
407.394	266.75
407.603	287.23
407.812	289.28
408.02	258.56
408.229	248.32
408.438	276.99
408.646	262.65
408.855	330.23
409.064	313.85
409.272	270.84
409.481	389.63
409.69	438.78
409.898	369.15
410.107	373.24
410.315	381.43
410.524	369.15
410.733	434.68
410.941	387.58
411.15	487.93
411.358	422.39
411.567	524.79
411.775	532.98
411.984	526.84
412.192	483.83
412.401	551.42
412.609	553.46
412.818	717.3
413.026	612.85
413.234	680.44
413.443	664.05
413.651	690.68
413.86	717.3
414.068	795.12
414.276	846.32
414.485	754.16
414.693	850.42
414.901	954.87
415.11	985.58
415.318	819.7
415.526	965.11
415.734	885.23
415.943	1038.83
416.151	1067.5
416.359	1012.21
416.567	1192.43
416.776	1235.44
416.984	1151.47
417.192	1219.05
417.4	1337.84
417.608	1214.96
417.817	1358.32
418.025	1399.27
418.233	1520.1
418.441	1475.05
418.649	1546.73
418.857	1642.98
419.065	1827.3
419.273	1640.93
419.481	1737.19
419.689	1864.16
419.897	1923.55
420.105	1954.27
420.313	1989.09
420.521	2236.89
420.729	2206.17
420.937	2253.28
421.145	2335.2
421.353	2339.29
421.561	2570.71
421.769	2542.04
421.977	2714.07
422.185	2703.83
422.393	2845.14
422.601	2849.24
422.809	3013.07
423.017	3035.6
423.224	3250.64
423.432	3240.4
423.64	3203.54
423.848	3582.41
424.056	3563.98
424.263	3787.21
424.471	3789.25
424.679	3793.35
424.887	4082.11
425.094	4241.86
425.302	4161.98
425.51	4540.86
425.718	4542.91
425.925	4641.21
426.133	4745.66
426.341	4884.92
426.548	5253.55
426.756	5124.53
426.964	5218.74
427.171	5581.23
427.379	5722.54
427.586	5925.29
427.794	6087.08
428.001	6230.43
428.209	6658.46
428.417	6390.17
428.624	6844.82
428.832	7059.86
429.039	6834.58
429.247	6824.34
429.454	7592.33
429.662	8157.57
429.869	7573.9
430.076	8165.76
430.284	7989.64
430.491	8235.39
430.699	8624.51
430.906	8659.32
431.114	8810.87
431.321	9105.78
431.528	9273.71
431.736	9867.63
431.943	10355.04
432.15	10074.47
432.358	10314.08
432.565	10869.08
432.772	10723.68
432.979	11284.82
433.187	11506
433.394	11637.07
433.601	12366.15
433.808	12417.35
434.016	12126.53
434.223	12925.24
434.43	13754.67
434.637	13373.75
434.844	14133.54
435.052	14174.5
435.259	14473.51
435.466	14252.33
435.673	14281
435.88	15556.88
436.087	16234.76
436.294	16265.48
436.501	15882.51
436.708	15986.96
436.915	16523.52
437.122	17580.28
437.329	17359.1
437.537	17688.82
437.743	18243.82
437.95	18014.45
438.157	19409.11
438.364	19718.36
438.571	19624.15
438.778	19851.47
438.985	21657.78
439.192	20715.72
439.399	21168.32
439.606	20992.19
439.813	22116.53
440.02	23744.66
440.227	23310.49
440.433	22780.07
440.64	23558.3
440.847	23605.4
441.054	24332.43
441.261	25532.54
441.467	25389.18
441.674	25874.55
441.881	26720.36
442.088	26677.35
442.294	26411.12
442.501	27377.76
442.708	27738.2
442.914	29038.66
443.121	29907
443.328	29851.7
443.534	31447.07
443.741	30468.14
443.948	30140.47
444.154	32151.57
444.361	32411.67
444.568	32462.86
444.774	32548.88
444.981	32450.58
445.187	33718.27
445.394	35004.39
445.6	34541.55
445.807	37930.94
446.013	35964.89
446.22	37351.37
446.426	38213.56
446.633	38887.34
446.839	39626.66
447.046	38483.89
447.252	40347.54
447.459	40607.64
447.665	40372.12
447.871	42055.55
448.078	43591.53
448.284	41871.23
448.491	43212.65
448.697	44513.11
448.903	45068.11
449.11	45084.5
449.316	44504.92
449.522	44824.4
449.728	46057.28
449.935	46602.04
450.141	46284.61
450.347	47810.34
450.553	45721.41
450.76	46638.9
450.966	47791.91
451.172	47302.45
451.378	48146.21
451.584	47408.94
451.791	48439.07
451.997	48475.93
452.203	49010.45
452.409	48670.49
452.615	48850.71
452.821	46710.58
453.027	46516.03
453.233	48783.13
453.44	46200.64
453.646	47185.71
453.852	47189.81
454.058	47679.27
454.264	46593.85
454.47	47402.8
454.676	46163.78
454.882	47355.69
455.088	43339.63
455.294	43939.68
455.5	44511.06
455.705	45059.92
455.911	42952.56
456.117	42147.71
456.323	41660.29
456.529	39339.94
456.735	40875.92
456.941	39716.77
457.147	38995.88
457.352	37889.98
457.558	37586.88
457.764	37394.37
457.97	37007.31
458.176	35985.37
458.381	36134.87
458.587	34258.93
458.793	34525.17
458.999	32458.77
459.204	34666.48
459.41	33777.66
459.616	31567.9
459.821	31926.3
460.027	31766.56
460.233	30691.37
460.438	29198.4
460.644	29962.29
460.85	28248.14
461.055	27887.7
461.261	27809.88
461.466	25667.7
461.672	24768.65
461.878	26882.15
462.083	25213.06
462.289	24561.8
462.494	24172.69
462.7	23206.05
462.905	22491.3
463.111	23320.73
463.316	23687.32
463.522	23109.79
463.727	23007.39
463.932	22827.17
464.138	22554.79
464.343	22948
464.549	22399.15
464.754	22714.53
464.959	22579.37
465.165	22642.85
465.37	21805.24
465.575	21213.37
465.781	22096.05
465.986	22280.36
466.191	21119.17
466.397	20951.23
466.602	20226.25
466.807	20562.12
467.012	20971.71
467.218	20558.02
