Data from USB4F104151__177__10-27-49-367.txt Node

Date: Wed Mar 12 10:27:49 EDT 2025
User: louis
Spectrometer: USB4F10415
Trigger mode: 4
Integration Time (sec): 3.000000E-2
Scans to average: 1
Electric dark correction enabled: true
Nonlinearity correction enabled: false
Boxcar width: 0
XAxis mode: Wavelengths
Number of Pixels in Spectrum: 3648
>>>>>Begin Spectral Data<<<<<
178.204	-87.72
178.424	-87.72
178.644	-87.72
178.864	-89.77
179.084	-73.39
179.304	2.39
179.524	-40.62
179.744	-34.47
179.964	39.25
180.184	-34.47
180.404	-16.04
180.624	4.44
180.844	26.96
181.064	-36.52
181.283	33.11
181.503	0.34
181.723	55.64
181.943	-13.99
182.163	59.73
182.383	0.34
182.602	53.59
182.822	80.21
183.042	41.3
183.262	39.25
183.482	24.92
183.701	80.21
183.921	35.16
184.141	-1.71
184.361	125.27
184.58	8.53
184.8	121.17
185.02	51.54
185.239	84.31
185.459	108.88
185.679	2.39
185.898	-40.62
186.118	110.93
186.338	51.54
186.557	45.4
186.777	55.64
186.997	29.01
187.216	-5.8
187.436	82.26
187.655	49.49
187.875	61.78
188.095	55.64
188.314	22.87
188.534	29.01
188.753	55.64
188.973	33.11
189.192	74.07
189.412	90.45
189.631	65.88
189.851	35.16
190.07	29.01
190.29	-1.71
190.509	51.54
190.729	0.34
190.948	153.94
191.168	119.12
191.387	82.26
191.607	10.58
191.826	65.88
192.045	6.49
192.265	76.12
192.484	31.06
192.704	80.21
192.923	0.34
193.142	90.45
193.362	104.79
193.581	78.16
193.8	35.16
194.02	37.2
194.239	-38.57
194.458	67.92
194.678	8.53
194.897	0.34
195.116	37.2
195.335	-38.57
195.555	76.12
195.774	69.97
195.993	51.54
196.212	12.63
196.432	45.4
196.651	53.59
196.87	82.26
197.089	106.84
197.308	8.53
197.528	100.69
197.747	18.77
197.966	0.34
198.185	51.54
198.404	53.59
198.623	-87.72
198.842	76.12
199.062	47.44
199.281	72.02
199.5	10.58
199.719	55.64
199.938	145.75
200.157	57.68
200.376	80.21
200.595	35.16
200.814	22.87
201.033	143.7
201.252	-5.8
201.471	41.3
201.69	55.64
201.909	35.16
202.128	41.3
202.347	35.16
202.566	65.88
202.785	-7.85
203.004	20.82
203.223	51.54
203.442	43.35
203.661	-79.53
203.879	-9.9
204.098	84.31
204.317	39.25
204.536	33.11
204.755	72.02
204.974	51.54
205.193	-7.85
205.411	61.78
205.63	67.92
205.849	18.77
206.068	117.08
206.287	51.54
206.505	47.44
206.724	-18.09
206.943	55.64
207.162	-5.8
207.381	37.2
207.599	-1.71
207.818	39.25
208.037	31.06
208.255	59.73
208.474	53.59
208.693	33.11
208.911	2.39
209.13	76.12
209.349	67.92
209.567	29.01
209.786	14.68
210.005	-81.58
210.223	4.44
210.442	-13.99
210.661	57.68
210.879	55.64
211.098	43.35
211.316	92.5
211.535	35.16
211.753	74.07
211.972	24.92
212.191	47.44
212.409	24.92
212.628	86.36
212.846	88.4
213.065	51.54
213.283	78.16
213.502	33.11
213.72	69.97
213.938	35.16
214.157	86.36
214.375	51.54
214.594	47.44
214.812	2.39
215.031	45.4
215.249	10.58
215.467	94.55
215.686	59.73
215.904	55.64
216.122	51.54
216.341	72.02
216.559	2.39
216.778	57.68
216.996	67.92
217.214	39.25
217.432	49.49
217.651	57.68
217.869	12.63
218.087	78.16
218.306	98.64
218.524	86.36
218.742	-34.47
218.96	-1.71
219.179	-5.8
219.397	43.35
219.615	98.64
219.833	51.54
220.051	53.59
220.27	53.59
220.488	43.35
220.706	24.92
220.924	47.44
221.142	31.06
221.36	-1.71
221.578	63.83
221.796	-30.38
222.015	92.5
222.233	26.96
222.451	90.45
222.669	35.16
222.887	78.16
223.105	8.53
223.323	31.06
223.541	8.53
223.759	96.6
223.977	22.87
224.195	65.88
224.413	14.68
224.631	12.63
224.849	26.96
225.067	33.11
225.285	20.82
225.503	88.4
225.721	10.58
225.939	8.53
226.157	53.59
226.375	63.83
226.592	20.82
226.81	-13.99
227.028	137.56
227.246	35.16
227.464	37.2
227.682	47.44
227.9	74.07
228.117	45.4
228.335	51.54
228.553	31.06
228.771	24.92
228.989	90.45
229.206	55.64
229.424	82.26
229.642	-9.9
229.86	-46.76
230.077	96.6
230.295	88.4
230.513	24.92
230.731	31.06
230.948	139.6
231.166	96.6
231.384	31.06
231.601	-1.71
231.819	20.82
232.037	14.68
232.254	12.63
232.472	41.3
232.689	-28.33
232.907	-5.8
233.125	35.16
233.342	-9.9
233.56	-77.48
233.777	123.22
233.995	-7.85
234.213	147.8
234.43	-1.71
234.648	98.64
234.865	57.68
235.083	22.87
235.3	59.73
235.518	92.5
235.735	72.02
235.953	115.03
236.17	39.25
236.388	-7.85
236.605	45.4
236.822	65.88
237.04	141.65
237.257	51.54
237.475	-46.76
237.692	37.2
237.909	6.49
238.127	29.01
238.344	78.16
238.562	18.77
238.779	26.96
238.996	-28.33
239.214	-32.43
239.431	59.73
239.648	33.11
239.865	158.03
240.083	29.01
240.3	61.78
240.517	18.77
240.735	61.78
240.952	41.3
241.169	-18.09
241.386	74.07
241.603	-1.71
241.821	82.26
242.038	92.5
242.255	31.06
242.472	35.16
242.689	20.82
242.907	41.3
243.124	26.96
243.341	102.74
243.558	51.54
243.775	43.35
243.992	-13.99
244.209	12.63
244.426	84.31
244.643	55.64
244.86	10.58
245.078	137.56
245.295	33.11
245.512	41.3
245.729	67.92
245.946	41.3
246.163	74.07
246.38	61.78
246.597	55.64
246.814	10.58
247.031	100.69
247.248	8.53
247.464	80.21
247.681	22.87
247.898	2.39
248.115	26.96
248.332	26.96
248.549	57.68
248.766	84.31
248.983	16.73
249.2	-16.04
249.417	69.97
249.633	-40.62
249.85	63.83
250.067	-7.85
250.284	88.4
250.501	49.49
250.717	92.5
250.934	55.64
251.151	76.12
251.368	16.73
251.585	69.97
251.801	22.87
252.018	51.54
252.235	37.2
252.451	90.45
252.668	-22.19
252.885	67.92
253.102	74.07
253.318	55.64
253.535	-71.34
253.752	47.44
253.968	33.11
254.185	22.87
254.401	45.4
254.618	98.64
254.835	80.21
255.051	53.59
255.268	49.49
255.484	49.49
255.701	108.88
255.917	33.11
256.134	31.06
256.351	-32.43
256.567	10.58
256.784	104.79
257	10.58
257.217	-34.47
257.433	119.12
257.65	76.12
257.866	10.58
258.082	-1.71
258.299	26.96
258.515	14.68
258.732	51.54
258.948	39.25
259.165	72.02
259.381	-24.23
259.597	16.73
259.814	35.16
260.03	82.26
260.246	55.64
260.463	78.16
260.679	63.83
260.895	92.5
261.112	78.16
261.328	8.53
261.544	47.44
261.761	80.21
261.977	18.77
262.193	20.82
262.409	41.3
262.626	43.35
262.842	78.16
263.058	96.6
263.274	76.12
263.49	-11.95
263.707	53.59
263.923	63.83
264.139	26.96
264.355	59.73
264.571	88.4
264.787	76.12
265.004	53.59
265.22	76.12
265.436	6.49
265.652	4.44
265.868	43.35
266.084	-5.8
266.3	88.4
266.516	-7.85
266.732	57.68
266.948	-44.71
267.164	35.16
267.38	59.73
267.596	47.44
267.812	78.16
268.028	76.12
268.244	49.49
268.46	96.6
268.676	-34.47
268.892	76.12
269.108	29.01
269.324	-7.85
269.54	84.31
269.756	6.49
269.972	43.35
270.188	82.26
270.403	-30.38
270.619	55.64
270.835	76.12
271.051	29.01
271.267	55.64
271.483	-5.8
271.698	78.16
271.914	65.88
272.13	24.92
272.346	65.88
272.562	24.92
272.777	67.92
272.993	65.88
273.209	-18.09
273.425	57.68
273.64	43.35
273.856	92.5
274.072	26.96
274.287	45.4
274.503	78.16
274.719	41.3
274.934	-7.85
275.15	4.44
275.366	-1.71
275.581	49.49
275.797	14.68
276.012	6.49
276.228	10.58
276.444	43.35
276.659	31.06
276.875	-13.99
277.09	67.92
277.306	45.4
277.521	41.3
277.737	55.64
277.952	108.88
278.168	-30.38
278.383	31.06
278.599	82.26
278.814	108.88
279.03	51.54
279.245	76.12
279.461	14.68
279.676	80.21
279.892	12.63
280.107	37.2
280.322	76.12
280.538	43.35
280.753	20.82
280.969	125.27
281.184	-36.52
281.399	69.97
281.615	24.92
281.83	84.31
282.045	108.88
282.26	26.96
282.476	121.17
282.691	45.4
282.906	45.4
283.122	53.59
283.337	29.01
283.552	39.25
283.767	35.16
283.983	115.03
284.198	76.12
284.413	57.68
284.628	41.3
284.843	69.97
285.058	37.2
285.274	59.73
285.489	51.54
285.704	45.4
285.919	-65.19
286.134	67.92
286.349	59.73
286.564	69.97
286.779	133.46
286.995	16.73
287.21	35.16
287.425	-1.71
287.64	-83.63
287.855	80.21
288.07	20.82
288.285	57.68
288.5	88.4
288.715	72.02
288.93	59.73
289.145	72.02
289.36	43.35
289.575	63.83
289.79	90.45
290.004	43.35
290.219	18.77
290.434	59.73
290.649	26.96
290.864	-28.33
291.079	94.55
291.294	90.45
291.509	14.68
291.724	-24.23
291.938	-28.33
292.153	84.31
292.368	57.68
292.583	158.03
292.798	72.02
293.012	84.31
293.227	29.01
293.442	16.73
293.657	6.49
293.871	35.16
294.086	72.02
294.301	207.19
294.516	37.2
294.73	-26.28
294.945	22.87
295.16	16.73
295.374	33.11
295.589	49.49
295.804	39.25
296.018	29.01
296.233	12.63
296.447	-18.09
296.662	20.82
296.877	82.26
297.091	14.68
297.306	24.92
297.52	43.35
297.735	-1.71
297.949	-32.43
298.164	10.58
298.378	78.16
298.593	35.16
298.807	14.68
299.022	22.87
299.236	72.02
299.451	31.06
299.665	76.12
299.88	6.49
300.094	22.87
300.309	26.96
300.523	57.68
300.737	20.82
300.952	26.96
301.166	57.68
301.381	18.77
301.595	18.77
301.809	82.26
302.024	22.87
302.238	47.44
302.452	49.49
302.667	45.4
302.881	69.97
303.095	6.49
303.309	-7.85
303.524	-5.8
303.738	-13.99
303.952	0.34
304.166	2.39
304.381	-1.71
304.595	49.49
304.809	37.2
305.023	-1.71
305.237	-24.23
305.452	63.83
305.666	47.44
305.88	112.98
306.094	45.4
306.308	96.6
306.522	115.03
306.736	76.12
306.95	90.45
307.164	76.12
307.379	6.49
307.593	22.87
307.807	35.16
308.021	33.11
308.235	57.68
308.449	22.87
308.663	82.26
308.877	63.83
309.091	59.73
309.305	-16.04
309.519	-13.99
309.733	74.07
309.947	-24.23
310.161	45.4
310.374	-9.9
310.588	8.53
310.802	63.83
311.016	14.68
311.23	82.26
311.444	72.02
311.658	59.73
311.872	33.11
312.085	94.55
312.299	121.17
312.513	82.26
312.727	-42.67
312.941	37.2
313.154	45.4
313.368	92.5
313.582	172.37
313.796	26.96
314.009	88.4
314.223	55.64
314.437	24.92
314.651	55.64
314.864	92.5
315.078	18.77
315.292	121.17
315.505	80.21
315.719	51.54
315.933	55.64
316.146	16.73
316.36	-13.99
316.573	18.77
316.787	108.88
317.001	12.63
317.214	-13.99
317.428	35.16
317.641	10.58
317.855	41.3
318.068	59.73
318.282	84.31
318.495	90.45
318.709	63.83
318.922	67.92
319.136	61.78
319.349	-13.99
319.563	26.96
319.776	127.32
319.99	26.96
320.203	92.5
320.417	-9.9
320.63	96.6
320.843	65.88
321.057	24.92
321.27	47.44
321.483	96.6
321.697	51.54
321.91	47.44
322.124	76.12
322.337	110.93
322.55	35.16
322.763	63.83
322.977	141.65
323.19	4.44
323.403	49.49
323.617	2.39
323.83	104.79
324.043	-1.71
324.256	145.75
324.469	18.77
324.683	74.07
324.896	47.44
325.109	74.07
325.322	-7.85
325.535	37.2
325.748	65.88
325.962	20.82
326.175	8.53
326.388	35.16
326.601	-22.19
326.814	41.3
327.027	12.63
327.24	80.21
327.453	35.16
327.666	51.54
327.879	43.35
328.092	78.16
328.305	16.73
328.518	29.01
328.731	-30.38
328.944	63.83
329.157	90.45
329.37	59.73
329.583	117.08
329.796	147.8
330.009	45.4
330.222	72.02
330.435	22.87
330.648	51.54
330.861	74.07
331.073	6.49
331.286	39.25
331.499	69.97
331.712	0.34
331.925	-11.95
332.138	47.44
332.35	125.27
332.563	49.49
332.776	74.07
332.989	26.96
333.202	47.44
333.414	-16.04
333.627	82.26
333.84	49.49
334.053	110.93
334.265	55.64
334.478	45.4
334.691	47.44
334.903	18.77
335.116	47.44
335.329	53.59
335.541	49.49
335.754	145.75
335.966	53.59
336.179	0.34
336.392	16.73
336.604	37.2
336.817	106.84
337.029	43.35
337.242	-22.19
337.454	47.44
337.667	92.5
337.88	84.31
338.092	92.5
338.305	47.44
338.517	45.4
338.729	119.12
338.942	67.92
339.154	57.68
339.367	80.21
339.579	24.92
339.792	-32.43
340.004	37.2
340.217	18.77
340.429	45.4
340.641	35.16
340.854	88.4
341.066	-46.76
341.278	45.4
341.491	131.41
341.703	104.79
341.915	8.53
342.128	139.6
342.34	26.96
342.552	6.49
342.764	24.92
342.977	100.69
343.189	29.01
343.401	84.31
343.613	-5.8
343.826	108.88
344.038	51.54
344.25	57.68
344.462	49.49
344.674	98.64
344.886	-18.09
345.099	57.68
345.311	108.88
345.523	82.26
345.735	76.12
345.947	78.16
346.159	-11.95
346.371	59.73
346.583	49.49
346.795	162.13
347.007	29.01
347.219	57.68
347.431	80.21
347.643	125.27
347.855	31.06
348.067	39.25
348.279	20.82
348.491	18.77
348.703	-9.9
348.915	84.31
349.127	59.73
349.339	90.45
349.551	-24.23
349.763	108.88
349.975	26.96
350.187	84.31
350.399	49.49
350.61	41.3
350.822	72.02
351.034	10.58
351.246	69.97
351.458	121.17
351.669	6.49
351.881	88.4
352.093	72.02
352.305	59.73
352.517	8.53
352.728	69.97
352.94	33.11
353.152	86.36
353.363	84.31
353.575	41.3
353.787	158.03
353.999	67.92
354.21	59.73
354.422	84.31
354.633	16.73
354.845	69.97
355.057	43.35
355.268	100.69
355.48	31.06
355.692	24.92
355.903	78.16
356.115	49.49
356.326	-18.09
356.538	92.5
356.749	-1.71
356.961	147.8
357.172	-9.9
357.384	59.73
357.595	170.32
357.807	2.39
358.018	24.92
358.23	-63.15
358.441	170.32
358.653	94.55
358.864	33.11
359.075	47.44
359.287	69.97
359.498	149.84
359.709	35.16
359.921	94.55
360.132	55.64
360.344	67.92
360.555	47.44
360.766	147.8
360.977	43.35
361.189	96.6
361.4	43.35
361.611	80.21
361.823	67.92
362.034	37.2
362.245	24.92
362.456	-18.09
362.667	14.68
362.879	82.26
363.09	139.6
363.301	-1.71
363.512	37.2
363.723	86.36
363.935	57.68
364.146	84.31
364.357	-46.76
364.568	39.25
364.779	112.98
364.99	86.36
365.201	100.69
365.412	51.54
365.623	55.64
365.834	26.96
366.045	18.77
366.256	94.55
366.467	22.87
366.678	33.11
366.889	84.31
367.1	94.55
367.311	88.4
367.522	108.88
367.733	-20.14
367.944	65.88
368.155	100.69
368.366	35.16
368.577	63.83
368.788	147.8
368.999	-16.04
369.209	16.73
369.42	94.55
369.631	92.5
369.842	115.03
370.053	117.08
370.264	88.4
370.474	72.02
370.685	59.73
370.896	8.53
371.107	102.74
371.317	86.36
371.528	59.73
371.739	129.36
371.95	90.45
372.16	74.07
372.371	6.49
372.582	135.51
372.792	47.44
373.003	90.45
373.214	24.92
373.424	26.96
373.635	65.88
373.846	155.99
374.056	14.68
374.267	92.5
374.477	82.26
374.688	-13.99
374.898	110.93
375.109	63.83
375.319	143.7
375.53	63.83
375.74	55.64
375.951	-3.75
376.161	88.4
376.372	98.64
376.582	55.64
376.793	67.92
377.003	18.77
377.214	47.44
377.424	31.06
377.635	41.3
377.845	69.97
378.055	16.73
378.266	20.82
378.476	59.73
378.686	90.45
378.897	100.69
379.107	45.4
379.317	76.12
379.528	37.2
379.738	100.69
379.948	47.44
380.158	57.68
380.369	14.68
380.579	98.64
380.789	26.96
380.999	137.56
381.21	45.4
381.42	104.79
381.63	110.93
381.84	92.5
382.05	96.6
382.261	63.83
382.471	121.17
382.681	72.02
382.891	37.2
383.101	82.26
383.311	35.16
383.521	53.59
383.731	108.88
383.941	22.87
384.151	18.77
384.361	45.4
384.571	61.78
384.781	117.08
384.991	80.21
385.201	115.03
385.411	127.32
385.621	135.51
385.831	94.55
386.041	51.54
386.251	67.92
386.461	82.26
386.671	106.84
386.881	14.68
387.091	10.58
387.301	59.73
387.511	37.2
387.72	78.16
387.93	59.73
388.14	47.44
388.35	-16.04
388.56	84.31
388.769	125.27
388.979	131.41
389.189	26.96
389.399	125.27
389.609	59.73
389.818	86.36
390.028	45.4
390.238	112.98
390.447	10.58
390.657	39.25
390.867	67.92
391.076	74.07
391.286	78.16
391.496	31.06
391.705	117.08
391.915	127.32
392.125	100.69
392.334	39.25
392.544	115.03
392.753	2.39
392.963	90.45
393.172	104.79
393.382	94.55
393.591	143.7
393.801	43.35
394.01	162.13
394.22	82.26
394.429	39.25
394.639	86.36
394.848	100.69
395.058	61.78
395.267	82.26
395.477	57.68
395.686	115.03
395.895	141.65
396.105	121.17
396.314	125.27
396.524	55.64
396.733	2.39
396.942	127.32
397.152	121.17
397.361	59.73
397.57	194.9
397.78	61.78
397.989	158.03
398.198	90.45
398.407	74.07
398.617	153.94
398.826	67.92
399.035	51.54
399.244	115.03
399.453	61.78
399.663	65.88
399.872	86.36
400.081	170.32
400.29	129.36
400.499	112.98
400.708	112.98
400.917	139.6
401.127	123.22
401.336	78.16
401.545	139.6
401.754	133.46
401.963	133.46
402.172	108.88
402.381	51.54
402.59	106.84
402.799	67.92
403.008	100.69
403.217	112.98
403.426	119.12
403.635	74.07
403.844	149.84
404.053	88.4
404.262	92.5
404.471	104.79
404.68	162.13
404.888	139.6
405.097	180.56
405.306	145.75
405.515	125.27
405.724	158.03
405.933	127.32
406.142	256.34
406.35	182.61
406.559	162.13
406.768	170.32
406.977	198.99
407.185	158.03
407.394	209.23
407.603	190.8
407.812	160.08
408.02	239.95
408.229	190.8
408.438	108.88
408.646	135.51
408.855	178.51
409.064	213.33
409.272	209.23
409.481	219.47
409.69	211.28
409.898	250.19
410.107	248.15
410.315	225.62
410.524	260.43
410.733	285.01
410.941	330.06
411.15	291.15
411.358	385.36
411.567	274.77
411.775	416.08
411.984	346.45
412.192	368.98
412.401	295.25
412.609	379.22
412.818	428.37
413.026	444.75
413.234	395.6
413.443	446.8
413.651	440.65
413.86	475.47
414.068	491.85
414.276	555.34
414.485	475.47
414.693	528.72
414.901	579.92
415.11	528.72
415.318	606.54
415.526	643.4
415.734	667.98
415.943	600.4
416.151	596.3
416.359	643.4
416.567	694.6
416.776	704.84
416.984	803.15
417.192	794.95
417.4	809.29
417.608	751.95
417.817	811.34
418.025	891.21
418.233	911.69
418.441	825.67
418.649	944.45
418.857	1009.99
419.065	1044.81
419.273	1081.67
419.481	948.55
419.689	1227.07
419.897	1143.11
420.105	1247.55
420.313	1239.36
420.521	1315.14
420.729	1411.39
420.937	1229.12
421.145	1399.1
421.353	1485.12
421.561	1560.89
421.769	1493.31
421.977	1542.46
422.185	1616.19
422.393	1714.49
422.601	1722.68
422.809	1798.46
423.017	1767.74
423.224	1814.84
423.432	1980.73
423.64	1927.48
423.848	2191.67
424.056	2119.99
424.263	2222.39
424.471	2242.87
424.679	2353.46
424.887	2339.12
425.094	2539.82
425.302	2517.29
425.51	2679.08
425.718	2621.74
425.925	2674.99
426.133	2718
426.341	2959.66
426.548	3021.1
426.756	3072.29
426.964	3135.78
427.171	3301.67
427.379	3397.92
427.586	3350.82
427.794	3537.18
428.001	3746.08
428.209	3907.87
428.417	3766.56
428.624	4196.63
428.832	4077.85
429.039	4055.32
429.247	4018.46
429.454	4364.56
429.662	4714.77
429.869	4366.61
430.076	4684.05
430.284	4489.49
430.491	4817.16
430.699	5060.87
430.906	4892.94
431.114	5028.1
431.321	5380.36
431.528	5398.79
431.736	5695.74
431.943	6144.25
432.15	5773.57
432.358	5906.68
432.565	6148.34
432.772	6154.49
432.979	6572.27
433.187	6760.69
433.394	6578.42
433.601	7080.17
433.808	7190.76
434.016	7006.44
434.223	7416.04
434.43	7692.51
434.637	7506.15
434.844	8024.28
435.052	8306.9
435.259	8222.94
435.466	8165.59
435.673	8163.54
435.88	8917.2
436.087	9226.44
436.294	9261.26
436.501	8831.18
436.708	9269.45
436.915	9494.72
437.122	9898.17
437.329	9869.5
437.537	10182.84
437.743	10434.74
437.95	10352.82
438.157	10725.55
438.364	11059.37
438.571	11022.51
438.778	11229.35
438.985	12308.63
439.192	11829.41
439.399	12198.04
439.606	11980.96
439.813	12425.37
440.02	13277.32
440.227	13250.7
440.433	12945.55
440.64	13340.81
440.847	13408.39
441.054	13637.77
441.261	14780.53
441.467	14364.79
441.674	14667.89
441.881	15044.72
442.088	14850.16
442.294	14987.38
442.501	15503.46
442.708	15710.31
442.914	16320.6
443.121	16808.02
443.328	16377.95
443.534	17674.31
443.741	17039.44
443.948	16969.81
444.154	18077.76
444.361	18044.99
444.568	18192.45
444.774	18081.86
444.981	18159.68
445.187	18722.87
445.394	19640.36
445.6	19247.15
445.807	21221.39
446.013	20453.41
446.22	20486.17
446.426	21415.95
446.633	21717
446.839	22329.34
447.046	21387.28
447.252	22718.46
447.459	22501.37
447.665	22614.01
447.871	23382
448.078	24170.47
448.284	23209.97
448.491	23949.29
448.697	24795.1
448.903	25460.69
449.11	25472.98
449.316	24598.49
449.522	25311.19
449.728	26179.53
449.935	26273.73
450.141	25931.72
450.347	26779.58
450.553	25741.26
450.76	25851.85
450.966	26644.41
451.172	26699.71
451.378	27293.62
451.584	26822.59
451.791	27185.08
451.997	27244.47
452.203	27631.54
452.409	27762.61
452.615	27508.66
452.821	26441.67
453.027	26419.14
453.233	27758.51
453.44	26210.25
453.646	26503.1
453.852	26906.55
454.058	27037.62
454.264	26032.07
454.47	26507.2
454.676	26167.24
454.882	27000.76
455.088	24645.6
455.294	25028.57
455.5	25247.7
455.705	25927.63
455.911	24379.36
456.117	24051.69
456.323	23623.66
456.529	22497.28
456.735	23533.55
456.941	22607.87
457.147	22188.03
457.352	21704.71
457.558	21141.52
457.764	21434.38
457.97	20969.49
458.176	20584.48
458.381	20334.62
458.587	19486.76
458.793	19693.61
458.999	18610.23
459.204	19836.97
459.41	19316.78
459.616	17999.94
459.821	17918.02
460.027	18069.57
460.233	17537.1
460.438	16574.55
460.644	16719.96
460.85	16197.73
461.055	15958.11
461.261	15935.59
461.466	14547.06
461.672	14313.59
461.878	15126.64
462.083	14147.71
462.289	13963.39
462.494	13957.25
462.7	13217.93
462.905	13127.82
463.111	13455.5
463.316	13310.09
463.522	13148.3
463.727	13314.19
463.932	13271.18
464.138	12933.26
464.343	13019.28
464.549	12757.14
464.754	12966.03
464.959	12972.18
465.165	12955.79
465.37	12527.77
465.575	11966.62
465.781	12390.55
465.986	12587.16
466.191	12288.15
466.397	12069.02
466.602	11415.72
466.807	11776.16
467.012	11765.92
467.218	11622.56
467.423	11559.08
467.628	11700.39
467.833	12202.14
468.038	11595.94
