Data from USB4F104151__206__10-29-37-325.txt Node

Date: Wed Mar 12 10:29:37 EDT 2025
User: louis
Spectrometer: USB4F10415
Trigger mode: 4
Integration Time (sec): 3.000000E-2
Scans to average: 1
Electric dark correction enabled: true
Nonlinearity correction enabled: false
Boxcar width: 0
XAxis mode: Wavelengths
Number of Pixels in Spectrum: 3648
>>>>>Begin Spectral Data<<<<<
178.204	-142.5
178.424	-142.5
178.644	-142.5
178.864	-130.22
179.084	-109.74
179.304	-1.19
179.524	-7.34
179.744	11.09
179.964	-13.48
180.184	0.85
180.404	7
180.624	-38.06
180.844	9.05
181.064	-44.2
181.283	39.76
181.503	-21.67
181.723	58.2
181.943	-33.96
182.163	119.64
182.383	125.78
182.602	70.48
182.822	43.86
183.042	72.53
183.262	0.85
183.482	62.29
183.701	4.95
183.921	11.09
184.141	15.19
184.361	25.43
184.58	4.95
184.8	90.96
185.02	-3.24
185.239	109.4
185.459	72.53
185.679	35.67
185.898	-70.83
186.118	54.1
186.338	41.81
186.557	64.34
186.777	11.09
186.997	146.26
187.216	35.67
187.436	125.78
187.655	19.29
187.875	27.48
188.095	2.9
188.314	2.9
188.534	-21.67
188.753	23.38
188.973	68.44
189.192	62.29
189.412	21.33
189.631	39.76
189.851	13.14
190.07	66.39
190.29	-81.07
190.509	41.81
190.729	80.72
190.948	-13.48
191.168	86.87
191.387	13.14
191.607	39.76
191.826	129.88
192.045	-74.92
192.265	37.72
192.484	-27.82
192.704	37.72
192.923	27.48
193.142	142.16
193.362	62.29
193.581	52.05
193.8	66.39
194.02	43.86
194.239	23.38
194.458	2.9
194.678	-21.67
194.897	27.48
195.116	33.62
195.335	97.11
195.555	21.33
195.774	17.24
195.993	19.29
196.212	33.62
196.432	-17.58
196.651	78.68
196.87	-23.72
197.089	103.25
197.308	47.96
197.528	76.63
197.747	93.01
197.966	31.57
198.185	29.52
198.404	7
198.623	58.2
198.842	58.2
199.062	4.95
199.281	60.24
199.5	11.09
199.719	99.16
199.938	-1.19
200.157	50
200.376	17.24
200.595	56.15
200.814	56.15
201.033	-5.29
201.252	9.05
201.471	27.48
201.69	54.1
201.909	109.4
202.128	76.63
202.347	37.72
202.566	27.48
202.785	68.44
203.004	23.38
203.223	76.63
203.442	80.72
203.661	107.35
203.879	4.95
204.098	58.2
204.317	97.11
204.536	66.39
204.755	109.4
204.974	0.85
205.193	27.48
205.411	129.88
205.63	103.25
205.849	27.48
206.068	-9.39
206.287	88.92
206.505	113.49
206.724	17.24
206.943	60.24
207.162	76.63
207.381	66.39
207.599	84.82
207.818	80.72
208.037	60.24
208.255	-19.63
208.474	11.09
208.693	35.67
208.911	-9.39
209.13	133.97
209.349	52.05
209.567	60.24
209.786	95.06
210.005	43.86
210.223	47.96
210.442	52.05
210.661	15.19
210.879	-5.29
211.098	41.81
211.316	88.92
211.535	64.34
211.753	150.36
211.972	47.96
212.191	23.38
212.409	29.52
212.628	56.15
212.846	27.48
213.065	86.87
213.283	70.48
213.502	-19.63
213.72	43.86
213.938	47.96
214.157	25.43
214.375	62.29
214.594	70.48
214.812	60.24
215.031	35.67
215.249	74.58
215.467	15.19
215.686	11.09
215.904	50
216.122	-40.11
216.341	84.82
216.559	43.86
216.778	23.38
216.996	82.77
217.214	50
217.432	37.72
217.651	27.48
217.869	15.19
218.087	60.24
218.306	29.52
218.524	62.29
218.742	41.81
218.96	62.29
219.179	7
219.397	-3.24
219.615	117.59
219.833	72.53
220.051	56.15
220.27	144.21
220.488	23.38
220.706	50
220.924	43.86
221.142	13.14
221.36	111.44
221.578	43.86
221.796	-44.2
222.015	-15.53
222.233	43.86
222.451	45.91
222.669	27.48
222.887	101.2
223.105	21.33
223.323	93.01
223.541	-9.39
223.759	88.92
223.977	-23.72
224.195	72.53
224.413	-17.58
224.631	70.48
224.849	58.2
225.067	58.2
225.285	-13.48
225.503	11.09
225.721	37.72
225.939	-25.77
226.157	25.43
226.375	138.07
226.592	90.96
226.81	27.48
227.028	82.77
227.246	68.44
227.464	41.81
227.682	-9.39
227.9	68.44
228.117	47.96
228.335	54.1
228.553	101.2
228.771	-9.39
228.989	35.67
229.206	76.63
229.424	41.81
229.642	68.44
229.86	31.57
230.077	47.96
230.295	66.39
230.513	80.72
230.731	62.29
230.948	52.05
231.166	-31.91
231.384	29.52
231.601	76.63
231.819	58.2
232.037	29.52
232.254	13.14
232.472	9.05
232.689	60.24
232.907	72.53
233.125	15.19
233.342	-21.67
233.56	23.38
233.777	115.54
233.995	76.63
234.213	47.96
234.43	23.38
234.648	39.76
234.865	76.63
235.083	19.29
235.3	43.86
235.518	60.24
235.735	58.2
235.953	64.34
236.17	70.48
236.388	58.2
236.605	-13.48
236.822	54.1
237.04	95.06
237.257	31.57
237.475	27.48
237.692	66.39
237.909	50
238.127	88.92
238.344	39.76
238.562	47.96
238.779	105.3
238.996	23.38
239.214	25.43
239.431	21.33
239.648	33.62
239.865	31.57
240.083	19.29
240.3	60.24
240.517	-5.29
240.735	-1.19
240.952	64.34
241.169	66.39
241.386	80.72
241.603	54.1
241.821	52.05
242.038	60.24
242.255	52.05
242.472	-33.96
242.689	72.53
242.907	15.19
243.124	60.24
243.341	2.9
243.558	56.15
243.775	39.76
243.992	-5.29
244.209	95.06
244.426	66.39
244.643	17.24
244.86	127.83
245.078	52.05
245.295	56.15
245.512	97.11
245.729	41.81
245.946	39.76
246.163	23.38
246.38	2.9
246.597	0.85
246.814	80.72
247.031	43.86
247.248	76.63
247.464	39.76
247.681	66.39
247.898	7
248.115	43.86
248.332	9.05
248.549	54.1
248.766	68.44
248.983	125.78
249.2	78.68
249.417	58.2
249.633	23.38
249.85	41.81
250.067	19.29
250.284	-17.58
250.501	97.11
250.717	11.09
250.934	37.72
251.151	7
251.368	45.91
251.585	84.82
251.801	113.49
252.018	25.43
252.235	19.29
252.451	72.53
252.668	-48.3
252.885	109.4
253.102	70.48
253.318	43.86
253.535	-11.43
253.752	70.48
253.968	47.96
254.185	25.43
254.401	47.96
254.618	31.57
254.835	33.62
255.051	58.2
255.268	68.44
255.484	64.34
255.701	50
255.917	54.1
256.134	142.16
256.351	23.38
256.567	9.05
256.784	66.39
257	45.91
257.217	11.09
257.433	47.96
257.65	93.01
257.866	84.82
258.082	70.48
258.299	43.86
258.515	11.09
258.732	113.49
258.948	-38.06
259.165	58.2
259.381	13.14
259.597	27.48
259.814	101.2
260.03	-48.3
260.246	41.81
260.463	31.57
260.679	15.19
260.895	9.05
261.112	82.77
261.328	43.86
261.544	60.24
261.761	95.06
261.977	-5.29
262.193	-11.43
262.409	97.11
262.626	80.72
262.842	66.39
263.058	80.72
263.274	101.2
263.49	72.53
263.707	66.39
263.923	19.29
264.139	105.3
264.355	39.76
264.571	90.96
264.787	74.58
265.004	95.06
265.22	15.19
265.436	60.24
265.652	19.29
265.868	64.34
266.084	19.29
266.3	54.1
266.516	15.19
266.732	64.34
266.948	4.95
267.164	62.29
267.38	70.48
267.596	27.48
267.812	64.34
268.028	35.67
268.244	88.92
268.46	80.72
268.676	7
268.892	-1.19
269.108	82.77
269.324	54.1
269.54	21.33
269.756	84.82
269.972	4.95
270.188	-9.39
270.403	-29.87
270.619	76.63
270.835	41.81
271.051	99.16
271.267	50
271.483	7
271.698	27.48
271.914	25.43
272.13	76.63
272.346	101.2
272.562	45.91
272.777	23.38
272.993	-36.01
273.209	33.62
273.425	95.06
273.64	27.48
273.856	11.09
274.072	52.05
274.287	-13.48
274.503	58.2
274.719	15.19
274.934	19.29
275.15	7
275.366	60.24
275.581	43.86
275.797	78.68
276.012	29.52
276.228	54.1
276.444	133.97
276.659	103.25
276.875	70.48
277.09	62.29
277.306	93.01
277.521	150.36
277.737	93.01
277.952	37.72
278.168	166.74
278.383	101.2
278.599	17.24
278.814	107.35
279.03	45.91
279.245	68.44
279.461	-29.87
279.676	47.96
279.892	-23.72
280.107	7
280.322	88.92
280.538	52.05
280.753	-50.35
280.969	39.76
281.184	-15.53
281.399	93.01
281.615	64.34
281.83	84.82
282.045	68.44
282.26	-23.72
282.476	80.72
282.691	86.87
282.906	29.52
283.122	43.86
283.337	15.19
283.552	0.85
283.767	21.33
283.983	129.88
284.198	35.67
284.413	62.29
284.628	35.67
284.843	43.86
285.058	93.01
285.274	39.76
285.489	29.52
285.704	35.67
285.919	19.29
286.134	11.09
286.349	17.24
286.564	52.05
286.779	56.15
286.995	-25.77
287.21	88.92
287.425	45.91
287.64	4.95
287.855	66.39
288.07	11.09
288.285	64.34
288.5	35.67
288.715	74.58
288.93	39.76
289.145	90.96
289.36	-5.29
289.575	23.38
289.79	82.77
290.004	15.19
290.219	78.68
290.434	29.52
290.649	-3.24
290.864	7
291.079	27.48
291.294	54.1
291.509	68.44
291.724	37.72
291.938	111.44
292.153	82.77
292.368	52.05
292.583	97.11
292.798	88.92
293.012	72.53
293.227	115.54
293.442	-1.19
293.657	37.72
293.871	80.72
294.086	2.9
294.301	60.24
294.516	35.67
294.73	43.86
294.945	2.9
295.16	56.15
295.374	140.12
295.589	93.01
295.804	93.01
296.018	58.2
296.233	109.4
296.447	88.92
296.662	9.05
296.877	80.72
297.091	52.05
297.306	47.96
297.52	25.43
297.735	45.91
297.949	74.58
298.164	37.72
298.378	33.62
298.593	-3.24
298.807	50
299.022	101.2
299.236	80.72
299.451	27.48
299.665	78.68
299.88	56.15
300.094	23.38
300.309	13.14
300.523	131.92
300.737	2.9
300.952	43.86
301.166	29.52
301.381	103.25
301.595	84.82
301.809	80.72
302.024	0.85
302.238	27.48
302.452	66.39
302.667	-56.49
302.881	80.72
303.095	103.25
303.309	-5.29
303.524	39.76
303.738	39.76
303.952	0.85
304.166	47.96
304.381	-46.25
304.595	121.68
304.809	41.81
305.023	58.2
305.237	76.63
305.452	101.2
305.666	31.57
305.88	78.68
306.094	15.19
306.308	111.44
306.522	109.4
306.736	74.58
306.95	66.39
307.164	74.58
307.379	7
307.593	82.77
307.807	125.78
308.021	11.09
308.235	107.35
308.449	37.72
308.663	17.24
308.877	80.72
309.091	68.44
309.305	109.4
309.519	37.72
309.733	97.11
309.947	13.14
310.161	80.72
310.374	50
310.588	123.73
310.802	-13.48
311.016	56.15
311.23	-13.48
311.444	105.3
311.658	-3.24
311.872	64.34
312.085	21.33
312.299	84.82
312.513	23.38
312.727	115.54
312.941	0.85
313.154	35.67
313.368	4.95
313.582	80.72
313.796	-13.48
314.009	27.48
314.223	43.86
314.437	2.9
314.651	82.77
314.864	58.2
315.078	11.09
315.292	15.19
315.505	27.48
315.719	131.92
315.933	47.96
316.146	7
316.36	-42.15
316.573	113.49
316.787	88.92
317.001	72.53
317.214	93.01
317.428	64.34
317.641	19.29
317.855	142.16
318.068	37.72
318.282	35.67
318.495	88.92
318.709	107.35
318.922	43.86
319.136	136.02
319.349	62.29
319.563	52.05
319.776	74.58
319.99	31.57
320.203	64.34
320.417	72.53
320.63	115.54
320.843	97.11
321.057	21.33
321.27	76.63
321.483	74.58
321.697	101.2
321.91	86.87
322.124	95.06
322.337	86.87
322.55	39.76
322.763	45.91
322.977	47.96
323.19	11.09
323.403	9.05
323.617	105.3
323.83	146.26
324.043	52.05
324.256	35.67
324.469	2.9
324.683	90.96
324.896	-5.29
325.109	121.68
325.322	-46.25
325.535	9.05
325.748	43.86
325.962	-3.24
326.175	35.67
326.388	86.87
326.601	76.63
326.814	82.77
327.027	50
327.24	33.62
327.453	37.72
327.666	2.9
327.879	66.39
328.092	113.49
328.305	52.05
328.518	33.62
328.731	-25.77
328.944	60.24
329.157	25.43
329.37	82.77
329.583	78.68
329.796	131.92
330.009	-52.39
330.222	113.49
330.435	25.43
330.648	21.33
330.861	144.21
331.073	121.68
331.286	56.15
331.499	107.35
331.712	47.96
331.925	9.05
332.138	-5.29
332.35	84.82
332.563	0.85
332.776	68.44
332.989	54.1
333.202	127.83
333.414	37.72
333.627	80.72
333.84	125.78
334.053	11.09
334.265	70.48
334.478	80.72
334.691	56.15
334.903	58.2
335.116	82.77
335.329	121.68
335.541	52.05
335.754	62.29
335.966	60.24
336.179	127.83
336.392	7
336.604	60.24
336.817	62.29
337.029	31.57
337.242	41.81
337.454	54.1
337.667	66.39
337.88	115.54
338.092	4.95
338.305	93.01
338.517	-15.53
338.729	62.29
338.942	60.24
339.154	41.81
339.367	68.44
339.579	105.3
339.792	31.57
340.004	129.88
340.217	-17.58
340.429	-42.15
340.641	-21.67
340.854	47.96
341.066	103.25
341.278	70.48
341.491	95.06
341.703	60.24
341.915	62.29
342.128	76.63
342.34	56.15
342.552	33.62
342.764	60.24
342.977	-15.53
343.189	80.72
343.401	52.05
343.613	35.67
343.826	121.68
344.038	-1.19
344.25	70.48
344.462	25.43
344.674	93.01
344.886	66.39
345.099	97.11
345.311	29.52
345.523	-27.82
345.735	60.24
345.947	95.06
346.159	131.92
346.371	74.58
346.583	72.53
346.795	68.44
347.007	45.91
347.219	95.06
347.431	25.43
347.643	62.29
347.855	60.24
348.067	101.2
348.279	95.06
348.491	47.96
348.703	43.86
348.915	54.1
349.127	66.39
349.339	64.34
349.551	41.81
349.763	43.86
349.975	131.92
350.187	144.21
350.399	43.86
350.61	9.05
350.822	39.76
351.034	84.82
351.246	41.81
351.458	29.52
351.669	47.96
351.881	95.06
352.093	158.55
352.305	60.24
352.517	4.95
352.728	23.38
352.94	86.87
353.152	97.11
353.363	64.34
353.575	52.05
353.787	29.52
353.999	90.96
354.21	101.2
354.422	60.24
354.633	64.34
354.845	74.58
355.057	-5.29
355.268	43.86
355.48	115.54
355.692	35.67
355.903	15.19
356.115	23.38
356.326	39.76
356.538	2.9
356.749	15.19
356.961	146.26
357.172	39.76
357.384	117.59
357.595	156.5
357.807	101.2
358.018	68.44
358.23	39.76
358.441	93.01
358.653	52.05
358.864	66.39
359.075	9.05
359.287	105.3
359.498	150.36
359.709	76.63
359.921	45.91
360.132	68.44
360.344	17.24
360.555	93.01
360.766	76.63
360.977	150.36
361.189	43.86
361.4	95.06
361.611	97.11
361.823	131.92
362.034	37.72
362.245	-5.29
362.456	82.77
362.667	9.05
362.879	74.58
363.09	84.82
363.301	62.29
363.512	9.05
363.723	101.2
363.935	33.62
364.146	168.79
364.357	70.48
364.568	101.2
364.779	62.29
364.99	193.36
365.201	27.48
365.412	47.96
365.623	-36.01
365.834	129.88
366.045	80.72
366.256	47.96
366.467	4.95
366.678	19.29
366.889	90.96
367.1	105.3
367.311	117.59
367.522	2.9
367.733	27.48
367.944	93.01
368.155	17.24
368.366	93.01
368.577	88.92
368.788	97.11
368.999	76.63
369.209	47.96
369.42	168.79
369.631	33.62
369.842	58.2
370.053	88.92
370.264	80.72
370.474	74.58
370.685	19.29
370.896	11.09
371.107	37.72
371.317	148.31
371.528	-27.82
371.739	125.78
371.95	41.81
372.16	56.15
372.371	35.67
372.582	39.76
372.792	105.3
373.003	125.78
373.214	47.96
373.424	82.77
373.635	43.86
373.846	123.73
374.056	68.44
374.267	72.53
374.477	82.77
374.688	60.24
374.898	31.57
375.109	11.09
375.319	80.72
375.53	21.33
375.74	82.77
375.951	52.05
376.161	37.72
376.372	101.2
376.582	62.29
376.793	121.68
377.003	0.85
377.214	39.76
377.424	115.54
377.635	76.63
377.845	121.68
378.055	66.39
378.266	17.24
378.476	142.16
378.686	29.52
378.897	54.1
379.107	146.26
379.317	82.77
379.528	121.68
379.738	113.49
379.948	15.19
380.158	84.82
380.369	17.24
380.579	60.24
380.789	27.48
380.999	23.38
381.21	39.76
381.42	183.12
381.63	43.86
381.84	138.07
382.05	50
382.261	52.05
382.471	47.96
382.681	105.3
382.891	86.87
383.101	97.11
383.311	72.53
383.521	43.86
383.731	35.67
383.941	97.11
384.151	70.48
384.361	68.44
384.571	107.35
384.781	125.78
384.991	158.55
385.201	154.45
385.411	58.2
385.621	84.82
385.831	19.29
386.041	74.58
386.251	64.34
386.461	68.44
386.671	129.88
386.881	78.68
387.091	127.83
387.301	142.16
387.511	82.77
387.72	140.12
387.93	113.49
388.14	9.05
388.35	17.24
388.56	86.87
388.769	60.24
388.979	97.11
389.189	11.09
389.399	25.43
389.609	82.77
389.818	174.93
390.028	80.72
390.238	45.91
390.447	70.48
390.657	148.31
390.867	21.33
391.076	13.14
391.286	125.78
391.496	93.01
391.705	52.05
391.915	107.35
392.125	64.34
392.334	168.79
392.544	160.59
392.753	162.64
392.963	97.11
393.172	56.15
393.382	140.12
393.591	88.92
393.801	152.4
394.01	172.88
394.22	119.64
394.429	74.58
394.639	99.16
394.848	82.77
395.058	84.82
395.267	82.77
395.477	142.16
395.686	140.12
395.895	160.59
396.105	101.2
396.314	107.35
396.524	133.97
396.733	156.5
396.942	138.07
397.152	176.98
397.361	103.25
397.57	150.36
397.78	113.49
397.989	172.88
398.198	150.36
398.407	74.58
398.617	144.21
398.826	52.05
399.035	191.31
399.244	162.64
399.453	117.59
399.663	117.59
399.872	142.16
400.081	84.82
400.29	142.16
400.499	170.83
400.708	236.37
400.917	207.7
401.127	164.69
401.336	191.31
401.545	191.31
401.754	131.92
401.963	166.74
402.172	228.18
402.381	156.5
402.59	117.59
402.799	162.64
403.008	176.98
403.217	197.46
403.426	191.31
403.635	183.12
403.844	133.97
404.053	82.77
404.262	154.45
404.471	240.47
404.68	213.84
404.888	156.5
405.097	142.16
405.306	133.97
405.515	189.27
405.724	179.03
405.933	269.14
406.142	217.94
406.35	326.48
406.559	232.27
406.768	240.47
406.977	293.71
407.185	328.53
407.394	228.18
407.603	201.55
407.812	301.9
408.02	256.85
408.229	265.04
408.438	279.38
408.646	250.71
408.855	295.76
409.064	306
409.272	256.85
409.481	430.93
409.69	328.53
409.898	408.4
410.107	459.6
410.315	420.69
410.524	387.92
410.733	435.02
410.941	467.79
411.15	486.22
411.358	531.28
411.567	451.41
411.775	512.85
411.984	590.67
412.192	553.8
412.401	592.72
412.609	615.24
412.818	578.38
413.026	637.77
413.234	715.59
413.443	639.82
413.651	586.57
413.86	721.74
414.068	715.59
414.276	770.89
414.485	736.07
414.693	883.53
414.901	908.1
415.11	842.57
415.318	891.72
415.526	867.14
415.734	889.67
415.943	1018.69
416.151	1071.94
416.359	1051.46
416.567	1133.38
416.776	1112.9
416.984	1170.24
417.192	1231.68
417.4	1157.96
417.608	1280.83
417.817	1309.51
418.025	1418.05
418.233	1446.72
418.441	1372.99
418.649	1502.01
418.857	1577.79
419.065	1600.32
419.273	1534.78
419.481	1610.56
419.689	1813.31
419.897	1878.84
420.105	1817.4
420.313	2014.01
420.521	1993.53
420.729	2120.5
420.937	2075.45
421.145	2157.36
421.353	2343.73
421.561	2370.35
421.769	2325.3
421.977	2444.08
422.185	2470.7
422.393	2638.64
422.601	2841.39
422.809	2919.21
423.017	2822.95
423.224	2825
423.432	3121.96
423.64	3064.61
423.848	3418.91
424.056	3173.16
424.263	3463.97
424.471	3521.31
424.679	3656.48
424.887	3695.39
425.094	3926.81
425.302	3969.82
425.51	4066.07
425.718	4195.09
425.925	4188.95
426.133	4442.9
426.341	4641.55
426.548	4858.64
426.756	4823.82
426.964	4954.89
427.171	5165.83
427.379	5270.28
427.586	5298.95
427.794	5577.47
428.001	5790.46
428.209	6148.86
428.417	5901.05
428.624	6648.56
428.832	6474.48
429.039	6413.04
429.247	6331.12
429.454	6916.84
429.662	7404.26
429.869	6888.17
430.076	7666.4
430.284	7267.05
430.491	7633.63
430.699	8045.27
430.906	8053.47
431.114	8121.05
431.321	8520.4
431.528	8532.69
431.736	8946.38
431.943	9476.8
432.15	9177.8
432.358	9329.35
432.565	9956.03
432.772	9894.59
432.979	10140.35
433.187	10468.02
433.394	10572.47
433.601	11152.04
433.808	11395.75
434.016	11272.87
434.223	11911.84
434.43	12530.33
434.637	12077.73
434.844	12829.33
435.052	13118.09
435.259	13171.34
435.466	13220.49
435.673	13103.76
435.88	13957.76
436.087	14871.15
436.294	14516.86
436.501	14391.93
436.708	14688.89
436.915	15010.42
437.122	15848.04
437.329	15667.81
437.537	16265.82
437.743	16632.41
437.95	16384.6
438.157	17334.86
438.364	17838.66
438.571	17644.1
438.778	17965.64
438.985	19794.47
439.192	18991.67
439.399	19225.14
439.606	18883.13
439.813	19864.1
440.02	21482
440.227	20855.32
440.433	20881.94
440.64	21404.17
440.847	21332.5
441.054	21729.8
441.261	23419.38
441.467	22704.63
441.674	23351.79
441.881	24234.47
442.088	23732.72
442.294	23570.93
442.501	24642.01
442.708	25022.94
442.914	26161.61
443.121	26997.18
443.328	26644.93
443.534	28172.71
443.741	27328.95
443.948	26978.75
444.154	29090.2
444.361	28725.66
444.568	29499.8
444.774	28942.75
444.981	29286.81
445.187	30028.17
445.394	31398.26
445.6	31207.8
445.807	34154.83
446.013	32340.33
446.22	33075.55
446.426	34390.34
446.633	34421.06
446.839	35664.18
447.046	33958.22
447.252	36073.77
447.459	36229.42
447.665	36008.24
447.871	37331.23
448.078	39016.71
448.284	36761.89
448.491	38172.94
448.697	39846.13
448.903	40409.32
449.11	39950.58
449.316	39690.49
449.522	40278.25
449.728	41302.24
449.935	41640.15
450.141	41611.48
450.347	42545.36
450.553	41171.17
450.76	41631.96
450.966	42934.47
451.172	42447.05
451.378	43503.81
451.584	42715.34
451.791	43454.65
451.997	43380.93
452.203	44220.59
452.409	43966.65
452.615	43897.02
452.821	42131.67
453.027	41697.5
453.233	43727.03
453.44	42129.62
453.646	42621.13
453.852	42860.74
454.058	43348.16
454.264	41816.28
454.47	43118.79
454.676	41851.09
454.882	43051.2
455.088	39235.84
455.294	40069.36
455.5	40638.7
455.705	41007.33
455.911	39430.4
456.117	38469.9
456.323	37996.82
456.529	35789.11
456.735	37673.24
456.941	36509.99
457.147	36014.38
457.352	35000.64
457.558	34455.88
457.764	34568.52
457.97	33982.8
458.176	33311.07
458.381	33444.18
458.587	31469.94
458.793	31549.81
458.999	29866.38
459.204	32115.05
459.41	31318.39
459.616	29206.94
459.821	29127.06
460.027	29024.67
460.233	28387.75
460.438	27003.32
460.644	27496.88
460.85	26350.02
461.055	26071.5
461.261	25625.04
461.466	23867.88
461.672	22895.1
461.878	24758.75
462.083	23226.87
462.289	22776.31
462.494	22530.56
462.7	21520.91
462.905	20990.49
463.111	21428.75
463.316	22012.42
463.522	21363.22
463.727	21694.99
463.932	21316.11
464.138	21197.33
464.343	21434.89
464.549	20705.82
464.754	21164.56
464.959	21223.95
465.165	20797.98
465.37	19997.22
465.575	19653.16
465.781	20410.91
465.986	20388.38
466.191	20058.66
466.397	19403.31
466.602	18577.98
466.807	19202.61
467.012	19028.53
467.218	19241.52
467.423	18864.69
467.628	18917.94
467.833	20042.28
