Data from USB4F104151__101__10-24-43-928.txt Node

Date: Wed Mar 12 10:24:43 EDT 2025
User: louis
Spectrometer: USB4F10415
Trigger mode: 4
Integration Time (sec): 3.000000E-2
Scans to average: 1
Electric dark correction enabled: true
Nonlinearity correction enabled: false
Boxcar width: 0
XAxis mode: Wavelengths
Number of Pixels in Spectrum: 3648
>>>>>Begin Spectral Data<<<<<
178.204	-84.65
178.424	-84.65
178.644	-84.65
178.864	-141.99
179.084	-98.99
179.304	-64.17
179.524	3.41
179.744	-2.73
179.964	52.56
180.184	27.99
180.404	68.95
180.624	-21.16
180.844	-49.83
181.064	13.65
181.283	32.08
181.503	-23.21
181.723	-37.55
181.943	-105.13
182.163	54.61
182.383	-39.59
182.602	46.42
182.822	17.75
183.042	66.9
183.262	19.8
183.482	-10.92
183.701	1.37
183.921	17.75
184.141	-29.35
184.361	36.18
184.58	42.32
184.8	68.95
185.02	-21.16
185.239	23.89
185.459	15.7
185.679	19.8
185.898	-8.87
186.118	40.28
186.338	-60.07
186.557	27.99
186.777	-8.87
186.997	17.75
187.216	36.18
187.436	21.85
187.655	95.57
187.875	5.46
188.095	15.7
188.314	48.47
188.534	-4.78
188.753	-21.16
188.973	58.71
189.192	23.89
189.412	58.71
189.631	9.56
189.851	34.13
190.07	19.8
190.29	-49.83
190.509	-6.83
190.729	-17.07
190.948	15.7
191.168	171.35
191.387	124.24
191.607	64.85
191.826	68.95
192.045	64.85
192.265	15.7
192.484	36.18
192.704	-12.97
192.923	15.7
193.142	13.65
193.362	58.71
193.581	36.18
193.8	73.04
194.02	44.37
194.239	-2.73
194.458	75.09
194.678	46.42
194.897	-35.5
195.116	3.41
195.335	87.38
195.555	-15.02
195.774	52.56
195.993	27.99
196.212	-25.26
196.432	34.13
196.651	3.41
196.87	30.04
197.089	95.57
197.308	97.62
197.528	-2.73
197.747	-33.45
197.966	15.7
198.185	73.04
198.404	71
198.623	81.24
198.842	52.56
199.062	109.91
199.281	71
199.5	52.56
199.719	19.8
199.938	-27.31
200.157	107.86
200.376	-0.68
200.595	68.95
200.814	17.75
201.033	-8.87
201.252	32.08
201.471	89.43
201.69	99.67
201.909	81.24
202.128	-8.87
202.347	85.33
202.566	62.8
202.785	30.04
203.004	85.33
203.223	79.19
203.442	1.37
203.661	-25.26
203.879	36.18
204.098	60.76
204.317	-70.31
204.536	11.61
204.755	56.66
204.974	13.65
205.193	19.8
205.411	38.23
205.63	-4.78
205.849	75.09
206.068	-29.35
206.287	81.24
206.505	60.76
206.724	-21.16
206.943	60.76
207.162	44.37
207.381	-23.21
207.599	27.99
207.818	54.61
208.037	38.23
208.255	-0.68
208.474	-17.07
208.693	11.61
208.911	-21.16
209.13	107.86
209.349	21.85
209.567	40.28
209.786	-23.21
210.005	-49.83
210.223	73.04
210.442	-17.07
210.661	44.37
210.879	23.89
211.098	3.41
211.316	36.18
211.535	73.04
211.753	9.56
211.972	-21.16
212.191	-37.55
212.409	-6.83
212.628	-55.98
212.846	-12.97
213.065	44.37
213.283	5.46
213.502	25.94
213.72	-25.26
213.938	68.95
214.157	77.14
214.375	52.56
214.594	34.13
214.812	62.8
215.031	17.75
215.249	95.57
215.467	13.65
215.686	27.99
215.904	95.57
216.122	-10.92
216.341	21.85
216.559	7.51
216.778	64.85
216.996	27.99
217.214	-0.68
217.432	17.75
217.651	32.08
217.869	85.33
218.087	13.65
218.306	17.75
218.524	-23.21
218.742	58.71
218.96	103.76
219.179	42.32
219.397	-0.68
219.615	120.15
219.833	11.61
220.051	52.56
220.27	75.09
220.488	3.41
220.706	-8.87
220.924	-19.11
221.142	-0.68
221.36	-0.68
221.578	36.18
221.796	44.37
222.015	109.91
222.233	68.95
222.451	-0.68
222.669	68.95
222.887	77.14
223.105	-41.64
223.323	58.71
223.541	48.47
223.759	36.18
223.977	13.65
224.195	38.23
224.413	58.71
224.631	58.71
224.849	27.99
225.067	-8.87
225.285	42.32
225.503	79.19
225.721	40.28
225.939	-0.68
226.157	15.7
226.375	75.09
226.592	19.8
226.81	58.71
227.028	21.85
227.246	85.33
227.464	58.71
227.682	91.48
227.9	-10.92
228.117	91.48
228.335	-2.73
228.553	75.09
228.771	66.9
228.989	68.95
229.206	107.86
229.424	27.99
229.642	13.65
229.86	1.37
230.077	50.52
230.295	7.51
230.513	-17.07
230.731	58.71
230.948	1.37
231.166	25.94
231.384	32.08
231.601	-53.93
231.819	87.38
232.037	130.39
232.254	25.94
232.472	87.38
232.689	40.28
232.907	54.61
233.125	23.89
233.342	97.62
233.56	75.09
233.777	-0.68
233.995	23.89
234.213	54.61
234.43	3.41
234.648	60.76
234.865	81.24
235.083	56.66
235.3	32.08
235.518	132.44
235.735	27.99
235.953	148.82
236.17	-21.16
236.388	58.71
236.605	-12.97
236.822	34.13
237.04	89.43
237.257	25.94
237.475	64.85
237.692	-12.97
237.909	56.66
238.127	1.37
238.344	68.95
238.562	7.51
238.779	9.56
238.996	-21.16
239.214	27.99
239.431	-29.35
239.648	27.99
239.865	60.76
240.083	44.37
240.3	34.13
240.517	32.08
240.735	73.04
240.952	44.37
241.169	93.52
241.386	-21.16
241.603	-35.5
241.821	-8.87
242.038	27.99
242.255	30.04
242.472	34.13
242.689	27.99
242.907	114
243.124	17.75
243.341	56.66
243.558	25.94
243.775	56.66
243.992	46.42
244.209	95.57
244.426	134.48
244.643	11.61
244.86	-12.97
245.078	66.9
245.295	103.76
245.512	3.41
245.729	25.94
245.946	11.61
246.163	21.85
246.38	44.37
246.597	-31.4
246.814	120.15
247.031	38.23
247.248	34.13
247.464	34.13
247.681	-10.92
247.898	17.75
248.115	48.47
248.332	-25.26
248.549	1.37
248.766	107.86
248.983	99.67
249.2	3.41
249.417	120.15
249.633	-0.68
249.85	9.56
250.067	-2.73
250.284	48.47
250.501	44.37
250.717	79.19
250.934	-27.31
251.151	38.23
251.368	44.37
251.585	68.95
251.801	60.76
252.018	13.65
252.235	3.41
252.451	56.66
252.668	23.89
252.885	56.66
253.102	54.61
253.318	-29.35
253.535	-0.68
253.752	27.99
253.968	17.75
254.185	19.8
254.401	60.76
254.618	9.56
254.835	17.75
255.051	83.28
255.268	-0.68
255.484	66.9
255.701	64.85
255.917	114
256.134	-15.02
256.351	109.91
256.567	23.89
256.784	3.41
257	-25.26
257.217	36.18
257.433	-21.16
257.65	46.42
257.866	40.28
258.082	-12.97
258.299	-47.79
258.515	52.56
258.732	73.04
258.948	54.61
259.165	36.18
259.381	15.7
259.597	19.8
259.814	19.8
260.03	27.99
260.246	19.8
260.463	75.09
260.679	58.71
260.895	32.08
261.112	64.85
261.328	13.65
261.544	21.85
261.761	60.76
261.977	11.61
262.193	-0.68
262.409	62.8
262.626	99.67
262.842	38.23
263.058	-31.4
263.274	27.99
263.49	66.9
263.707	118.1
263.923	73.04
264.139	-4.78
264.355	50.52
264.571	114
264.787	13.65
265.004	64.85
265.22	17.75
265.436	85.33
265.652	64.85
265.868	-33.45
266.084	38.23
266.3	23.89
266.516	38.23
266.732	42.32
266.948	81.24
267.164	-6.83
267.38	50.52
267.596	52.56
267.812	81.24
268.028	52.56
268.244	23.89
268.46	73.04
268.676	-0.68
268.892	48.47
269.108	7.51
269.324	27.99
269.54	-4.78
269.756	79.19
269.972	-21.16
270.188	9.56
270.403	15.7
270.619	60.76
270.835	32.08
271.051	66.9
271.267	3.41
271.483	44.37
271.698	95.57
271.914	40.28
272.13	11.61
272.346	87.38
272.562	97.62
272.777	23.89
272.993	56.66
273.209	128.34
273.425	68.95
273.64	62.8
273.856	42.32
274.072	27.99
274.287	27.99
274.503	46.42
274.719	105.81
274.934	17.75
275.15	23.89
275.366	97.62
275.581	25.94
275.797	85.33
276.012	81.24
276.228	48.47
276.444	-37.55
276.659	73.04
276.875	21.85
277.09	-58.03
277.306	36.18
277.521	56.66
277.737	27.99
277.952	83.28
278.168	21.85
278.383	50.52
278.599	23.89
278.814	68.95
279.03	-15.02
279.245	87.38
279.461	36.18
279.676	56.66
279.892	17.75
280.107	-6.83
280.322	17.75
280.538	109.91
280.753	7.51
280.969	13.65
281.184	42.32
281.399	126.29
281.615	42.32
281.83	-19.11
282.045	-6.83
282.26	-0.68
282.476	25.94
282.691	105.81
282.906	71
283.122	68.95
283.337	62.8
283.552	-6.83
283.767	-12.97
283.983	30.04
284.198	13.65
284.413	48.47
284.628	-21.16
284.843	62.8
285.058	62.8
285.274	103.76
285.489	-37.55
285.704	34.13
285.919	27.99
286.134	34.13
286.349	64.85
286.564	25.94
286.779	48.47
286.995	15.7
287.21	-8.87
287.425	103.76
287.64	3.41
287.855	44.37
288.07	-41.64
288.285	25.94
288.5	34.13
288.715	97.62
288.93	-12.97
289.145	56.66
289.36	95.57
289.575	32.08
289.79	54.61
290.004	-6.83
290.219	52.56
290.434	77.14
290.649	-23.21
290.864	71
291.079	-15.02
291.294	62.8
291.509	85.33
291.724	11.61
291.938	66.9
292.153	7.51
292.368	32.08
292.583	44.37
292.798	101.72
293.012	5.46
293.227	73.04
293.442	58.71
293.657	40.28
293.871	79.19
294.086	19.8
294.301	19.8
294.516	95.57
294.73	101.72
294.945	-25.26
295.16	27.99
295.374	36.18
295.589	85.33
295.804	19.8
296.018	9.56
296.233	105.81
296.447	5.46
296.662	62.8
296.877	7.51
297.091	77.14
297.306	34.13
297.52	34.13
297.735	-10.92
297.949	58.71
298.164	48.47
298.378	19.8
298.593	101.72
298.807	25.94
299.022	15.7
299.236	111.96
299.451	-15.02
299.665	68.95
299.88	81.24
300.094	-4.78
300.309	42.32
300.523	56.66
300.737	62.8
300.952	-4.78
301.166	83.28
301.381	68.95
301.595	58.71
301.809	-25.26
302.024	-10.92
302.238	-10.92
302.452	48.47
302.667	58.71
302.881	91.48
303.095	93.52
303.309	23.89
303.524	27.99
303.738	-49.83
303.952	38.23
304.166	56.66
304.381	-53.93
304.595	77.14
304.809	23.89
305.023	23.89
305.237	19.8
305.452	1.37
305.666	-19.11
305.88	-17.07
306.094	-4.78
306.308	77.14
306.522	75.09
306.736	103.76
306.95	66.9
307.164	36.18
307.379	68.95
307.593	169.3
307.807	105.81
308.021	77.14
308.235	44.37
308.449	-37.55
308.663	27.99
308.877	81.24
309.091	71
309.305	50.52
309.519	25.94
309.733	73.04
309.947	-49.83
310.161	75.09
310.374	-31.4
310.588	54.61
310.802	-12.97
311.016	32.08
311.23	81.24
311.444	85.33
311.658	36.18
311.872	93.52
312.085	-19.11
312.299	81.24
312.513	81.24
312.727	44.37
312.941	71
313.154	66.9
313.368	-0.68
313.582	-68.27
313.796	62.8
314.009	-2.73
314.223	50.52
314.437	11.61
314.651	62.8
314.864	54.61
315.078	48.47
315.292	-0.68
315.505	-10.92
315.719	103.76
315.933	38.23
316.146	27.99
316.36	25.94
316.573	48.47
316.787	77.14
317.001	75.09
317.214	34.13
317.428	56.66
317.641	-64.17
317.855	11.61
318.068	52.56
318.282	40.28
318.495	34.13
318.709	85.33
318.922	56.66
319.136	93.52
319.349	64.85
319.563	3.41
319.776	79.19
319.99	7.51
320.203	87.38
320.417	99.67
320.63	75.09
320.843	105.81
321.057	48.47
321.27	66.9
321.483	126.29
321.697	68.95
321.91	73.04
322.124	120.15
322.337	36.18
322.55	-0.68
322.763	85.33
322.977	-6.83
323.19	30.04
323.403	62.8
323.617	54.61
323.83	93.52
324.043	9.56
324.256	40.28
324.469	-10.92
324.683	64.85
324.896	60.76
325.109	93.52
325.322	-45.74
325.535	75.09
325.748	93.52
325.962	99.67
326.175	-41.64
326.388	23.89
326.601	93.52
326.814	42.32
327.027	83.28
327.24	68.95
327.453	-17.07
327.666	3.41
327.879	77.14
328.092	77.14
328.305	36.18
328.518	11.61
328.731	50.52
328.944	85.33
329.157	36.18
329.37	36.18
329.583	142.68
329.796	58.71
330.009	23.89
330.222	136.53
330.435	68.95
330.648	66.9
330.861	25.94
331.073	11.61
331.286	68.95
331.499	54.61
331.712	89.43
331.925	89.43
332.138	36.18
332.35	64.85
332.563	58.71
332.776	48.47
332.989	-88.75
333.202	64.85
333.414	7.51
333.627	73.04
333.84	-12.97
334.053	71
334.265	3.41
334.478	30.04
334.691	75.09
334.903	-31.4
335.116	25.94
335.329	68.95
335.541	71
335.754	48.47
335.966	-21.16
336.179	-19.11
336.392	48.47
336.604	27.99
336.817	44.37
337.029	77.14
337.242	32.08
337.454	75.09
337.667	13.65
337.88	58.71
338.092	66.9
338.305	68.95
338.517	66.9
338.729	105.81
338.942	48.47
339.154	75.09
339.367	-8.87
339.579	15.7
339.792	9.56
340.004	50.52
340.217	83.28
340.429	-0.68
340.641	-6.83
340.854	42.32
341.066	17.75
341.278	103.76
341.491	-29.35
341.703	-12.97
341.915	64.85
342.128	32.08
342.34	73.04
342.552	56.66
342.764	42.32
342.977	101.72
343.189	50.52
343.401	75.09
343.613	21.85
343.826	64.85
344.038	7.51
344.25	-6.83
344.462	7.51
344.674	64.85
344.886	42.32
345.099	75.09
345.311	11.61
345.523	15.7
345.735	54.61
345.947	62.8
346.159	1.37
346.371	85.33
346.583	89.43
346.795	105.81
347.007	5.46
347.219	38.23
347.431	73.04
347.643	-27.31
347.855	58.71
348.067	73.04
348.279	11.61
348.491	40.28
348.703	32.08
348.915	36.18
349.127	19.8
349.339	52.56
349.551	52.56
349.763	73.04
349.975	77.14
350.187	25.94
350.399	150.87
350.61	118.1
350.822	66.9
351.034	46.42
351.246	34.13
351.458	150.87
351.669	93.52
351.881	38.23
352.093	15.7
352.305	62.8
352.517	15.7
352.728	38.23
352.94	60.76
353.152	3.41
353.363	23.89
353.575	32.08
353.787	40.28
353.999	36.18
354.21	44.37
354.422	11.61
354.633	75.09
354.845	17.75
355.057	-0.68
355.268	95.57
355.48	85.33
355.692	40.28
355.903	32.08
356.115	48.47
356.326	44.37
356.538	87.38
356.749	52.56
356.961	58.71
357.172	48.47
357.384	38.23
357.595	109.91
357.807	101.72
358.018	42.32
358.23	-8.87
358.441	32.08
358.653	75.09
358.864	19.8
359.075	60.76
359.287	95.57
359.498	93.52
359.709	87.38
359.921	36.18
360.132	17.75
360.344	-8.87
360.555	32.08
360.766	54.61
360.977	32.08
361.189	64.85
361.4	17.75
361.611	101.72
361.823	15.7
362.034	62.8
362.245	17.75
362.456	93.52
362.667	27.99
362.879	-0.68
363.09	77.14
363.301	50.52
363.512	68.95
363.723	75.09
363.935	40.28
364.146	42.32
364.357	-53.93
364.568	38.23
364.779	11.61
364.99	66.9
365.201	17.75
365.412	148.82
365.623	-15.02
365.834	126.29
366.045	71
366.256	138.58
366.467	60.76
366.678	42.32
366.889	-41.64
367.1	81.24
367.311	36.18
367.522	25.94
367.733	75.09
367.944	40.28
368.155	60.76
368.366	15.7
368.577	87.38
368.788	62.8
368.999	32.08
369.209	32.08
369.42	111.96
369.631	81.24
369.842	105.81
370.053	36.18
370.264	68.95
370.474	15.7
370.685	81.24
370.896	56.66
371.107	75.09
371.317	64.85
371.528	17.75
371.739	66.9
371.95	68.95
372.16	109.91
372.371	27.99
372.582	30.04
372.792	111.96
373.003	40.28
373.214	91.48
373.424	68.95
373.635	27.99
373.846	66.9
374.056	-10.92
374.267	56.66
374.477	58.71
374.688	21.85
374.898	36.18
375.109	56.66
375.319	-6.83
375.53	89.43
375.74	87.38
375.951	42.32
376.161	101.72
376.372	34.13
376.582	91.48
376.793	42.32
377.003	93.52
377.214	99.67
377.424	23.89
377.635	107.86
377.845	-10.92
378.055	116.05
378.266	38.23
378.476	42.32
378.686	58.71
378.897	7.51
379.107	58.71
379.317	71
379.528	27.99
379.738	54.61
379.948	64.85
380.158	38.23
380.369	77.14
380.579	107.86
380.789	25.94
380.999	68.95
381.21	73.04
381.42	85.33
381.63	64.85
381.84	58.71
382.05	152.92
382.261	58.71
382.471	9.56
382.681	50.52
382.891	130.39
383.101	50.52
383.311	38.23
383.521	77.14
383.731	34.13
383.941	95.57
384.151	-35.5
384.361	73.04
384.571	81.24
384.781	83.28
384.991	128.34
385.201	75.09
385.411	85.33
385.621	46.42
385.831	99.67
386.041	107.86
386.251	75.09
386.461	44.37
386.671	32.08
386.881	58.71
387.091	-45.74
387.301	58.71
387.511	77.14
387.72	93.52
387.93	60.76
388.14	15.7
388.35	48.47
388.56	52.56
388.769	83.28
388.979	105.81
389.189	40.28
389.399	109.91
389.609	77.14
389.818	56.66
390.028	50.52
390.238	42.32
390.447	13.65
390.657	91.48
390.867	-21.16
391.076	83.28
391.286	60.76
391.496	40.28
391.705	58.71
391.915	101.72
392.125	68.95
392.334	50.52
392.544	111.96
392.753	95.57
392.963	-2.73
393.172	7.51
393.382	5.46
393.591	130.39
393.801	-37.55
394.01	146.77
394.22	81.24
394.429	140.63
394.639	36.18
394.848	109.91
395.058	107.86
395.267	56.66
395.477	89.43
395.686	44.37
395.895	103.76
396.105	109.91
396.314	93.52
396.524	64.85
396.733	25.94
396.942	116.05
397.152	128.34
397.361	93.52
397.57	13.65
397.78	68.95
397.989	85.33
398.198	134.48
398.407	122.2
398.617	120.15
398.826	58.71
399.035	66.9
399.244	126.29
399.453	81.24
399.663	128.34
399.872	122.2
400.081	95.57
400.29	138.58
400.499	64.85
400.708	152.92
400.917	58.71
401.127	122.2
401.336	132.44
401.545	214.35
401.754	146.77
401.963	175.44
402.172	144.72
402.381	56.66
402.59	60.76
402.799	77.14
403.008	154.96
403.217	152.92
403.426	111.96
403.635	134.48
403.844	107.86
404.053	97.62
404.262	124.24
404.471	159.06
404.68	175.44
404.888	68.95
405.097	138.58
405.306	157.01
405.515	138.58
405.724	208.21
405.933	169.3
406.142	103.76
406.35	159.06
406.559	122.2
406.768	140.63
406.977	189.78
407.185	210.26
407.394	171.35
407.603	85.33
407.812	251.22
408.02	126.29
408.229	222.55
408.438	171.35
408.646	154.96
408.855	212.31
409.064	306.51
409.272	206.16
409.481	288.08
409.69	286.03
409.898	234.83
410.107	345.42
410.315	312.66
410.524	259.41
410.733	261.46
410.941	277.84
411.15	382.29
411.358	372.05
411.567	363.86
411.775	320.85
411.984	361.81
412.192	404.82
412.401	394.58
412.609	423.25
412.818	478.54
413.026	460.11
413.234	437.58
413.443	527.69
413.651	451.92
413.86	503.12
414.068	556.36
414.276	630.09
414.485	564.56
414.693	593.23
414.901	574.8
415.11	709.96
415.318	605.52
415.526	687.43
415.734	712.01
415.943	728.39
416.151	742.73
416.359	767.31
416.567	705.87
416.776	771.4
416.984	820.55
417.192	892.23
417.4	920.9
417.608	816.46
417.817	912.71
418.025	957.77
418.233	1117.51
418.441	980.29
418.649	1029.45
418.857	1133.89
419.065	1162.56
419.273	1105.22
419.481	1170.76
419.689	1312.07
419.897	1310.02
420.105	1312.07
420.313	1346.88
420.521	1441.09
420.729	1420.61
420.937	1531.2
421.145	1504.57
421.353	1764.67
421.561	1766.71
421.769	1705.28
421.977	1897.78
422.185	1768.76
422.393	1793.34
422.601	1951.03
422.809	1953.08
423.017	1994.04
423.224	2121.01
423.432	2258.23
423.64	2182.45
423.848	2493.74
424.056	2309.43
424.263	2469.17
424.471	2420.02
424.679	2596.14
424.887	2575.66
425.094	2807.08
425.302	2911.53
425.51	2934.06
425.718	3046.69
425.925	3089.7
426.133	3165.48
426.341	3347.75
426.548	3396.9
426.756	3339.55
426.964	3493.15
427.171	3611.93
427.379	3878.17
427.586	3874.07
427.794	3992.86
428.001	4316.44
428.209	4392.21
428.417	4222.23
428.624	4601.1
428.832	4459.79
429.039	4490.51
429.247	4574.48
429.454	4992.27
429.662	5285.12
429.869	4961.55
430.076	5315.84
430.284	5018.89
430.491	5430.53
430.699	5811.45
430.906	5737.73
431.114	5616.9
431.321	6143.22
431.528	5967.1
431.736	6376.69
431.943	6604.02
432.15	6567.15
432.358	6714.61
432.565	6882.54
432.772	6749.42
432.979	7122.15
433.187	7378.15
433.394	7646.43
433.601	7914.72
433.808	8121.56
434.016	7961.82
434.223	8400.09
434.43	8750.29
434.637	8629.46
434.844	9233.61
435.052	9446.6
435.259	9260.23
435.466	9293
435.673	9301.19
435.88	9874.62
436.087	10316.98
436.294	10368.18
436.501	10273.98
436.708	10273.98
436.915	10661.04
437.122	11318.44
437.329	11039.92
437.537	11490.47
437.743	11574.44
437.95	11463.85
438.157	12123.29
438.364	12461.21
438.571	12526.74
438.778	12582.04
438.985	14130.3
439.192	13169.8
439.399	13651.08
439.606	13319.31
439.813	14191.74
440.02	14832.75
440.227	14711.92
440.433	14689.4
440.64	15158.38
440.847	14820.47
441.054	15201.39
441.261	16325.72
441.467	15715.43
441.674	16397.4
441.881	16807
442.088	16970.83
442.294	16731.22
442.501	17044.56
442.708	17630.28
442.914	18027.59
443.121	19119.15
443.328	18584.63
443.534	20071.46
443.741	19352.62
443.948	18916.4
444.154	20661.27
444.361	20331.55
444.568	20509.72
444.774	20210.72
444.981	20362.27
445.187	21249.04
445.394	22412.29
445.6	21795.85
445.807	23890.92
446.013	22914.04
446.22	23297.01
446.426	24007.65
446.633	24335.33
446.839	25414.61
447.046	23976.94
447.252	25387.99
447.459	25457.62
447.665	25396.18
447.871	26571.71
448.078	27487.15
448.284	26440.64
448.491	26770.36
448.697	28220.33
448.903	28885.92
449.11	28345.25
449.316	27810.73
449.522	28586.91
449.728	29191.06
449.935	29723.54
450.141	29170.58
450.347	29889.42
450.553	29381.53
450.76	29379.48
450.966	30323.59
451.172	29907.85
451.378	30466.95
451.584	30311.3
451.791	30708.61
451.997	30636.93
452.203	31048.57
452.409	31150.97
452.615	30921.6
452.821	29985.68
453.027	29451.16
453.233	31333.24
453.44	29684.62
453.646	30319.49
453.852	30057.35
454.058	30317.45
454.264	29676.43
454.47	30073.74
454.676	29555.6
454.882	30665.6
455.088	27923.37
455.294	28140.46
455.5	28650.4
455.705	29004.7
455.911	27268.02
456.117	27163.57
456.323	26633.15
456.529	25422.8
456.735	26328
456.941	25924.55
457.147	25490.38
457.352	24892.38
457.558	24320.99
457.764	24312.8
457.97	23845.87
458.176	23274.48
458.381	23477.23
458.587	22244.35
458.793	22127.62
458.999	20935.7
459.204	22651.9
459.41	22115.33
459.616	20479
459.821	20765.72
460.027	20648.99
460.233	20007.97
460.438	19078.19
460.644	19405.87
460.85	18512.95
461.055	17935.43
461.261	18107.46
461.466	16708.69
461.672	16217.18
461.878	17343.56
462.083	16360.54
462.289	15981.67
462.494	15907.94
462.7	15142
462.905	14763.12
463.111	15375.47
463.316	15367.27
463.522	14781.56
463.727	15039.6
463.932	14898.29
464.138	14752.88
464.343	14865.52
464.549	14505.08
464.754	15051.89
464.959	14693.49
465.165	14759.03
465.37	13968.51
465.575	13646.98
465.781	14029.95
465.986	14335.1
466.191	13665.41
466.397	13552.77
466.602	12778.64
466.807	13440.14
467.012	13350.03
467.218	13339.79
467.423	13171.85
467.628	13354.12
467.833	13800.58
468.038	13225.1
