Data from USB4F104151__157__10-27-08-751.txt Node

Date: Wed Mar 12 10:27:08 EDT 2025
User: louis
Spectrometer: USB4F10415
Trigger mode: 4
Integration Time (sec): 3.000000E-2
Scans to average: 1
Electric dark correction enabled: true
Nonlinearity correction enabled: false
Boxcar width: 0
XAxis mode: Wavelengths
Number of Pixels in Spectrum: 3648
>>>>>Begin Spectral Data<<<<<
178.204	-147.28
178.424	-147.28
178.644	-147.28
178.864	-73.56
179.084	-159.57
179.304	20.65
179.524	4.27
179.744	6.31
179.964	-18.26
180.184	-20.31
180.404	26.79
180.624	32.94
180.844	-18.26
181.064	-36.69
181.283	-5.97
181.503	-28.5
181.723	37.03
181.943	-69.46
182.163	75.95
182.383	24.75
182.602	-30.55
182.822	0.17
183.042	24.75
183.262	14.51
183.482	-24.4
183.701	-20.31
183.921	69.8
184.141	-20.31
184.361	24.75
184.58	-63.32
184.8	65.71
185.02	2.22
185.239	-12.12
185.459	22.7
185.679	57.51
185.898	-16.21
186.118	71.85
186.338	16.55
186.557	-14.17
186.777	-24.4
186.997	14.51
187.216	-40.79
187.436	125.1
187.655	34.99
187.875	28.84
188.095	39.08
188.314	59.56
188.534	34.99
188.753	12.46
188.973	-8.02
189.192	59.56
189.412	-1.88
189.631	-24.4
189.851	43.18
190.07	32.94
190.29	-28.5
190.509	53.42
190.729	-28.5
190.948	51.37
191.168	118.95
191.387	77.99
191.607	24.75
191.826	-8.02
192.045	18.6
192.265	-48.98
192.484	73.9
192.704	61.61
192.923	-18.26
193.142	90.28
193.362	-16.21
193.581	61.61
193.8	39.08
194.02	118.95
194.239	49.32
194.458	41.13
194.678	53.42
194.897	37.03
195.116	-20.31
195.335	-61.27
195.555	71.85
195.774	10.41
195.993	28.84
196.212	-1.88
196.432	4.27
196.651	86.19
196.87	8.36
197.089	157.86
197.308	57.51
197.528	6.31
197.747	-69.46
197.966	-20.31
198.185	39.08
198.404	28.84
198.623	26.79
198.842	69.8
199.062	114.86
199.281	137.38
199.5	6.31
199.719	43.18
199.938	69.8
200.157	37.03
200.376	55.47
200.595	-46.93
200.814	-5.97
201.033	4.27
201.252	37.03
201.471	108.71
201.69	51.37
201.909	2.22
202.128	41.13
202.347	24.75
202.566	-5.97
202.785	-1.88
203.004	2.22
203.223	110.76
203.442	30.89
203.661	2.22
203.879	4.27
204.098	34.99
204.317	-53.08
204.536	49.32
204.755	80.04
204.974	28.84
205.193	14.51
205.411	127.14
205.63	55.47
205.849	16.55
206.068	14.51
206.287	24.75
206.505	53.42
206.724	-22.36
206.943	59.56
207.162	0.17
207.381	30.89
207.599	39.08
207.818	53.42
208.037	34.99
208.255	14.51
208.474	-3.93
208.693	-24.4
208.911	112.81
209.13	41.13
209.349	32.94
209.567	108.71
209.786	57.51
210.005	12.46
210.223	20.65
210.442	45.23
210.661	-3.93
210.879	0.17
211.098	16.55
211.316	2.22
211.535	92.33
211.753	-20.31
211.972	-42.84
212.191	18.6
212.409	16.55
212.628	57.51
212.846	0.17
213.065	77.99
213.283	37.03
213.502	-18.26
213.72	49.32
213.938	45.23
214.157	6.31
214.375	26.79
214.594	6.31
214.812	73.9
215.031	24.75
215.249	28.84
215.467	-20.31
215.686	102.57
215.904	4.27
216.122	30.89
216.341	106.67
216.559	43.18
216.778	51.37
216.996	53.42
217.214	-81.75
217.432	-26.45
217.651	39.08
217.869	65.71
218.087	14.51
218.306	-3.93
218.524	63.66
218.742	-1.88
218.96	63.66
219.179	12.46
219.397	61.61
219.615	129.19
219.833	20.65
220.051	24.75
220.27	90.28
220.488	-10.07
220.706	-3.93
220.924	39.08
221.142	24.75
221.36	-1.88
221.578	67.75
221.796	57.51
222.015	22.7
222.233	-1.88
222.451	41.13
222.669	45.23
222.887	88.23
223.105	24.75
223.323	-59.22
223.541	43.18
223.759	114.86
223.977	0.17
224.195	65.71
224.413	121
224.631	80.04
224.849	57.51
225.067	123.05
225.285	-100.18
225.503	30.89
225.721	-34.64
225.939	-22.36
226.157	12.46
226.375	112.81
226.592	-32.6
226.81	20.65
227.028	86.19
227.246	73.9
227.464	69.8
227.682	32.94
227.9	37.03
228.117	4.27
228.335	22.7
228.553	61.61
228.771	61.61
228.989	94.38
229.206	47.27
229.424	-14.17
229.642	-28.5
229.86	-12.12
230.077	24.75
230.295	12.46
230.513	49.32
230.731	-1.88
230.948	49.32
231.166	86.19
231.384	-38.74
231.601	88.23
231.819	63.66
232.037	65.71
232.254	-40.79
232.472	-1.88
232.689	59.56
232.907	73.9
233.125	32.94
233.342	86.19
233.56	8.36
233.777	16.55
233.995	34.99
234.213	67.75
234.43	51.37
234.648	41.13
234.865	32.94
235.083	80.04
235.3	-8.02
235.518	0.17
235.735	8.36
235.953	20.65
236.17	55.47
236.388	90.28
236.605	45.23
236.822	22.7
237.04	82.09
237.257	84.14
237.475	-42.84
237.692	14.51
237.909	-57.17
238.127	45.23
238.344	121
238.562	24.75
238.779	-18.26
238.996	-1.88
239.214	2.22
239.431	12.46
239.648	39.08
239.865	20.65
240.083	63.66
240.3	14.51
240.517	-18.26
240.735	82.09
240.952	75.95
241.169	34.99
241.386	-16.21
241.603	39.08
241.821	-51.03
242.038	28.84
242.255	6.31
242.472	37.03
242.689	18.6
242.907	0.17
243.124	28.84
243.341	73.9
243.558	41.13
243.775	53.42
243.992	26.79
244.209	65.71
244.426	100.52
244.643	6.31
244.86	75.95
245.078	47.27
245.295	32.94
245.512	37.03
245.729	14.51
245.946	63.66
246.163	24.75
246.38	-30.55
246.597	116.9
246.814	-18.26
247.031	16.55
247.248	57.51
247.464	77.99
247.681	-20.31
247.898	8.36
248.115	20.65
248.332	69.8
248.549	12.46
248.766	8.36
248.983	125.1
249.2	34.99
249.417	0.17
249.633	16.55
249.85	45.23
250.067	26.79
250.284	-3.93
250.501	45.23
250.717	2.22
250.934	-12.12
251.151	-46.93
251.368	39.08
251.585	14.51
251.801	-8.02
252.018	-8.02
252.235	2.22
252.451	-114.52
252.668	26.79
252.885	49.32
253.102	123.05
253.318	39.08
253.535	8.36
253.752	14.51
253.968	-38.74
254.185	-32.6
254.401	-53.08
254.618	55.47
254.835	55.47
255.051	43.18
255.268	86.19
255.484	57.51
255.701	-40.79
255.917	45.23
256.134	69.8
256.351	34.99
256.567	24.75
256.784	26.79
257	-34.64
257.217	-5.97
257.433	51.37
257.65	51.37
257.866	98.47
258.082	-34.64
258.299	-59.22
258.515	-1.88
258.732	-10.07
258.948	37.03
259.165	41.13
259.381	47.27
259.597	0.17
259.814	-8.02
260.03	-24.4
260.246	26.79
260.463	49.32
260.679	6.31
260.895	63.66
261.112	12.46
261.328	-16.21
261.544	-28.5
261.761	49.32
261.977	-3.93
262.193	16.55
262.409	0.17
262.626	24.75
262.842	49.32
263.058	32.94
263.274	8.36
263.49	73.9
263.707	98.47
263.923	-12.12
264.139	4.27
264.355	49.32
264.571	69.8
264.787	59.56
265.004	86.19
265.22	-12.12
265.436	-24.4
265.652	-16.21
265.868	-1.88
266.084	8.36
266.3	55.47
266.516	12.46
266.732	30.89
266.948	45.23
267.164	-3.93
267.38	24.75
267.596	14.51
267.812	71.85
268.028	88.23
268.244	57.51
268.46	32.94
268.676	69.8
268.892	32.94
269.108	-26.45
269.324	-48.98
269.54	14.51
269.756	57.51
269.972	51.37
270.188	37.03
270.403	77.99
270.619	12.46
270.835	53.42
271.051	51.37
271.267	-10.07
271.483	-18.26
271.698	71.85
271.914	-20.31
272.13	-26.45
272.346	75.95
272.562	-24.4
272.777	18.6
272.993	20.65
273.209	30.89
273.425	41.13
273.64	-20.31
273.856	2.22
274.072	0.17
274.287	34.99
274.503	57.51
274.719	18.6
274.934	41.13
275.15	-79.7
275.366	96.43
275.581	14.51
275.797	106.67
276.012	63.66
276.228	8.36
276.444	16.55
276.659	41.13
276.875	-67.41
277.09	6.31
277.306	-16.21
277.521	53.42
277.737	43.18
277.952	24.75
278.168	26.79
278.383	39.08
278.599	4.27
278.814	6.31
279.03	12.46
279.245	51.37
279.461	-42.84
279.676	59.56
279.892	-26.45
280.107	10.41
280.322	8.36
280.538	24.75
280.753	20.65
280.969	61.61
281.184	6.31
281.399	28.84
281.615	-44.88
281.83	37.03
282.045	32.94
282.26	-3.93
282.476	57.51
282.691	55.47
282.906	77.99
283.122	-28.5
283.337	8.36
283.552	-16.21
283.767	45.23
283.983	61.61
284.198	-10.07
284.413	84.14
284.628	-24.4
284.843	28.84
285.058	63.66
285.274	88.23
285.489	-16.21
285.704	77.99
285.919	22.7
286.134	37.03
286.349	-8.02
286.564	-20.31
286.779	69.8
286.995	67.75
287.21	26.79
287.425	-16.21
287.64	-32.6
287.855	43.18
288.07	-57.17
288.285	57.51
288.5	34.99
288.715	135.34
288.93	-5.97
289.145	112.81
289.36	63.66
289.575	49.32
289.79	49.32
290.004	63.66
290.219	49.32
290.434	32.94
290.649	-18.26
290.864	32.94
291.079	-42.84
291.294	51.37
291.509	8.36
291.724	26.79
291.938	59.56
292.153	-3.93
292.368	32.94
292.583	22.7
292.798	43.18
293.012	51.37
293.227	57.51
293.442	59.56
293.657	20.65
293.871	75.95
294.086	55.47
294.301	57.51
294.516	71.85
294.73	94.38
294.945	12.46
295.16	10.41
295.374	0.17
295.589	86.19
295.804	-26.45
296.018	12.46
296.233	65.71
296.447	73.9
296.662	24.75
296.877	96.43
297.091	69.8
297.306	77.99
297.52	86.19
297.735	65.71
297.949	28.84
298.164	43.18
298.378	49.32
298.593	61.61
298.807	-16.21
299.022	110.76
299.236	28.84
299.451	114.86
299.665	82.09
299.88	80.04
300.094	49.32
300.309	86.19
300.523	16.55
300.737	-16.21
300.952	75.95
301.166	75.95
301.381	53.42
301.595	-12.12
301.809	67.75
302.024	-12.12
302.238	37.03
302.452	61.61
302.667	37.03
302.881	110.76
303.095	67.75
303.309	-63.32
303.524	14.51
303.738	6.31
303.952	41.13
304.166	34.99
304.381	32.94
304.595	43.18
304.809	-53.08
305.023	0.17
305.237	137.38
305.452	41.13
305.666	18.6
305.88	24.75
306.094	32.94
306.308	0.17
306.522	30.89
306.736	39.08
306.95	49.32
307.164	20.65
307.379	4.27
307.593	30.89
307.807	55.47
308.021	57.51
308.235	-1.88
308.449	-22.36
308.663	28.84
308.877	24.75
309.091	4.27
309.305	75.95
309.519	-8.02
309.733	53.42
309.947	90.28
310.161	47.27
310.374	90.28
310.588	77.99
310.802	8.36
311.016	-14.17
311.23	63.66
311.444	49.32
311.658	41.13
311.872	57.51
312.085	24.75
312.299	8.36
312.513	69.8
312.727	121
312.941	-32.6
313.154	0.17
313.368	20.65
313.582	104.62
313.796	47.27
314.009	18.6
314.223	73.9
314.437	28.84
314.651	49.32
314.864	88.23
315.078	-51.03
315.292	-3.93
315.505	-3.93
315.719	86.19
315.933	49.32
316.146	37.03
316.36	80.04
316.573	69.8
316.787	-30.55
317.001	24.75
317.214	18.6
317.428	4.27
317.641	-12.12
317.855	37.03
318.068	73.9
318.282	24.75
318.495	139.43
318.709	63.66
318.922	-5.97
319.136	73.9
319.349	39.08
319.563	135.34
319.776	26.79
319.99	88.23
320.203	61.61
320.417	90.28
320.63	22.7
320.843	100.52
321.057	49.32
321.27	88.23
321.483	41.13
321.697	63.66
321.91	94.38
322.124	37.03
322.337	55.47
322.55	2.22
322.763	4.27
322.977	12.46
323.19	39.08
323.403	39.08
323.617	-1.88
323.83	118.95
324.043	0.17
324.256	45.23
324.469	-14.17
324.683	114.86
324.896	18.6
325.109	-22.36
325.322	12.46
325.535	43.18
325.748	94.38
325.962	-42.84
326.175	20.65
326.388	41.13
326.601	57.51
326.814	10.41
327.027	61.61
327.24	75.95
327.453	51.37
327.666	55.47
327.879	28.84
328.092	49.32
328.305	-69.46
328.518	32.94
328.731	98.47
328.944	49.32
329.157	61.61
329.37	69.8
329.583	133.29
329.796	34.99
330.009	14.51
330.222	16.55
330.435	63.66
330.648	34.99
330.861	41.13
331.073	80.04
331.286	30.89
331.499	75.95
331.712	16.55
331.925	63.66
332.138	75.95
332.35	37.03
332.563	-3.93
332.776	63.66
332.989	30.89
333.202	47.27
333.414	39.08
333.627	61.61
333.84	16.55
334.053	112.81
334.265	-24.4
334.478	77.99
334.691	-8.02
334.903	14.51
335.116	24.75
335.329	8.36
335.541	37.03
335.754	43.18
335.966	37.03
336.179	6.31
336.392	57.51
336.604	80.04
336.817	10.41
337.029	34.99
337.242	26.79
337.454	49.32
337.667	2.22
337.88	73.9
338.092	61.61
338.305	-28.5
338.517	57.51
338.729	94.38
338.942	92.33
339.154	28.84
339.367	-57.17
339.579	12.46
339.792	20.65
340.004	61.61
340.217	82.09
340.429	20.65
340.641	-38.74
340.854	-8.02
341.066	-46.93
341.278	28.84
341.491	100.52
341.703	86.19
341.915	20.65
342.128	71.85
342.34	63.66
342.552	45.23
342.764	-8.02
342.977	37.03
343.189	32.94
343.401	28.84
343.613	-8.02
343.826	59.56
344.038	-26.45
344.25	8.36
344.462	8.36
344.674	57.51
344.886	55.47
345.099	73.9
345.311	47.27
345.523	53.42
345.735	-8.02
345.947	28.84
346.159	59.56
346.371	-32.6
346.583	82.09
346.795	41.13
347.007	82.09
347.219	-14.17
347.431	37.03
347.643	57.51
347.855	59.56
348.067	108.71
348.279	0.17
348.491	123.05
348.703	53.42
348.915	45.23
349.127	6.31
349.339	67.75
349.551	61.61
349.763	57.51
349.975	-16.21
350.187	143.53
350.399	22.7
350.61	110.76
350.822	61.61
351.034	41.13
351.246	-34.64
351.458	67.75
351.669	84.14
351.881	77.99
352.093	55.47
352.305	51.37
352.517	49.32
352.728	63.66
352.94	45.23
353.152	51.37
353.363	8.36
353.575	82.09
353.787	49.32
353.999	32.94
354.21	-16.21
354.422	41.13
354.633	18.6
354.845	90.28
355.057	20.65
355.268	98.47
355.48	65.71
355.692	12.46
355.903	34.99
356.115	55.47
356.326	20.65
356.538	98.47
356.749	-14.17
356.961	118.95
357.172	4.27
357.384	39.08
357.595	94.38
357.807	118.95
358.018	-32.6
358.23	106.67
358.441	65.71
358.653	45.23
358.864	69.8
359.075	22.7
359.287	24.75
359.498	123.05
359.709	65.71
359.921	174.25
360.132	28.84
360.344	22.7
360.555	30.89
360.766	104.62
360.977	53.42
361.189	114.86
361.4	-24.4
361.611	63.66
361.823	32.94
362.034	98.47
362.245	-36.69
362.456	6.31
362.667	53.42
362.879	-12.12
363.09	18.6
363.301	8.36
363.512	51.37
363.723	67.75
363.935	24.75
364.146	73.9
364.357	65.71
364.568	114.86
364.779	-20.31
364.99	96.43
365.201	61.61
365.412	37.03
365.623	14.51
365.834	71.85
366.045	55.47
366.256	-5.97
366.467	63.66
366.678	61.61
366.889	77.99
367.1	24.75
367.311	-14.17
367.522	12.46
367.733	55.47
367.944	67.75
368.155	75.95
368.366	63.66
368.577	39.08
368.788	131.24
368.999	71.85
369.209	61.61
369.42	94.38
369.631	139.43
369.842	61.61
370.053	41.13
370.264	94.38
370.474	96.43
370.685	59.56
370.896	92.33
371.107	71.85
371.317	49.32
371.528	51.37
371.739	28.84
371.95	63.66
372.16	84.14
372.371	-20.31
372.582	82.09
372.792	-3.93
373.003	45.23
373.214	45.23
373.424	65.71
373.635	61.61
373.846	57.51
374.056	18.6
374.267	61.61
374.477	102.57
374.688	-24.4
374.898	100.52
375.109	102.57
375.319	67.75
375.53	59.56
375.74	80.04
375.951	82.09
376.161	41.13
376.372	-5.97
376.582	41.13
376.793	-12.12
377.003	71.85
377.214	0.17
377.424	43.18
377.635	41.13
377.845	77.99
378.055	53.42
378.266	65.71
378.476	61.61
378.686	51.37
378.897	108.71
379.107	16.55
379.317	137.38
379.528	30.89
379.738	182.44
379.948	-40.79
380.158	18.6
380.369	32.94
380.579	125.1
380.789	45.23
380.999	104.62
381.21	69.8
381.42	145.58
381.63	41.13
381.84	112.81
382.05	37.03
382.261	77.99
382.471	106.67
382.681	-28.5
382.891	94.38
383.101	51.37
383.311	-3.93
383.521	26.79
383.731	39.08
383.941	71.85
384.151	37.03
384.361	73.9
384.571	63.66
384.781	61.61
384.991	86.19
385.201	123.05
385.411	114.86
385.621	80.04
385.831	98.47
386.041	26.79
386.251	14.51
386.461	55.47
386.671	-1.88
386.881	24.75
387.091	24.75
387.301	51.37
387.511	69.8
387.72	86.19
387.93	121
388.14	37.03
388.35	80.04
388.56	118.95
388.769	98.47
388.979	86.19
389.189	63.66
389.399	69.8
389.609	41.13
389.818	94.38
390.028	39.08
390.238	86.19
390.447	34.99
390.657	14.51
390.867	30.89
391.076	37.03
391.286	92.33
391.496	0.17
391.705	108.71
391.915	118.95
392.125	82.09
392.334	63.66
392.544	43.18
392.753	90.28
392.963	63.66
393.172	114.86
393.382	16.55
393.591	63.66
393.801	59.56
394.01	211.11
394.22	110.76
394.429	92.33
394.639	65.71
394.848	69.8
395.058	147.62
395.267	43.18
395.477	73.9
395.686	164.01
395.895	164.01
396.105	176.3
396.314	100.52
396.524	149.67
396.733	110.76
396.942	164.01
397.152	77.99
397.361	127.14
397.57	51.37
397.78	73.9
397.989	147.62
398.198	98.47
398.407	180.39
398.617	184.49
398.826	88.23
399.035	149.67
399.244	125.1
399.453	84.14
399.663	65.71
399.872	82.09
400.081	65.71
400.29	108.71
400.499	37.03
400.708	153.77
400.917	149.67
401.127	82.09
401.336	90.28
401.545	176.3
401.754	194.73
401.963	200.87
402.172	82.09
402.381	131.24
402.59	57.51
402.799	96.43
403.008	151.72
403.217	202.92
403.426	151.72
403.635	112.81
403.844	121
404.053	73.9
404.262	178.34
404.471	188.58
404.68	194.73
404.888	118.95
405.097	155.82
405.306	172.2
405.515	215.21
405.724	221.35
405.933	270.5
406.142	176.3
406.35	180.39
406.559	219.3
406.768	106.67
406.977	209.06
407.185	213.16
407.394	174.25
407.603	184.49
407.812	231.59
408.02	270.5
408.229	262.31
408.438	286.89
408.646	172.2
408.855	202.92
409.064	262.31
409.272	262.31
409.481	313.51
409.69	268.45
409.898	329.89
410.107	368.81
410.315	262.31
410.524	354.47
410.733	336.04
410.941	323.75
411.15	327.85
411.358	403.62
411.567	448.68
411.775	508.07
411.984	364.71
412.192	452.77
412.401	467.11
412.609	512.16
412.818	549.03
413.026	540.83
413.234	546.98
413.443	508.07
413.651	538.79
413.86	559.27
414.068	585.89
414.276	708.77
414.485	524.45
414.693	747.68
414.901	776.35
415.11	735.39
415.318	723.1
415.526	747.68
415.734	823.45
415.943	932
416.151	884.89
416.359	858.27
416.567	917.66
416.776	1028.25
416.984	993.44
417.192	1028.25
417.4	1036.44
417.608	1003.68
417.817	1050.78
418.025	1130.65
418.233	1243.29
418.441	1194.14
418.649	1228.95
418.857	1355.93
419.065	1341.59
419.273	1364.12
419.481	1425.56
419.689	1513.62
419.897	1585.3
420.105	1650.83
420.313	1665.17
420.521	1663.12
420.729	1747.09
420.937	1857.68
421.145	1702.03
421.353	1972.36
421.561	1968.27
421.769	2152.59
421.977	2103.43
422.185	2109.58
422.393	2234.5
422.601	2349.19
422.809	2443.4
423.017	2336.9
423.224	2551.94
423.432	2502.79
423.64	2515.08
423.848	2793.6
424.056	2740.35
424.263	2947.2
424.471	2961.53
424.679	3022.97
424.887	3266.68
425.094	3397.75
425.302	3221.63
425.51	3455.09
425.718	3586.16
425.925	3612.79
426.133	3850.35
426.341	4012.14
426.548	4114.54
426.756	4114.54
426.964	4208.75
427.171	4468.84
427.379	4421.74
427.586	4567.14
427.794	4659.3
428.001	4814.95
428.209	5095.52
428.417	5095.52
428.624	5382.23
428.832	5431.38
429.039	5320.79
429.247	5496.92
429.454	5818.45
429.662	6461.51
429.869	5906.51
430.076	6363.21
430.284	5988.43
430.491	6588.49
430.699	6744.13
430.906	6733.89
431.114	6869.06
431.321	7114.81
431.528	7229.5
431.736	7727.16
431.943	7964.72
432.15	7766.07
432.358	7954.48
432.565	8382.51
432.772	8110.13
432.979	8683.56
433.187	8988.71
433.394	8910.88
433.601	9646.1
433.808	9508.89
434.016	9486.36
434.223	9932.82
434.43	10358.8
434.637	10248.21
434.844	10840.07
435.052	11098.11
435.259	10754.05
435.466	11190.27
435.673	11059.2
435.88	11905.01
436.087	12378.09
436.294	12470.25
436.501	12013.56
436.708	12193.78
436.915	12722.15
437.122	13422.56
437.329	13367.26
437.537	13705.18
437.743	13731.8
437.95	13869.02
438.157	14579.66
438.364	14940.1
438.571	14981.06
438.778	15009.73
438.985	16586.67
439.192	15892.41
439.399	16258.99
439.606	15757.24
439.813	16725.93
440.02	17858.46
440.227	17428.38
440.433	17379.23
440.64	18143.13
440.847	17520.54
441.054	18184.09
441.261	19412.87
441.467	19169.16
441.674	19437.44
441.881	19910.52
442.088	20053.88
442.294	19877.76
442.501	20588.4
442.708	21217.13
442.914	22013.79
443.121	22568.79
443.328	22128.47
443.534	23672.64
443.741	23035.72
443.948	22558.55
444.154	24409.91
444.361	24223.55
444.568	24346.42
444.774	24504.12
444.981	24608.56
445.187	25171.75
445.394	26175.26
445.6	25904.93
445.807	28503.8
446.013	27232.01
446.22	27844.35
446.426	28888.82
446.633	28765.94
446.839	29705.96
447.046	28915.44
447.252	29943.52
447.459	30263
447.665	29964
447.871	31483.59
448.078	32960.18
448.284	31168.21
448.491	31971.01
448.697	33506.99
448.903	34006.69
449.11	33488.56
449.316	33347.25
449.522	33945.25
449.728	34608.79
449.935	34926.23
450.141	35006.1
450.347	35548.81
450.553	34551.45
450.76	34899.61
450.966	35870.34
451.172	35485.33
451.378	36339.33
451.584	35716.75
451.791	36640.38
451.997	36281.99
452.203	37168.76
452.409	36923
452.615	36646.52
452.821	35108.5
453.027	34829.98
453.233	36937.34
453.44	35198.61
453.646	35743.37
453.852	35724.94
454.058	36351.62
454.264	34934.42
454.47	35643.02
454.676	34948.76
454.882	36136.58
455.088	32851.64
455.294	33535.66
455.5	33642.15
455.705	33992.36
455.911	32661.18
456.117	31999.68
456.323	31665.86
456.529	29949.67
456.735	31297.23
456.941	30310.11
457.147	29839.08
457.352	29187.82
457.558	28550.9
457.764	28647.16
457.97	28053.25
458.176	27475.72
458.381	27315.98
458.587	26390.3
458.793	26181.4
458.999	25085.74
459.204	26777.36
459.41	26009.37
459.616	24311.61
459.821	23998.27
460.027	24305.46
460.233	23240.52
460.438	22384.47
460.644	22591.31
460.85	21667.68
461.055	21374.82
461.261	21057.39
461.466	19603.33
461.672	19120.01
461.878	20469.62
462.083	18972.55
462.289	18837.39
462.494	18677.65
462.7	17995.67
462.905	17450.91
463.111	17862.55
463.316	17956.76
463.522	17719.2
463.727	17555.36
463.932	17536.93
464.138	17366.95
464.343	17575.84
464.549	17022.89
464.754	17717.15
464.959	17227.68
465.165	17332.13
465.37	16396.21
465.575	15957.94
465.781	16713.64
465.986	17033.13
466.191	16127.92
466.397	16105.4
466.602	15214.53
466.807	15738.81
467.012	15488.96
467.218	15609.79
467.423	15423.42
