Data from USB4F104151__200__10-29-32-405.txt Node

Date: Wed Mar 12 10:29:32 EDT 2025
User: louis
Spectrometer: USB4F10415
Trigger mode: 4
Integration Time (sec): 3.000000E-2
Scans to average: 1
Electric dark correction enabled: true
Nonlinearity correction enabled: false
Boxcar width: 0
XAxis mode: Wavelengths
Number of Pixels in Spectrum: 3648
>>>>>Begin Spectral Data<<<<<
178.204	-146.43
178.424	-146.43
178.644	-146.43
178.864	-121.85
179.084	-109.57
179.304	23.55
179.524	23.55
179.744	-41.98
179.964	9.22
180.184	-21.5
180.404	84.99
180.624	17.41
180.844	-39.94
181.064	-29.7
181.283	1.02
181.503	-5.12
181.723	-21.5
181.943	-41.98
182.163	54.27
182.383	-48.13
182.602	9.22
182.822	97.28
183.042	33.79
183.262	17.41
183.482	27.65
183.701	-1.02
183.921	-66.56
184.141	3.07
184.361	19.46
184.58	-33.79
184.8	46.08
185.02	13.31
185.239	-13.31
185.459	97.28
185.679	50.18
185.898	-17.41
186.118	29.7
186.338	64.51
186.557	113.66
186.777	-9.22
186.997	21.5
187.216	-35.84
187.436	103.42
187.655	11.26
187.875	82.94
188.095	41.98
188.314	70.65
188.534	54.27
188.753	-48.13
188.973	115.71
189.192	101.37
189.412	60.42
189.631	-5.12
189.851	-17.41
190.07	-27.65
190.29	-25.6
190.509	33.79
190.729	66.56
190.948	50.18
191.168	64.51
191.387	82.94
191.607	5.12
191.826	33.79
192.045	-21.5
192.265	70.65
192.484	99.33
192.704	-33.79
192.923	-19.46
193.142	70.65
193.362	91.13
193.581	-15.36
193.8	39.94
194.02	21.5
194.239	37.89
194.458	13.31
194.678	21.5
194.897	35.84
195.116	-13.31
195.335	35.84
195.555	17.41
195.774	7.17
195.993	54.27
196.212	97.28
196.432	27.65
196.651	-35.84
196.87	1.02
197.089	99.33
197.308	33.79
197.528	-17.41
197.747	-9.22
197.966	1.02
198.185	101.37
198.404	-7.17
198.623	15.36
198.842	31.74
199.062	29.7
199.281	107.52
199.5	21.5
199.719	29.7
199.938	-9.22
200.157	19.46
200.376	25.6
200.595	17.41
200.814	99.33
201.033	107.52
201.252	74.75
201.471	23.55
201.69	39.94
201.909	60.42
202.128	25.6
202.347	-13.31
202.566	29.7
202.785	37.89
203.004	-54.27
203.223	62.46
203.442	117.76
203.661	9.22
203.879	-7.17
204.098	39.94
204.317	-37.89
204.536	41.98
204.755	48.13
204.974	93.18
205.193	70.65
205.411	-1.02
205.63	23.55
205.849	21.5
206.068	-9.22
206.287	39.94
206.505	29.7
206.724	23.55
206.943	-5.12
207.162	13.31
207.381	62.46
207.599	-29.7
207.818	121.85
208.037	-33.79
208.255	7.17
208.474	7.17
208.693	56.32
208.911	11.26
209.13	62.46
209.349	50.18
209.567	89.09
209.786	15.36
210.005	15.36
210.223	9.22
210.442	-31.74
210.661	9.22
210.879	107.52
211.098	80.89
211.316	5.12
211.535	105.47
211.753	-7.17
211.972	-15.36
212.191	25.6
212.409	23.55
212.628	9.22
212.846	-66.56
213.065	99.33
213.283	136.19
213.502	-39.94
213.72	17.41
213.938	25.6
214.157	44.03
214.375	21.5
214.594	-23.55
214.812	101.37
215.031	-3.07
215.249	5.12
215.467	50.18
215.686	78.85
215.904	56.32
216.122	-54.27
216.341	44.03
216.559	15.36
216.778	23.55
216.996	93.18
217.214	48.13
217.432	-5.12
217.651	7.17
217.869	48.13
218.087	-3.07
218.306	1.02
218.524	-23.55
218.742	23.55
218.96	9.22
219.179	-7.17
219.397	74.75
219.615	7.17
219.833	5.12
220.051	64.51
220.27	25.6
220.488	78.85
220.706	29.7
220.924	-13.31
221.142	54.27
221.36	31.74
221.578	9.22
221.796	33.79
222.015	56.32
222.233	31.74
222.451	80.89
222.669	-23.55
222.887	3.07
223.105	-35.84
223.323	52.22
223.541	37.89
223.759	39.94
223.977	-48.13
224.195	62.46
224.413	-11.26
224.631	48.13
224.849	50.18
225.067	103.42
225.285	25.6
225.503	17.41
225.721	-27.65
225.939	60.42
226.157	-9.22
226.375	80.89
226.592	44.03
226.81	-7.17
227.028	56.32
227.246	62.46
227.464	39.94
227.682	52.22
227.9	-3.07
228.117	29.7
228.335	62.46
228.553	7.17
228.771	33.79
228.989	25.6
229.206	99.33
229.424	-1.02
229.642	9.22
229.86	70.65
230.077	50.18
230.295	13.31
230.513	64.51
230.731	121.85
230.948	66.56
231.166	78.85
231.384	-5.12
231.601	-23.55
231.819	27.65
232.037	-41.98
232.254	5.12
232.472	15.36
232.689	21.5
232.907	78.85
233.125	41.98
233.342	46.08
233.56	-1.02
233.777	54.27
233.995	15.36
234.213	156.67
234.43	-23.55
234.648	56.32
234.865	1.02
235.083	76.8
235.3	70.65
235.518	21.5
235.735	91.13
235.953	58.37
236.17	25.6
236.388	66.56
236.605	70.65
236.822	91.13
237.04	7.17
237.257	9.22
237.475	54.27
237.692	68.61
237.909	-9.22
238.127	-35.84
238.344	101.37
238.562	27.65
238.779	56.32
238.996	80.89
239.214	7.17
239.431	29.7
239.648	17.41
239.865	-21.5
240.083	52.22
240.3	66.56
240.517	27.65
240.735	105.47
240.952	56.32
241.169	21.5
241.386	23.55
241.603	-7.17
241.821	58.37
242.038	115.71
242.255	66.56
242.472	-44.03
242.689	-11.26
242.907	123.9
243.124	-1.02
243.341	-5.12
243.558	-66.56
243.775	-39.94
243.992	-7.17
244.209	37.89
244.426	64.51
244.643	72.7
244.86	31.74
245.078	68.61
245.295	41.98
245.512	33.79
245.729	17.41
245.946	31.74
246.163	35.84
246.38	56.32
246.597	60.42
246.814	17.41
247.031	23.55
247.248	21.5
247.464	-15.36
247.681	19.46
247.898	72.7
248.115	48.13
248.332	17.41
248.549	64.51
248.766	50.18
248.983	80.89
249.2	44.03
249.417	35.84
249.633	41.98
249.85	54.27
250.067	-41.98
250.284	54.27
250.501	-9.22
250.717	39.94
250.934	1.02
251.151	-23.55
251.368	-19.46
251.585	54.27
251.801	74.75
252.018	58.37
252.235	107.52
252.451	17.41
252.668	-56.32
252.885	48.13
253.102	23.55
253.318	97.28
253.535	-68.61
253.752	101.37
253.968	25.6
254.185	19.46
254.401	37.89
254.618	31.74
254.835	76.8
255.051	152.57
255.268	23.55
255.484	-23.55
255.701	25.6
255.917	121.85
256.134	-5.12
256.351	29.7
256.567	37.89
256.784	41.98
257	-25.6
257.217	105.47
257.433	41.98
257.65	54.27
257.866	50.18
258.082	-27.65
258.299	-1.02
258.515	70.65
258.732	58.37
258.948	31.74
259.165	15.36
259.381	1.02
259.597	27.65
259.814	-31.74
260.03	64.51
260.246	23.55
260.463	66.56
260.679	29.7
260.895	54.27
261.112	37.89
261.328	37.89
261.544	7.17
261.761	168.96
261.977	-9.22
262.193	9.22
262.409	44.03
262.626	37.89
262.842	37.89
263.058	17.41
263.274	44.03
263.49	68.61
263.707	9.22
263.923	9.22
264.139	-101.37
264.355	82.94
264.571	54.27
264.787	27.65
265.004	46.08
265.22	31.74
265.436	-9.22
265.652	-66.56
265.868	25.6
266.084	62.46
266.3	46.08
266.516	-29.7
266.732	33.79
266.948	15.36
267.164	95.23
267.38	54.27
267.596	70.65
267.812	97.28
268.028	60.42
268.244	27.65
268.46	52.22
268.676	-37.89
268.892	76.8
269.108	-56.32
269.324	9.22
269.54	33.79
269.756	56.32
269.972	25.6
270.188	17.41
270.403	17.41
270.619	56.32
270.835	39.94
271.051	7.17
271.267	107.52
271.483	11.26
271.698	-25.6
271.914	97.28
272.13	78.85
272.346	50.18
272.562	-9.22
272.777	31.74
272.993	-13.31
273.209	21.5
273.425	39.94
273.64	25.6
273.856	74.75
274.072	95.23
274.287	31.74
274.503	-41.98
274.719	44.03
274.934	52.22
275.15	1.02
275.366	37.89
275.581	3.07
275.797	48.13
276.012	25.6
276.228	82.94
276.444	58.37
276.659	41.98
276.875	-35.84
277.09	74.75
277.306	-3.07
277.521	52.22
277.737	84.99
277.952	123.9
278.168	23.55
278.383	11.26
278.599	-11.26
278.814	-3.07
279.03	27.65
279.245	35.84
279.461	13.31
279.676	78.85
279.892	-9.22
280.107	-35.84
280.322	27.65
280.538	70.65
280.753	46.08
280.969	50.18
281.184	-15.36
281.399	62.46
281.615	25.6
281.83	7.17
282.045	54.27
282.26	-11.26
282.476	3.07
282.691	25.6
282.906	50.18
283.122	82.94
283.337	62.46
283.552	13.31
283.767	-56.32
283.983	66.56
284.198	119.81
284.413	74.75
284.628	13.31
284.843	35.84
285.058	-9.22
285.274	64.51
285.489	9.22
285.704	1.02
285.919	50.18
286.134	99.33
286.349	121.85
286.564	52.22
286.779	37.89
286.995	33.79
287.21	-19.46
287.425	41.98
287.64	23.55
287.855	111.61
288.07	72.7
288.285	62.46
288.5	60.42
288.715	91.13
288.93	23.55
289.145	-46.08
289.36	35.84
289.575	56.32
289.79	41.98
290.004	64.51
290.219	17.41
290.434	76.8
290.649	1.02
290.864	78.85
291.079	-21.5
291.294	91.13
291.509	7.17
291.724	107.52
291.938	25.6
292.153	33.79
292.368	41.98
292.583	29.7
292.798	23.55
293.012	15.36
293.227	25.6
293.442	31.74
293.657	62.46
293.871	115.71
294.086	17.41
294.301	82.94
294.516	-21.5
294.73	23.55
294.945	-23.55
295.16	-7.17
295.374	72.7
295.589	23.55
295.804	-25.6
296.018	70.65
296.233	50.18
296.447	-15.36
296.662	-11.26
296.877	41.98
297.091	74.75
297.306	17.41
297.52	52.22
297.735	54.27
297.949	50.18
298.164	9.22
298.378	25.6
298.593	23.55
298.807	-3.07
299.022	41.98
299.236	29.7
299.451	9.22
299.665	76.8
299.88	72.7
300.094	60.42
300.309	66.56
300.523	60.42
300.737	-9.22
300.952	84.99
301.166	74.75
301.381	50.18
301.595	68.61
301.809	33.79
302.024	93.18
302.238	29.7
302.452	21.5
302.667	25.6
302.881	80.89
303.095	82.94
303.309	72.7
303.524	15.36
303.738	31.74
303.952	29.7
304.166	-31.74
304.381	-21.5
304.595	87.04
304.809	3.07
305.023	23.55
305.237	27.65
305.452	21.5
305.666	39.94
305.88	29.7
306.094	13.31
306.308	5.12
306.522	80.89
306.736	82.94
306.95	39.94
307.164	68.61
307.379	29.7
307.593	37.89
307.807	111.61
308.021	39.94
308.235	109.57
308.449	15.36
308.663	29.7
308.877	58.37
309.091	15.36
309.305	89.09
309.519	-7.17
309.733	19.46
309.947	-101.37
310.161	23.55
310.374	-23.55
310.588	25.6
310.802	27.65
311.016	101.37
311.23	60.42
311.444	-27.65
311.658	82.94
311.872	37.89
312.085	21.5
312.299	37.89
312.513	39.94
312.727	50.18
312.941	5.12
313.154	54.27
313.368	29.7
313.582	-9.22
313.796	54.27
314.009	-54.27
314.223	50.18
314.437	64.51
314.651	72.7
314.864	62.46
315.078	1.02
315.292	62.46
315.505	-3.07
315.719	35.84
315.933	25.6
316.146	-48.13
316.36	21.5
316.573	99.33
316.787	109.57
317.001	-11.26
317.214	56.32
317.428	68.61
317.641	-5.12
317.855	11.26
318.068	66.56
318.282	29.7
318.495	27.65
318.709	66.56
318.922	33.79
319.136	56.32
319.349	48.13
319.563	35.84
319.776	21.5
319.99	33.79
320.203	5.12
320.417	103.42
320.63	54.27
320.843	62.46
321.057	-7.17
321.27	62.46
321.483	50.18
321.697	27.65
321.91	52.22
322.124	97.28
322.337	87.04
322.55	7.17
322.763	50.18
322.977	1.02
323.19	19.46
323.403	72.7
323.617	128
323.83	54.27
324.043	50.18
324.256	107.52
324.469	25.6
324.683	70.65
324.896	50.18
325.109	123.9
325.322	-11.26
325.535	52.22
325.748	35.84
325.962	41.98
326.175	74.75
326.388	111.61
326.601	103.42
326.814	76.8
327.027	54.27
327.24	95.23
327.453	21.5
327.666	64.51
327.879	62.46
328.092	70.65
328.305	87.04
328.518	27.65
328.731	13.31
328.944	17.41
329.157	50.18
329.37	66.56
329.583	89.09
329.796	138.24
330.009	-72.7
330.222	87.04
330.435	115.71
330.648	33.79
330.861	68.61
331.073	37.89
331.286	74.75
331.499	93.18
331.712	17.41
331.925	62.46
332.138	1.02
332.35	35.84
332.563	103.42
332.776	111.61
332.989	58.37
333.202	111.61
333.414	17.41
333.627	-1.02
333.84	27.65
334.053	52.22
334.265	17.41
334.478	33.79
334.691	-19.46
334.903	48.13
335.116	64.51
335.329	111.61
335.541	27.65
335.754	46.08
335.966	66.56
336.179	17.41
336.392	66.56
336.604	50.18
336.817	54.27
337.029	52.22
337.242	41.98
337.454	54.27
337.667	23.55
337.88	31.74
338.092	99.33
338.305	76.8
338.517	19.46
338.729	173.05
338.942	74.75
339.154	80.89
339.367	39.94
339.579	78.85
339.792	72.7
340.004	101.37
340.217	48.13
340.429	7.17
340.641	-27.65
340.854	56.32
341.066	-66.56
341.278	95.23
341.491	111.61
341.703	46.08
341.915	48.13
342.128	1.02
342.34	-23.55
342.552	70.65
342.764	19.46
342.977	31.74
343.189	58.37
343.401	46.08
343.613	64.51
343.826	48.13
344.038	74.75
344.25	101.37
344.462	97.28
344.674	21.5
344.886	50.18
345.099	72.7
345.311	37.89
345.523	107.52
345.735	62.46
345.947	17.41
346.159	52.22
346.371	23.55
346.583	33.79
346.795	107.52
347.007	37.89
347.219	54.27
347.431	76.8
347.643	76.8
347.855	76.8
348.067	41.98
348.279	-7.17
348.491	48.13
348.703	125.95
348.915	3.07
349.127	-21.5
349.339	11.26
349.551	66.56
349.763	111.61
349.975	50.18
350.187	103.42
350.399	19.46
350.61	70.65
350.822	78.85
351.034	115.71
351.246	-44.03
351.458	48.13
351.669	82.94
351.881	70.65
352.093	11.26
352.305	103.42
352.517	76.8
352.728	44.03
352.94	70.65
353.152	48.13
353.363	52.22
353.575	91.13
353.787	50.18
353.999	52.22
354.21	140.29
354.422	-33.79
354.633	21.5
354.845	76.8
355.057	-15.36
355.268	111.61
355.48	9.22
355.692	50.18
355.903	37.89
356.115	66.56
356.326	7.17
356.538	115.71
356.749	-11.26
356.961	72.7
357.172	58.37
357.384	13.31
357.595	132.09
357.807	29.7
358.018	25.6
358.23	82.94
358.441	148.48
358.653	37.89
358.864	-11.26
359.075	13.31
359.287	1.02
359.498	58.37
359.709	87.04
359.921	-7.17
360.132	25.6
360.344	-1.02
360.555	9.22
360.766	39.94
360.977	9.22
361.189	41.98
361.4	-5.12
361.611	103.42
361.823	68.61
362.034	99.33
362.245	19.46
362.456	21.5
362.667	31.74
362.879	7.17
363.09	62.46
363.301	87.04
363.512	103.42
363.723	-1.02
363.935	-13.31
364.146	68.61
364.357	41.98
364.568	74.75
364.779	50.18
364.99	72.7
365.201	62.46
365.412	58.37
365.623	7.17
365.834	11.26
366.045	25.6
366.256	117.76
366.467	95.23
366.678	62.46
366.889	-23.55
367.1	1.02
367.311	-23.55
367.522	87.04
367.733	87.04
367.944	50.18
368.155	-1.02
368.366	89.09
368.577	56.32
368.788	35.84
368.999	95.23
369.209	11.26
369.42	140.29
369.631	111.61
369.842	97.28
370.053	50.18
370.264	33.79
370.474	44.03
370.685	25.6
370.896	-7.17
371.107	99.33
371.317	48.13
371.528	-3.07
371.739	11.26
371.95	117.76
372.16	107.52
372.371	33.79
372.582	-19.46
372.792	1.02
373.003	82.94
373.214	-25.6
373.424	105.47
373.635	48.13
373.846	158.72
374.056	60.42
374.267	17.41
374.477	99.33
374.688	70.65
374.898	128
375.109	101.37
375.319	48.13
375.53	134.14
375.74	66.56
375.951	87.04
376.161	80.89
376.372	87.04
376.582	99.33
376.793	21.5
377.003	-27.65
377.214	9.22
377.424	19.46
377.635	25.6
377.845	113.66
378.055	68.61
378.266	41.98
378.476	52.22
378.686	56.32
378.897	44.03
379.107	35.84
379.317	113.66
379.528	97.28
379.738	95.23
379.948	74.75
380.158	80.89
380.369	-7.17
380.579	80.89
380.789	93.18
380.999	50.18
381.21	66.56
381.42	132.09
381.63	58.37
381.84	125.95
382.05	66.56
382.261	72.7
382.471	123.9
382.681	181.25
382.891	130.05
383.101	70.65
383.311	70.65
383.521	113.66
383.731	66.56
383.941	128
384.151	97.28
384.361	97.28
384.571	13.31
384.781	78.85
384.991	93.18
385.201	197.63
385.411	31.74
385.621	66.56
385.831	23.55
386.041	119.81
386.251	82.94
386.461	105.47
386.671	64.51
386.881	119.81
387.091	46.08
387.301	107.52
387.511	1.02
387.72	50.18
387.93	87.04
388.14	50.18
388.35	35.84
388.56	17.41
388.769	60.42
388.979	39.94
389.189	66.56
389.399	46.08
389.609	41.98
389.818	41.98
390.028	91.13
390.238	82.94
390.447	93.18
390.657	9.22
390.867	140.29
391.076	74.75
391.286	107.52
391.496	101.37
391.705	54.27
391.915	62.46
392.125	70.65
392.334	134.14
392.544	74.75
392.753	146.43
392.963	-11.26
393.172	179.2
393.382	-11.26
393.591	95.23
393.801	107.52
394.01	109.57
394.22	162.81
394.429	113.66
394.639	82.94
394.848	78.85
395.058	168.96
395.267	66.56
395.477	113.66
395.686	138.24
395.895	91.13
396.105	87.04
396.314	93.18
396.524	91.13
396.733	152.57
396.942	103.42
397.152	97.28
397.361	84.99
397.57	136.19
397.78	130.05
397.989	72.7
398.198	160.77
398.407	76.8
398.617	111.61
398.826	173.05
399.035	179.2
399.244	113.66
399.453	113.66
399.663	103.42
399.872	144.38
400.081	62.46
400.29	214.01
400.499	84.99
400.708	138.24
400.917	158.72
401.127	123.9
401.336	128
401.545	111.61
401.754	181.25
401.963	179.2
402.172	109.57
402.381	82.94
402.59	138.24
402.799	138.24
403.008	138.24
403.217	197.63
403.426	224.25
403.635	115.71
403.844	160.77
404.053	93.18
404.262	164.86
404.471	113.66
404.68	230.4
404.888	205.82
405.097	207.87
405.306	175.1
405.515	95.23
405.724	171.01
405.933	257.02
406.142	203.77
406.35	254.97
406.559	171.01
406.768	209.92
406.977	228.35
407.185	285.69
407.394	205.82
407.603	236.54
407.812	246.78
408.02	252.92
408.229	316.41
408.438	275.45
408.646	275.45
408.855	300.03
409.064	318.46
409.272	267.26
409.481	398.33
409.69	295.93
409.898	343.03
410.107	343.03
410.315	369.66
410.524	369.66
410.733	494.58
410.941	381.95
411.15	457.72
411.358	504.82
411.567	441.34
411.775	455.67
411.984	519.16
412.192	562.17
412.401	480.25
412.609	607.22
412.818	582.65
413.026	519.16
413.234	586.74
413.443	648.18
413.651	607.22
413.86	703.48
414.068	756.72
414.276	797.68
414.485	701.43
414.693	674.81
414.901	822.26
415.11	805.88
415.318	846.84
415.526	889.84
415.734	904.18
415.943	957.43
416.151	1061.87
416.359	1016.82
416.567	1065.97
416.776	1057.78
416.984	1158.13
417.192	1098.74
417.4	1145.84
417.608	1160.17
417.817	1211.37
418.025	1319.92
418.233	1319.92
418.441	1285.1
418.649	1514.47
418.857	1571.82
419.065	1377.26
419.273	1410.03
419.481	1526.76
419.689	1772.52
419.897	1823.72
420.105	1747.94
420.313	1833.96
420.521	1911.78
420.729	1881.06
420.937	2020.32
421.145	2155.49
421.353	2184.16
421.561	2298.84
421.769	2278.37
421.977	2286.56
422.185	2442.2
422.393	2468.83
422.601	2753.49
422.809	2579.42
423.017	2804.69
423.224	2825.17
423.432	2909.14
423.64	3003.35
423.848	3189.71
424.056	3091.41
424.263	3316.69
424.471	3261.39
424.679	3353.55
424.887	3736.52
425.094	3670.98
425.302	3851.21
425.51	3716.04
425.718	4004.8
425.925	4006.85
426.133	4088.77
426.341	4428.73
426.548	4668.34
426.756	4455.36
426.964	4920.24
427.171	4940.72
427.379	5192.62
427.586	5180.34
427.794	5288.88
428.001	5667.75
428.209	5884.84
428.417	5596.07
428.624	6245.28
428.832	6226.85
429.039	6048.68
429.247	6114.21
429.454	6667.16
429.662	7179.15
429.869	6697.88
430.076	7168.91
430.284	7152.53
430.491	7269.27
430.699	7535.5
430.906	7508.88
431.114	7732.11
431.321	7945.09
431.528	8289.15
431.736	8618.88
431.943	9288.56
432.15	8876.92
432.358	8960.89
432.565	9354.1
432.772	9229.17
432.979	9952.1
433.187	10103.65
433.394	10105.7
433.601	10842.97
433.808	10603.36
434.016	10627.93
434.223	11211.6
434.43	11883.34
434.637	11836.24
434.844	12286.79
435.052	12366.66
435.259	12573.5
435.466	12761.92
435.673	12841.79
435.88	13353.78
436.087	14101.29
436.294	14002.99
436.501	13785.9
436.708	13996.84
436.915	14345
437.122	15164.18
437.329	14940.96
437.537	15463.19
437.743	15733.52
437.95	15706.9
438.157	16304.9
438.364	16763.65
438.571	16755.46
438.778	16939.77
438.985	18590.44
439.192	17939.18
439.399	18645.73
439.606	17971.95
439.813	19258.07
440.02	20077.26
440.227	19919.57
440.433	19716.82
440.64	20433.61
440.847	20323.02
441.054	20763.33
441.261	22063.79
441.467	21873.33
441.674	22483.62
441.881	23560.86
442.088	22971.04
442.294	22717.09
442.501	23540.38
442.708	23943.83
442.914	25004.67
443.121	25944.69
443.328	25059.97
443.534	26624.62
443.741	26382.96
443.948	25770.61
444.154	27452
444.361	27529.82
444.568	27695.71
444.774	27869.78
444.981	27984.47
445.187	28908.1
445.394	29940.28
445.6	29575.74
445.807	32559.63
446.013	30937.64
446.22	31644.19
446.426	32582.16
446.633	33346.05
446.839	34097.66
447.046	32598.54
447.252	34871.79
447.459	34531.83
447.665	34132.47
447.871	35869.15
448.078	37337.54
448.284	35459.55
448.491	36778.45
448.697	37767.62
448.903	38240.7
449.11	38525.36
449.316	37917.12
449.522	38588.85
449.728	39420.33
449.935	39791.01
450.141	39487.91
450.347	40622.48
450.553	39506.34
450.76	39750.05
450.966	41046.41
451.172	40649.11
451.378	41546.12
451.584	40522.13
451.791	41666.95
451.997	41462.15
452.203	42213.76
452.409	41812.35
452.615	41863.55
452.821	40597.91
453.027	40216.99
453.233	41873.79
453.44	40362.39
453.646	40618.39
453.852	40944.02
454.058	41652.61
454.264	40434.07
454.47	41243.02
454.676	40081.82
454.882	41349.51
455.088	37611.97
455.294	38261.18
455.5	38758.83
455.705	39358.89
455.911	37640.64
456.117	37458.37
456.323	36499.92
456.529	34646.51
456.735	36174.3
456.941	35056.11
457.147	34568.69
457.352	33522.18
457.558	33104.39
457.764	33274.37
457.97	32375.31
458.176	31838.75
458.381	31963.67
458.587	30009.91
458.793	30118.45
458.999	28830.28
459.204	30415.41
459.41	30007.86
459.616	27900.5
459.821	27935.32
460.027	27916.89
460.233	27179.62
460.438	25619.07
460.644	26253.94
460.85	25270.91
461.055	24337.04
461.261	24437.39
461.466	22370.99
461.672	21985.97
461.878	23820.95
462.083	22362.79
462.289	21676.73
462.494	21394.11
462.7	20521.67
462.905	20038.35
463.111	20482.76
463.316	21072.57
463.522	20464.33
463.727	20493
463.932	20488.9
464.138	20073.17
464.343	20286.15
464.549	19546.84
464.754	20312.78
464.959	20212.43
465.165	19747.54
465.37	19114.72
465.575	18911.97
465.781	19544.79
465.986	19262.17
466.191	18787.04
466.397	18735.84
466.602	17443.57
466.807	18309.86
467.012	18268.91
467.218	17994.48
467.423	17793.78
