Data from USB4F104151__81__10-24-16-151.txt Node

Date: Wed Mar 12 10:24:16 EDT 2025
User: louis
Spectrometer: USB4F10415
Trigger mode: 4
Integration Time (sec): 3.000000E-2
Scans to average: 1
Electric dark correction enabled: true
Nonlinearity correction enabled: false
Boxcar width: 0
XAxis mode: Wavelengths
Number of Pixels in Spectrum: 3648
>>>>>Begin Spectral Data<<<<<
178.204	-73.04
178.424	-73.04
178.644	-73.04
178.864	-173.39
179.084	-130.39
179.304	-15.7
179.524	-15.7
179.744	12.97
179.964	0.68
180.184	-1.37
180.404	-40.28
180.624	-23.89
180.844	21.16
181.064	-25.94
181.283	49.83
181.503	-32.08
181.723	70.31
181.943	-11.61
182.163	90.79
182.383	6.83
182.602	41.64
182.822	27.31
183.042	6.83
183.262	80.55
183.482	-32.08
183.701	17.07
183.921	-1.37
184.141	37.55
184.361	107.18
184.58	-9.56
184.8	70.31
185.02	49.83
185.239	15.02
185.459	-9.56
185.679	31.4
185.898	-44.37
186.118	49.83
186.338	58.03
186.557	17.07
186.777	43.69
186.997	-1.37
187.216	4.78
187.436	119.46
187.655	51.88
187.875	-7.51
188.095	66.22
188.314	129.7
188.534	6.83
188.753	76.46
188.973	17.07
189.192	64.17
189.412	72.36
189.631	66.22
189.851	0.68
190.07	39.59
190.29	49.83
190.509	25.26
190.729	-34.13
190.948	47.79
191.168	125.61
191.387	45.74
191.607	37.55
191.826	6.83
192.045	21.16
192.265	37.55
192.484	15.02
192.704	49.83
192.923	-13.65
193.142	98.99
193.362	-9.56
193.581	119.46
193.8	78.51
194.02	58.03
194.239	4.78
194.458	-11.61
194.678	-9.56
194.897	19.11
195.116	-50.52
195.335	0.68
195.555	25.26
195.774	15.02
195.993	-15.7
196.212	68.27
196.432	8.87
196.651	96.94
196.87	-19.8
197.089	62.12
197.308	82.6
197.528	103.08
197.747	41.64
197.966	62.12
198.185	45.74
198.404	33.45
198.623	-40.28
198.842	92.84
199.062	37.55
199.281	123.56
199.5	17.07
199.719	-7.51
199.938	37.55
200.157	70.31
200.376	94.89
200.595	103.08
200.814	-9.56
201.033	25.26
201.252	-15.7
201.471	47.79
201.69	58.03
201.909	-7.51
202.128	-9.56
202.347	47.79
202.566	139.94
202.785	-56.66
203.004	12.97
203.223	92.84
203.442	6.83
203.661	47.79
203.879	53.93
204.098	94.89
204.317	15.02
204.536	105.13
204.755	12.97
204.974	92.84
205.193	-13.65
205.411	82.6
205.63	-44.37
205.849	68.27
206.068	45.74
206.287	82.6
206.505	113.32
206.724	-44.37
206.943	39.59
207.162	23.21
207.381	55.98
207.599	45.74
207.818	45.74
208.037	-1.37
208.255	-23.89
208.474	41.64
208.693	41.64
208.911	-25.94
209.13	37.55
209.349	45.74
209.567	53.93
209.786	115.37
210.005	33.45
210.223	35.5
210.442	-34.13
210.661	45.74
210.879	-21.85
211.098	119.46
211.316	94.89
211.535	43.69
211.753	17.07
211.972	41.64
212.191	8.87
212.409	17.07
212.628	-15.7
212.846	-1.37
213.065	-3.41
213.283	131.75
213.502	-1.37
213.72	17.07
213.938	45.74
214.157	45.74
214.375	-11.61
214.594	8.87
214.812	139.94
215.031	37.55
215.249	15.02
215.467	80.55
215.686	66.22
215.904	47.79
216.122	27.31
216.341	66.22
216.559	82.6
216.778	74.41
216.996	21.16
217.214	45.74
217.432	35.5
217.651	31.4
217.869	41.64
218.087	33.45
218.306	12.97
218.524	60.07
218.742	41.64
218.96	2.73
219.179	25.26
219.397	-38.23
219.615	45.74
219.833	31.4
220.051	98.99
220.27	96.94
220.488	39.59
220.706	47.79
220.924	58.03
221.142	12.97
221.36	17.07
221.578	51.88
221.796	6.83
222.015	58.03
222.233	92.84
222.451	127.66
222.669	-5.46
222.887	45.74
223.105	17.07
223.323	31.4
223.541	70.31
223.759	82.6
223.977	53.93
224.195	98.99
224.413	37.55
224.631	4.78
224.849	58.03
225.067	74.41
225.285	101.03
225.503	41.64
225.721	0.68
225.939	60.07
226.157	19.11
226.375	55.98
226.592	0.68
226.81	105.13
227.028	55.98
227.246	107.18
227.464	43.69
227.682	-15.7
227.9	23.21
228.117	47.79
228.335	27.31
228.553	-34.13
228.771	94.89
228.989	37.55
229.206	82.6
229.424	-23.89
229.642	-7.51
229.86	-52.56
230.077	6.83
230.295	15.02
230.513	49.83
230.731	88.75
230.948	17.07
231.166	0.68
231.384	21.16
231.601	45.74
231.819	92.84
232.037	41.64
232.254	25.26
232.472	103.08
232.689	-13.65
232.907	-1.37
233.125	-23.89
233.342	29.35
233.56	29.35
233.777	-5.46
233.995	0.68
234.213	84.65
234.43	82.6
234.648	17.07
234.865	8.87
235.083	74.41
235.3	68.27
235.518	-60.76
235.735	74.41
235.953	47.79
236.17	53.93
236.388	25.26
236.605	119.46
236.822	2.73
237.04	19.11
237.257	-13.65
237.475	-7.51
237.692	37.55
237.909	115.37
238.127	84.65
238.344	74.41
238.562	35.5
238.779	21.16
238.996	66.22
239.214	98.99
239.431	64.17
239.648	27.31
239.865	117.42
240.083	27.31
240.3	25.26
240.517	4.78
240.735	64.17
240.952	70.31
241.169	23.21
241.386	70.31
241.603	64.17
241.821	-1.37
242.038	-17.75
242.255	55.98
242.472	45.74
242.689	123.56
242.907	27.31
243.124	111.27
243.341	19.11
243.558	84.65
243.775	37.55
243.992	-75.09
244.209	49.83
244.426	144.04
244.643	74.41
244.86	-11.61
245.078	19.11
245.295	70.31
245.512	45.74
245.729	21.16
245.946	72.36
246.163	-56.66
246.38	66.22
246.597	25.26
246.814	45.74
247.031	29.35
247.248	119.46
247.464	25.26
247.681	49.83
247.898	33.45
248.115	62.12
248.332	-15.7
248.549	45.74
248.766	12.97
248.983	41.64
249.2	47.79
249.417	119.46
249.633	39.59
249.85	47.79
250.067	-1.37
250.284	113.32
250.501	115.37
250.717	23.21
250.934	-21.85
251.151	70.31
251.368	-3.41
251.585	17.07
251.801	4.78
252.018	45.74
252.235	43.69
252.451	60.07
252.668	33.45
252.885	33.45
253.102	25.26
253.318	98.99
253.535	15.02
253.752	-15.7
253.968	-3.41
254.185	27.31
254.401	-1.37
254.618	135.85
254.835	47.79
255.051	49.83
255.268	51.88
255.484	51.88
255.701	33.45
255.917	86.7
256.134	19.11
256.351	21.16
256.567	90.79
256.784	31.4
257	27.31
257.217	80.55
257.433	15.02
257.65	115.37
257.866	109.22
258.082	45.74
258.299	66.22
258.515	45.74
258.732	0.68
258.948	2.73
259.165	94.89
259.381	29.35
259.597	-42.32
259.814	101.03
260.03	-42.32
260.246	96.94
260.463	82.6
260.679	29.35
260.895	74.41
261.112	107.18
261.328	45.74
261.544	-9.56
261.761	74.41
261.977	53.93
262.193	-11.61
262.409	98.99
262.626	94.89
262.842	53.93
263.058	-15.7
263.274	49.83
263.49	90.79
263.707	45.74
263.923	107.18
264.139	86.7
264.355	109.22
264.571	47.79
264.787	86.7
265.004	62.12
265.22	31.4
265.436	-50.52
265.652	17.07
265.868	8.87
266.084	62.12
266.3	17.07
266.516	-11.61
266.732	-11.61
266.948	39.59
267.164	-3.41
267.38	68.27
267.596	70.31
267.812	92.84
268.028	10.92
268.244	64.17
268.46	37.55
268.676	37.55
268.892	6.83
269.108	31.4
269.324	68.27
269.54	4.78
269.756	35.5
269.972	-56.66
270.188	58.03
270.403	84.65
270.619	37.55
270.835	131.75
271.051	-19.8
271.267	19.11
271.483	72.36
271.698	-11.61
271.914	37.55
272.13	15.02
272.346	41.64
272.562	64.17
272.777	78.51
272.993	23.21
273.209	41.64
273.425	33.45
273.64	-42.32
273.856	62.12
274.072	15.02
274.287	-9.56
274.503	107.18
274.719	45.74
274.934	-48.47
275.15	15.02
275.366	25.26
275.581	8.87
275.797	10.92
276.012	-11.61
276.228	62.12
276.444	4.78
276.659	62.12
276.875	23.21
277.09	49.83
277.306	47.79
277.521	66.22
277.737	27.31
277.952	51.88
278.168	70.31
278.383	43.69
278.599	-5.46
278.814	0.68
279.03	121.51
279.245	88.75
279.461	150.18
279.676	105.13
279.892	-21.85
280.107	88.75
280.322	-1.37
280.538	-27.99
280.753	49.83
280.969	-48.47
281.184	8.87
281.399	84.65
281.615	90.79
281.83	74.41
282.045	45.74
282.26	37.55
282.476	6.83
282.691	-9.56
282.906	-40.28
283.122	98.99
283.337	25.26
283.552	53.93
283.767	-3.41
283.983	82.6
284.198	37.55
284.413	80.55
284.628	62.12
284.843	45.74
285.058	107.18
285.274	58.03
285.489	33.45
285.704	66.22
285.919	-44.37
286.134	121.51
286.349	86.7
286.564	-11.61
286.779	64.17
286.995	29.35
287.21	39.59
287.425	129.7
287.64	70.31
287.855	21.16
288.07	8.87
288.285	-44.37
288.5	72.36
288.715	115.37
288.93	33.45
289.145	103.08
289.36	107.18
289.575	80.55
289.79	41.64
290.004	96.94
290.219	96.94
290.434	27.31
290.649	55.98
290.864	94.89
291.079	-19.8
291.294	55.98
291.509	17.07
291.724	17.07
291.938	21.16
292.153	49.83
292.368	4.78
292.583	129.7
292.798	-7.51
293.012	21.16
293.227	68.27
293.442	43.69
293.657	72.36
293.871	127.66
294.086	49.83
294.301	125.61
294.516	70.31
294.73	82.6
294.945	58.03
295.16	82.6
295.374	123.56
295.589	72.36
295.804	70.31
296.018	45.74
296.233	29.35
296.447	84.65
296.662	-36.18
296.877	66.22
297.091	88.75
297.306	68.27
297.52	45.74
297.735	107.18
297.949	92.84
298.164	64.17
298.378	96.94
298.593	33.45
298.807	94.89
299.022	33.45
299.236	-5.46
299.451	31.4
299.665	15.02
299.88	80.55
300.094	49.83
300.309	58.03
300.523	43.69
300.737	33.45
300.952	27.31
301.166	47.79
301.381	90.79
301.595	27.31
301.809	86.7
302.024	17.07
302.238	27.31
302.452	76.46
302.667	64.17
302.881	94.89
303.095	74.41
303.309	115.37
303.524	127.66
303.738	47.79
303.952	64.17
304.166	164.52
304.381	-3.41
304.595	131.75
304.809	-15.7
305.023	107.18
305.237	84.65
305.452	78.51
305.666	66.22
305.88	62.12
306.094	49.83
306.308	17.07
306.522	96.94
306.736	37.55
306.95	-1.37
307.164	29.35
307.379	62.12
307.593	135.85
307.807	123.56
308.021	78.51
308.235	84.65
308.449	66.22
308.663	101.03
308.877	86.7
309.091	39.59
309.305	49.83
309.519	-46.42
309.733	37.55
309.947	-36.18
310.161	41.64
310.374	8.87
310.588	41.64
310.802	-15.7
311.016	-32.08
311.23	64.17
311.444	70.31
311.658	27.31
311.872	72.36
312.085	29.35
312.299	64.17
312.513	53.93
312.727	70.31
312.941	8.87
313.154	8.87
313.368	2.73
313.582	-3.41
313.796	-30.04
314.009	49.83
314.223	94.89
314.437	156.33
314.651	88.75
314.864	0.68
315.078	76.46
315.292	62.12
315.505	49.83
315.719	33.45
315.933	37.55
316.146	-36.18
316.36	-21.85
316.573	144.04
316.787	86.7
317.001	90.79
317.214	96.94
317.428	76.46
317.641	-3.41
317.855	70.31
318.068	60.07
318.282	113.32
318.495	123.56
318.709	41.64
318.922	55.98
319.136	148.14
319.349	86.7
319.563	10.92
319.776	2.73
319.99	43.69
320.203	86.7
320.417	80.55
320.63	-15.7
320.843	144.04
321.057	103.08
321.27	72.36
321.483	35.5
321.697	86.7
321.91	10.92
322.124	123.56
322.337	96.94
322.55	70.31
322.763	82.6
322.977	43.69
323.19	6.83
323.403	41.64
323.617	109.22
323.83	43.69
324.043	-11.61
324.256	15.02
324.469	90.79
324.683	107.18
324.896	12.97
325.109	-25.94
325.322	66.22
325.535	35.5
325.748	113.32
325.962	27.31
326.175	135.85
326.388	80.55
326.601	53.93
326.814	31.4
327.027	39.59
327.24	12.97
327.453	68.27
327.666	96.94
327.879	8.87
328.092	55.98
328.305	94.89
328.518	47.79
328.731	17.07
328.944	58.03
329.157	27.31
329.37	-13.65
329.583	82.6
329.796	53.93
330.009	-27.99
330.222	98.99
330.435	41.64
330.648	15.02
330.861	127.66
331.073	25.26
331.286	66.22
331.499	117.42
331.712	15.02
331.925	92.84
332.138	68.27
332.35	72.36
332.563	29.35
332.776	98.99
332.989	66.22
333.202	12.97
333.414	31.4
333.627	66.22
333.84	15.02
334.053	45.74
334.265	98.99
334.478	-7.51
334.691	29.35
334.903	-15.7
335.116	58.03
335.329	68.27
335.541	96.94
335.754	37.55
335.966	90.79
336.179	72.36
336.392	55.98
336.604	41.64
336.817	82.6
337.029	33.45
337.242	109.22
337.454	-7.51
337.667	139.94
337.88	53.93
338.092	86.7
338.305	76.46
338.517	25.26
338.729	19.11
338.942	139.94
339.154	101.03
339.367	80.55
339.579	64.17
339.792	60.07
340.004	107.18
340.217	39.59
340.429	58.03
340.641	-17.75
340.854	10.92
341.066	33.45
341.278	90.79
341.491	107.18
341.703	80.55
341.915	25.26
342.128	33.45
342.34	23.21
342.552	47.79
342.764	70.31
342.977	82.6
343.189	58.03
343.401	-48.47
343.613	55.98
343.826	66.22
344.038	35.5
344.25	62.12
344.462	98.99
344.674	17.07
344.886	45.74
345.099	4.78
345.311	49.83
345.523	78.51
345.735	-9.56
345.947	72.36
346.159	49.83
346.371	49.83
346.583	47.79
346.795	174.76
347.007	37.55
347.219	51.88
347.431	4.78
347.643	90.79
347.855	-15.7
348.067	53.93
348.279	-15.7
348.491	86.7
348.703	39.59
348.915	58.03
349.127	12.97
349.339	4.78
349.551	-15.7
349.763	101.03
349.975	17.07
350.187	49.83
350.399	113.32
350.61	101.03
350.822	41.64
351.034	84.65
351.246	72.36
351.458	84.65
351.669	86.7
351.881	17.07
352.093	74.41
352.305	29.35
352.517	84.65
352.728	107.18
352.94	37.55
353.152	96.94
353.363	23.21
353.575	82.6
353.787	96.94
353.999	39.59
354.21	58.03
354.422	-3.41
354.633	55.98
354.845	55.98
355.057	80.55
355.268	15.02
355.48	47.79
355.692	12.97
355.903	47.79
356.115	58.03
356.326	31.4
356.538	115.37
356.749	76.46
356.961	45.74
357.172	113.32
357.384	51.88
357.595	74.41
357.807	131.75
358.018	49.83
358.23	82.6
358.441	33.45
358.653	92.84
358.864	0.68
359.075	25.26
359.287	33.45
359.498	49.83
359.709	84.65
359.921	117.42
360.132	86.7
360.344	53.93
360.555	51.88
360.766	60.07
360.977	33.45
361.189	125.61
361.4	82.6
361.611	84.65
361.823	41.64
362.034	-7.51
362.245	-15.7
362.456	131.75
362.667	66.22
362.879	78.51
363.09	6.83
363.301	49.83
363.512	23.21
363.723	90.79
363.935	31.4
364.146	86.7
364.357	84.65
364.568	31.4
364.779	19.11
364.99	41.64
365.201	66.22
365.412	121.51
365.623	72.36
365.834	-1.37
366.045	82.6
366.256	21.16
366.467	62.12
366.678	60.07
366.889	-7.51
367.1	51.88
367.311	107.18
367.522	111.27
367.733	45.74
367.944	64.17
368.155	27.31
368.366	33.45
368.577	90.79
368.788	107.18
368.999	58.03
369.209	86.7
369.42	39.59
369.631	172.71
369.842	37.55
370.053	49.83
370.264	92.84
370.474	70.31
370.685	70.31
370.896	23.21
371.107	6.83
371.317	41.64
371.528	58.03
371.739	96.94
371.95	137.9
372.16	41.64
372.371	39.59
372.582	148.14
372.792	98.99
373.003	103.08
373.214	113.32
373.424	60.07
373.635	82.6
373.846	144.04
374.056	66.22
374.267	-7.51
374.477	92.84
374.688	80.55
374.898	84.65
375.109	43.69
375.319	72.36
375.53	86.7
375.74	88.75
375.951	70.31
376.161	49.83
376.372	72.36
376.582	49.83
376.793	51.88
377.003	107.18
377.214	78.51
377.424	98.99
377.635	98.99
377.845	39.59
378.055	25.26
378.266	-1.37
378.476	154.28
378.686	51.88
378.897	33.45
379.107	113.32
379.317	74.41
379.528	49.83
379.738	80.55
379.948	15.02
380.158	62.12
380.369	105.13
380.579	88.75
380.789	21.16
380.999	78.51
381.21	82.6
381.42	70.31
381.63	60.07
381.84	152.23
382.05	8.87
382.261	123.56
382.471	119.46
382.681	19.11
382.891	146.09
383.101	96.94
383.311	-23.89
383.521	64.17
383.731	84.65
383.941	86.7
384.151	39.59
384.361	29.35
384.571	58.03
384.781	86.7
384.991	131.75
385.201	197.29
385.411	80.55
385.621	115.37
385.831	98.99
386.041	103.08
386.251	17.07
386.461	64.17
386.671	45.74
386.881	105.13
387.091	66.22
387.301	41.64
387.511	90.79
387.72	72.36
387.93	70.31
388.14	-3.41
388.35	64.17
388.56	70.31
388.769	111.27
388.979	96.94
389.189	-7.51
389.399	-19.8
389.609	86.7
389.818	107.18
390.028	88.75
390.238	123.56
390.447	86.7
390.657	66.22
390.867	111.27
391.076	103.08
391.286	49.83
391.496	43.69
391.705	82.6
391.915	66.22
392.125	123.56
392.334	131.75
392.544	156.33
392.753	107.18
392.963	51.88
393.172	164.52
393.382	123.56
393.591	141.99
393.801	72.36
394.01	123.56
394.22	76.46
394.429	53.93
394.639	64.17
394.848	121.51
395.058	45.74
395.267	113.32
395.477	158.38
395.686	96.94
395.895	109.22
396.105	178.86
396.314	96.94
396.524	113.32
396.733	86.7
396.942	64.17
397.152	176.81
397.361	262.82
397.57	172.71
397.78	131.75
397.989	156.33
398.198	203.43
398.407	101.03
398.617	111.27
398.826	80.55
399.035	160.42
399.244	146.09
399.453	180.9
399.663	51.88
399.872	146.09
400.081	144.04
400.29	211.62
400.499	86.7
400.708	191.14
400.917	125.61
401.127	107.18
401.336	193.19
401.545	211.62
401.754	199.34
401.963	205.48
402.172	121.51
402.381	107.18
402.59	174.76
402.799	105.13
403.008	203.43
403.217	123.56
403.426	160.42
403.635	146.09
403.844	103.08
404.053	199.34
404.262	185
404.471	164.52
404.68	139.94
404.888	197.29
405.097	74.41
405.306	137.9
405.515	246.44
405.724	144.04
405.933	266.92
406.142	221.86
406.35	127.66
406.559	139.94
406.768	252.58
406.977	205.48
407.185	244.39
407.394	219.82
407.603	254.63
407.812	256.68
408.02	209.58
408.229	246.44
408.438	250.53
408.646	291.49
408.855	264.87
409.064	305.83
409.272	344.74
409.481	342.69
409.69	260.77
409.898	324.26
410.107	375.46
410.315	373.41
410.524	416.42
410.733	408.23
410.941	291.49
411.15	436.9
411.358	395.94
411.567	414.37
411.775	387.75
411.984	418.47
412.192	471.72
412.401	504.48
412.609	541.35
412.818	668.32
413.026	619.17
413.234	578.21
413.443	551.59
413.651	606.88
413.86	627.36
414.068	643.74
414.276	701.09
414.485	740
414.693	744.1
414.901	803.49
415.11	809.63
415.318	793.25
415.526	809.63
415.734	873.12
415.943	860.83
416.151	860.83
416.359	1049.24
416.567	866.97
416.776	1012.38
416.984	1032.86
417.192	1168.02
417.4	1114.78
417.608	1180.31
417.817	1122.97
418.025	1256.09
418.233	1315.48
418.441	1204.89
418.649	1376.92
418.857	1362.58
419.065	1426.07
419.273	1430.16
419.481	1505.94
419.689	1585.81
419.897	1604.24
420.105	1634.96
420.313	1794.7
420.521	1897.1
420.729	1811.09
420.937	1905.29
421.145	1899.15
421.353	2144.91
421.561	2175.63
421.769	2200.2
421.977	2155.15
422.185	2292.36
422.393	2366.09
422.601	2597.51
422.809	2454.15
423.017	2534.02
423.224	2695.81
423.432	2798.21
423.64	2945.66
423.848	2933.37
424.056	3015.29
424.263	3148.41
424.471	3078.78
424.679	3111.55
424.887	3392.12
425.094	3496.57
425.302	3465.85
425.51	3586.68
425.718	3768.95
425.925	3906.16
426.133	3955.31
426.341	4233.83
426.548	4315.75
426.756	4264.55
426.964	4428.39
427.171	4571.75
427.379	4776.55
427.586	4878.94
427.794	4977.25
428.001	5347.93
428.209	5501.53
428.417	5313.11
428.624	5655.12
428.832	5808.72
429.039	5698.13
429.247	5808.72
429.454	6398.54
429.662	6734.4
429.869	6257.23
430.076	6664.77
430.284	6429.26
430.491	6722.12
430.699	7117.37
430.906	7049.79
431.114	7268.92
431.321	7453.24
431.528	7596.6
431.736	8004.14
431.943	8421.93
432.15	8206.89
432.358	8530.47
432.565	8796.71
432.772	8778.28
432.979	9263.65
433.187	9417.24
433.394	9474.59
433.601	9722.39
433.808	10058.26
434.016	10105.36
434.223	10310.16
434.43	10838.53
434.637	10988.03
434.844	11401.72
435.052	11588.09
435.259	11647.48
435.466	12007.92
435.673	11645.43
435.88	12513.77
436.087	13085.15
436.294	13017.57
436.501	12790.25
436.708	13019.62
436.915	13287.9
437.122	14080.47
437.329	13992.41
437.537	14348.75
437.743	14690.76
437.95	14432.72
438.157	15251.91
438.364	15821.24
438.571	15735.23
438.778	15874.49
438.985	17359.27
439.192	16908.71
439.399	17267.11
439.606	16693.68
439.813	17951.13
440.02	19075.46
440.227	18375.06
440.433	18287
440.64	18981.26
440.847	18854.28
441.054	19247.49
441.261	20511.09
441.467	20316.53
441.674	20898.16
441.881	21449.06
442.088	21381.48
442.294	21090.66
442.501	21829.98
442.708	22102.36
442.914	23013.71
443.121	23824.7
443.328	23296.33
443.534	24889.65
443.741	24099.13
443.948	24095.03
444.154	25524.52
444.361	25448.74
444.568	25690.4
444.774	25727.27
444.981	26100
445.187	26603.8
445.394	27986.18
445.6	27660.55
445.807	30130.4
446.013	28543.22
446.22	29481.19
446.426	30195.93
446.633	30693.59
446.839	31682.76
447.046	30146.78
447.252	31693
447.459	31711.43
447.665	32170.18
447.871	33349.81
448.078	34697.37
448.284	32979.12
448.491	33765.54
448.697	35088.53
448.903	35391.63
449.11	35719.31
449.316	35096.72
449.522	35502.22
449.728	37169.27
449.935	37021.81
450.141	36710.52
450.347	37726.32
450.553	36384.9
450.76	36991.09
450.966	38187.11
451.172	37810.28
451.378	38725.72
451.584	37496.94
451.791	38781.02
451.997	38803.55
452.203	39149.65
452.409	39114.84
452.615	38623.33
452.821	37212.27
453.027	37202.03
453.233	39037.01
453.44	37118.07
453.646	37843.05
453.852	37779.56
454.058	38668.38
454.264	36960.37
454.47	37978.22
454.676	37068.92
454.882	38246.5
455.088	34990.23
455.294	35594.38
455.5	35940.49
455.705	36364.42
455.911	35014.8
456.117	34377.89
456.323	33448.11
456.529	31887.56
456.735	33102
456.941	32614.58
457.147	32143.55
457.352	31125.71
457.558	30537.94
457.764	30685.4
457.97	30089.44
458.176	29382.89
458.381	29405.42
458.587	28219.64
458.793	27803.91
458.999	26321.18
459.204	28352.76
459.41	27490.57
459.616	25598.24
459.821	25633.06
460.027	25745.7
460.233	25278.76
460.438	24004.92
460.644	24324.41
460.85	23163.21
461.055	22860.11
461.261	22589.78
461.466	21094.76
461.672	20525.43
461.878	22145.37
462.083	20400.5
462.289	20033.91
462.494	19646.85
462.7	18985.35
462.905	18373.01
463.111	19329.41
463.316	19153.29
463.522	18626.96
463.727	18725.26
463.932	18823.56
464.138	18782.6
464.343	18483.6
464.549	18227.6
464.754	18798.99
464.959	18450.83
465.165	18235.8
465.37	17787.29
465.575	17211.81
465.781	18102.68
465.986	17961.37
466.191	17432.99
466.397	16851.37
466.602	16009.65
466.807	16877.99
