Data from USB4F104151__23__10-21-25-679.txt Node

Date: Wed Mar 12 10:21:25 EDT 2025
User: louis
Spectrometer: USB4F10415
Trigger mode: 4
Integration Time (sec): 3.000000E-2
Scans to average: 1
Electric dark correction enabled: true
Nonlinearity correction enabled: false
Boxcar width: 0
XAxis mode: Wavelengths
Number of Pixels in Spectrum: 3648
>>>>>Begin Spectral Data<<<<<
178.204	-105.64
178.424	-105.64
178.644	-105.64
178.864	-128.17
179.084	-58.54
179.304	-29.87
179.524	11.09
179.744	-3.24
179.964	111.44
180.184	47.96
180.404	-29.87
180.624	-79.02
180.844	23.38
181.064	-36.01
181.283	56.15
181.503	-50.35
181.723	-21.67
181.943	-1.19
182.163	-5.29
182.383	13.14
182.602	7
182.822	64.34
183.042	47.96
183.262	-9.39
183.482	-42.15
183.701	56.15
183.921	-13.48
184.141	50
184.361	31.57
184.58	56.15
184.8	-5.29
185.02	-31.91
185.239	31.57
185.459	-11.43
185.679	105.3
185.898	7
186.118	82.77
186.338	-3.24
186.557	-50.35
186.777	-5.29
186.997	4.95
187.216	7
187.436	113.49
187.655	-21.67
187.875	107.35
188.095	7
188.314	54.1
188.534	13.14
188.753	-40.11
188.973	37.72
189.192	76.63
189.412	23.38
189.631	27.48
189.851	29.52
190.07	60.24
190.29	17.24
190.509	37.72
190.729	-21.67
190.948	60.24
191.168	127.83
191.387	84.82
191.607	-33.96
191.826	27.48
192.045	-40.11
192.265	50
192.484	82.77
192.704	-13.48
192.923	0.85
193.142	21.33
193.362	56.15
193.581	64.34
193.8	0.85
194.02	25.43
194.239	-62.63
194.458	31.57
194.678	7
194.897	29.52
195.116	-25.77
195.335	31.57
195.555	11.09
195.774	-19.63
195.993	4.95
196.212	17.24
196.432	-21.67
196.651	35.67
196.87	27.48
197.089	52.05
197.308	-7.34
197.528	-11.43
197.747	-11.43
197.966	-42.15
198.185	123.73
198.404	15.19
198.623	19.29
198.842	76.63
199.062	35.67
199.281	31.57
199.5	-72.87
199.719	66.39
199.938	7
200.157	35.67
200.376	29.52
200.595	-1.19
200.814	-25.77
201.033	-5.29
201.252	-11.43
201.471	66.39
201.69	64.34
201.909	19.29
202.128	45.91
202.347	64.34
202.566	-42.15
202.785	58.2
203.004	-76.97
203.223	107.35
203.442	66.39
203.661	-40.11
203.879	39.76
204.098	47.96
204.317	-33.96
204.536	41.81
204.755	17.24
204.974	4.95
205.193	117.59
205.411	80.72
205.63	-38.06
205.849	11.09
206.068	19.29
206.287	-83.11
206.505	117.59
206.724	21.33
206.943	31.57
207.162	58.2
207.381	68.44
207.599	15.19
207.818	15.19
208.037	21.33
208.255	39.76
208.474	88.92
208.693	23.38
208.911	21.33
209.13	23.38
209.349	-27.82
209.567	-9.39
209.786	47.96
210.005	31.57
210.223	-9.39
210.442	-66.73
210.661	39.76
210.879	21.33
211.098	-1.19
211.316	-9.39
211.535	23.38
211.753	52.05
211.972	43.86
212.191	-17.58
212.409	23.38
212.628	68.44
212.846	27.48
213.065	76.63
213.283	-1.19
213.502	56.15
213.72	0.85
213.938	47.96
214.157	4.95
214.375	15.19
214.594	-13.48
214.812	78.68
215.031	50
215.249	7
215.467	9.05
215.686	43.86
215.904	52.05
216.122	-66.73
216.341	-9.39
216.559	82.77
216.778	35.67
216.996	2.9
217.214	-9.39
217.432	54.1
217.651	31.57
217.869	43.86
218.087	-70.83
218.306	-3.24
218.524	101.2
218.742	15.19
218.96	80.72
219.179	23.38
219.397	76.63
219.615	29.52
219.833	64.34
220.051	39.76
220.27	29.52
220.488	64.34
220.706	64.34
220.924	21.33
221.142	23.38
221.36	39.76
221.578	27.48
221.796	4.95
222.015	27.48
222.233	52.05
222.451	31.57
222.669	-17.58
222.887	29.52
223.105	7
223.323	-5.29
223.541	11.09
223.759	31.57
223.977	43.86
224.195	0.85
224.413	-15.53
224.631	58.2
224.849	-5.29
225.067	54.1
225.285	-9.39
225.503	-33.96
225.721	-9.39
225.939	111.44
226.157	70.48
226.375	101.2
226.592	39.76
226.81	-17.58
227.028	31.57
227.246	74.58
227.464	-25.77
227.682	47.96
227.9	56.15
228.117	-9.39
228.335	47.96
228.553	58.2
228.771	11.09
228.989	41.81
229.206	25.43
229.424	15.19
229.642	47.96
229.86	9.05
230.077	41.81
230.295	0.85
230.513	11.09
230.731	111.44
230.948	62.29
231.166	97.11
231.384	84.82
231.601	-70.83
231.819	45.91
232.037	56.15
232.254	93.01
232.472	29.52
232.689	-66.73
232.907	-46.25
233.125	7
233.342	76.63
233.56	56.15
233.777	45.91
233.995	23.38
234.213	82.77
234.43	64.34
234.648	31.57
234.865	-25.77
235.083	2.9
235.3	47.96
235.518	97.11
235.735	47.96
235.953	33.62
236.17	23.38
236.388	-5.29
236.605	4.95
236.822	41.81
237.04	7
237.257	47.96
237.475	31.57
237.692	29.52
237.909	45.91
238.127	-29.87
238.344	-1.19
238.562	15.19
238.779	-21.67
238.996	-17.58
239.214	119.64
239.431	39.76
239.648	21.33
239.865	103.25
240.083	60.24
240.3	13.14
240.517	15.19
240.735	-13.48
240.952	105.3
241.169	31.57
241.386	68.44
241.603	-1.19
241.821	47.96
242.038	74.58
242.255	33.62
242.472	50
242.689	37.72
242.907	19.29
243.124	95.06
243.341	-25.77
243.558	68.44
243.775	9.05
243.992	-29.87
244.209	52.05
244.426	27.48
244.643	82.77
244.86	84.82
245.078	88.92
245.295	11.09
245.512	29.52
245.729	-107.69
245.946	37.72
246.163	39.76
246.38	76.63
246.597	39.76
246.814	43.86
247.031	15.19
247.248	29.52
247.464	47.96
247.681	62.29
247.898	-46.25
248.115	29.52
248.332	23.38
248.549	35.67
248.766	27.48
248.983	56.15
249.2	-68.78
249.417	4.95
249.633	47.96
249.85	43.86
250.067	54.1
250.284	2.9
250.501	7
250.717	11.09
250.934	31.57
251.151	80.72
251.368	27.48
251.585	19.29
251.801	9.05
252.018	76.63
252.235	-21.67
252.451	-1.19
252.668	56.15
252.885	-23.72
253.102	2.9
253.318	31.57
253.535	50
253.752	15.19
253.968	95.06
254.185	54.1
254.401	0.85
254.618	29.52
254.835	88.92
255.051	119.64
255.268	0.85
255.484	56.15
255.701	7
255.917	11.09
256.134	7
256.351	-17.58
256.567	-42.15
256.784	121.68
257	-29.87
257.217	99.16
257.433	-15.53
257.65	4.95
257.866	21.33
258.082	47.96
258.299	9.05
258.515	33.62
258.732	11.09
258.948	13.14
259.165	19.29
259.381	-15.53
259.597	45.91
259.814	-9.39
260.03	56.15
260.246	-3.24
260.463	21.33
260.679	138.07
260.895	9.05
261.112	33.62
261.328	-29.87
261.544	39.76
261.761	97.11
261.977	4.95
262.193	62.29
262.409	60.24
262.626	4.95
262.842	41.81
263.058	-23.72
263.274	31.57
263.49	-3.24
263.707	15.19
263.923	72.53
264.139	15.19
264.355	-1.19
264.571	7
264.787	-17.58
265.004	47.96
265.22	70.48
265.436	101.2
265.652	47.96
265.868	29.52
266.084	2.9
266.3	4.95
266.516	-3.24
266.732	64.34
266.948	21.33
267.164	50
267.38	7
267.596	78.68
267.812	-1.19
268.028	95.06
268.244	13.14
268.46	15.19
268.676	-13.48
268.892	15.19
269.108	62.29
269.324	4.95
269.54	21.33
269.756	111.44
269.972	-9.39
270.188	62.29
270.403	-27.82
270.619	15.19
270.835	39.76
271.051	-54.44
271.267	29.52
271.483	64.34
271.698	23.38
271.914	90.96
272.13	11.09
272.346	-42.15
272.562	23.38
272.777	93.01
272.993	82.77
273.209	37.72
273.425	64.34
273.64	19.29
273.856	131.92
274.072	21.33
274.287	15.19
274.503	2.9
274.719	43.86
274.934	35.67
275.15	62.29
275.366	50
275.581	31.57
275.797	31.57
276.012	-21.67
276.228	-3.24
276.444	15.19
276.659	7
276.875	7
277.09	35.67
277.306	2.9
277.521	56.15
277.737	72.53
277.952	80.72
278.168	80.72
278.383	-56.49
278.599	-25.77
278.814	-36.01
279.03	-17.58
279.245	138.07
279.461	11.09
279.676	-3.24
279.892	43.86
280.107	-27.82
280.322	-1.19
280.538	86.87
280.753	27.48
280.969	45.91
281.184	80.72
281.399	4.95
281.615	33.62
281.83	13.14
282.045	-85.16
282.26	39.76
282.476	17.24
282.691	-1.19
282.906	-56.49
283.122	72.53
283.337	-38.06
283.552	2.9
283.767	-42.15
283.983	41.81
284.198	99.16
284.413	13.14
284.628	56.15
284.843	-9.39
285.058	52.05
285.274	27.48
285.489	15.19
285.704	33.62
285.919	-42.15
286.134	39.76
286.349	93.01
286.564	31.57
286.779	70.48
286.995	-38.06
287.21	-9.39
287.425	-25.77
287.64	-54.44
287.855	88.92
288.07	13.14
288.285	72.53
288.5	111.44
288.715	23.38
288.93	33.62
289.145	-17.58
289.36	-25.77
289.575	-36.01
289.79	35.67
290.004	62.29
290.219	-38.06
290.434	56.15
290.649	-3.24
290.864	54.1
291.079	-1.19
291.294	43.86
291.509	56.15
291.724	47.96
291.938	45.91
292.153	58.2
292.368	13.14
292.583	-25.77
292.798	119.64
293.012	58.2
293.227	41.81
293.442	50
293.657	-1.19
293.871	21.33
294.086	4.95
294.301	31.57
294.516	-11.43
294.73	60.24
294.945	-1.19
295.16	27.48
295.374	62.29
295.589	19.29
295.804	41.81
296.018	31.57
296.233	56.15
296.447	-23.72
296.662	27.48
296.877	-42.15
297.091	17.24
297.306	74.58
297.52	-72.87
297.735	27.48
297.949	70.48
298.164	15.19
298.378	-25.77
298.593	47.96
298.807	-46.25
299.022	4.95
299.236	25.43
299.451	-5.29
299.665	-33.96
299.88	99.16
300.094	-5.29
300.309	-9.39
300.523	27.48
300.737	72.53
300.952	78.68
301.166	78.68
301.381	-15.53
301.595	-19.63
301.809	31.57
302.024	-48.3
302.238	29.52
302.452	29.52
302.667	47.96
302.881	52.05
303.095	23.38
303.309	56.15
303.524	-33.96
303.738	-11.43
303.952	-27.82
304.166	37.72
304.381	64.34
304.595	52.05
304.809	45.91
305.023	2.9
305.237	15.19
305.452	-44.2
305.666	64.34
305.88	90.96
306.094	35.67
306.308	-3.24
306.522	9.05
306.736	133.97
306.95	33.62
307.164	80.72
307.379	54.1
307.593	60.24
307.807	21.33
308.021	111.44
308.235	56.15
308.449	-21.67
308.663	47.96
308.877	66.39
309.091	95.06
309.305	29.52
309.519	-23.72
309.733	4.95
309.947	-5.29
310.161	45.91
310.374	93.01
310.588	4.95
310.802	29.52
311.016	-7.34
311.23	21.33
311.444	31.57
311.658	15.19
311.872	62.29
312.085	33.62
312.299	72.53
312.513	21.33
312.727	25.43
312.941	-15.53
313.154	45.91
313.368	11.09
313.582	37.72
313.796	68.44
314.009	23.38
314.223	84.82
314.437	111.44
314.651	64.34
314.864	76.63
315.078	47.96
315.292	29.52
315.505	19.29
315.719	-15.53
315.933	43.86
316.146	58.2
316.36	2.9
316.573	62.29
316.787	72.53
317.001	62.29
317.214	31.57
317.428	68.44
317.641	29.52
317.855	15.19
318.068	-11.43
318.282	62.29
318.495	60.24
318.709	72.53
318.922	-29.87
319.136	109.4
319.349	101.2
319.563	74.58
319.776	25.43
319.99	13.14
320.203	-3.24
320.417	64.34
320.63	60.24
320.843	7
321.057	25.43
321.27	54.1
321.483	60.24
321.697	41.81
321.91	-13.48
322.124	-5.29
322.337	101.2
322.55	27.48
322.763	84.82
322.977	7
323.19	-19.63
323.403	54.1
323.617	82.77
323.83	80.72
324.043	86.87
324.256	37.72
324.469	21.33
324.683	66.39
324.896	15.19
325.109	15.19
325.322	-42.15
325.535	27.48
325.748	64.34
325.962	-9.39
326.175	-5.29
326.388	2.9
326.601	88.92
326.814	37.72
327.027	33.62
327.24	131.92
327.453	45.91
327.666	41.81
327.879	47.96
328.092	62.29
328.305	68.44
328.518	11.09
328.731	58.2
328.944	45.91
329.157	11.09
329.37	25.43
329.583	88.92
329.796	-17.58
330.009	41.81
330.222	29.52
330.435	-23.72
330.648	23.38
330.861	64.34
331.073	52.05
331.286	27.48
331.499	56.15
331.712	-91.31
331.925	70.48
332.138	-5.29
332.35	88.92
332.563	-50.35
332.776	27.48
332.989	47.96
333.202	11.09
333.414	-38.06
333.627	39.76
333.84	41.81
334.053	-9.39
334.265	-7.34
334.478	84.82
334.691	62.29
334.903	68.44
335.116	62.29
335.329	64.34
335.541	72.53
335.754	74.58
335.966	-3.24
336.179	64.34
336.392	66.39
336.604	37.72
336.817	37.72
337.029	74.58
337.242	47.96
337.454	35.67
337.667	-5.29
337.88	50
338.092	13.14
338.305	-1.19
338.517	45.91
338.729	129.88
338.942	-11.43
339.154	62.29
339.367	-17.58
339.579	13.14
339.792	2.9
340.004	31.57
340.217	70.48
340.429	41.81
340.641	101.2
340.854	-19.63
341.066	-7.34
341.278	58.2
341.491	41.81
341.703	-7.34
341.915	-64.68
342.128	64.34
342.34	-50.35
342.552	72.53
342.764	-3.24
342.977	82.77
343.189	60.24
343.401	64.34
343.613	45.91
343.826	-7.34
344.038	-1.19
344.25	72.53
344.462	0.85
344.674	21.33
344.886	117.59
345.099	86.87
345.311	25.43
345.523	86.87
345.735	37.72
345.947	56.15
346.159	64.34
346.371	7
346.583	62.29
346.795	54.1
347.007	41.81
347.219	33.62
347.431	72.53
347.643	105.3
347.855	-46.25
348.067	101.2
348.279	-31.91
348.491	35.67
348.703	93.01
348.915	-15.53
349.127	-3.24
349.339	41.81
349.551	43.86
349.763	37.72
349.975	15.19
350.187	-19.63
350.399	123.73
350.61	101.2
350.822	23.38
351.034	154.45
351.246	-9.39
351.458	29.52
351.669	39.76
351.881	68.44
352.093	15.19
352.305	56.15
352.517	82.77
352.728	99.16
352.94	121.68
353.152	19.29
353.363	54.1
353.575	47.96
353.787	101.2
353.999	35.67
354.21	2.9
354.422	-3.24
354.633	60.24
354.845	43.86
355.057	107.35
355.268	31.57
355.48	80.72
355.692	45.91
355.903	99.16
356.115	58.2
356.326	29.52
356.538	82.77
356.749	72.53
356.961	47.96
357.172	60.24
357.384	35.67
357.595	152.4
357.807	62.29
358.018	88.92
358.23	50
358.441	109.4
358.653	43.86
358.864	25.43
359.075	31.57
359.287	47.96
359.498	80.72
359.709	41.81
359.921	95.06
360.132	13.14
360.344	43.86
360.555	2.9
360.766	70.48
360.977	119.64
361.189	78.68
361.4	-1.19
361.611	29.52
361.823	54.1
362.034	84.82
362.245	-97.45
362.456	123.73
362.667	113.49
362.879	80.72
363.09	-9.39
363.301	47.96
363.512	86.87
363.723	84.82
363.935	23.38
364.146	31.57
364.357	62.29
364.568	103.25
364.779	-13.48
364.99	72.53
365.201	17.24
365.412	172.88
365.623	47.96
365.834	68.44
366.045	70.48
366.256	33.62
366.467	15.19
366.678	33.62
366.889	-9.39
367.1	9.05
367.311	39.76
367.522	-21.67
367.733	80.72
367.944	103.25
368.155	23.38
368.366	109.4
368.577	99.16
368.788	97.11
368.999	78.68
369.209	119.64
369.42	70.48
369.631	37.72
369.842	-15.53
370.053	-3.24
370.264	29.52
370.474	2.9
370.685	103.25
370.896	-13.48
371.107	7
371.317	99.16
371.528	-1.19
371.739	131.92
371.95	7
372.16	17.24
372.371	35.67
372.582	31.57
372.792	66.39
373.003	-15.53
373.214	54.1
373.424	72.53
373.635	17.24
373.846	15.19
374.056	7
374.267	52.05
374.477	35.67
374.688	74.58
374.898	129.88
375.109	84.82
375.319	60.24
375.53	19.29
375.74	88.92
375.951	93.01
376.161	23.38
376.372	19.29
376.582	17.24
376.793	125.78
377.003	25.43
377.214	27.48
377.424	88.92
377.635	80.72
377.845	45.91
378.055	-7.34
378.266	-1.19
378.476	-29.87
378.686	19.29
378.897	39.76
379.107	56.15
379.317	93.01
379.528	31.57
379.738	37.72
379.948	11.09
380.158	82.77
380.369	119.64
380.579	95.06
380.789	62.29
380.999	41.81
381.21	56.15
381.42	84.82
381.63	23.38
381.84	86.87
382.05	68.44
382.261	138.07
382.471	39.76
382.681	52.05
382.891	27.48
383.101	31.57
383.311	54.1
383.521	88.92
383.731	68.44
383.941	109.4
384.151	72.53
384.361	86.87
384.571	127.83
384.781	70.48
384.991	148.31
385.201	97.11
385.411	131.92
385.621	68.44
385.831	25.43
386.041	-3.24
386.251	117.59
386.461	74.58
386.671	11.09
386.881	41.81
387.091	47.96
387.301	7
387.511	70.48
387.72	37.72
387.93	31.57
388.14	31.57
388.35	72.53
388.56	72.53
388.769	88.92
388.979	4.95
389.189	39.76
389.399	43.86
389.609	86.87
389.818	156.5
390.028	74.58
390.238	84.82
390.447	27.48
390.657	142.16
390.867	80.72
391.076	-7.34
391.286	115.54
391.496	43.86
391.705	60.24
391.915	125.78
392.125	86.87
392.334	119.64
392.544	103.25
392.753	86.87
392.963	54.1
393.172	60.24
393.382	76.63
393.591	80.72
393.801	133.97
394.01	111.44
394.22	88.92
394.429	35.67
394.639	129.88
394.848	62.29
395.058	60.24
395.267	76.63
395.477	64.34
395.686	111.44
395.895	160.59
396.105	68.44
396.314	121.68
396.524	76.63
396.733	86.87
396.942	156.5
397.152	72.53
397.361	31.57
397.57	97.11
397.78	115.54
397.989	78.68
398.198	185.17
398.407	129.88
398.617	158.55
398.826	129.88
399.035	138.07
399.244	88.92
399.453	47.96
399.663	162.64
399.872	154.45
400.081	95.06
400.29	207.7
400.499	103.25
400.708	105.3
400.917	90.96
401.127	174.93
401.336	78.68
401.545	240.47
401.754	133.97
401.963	246.61
402.172	47.96
402.381	162.64
402.59	164.69
402.799	144.21
403.008	82.77
403.217	129.88
403.426	111.44
403.635	97.11
403.844	156.5
404.053	152.4
404.262	162.64
404.471	158.55
404.68	174.93
404.888	129.88
405.097	95.06
405.306	111.44
405.515	201.55
405.724	199.51
405.933	230.23
406.142	146.26
406.35	154.45
406.559	201.55
406.768	224.08
406.977	248.66
407.185	146.26
407.394	195.41
407.603	224.08
407.812	215.89
408.02	224.08
408.229	211.79
408.438	281.43
408.646	195.41
408.855	260.95
409.064	353.1
409.272	293.71
409.481	269.14
409.69	248.66
409.898	334.67
410.107	306
410.315	389.97
410.524	330.58
410.733	363.34
410.941	392.02
411.15	435.02
411.358	428.88
411.567	496.46
411.775	500.56
411.984	453.45
412.192	475.98
412.401	529.23
412.609	547.66
412.818	662.35
413.026	584.52
413.234	664.4
413.443	537.42
413.651	541.52
413.86	643.92
414.068	709.45
414.276	678.73
414.485	691.02
414.693	670.54
414.901	840.52
415.11	725.83
415.318	713.55
415.526	881.48
415.734	844.62
415.943	916.3
416.151	998.21
416.359	912.2
416.567	1018.69
416.776	940.87
416.984	1172.29
417.192	1045.32
417.4	1110.85
417.608	1106.76
417.817	1190.72
418.025	1203.01
418.233	1399.62
418.441	1207.11
418.649	1307.46
418.857	1381.18
419.065	1426.24
419.273	1430.34
419.481	1502.01
419.689	1747.77
419.897	1624.89
420.105	1758.01
420.313	1737.53
420.521	1817.4
420.729	1813.31
420.937	1919.8
421.145	1964.86
421.353	2040.63
421.561	2218.8
421.769	2280.24
421.977	2249.52
422.185	2364.21
422.393	2558.77
422.601	2591.53
422.809	2603.82
423.017	2612.01
423.224	2714.41
423.432	2835.24
423.64	2853.67
423.848	3134.25
424.056	2919.21
424.263	3273.51
424.471	3173.16
424.679	3265.32
424.887	3588.89
425.094	3738.4
425.302	3517.22
425.51	3746.59
425.718	3932.95
425.925	3898.14
426.133	4037.4
426.341	4324.12
426.548	4369.17
426.756	4438.8
426.964	4408.08
427.171	4840.2
427.379	4944.65
427.586	4938.51
427.794	5061.38
428.001	5362.44
428.209	5612.29
428.417	5585.66
428.624	5815.04
428.832	5944.06
429.039	5960.44
429.247	5661.44
429.454	6470.39
429.662	6867.69
429.869	6507.25
430.076	6912.75
430.284	6515.44
430.491	6933.23
430.699	7324.39
430.906	7346.92
431.114	7342.82
431.321	7707.36
431.528	7852.77
431.736	8473.3
431.943	8952.52
432.15	8485.59
432.358	8512.21
432.565	9286.34
432.772	9030.35
432.979	9648.83
433.187	10007.23
433.394	9575.11
433.601	10314.42
433.808	10279.61
434.016	10359.48
434.223	10775.22
434.43	11528.87
434.637	11156.14
434.844	11846.3
435.052	12216.99
435.259	11989.66
435.466	12315.29
435.673	11848.35
435.88	13011.6
436.087	13353.61
436.294	13290.12
436.501	13187.72
436.708	13392.52
436.915	13908.61
437.122	14533.24
437.329	14346.87
437.537	14873.2
437.743	15280.75
437.95	15037.04
438.157	16052.83
438.364	16511.58
438.571	16515.67
438.778	16411.23
438.985	18145.86
439.192	17209.93
439.399	18004.55
439.606	17465.93
439.813	18485.82
440.02	19350.06
440.227	19421.74
440.433	18930.23
440.64	19687.98
440.847	19192.37
441.054	19956.26
441.261	21305.87
441.467	21289.49
441.674	21608.97
441.881	22247.94
442.088	22123.01
442.294	21803.53
442.501	22635
442.708	22948.34
442.914	24011.24
443.121	24867.29
443.328	24265.19
443.534	25981.38
443.741	25002.46
443.948	25127.38
444.154	26868.16
444.361	26288.58
444.568	26780.09
444.774	26374.59
444.981	26847.68
445.187	27537.84
445.394	28885.4
445.6	28500.39
445.807	31154.55
446.013	29821.33
446.22	30448
446.426	31613.3
446.633	31707.51
446.839	32733.54
447.046	31369.59
447.252	33055.07
447.459	33130.84
447.665	32975.2
447.871	34568.52
448.078	35817.78
448.284	34111.82
448.491	34976.06
448.697	36593.96
448.903	37075.23
449.11	36923.68
449.316	35860.79
449.522	37177.63
449.728	38142.22
449.935	38093.07
450.141	37953.81
450.347	38926.6
450.553	37697.81
450.76	38199.57
450.966	38981.89
451.172	39092.48
451.378	39387.39
451.584	39125.25
451.791	39622.9
451.997	39530.75
452.203	40470.76
452.409	40157.42
452.615	40231.15
452.821	38555.91
453.027	37824.79
453.233	39710.97
453.44	38557.96
453.646	38766.85
453.852	39043.33
454.058	39581.95
454.264	38318.35
454.47	39196.93
454.676	38263.05
454.882	39106.82
455.088	35610.93
455.294	36188.46
455.5	36806.95
455.705	37269.79
455.911	35877.17
456.117	35471.67
456.323	34398.54
456.529	32473.45
456.735	33892.69
456.941	33112.41
457.147	32661.86
457.352	31762.8
457.558	30853.5
457.764	31314.3
457.97	30687.62
458.176	30083.47
458.381	29864.33
458.587	28477.86
458.793	28518.82
458.999	27271.61
459.204	28783.01
459.41	27804.08
459.616	26462.66
459.821	26479.04
460.027	26397.12
460.233	25784.78
460.438	24388.07
460.644	24719.84
460.85	23658.99
461.055	23032.31
461.261	23331.31
461.466	21764.62
461.672	20791.83
461.878	22553.09
462.083	20894.23
462.289	20808.22
462.494	20118.05
462.7	19505.71
462.905	18930.23
463.111	19710.5
463.316	19550.76
463.522	19515.95
463.727	19438.12
463.932	19165.74
464.138	19124.79
464.343	19315.25
464.549	18500.16
464.754	19333.68
464.959	19212.85
465.165	18905.65
465.37	18287.17
465.575	17703.5
465.781	18555.45
465.986	18709.05
466.191	17769.03
466.397	17635.91
466.602	16634.46
466.807	17445.45
467.012	17158.74
467.218	17234.51
467.423	16859.73
467.628	17218.13
467.833	18102.85
468.038	17123.92
