Data from USB4F104151__135__10-25-47-100.txt Node

Date: Wed Mar 12 10:25:47 EDT 2025
User: louis
Spectrometer: USB4F10415
Trigger mode: 4
Integration Time (sec): 3.000000E-2
Scans to average: 1
Electric dark correction enabled: true
Nonlinearity correction enabled: false
Boxcar width: 0
XAxis mode: Wavelengths
Number of Pixels in Spectrum: 3648
>>>>>Begin Spectral Data<<<<<
178.204	-91.99
178.424	-91.99
178.644	-91.99
178.864	-157.52
179.084	-34.64
179.304	-16.21
179.524	-14.17
179.744	43.18
179.964	53.42
180.184	-32.6
180.404	22.7
180.624	37.03
180.844	-18.26
181.064	-85.84
181.283	-28.5
181.503	16.55
181.723	22.7
181.943	-53.08
182.163	24.75
182.383	47.27
182.602	57.51
182.822	86.19
183.042	34.99
183.262	14.51
183.482	-89.94
183.701	30.89
183.921	-22.36
184.141	57.51
184.361	2.22
184.58	12.46
184.8	26.79
185.02	49.32
185.239	28.84
185.459	-36.69
185.679	37.03
185.898	-16.21
186.118	-1.88
186.338	14.51
186.557	-18.26
186.777	106.67
186.997	28.84
187.216	-14.17
187.436	106.67
187.655	82.09
187.875	0.17
188.095	20.65
188.314	112.81
188.534	71.85
188.753	10.41
188.973	37.03
189.192	45.23
189.412	65.71
189.631	0.17
189.851	28.84
190.07	63.66
190.29	14.51
190.509	20.65
190.729	-1.88
190.948	55.47
191.168	121
191.387	20.65
191.607	-1.88
191.826	90.28
192.045	0.17
192.265	4.27
192.484	55.47
192.704	-1.88
192.923	18.6
193.142	75.95
193.362	59.56
193.581	4.27
193.8	0.17
194.02	26.79
194.239	47.27
194.458	39.08
194.678	-46.93
194.897	80.04
195.116	-38.74
195.335	102.57
195.555	-32.6
195.774	41.13
195.993	43.18
196.212	2.22
196.432	-12.12
196.651	47.27
196.87	10.41
197.089	82.09
197.308	73.9
197.528	65.71
197.747	-44.88
197.966	8.36
198.185	26.79
198.404	-44.88
198.623	-36.69
198.842	61.61
199.062	127.14
199.281	61.61
199.5	-18.26
199.719	-40.79
199.938	67.75
200.157	-5.97
200.376	69.8
200.595	65.71
200.814	51.37
201.033	-81.75
201.252	110.76
201.471	49.32
201.69	-8.02
201.909	28.84
202.128	41.13
202.347	10.41
202.566	2.22
202.785	-96.08
203.004	12.46
203.223	155.82
203.442	0.17
203.661	32.94
203.879	-3.93
204.098	32.94
204.317	22.7
204.536	47.27
204.755	67.75
204.974	12.46
205.193	57.51
205.411	108.71
205.63	-34.64
205.849	86.19
206.068	45.23
206.287	53.42
206.505	-3.93
206.724	41.13
206.943	-1.88
207.162	34.99
207.381	8.36
207.599	-59.22
207.818	8.36
208.037	49.32
208.255	37.03
208.474	0.17
208.693	71.85
208.911	-10.07
209.13	49.32
209.349	-57.17
209.567	28.84
209.786	37.03
210.005	12.46
210.223	55.47
210.442	-48.98
210.661	30.89
210.879	47.27
211.098	10.41
211.316	-51.03
211.535	43.18
211.753	-3.93
211.972	-28.5
212.191	-12.12
212.409	20.65
212.628	59.56
212.846	63.66
213.065	14.51
213.283	30.89
213.502	-38.74
213.72	-28.5
213.938	86.19
214.157	0.17
214.375	139.43
214.594	16.55
214.812	32.94
215.031	41.13
215.249	51.37
215.467	67.75
215.686	-30.55
215.904	39.08
216.122	0.17
216.341	86.19
216.559	-16.21
216.778	24.75
216.996	34.99
217.214	-32.6
217.432	20.65
217.651	98.47
217.869	14.51
218.087	32.94
218.306	-24.4
218.524	53.42
218.742	-34.64
218.96	12.46
219.179	57.51
219.397	16.55
219.615	71.85
219.833	4.27
220.051	-112.47
220.27	24.75
220.488	88.23
220.706	14.51
220.924	-12.12
221.142	41.13
221.36	39.08
221.578	45.23
221.796	-1.88
222.015	-40.79
222.233	55.47
222.451	114.86
222.669	65.71
222.887	6.31
223.105	16.55
223.323	43.18
223.541	43.18
223.759	59.56
223.977	2.22
224.195	20.65
224.413	24.75
224.631	16.55
224.849	-16.21
225.067	2.22
225.285	73.9
225.503	-12.12
225.721	-36.69
225.939	37.03
226.157	47.27
226.375	164.01
226.592	24.75
226.81	-10.07
227.028	-32.6
227.246	63.66
227.464	0.17
227.682	-16.21
227.9	-8.02
228.117	77.99
228.335	-12.12
228.553	73.9
228.771	22.7
228.989	57.51
229.206	114.86
229.424	6.31
229.642	32.94
229.86	28.84
230.077	86.19
230.295	32.94
230.513	32.94
230.731	73.9
230.948	84.14
231.166	114.86
231.384	37.03
231.601	2.22
231.819	86.19
232.037	22.7
232.254	24.75
232.472	-32.6
232.689	67.75
232.907	30.89
233.125	10.41
233.342	63.66
233.56	-22.36
233.777	65.71
233.995	59.56
234.213	164.01
234.43	88.23
234.648	24.75
234.865	39.08
235.083	41.13
235.3	-10.07
235.518	-10.07
235.735	53.42
235.953	67.75
236.17	10.41
236.388	18.6
236.605	-20.31
236.822	104.62
237.04	-18.26
237.257	6.31
237.475	8.36
237.692	14.51
237.909	75.95
238.127	69.8
238.344	24.75
238.562	82.09
238.779	-5.97
238.996	20.65
239.214	26.79
239.431	22.7
239.648	-16.21
239.865	6.31
240.083	24.75
240.3	65.71
240.517	28.84
240.735	28.84
240.952	55.47
241.169	24.75
241.386	73.9
241.603	18.6
241.821	10.41
242.038	104.62
242.255	39.08
242.472	12.46
242.689	41.13
242.907	63.66
243.124	24.75
243.341	-18.26
243.558	-57.17
243.775	22.7
243.992	-12.12
244.209	-8.02
244.426	-12.12
244.643	104.62
244.86	-20.31
245.078	6.31
245.295	26.79
245.512	45.23
245.729	16.55
245.946	51.37
246.163	45.23
246.38	20.65
246.597	55.47
246.814	-3.93
247.031	37.03
247.248	-14.17
247.464	34.99
247.681	30.89
247.898	4.27
248.115	12.46
248.332	59.56
248.549	69.8
248.766	65.71
248.983	14.51
249.2	37.03
249.417	24.75
249.633	45.23
249.85	12.46
250.067	-10.07
250.284	-10.07
250.501	8.36
250.717	-32.6
250.934	-16.21
251.151	18.6
251.368	55.47
251.585	86.19
251.801	-24.4
252.018	-1.88
252.235	2.22
252.451	73.9
252.668	-81.75
252.885	8.36
253.102	-8.02
253.318	-18.26
253.535	-8.02
253.752	32.94
253.968	-12.12
254.185	16.55
254.401	-28.5
254.618	20.65
254.835	-1.88
255.051	102.57
255.268	43.18
255.484	18.6
255.701	-10.07
255.917	57.51
256.134	77.99
256.351	61.61
256.567	49.32
256.784	90.28
257	-3.93
257.217	69.8
257.433	75.95
257.65	18.6
257.866	-20.31
258.082	18.6
258.299	24.75
258.515	-20.31
258.732	84.14
258.948	-32.6
259.165	2.22
259.381	71.85
259.597	14.51
259.814	22.7
260.03	73.9
260.246	41.13
260.463	18.6
260.679	43.18
260.895	24.75
261.112	51.37
261.328	49.32
261.544	67.75
261.761	73.9
261.977	80.04
262.193	-40.79
262.409	55.47
262.626	86.19
262.842	-28.5
263.058	4.27
263.274	71.85
263.49	-22.36
263.707	-24.4
263.923	-16.21
264.139	22.7
264.355	18.6
264.571	55.47
264.787	14.51
265.004	69.8
265.22	6.31
265.436	16.55
265.652	41.13
265.868	49.32
266.084	43.18
266.3	106.67
266.516	-10.07
266.732	-48.98
266.948	47.27
267.164	24.75
267.38	4.27
267.596	-1.88
267.812	121
268.028	-24.4
268.244	0.17
268.46	14.51
268.676	37.03
268.892	67.75
269.108	22.7
269.324	-10.07
269.54	-32.6
269.756	16.55
269.972	-59.22
270.188	73.9
270.403	-20.31
270.619	55.47
270.835	6.31
271.051	53.42
271.267	114.86
271.483	-34.64
271.698	129.19
271.914	-10.07
272.13	57.51
272.346	-20.31
272.562	-10.07
272.777	104.62
272.993	41.13
273.209	67.75
273.425	37.03
273.64	43.18
273.856	22.7
274.072	43.18
274.287	-5.97
274.503	12.46
274.719	49.32
274.934	37.03
275.15	-8.02
275.366	4.27
275.581	53.42
275.797	8.36
276.012	0.17
276.228	67.75
276.444	-10.07
276.659	90.28
276.875	-16.21
277.09	-1.88
277.306	8.36
277.521	8.36
277.737	22.7
277.952	-30.55
278.168	-1.88
278.383	30.89
278.599	41.13
278.814	30.89
279.03	37.03
279.245	88.23
279.461	37.03
279.676	71.85
279.892	-18.26
280.107	-8.02
280.322	-32.6
280.538	61.61
280.753	45.23
280.969	51.37
281.184	-44.88
281.399	34.99
281.615	37.03
281.83	41.13
282.045	16.55
282.26	-36.69
282.476	30.89
282.691	20.65
282.906	-67.41
283.122	53.42
283.337	45.23
283.552	6.31
283.767	26.79
283.983	43.18
284.198	-63.32
284.413	24.75
284.628	-42.84
284.843	28.84
285.058	34.99
285.274	-20.31
285.489	-18.26
285.704	100.52
285.919	-57.17
286.134	16.55
286.349	-40.79
286.564	-14.17
286.779	57.51
286.995	41.13
287.21	6.31
287.425	51.37
287.64	-30.55
287.855	45.23
288.07	6.31
288.285	90.28
288.5	39.08
288.715	28.84
288.93	0.17
289.145	24.75
289.36	49.32
289.575	-8.02
289.79	-8.02
290.004	-28.5
290.219	82.09
290.434	12.46
290.649	30.89
290.864	24.75
291.079	82.09
291.294	34.99
291.509	-1.88
291.724	65.71
291.938	65.71
292.153	61.61
292.368	57.51
292.583	12.46
292.798	75.95
293.012	86.19
293.227	80.04
293.442	82.09
293.657	-18.26
293.871	67.75
294.086	-12.12
294.301	71.85
294.516	65.71
294.73	41.13
294.945	65.71
295.16	26.79
295.374	41.13
295.589	143.53
295.804	-18.26
296.018	20.65
296.233	30.89
296.447	47.27
296.662	-24.4
296.877	0.17
297.091	55.47
297.306	-32.6
297.52	2.22
297.735	-10.07
297.949	98.47
298.164	51.37
298.378	49.32
298.593	37.03
298.807	-22.36
299.022	32.94
299.236	51.37
299.451	-10.07
299.665	32.94
299.88	47.27
300.094	43.18
300.309	12.46
300.523	114.86
300.737	-3.93
300.952	2.22
301.166	49.32
301.381	45.23
301.595	-10.07
301.809	86.19
302.024	0.17
302.238	14.51
302.452	34.99
302.667	-8.02
302.881	80.04
303.095	-28.5
303.309	-10.07
303.524	34.99
303.738	4.27
303.952	2.22
304.166	-24.4
304.381	-20.31
304.595	65.71
304.809	8.36
305.023	32.94
305.237	-51.03
305.452	-8.02
305.666	16.55
305.88	82.09
306.094	67.75
306.308	-12.12
306.522	26.79
306.736	37.03
306.95	100.52
307.164	8.36
307.379	-71.51
307.593	145.58
307.807	98.47
308.021	20.65
308.235	53.42
308.449	59.56
308.663	0.17
308.877	65.71
309.091	-24.4
309.305	116.9
309.519	30.89
309.733	16.55
309.947	4.27
310.161	20.65
310.374	10.41
310.588	34.99
310.802	-16.21
311.016	-8.02
311.23	6.31
311.444	69.8
311.658	61.61
311.872	129.19
312.085	69.8
312.299	133.29
312.513	4.27
312.727	67.75
312.941	24.75
313.154	53.42
313.368	43.18
313.582	41.13
313.796	45.23
314.009	-14.17
314.223	-16.21
314.437	57.51
314.651	-14.17
314.864	63.66
315.078	22.7
315.292	32.94
315.505	6.31
315.719	49.32
315.933	53.42
316.146	37.03
316.36	-14.17
316.573	16.55
316.787	41.13
317.001	94.38
317.214	55.47
317.428	-30.55
317.641	20.65
317.855	26.79
318.068	57.51
318.282	102.57
318.495	77.99
318.709	28.84
318.922	8.36
319.136	67.75
319.349	16.55
319.563	34.99
319.776	71.85
319.99	-18.26
320.203	39.08
320.417	34.99
320.63	53.42
320.843	84.14
321.057	12.46
321.27	53.42
321.483	26.79
321.697	67.75
321.91	-12.12
322.124	-1.88
322.337	47.27
322.55	0.17
322.763	-1.88
322.977	43.18
323.19	-34.64
323.403	43.18
323.617	41.13
323.83	47.27
324.043	63.66
324.256	28.84
324.469	41.13
324.683	96.43
324.896	45.23
325.109	47.27
325.322	24.75
325.535	108.71
325.748	16.55
325.962	-10.07
326.175	51.37
326.388	73.9
326.601	-5.97
326.814	112.81
327.027	65.71
327.24	57.51
327.453	-32.6
327.666	-8.02
327.879	71.85
328.092	61.61
328.305	-12.12
328.518	8.36
328.731	-1.88
328.944	108.71
329.157	82.09
329.37	24.75
329.583	65.71
329.796	104.62
330.009	-61.27
330.222	16.55
330.435	108.71
330.648	57.51
330.861	8.36
331.073	59.56
331.286	123.05
331.499	41.13
331.712	-32.6
331.925	39.08
332.138	41.13
332.35	104.62
332.563	45.23
332.776	49.32
332.989	0.17
333.202	-3.93
333.414	37.03
333.627	59.56
333.84	-16.21
334.053	2.22
334.265	-32.6
334.478	30.89
334.691	-32.6
334.903	41.13
335.116	-30.55
335.329	4.27
335.541	37.03
335.754	112.81
335.966	-18.26
336.179	30.89
336.392	90.28
336.604	14.51
336.817	53.42
337.029	65.71
337.242	71.85
337.454	6.31
337.667	30.89
337.88	129.19
338.092	10.41
338.305	49.32
338.517	4.27
338.729	75.95
338.942	69.8
339.154	-8.02
339.367	47.27
339.579	24.75
339.792	-8.02
340.004	32.94
340.217	39.08
340.429	47.27
340.641	-3.93
340.854	6.31
341.066	24.75
341.278	104.62
341.491	55.47
341.703	32.94
341.915	0.17
342.128	71.85
342.34	-8.02
342.552	-20.31
342.764	43.18
342.977	39.08
343.189	20.65
343.401	65.71
343.613	-30.55
343.826	69.8
344.038	8.36
344.25	41.13
344.462	16.55
344.674	77.99
344.886	28.84
345.099	-26.45
345.311	8.36
345.523	88.23
345.735	16.55
345.947	49.32
346.159	65.71
346.371	47.27
346.583	20.65
346.795	131.24
347.007	32.94
347.219	0.17
347.431	41.13
347.643	16.55
347.855	-42.84
348.067	69.8
348.279	37.03
348.491	139.43
348.703	-18.26
348.915	61.61
349.127	71.85
349.339	37.03
349.551	6.31
349.763	30.89
349.975	45.23
350.187	14.51
350.399	92.33
350.61	16.55
350.822	47.27
351.034	39.08
351.246	-16.21
351.458	-1.88
351.669	110.76
351.881	65.71
352.093	-36.69
352.305	102.57
352.517	82.09
352.728	67.75
352.94	69.8
353.152	129.19
353.363	43.18
353.575	0.17
353.787	75.95
353.999	16.55
354.21	88.23
354.422	10.41
354.633	16.55
354.845	82.09
355.057	-12.12
355.268	69.8
355.48	4.27
355.692	-14.17
355.903	-40.79
356.115	4.27
356.326	39.08
356.538	69.8
356.749	61.61
356.961	47.27
357.172	16.55
357.384	37.03
357.595	32.94
357.807	28.84
358.018	-3.93
358.23	32.94
358.441	24.75
358.653	63.66
358.864	0.17
359.075	0.17
359.287	43.18
359.498	37.03
359.709	80.04
359.921	61.61
360.132	65.71
360.344	-8.02
360.555	2.22
360.766	69.8
360.977	8.36
361.189	30.89
361.4	47.27
361.611	88.23
361.823	39.08
362.034	69.8
362.245	-40.79
362.456	-22.36
362.667	57.51
362.879	43.18
363.09	37.03
363.301	86.19
363.512	45.23
363.723	96.43
363.935	45.23
364.146	4.27
364.357	6.31
364.568	49.32
364.779	-1.88
364.99	121
365.201	-44.88
365.412	37.03
365.623	-61.27
365.834	2.22
366.045	-18.26
366.256	94.38
366.467	98.47
366.678	-28.5
366.889	20.65
367.1	49.32
367.311	6.31
367.522	2.22
367.733	-44.88
367.944	4.27
368.155	47.27
368.366	67.75
368.577	53.42
368.788	86.19
368.999	24.75
369.209	32.94
369.42	82.09
369.631	121
369.842	82.09
370.053	16.55
370.264	37.03
370.474	49.32
370.685	16.55
370.896	-32.6
371.107	34.99
371.317	49.32
371.528	-3.93
371.739	98.47
371.95	63.66
372.16	14.51
372.371	61.61
372.582	26.79
372.792	63.66
373.003	26.79
373.214	45.23
373.424	-30.55
373.635	20.65
373.846	94.38
374.056	61.61
374.267	69.8
374.477	71.85
374.688	32.94
374.898	84.14
375.109	123.05
375.319	86.19
375.53	32.94
375.74	-12.12
375.951	2.22
376.161	28.84
376.372	100.52
376.582	12.46
376.793	123.05
377.003	65.71
377.214	59.56
377.424	-24.4
377.635	16.55
377.845	34.99
378.055	131.24
378.266	41.13
378.476	20.65
378.686	30.89
378.897	80.04
379.107	86.19
379.317	65.71
379.528	8.36
379.738	92.33
379.948	41.13
380.158	61.61
380.369	53.42
380.579	92.33
380.789	8.36
380.999	4.27
381.21	73.9
381.42	98.47
381.63	32.94
381.84	65.71
382.05	114.86
382.261	73.9
382.471	92.33
382.681	49.32
382.891	139.43
383.101	-5.97
383.311	112.81
383.521	59.56
383.731	2.22
383.941	86.19
384.151	65.71
384.361	37.03
384.571	73.9
384.781	53.42
384.991	10.41
385.201	80.04
385.411	43.18
385.621	73.9
385.831	6.31
386.041	123.05
386.251	100.52
386.461	77.99
386.671	16.55
386.881	98.47
387.091	53.42
387.301	30.89
387.511	24.75
387.72	4.27
387.93	37.03
388.14	32.94
388.35	-5.97
388.56	121
388.769	41.13
388.979	53.42
389.189	43.18
389.399	82.09
389.609	41.13
389.818	32.94
390.028	90.28
390.238	18.6
390.447	100.52
390.657	90.28
390.867	90.28
391.076	65.71
391.286	0.17
391.496	118.95
391.705	18.6
391.915	32.94
392.125	61.61
392.334	102.57
392.544	82.09
392.753	39.08
392.963	-14.17
393.172	22.7
393.382	22.7
393.591	94.38
393.801	71.85
394.01	80.04
394.22	96.43
394.429	61.61
394.639	8.36
394.848	96.43
395.058	49.32
395.267	121
395.477	24.75
395.686	88.23
395.895	133.29
396.105	100.52
396.314	69.8
396.524	51.37
396.733	69.8
396.942	121
397.152	102.57
397.361	104.62
397.57	92.33
397.78	63.66
397.989	82.09
398.198	209.06
398.407	135.34
398.617	90.28
398.826	67.75
399.035	88.23
399.244	39.08
399.453	88.23
399.663	65.71
399.872	18.6
400.081	49.32
400.29	110.76
400.499	106.67
400.708	106.67
400.917	100.52
401.127	94.38
401.336	92.33
401.545	106.67
401.754	123.05
401.963	182.44
402.172	106.67
402.381	69.8
402.59	114.86
402.799	135.34
403.008	155.82
403.217	114.86
403.426	96.43
403.635	45.23
403.844	155.82
404.053	84.14
404.262	53.42
404.471	174.25
404.68	73.9
404.888	135.34
405.097	139.43
405.306	84.14
405.515	151.72
405.724	174.25
405.933	229.54
406.142	133.29
406.35	192.68
406.559	192.68
406.768	153.77
406.977	231.59
407.185	204.97
407.394	174.25
407.603	204.97
407.812	190.63
408.02	245.93
408.229	184.49
408.438	188.58
408.646	223.4
408.855	247.97
409.064	256.17
409.272	303.27
409.481	268.45
409.69	286.89
409.898	213.16
410.107	336.04
410.315	362.66
410.524	290.98
410.733	401.57
410.941	290.98
411.15	463.01
411.358	344.23
411.567	342.18
411.775	385.19
411.984	440.48
412.192	487.59
412.401	448.68
412.609	514.21
412.818	463.01
413.026	520.35
413.234	557.22
413.443	497.83
413.651	485.54
413.86	569.51
414.068	651.42
414.276	592.03
414.485	659.62
414.693	540.83
414.901	657.57
415.11	643.23
415.318	632.99
415.526	729.25
415.734	774.3
415.943	798.88
416.151	807.07
416.359	749.73
416.567	882.85
416.776	860.32
416.984	878.75
417.192	958.62
417.4	1022.11
417.608	950.43
417.817	1093.79
418.025	972.96
418.233	1185.94
418.441	1099.93
418.649	1077.4
418.857	1300.63
419.065	1325.21
419.273	1276.06
419.481	1388.69
419.689	1450.13
419.897	1505.43
420.105	1519.76
420.313	1515.67
420.521	1677.46
420.729	1656.98
420.937	1566.87
421.145	1912.97
421.353	1945.74
421.561	1892.49
421.769	1941.65
421.977	1882.25
422.185	2091.15
422.393	2119.82
422.601	2259.08
422.809	2203.79
423.017	2177.16
423.224	2398.34
423.432	2580.61
423.64	2521.22
423.848	2742.4
424.056	2588.8
424.263	2805.89
424.471	2818.18
424.679	2930.81
424.887	3072.12
425.094	3125.37
425.302	3031.16
425.51	3158.14
425.718	3375.22
425.925	3356.79
426.133	3571.83
426.341	3706.99
426.548	3799.15
426.756	3752.05
426.964	4008.05
427.171	4102.25
427.379	4186.22
427.586	4321.38
427.794	4391.02
428.001	4806.75
428.209	4698.21
428.417	4595.81
428.624	5156.96
428.832	5056.61
429.039	4968.54
429.247	5054.56
429.454	5533.78
429.662	5791.83
429.869	5589.08
430.076	5941.33
430.284	5820.5
430.491	5986.38
430.699	6602.82
430.906	6426.7
431.114	6441.03
431.321	6713.41
431.528	6770.76
431.736	7149.63
431.943	7569.46
432.15	7346.23
432.358	7395.39
432.565	7698.49
432.772	7909.43
432.979	8157.23
433.187	8286.25
433.394	8304.68
433.601	9087.01
433.808	9105.44
434.016	8771.62
434.223	9154.59
434.43	9738.26
434.637	9527.32
434.844	10199.06
435.052	10493.96
435.259	10340.36
435.466	10524.68
435.673	10125.33
435.88	11026.43
436.087	11546.62
436.294	11632.63
436.501	11229.18
436.708	11630.59
436.915	11857.91
437.122	12560.36
437.329	12623.85
437.537	12642.28
437.743	13197.28
437.95	12967.91
438.157	13504.48
438.364	14118.87
438.571	14161.87
438.778	14092.24
438.985	15536.06
439.192	14884.81
439.399	15267.78
439.606	15081.41
439.813	15716.28
440.02	16846.76
440.227	16320.43
440.433	16111.54
440.64	16824.23
440.847	16695.21
441.054	17129.38
441.261	18225.04
441.467	18016.15
441.674	18409.36
441.881	19011.46
442.088	19175.3
442.294	18380.69
442.501	19148.68
442.708	19734.4
442.914	20576.11
443.121	21405.54
443.328	20760.43
443.534	22161.24
443.741	21507.94
443.948	21116.78
444.154	22996.81
444.361	22349.65
444.568	23007.05
444.774	22845.26
444.981	23123.79
445.187	23328.58
445.394	24600.37
445.6	24465.21
445.807	26879.76
446.013	25612.07
446.22	26298.14
446.426	26840.85
446.633	27422.47
446.839	28002.05
447.046	27107.09
447.252	28540.66
447.459	28178.17
447.665	28493.56
447.871	29521.64
448.078	30736.09
448.284	28937.97
448.491	29765.35
448.697	31188.69
448.903	31717.06
449.11	31653.58
449.316	30987.99
449.522	31692.49
449.728	32810.68
449.935	32628.41
450.141	32812.73
450.347	33461.93
450.553	32370.36
450.76	32925.36
450.966	34043.56
451.172	33560.23
451.378	34014.88
451.584	33711.78
451.791	34236.06
451.997	34172.58
452.203	34762.39
452.409	34684.57
452.615	34588.31
452.821	33255.09
453.027	32868.02
453.233	34582.17
453.44	33099.44
453.646	33621.67
453.852	33687.21
454.058	34088.61
454.264	32689.85
454.47	33828.52
454.676	32919.22
454.882	34137.76
455.088	31188.69
455.294	31192.78
455.5	31645.38
455.705	32200.38
455.911	30703.32
456.117	30242.53
456.323	29796.07
456.529	28575.48
456.735	29150.96
456.941	28438.26
457.147	27924.22
457.352	27268.87
457.558	26957.58
457.764	27047.69
457.97	26314.52
458.176	25730.85
458.381	26162.97
458.587	24844.08
458.793	24428.34
458.999	23318.34
459.204	25157.42
459.41	23930.69
459.616	22826.83
459.821	22624.08
460.027	22572.88
460.233	22200.15
460.438	21079.91
460.644	21641.06
460.85	20279.16
461.055	20244.34
461.261	19982.2
461.466	18495.38
461.672	17727.39
461.878	19242.89
462.083	17934.23
462.289	17612.7
462.494	17588.13
462.7	16512.94
462.905	16254.9
463.111	16838.57
463.316	16785.32
463.522	16482.22
463.727	16504.75
463.932	16424.88
464.138	16478.13
464.343	16420.78
464.549	15970.23
464.754	16572.33
464.959	16328.63
465.165	16097.21
465.37	15435.71
465.575	14893
465.781	15665.08
465.986	15812.54
466.191	15251.39
466.397	14852.04
466.602	14327.76
466.807	14890.95
467.012	14632.91
467.218	14712.78
467.423	14444.49
