Data from USB4F104151__58__10-23-53-047.txt Node

Date: Wed Mar 12 10:23:53 EDT 2025
User: louis
Spectrometer: USB4F10415
Trigger mode: 4
Integration Time (sec): 3.000000E-2
Scans to average: 1
Electric dark correction enabled: true
Nonlinearity correction enabled: false
Boxcar width: 0
XAxis mode: Wavelengths
Number of Pixels in Spectrum: 3648
>>>>>Begin Spectral Data<<<<<
178.204	-87.55
178.424	-87.55
178.644	-87.55
178.864	-116.22
179.084	-67.07
179.304	-17.92
179.524	-73.21
179.744	37.38
179.964	59.9
180.184	-46.59
180.404	25.09
180.624	-40.45
180.844	-22.02
181.064	-5.63
181.283	8.7
181.503	31.23
181.723	43.52
181.943	66.05
182.163	57.86
182.383	27.14
182.602	51.71
182.822	43.52
183.042	27.14
183.262	39.42
183.482	6.66
183.701	10.75
183.921	131.58
184.141	2.56
184.361	27.14
184.58	-26.11
184.8	-3.58
185.02	64
185.239	66.05
185.459	-3.58
185.679	92.67
185.898	35.33
186.118	-22.02
186.338	33.28
186.557	90.62
186.777	47.62
186.997	-40.45
187.216	39.42
187.436	72.19
187.655	-22.02
187.875	68.09
188.095	-13.82
188.314	90.62
188.534	59.9
188.753	45.57
188.973	61.95
189.192	35.33
189.412	41.47
189.631	76.29
189.851	23.04
190.07	35.33
190.29	16.9
190.509	10.75
190.729	49.66
190.948	49.66
191.168	109.05
191.387	-5.63
191.607	45.57
191.826	135.68
192.045	27.14
192.265	57.86
192.484	25.09
192.704	43.52
192.923	-46.59
193.142	158.21
193.362	43.52
193.581	68.09
193.8	12.8
194.02	66.05
194.239	23.04
194.458	66.05
194.678	6.66
194.897	84.48
195.116	10.75
195.335	76.29
195.555	41.47
195.774	16.9
195.993	10.75
196.212	10.75
196.432	64
196.651	47.62
196.87	-5.63
197.089	125.44
197.308	98.81
197.528	92.67
197.747	72.19
197.966	61.95
198.185	76.29
198.404	18.94
198.623	20.99
198.842	111.1
199.062	135.68
199.281	70.14
199.5	43.52
199.719	47.62
199.938	53.76
200.157	90.62
200.376	16.9
200.595	4.61
200.814	29.18
201.033	70.14
201.252	20.99
201.471	31.23
201.69	84.48
201.909	51.71
202.128	39.42
202.347	74.24
202.566	98.81
202.785	102.91
203.004	14.85
203.223	64
203.442	49.66
203.661	-15.87
203.879	51.71
204.098	76.29
204.317	45.57
204.536	109.05
204.755	25.09
204.974	23.04
205.193	16.9
205.411	121.34
205.63	-17.92
205.849	74.24
206.068	4.61
206.287	72.19
206.505	74.24
206.724	6.66
206.943	66.05
207.162	10.75
207.381	90.62
207.599	61.95
207.818	43.52
208.037	-11.78
208.255	86.53
208.474	82.43
208.693	8.7
208.911	117.25
209.13	20.99
209.349	53.76
209.567	0.51
209.786	74.24
210.005	20.99
210.223	35.33
210.442	-11.78
210.661	59.9
210.879	-9.73
211.098	35.33
211.316	-5.63
211.535	51.71
211.753	-11.78
211.972	53.76
212.191	57.86
212.409	8.7
212.628	27.14
212.846	68.09
213.065	82.43
213.283	109.05
213.502	64
213.72	82.43
213.938	47.62
214.157	-38.4
214.375	10.75
214.594	45.57
214.812	113.15
215.031	6.66
215.249	23.04
215.467	16.9
215.686	94.72
215.904	-7.68
216.122	35.33
216.341	-11.78
216.559	41.47
216.778	6.66
216.996	57.86
217.214	68.09
217.432	-30.21
217.651	61.95
217.869	55.81
218.087	31.23
218.306	23.04
218.524	70.14
218.742	84.48
218.96	68.09
219.179	27.14
219.397	90.62
219.615	166.4
219.833	35.33
220.051	2.56
220.27	51.71
220.488	72.19
220.706	68.09
220.924	20.99
221.142	74.24
221.36	-17.92
221.578	53.76
221.796	-1.54
222.015	16.9
222.233	68.09
222.451	90.62
222.669	41.47
222.887	53.76
223.105	57.86
223.323	53.76
223.541	-36.35
223.759	23.04
223.977	37.38
224.195	166.4
224.413	27.14
224.631	57.86
224.849	45.57
225.067	80.38
225.285	102.91
225.503	18.94
225.721	47.62
225.939	0.51
226.157	66.05
226.375	133.63
226.592	27.14
226.81	82.43
227.028	35.33
227.246	29.18
227.464	10.75
227.682	25.09
227.9	29.18
228.117	137.73
228.335	-1.54
228.553	-9.73
228.771	-13.82
228.989	-7.68
229.206	84.48
229.424	68.09
229.642	72.19
229.86	-79.36
230.077	76.29
230.295	35.33
230.513	96.77
230.731	84.48
230.948	76.29
231.166	-17.92
231.384	23.04
231.601	-26.11
231.819	88.57
232.037	29.18
232.254	74.24
232.472	76.29
232.689	-42.5
232.907	88.57
233.125	41.47
233.342	86.53
233.56	10.75
233.777	47.62
233.995	35.33
234.213	152.06
234.43	92.67
234.648	70.14
234.865	35.33
235.083	47.62
235.3	64
235.518	66.05
235.735	2.56
235.953	84.48
236.17	45.57
236.388	68.09
236.605	-5.63
236.822	43.52
237.04	43.52
237.257	49.66
237.475	59.9
237.692	66.05
237.909	-15.87
238.127	68.09
238.344	45.57
238.562	10.75
238.779	-5.63
238.996	8.7
239.214	31.23
239.431	-13.82
239.648	43.52
239.865	88.57
240.083	25.09
240.3	27.14
240.517	18.94
240.735	74.24
240.952	2.56
241.169	86.53
241.386	25.09
241.603	88.57
241.821	-19.97
242.038	14.85
242.255	-7.68
242.472	29.18
242.689	84.48
242.907	33.28
243.124	78.33
243.341	82.43
243.558	33.28
243.775	-9.73
243.992	4.61
244.209	100.86
244.426	72.19
244.643	20.99
244.86	61.95
245.078	23.04
245.295	51.71
245.512	27.14
245.729	12.8
245.946	80.38
246.163	92.67
246.38	111.1
246.597	43.52
246.814	27.14
247.031	-1.54
247.248	43.52
247.464	92.67
247.681	64
247.898	74.24
248.115	84.48
248.332	68.09
248.549	68.09
248.766	57.86
248.983	53.76
249.2	-13.82
249.417	49.66
249.633	68.09
249.85	2.56
250.067	2.56
250.284	0.51
250.501	20.99
250.717	117.25
250.934	23.04
251.151	43.52
251.368	84.48
251.585	2.56
251.801	45.57
252.018	72.19
252.235	37.38
252.451	59.9
252.668	-28.16
252.885	64
253.102	100.86
253.318	64
253.535	16.9
253.752	25.09
253.968	-1.54
254.185	51.71
254.401	-13.82
254.618	59.9
254.835	80.38
255.051	61.95
255.268	66.05
255.484	31.23
255.701	68.09
255.917	47.62
256.134	-3.58
256.351	16.9
256.567	41.47
256.784	59.9
257	31.23
257.217	53.76
257.433	61.95
257.65	31.23
257.866	68.09
258.082	41.47
258.299	-11.78
258.515	-26.11
258.732	29.18
258.948	4.61
259.165	12.8
259.381	-50.69
259.597	72.19
259.814	23.04
260.03	27.14
260.246	41.47
260.463	33.28
260.679	96.77
260.895	70.14
261.112	107.01
261.328	33.28
261.544	53.76
261.761	-11.78
261.977	49.66
262.193	76.29
262.409	64
262.626	2.56
262.842	39.42
263.058	8.7
263.274	104.96
263.49	18.94
263.707	27.14
263.923	43.52
264.139	27.14
264.355	43.52
264.571	109.05
264.787	20.99
265.004	2.56
265.22	-26.11
265.436	78.33
265.652	100.86
265.868	43.52
266.084	18.94
266.3	82.43
266.516	12.8
266.732	27.14
266.948	84.48
267.164	20.99
267.38	51.71
267.596	94.72
267.812	31.23
268.028	31.23
268.244	4.61
268.46	94.72
268.676	51.71
268.892	10.75
269.108	53.76
269.324	-54.78
269.54	-22.02
269.756	129.53
269.972	2.56
270.188	66.05
270.403	43.52
270.619	35.33
270.835	31.23
271.051	8.7
271.267	23.04
271.483	59.9
271.698	109.05
271.914	64
272.13	68.09
272.346	61.95
272.562	98.81
272.777	14.85
272.993	61.95
273.209	39.42
273.425	100.86
273.64	115.2
273.856	66.05
274.072	0.51
274.287	84.48
274.503	104.96
274.719	47.62
274.934	80.38
275.15	-9.73
275.366	35.33
275.581	6.66
275.797	64
276.012	102.91
276.228	-9.73
276.444	57.86
276.659	39.42
276.875	10.75
277.09	94.72
277.306	-3.58
277.521	51.71
277.737	72.19
277.952	100.86
278.168	23.04
278.383	86.53
278.599	41.47
278.814	61.95
279.03	41.47
279.245	37.38
279.461	51.71
279.676	123.39
279.892	-13.82
280.107	14.85
280.322	14.85
280.538	145.92
280.753	53.76
280.969	90.62
281.184	31.23
281.399	94.72
281.615	35.33
281.83	80.38
282.045	72.19
282.26	-13.82
282.476	123.39
282.691	14.85
282.906	43.52
283.122	59.9
283.337	47.62
283.552	141.82
283.767	35.33
283.983	-13.82
284.198	-28.16
284.413	74.24
284.628	-26.11
284.843	72.19
285.058	27.14
285.274	47.62
285.489	-13.82
285.704	61.95
285.919	35.33
286.134	66.05
286.349	104.96
286.564	49.66
286.779	115.2
286.995	-7.68
287.21	14.85
287.425	115.2
287.64	35.33
287.855	25.09
288.07	27.14
288.285	143.87
288.5	59.9
288.715	27.14
288.93	14.85
289.145	-24.06
289.36	66.05
289.575	2.56
289.79	82.43
290.004	43.52
290.219	53.76
290.434	20.99
290.649	23.04
290.864	49.66
291.079	10.75
291.294	80.38
291.509	51.71
291.724	72.19
291.938	25.09
292.153	66.05
292.368	72.19
292.583	154.11
292.798	61.95
293.012	88.57
293.227	27.14
293.442	72.19
293.657	82.43
293.871	88.57
294.086	76.29
294.301	113.15
294.516	16.9
294.73	57.86
294.945	16.9
295.16	76.29
295.374	84.48
295.589	66.05
295.804	16.9
296.018	84.48
296.233	18.94
296.447	82.43
296.662	53.76
296.877	57.86
297.091	84.48
297.306	49.66
297.52	37.38
297.735	145.92
297.949	39.42
298.164	102.91
298.378	49.66
298.593	64
298.807	20.99
299.022	131.58
299.236	47.62
299.451	35.33
299.665	84.48
299.88	131.58
300.094	37.38
300.309	2.56
300.523	49.66
300.737	123.39
300.952	82.43
301.166	84.48
301.381	25.09
301.595	10.75
301.809	18.94
302.024	53.76
302.238	8.7
302.452	170.49
302.667	29.18
302.881	68.09
303.095	59.9
303.309	37.38
303.524	96.77
303.738	90.62
303.952	14.85
304.166	135.68
304.381	25.09
304.595	92.67
304.809	66.05
305.023	84.48
305.237	18.94
305.452	18.94
305.666	23.04
305.88	68.09
306.094	57.86
306.308	94.72
306.522	45.57
306.736	117.25
306.95	84.48
307.164	14.85
307.379	14.85
307.593	66.05
307.807	125.44
308.021	111.1
308.235	55.81
308.449	18.94
308.663	57.86
308.877	64
309.091	14.85
309.305	45.57
309.519	25.09
309.733	39.42
309.947	37.38
310.161	39.42
310.374	59.9
310.588	23.04
310.802	-5.63
311.016	18.94
311.23	115.2
311.444	8.7
311.658	43.52
311.872	61.95
312.085	14.85
312.299	10.75
312.513	68.09
312.727	18.94
312.941	-17.92
313.154	59.9
313.368	64
313.582	-3.58
313.796	-17.92
314.009	113.15
314.223	10.75
314.437	57.86
314.651	76.29
314.864	76.29
315.078	90.62
315.292	72.19
315.505	23.04
315.719	-5.63
315.933	76.29
316.146	98.81
316.36	18.94
316.573	64
316.787	68.09
317.001	70.14
317.214	31.23
317.428	59.9
317.641	39.42
317.855	27.14
318.068	88.57
318.282	68.09
318.495	129.53
318.709	80.38
318.922	66.05
319.136	61.95
319.349	113.15
319.563	-9.73
319.776	51.71
319.99	49.66
320.203	35.33
320.417	104.96
320.63	117.25
320.843	98.81
321.057	23.04
321.27	29.18
321.483	59.9
321.697	55.81
321.91	51.71
322.124	39.42
322.337	82.43
322.55	49.66
322.763	104.96
322.977	100.86
323.19	92.67
323.403	98.81
323.617	78.33
323.83	111.1
324.043	59.9
324.256	-9.73
324.469	37.38
324.683	59.9
324.896	14.85
325.109	86.53
325.322	18.94
325.535	35.33
325.748	76.29
325.962	64
326.175	6.66
326.388	104.96
326.601	18.94
326.814	80.38
327.027	115.2
327.24	117.25
327.453	35.33
327.666	39.42
327.879	33.28
328.092	68.09
328.305	23.04
328.518	123.39
328.731	-1.54
328.944	23.04
329.157	59.9
329.37	119.29
329.583	80.38
329.796	20.99
330.009	12.8
330.222	-5.63
330.435	84.48
330.648	27.14
330.861	0.51
331.073	72.19
331.286	76.29
331.499	53.76
331.712	59.9
331.925	68.09
332.138	113.15
332.35	61.95
332.563	88.57
332.776	104.96
332.989	88.57
333.202	2.56
333.414	0.51
333.627	84.48
333.84	18.94
334.053	68.09
334.265	41.47
334.478	61.95
334.691	88.57
334.903	111.1
335.116	78.33
335.329	59.9
335.541	123.39
335.754	51.71
335.966	68.09
336.179	10.75
336.392	100.86
336.604	-81.41
336.817	84.48
337.029	10.75
337.242	4.61
337.454	-11.78
337.667	57.86
337.88	84.48
338.092	86.53
338.305	147.97
338.517	45.57
338.729	-1.54
338.942	98.81
339.154	41.47
339.367	90.62
339.579	129.53
339.792	43.52
340.004	90.62
340.217	12.8
340.429	39.42
340.641	10.75
340.854	31.23
341.066	33.28
341.278	111.1
341.491	143.87
341.703	31.23
341.915	-5.63
342.128	92.67
342.34	39.42
342.552	109.05
342.764	123.39
342.977	96.77
343.189	90.62
343.401	70.14
343.613	12.8
343.826	35.33
344.038	0.51
344.25	57.86
344.462	80.38
344.674	39.42
344.886	51.71
345.099	31.23
345.311	82.43
345.523	66.05
345.735	8.7
345.947	43.52
346.159	53.76
346.371	129.53
346.583	-15.87
346.795	135.68
347.007	47.62
347.219	96.77
347.431	20.99
347.643	94.72
347.855	59.9
348.067	68.09
348.279	41.47
348.491	2.56
348.703	61.95
348.915	35.33
349.127	45.57
349.339	111.1
349.551	31.23
349.763	117.25
349.975	-38.4
350.187	76.29
350.399	92.67
350.61	92.67
350.822	2.56
351.034	61.95
351.246	86.53
351.458	64
351.669	47.62
351.881	82.43
352.093	100.86
352.305	68.09
352.517	84.48
352.728	68.09
352.94	84.48
353.152	-5.63
353.363	-38.4
353.575	86.53
353.787	119.29
353.999	133.63
354.21	123.39
354.422	88.57
354.633	6.66
354.845	139.77
355.057	-7.68
355.268	96.77
355.48	51.71
355.692	39.42
355.903	96.77
356.115	111.1
356.326	25.09
356.538	94.72
356.749	80.38
356.961	119.29
357.172	55.81
357.384	74.24
357.595	176.64
357.807	139.77
358.018	35.33
358.23	70.14
358.441	53.76
358.653	39.42
358.864	115.2
359.075	20.99
359.287	35.33
359.498	80.38
359.709	31.23
359.921	88.57
360.132	41.47
360.344	92.67
360.555	35.33
360.766	121.34
360.977	64
361.189	68.09
361.4	127.49
361.611	90.62
361.823	31.23
362.034	78.33
362.245	147.97
362.456	6.66
362.667	25.09
362.879	109.05
363.09	45.57
363.301	98.81
363.512	57.86
363.723	66.05
363.935	-7.68
364.146	109.05
364.357	88.57
364.568	59.9
364.779	4.61
364.99	76.29
365.201	107.01
365.412	88.57
365.623	61.95
365.834	47.62
366.045	10.75
366.256	78.33
366.467	129.53
366.678	66.05
366.889	98.81
367.1	51.71
367.311	158.21
367.522	104.96
367.733	68.09
367.944	86.53
368.155	94.72
368.366	72.19
368.577	125.44
368.788	84.48
368.999	23.04
369.209	43.52
369.42	51.71
369.631	104.96
369.842	76.29
370.053	109.05
370.264	23.04
370.474	66.05
370.685	64
370.896	76.29
371.107	113.15
371.317	80.38
371.528	27.14
371.739	104.96
371.95	-30.21
372.16	90.62
372.371	31.23
372.582	31.23
372.792	119.29
373.003	27.14
373.214	49.66
373.424	84.48
373.635	-38.4
373.846	80.38
374.056	86.53
374.267	113.15
374.477	35.33
374.688	59.9
374.898	96.77
375.109	64
375.319	59.9
375.53	66.05
375.74	152.06
375.951	102.91
376.161	125.44
376.372	41.47
376.582	18.94
376.793	109.05
377.003	16.9
377.214	59.9
377.424	55.81
377.635	94.72
377.845	64
378.055	59.9
378.266	18.94
378.476	51.71
378.686	47.62
378.897	18.94
379.107	90.62
379.317	80.38
379.528	55.81
379.738	147.97
379.948	-22.02
380.158	49.66
380.369	84.48
380.579	23.04
380.789	104.96
380.999	70.14
381.21	78.33
381.42	102.91
381.63	6.66
381.84	78.33
382.05	47.62
382.261	86.53
382.471	49.66
382.681	59.9
382.891	129.53
383.101	86.53
383.311	57.86
383.521	104.96
383.731	78.33
383.941	94.72
384.151	88.57
384.361	61.95
384.571	61.95
384.781	170.49
384.991	59.9
385.201	145.92
385.411	92.67
385.621	66.05
385.831	88.57
386.041	115.2
386.251	27.14
386.461	84.48
386.671	86.53
386.881	88.57
387.091	115.2
387.301	133.63
387.511	90.62
387.72	45.57
387.93	76.29
388.14	8.7
388.35	47.62
388.56	147.97
388.769	131.58
388.979	117.25
389.189	102.91
389.399	115.2
389.609	76.29
389.818	18.94
390.028	61.95
390.238	98.81
390.447	53.76
390.657	-11.78
390.867	14.85
391.076	29.18
391.286	113.15
391.496	117.25
391.705	47.62
391.915	47.62
392.125	115.2
392.334	84.48
392.544	76.29
392.753	119.29
392.963	76.29
393.172	84.48
393.382	49.66
393.591	184.83
393.801	113.15
394.01	188.93
394.22	70.14
394.429	109.05
394.639	64
394.848	104.96
395.058	135.68
395.267	109.05
395.477	195.07
395.686	143.87
395.895	117.25
396.105	131.58
396.314	51.71
396.524	133.63
396.733	76.29
396.942	145.92
397.152	166.4
397.361	131.58
397.57	121.34
397.78	211.45
397.989	94.72
398.198	139.77
398.407	86.53
398.617	143.87
398.826	78.33
399.035	197.12
399.244	135.68
399.453	166.4
399.663	88.57
399.872	190.97
400.081	84.48
400.29	137.73
400.499	74.24
400.708	139.77
400.917	219.64
401.127	133.63
401.336	141.82
401.545	145.92
401.754	109.05
401.963	188.93
402.172	190.97
402.381	117.25
402.59	113.15
402.799	145.92
403.008	156.16
403.217	188.93
403.426	143.87
403.635	74.24
403.844	156.16
404.053	121.34
404.262	176.64
404.471	211.45
404.68	186.88
404.888	190.97
405.097	121.34
405.306	131.58
405.515	182.78
405.724	174.59
405.933	201.21
406.142	221.69
406.35	219.64
406.559	215.55
406.768	207.36
406.977	229.88
407.185	295.42
407.394	256.51
407.603	311.8
407.812	297.47
408.02	289.28
408.229	305.66
408.438	307.71
408.646	270.84
408.855	193.02
409.064	340.47
409.272	397.82
409.481	416.25
409.69	358.91
409.898	328.19
410.107	354.81
410.315	352.76
410.524	387.58
410.733	377.34
410.941	379.39
411.15	432.63
411.358	479.74
411.567	524.79
411.775	475.64
411.984	580.09
412.192	475.64
412.401	526.84
412.609	551.42
412.818	653.81
413.026	600.57
413.234	627.19
413.443	602.61
413.651	651.77
413.86	674.29
414.068	715.25
414.276	795.12
414.485	727.54
414.693	752.12
414.901	776.69
415.11	940.53
415.318	836.08
415.526	893.43
415.734	922.1
415.943	944.63
416.151	967.15
416.359	942.58
416.567	946.67
416.776	1143.28
416.984	1006.06
417.192	1206.77
417.4	1157.61
417.608	1178.09
417.817	1210.86
418.025	1294.83
418.233	1348.08
418.441	1337.84
418.649	1436.14
418.857	1444.33
419.065	1530.34
419.273	1493.48
419.481	1610.22
419.689	1741.29
419.897	1845.73
420.105	1743.33
420.313	1849.83
420.521	1874.4
420.729	1919.46
420.937	2142.69
421.145	2066.91
421.353	2245.09
421.561	2302.43
421.769	2353.63
421.977	2433.5
422.185	2281.95
422.393	2472.41
422.601	2695.64
422.809	2673.11
423.017	2750.93
423.224	2953.68
423.432	2963.92
423.64	2972.11
423.848	3152.34
424.056	3097.04
424.263	3252.69
424.471	3387.85
424.679	3434.96
424.887	3615.18
425.094	3721.67
425.302	3836.36
425.51	3842.5
425.718	3955.14
425.925	3953.09
426.133	4143.55
426.341	4456.89
426.548	4610.49
426.756	4573.63
426.964	4622.78
427.171	4917.68
427.379	4878.77
427.586	5052.85
427.794	5237.17
428.001	5589.42
428.209	5644.71
428.417	5663.15
428.624	6039.97
428.832	6160.8
429.039	5933.48
429.247	6138.27
429.454	6719.9
429.662	6951.32
429.869	6535.58
430.076	7088.53
430.284	6908.31
430.491	7113.11
430.699	7692.68
430.906	7653.77
431.114	7657.87
431.321	8016.26
431.528	8171.91
431.736	8556.93
431.943	8776.06
432.15	8862.07
432.358	8698.24
432.565	9398.64
432.772	9400.69
432.979	9898.34
433.187	9931.11
433.394	10154.34
433.601	10721.63
433.808	10695
434.016	10608.99
434.223	11002.2
434.43	11518.29
434.637	11413.84
434.844	11981.13
435.052	12392.77
435.259	12183.88
435.466	12491.07
435.673	12429.63
435.88	13168.95
436.087	13984.04
436.294	13746.48
436.501	13609.26
436.708	13719.85
436.915	13994.28
437.122	14975.26
437.329	14840.09
437.537	15464.72
437.743	15538.45
437.95	15528.21
438.157	16075.02
438.364	16670.98
438.571	16541.96
438.778	16926.97
438.985	18485.48
439.192	17625.33
439.399	18239.72
439.606	17912.05
439.813	18780.39
440.02	19765.46
440.227	19681.49
440.433	19536.09
440.64	20400.33
440.847	19747.03
441.054	20492.49
441.261	21721.27
441.467	21579.96
441.674	21874.87
441.881	22743.2
442.088	22677.67
442.294	22454.44
442.501	22962.34
442.708	23494.81
442.914	24227.98
443.121	25671.8
443.328	24699.02
443.534	26691.69
443.741	25518.2
443.948	25315.45
444.154	27115.62
444.361	27007.08
444.568	27076.71
444.774	26955.88
444.981	27482.2
445.187	28155.99
445.394	29589.56
445.6	28725.32
445.807	32225.3
446.013	30480.43
446.22	31457.31
446.426	32053.27
446.633	32649.23
446.839	33378.31
447.046	32004.12
447.252	34027.51
447.459	33994.75
447.665	33515.52
447.871	35254.25
448.078	36700.11
448.284	35074.02
448.491	35962.84
448.697	36870.09
448.903	38019
449.11	38111.16
449.316	37089.23
449.522	38170.55
449.728	38707.12
449.935	39083.95
450.141	39122.86
450.347	40130.46
450.553	38467.51
450.76	39026.6
450.966	40406.94
451.172	39968.67
451.378	40615.83
451.584	40114.08
451.791	41154.44
451.997	40415.13
452.203	41303.95
452.409	41277.32
452.615	41238.41
452.821	39473.06
453.027	39227.31
453.233	41166.73
453.44	39518.12
453.646	40114.08
453.852	39835.55
454.058	40826.77
454.264	39032.75
454.47	40169.37
454.676	39024.56
454.882	40331.16
455.088	37320.65
455.294	37390.28
455.5	37736.38
455.705	38283.19
455.911	36820.94
456.117	36175.83
456.323	35895.26
456.529	33548.29
456.735	35082.22
456.941	34154.49
457.147	33822.72
457.352	32972.81
457.558	32086.04
457.764	32573.45
457.97	31883.29
458.176	31019.05
458.381	31197.22
458.587	29489.21
458.793	29210.69
458.999	28098.64
459.204	30072.89
459.41	29116.48
459.616	27285.6
459.821	27721.82
460.027	26972.26
460.233	26607.72
460.438	25288.83
460.644	25882.74
460.85	24438.92
461.055	24107.15
461.261	23994.51
461.466	22268.08
461.672	21438.65
461.878	23079.07
462.083	21309.63
462.289	21108.93
462.494	21018.82
462.7	20027.6
462.905	19554.52
463.111	20183.24
463.316	20291.79
463.522	20078.8
463.727	19851.47
463.932	19757.27
464.138	19794.13
464.343	19695.83
464.549	19204.31
464.754	19843.28
464.959	19704.02
465.165	19704.02
465.37	18718.95
465.575	18075.88
465.781	18919.65
465.986	19040.48
466.191	18323.69
466.397	17920.24
466.602	17142.01
466.807	17733.87
467.012	17619.19
467.218	17692.91
467.423	17535.22
467.628	17760.5
