Data from USB4F104151__172__10-27-34-939.txt Node

Date: Wed Mar 12 10:27:34 EDT 2025
User: louis
Spectrometer: USB4F10415
Trigger mode: 4
Integration Time (sec): 3.000000E-2
Scans to average: 1
Electric dark correction enabled: true
Nonlinearity correction enabled: false
Boxcar width: 0
XAxis mode: Wavelengths
Number of Pixels in Spectrum: 3648
>>>>>Begin Spectral Data<<<<<
178.204	-115.2
178.424	-115.2
178.644	-115.2
178.864	-80.38
179.084	-92.67
179.304	22.02
179.524	-33.28
179.744	17.92
179.964	65.02
180.184	7.68
180.404	-25.09
180.624	-25.09
180.844	-18.94
181.064	-66.05
181.283	75.26
181.503	-16.9
181.723	-2.56
181.943	-10.75
182.163	24.06
182.383	-6.66
182.602	114.17
182.822	69.12
183.042	28.16
183.262	-10.75
183.482	-0.51
183.701	44.54
183.921	99.84
184.141	5.63
184.361	44.54
184.58	-31.23
184.8	36.35
185.02	32.26
185.239	48.64
185.459	17.92
185.679	1.54
185.898	-16.9
186.118	40.45
186.338	44.54
186.557	101.89
186.777	-10.75
186.997	-37.38
187.216	42.5
187.436	34.3
187.655	101.89
187.875	9.73
188.095	38.4
188.314	54.78
188.534	105.98
188.753	69.12
188.973	54.78
189.192	1.54
189.412	38.4
189.631	15.87
189.851	28.16
190.07	122.37
190.29	26.11
190.509	50.69
190.729	-8.7
190.948	81.41
191.168	105.98
191.387	56.83
191.607	30.21
191.826	103.93
192.045	17.92
192.265	-23.04
192.484	36.35
192.704	-31.23
192.923	26.11
193.142	130.56
193.362	44.54
193.581	30.21
193.8	36.35
194.02	5.63
194.239	85.5
194.458	42.5
194.678	22.02
194.897	56.83
195.116	44.54
195.335	50.69
195.555	9.73
195.774	32.26
195.993	38.4
196.212	-47.62
196.432	-14.85
196.651	-2.56
196.87	-14.85
197.089	95.74
197.308	67.07
197.528	42.5
197.747	-31.23
197.966	9.73
198.185	79.36
198.404	69.12
198.623	136.7
198.842	108.03
199.062	153.09
199.281	42.5
199.5	-6.66
199.719	71.17
199.938	26.11
200.157	26.11
200.376	15.87
200.595	24.06
200.814	56.83
201.033	77.31
201.252	75.26
201.471	46.59
201.69	103.93
201.909	11.78
202.128	118.27
202.347	65.02
202.566	15.87
202.785	13.82
203.004	-59.9
203.223	144.89
203.442	11.78
203.661	65.02
203.879	17.92
204.098	60.93
204.317	13.82
204.536	34.3
204.755	15.87
204.974	105.98
205.193	-23.04
205.411	-29.18
205.63	138.75
205.849	13.82
206.068	69.12
206.287	-0.51
206.505	95.74
206.724	19.97
206.943	-31.23
207.162	52.74
207.381	48.64
207.599	1.54
207.818	62.98
208.037	50.69
208.255	48.64
208.474	30.21
208.693	-23.04
208.911	97.79
209.13	79.36
209.349	-39.42
209.567	103.93
209.786	101.89
210.005	7.68
210.223	75.26
210.442	-6.66
210.661	42.5
210.879	65.02
211.098	-6.66
211.316	38.4
211.535	-4.61
211.753	65.02
211.972	-84.48
212.191	103.93
212.409	7.68
212.628	26.11
212.846	19.97
213.065	-4.61
213.283	97.79
213.502	-10.75
213.72	32.26
213.938	-25.09
214.157	38.4
214.375	54.78
214.594	79.36
214.812	22.02
215.031	99.84
215.249	77.31
215.467	67.07
215.686	26.11
215.904	128.51
216.122	75.26
216.341	58.88
216.559	5.63
216.778	73.21
216.996	26.11
217.214	13.82
217.432	22.02
217.651	44.54
217.869	11.78
218.087	89.6
218.306	36.35
218.524	11.78
218.742	38.4
218.96	58.88
219.179	13.82
219.397	108.03
219.615	110.08
219.833	73.21
220.051	-10.75
220.27	60.93
220.488	17.92
220.706	-16.9
220.924	24.06
221.142	65.02
221.36	-25.09
221.578	71.17
221.796	-8.7
222.015	32.26
222.233	79.36
222.451	56.83
222.669	9.73
222.887	67.07
223.105	44.54
223.323	-31.23
223.541	44.54
223.759	38.4
223.977	-18.94
224.195	79.36
224.413	48.64
224.631	112.13
224.849	60.93
225.067	99.84
225.285	36.35
225.503	58.88
225.721	-47.62
225.939	91.65
226.157	-4.61
226.375	136.7
226.592	-25.09
226.81	36.35
227.028	15.87
227.246	40.45
227.464	67.07
227.682	122.37
227.9	108.03
228.117	91.65
228.335	7.68
228.553	-16.9
228.771	17.92
228.989	56.83
229.206	1.54
229.424	-6.66
229.642	15.87
229.86	-16.9
230.077	79.36
230.295	32.26
230.513	22.02
230.731	50.69
230.948	67.07
231.166	130.56
231.384	-6.66
231.601	30.21
231.819	26.11
232.037	105.98
232.254	52.74
232.472	-29.18
232.689	73.21
232.907	148.99
233.125	65.02
233.342	71.17
233.56	71.17
233.777	30.21
233.995	81.41
234.213	44.54
234.43	62.98
234.648	44.54
234.865	19.97
235.083	77.31
235.3	54.78
235.518	46.59
235.735	46.59
235.953	77.31
236.17	28.16
236.388	50.69
236.605	50.69
236.822	46.59
237.04	56.83
237.257	15.87
237.475	46.59
237.692	48.64
237.909	38.4
238.127	-0.51
238.344	148.99
238.562	65.02
238.779	5.63
238.996	19.97
239.214	40.45
239.431	44.54
239.648	26.11
239.865	95.74
240.083	69.12
240.3	58.88
240.517	-39.42
240.735	75.26
240.952	79.36
241.169	30.21
241.386	67.07
241.603	-51.71
241.821	-20.99
242.038	67.07
242.255	79.36
242.472	97.79
242.689	42.5
242.907	56.83
243.124	30.21
243.341	-18.94
243.558	83.45
243.775	58.88
243.992	-12.8
244.209	108.03
244.426	103.93
244.643	83.45
244.86	48.64
245.078	105.98
245.295	26.11
245.512	30.21
245.729	17.92
245.946	32.26
246.163	83.45
246.38	44.54
246.597	32.26
246.814	24.06
247.031	62.98
247.248	93.69
247.464	40.45
247.681	79.36
247.898	87.55
248.115	60.93
248.332	58.88
248.549	95.74
248.766	17.92
248.983	-0.51
249.2	116.22
249.417	28.16
249.633	103.93
249.85	22.02
250.067	-0.51
250.284	62.98
250.501	54.78
250.717	73.21
250.934	52.74
251.151	99.84
251.368	3.58
251.585	44.54
251.801	95.74
252.018	-6.66
252.235	62.98
252.451	50.69
252.668	44.54
252.885	5.63
253.102	46.59
253.318	46.59
253.535	-14.85
253.752	-37.38
253.968	85.5
254.185	44.54
254.401	-35.33
254.618	81.41
254.835	38.4
255.051	69.12
255.268	110.08
255.484	54.78
255.701	36.35
255.917	36.35
256.134	81.41
256.351	75.26
256.567	-2.56
256.784	73.21
257	81.41
257.217	58.88
257.433	87.55
257.65	34.3
257.866	52.74
258.082	73.21
258.299	54.78
258.515	36.35
258.732	58.88
258.948	26.11
259.165	77.31
259.381	50.69
259.597	83.45
259.814	71.17
260.03	13.82
260.246	58.88
260.463	3.58
260.679	54.78
260.895	71.17
261.112	67.07
261.328	71.17
261.544	44.54
261.761	71.17
261.977	30.21
262.193	58.88
262.409	28.16
262.626	42.5
262.842	46.59
263.058	15.87
263.274	28.16
263.49	17.92
263.707	95.74
263.923	69.12
264.139	-6.66
264.355	-6.66
264.571	75.26
264.787	42.5
265.004	54.78
265.22	42.5
265.436	36.35
265.652	75.26
265.868	50.69
266.084	11.78
266.3	50.69
266.516	26.11
266.732	-2.56
266.948	73.21
267.164	19.97
267.38	136.7
267.596	79.36
267.812	89.6
268.028	73.21
268.244	5.63
268.46	26.11
268.676	30.21
268.892	62.98
269.108	46.59
269.324	67.07
269.54	32.26
269.756	110.08
269.972	-33.28
270.188	77.31
270.403	77.31
270.619	60.93
270.835	62.98
271.051	38.4
271.267	28.16
271.483	54.78
271.698	48.64
271.914	77.31
272.13	83.45
272.346	56.83
272.562	108.03
272.777	60.93
272.993	99.84
273.209	32.26
273.425	87.55
273.64	50.69
273.856	38.4
274.072	75.26
274.287	17.92
274.503	46.59
274.719	26.11
274.934	58.88
275.15	58.88
275.366	112.13
275.581	42.5
275.797	32.26
276.012	15.87
276.228	-18.94
276.444	42.5
276.659	91.65
276.875	32.26
277.09	38.4
277.306	15.87
277.521	97.79
277.737	13.82
277.952	124.41
278.168	75.26
278.383	26.11
278.599	52.74
278.814	44.54
279.03	-8.7
279.245	93.69
279.461	-43.52
279.676	19.97
279.892	46.59
280.107	11.78
280.322	32.26
280.538	54.78
280.753	36.35
280.969	-4.61
281.184	32.26
281.399	101.89
281.615	11.78
281.83	-23.04
282.045	-12.8
282.26	-0.51
282.476	24.06
282.691	48.64
282.906	52.74
283.122	34.3
283.337	17.92
283.552	65.02
283.767	17.92
283.983	110.08
284.198	40.45
284.413	17.92
284.628	26.11
284.843	128.51
285.058	38.4
285.274	15.87
285.489	-10.75
285.704	105.98
285.919	-8.7
286.134	87.55
286.349	50.69
286.564	71.17
286.779	81.41
286.995	75.26
287.21	87.55
287.425	89.6
287.64	17.92
287.855	50.69
288.07	-59.9
288.285	48.64
288.5	-2.56
288.715	67.07
288.93	34.3
289.145	13.82
289.36	71.17
289.575	62.98
289.79	83.45
290.004	97.79
290.219	22.02
290.434	26.11
290.649	-23.04
290.864	-29.18
291.079	56.83
291.294	54.78
291.509	67.07
291.724	28.16
291.938	-12.8
292.153	97.79
292.368	114.17
292.583	140.8
292.798	28.16
293.012	24.06
293.227	67.07
293.442	46.59
293.657	77.31
293.871	146.94
294.086	56.83
294.301	65.02
294.516	65.02
294.73	112.13
294.945	44.54
295.16	58.88
295.374	75.26
295.589	103.93
295.804	60.93
296.018	38.4
296.233	32.26
296.447	52.74
296.662	32.26
296.877	144.89
297.091	97.79
297.306	50.69
297.52	69.12
297.735	62.98
297.949	48.64
298.164	69.12
298.378	58.88
298.593	1.54
298.807	-10.75
299.022	120.32
299.236	5.63
299.451	54.78
299.665	52.74
299.88	30.21
300.094	34.3
300.309	75.26
300.523	30.21
300.737	-4.61
300.952	11.78
301.166	103.93
301.381	30.21
301.595	28.16
301.809	26.11
302.024	46.59
302.238	32.26
302.452	116.22
302.667	34.3
302.881	17.92
303.095	22.02
303.309	36.35
303.524	69.12
303.738	34.3
303.952	67.07
304.166	32.26
304.381	22.02
304.595	44.54
304.809	44.54
305.023	95.74
305.237	13.82
305.452	28.16
305.666	138.75
305.88	71.17
306.094	56.83
306.308	42.5
306.522	105.98
306.736	91.65
306.95	79.36
307.164	19.97
307.379	-18.94
307.593	103.93
307.807	87.55
308.021	50.69
308.235	42.5
308.449	11.78
308.663	40.45
308.877	138.75
309.091	22.02
309.305	62.98
309.519	58.88
309.733	38.4
309.947	52.74
310.161	30.21
310.374	46.59
310.588	50.69
310.802	73.21
311.016	22.02
311.23	-27.14
311.444	36.35
311.658	56.83
311.872	48.64
312.085	56.83
312.299	114.17
312.513	71.17
312.727	75.26
312.941	5.63
313.154	75.26
313.368	73.21
313.582	69.12
313.796	128.51
314.009	56.83
314.223	81.41
314.437	13.82
314.651	19.97
314.864	79.36
315.078	116.22
315.292	-2.56
315.505	67.07
315.719	157.18
315.933	9.73
316.146	24.06
316.36	22.02
316.573	46.59
316.787	73.21
317.001	60.93
317.214	-12.8
317.428	101.89
317.641	91.65
317.855	71.17
318.068	128.51
318.282	65.02
318.495	124.41
318.709	101.89
318.922	60.93
319.136	97.79
319.349	-0.51
319.563	-6.66
319.776	11.78
319.99	1.54
320.203	140.8
320.417	50.69
320.63	42.5
320.843	159.23
321.057	-4.61
321.27	46.59
321.483	48.64
321.697	87.55
321.91	77.31
322.124	48.64
322.337	60.93
322.55	60.93
322.763	38.4
322.977	5.63
323.19	36.35
323.403	99.84
323.617	58.88
323.83	79.36
324.043	87.55
324.256	9.73
324.469	73.21
324.683	108.03
324.896	26.11
325.109	42.5
325.322	67.07
325.535	71.17
325.748	77.31
325.962	34.3
326.175	93.69
326.388	-14.85
326.601	120.32
326.814	26.11
327.027	65.02
327.24	95.74
327.453	40.45
327.666	69.12
327.879	124.41
328.092	79.36
328.305	83.45
328.518	-29.18
328.731	13.82
328.944	52.74
329.157	17.92
329.37	-55.81
329.583	62.98
329.796	58.88
330.009	32.26
330.222	7.68
330.435	30.21
330.648	46.59
330.861	62.98
331.073	40.45
331.286	122.37
331.499	62.98
331.712	116.22
331.925	42.5
332.138	-23.04
332.35	108.03
332.563	83.45
332.776	140.8
332.989	-27.14
333.202	48.64
333.414	67.07
333.627	19.97
333.84	62.98
334.053	67.07
334.265	50.69
334.478	62.98
334.691	58.88
334.903	81.41
335.116	120.32
335.329	17.92
335.541	73.21
335.754	91.65
335.966	-10.75
336.179	95.74
336.392	105.98
336.604	58.88
336.817	65.02
337.029	75.26
337.242	116.22
337.454	24.06
337.667	69.12
337.88	103.93
338.092	75.26
338.305	91.65
338.517	60.93
338.729	9.73
338.942	93.69
339.154	46.59
339.367	89.6
339.579	-2.56
339.792	-4.61
340.004	89.6
340.217	-8.7
340.429	85.5
340.641	26.11
340.854	56.83
341.066	19.97
341.278	116.22
341.491	120.32
341.703	17.92
341.915	17.92
342.128	-27.14
342.34	26.11
342.552	108.03
342.764	44.54
342.977	108.03
343.189	71.17
343.401	77.31
343.613	73.21
343.826	26.11
344.038	-31.23
344.25	87.55
344.462	99.84
344.674	89.6
344.886	79.36
345.099	17.92
345.311	38.4
345.523	-6.66
345.735	1.54
345.947	91.65
346.159	75.26
346.371	97.79
346.583	40.45
346.795	81.41
347.007	75.26
347.219	118.27
347.431	34.3
347.643	112.13
347.855	15.87
348.067	79.36
348.279	22.02
348.491	81.41
348.703	44.54
348.915	60.93
349.127	3.58
349.339	89.6
349.551	101.89
349.763	54.78
349.975	114.17
350.187	42.5
350.399	120.32
350.61	101.89
350.822	26.11
351.034	26.11
351.246	42.5
351.458	48.64
351.669	122.37
351.881	75.26
352.093	44.54
352.305	87.55
352.517	108.03
352.728	44.54
352.94	67.07
353.152	75.26
353.363	1.54
353.575	128.51
353.787	42.5
353.999	50.69
354.21	87.55
354.422	46.59
354.633	42.5
354.845	-2.56
355.057	144.89
355.268	65.02
355.48	99.84
355.692	34.3
355.903	46.59
356.115	67.07
356.326	-18.94
356.538	93.69
356.749	38.4
356.961	114.17
357.172	54.78
357.384	71.17
357.595	67.07
357.807	48.64
358.018	75.26
358.23	91.65
358.441	95.74
358.653	73.21
358.864	24.06
359.075	81.41
359.287	58.88
359.498	105.98
359.709	22.02
359.921	67.07
360.132	58.88
360.344	5.63
360.555	50.69
360.766	26.11
360.977	-0.51
361.189	124.41
361.4	44.54
361.611	52.74
361.823	130.56
362.034	-18.94
362.245	50.69
362.456	36.35
362.667	22.02
362.879	26.11
363.09	75.26
363.301	79.36
363.512	34.3
363.723	50.69
363.935	89.6
364.146	93.69
364.357	5.63
364.568	15.87
364.779	122.37
364.99	69.12
365.201	60.93
365.412	67.07
365.623	60.93
365.834	71.17
366.045	165.37
366.256	114.17
366.467	69.12
366.678	103.93
366.889	46.59
367.1	83.45
367.311	108.03
367.522	1.54
367.733	48.64
367.944	132.61
368.155	-43.52
368.366	77.31
368.577	89.6
368.788	81.41
368.999	42.5
369.209	46.59
369.42	132.61
369.631	175.61
369.842	50.69
370.053	-4.61
370.264	122.37
370.474	-16.9
370.685	58.88
370.896	110.08
371.107	165.37
371.317	50.69
371.528	24.06
371.739	116.22
371.95	40.45
372.16	54.78
372.371	62.98
372.582	69.12
372.792	110.08
373.003	19.97
373.214	42.5
373.424	42.5
373.635	58.88
373.846	95.74
374.056	73.21
374.267	138.75
374.477	81.41
374.688	116.22
374.898	15.87
375.109	-2.56
375.319	116.22
375.53	58.88
375.74	42.5
375.951	116.22
376.161	34.3
376.372	136.7
376.582	30.21
376.793	93.69
377.003	-41.47
377.214	-6.66
377.424	40.45
377.635	54.78
377.845	38.4
378.055	122.37
378.266	60.93
378.476	48.64
378.686	50.69
378.897	50.69
379.107	101.89
379.317	22.02
379.528	7.68
379.738	77.31
379.948	48.64
380.158	79.36
380.369	65.02
380.579	50.69
380.789	62.98
380.999	148.99
381.21	9.73
381.42	132.61
381.63	136.7
381.84	83.45
382.05	99.84
382.261	99.84
382.471	108.03
382.681	-47.62
382.891	116.22
383.101	24.06
383.311	62.98
383.521	56.83
383.731	99.84
383.941	140.8
384.151	134.65
384.361	112.13
384.571	77.31
384.781	91.65
384.991	114.17
385.201	140.8
385.411	101.89
385.621	46.59
385.831	32.26
386.041	124.41
386.251	87.55
386.461	7.68
386.671	15.87
386.881	87.55
387.091	91.65
387.301	140.8
387.511	138.75
387.72	110.08
387.93	153.09
388.14	67.07
388.35	38.4
388.56	69.12
388.769	75.26
388.979	62.98
389.189	73.21
389.399	83.45
389.609	95.74
389.818	124.41
390.028	105.98
390.238	103.93
390.447	67.07
390.657	54.78
390.867	75.26
391.076	32.26
391.286	60.93
391.496	69.12
391.705	34.3
391.915	114.17
392.125	58.88
392.334	112.13
392.544	159.23
392.753	116.22
392.963	65.02
393.172	110.08
393.382	56.83
393.591	134.65
393.801	87.55
394.01	171.52
394.22	85.5
394.429	114.17
394.639	60.93
394.848	62.98
395.058	128.51
395.267	103.93
395.477	93.69
395.686	165.37
395.895	138.75
396.105	126.46
396.314	153.09
396.524	91.65
396.733	151.04
396.942	85.5
397.152	198.14
397.361	108.03
397.57	108.03
397.78	122.37
397.989	140.8
398.198	112.13
398.407	124.41
398.617	95.74
398.826	153.09
399.035	85.5
399.244	83.45
399.453	130.56
399.663	79.36
399.872	108.03
400.081	103.93
400.29	202.24
400.499	101.89
400.708	138.75
400.917	181.76
401.127	103.93
401.336	204.28
401.545	128.51
401.754	173.57
401.963	218.62
402.172	128.51
402.381	87.55
402.59	165.37
402.799	194.05
403.008	128.51
403.217	128.51
403.426	214.52
403.635	222.72
403.844	189.95
404.053	136.7
404.262	181.76
404.471	257.53
404.68	208.38
404.888	273.92
405.097	212.48
405.306	181.76
405.515	157.18
405.724	128.51
405.933	206.33
406.142	259.58
406.35	163.33
406.559	196.09
406.768	222.72
406.977	245.24
407.185	235
407.394	222.72
407.603	177.66
407.812	384.51
408.02	247.29
408.229	232.96
408.438	275.96
408.646	269.82
408.855	261.63
409.064	388.6
409.272	288.25
409.481	370.17
409.69	300.54
409.898	361.98
410.107	409.08
410.315	341.5
410.524	384.51
410.733	468.47
410.941	400.89
411.15	347.64
411.358	407.03
411.567	443.9
411.775	548.34
411.984	425.47
412.192	611.83
412.401	470.52
412.609	523.77
412.818	542.2
413.026	568.82
413.234	609.78
413.443	579.06
413.651	546.3
413.86	693.75
414.068	648.69
414.276	742.9
414.485	605.69
414.693	667.13
414.901	867.83
415.11	841.2
415.318	749.04
415.526	800.24
415.734	902.64
415.943	830.96
416.151	900.59
416.359	828.92
416.567	964.08
416.776	900.59
416.984	1027.57
417.192	1089.01
417.4	1144.3
417.608	1111.54
417.817	1097.2
418.025	1238.51
418.233	1304.04
418.441	1263.08
418.649	1232.37
418.857	1302
419.065	1424.87
419.273	1324.52
419.481	1533.42
419.689	1543.66
419.897	1627.62
420.105	1725.93
420.313	1760.74
420.521	1717.73
420.729	1820.13
420.937	1826.28
421.145	1934.82
421.353	2049.5
421.561	2170.33
421.769	2178.53
421.977	2282.97
422.185	2098.66
422.393	2450.91
422.601	2516.44
422.809	2469.34
423.017	2500.06
423.224	2569.69
423.432	2645.46
423.64	2704.85
423.848	2846.16
424.056	2913.75
424.263	3139.02
424.471	3089.87
424.679	3128.78
424.887	3325.39
425.094	3382.73
425.302	3333.58
425.51	3470.8
425.718	3675.59
425.925	3589.58
426.133	3794.37
426.341	4015.55
426.548	4099.52
426.756	4163.01
426.964	4228.54
427.171	4322.75
427.379	4529.59
427.586	4840.89
427.794	4875.7
428.001	4957.62
428.209	5256.62
428.417	5137.84
428.624	5422.51
428.832	5490.09
429.039	5449.13
429.247	5541.29
429.454	6018.47
429.662	6481.31
429.869	6020.52
430.076	6317.47
430.284	6020.52
430.491	6509.98
430.699	6755.74
430.906	6849.94
431.114	6923.67
431.321	7107.99
431.528	7216.53
431.736	7810.44
431.943	8150.4
432.15	7974.28
432.358	7916.94
432.565	8609.15
432.772	8506.75
432.979	8875.38
433.187	9024.89
433.394	9102.71
433.601	9610.61
433.808	9772.39
434.016	9594.22
434.223	10061.16
434.43	10618.21
434.637	10339.68
434.844	11343.19
435.052	11169.11
435.259	11158.87
435.466	11310.42
435.673	11324.76
435.88	11842.89
436.087	12666.17
436.294	12522.82
436.501	12213.57
436.708	12653.89
436.915	12961.08
437.122	13454.64
437.329	13501.75
437.537	13958.44
437.743	14124.33
437.95	14173.48
438.157	14556.45
438.364	15168.79
438.571	15127.83
438.778	15340.82
438.985	16766.21
439.192	15795.47
439.399	16438.53
439.606	16223.5
439.813	17253.62
440.02	18085.1
440.227	17763.57
440.433	17468.66
440.64	18375.91
440.847	18005.23
441.054	18347.24
441.261	19801.3
441.467	19541.21
441.674	20006.09
441.881	20526.28
442.088	20358.35
442.294	20282.57
442.501	21001.41
442.708	21267.64
442.914	21890.23
443.121	22994.08
443.328	22369.45
443.534	23772.31
443.741	23368.86
443.948	23045.28
444.154	24771.72
444.361	24310.93
444.568	24634.5
444.774	24667.27
444.981	24829.06
445.187	25912.44
445.394	26772.58
445.6	26137.71
445.807	28853.32
446.013	27610.2
446.22	28230.74
446.426	29228.1
446.633	29559.87
446.839	30364.72
447.046	29015.11
447.252	30618.67
447.459	30882.86
447.665	30190.64
447.871	31988.76
448.078	32834.57
448.284	31587.36
448.491	32605.2
448.697	33983.48
448.903	34089.98
449.11	33827.84
449.316	33883.13
449.522	34317.3
449.728	35195.88
449.935	35738.59
450.141	35281.89
450.347	36260.82
450.553	34743.28
450.76	35412.96
450.966	36522.96
451.172	36121.56
451.378	36580.31
451.584	36121.56
451.791	36858.83
451.997	36690.9
452.203	37374.92
452.409	37510.08
452.615	37450.69
452.821	36187.1
453.027	35378.15
453.233	37348.29
453.44	35816.41
453.646	36131.8
453.852	36309.97
454.058	36860.88
454.264	35304.42
454.47	36430.8
454.676	35480.55
454.882	36692.94
455.088	33266.69
455.294	34057.21
455.5	34208.76
455.705	34876.4
455.911	33211.4
456.117	32664.59
456.323	32467.98
456.529	30688.3
456.735	31876.12
456.941	30987.3
457.147	30520.37
457.352	29375.55
457.558	29459.52
457.764	29033.54
457.97	28765.26
458.176	28083.28
458.381	28148.82
458.587	26891.37
458.793	26760.3
458.999	25101.44
459.204	26840.17
459.41	26399.85
459.616	24726.66
459.821	24427.66
460.027	24620.17
460.233	23907.48
460.438	22516.9
460.644	23387.29
460.85	21863.6
461.055	21507.26
461.261	21486.78
461.466	19936.46
461.672	19442.9
461.878	20649.16
462.083	19104.99
462.289	19174.62
462.494	18949.34
462.7	18001.13
462.905	17374.45
463.111	18406.63
463.316	18314.47
463.522	17990.89
463.727	17906.93
463.932	17802.48
464.138	17646.83
464.343	17562.87
464.549	17282.3
464.754	17714.42
464.959	17743.09
465.165	17599.73
465.37	16905.47
465.575	16512.26
465.781	17081.6
465.986	17257.72
466.191	16194.82
466.397	16030.99
466.602	15512.85
466.807	16147.72
