Data from USB4F104151__264__10-40-19-825.txt Node

Date: Wed Mar 12 10:40:19 EDT 2025
User: louis
Spectrometer: USB4F10415
Trigger mode: 4
Integration Time (sec): 3.000000E-2
Scans to average: 1
Electric dark correction enabled: true
Nonlinearity correction enabled: false
Boxcar width: 0
XAxis mode: Wavelengths
Number of Pixels in Spectrum: 3648
>>>>>Begin Spectral Data<<<<<
178.204	-81.24
178.424	-81.24
178.644	-81.24
178.864	-124.24
179.084	-150.87
179.304	-13.65
179.524	8.87
179.744	-30.04
179.964	45.74
180.184	-50.52
180.404	6.83
180.624	-46.42
180.844	43.69
181.064	-7.51
181.283	4.78
181.503	33.45
181.723	4.78
181.943	-111.96
182.163	0.68
182.383	-5.46
182.602	2.73
182.822	53.93
183.042	-62.8
183.262	-13.65
183.482	-38.23
183.701	-9.56
183.921	41.64
184.141	8.87
184.361	90.79
184.58	-40.28
184.8	-58.71
185.02	2.73
185.239	-11.61
185.459	-9.56
185.679	55.98
185.898	-58.71
186.118	51.88
186.338	43.69
186.557	39.59
186.777	43.69
186.997	35.5
187.216	31.4
187.436	111.27
187.655	25.26
187.875	6.83
188.095	33.45
188.314	33.45
188.534	31.4
188.753	-3.41
188.973	43.69
189.192	2.73
189.412	21.16
189.631	-13.65
189.851	47.79
190.07	15.02
190.29	-46.42
190.509	39.59
190.729	-15.7
190.948	8.87
191.168	135.85
191.387	72.36
191.607	39.59
191.826	-13.65
192.045	29.35
192.265	41.64
192.484	47.79
192.704	2.73
192.923	25.26
193.142	96.94
193.362	51.88
193.581	51.88
193.8	-1.37
194.02	27.31
194.239	-30.04
194.458	21.16
194.678	21.16
194.897	-83.28
195.116	-5.46
195.335	23.21
195.555	-1.37
195.774	19.11
195.993	86.7
196.212	19.11
196.432	-38.23
196.651	58.03
196.87	10.92
197.089	123.56
197.308	10.92
197.528	94.89
197.747	-34.13
197.966	-52.56
198.185	27.31
198.404	33.45
198.623	-58.71
198.842	72.36
199.062	47.79
199.281	37.55
199.5	64.17
199.719	6.83
199.938	86.7
200.157	29.35
200.376	45.74
200.595	64.17
200.814	10.92
201.033	-25.94
201.252	37.55
201.471	127.66
201.69	-9.56
201.909	39.59
202.128	-9.56
202.347	119.46
202.566	66.22
202.785	10.92
203.004	-3.41
203.223	121.51
203.442	-5.46
203.661	-25.94
203.879	-56.66
204.098	55.98
204.317	-1.37
204.536	86.7
204.755	-54.61
204.974	76.46
205.193	19.11
205.411	68.27
205.63	31.4
205.849	113.32
206.068	37.55
206.287	19.11
206.505	84.65
206.724	62.12
206.943	84.65
207.162	-1.37
207.381	-3.41
207.599	60.07
207.818	58.03
208.037	-23.89
208.255	-58.71
208.474	35.5
208.693	-11.61
208.911	4.78
209.13	6.83
209.349	35.5
209.567	31.4
209.786	35.5
210.005	-25.94
210.223	23.21
210.442	-17.75
210.661	62.12
210.879	0.68
211.098	41.64
211.316	29.35
211.535	49.83
211.753	8.87
211.972	6.83
212.191	80.55
212.409	-3.41
212.628	2.73
212.846	-19.8
213.065	68.27
213.283	31.4
213.502	10.92
213.72	-17.75
213.938	4.78
214.157	51.88
214.375	2.73
214.594	10.92
214.812	101.03
215.031	-34.13
215.249	8.87
215.467	-1.37
215.686	8.87
215.904	82.6
216.122	17.07
216.341	37.55
216.559	19.11
216.778	66.22
216.996	-3.41
217.214	70.31
217.432	35.5
217.651	51.88
217.869	33.45
218.087	41.64
218.306	29.35
218.524	101.03
218.742	-38.23
218.96	62.12
219.179	-3.41
219.397	2.73
219.615	39.59
219.833	15.02
220.051	25.26
220.27	43.69
220.488	27.31
220.706	88.75
220.924	49.83
221.142	-9.56
221.36	43.69
221.578	139.94
221.796	-11.61
222.015	-1.37
222.233	-5.46
222.451	19.11
222.669	2.73
222.887	107.18
223.105	-34.13
223.323	82.6
223.541	-11.61
223.759	101.03
223.977	19.11
224.195	29.35
224.413	23.21
224.631	6.83
224.849	-40.28
225.067	86.7
225.285	39.59
225.503	0.68
225.721	2.73
225.939	6.83
226.157	29.35
226.375	107.18
226.592	68.27
226.81	51.88
227.028	70.31
227.246	111.27
227.464	88.75
227.682	70.31
227.9	51.88
228.117	51.88
228.335	17.07
228.553	80.55
228.771	27.31
228.989	64.17
229.206	41.64
229.424	-83.28
229.642	33.45
229.86	0.68
230.077	103.08
230.295	49.83
230.513	10.92
230.731	58.03
230.948	55.98
231.166	74.41
231.384	15.02
231.601	-27.99
231.819	80.55
232.037	45.74
232.254	-19.8
232.472	70.31
232.689	8.87
232.907	58.03
233.125	17.07
233.342	-11.61
233.56	-9.56
233.777	4.78
233.995	6.83
234.213	29.35
234.43	88.75
234.648	37.55
234.865	-5.46
235.083	-32.08
235.3	90.79
235.518	25.26
235.735	111.27
235.953	74.41
236.17	-1.37
236.388	60.07
236.605	2.73
236.822	55.98
237.04	62.12
237.257	96.94
237.475	2.73
237.692	-32.08
237.909	23.21
238.127	19.11
238.344	4.78
238.562	-21.85
238.779	4.78
238.996	17.07
239.214	8.87
239.431	15.02
239.648	-42.32
239.865	84.65
240.083	47.79
240.3	31.4
240.517	12.97
240.735	-9.56
240.952	72.36
241.169	70.31
241.386	8.87
241.603	121.51
241.821	6.83
242.038	88.75
242.255	37.55
242.472	-1.37
242.689	51.88
242.907	33.45
243.124	47.79
243.341	29.35
243.558	27.31
243.775	-17.75
243.992	49.83
244.209	-42.32
244.426	4.78
244.643	51.88
244.86	-11.61
245.078	47.79
245.295	92.84
245.512	6.83
245.729	39.59
245.946	47.79
246.163	60.07
246.38	15.02
246.597	-9.56
246.814	25.26
247.031	25.26
247.248	58.03
247.464	27.31
247.681	94.89
247.898	43.69
248.115	62.12
248.332	-19.8
248.549	23.21
248.766	90.79
248.983	17.07
249.2	55.98
249.417	72.36
249.633	23.21
249.85	-13.65
250.067	4.78
250.284	66.22
250.501	-25.94
250.717	-11.61
250.934	23.21
251.151	66.22
251.368	23.21
251.585	70.31
251.801	70.31
252.018	39.59
252.235	6.83
252.451	-1.37
252.668	-23.89
252.885	-1.37
253.102	21.16
253.318	-25.94
253.535	-9.56
253.752	43.69
253.968	-5.46
254.185	31.4
254.401	-46.42
254.618	-46.42
254.835	70.31
255.051	76.46
255.268	29.35
255.484	19.11
255.701	33.45
255.917	17.07
256.134	64.17
256.351	15.02
256.567	86.7
256.784	43.69
257	15.02
257.217	58.03
257.433	41.64
257.65	70.31
257.866	49.83
258.082	15.02
258.299	-34.13
258.515	-13.65
258.732	-60.76
258.948	-44.37
259.165	51.88
259.381	-32.08
259.597	45.74
259.814	23.21
260.03	23.21
260.246	2.73
260.463	2.73
260.679	55.98
260.895	-54.61
261.112	60.07
261.328	27.31
261.544	17.07
261.761	88.75
261.977	55.98
262.193	27.31
262.409	39.59
262.626	19.11
262.842	31.4
263.058	23.21
263.274	53.93
263.49	70.31
263.707	29.35
263.923	-34.13
264.139	6.83
264.355	58.03
264.571	47.79
264.787	-19.8
265.004	117.42
265.22	8.87
265.436	-36.18
265.652	-1.37
265.868	84.65
266.084	53.93
266.3	51.88
266.516	39.59
266.732	19.11
266.948	43.69
267.164	43.69
267.38	62.12
267.596	41.64
267.812	64.17
268.028	49.83
268.244	4.78
268.46	84.65
268.676	27.31
268.892	60.07
269.108	10.92
269.324	55.98
269.54	29.35
269.756	64.17
269.972	105.13
270.188	47.79
270.403	-19.8
270.619	-13.65
270.835	-38.23
271.051	37.55
271.267	-46.42
271.483	-30.04
271.698	-32.08
271.914	64.17
272.13	-38.23
272.346	47.79
272.562	-13.65
272.777	43.69
272.993	-25.94
273.209	19.11
273.425	51.88
273.64	8.87
273.856	39.59
274.072	-7.51
274.287	12.97
274.503	25.26
274.719	47.79
274.934	8.87
275.15	-19.8
275.366	43.69
275.581	-1.37
275.797	21.16
276.012	2.73
276.228	55.98
276.444	0.68
276.659	109.22
276.875	47.79
277.09	39.59
277.306	31.4
277.521	23.21
277.737	15.02
277.952	35.5
278.168	-21.85
278.383	55.98
278.599	43.69
278.814	23.21
279.03	92.84
279.245	17.07
279.461	-34.13
279.676	35.5
279.892	6.83
280.107	43.69
280.322	-25.94
280.538	31.4
280.753	-27.99
280.969	35.5
281.184	2.73
281.399	19.11
281.615	-27.99
281.83	-19.8
282.045	64.17
282.26	19.11
282.476	125.61
282.691	101.03
282.906	107.18
283.122	33.45
283.337	17.07
283.552	31.4
283.767	6.83
283.983	19.11
284.198	64.17
284.413	-17.75
284.628	-7.51
284.843	-32.08
285.058	-11.61
285.274	43.69
285.489	12.97
285.704	137.9
285.919	47.79
286.134	60.07
286.349	45.74
286.564	-50.52
286.779	-19.8
286.995	47.79
287.21	23.21
287.425	6.83
287.64	21.16
287.855	47.79
288.07	45.74
288.285	74.41
288.5	49.83
288.715	4.78
288.93	-1.37
289.145	88.75
289.36	37.55
289.575	15.02
289.79	72.36
290.004	47.79
290.219	23.21
290.434	31.4
290.649	-3.41
290.864	51.88
291.079	41.64
291.294	-32.08
291.509	-11.61
291.724	33.45
291.938	39.59
292.153	35.5
292.368	-27.99
292.583	72.36
292.798	82.6
293.012	25.26
293.227	51.88
293.442	70.31
293.657	82.6
293.871	47.79
294.086	10.92
294.301	180.9
294.516	29.35
294.73	47.79
294.945	55.98
295.16	4.78
295.374	76.46
295.589	31.4
295.804	41.64
296.018	-1.37
296.233	45.74
296.447	27.31
296.662	45.74
296.877	109.22
297.091	70.31
297.306	8.87
297.52	29.35
297.735	39.59
297.949	27.31
298.164	39.59
298.378	72.36
298.593	60.07
298.807	-77.14
299.022	53.93
299.236	62.12
299.451	49.83
299.665	-38.23
299.88	55.98
300.094	70.31
300.309	37.55
300.523	98.99
300.737	31.4
300.952	-34.13
301.166	27.31
301.381	43.69
301.595	53.93
301.809	-5.46
302.024	94.89
302.238	23.21
302.452	21.16
302.667	72.36
302.881	35.5
303.095	76.46
303.309	45.74
303.524	53.93
303.738	8.87
303.952	23.21
304.166	31.4
304.381	-73.04
304.595	60.07
304.809	-9.56
305.023	-42.32
305.237	29.35
305.452	12.97
305.666	76.46
305.88	-9.56
306.094	60.07
306.308	55.98
306.522	82.6
306.736	45.74
306.95	111.27
307.164	74.41
307.379	21.16
307.593	88.75
307.807	53.93
308.021	29.35
308.235	62.12
308.449	2.73
308.663	45.74
308.877	94.89
309.091	19.11
309.305	121.51
309.519	-17.75
309.733	64.17
309.947	-42.32
310.161	39.59
310.374	45.74
310.588	72.36
310.802	-23.89
311.016	45.74
311.23	49.83
311.444	-1.37
311.658	37.55
311.872	53.93
312.085	8.87
312.299	58.03
312.513	66.22
312.727	-3.41
312.941	25.26
313.154	-3.41
313.368	45.74
313.582	51.88
313.796	2.73
314.009	86.7
314.223	23.21
314.437	31.4
314.651	72.36
314.864	92.84
315.078	17.07
315.292	-25.94
315.505	23.21
315.719	15.02
315.933	25.26
316.146	21.16
316.36	17.07
316.573	55.98
316.787	39.59
317.001	19.11
317.214	39.59
317.428	-32.08
317.641	25.26
317.855	98.99
318.068	47.79
318.282	-15.7
318.495	133.8
318.709	-15.7
318.922	-56.66
319.136	41.64
319.349	78.51
319.563	39.59
319.776	23.21
319.99	45.74
320.203	25.26
320.417	94.89
320.63	-34.13
320.843	58.03
321.057	80.55
321.27	92.84
321.483	96.94
321.697	76.46
321.91	47.79
322.124	72.36
322.337	-64.85
322.55	74.41
322.763	103.08
322.977	2.73
323.19	78.51
323.403	68.27
323.617	127.66
323.83	90.79
324.043	-23.89
324.256	-1.37
324.469	33.45
324.683	37.55
324.896	23.21
325.109	72.36
325.322	58.03
325.535	84.65
325.748	86.7
325.962	92.84
326.175	-9.56
326.388	107.18
326.601	86.7
326.814	10.92
327.027	62.12
327.24	41.64
327.453	17.07
327.666	15.02
327.879	10.92
328.092	17.07
328.305	74.41
328.518	66.22
328.731	31.4
328.944	80.55
329.157	41.64
329.37	19.11
329.583	37.55
329.796	74.41
330.009	17.07
330.222	45.74
330.435	82.6
330.648	2.73
330.861	60.07
331.073	31.4
331.286	-5.46
331.499	74.41
331.712	15.02
331.925	8.87
332.138	-38.23
332.35	41.64
332.563	41.64
332.776	117.42
332.989	51.88
333.202	-5.46
333.414	23.21
333.627	88.75
333.84	35.5
334.053	68.27
334.265	10.92
334.478	68.27
334.691	64.17
334.903	49.83
335.116	21.16
335.329	-5.46
335.541	137.9
335.754	72.36
335.966	31.4
336.179	39.59
336.392	60.07
336.604	55.98
336.817	96.94
337.029	-38.23
337.242	78.51
337.454	129.7
337.667	66.22
337.88	80.55
338.092	129.7
338.305	39.59
338.517	15.02
338.729	55.98
338.942	68.27
339.154	-1.37
339.367	25.26
339.579	68.27
339.792	12.97
340.004	29.35
340.217	-30.04
340.429	66.22
340.641	15.02
340.854	-1.37
341.066	-11.61
341.278	27.31
341.491	88.75
341.703	47.79
341.915	-7.51
342.128	29.35
342.34	39.59
342.552	27.31
342.764	23.21
342.977	51.88
343.189	105.13
343.401	53.93
343.613	27.31
343.826	-3.41
344.038	2.73
344.25	45.74
344.462	-5.46
344.674	146.09
344.886	72.36
345.099	90.79
345.311	76.46
345.523	27.31
345.735	-66.9
345.947	37.55
346.159	25.26
346.371	45.74
346.583	53.93
346.795	74.41
347.007	113.32
347.219	19.11
347.431	39.59
347.643	70.31
347.855	-9.56
348.067	72.36
348.279	31.4
348.491	31.4
348.703	70.31
348.915	35.5
349.127	23.21
349.339	70.31
349.551	-23.89
349.763	107.18
349.975	43.69
350.187	113.32
350.399	35.5
350.61	31.4
350.822	88.75
351.034	70.31
351.246	29.35
351.458	111.27
351.669	49.83
351.881	-5.46
352.093	35.5
352.305	-1.37
352.517	78.51
352.728	51.88
352.94	-21.85
353.152	-25.94
353.363	15.02
353.575	101.03
353.787	33.45
353.999	-21.85
354.21	70.31
354.422	51.88
354.633	88.75
354.845	72.36
355.057	49.83
355.268	86.7
355.48	51.88
355.692	47.79
355.903	25.26
356.115	80.55
356.326	-15.7
356.538	101.03
356.749	90.79
356.961	60.07
357.172	70.31
357.384	-54.61
357.595	90.79
357.807	12.97
358.018	-1.37
358.23	27.31
358.441	107.18
358.653	72.36
358.864	-7.51
359.075	8.87
359.287	25.26
359.498	62.12
359.709	96.94
359.921	70.31
360.132	53.93
360.344	101.03
360.555	43.69
360.766	105.13
360.977	15.02
361.189	29.35
361.4	101.03
361.611	37.55
361.823	154.28
362.034	55.98
362.245	49.83
362.456	-15.7
362.667	98.99
362.879	29.35
363.09	105.13
363.301	-17.75
363.512	25.26
363.723	29.35
363.935	-3.41
364.146	53.93
364.357	27.31
364.568	53.93
364.779	60.07
364.99	55.98
365.201	39.59
365.412	15.02
365.623	45.74
365.834	90.79
366.045	78.51
366.256	84.65
366.467	2.73
366.678	15.02
366.889	55.98
367.1	49.83
367.311	68.27
367.522	-17.75
367.733	96.94
367.944	82.6
368.155	88.75
368.366	160.42
368.577	105.13
368.788	88.75
368.999	-27.99
369.209	60.07
369.42	78.51
369.631	168.62
369.842	135.85
370.053	58.03
370.264	29.35
370.474	-27.99
370.685	80.55
370.896	60.07
371.107	53.93
371.317	121.51
371.528	68.27
371.739	53.93
371.95	41.64
372.16	107.18
372.371	41.64
372.582	43.69
372.792	55.98
373.003	60.07
373.214	78.51
373.424	64.17
373.635	-13.65
373.846	41.64
374.056	53.93
374.267	10.92
374.477	109.22
374.688	45.74
374.898	49.83
375.109	74.41
375.319	53.93
375.53	-13.65
375.74	33.45
375.951	64.17
376.161	47.79
376.372	121.51
376.582	29.35
376.793	60.07
377.003	2.73
377.214	111.27
377.424	-1.37
377.635	37.55
377.845	8.87
378.055	115.37
378.266	43.69
378.476	109.22
378.686	37.55
378.897	41.64
379.107	133.8
379.317	58.03
379.528	31.4
379.738	98.99
379.948	21.16
380.158	137.9
380.369	68.27
380.579	115.37
380.789	39.59
380.999	31.4
381.21	17.07
381.42	156.33
381.63	45.74
381.84	68.27
382.05	23.21
382.261	133.8
382.471	53.93
382.681	51.88
382.891	78.51
383.101	117.42
383.311	17.07
383.521	-19.8
383.731	117.42
383.941	105.13
384.151	37.55
384.361	74.41
384.571	94.89
384.781	64.17
384.991	156.33
385.201	80.55
385.411	49.83
385.621	78.51
385.831	111.27
386.041	152.23
386.251	109.22
386.461	51.88
386.671	45.74
386.881	51.88
387.091	-11.61
387.301	98.99
387.511	43.69
387.72	74.41
387.93	105.13
388.14	21.16
388.35	96.94
388.56	146.09
388.769	156.33
388.979	39.59
389.189	49.83
389.399	64.17
389.609	109.22
389.818	154.28
390.028	-9.56
390.238	98.99
390.447	49.83
390.657	60.07
390.867	23.21
391.076	41.64
391.286	76.46
391.496	35.5
391.705	86.7
391.915	41.64
392.125	55.98
392.334	103.08
392.544	117.42
392.753	51.88
392.963	60.07
393.172	43.69
393.382	88.75
393.591	160.42
393.801	12.97
394.01	74.41
394.22	78.51
394.429	45.74
394.639	127.66
394.848	127.66
395.058	139.94
395.267	68.27
395.477	113.32
395.686	178.86
395.895	107.18
396.105	84.65
396.314	51.88
396.524	174.76
396.733	94.89
396.942	146.09
397.152	107.18
397.361	152.23
397.57	68.27
397.78	129.7
397.989	137.9
398.198	148.14
398.407	121.51
398.617	113.32
398.826	74.41
399.035	158.38
399.244	107.18
399.453	113.32
399.663	103.08
399.872	133.8
400.081	51.88
400.29	176.81
400.499	144.04
400.708	127.66
400.917	164.52
401.127	111.27
401.336	123.56
401.545	146.09
401.754	129.7
401.963	98.99
402.172	137.9
402.381	141.99
402.59	199.34
402.799	152.23
403.008	180.9
403.217	158.38
403.426	170.66
403.635	152.23
403.844	168.62
404.053	162.47
404.262	201.38
404.471	51.88
404.68	158.38
404.888	141.99
405.097	117.42
405.306	135.85
405.515	242.34
405.724	166.57
405.933	223.91
406.142	240.29
406.35	185
406.559	250.53
406.768	225.96
406.977	195.24
407.185	256.68
407.394	146.09
407.603	146.09
407.812	228.01
408.02	359.08
408.229	211.62
408.438	281.25
408.646	285.35
408.855	268.97
409.064	342.69
409.272	252.58
409.481	328.36
409.69	299.69
409.898	346.79
410.107	305.83
410.315	408.23
410.524	357.03
410.733	408.23
410.941	408.23
411.15	436.9
411.358	457.38
411.567	500.39
411.775	481.96
411.984	567.97
412.192	543.39
412.401	508.58
412.609	559.78
412.818	502.43
413.026	545.44
413.234	600.74
413.443	660.13
413.651	610.98
413.86	735.9
414.068	727.71
414.276	674.46
414.485	682.66
414.693	711.33
414.901	864.93
415.11	746.14
415.318	803.49
415.526	895.64
415.734	922.27
415.943	1006.24
416.151	944.8
416.359	971.42
416.567	1086.11
416.776	1104.54
416.984	1133.21
417.192	1102.49
417.4	1225.37
417.608	1110.68
417.817	1176.22
418.025	1319.57
418.233	1356.44
418.441	1370.77
418.649	1473.17
418.857	1497.75
419.065	1596.05
419.273	1522.32
419.481	1594
419.689	1780.37
419.897	1735.31
420.105	1804.94
420.313	1825.42
420.521	1901.2
420.729	2034.32
420.937	1923.73
421.145	2069.13
421.353	2235.02
421.561	2323.08
421.769	2415.24
421.977	2376.33
422.185	2400.9
422.393	2587.27
422.601	2646.66
422.809	2617.99
423.017	2804.35
423.224	2873.98
423.432	2937.47
423.64	2968.19
423.848	3322.49
424.056	3078.78
424.263	3400.31
424.471	3510.9
424.679	3527.28
424.887	3656.31
425.094	3754.61
425.302	3838.58
425.51	3988.08
425.718	4102.76
425.925	4209.26
426.133	4260.46
426.341	4680.29
426.548	4696.67
426.756	4772.45
426.964	4620.9
427.171	5012.06
427.379	5225.05
427.586	5366.36
427.794	5476.95
428.001	5675.6
428.209	5978.7
428.417	5841.49
428.624	6378.06
428.832	6289.99
429.039	6136.4
429.247	6187.6
429.454	6761.03
429.662	7264.83
429.869	6853.19
430.076	7244.35
430.284	7158.33
430.491	7338.55
430.699	7813.68
430.906	7875.12
431.114	7838.26
431.321	8301.1
431.528	8421.93
431.736	9040.42
431.943	9314.84
432.15	9097.76
432.358	9343.52
432.565	9755.16
432.772	9654.81
432.979	10084.88
433.187	10406.41
433.394	10406.41
433.601	11127.3
433.808	11276.8
434.016	11043.33
434.223	11661.82
434.43	12120.56
434.637	11794.93
434.844	12593.64
435.052	13023.72
435.259	12833.25
435.466	13169.12
435.673	12997.09
435.88	13814.23
436.087	14576.08
436.294	14436.81
436.501	14131.67
436.708	14539.21
436.915	14848.46
437.122	15475.13
437.329	15610.3
437.537	16290.23
437.743	16499.12
437.95	16206.26
438.157	17093.03
438.364	17858.97
438.571	17727.9
438.778	17586.59
438.985	19392.9
439.192	18719.12
439.399	19278.21
439.606	18669.97
439.813	19900.79
440.02	21191.02
440.227	20662.64
440.433	20318.58
440.64	21168.49
440.847	21010.79
441.054	21557.6
441.261	23126.35
441.467	22702.42
441.674	23439.68
441.881	23925.05
442.088	24146.23
442.294	23898.43
442.501	24570.16
442.708	24893.74
442.914	26071.32
443.121	27005.2
443.328	26472.73
443.534	28031.23
443.741	27490.57
443.948	27169.04
444.154	29229.29
444.361	28864.75
444.568	29300.97
444.774	28940.53
444.981	29343.98
445.187	30447.83
445.394	31813.83
445.6	31101.14
445.807	34099.36
446.013	32487.61
446.22	33378.48
446.426	34197.66
446.633	34468
446.839	36161.67
447.046	34242.72
447.252	36401.28
447.459	36518.01
447.665	35983.49
447.871	37630.06
448.078	39176.28
448.284	37535.85
448.491	38326.37
448.697	39551.06
448.903	40714.3
449.11	40812.6
449.316	39706.7
449.522	40372.29
449.728	41322.55
449.935	42369.06
450.141	41752.62
450.347	42410.02
450.553	41549.87
450.76	41803.82
450.966	42934.3
451.172	42561.57
451.378	43780.11
451.584	42733.6
451.791	43964.43
451.997	43741.2
452.203	44564.48
452.409	44222.47
452.615	44120.07
452.821	42080.3
453.027	42231.85
453.233	44001.29
453.44	42459.17
453.646	42440.74
453.852	42381.35
454.058	43509.78
454.264	42225.7
454.47	42641.44
454.676	41746.48
454.882	43313.17
455.088	39379.03
455.294	39870.54
455.5	40587.33
455.705	41171
455.911	39104.6
456.117	38424.67
456.323	37603.44
456.529	35567.76
456.735	37447.79
456.941	36272.26
457.147	35651.72
457.352	34889.88
457.558	34099.36
457.764	34455.71
457.97	33261.74
458.176	32645.3
458.381	32641.21
458.587	31420.62
458.793	31082.7
458.999	29507.82
459.204	31637.7
459.41	30443.74
459.616	28928.24
459.821	28707.06
460.027	28530.94
460.233	27683.08
460.438	26511.64
460.644	27097.36
460.85	25753.89
461.055	25286.95
461.261	25098.54
461.466	23404.87
461.672	22759.76
461.878	24424.76
462.083	22679.89
462.289	22286.68
462.494	22085.98
462.7	20896.11
462.905	20623.73
463.111	21209.45
463.316	21438.82
463.522	20818.28
463.727	20818.28
463.932	20443.51
464.138	20515.19
464.343	20648.3
464.549	20359.54
464.754	20982.12
464.959	20765.04
465.165	20492.66
465.37	19722.62
465.575	19251.59
465.781	20111.74
465.986	19992.95
466.191	19437.95
466.397	19102.09
466.602	18104.73
466.807	18717.07
467.012	18684.3
