Data from USB4F104151__91__10-24-29-200.txt Node

Date: Wed Mar 12 10:24:29 EDT 2025
User: louis
Spectrometer: USB4F10415
Trigger mode: 4
Integration Time (sec): 3.000000E-2
Scans to average: 1
Electric dark correction enabled: true
Nonlinearity correction enabled: false
Boxcar width: 0
XAxis mode: Wavelengths
Number of Pixels in Spectrum: 3648
>>>>>Begin Spectral Data<<<<<
178.204	-121.51
178.424	-121.51
178.644	-121.51
178.864	-129.7
179.084	-101.03
179.304	-43.69
179.524	-35.5
179.744	64.85
179.964	62.8
180.184	-29.35
180.404	-4.78
180.624	-27.31
180.844	34.13
181.064	-45.74
181.283	1.37
181.503	-17.07
181.723	40.28
181.943	-19.11
182.163	40.28
182.383	38.23
182.602	36.18
182.822	132.44
183.042	-25.26
183.262	103.76
183.482	-19.11
183.701	60.76
183.921	-43.69
184.141	-4.78
184.361	95.57
184.58	-51.88
184.8	52.56
185.02	-10.92
185.239	73.04
185.459	17.75
185.679	-0.68
185.898	17.75
186.118	46.42
186.338	40.28
186.557	-8.87
186.777	1.37
186.997	34.13
187.216	77.14
187.436	64.85
187.655	91.48
187.875	91.48
188.095	9.56
188.314	48.47
188.534	42.32
188.753	1.37
188.973	60.76
189.192	44.37
189.412	25.94
189.631	9.56
189.851	58.71
190.07	66.9
190.29	17.75
190.509	40.28
190.729	46.42
190.948	75.09
191.168	79.19
191.387	85.33
191.607	21.85
191.826	5.46
192.045	56.66
192.265	34.13
192.484	42.32
192.704	75.09
192.923	-51.88
193.142	204.11
193.362	68.95
193.581	-4.78
193.8	75.09
194.02	7.51
194.239	89.43
194.458	109.91
194.678	17.75
194.897	1.37
195.116	68.95
195.335	46.42
195.555	68.95
195.774	58.71
195.993	34.13
196.212	42.32
196.432	105.81
196.651	25.94
196.87	7.51
197.089	64.85
197.308	56.66
197.528	101.72
197.747	44.37
197.966	-45.74
198.185	5.46
198.404	93.52
198.623	-55.98
198.842	56.66
199.062	97.62
199.281	79.19
199.5	1.37
199.719	-12.97
199.938	-8.87
200.157	103.76
200.376	38.23
200.595	87.38
200.814	87.38
201.033	21.85
201.252	81.24
201.471	75.09
201.69	42.32
201.909	73.04
202.128	62.8
202.347	21.85
202.566	64.85
202.785	17.75
203.004	-53.93
203.223	46.42
203.442	25.94
203.661	-27.31
203.879	58.71
204.098	75.09
204.317	36.18
204.536	25.94
204.755	1.37
204.974	144.72
205.193	75.09
205.411	111.96
205.63	85.33
205.849	148.82
206.068	23.89
206.287	38.23
206.505	32.08
206.724	62.8
206.943	34.13
207.162	56.66
207.381	36.18
207.599	56.66
207.818	27.99
208.037	105.81
208.255	27.99
208.474	-8.87
208.693	122.2
208.911	-2.73
209.13	32.08
209.349	77.14
209.567	75.09
209.786	87.38
210.005	79.19
210.223	68.95
210.442	15.7
210.661	56.66
210.879	21.85
211.098	1.37
211.316	81.24
211.535	66.9
211.753	17.75
211.972	30.04
212.191	27.99
212.409	27.99
212.628	60.76
212.846	15.7
213.065	64.85
213.283	54.61
213.502	9.56
213.72	89.43
213.938	-10.92
214.157	73.04
214.375	13.65
214.594	-4.78
214.812	165.2
215.031	21.85
215.249	-53.93
215.467	109.91
215.686	83.28
215.904	50.52
216.122	30.04
216.341	44.37
216.559	93.52
216.778	54.61
216.996	44.37
217.214	46.42
217.432	25.94
217.651	32.08
217.869	56.66
218.087	99.67
218.306	87.38
218.524	116.05
218.742	58.71
218.96	101.72
219.179	-27.31
219.397	44.37
219.615	83.28
219.833	50.52
220.051	30.04
220.27	148.82
220.488	42.32
220.706	30.04
220.924	77.14
221.142	46.42
221.36	30.04
221.578	21.85
221.796	5.46
222.015	-4.78
222.233	36.18
222.451	36.18
222.669	56.66
222.887	21.85
223.105	-25.26
223.323	73.04
223.541	54.61
223.759	13.65
223.977	81.24
224.195	60.76
224.413	83.28
224.631	38.23
224.849	25.94
225.067	89.43
225.285	7.51
225.503	44.37
225.721	-10.92
225.939	-19.11
226.157	38.23
226.375	42.32
226.592	66.9
226.81	64.85
227.028	21.85
227.246	87.38
227.464	50.52
227.682	50.52
227.9	52.56
228.117	46.42
228.335	25.94
228.553	77.14
228.771	3.41
228.989	58.71
229.206	25.94
229.424	-10.92
229.642	66.9
229.86	89.43
230.077	109.91
230.295	-17.07
230.513	40.28
230.731	1.37
230.948	58.71
231.166	64.85
231.384	-6.83
231.601	44.37
231.819	73.04
232.037	44.37
232.254	-55.98
232.472	109.91
232.689	73.04
232.907	101.72
233.125	-29.35
233.342	71
233.56	32.08
233.777	-6.83
233.995	44.37
234.213	83.28
234.43	38.23
234.648	11.61
234.865	25.94
235.083	107.86
235.3	46.42
235.518	85.33
235.735	81.24
235.953	75.09
236.17	50.52
236.388	71
236.605	27.99
236.822	89.43
237.04	15.7
237.257	52.56
237.475	-15.02
237.692	58.71
237.909	71
238.127	38.23
238.344	93.52
238.562	46.42
238.779	25.94
238.996	44.37
239.214	71
239.431	75.09
239.648	15.7
239.865	27.99
240.083	71
240.3	23.89
240.517	60.76
240.735	54.61
240.952	99.67
241.169	124.24
241.386	109.91
241.603	32.08
241.821	-19.11
242.038	85.33
242.255	42.32
242.472	83.28
242.689	-2.73
242.907	-17.07
243.124	64.85
243.341	71
243.558	81.24
243.775	23.89
243.992	50.52
244.209	46.42
244.426	50.52
244.643	13.65
244.86	-47.79
245.078	66.9
245.295	122.2
245.512	7.51
245.729	89.43
245.946	83.28
246.163	79.19
246.38	85.33
246.597	9.56
246.814	-17.07
247.031	1.37
247.248	66.9
247.464	58.71
247.681	13.65
247.898	42.32
248.115	19.8
248.332	120.15
248.549	58.71
248.766	73.04
248.983	-6.83
249.2	38.23
249.417	-0.68
249.633	46.42
249.85	52.56
250.067	44.37
250.284	66.9
250.501	-0.68
250.717	77.14
250.934	91.48
251.151	32.08
251.368	75.09
251.585	87.38
251.801	-25.26
252.018	36.18
252.235	71
252.451	1.37
252.668	46.42
252.885	83.28
253.102	17.75
253.318	-8.87
253.535	-8.87
253.752	21.85
253.968	15.7
254.185	1.37
254.401	50.52
254.618	5.46
254.835	9.56
255.051	77.14
255.268	89.43
255.484	42.32
255.701	17.75
255.917	68.95
256.134	17.75
256.351	30.04
256.567	40.28
256.784	40.28
257	-37.55
257.217	-43.69
257.433	91.48
257.65	64.85
257.866	97.62
258.082	27.99
258.299	64.85
258.515	83.28
258.732	66.9
258.948	-64.17
259.165	58.71
259.381	97.62
259.597	52.56
259.814	91.48
260.03	40.28
260.246	9.56
260.463	1.37
260.679	42.32
260.895	83.28
261.112	1.37
261.328	34.13
261.544	58.71
261.761	36.18
261.977	60.76
262.193	7.51
262.409	7.51
262.626	130.39
262.842	5.46
263.058	1.37
263.274	27.99
263.49	105.81
263.707	87.38
263.923	1.37
264.139	9.56
264.355	9.56
264.571	50.52
264.787	50.52
265.004	148.82
265.22	64.85
265.436	66.9
265.652	89.43
265.868	116.05
266.084	71
266.3	66.9
266.516	11.61
266.732	54.61
266.948	34.13
267.164	79.19
267.38	-10.92
267.596	93.52
267.812	75.09
268.028	17.75
268.244	-2.73
268.46	54.61
268.676	5.46
268.892	-19.11
269.108	46.42
269.324	34.13
269.54	58.71
269.756	87.38
269.972	-12.97
270.188	81.24
270.403	-27.31
270.619	64.85
270.835	9.56
271.051	62.8
271.267	30.04
271.483	-66.22
271.698	5.46
271.914	46.42
272.13	9.56
272.346	34.13
272.562	85.33
272.777	79.19
272.993	13.65
273.209	48.47
273.425	54.61
273.64	66.9
273.856	89.43
274.072	58.71
274.287	-17.07
274.503	66.9
274.719	75.09
274.934	62.8
275.15	-39.59
275.366	52.56
275.581	1.37
275.797	40.28
276.012	50.52
276.228	95.57
276.444	50.52
276.659	38.23
276.875	-6.83
277.09	107.86
277.306	58.71
277.521	-19.11
277.737	60.76
277.952	87.38
278.168	116.05
278.383	71
278.599	73.04
278.814	62.8
279.03	36.18
279.245	99.67
279.461	95.57
279.676	38.23
279.892	64.85
280.107	11.61
280.322	21.85
280.538	23.89
280.753	38.23
280.969	13.65
281.184	15.7
281.399	73.04
281.615	1.37
281.83	66.9
282.045	-31.4
282.26	7.51
282.476	-12.97
282.691	50.52
282.906	71
283.122	15.7
283.337	36.18
283.552	25.94
283.767	30.04
283.983	109.91
284.198	52.56
284.413	36.18
284.628	73.04
284.843	54.61
285.058	93.52
285.274	38.23
285.489	32.08
285.704	91.48
285.919	66.9
286.134	66.9
286.349	36.18
286.564	32.08
286.779	111.96
286.995	114
287.21	11.61
287.425	105.81
287.64	-10.92
287.855	-15.02
288.07	34.13
288.285	38.23
288.5	101.72
288.715	103.76
288.93	81.24
289.145	25.94
289.36	60.76
289.575	36.18
289.79	71
290.004	54.61
290.219	99.67
290.434	30.04
290.649	34.13
290.864	81.24
291.079	50.52
291.294	52.56
291.509	15.7
291.724	73.04
291.938	5.46
292.153	48.47
292.368	83.28
292.583	15.7
292.798	30.04
293.012	132.44
293.227	138.58
293.442	-12.97
293.657	50.52
293.871	140.63
294.086	48.47
294.301	50.52
294.516	30.04
294.73	38.23
294.945	83.28
295.16	73.04
295.374	38.23
295.589	91.48
295.804	91.48
296.018	21.85
296.233	130.39
296.447	81.24
296.662	25.94
296.877	122.2
297.091	42.32
297.306	71
297.52	34.13
297.735	21.85
297.949	95.57
298.164	73.04
298.378	50.52
298.593	-64.17
298.807	77.14
299.022	32.08
299.236	34.13
299.451	21.85
299.665	19.8
299.88	83.28
300.094	54.61
300.309	1.37
300.523	15.7
300.737	132.44
300.952	-2.73
301.166	75.09
301.381	52.56
301.595	23.89
301.809	42.32
302.024	52.56
302.238	52.56
302.452	34.13
302.667	30.04
302.881	99.67
303.095	107.86
303.309	89.43
303.524	9.56
303.738	5.46
303.952	19.8
304.166	38.23
304.381	17.75
304.595	27.99
304.809	-6.83
305.023	-2.73
305.237	34.13
305.452	21.85
305.666	13.65
305.88	58.71
306.094	79.19
306.308	38.23
306.522	58.71
306.736	79.19
306.95	93.52
307.164	25.94
307.379	5.46
307.593	32.08
307.807	116.05
308.021	107.86
308.235	103.76
308.449	66.9
308.663	1.37
308.877	128.34
309.091	36.18
309.305	-21.16
309.519	21.85
309.733	91.48
309.947	-10.92
310.161	148.82
310.374	95.57
310.588	79.19
310.802	109.91
311.016	36.18
311.23	66.9
311.444	58.71
311.658	1.37
311.872	83.28
312.085	83.28
312.299	83.28
312.513	42.32
312.727	64.85
312.941	-29.35
313.154	126.29
313.368	87.38
313.582	126.29
313.796	38.23
314.009	62.8
314.223	75.09
314.437	97.62
314.651	93.52
314.864	83.28
315.078	1.37
315.292	44.37
315.505	17.75
315.719	1.37
315.933	34.13
316.146	19.8
316.36	42.32
316.573	89.43
316.787	75.09
317.001	13.65
317.214	7.51
317.428	66.9
317.641	13.65
317.855	71
318.068	42.32
318.282	32.08
318.495	83.28
318.709	85.33
318.922	38.23
319.136	44.37
319.349	23.89
319.563	81.24
319.776	23.89
319.99	-29.35
320.203	77.14
320.417	77.14
320.63	30.04
320.843	122.2
321.057	68.95
321.27	46.42
321.483	97.62
321.697	46.42
321.91	50.52
322.124	83.28
322.337	15.7
322.55	23.89
322.763	-4.78
322.977	38.23
323.19	81.24
323.403	64.85
323.617	85.33
323.83	99.67
324.043	13.65
324.256	50.52
324.469	-4.78
324.683	-31.4
324.896	66.9
325.109	-25.26
325.322	64.85
325.535	83.28
325.748	95.57
325.962	95.57
326.175	109.91
326.388	105.81
326.601	73.04
326.814	68.95
327.027	48.47
327.24	83.28
327.453	34.13
327.666	54.61
327.879	32.08
328.092	83.28
328.305	87.38
328.518	19.8
328.731	52.56
328.944	9.56
329.157	111.96
329.37	66.9
329.583	75.09
329.796	107.86
330.009	-2.73
330.222	85.33
330.435	19.8
330.648	89.43
330.861	107.86
331.073	19.8
331.286	71
331.499	79.19
331.712	-49.83
331.925	95.57
332.138	23.89
332.35	48.47
332.563	1.37
332.776	99.67
332.989	34.13
333.202	38.23
333.414	13.65
333.627	48.47
333.84	116.05
334.053	77.14
334.265	87.38
334.478	83.28
334.691	11.61
334.903	87.38
335.116	-15.02
335.329	30.04
335.541	15.7
335.754	38.23
335.966	3.41
336.179	25.94
336.392	58.71
336.604	15.7
336.817	25.94
337.029	81.24
337.242	75.09
337.454	111.96
337.667	68.95
337.88	54.61
338.092	103.76
338.305	38.23
338.517	64.85
338.729	116.05
338.942	87.38
339.154	-10.92
339.367	-6.83
339.579	97.62
339.792	58.71
340.004	189.78
340.217	87.38
340.429	-8.87
340.641	42.32
340.854	60.76
341.066	152.92
341.278	25.94
341.491	85.33
341.703	87.38
341.915	66.9
342.128	66.9
342.34	85.33
342.552	34.13
342.764	50.52
342.977	73.04
343.189	66.9
343.401	85.33
343.613	-39.59
343.826	17.75
344.038	-0.68
344.25	107.86
344.462	54.61
344.674	36.18
344.886	-31.4
345.099	132.44
345.311	99.67
345.523	17.75
345.735	62.8
345.947	107.86
346.159	56.66
346.371	46.42
346.583	-2.73
346.795	48.47
347.007	-80.55
347.219	105.81
347.431	11.61
347.643	50.52
347.855	56.66
348.067	58.71
348.279	-43.69
348.491	23.89
348.703	99.67
348.915	-2.73
349.127	89.43
349.339	81.24
349.551	56.66
349.763	99.67
349.975	42.32
350.187	114
350.399	116.05
350.61	23.89
350.822	114
351.034	83.28
351.246	50.52
351.458	-27.31
351.669	111.96
351.881	114
352.093	91.48
352.305	97.62
352.517	73.04
352.728	107.86
352.94	62.8
353.152	1.37
353.363	97.62
353.575	83.28
353.787	38.23
353.999	13.65
354.21	66.9
354.422	44.37
354.633	15.7
354.845	77.14
355.057	58.71
355.268	32.08
355.48	56.66
355.692	46.42
355.903	116.05
356.115	32.08
356.326	68.95
356.538	58.71
356.749	40.28
356.961	118.1
357.172	5.46
357.384	-29.35
357.595	103.76
357.807	161.11
358.018	5.46
358.23	58.71
358.441	103.76
358.653	101.72
358.864	32.08
359.075	83.28
359.287	77.14
359.498	50.52
359.709	52.56
359.921	34.13
360.132	48.47
360.344	52.56
360.555	34.13
360.766	42.32
360.977	120.15
361.189	107.86
361.4	93.52
361.611	68.95
361.823	71
362.034	30.04
362.245	-51.88
362.456	48.47
362.667	91.48
362.879	64.85
363.09	118.1
363.301	73.04
363.512	95.57
363.723	97.62
363.935	44.37
364.146	157.01
364.357	17.75
364.568	103.76
364.779	83.28
364.99	107.86
365.201	13.65
365.412	148.82
365.623	120.15
365.834	7.51
366.045	13.65
366.256	124.24
366.467	54.61
366.678	9.56
366.889	71
367.1	27.99
367.311	81.24
367.522	-6.83
367.733	107.86
367.944	79.19
368.155	62.8
368.366	89.43
368.577	87.38
368.788	107.86
368.999	-4.78
369.209	95.57
369.42	120.15
369.631	146.77
369.842	109.91
370.053	52.56
370.264	134.48
370.474	23.89
370.685	68.95
370.896	105.81
371.107	150.87
371.317	54.61
371.528	-27.31
371.739	114
371.95	50.52
372.16	44.37
372.371	99.67
372.582	71
372.792	68.95
373.003	54.61
373.214	17.75
373.424	83.28
373.635	50.52
373.846	142.68
374.056	120.15
374.267	97.62
374.477	21.85
374.688	19.8
374.898	40.28
375.109	83.28
375.319	66.9
375.53	42.32
375.74	36.18
375.951	130.39
376.161	109.91
376.372	107.86
376.582	79.19
376.793	68.95
377.003	-37.55
377.214	66.9
377.424	109.91
377.635	71
377.845	97.62
378.055	95.57
378.266	1.37
378.476	99.67
378.686	99.67
378.897	75.09
379.107	101.72
379.317	64.85
379.528	60.76
379.738	103.76
379.948	83.28
380.158	77.14
380.369	44.37
380.579	101.72
380.789	71
380.999	77.14
381.21	101.72
381.42	120.15
381.63	83.28
381.84	58.71
382.05	150.87
382.261	30.04
382.471	75.09
382.681	107.86
382.891	136.53
383.101	34.13
383.311	66.9
383.521	103.76
383.731	114
383.941	66.9
384.151	107.86
384.361	81.24
384.571	116.05
384.781	68.95
384.991	200.02
385.201	120.15
385.411	48.47
385.621	132.44
385.831	62.8
386.041	91.48
386.251	91.48
386.461	193.87
386.671	75.09
386.881	114
387.091	17.75
387.301	79.19
387.511	50.52
387.72	118.1
387.93	99.67
388.14	89.43
388.35	66.9
388.56	132.44
388.769	54.61
388.979	157.01
389.189	42.32
389.399	120.15
389.609	165.2
389.818	114
390.028	79.19
390.238	97.62
390.447	83.28
390.657	181.59
390.867	101.72
391.076	50.52
391.286	120.15
391.496	107.86
391.705	83.28
391.915	109.91
392.125	58.71
392.334	157.01
392.544	179.54
392.753	75.09
392.963	99.67
393.172	95.57
393.382	97.62
393.591	220.5
393.801	87.38
394.01	181.59
394.22	126.29
394.429	87.38
394.639	50.52
394.848	116.05
395.058	146.77
395.267	105.81
395.477	116.05
395.686	122.2
395.895	128.34
396.105	193.87
396.314	134.48
396.524	150.87
396.733	130.39
396.942	126.29
397.152	138.58
397.361	191.83
397.57	91.48
397.78	107.86
397.989	124.24
398.198	204.11
398.407	161.11
398.617	132.44
398.826	189.78
399.035	77.14
399.244	185.68
399.453	157.01
399.663	95.57
399.872	132.44
400.081	140.63
400.29	214.35
400.499	197.97
400.708	175.44
400.917	181.59
401.127	173.39
401.336	146.77
401.545	189.78
401.754	210.26
401.963	89.43
402.172	81.24
402.381	140.63
402.59	165.2
402.799	124.24
403.008	165.2
403.217	210.26
403.426	177.49
403.635	165.2
403.844	150.87
404.053	245.07
404.262	193.87
404.471	300.37
404.68	193.87
404.888	189.78
405.097	128.34
405.306	240.98
405.515	179.54
405.724	236.88
405.933	218.45
406.142	206.16
406.35	261.46
406.559	230.74
406.768	148.82
406.977	243.03
407.185	243.03
407.394	314.7
407.603	185.68
407.812	243.03
408.02	318.8
408.229	296.27
408.438	333.14
408.646	265.55
408.855	347.47
409.064	357.71
409.272	236.88
409.481	402.77
409.69	300.37
409.898	374.1
410.107	339.28
410.315	431.44
410.524	499.02
410.733	423.25
410.941	431.44
411.15	488.78
411.358	456.01
411.567	470.35
411.775	509.26
411.984	408.91
412.192	599.37
412.401	570.7
412.609	566.6
412.818	560.46
413.026	640.33
413.234	628.04
413.443	640.33
413.651	687.43
413.86	697.67
414.068	744.78
414.276	716.11
414.485	771.4
414.693	812.36
414.901	867.66
415.11	861.51
415.318	949.57
415.526	982.34
415.734	902.47
415.943	976.2
416.151	1068.36
416.359	951.62
416.567	1043.78
416.776	1029.45
416.984	1111.36
417.192	1221.95
417.4	1140.04
417.608	1238.34
417.817	1185.09
418.025	1367.36
418.233	1350.98
418.441	1365.31
418.649	1525.05
418.857	1606.97
419.065	1629.5
419.273	1527.1
419.481	1611.07
419.689	1668.41
419.897	1789.24
420.105	1877.3
420.313	1856.83
420.521	1885.5
420.729	2039.09
420.937	2022.71
421.145	2229.56
421.353	2282.8
421.561	2317.62
421.769	2385.2
421.977	2465.07
422.185	2475.31
422.393	2510.13
422.601	2831.66
422.809	2823.47
423.017	2878.76
423.224	2841.9
423.432	3028.26
423.64	2987.3
423.848	3251.49
424.056	3231.01
424.263	3439.9
424.471	3388.71
424.679	3546.4
424.887	3732.76
425.094	3898.65
425.302	3822.88
425.51	4011.29
425.718	4062.49
425.925	4109.59
426.133	4224.28
426.341	4615.44
426.548	4683.02
426.756	4861.2
426.964	4844.81
427.171	5205.25
427.379	5340.42
427.586	5309.7
427.794	5549.31
428.001	5750.01
428.209	5960.95
428.417	5719.29
428.624	6249.72
428.832	6300.92
429.039	6128.89
429.247	6159.61
429.454	6796.53
429.662	7302.37
429.869	6612.21
430.076	7251.17
430.284	6958.32
430.491	7302.37
430.699	7824.61
430.906	7871.71
431.114	7701.73
431.321	8248.54
431.528	8240.34
431.736	8905.93
431.943	9170.12
432.15	9110.73
432.358	9008.33
432.565	9628.87
432.772	9524.42
432.979	10077.37
433.187	10374.33
433.394	10276.02
433.601	10994.86
433.808	10908.85
434.016	10734.77
434.223	11334.82
434.43	12018.85
434.637	11566.24
434.844	12551.32
435.052	12729.49
435.259	12655.76
435.466	12860.56
435.673	12518.55
435.88	13681.8
436.087	14085.25
436.294	14408.83
436.501	13829.25
436.708	14230.65
436.915	14451.83
437.122	15410.28
437.329	14961.78
437.537	15858.79
437.743	16024.67
437.95	15905.89
438.157	16716.89
438.364	17028.18
438.571	17022.03
438.778	17376.33
438.985	18582.59
439.192	18211.9
439.399	18756.66
439.606	18152.51
439.813	19180.59
440.02	20302.88
440.227	20126.75
440.433	19942.44
440.64	20626.46
440.847	20716.57
441.054	20962.33
441.261	22352.9
441.467	21832.71
441.674	22561.79
441.881	23235.57
442.088	23315.44
442.294	22817.79
442.501	23694.32
442.708	23788.52
442.914	25138.13
443.121	25856.97
443.328	25248.72
443.534	27204.53
443.741	26268.61
443.948	26151.88
444.154	28302.25
444.361	27620.27
444.568	28117.93
444.774	28027.82
444.981	28238.76
445.187	28971.93
445.394	30450.56
445.6	29920.14
445.807	32775.01
446.013	31124.35
446.22	31982.45
446.426	32969.57
446.633	33076.06
446.839	34331.47
447.046	33160.03
447.252	34761.54
447.459	34870.08
447.665	34872.13
447.871	36338.47
448.078	37780.24
448.284	35939.12
448.491	36436.78
448.697	38220.56
448.903	39045.89
449.11	38896.39
449.316	38292.24
449.522	39140.1
449.728	39987.96
449.935	40282.86
450.141	40020.72
450.347	40872.68
450.553	39662.33
450.76	40274.67
450.966	41237.22
451.172	41050.85
451.378	41884.37
451.584	41253.6
451.791	41906.9
451.997	41853.65
452.203	42627.79
452.409	42375.89
452.615	41994.96
452.821	40633.07
453.027	40041.2
453.233	42089.17
453.44	40624.87
453.646	41222.88
453.852	40469.23
454.058	41587.42
454.264	40446.7
454.47	41476.83
454.676	40217.33
454.882	41556.7
455.088	37796.63
455.294	38482.7
455.5	38853.38
455.705	39183.1
455.911	37663.51
456.117	37104.42
456.323	36584.23
456.529	34843.46
456.735	35828.53
456.941	35220.28
457.147	34159.44
457.352	33553.24
457.558	32938.85
457.764	33297.24
457.97	32701.28
458.176	31617.91
458.381	31605.62
458.587	30057.35
458.793	30309.25
458.999	28703.65
459.204	30346.12
459.41	29905.81
459.616	27876.27
459.821	27749.29
460.027	27521.97
460.233	27290.55
460.438	25832.4
460.644	26090.44
460.85	24929.24
461.055	24454.11
461.261	24511.46
461.466	22496.25
461.672	22135.81
461.878	23614.44
462.083	21904.39
462.289	21482.51
462.494	21251.09
462.7	20329.5
462.905	19792.94
463.111	20878.36
463.316	20794.39
463.522	20210.72
463.727	20427.81
463.932	20403.23
464.138	19967.01
464.343	20030.5
464.549	19790.89
464.754	20456.48
464.959	20134.95
465.165	19631.15
465.37	18953.27
465.575	18515
465.781	19321.9
465.986	19586.09
466.191	18852.92
466.397	18142.27
466.602	17417.29
466.807	17968.2
467.012	18263.1
467.218	17869.89
467.423	17972.29
467.628	17935.43
