Data from USB4F104151__133__10-25-45-811.txt Node

Date: Wed Mar 12 10:25:45 EDT 2025
User: louis
Spectrometer: USB4F10415
Trigger mode: 4
Integration Time (sec): 3.000000E-2
Scans to average: 1
Electric dark correction enabled: true
Nonlinearity correction enabled: false
Boxcar width: 0
XAxis mode: Wavelengths
Number of Pixels in Spectrum: 3648
>>>>>Begin Spectral Data<<<<<
178.204	-42.32
178.424	-42.32
178.644	-42.32
178.864	-157.01
179.084	-83.28
179.304	12.97
179.524	-52.56
179.744	2.73
179.964	37.55
180.184	4.78
180.404	2.73
180.624	0.68
180.844	12.97
181.064	-32.08
181.283	17.07
181.503	-5.46
181.723	-1.37
181.943	-68.95
182.163	29.35
182.383	-5.46
182.602	21.16
182.822	94.89
183.042	19.11
183.262	0.68
183.482	6.83
183.701	-52.56
183.921	-23.89
184.141	8.87
184.361	-30.04
184.58	-25.94
184.8	21.16
185.02	-19.8
185.239	10.92
185.459	4.78
185.679	15.02
185.898	-19.8
186.118	74.41
186.338	29.35
186.557	-11.61
186.777	-13.65
186.997	55.98
187.216	10.92
187.436	58.03
187.655	25.26
187.875	-42.32
188.095	-23.89
188.314	131.75
188.534	0.68
188.753	-38.23
188.973	55.98
189.192	66.22
189.412	-46.42
189.631	21.16
189.851	58.03
190.07	37.55
190.29	-9.56
190.509	-21.84
190.729	4.78
190.948	23.21
191.168	191.14
191.387	15.02
191.607	66.22
191.826	62.12
192.045	12.97
192.265	-9.56
192.484	27.31
192.704	37.55
192.923	-34.13
193.142	103.08
193.362	-15.7
193.581	33.45
193.8	25.26
194.02	17.07
194.239	-15.7
194.458	23.21
194.678	-25.94
194.897	17.07
195.116	82.6
195.335	21.16
195.555	64.17
195.774	53.93
195.993	41.64
196.212	33.45
196.432	41.64
196.651	-5.46
196.87	0.68
197.089	33.45
197.308	35.5
197.528	82.6
197.747	-15.7
197.966	-34.13
198.185	94.89
198.404	-3.41
198.623	29.35
198.842	113.32
199.062	49.83
199.281	76.46
199.5	94.89
199.719	-1.37
199.938	88.75
200.157	-5.46
200.376	90.79
200.595	29.35
200.814	53.93
201.033	8.87
201.252	43.69
201.471	31.4
201.69	58.03
201.909	37.55
202.128	19.11
202.347	88.75
202.566	6.83
202.785	12.97
203.004	62.12
203.223	107.18
203.442	31.4
203.661	-52.56
203.879	33.45
204.098	4.78
204.317	-25.94
204.536	25.26
204.755	-27.99
204.974	12.97
205.193	-15.7
205.411	60.07
205.63	-7.51
205.849	19.11
206.068	31.4
206.287	27.31
206.505	4.78
206.724	101.03
206.943	37.55
207.162	-23.89
207.381	4.78
207.599	6.83
207.818	39.59
208.037	15.02
208.255	8.87
208.474	58.03
208.693	0.68
208.911	-3.41
209.13	101.03
209.349	-27.99
209.567	74.41
209.786	70.31
210.005	-15.7
210.223	-38.23
210.442	-23.89
210.661	90.79
210.879	8.87
211.098	17.07
211.316	47.79
211.535	53.93
211.753	4.78
211.972	64.17
212.191	45.74
212.409	8.87
212.628	-5.46
212.846	-3.41
213.065	6.83
213.283	66.22
213.502	31.4
213.72	15.02
213.938	12.97
214.157	41.64
214.375	51.88
214.594	17.07
214.812	35.5
215.031	55.98
215.249	8.87
215.467	8.87
215.686	6.83
215.904	94.89
216.122	-19.8
216.341	98.99
216.559	55.98
216.778	25.26
216.996	55.98
217.214	8.87
217.432	-19.8
217.651	-50.52
217.869	-30.04
218.087	41.64
218.306	-73.04
218.524	-11.61
218.742	21.16
218.96	58.03
219.179	19.11
219.397	21.16
219.615	70.31
219.833	-34.13
220.051	-9.56
220.27	-36.18
220.488	88.75
220.706	21.16
220.924	37.55
221.142	72.36
221.36	33.45
221.578	64.17
221.796	74.41
222.015	96.94
222.233	-19.8
222.451	113.32
222.669	-7.51
222.887	-25.94
223.105	-58.71
223.323	-42.32
223.541	12.97
223.759	68.27
223.977	15.02
224.195	53.93
224.413	35.5
224.631	94.89
224.849	31.4
225.067	19.11
225.285	68.27
225.503	41.64
225.721	-1.37
225.939	-25.94
226.157	27.31
226.375	53.93
226.592	-15.7
226.81	45.74
227.028	72.36
227.246	4.78
227.464	25.26
227.682	105.13
227.9	-13.65
228.117	17.07
228.335	4.78
228.553	43.69
228.771	-1.37
228.989	49.83
229.206	45.74
229.424	58.03
229.642	-42.32
229.86	15.02
230.077	55.98
230.295	35.5
230.513	4.78
230.731	29.35
230.948	-32.08
231.166	43.69
231.384	58.03
231.601	15.02
231.819	41.64
232.037	-52.56
232.254	-44.37
232.472	-7.51
232.689	33.45
232.907	58.03
233.125	25.26
233.342	-42.32
233.56	-19.8
233.777	49.83
233.995	-9.56
234.213	58.03
234.43	39.59
234.648	-7.51
234.865	-19.8
235.083	-3.41
235.3	41.64
235.518	98.99
235.735	90.79
235.953	64.17
236.17	-46.42
236.388	62.12
236.605	-30.04
236.822	8.87
237.04	66.22
237.257	-3.41
237.475	4.78
237.692	25.26
237.909	86.7
238.127	37.55
238.344	64.17
238.562	-27.99
238.779	-25.94
238.996	64.17
239.214	0.68
239.431	19.11
239.648	-11.61
239.865	62.12
240.083	90.79
240.3	-40.28
240.517	0.68
240.735	41.64
240.952	-7.51
241.169	101.03
241.386	4.78
241.603	47.79
241.821	-11.61
242.038	45.74
242.255	98.99
242.472	-48.47
242.689	25.26
242.907	47.79
243.124	23.21
243.341	33.45
243.558	-52.56
243.775	84.65
243.992	-21.84
244.209	62.12
244.426	92.84
244.643	15.02
244.86	31.4
245.078	17.07
245.295	-27.99
245.512	21.16
245.729	72.36
245.946	17.07
246.163	31.4
246.38	8.87
246.597	66.22
246.814	8.87
247.031	-32.08
247.248	70.31
247.464	33.45
247.681	37.55
247.898	15.02
248.115	64.17
248.332	-1.37
248.549	78.51
248.766	66.22
248.983	8.87
249.2	33.45
249.417	135.85
249.633	21.16
249.85	29.35
250.067	39.59
250.284	-3.41
250.501	51.88
250.717	41.64
250.934	6.83
251.151	25.26
251.368	-66.9
251.585	25.26
251.801	74.41
252.018	-23.89
252.235	21.16
252.451	-19.8
252.668	-32.08
252.885	-13.65
253.102	25.26
253.318	-58.71
253.535	84.65
253.752	15.02
253.968	-40.28
254.185	-11.61
254.401	51.88
254.618	29.35
254.835	45.74
255.051	47.79
255.268	58.03
255.484	-7.51
255.701	-13.65
255.917	68.27
256.134	-9.56
256.351	8.87
256.567	-23.89
256.784	55.98
257	-58.71
257.217	82.6
257.433	12.97
257.65	4.78
257.866	39.59
258.082	-56.66
258.299	74.41
258.515	62.12
258.732	31.4
258.948	-7.51
259.165	-11.61
259.381	-52.56
259.597	35.5
259.814	12.97
260.03	-19.8
260.246	72.36
260.463	15.02
260.679	31.4
260.895	6.83
261.112	25.26
261.328	-3.41
261.544	39.59
261.761	86.7
261.977	90.79
262.193	2.73
262.409	43.69
262.626	39.59
262.842	17.07
263.058	-48.47
263.274	-13.65
263.49	58.03
263.707	21.16
263.923	-42.32
264.139	-17.75
264.355	33.45
264.571	2.73
264.787	76.46
265.004	25.26
265.22	25.26
265.436	-7.51
265.652	107.18
265.868	37.55
266.084	21.16
266.3	84.65
266.516	23.21
266.732	58.03
266.948	6.83
267.164	33.45
267.38	39.59
267.596	-1.37
267.812	66.22
268.028	17.07
268.244	12.97
268.46	47.79
268.676	-60.76
268.892	39.59
269.108	78.51
269.324	31.4
269.54	25.26
269.756	127.66
269.972	15.02
270.188	76.46
270.403	12.97
270.619	37.55
270.835	-52.56
271.051	21.16
271.267	-7.51
271.483	21.16
271.698	129.7
271.914	12.97
272.13	90.79
272.346	-21.84
272.562	-3.41
272.777	29.35
272.993	0.68
273.209	0.68
273.425	29.35
273.64	27.31
273.856	90.79
274.072	74.41
274.287	12.97
274.503	58.03
274.719	49.83
274.934	37.55
275.15	12.97
275.366	58.03
275.581	-17.75
275.797	6.83
276.012	-40.28
276.228	-48.47
276.444	107.18
276.659	6.83
276.875	-52.56
277.09	90.79
277.306	27.31
277.521	19.11
277.737	25.26
277.952	60.07
278.168	2.73
278.383	-21.84
278.599	-46.42
278.814	53.93
279.03	49.83
279.245	94.89
279.461	4.78
279.676	62.12
279.892	45.74
280.107	-19.8
280.322	41.64
280.538	74.41
280.753	8.87
280.969	39.59
281.184	-3.41
281.399	25.26
281.615	17.07
281.83	-7.51
282.045	25.26
282.26	41.64
282.476	66.22
282.691	74.41
282.906	21.16
283.122	25.26
283.337	-27.99
283.552	-3.41
283.767	10.92
283.983	21.16
284.198	15.02
284.413	12.97
284.628	31.4
284.843	6.83
285.058	25.26
285.274	-38.23
285.489	-83.28
285.704	47.79
285.919	0.68
286.134	41.64
286.349	33.45
286.564	0.68
286.779	37.55
286.995	103.08
287.21	12.97
287.425	72.36
287.64	-11.61
287.855	25.26
288.07	29.35
288.285	80.55
288.5	4.78
288.715	10.92
288.93	10.92
289.145	43.69
289.36	-7.51
289.575	25.26
289.79	2.73
290.004	27.31
290.219	66.22
290.434	25.26
290.649	25.26
290.864	60.07
291.079	133.8
291.294	58.03
291.509	-27.99
291.724	8.87
291.938	-3.41
292.153	74.41
292.368	4.78
292.583	0.68
292.798	27.31
293.012	23.21
293.227	12.97
293.442	25.26
293.657	78.51
293.871	66.22
294.086	-15.7
294.301	90.79
294.516	45.74
294.73	8.87
294.945	31.4
295.16	21.16
295.374	15.02
295.589	29.35
295.804	43.69
296.018	8.87
296.233	-11.61
296.447	17.07
296.662	-30.04
296.877	64.17
297.091	12.97
297.306	66.22
297.52	53.93
297.735	45.74
297.949	39.59
298.164	70.31
298.378	-44.37
298.593	78.51
298.807	29.35
299.022	23.21
299.236	-7.51
299.451	33.45
299.665	8.87
299.88	39.59
300.094	-13.65
300.309	47.79
300.523	8.87
300.737	-13.65
300.952	41.64
301.166	39.59
301.381	-7.51
301.595	-17.75
301.809	-15.7
302.024	58.03
302.238	-1.37
302.452	49.83
302.667	47.79
302.881	119.46
303.095	-75.09
303.309	4.78
303.524	-19.8
303.738	29.35
303.952	43.69
304.166	0.68
304.381	-7.51
304.595	62.12
304.809	-25.94
305.023	4.78
305.237	70.31
305.452	17.07
305.666	66.22
305.88	51.88
306.094	64.17
306.308	29.35
306.522	43.69
306.736	45.74
306.95	53.93
307.164	15.02
307.379	58.03
307.593	58.03
307.807	74.41
308.021	12.97
308.235	58.03
308.449	-21.84
308.663	0.68
308.877	70.31
309.091	41.64
309.305	53.93
309.519	8.87
309.733	43.69
309.947	41.64
310.161	43.69
310.374	37.55
310.588	60.07
310.802	-27.99
311.016	-32.08
311.23	37.55
311.444	-19.8
311.658	43.69
311.872	37.55
312.085	53.93
312.299	41.64
312.513	-1.37
312.727	80.55
312.941	31.4
313.154	-27.99
313.368	35.5
313.582	82.6
313.796	12.97
314.009	41.64
314.223	43.69
314.437	58.03
314.651	51.88
314.864	-30.04
315.078	27.31
315.292	49.83
315.505	-7.51
315.719	76.46
315.933	47.79
316.146	-13.65
316.36	25.26
316.573	15.02
316.787	33.45
317.001	41.64
317.214	51.88
317.428	-3.41
317.641	19.11
317.855	-17.75
318.068	68.27
318.282	15.02
318.495	58.03
318.709	31.4
318.922	-42.32
319.136	41.64
319.349	41.64
319.563	35.5
319.776	101.03
319.99	39.59
320.203	23.21
320.417	19.11
320.63	-15.7
320.843	94.89
321.057	41.64
321.27	-30.04
321.483	76.46
321.697	76.46
321.91	-7.51
322.124	33.45
322.337	53.93
322.55	29.35
322.763	15.02
322.977	76.46
323.19	15.02
323.403	-42.32
323.617	-5.46
323.83	8.87
324.043	-25.94
324.256	53.93
324.469	-50.52
324.683	-11.61
324.896	80.55
325.109	58.03
325.322	-3.41
325.535	41.64
325.748	31.4
325.962	-15.7
326.175	35.5
326.388	-34.13
326.601	17.07
326.814	-9.56
327.027	60.07
327.24	72.36
327.453	-19.8
327.666	117.42
327.879	94.89
328.092	146.09
328.305	39.59
328.518	47.79
328.731	8.87
328.944	19.11
329.157	12.97
329.37	37.55
329.583	53.93
329.796	107.18
330.009	-19.8
330.222	123.56
330.435	72.36
330.648	70.31
330.861	-7.51
331.073	10.92
331.286	64.17
331.499	62.12
331.712	25.26
331.925	25.26
332.138	29.35
332.35	27.31
332.563	-36.18
332.776	12.97
332.989	62.12
333.202	58.03
333.414	-5.46
333.627	29.35
333.84	35.5
334.053	10.92
334.265	15.02
334.478	-36.18
334.691	0.68
334.903	31.4
335.116	74.41
335.329	19.11
335.541	90.79
335.754	51.88
335.966	76.46
336.179	21.16
336.392	74.41
336.604	39.59
336.817	74.41
337.029	86.7
337.242	55.98
337.454	41.64
337.667	33.45
337.88	47.79
338.092	82.6
338.305	25.26
338.517	33.45
338.729	4.78
338.942	105.13
339.154	-81.24
339.367	39.59
339.579	96.94
339.792	-23.89
340.004	76.46
340.217	4.78
340.429	-11.61
340.641	25.26
340.854	25.26
341.066	29.35
341.278	86.7
341.491	43.69
341.703	41.64
341.915	-11.61
342.128	-3.41
342.34	55.98
342.552	-11.61
342.764	49.83
342.977	90.79
343.189	19.11
343.401	53.93
343.613	2.73
343.826	33.45
344.038	-27.99
344.25	23.21
344.462	86.7
344.674	33.45
344.886	72.36
345.099	94.89
345.311	45.74
345.523	58.03
345.735	-13.65
345.947	62.12
346.159	49.83
346.371	-38.23
346.583	15.02
346.795	123.56
347.007	55.98
347.219	47.79
347.431	39.59
347.643	47.79
347.855	21.16
348.067	80.55
348.279	-7.51
348.491	60.07
348.703	55.98
348.915	51.88
349.127	-17.75
349.339	78.51
349.551	23.21
349.763	82.6
349.975	-9.56
350.187	-21.84
350.399	62.12
350.61	49.83
350.822	49.83
351.034	39.59
351.246	12.97
351.458	47.79
351.669	25.26
351.881	49.83
352.093	21.16
352.305	62.12
352.517	62.12
352.728	123.56
352.94	90.79
353.152	-32.08
353.363	113.32
353.575	-7.51
353.787	25.26
353.999	160.42
354.21	72.36
354.422	27.31
354.633	17.07
354.845	49.83
355.057	-27.99
355.268	86.7
355.48	45.74
355.692	17.07
355.903	139.94
356.115	12.97
356.326	-19.8
356.538	92.84
356.749	37.55
356.961	62.12
357.172	74.41
357.384	45.74
357.595	12.97
357.807	15.02
358.018	35.5
358.23	43.69
358.441	107.18
358.653	107.18
358.864	49.83
359.075	6.83
359.287	33.45
359.498	51.88
359.709	-3.41
359.921	70.31
360.132	39.59
360.344	62.12
360.555	74.41
360.766	41.64
360.977	103.08
361.189	98.99
361.4	-27.99
361.611	103.08
361.823	47.79
362.034	62.12
362.245	62.12
362.456	-36.18
362.667	12.97
362.879	43.69
363.09	37.55
363.301	72.36
363.512	33.45
363.723	49.83
363.935	60.07
364.146	33.45
364.357	53.93
364.568	27.31
364.779	6.83
364.99	51.88
365.201	39.59
365.412	45.74
365.623	-5.46
365.834	33.45
366.045	82.6
366.256	53.93
366.467	21.16
366.678	66.22
366.889	-36.18
367.1	76.46
367.311	76.46
367.522	86.7
367.733	15.02
367.944	82.6
368.155	-21.84
368.366	8.87
368.577	70.31
368.788	33.45
368.999	29.35
369.209	35.5
369.42	76.46
369.631	105.13
369.842	66.22
370.053	2.73
370.264	129.7
370.474	29.35
370.685	43.69
370.896	31.4
371.107	90.79
371.317	60.07
371.528	74.41
371.739	137.9
371.95	19.11
372.16	78.51
372.371	58.03
372.582	21.16
372.792	37.55
373.003	88.75
373.214	31.4
373.424	25.26
373.635	66.22
373.846	66.22
374.056	6.83
374.267	15.02
374.477	33.45
374.688	-15.7
374.898	72.36
375.109	98.99
375.319	60.07
375.53	70.31
375.74	-40.28
375.951	45.74
376.161	139.94
376.372	66.22
376.582	49.83
376.793	4.78
377.003	0.68
377.214	80.55
377.424	68.27
377.635	92.84
377.845	58.03
378.055	23.21
378.266	51.88
378.476	84.65
378.686	31.4
378.897	-13.65
379.107	80.55
379.317	66.22
379.528	17.07
379.738	80.55
379.948	64.17
380.158	103.08
380.369	27.31
380.579	115.37
380.789	66.22
380.999	33.45
381.21	86.7
381.42	41.64
381.63	0.68
381.84	98.99
382.05	58.03
382.261	68.27
382.471	23.21
382.681	101.03
382.891	107.18
383.101	182.95
383.311	-7.51
383.521	70.31
383.731	29.35
383.941	35.5
384.151	-36.18
384.361	74.41
384.571	55.98
384.781	94.89
384.991	86.7
385.201	68.27
385.411	78.51
385.621	27.31
385.831	60.07
386.041	96.94
386.251	62.12
386.461	66.22
386.671	31.4
386.881	82.6
387.091	6.83
387.301	53.93
387.511	47.79
387.72	55.98
387.93	103.08
388.14	78.51
388.35	27.31
388.56	156.33
388.769	74.41
388.979	21.16
389.189	47.79
389.399	115.37
389.609	74.41
389.818	101.03
390.028	74.41
390.238	117.42
390.447	86.7
390.657	58.03
390.867	25.26
391.076	62.12
391.286	88.75
391.496	41.64
391.705	0.68
391.915	74.41
392.125	49.83
392.334	55.98
392.544	-3.41
392.753	74.41
392.963	19.11
393.172	84.65
393.382	-7.51
393.591	144.04
393.801	131.75
394.01	166.57
394.22	123.56
394.429	60.07
394.639	23.21
394.848	107.18
395.058	35.5
395.267	43.69
395.477	25.26
395.686	58.03
395.895	98.99
396.105	156.33
396.314	146.09
396.524	131.75
396.733	94.89
396.942	101.03
397.152	96.94
397.361	170.66
397.57	55.98
397.78	25.26
397.989	47.79
398.198	107.18
398.407	47.79
398.617	164.52
398.826	119.46
399.035	45.74
399.244	82.6
399.453	72.36
399.663	107.18
399.872	125.61
400.081	49.83
400.29	88.75
400.499	90.79
400.708	133.8
400.917	154.28
401.127	109.23
401.336	82.6
401.545	135.85
401.754	101.03
401.963	150.18
402.172	74.41
402.381	168.62
402.59	103.08
402.799	185
403.008	172.71
403.217	105.13
403.426	178.86
403.635	148.14
403.844	160.42
404.053	37.55
404.262	82.6
404.471	176.81
404.68	105.13
404.888	148.14
405.097	-9.56
405.306	94.89
405.515	164.52
405.724	98.99
405.933	215.72
406.142	225.96
406.35	199.34
406.559	176.81
406.768	156.33
406.977	217.77
407.185	178.86
407.394	119.46
407.603	189.1
407.812	193.19
408.02	293.54
408.229	180.9
408.438	289.45
408.646	146.09
408.855	213.67
409.064	201.38
409.272	252.58
409.481	328.36
409.69	250.53
409.898	273.06
410.107	252.58
410.315	322.21
410.524	275.11
410.733	354.98
410.941	375.46
411.15	463.52
411.358	436.9
411.567	352.93
411.775	465.57
411.984	418.47
412.192	461.48
412.401	449.19
412.609	422.56
412.818	531.11
413.026	467.62
413.234	535.2
413.443	469.67
413.651	516.77
413.86	520.87
414.068	592.55
414.276	610.98
414.485	615.07
414.693	645.79
414.901	783.01
415.11	752.29
415.318	643.74
415.526	780.96
415.734	785.05
415.943	869.02
416.151	836.25
416.359	844.45
416.567	801.44
416.776	879.26
416.984	971.42
417.192	1039
417.4	993.95
417.608	930.46
417.817	1092.25
418.025	1094.3
418.233	1290.9
418.441	1188.5
418.649	1188.5
418.857	1264.28
419.065	1268.38
419.273	1284.76
419.481	1344.15
419.689	1436.31
419.897	1565.33
420.105	1510.04
420.313	1551
420.521	1624.72
420.729	1702.54
420.937	1788.56
421.145	1737.36
421.353	1847.95
421.561	1917.58
421.769	1976.97
421.977	2069.13
422.185	2079.37
422.393	2151.05
422.601	2228.87
422.809	2316.94
423.017	2255.5
423.224	2368.13
423.432	2384.52
423.64	2493.06
423.848	2642.56
424.056	2620.03
424.263	2785.92
424.471	2851.46
424.679	2933.37
424.887	2962.05
425.094	3132.03
425.302	3250.81
425.51	3269.24
425.718	3424.89
425.925	3347.06
426.133	3490.42
426.341	3576.44
426.548	3910.26
426.756	3795.57
426.964	4002.41
427.171	4203.11
427.379	4209.26
427.586	4407.91
427.794	4530.79
428.001	4567.65
428.209	4762.21
428.417	4688.48
428.624	5057.12
428.832	5022.3
429.039	5034.59
429.247	5093.98
429.454	5661.27
429.662	5919.31
429.869	5689.94
430.076	5790.29
430.284	5851.73
430.491	5993.04
430.699	6521.42
430.906	6371.91
431.114	6492.74
431.321	6734.4
431.528	6763.08
431.736	7219.77
431.943	7592.5
432.15	7123.52
432.358	7506.49
432.565	7936.56
432.772	7852.59
432.979	8280.62
433.187	8368.68
433.394	8495.66
433.601	8841.76
433.808	8983.07
434.016	8763.94
434.223	9329.18
434.43	10140.18
434.637	9996.82
434.844	10207.76
435.052	10570.25
435.259	10439.18
435.466	10500.62
435.673	10498.57
435.88	11096.58
436.087	11610.62
436.294	11811.32
436.501	11440.64
436.708	11680.25
436.915	12048.88
437.122	12810.73
437.329	12364.27
437.537	12913.13
437.743	12886.5
437.95	12990.95
438.157	13629.91
438.364	14098.9
438.571	13937.11
438.778	14256.59
438.985	15677.88
439.192	14895.56
439.399	15606.2
439.606	15190.47
439.813	15950.26
440.02	16687.53
440.227	16425.39
440.433	16265.65
440.64	17019.3
440.847	16943.53
441.054	17226.15
441.261	18479.5
441.467	18362.77
441.674	18366.87
441.881	18999.69
442.088	19003.78
442.294	19126.66
442.501	19431.81
442.708	19595.65
442.914	20369.78
443.121	21475.68
443.328	20930.92
443.534	22360.41
443.741	21582.18
443.948	21610.85
444.154	23423.3
444.361	22823.25
444.568	23044.43
444.774	22931.79
444.981	23128.39
445.187	23796.03
445.394	24867.12
445.6	24615.22
445.807	26798.35
446.013	25622.82
446.22	26075.42
446.426	27042.06
446.633	26992.91
446.839	28176.64
447.046	26972.43
447.252	28563.7
447.459	28684.53
447.665	28504.31
447.871	29681.89
448.078	30650.58
448.284	29323.5
448.491	30120.16
448.697	31275.21
448.903	31385.8
449.11	31516.87
449.316	31518.92
449.522	31772.87
449.728	32626.87
449.935	33306.8
450.141	32932.02
450.347	33542.31
450.553	32680.12
450.76	32850.1
450.966	34267.3
451.172	33570.99
451.378	34187.42
451.584	33702.06
451.791	34361.5
451.997	34128.03
452.203	34881.69
452.409	34906.26
452.615	34863.25
452.821	33550.51
453.027	32837.81
453.233	34582.68
453.44	33274.03
453.646	33802.41
453.852	33976.48
454.058	34128.03
454.264	32960.69
454.47	33859.75
454.676	32737.46
454.882	34367.65
455.088	30920.91
455.294	31256.78
455.5	31729.86
455.705	32141.5
455.911	30699.73
456.117	30038.24
456.323	30118.11
456.529	28526.84
456.735	29604.07
456.941	28555.51
457.147	28274.94
457.352	27164.94
457.558	27101.45
457.764	26904.85
457.97	26638.61
458.176	26083.61
458.381	26018.08
458.587	24267.06
458.793	24664.37
458.999	23290.18
459.204	25223.47
459.41	24424.76
459.616	22987.08
459.821	22817.1
460.027	22647.12
460.233	22212.95
460.438	21305.7
460.644	21404
460.85	20478.32
461.055	19976.57
461.261	20115.83
461.466	18575.76
461.672	17764.76
461.878	19333.51
462.083	17910.17
462.289	17723.8
462.494	17529.25
462.7	16892.33
462.905	16325.04
463.111	16914.86
463.316	17041.83
463.522	16796.07
463.727	16589.23
463.932	16658.86
464.138	16576.94
464.343	16523.69
464.549	16062.9
464.754	16476.59
464.959	16558.51
465.165	16243.12
465.37	15602.11
465.575	15182.28
465.781	15950.26
465.986	16034.23
466.191	15442.37
466.397	15010.25
466.602	14100.95
466.807	14817.74
467.012	15038.92
467.218	14782.92
467.423	14641.61
467.628	14557.64
