Data from USB4F104151__231__10-30-17-634.txt Node

Date: Wed Mar 12 10:30:17 EDT 2025
User: louis
Spectrometer: USB4F10415
Trigger mode: 4
Integration Time (sec): 3.000000E-2
Scans to average: 1
Electric dark correction enabled: true
Nonlinearity correction enabled: false
Boxcar width: 0
XAxis mode: Wavelengths
Number of Pixels in Spectrum: 3648
>>>>>Begin Spectral Data<<<<<
178.204	-91.13
178.424	-91.13
178.644	-91.13
178.864	-113.66
179.084	-111.61
179.304	-39.94
179.524	1.02
179.744	52.22
179.964	11.26
180.184	-3.07
180.404	1.02
180.624	-1.02
180.844	23.55
181.064	25.6
181.283	-15.36
181.503	-3.07
181.723	-52.22
181.943	-15.36
182.163	41.98
182.383	44.03
182.602	54.27
182.822	37.89
183.042	66.56
183.262	39.94
183.482	-31.74
183.701	-13.31
183.921	1.02
184.141	50.18
184.361	76.8
184.58	19.46
184.8	-44.03
185.02	-44.03
185.239	76.8
185.459	68.61
185.679	111.61
185.898	-5.12
186.118	68.61
186.338	15.36
186.557	109.57
186.777	-19.46
186.997	-23.55
187.216	19.46
187.436	44.03
187.655	25.6
187.875	35.84
188.095	35.84
188.314	50.18
188.534	84.99
188.753	78.85
188.973	29.7
189.192	48.13
189.412	128
189.631	72.7
189.851	56.32
190.07	46.08
190.29	27.65
190.509	44.03
190.729	-33.79
190.948	-50.18
191.168	109.57
191.387	80.89
191.607	-5.12
191.826	46.08
192.045	17.41
192.265	91.13
192.484	23.55
192.704	17.41
192.923	37.89
193.142	171.01
193.362	-35.84
193.581	64.51
193.8	46.08
194.02	56.32
194.239	-37.89
194.458	52.22
194.678	11.26
194.897	39.94
195.116	56.32
195.335	-33.79
195.555	50.18
195.774	37.89
195.993	68.61
196.212	21.5
196.432	-29.7
196.651	-17.41
196.87	60.42
197.089	144.38
197.308	72.7
197.528	78.85
197.747	21.5
197.966	46.08
198.185	89.09
198.404	35.84
198.623	56.32
198.842	21.5
199.062	140.29
199.281	-17.41
199.5	-9.22
199.719	3.07
199.938	-7.17
200.157	56.32
200.376	7.17
200.595	117.76
200.814	-25.6
201.033	-37.89
201.252	109.57
201.471	41.98
201.69	56.32
201.909	52.22
202.128	-46.08
202.347	15.36
202.566	-19.46
202.785	25.6
203.004	-46.08
203.223	3.07
203.442	41.98
203.661	123.9
203.879	64.51
204.098	68.61
204.317	-17.41
204.536	27.65
204.755	72.7
204.974	68.61
205.193	64.51
205.411	105.47
205.63	5.12
205.849	-25.6
206.068	-9.22
206.287	58.37
206.505	-11.26
206.724	33.79
206.943	11.26
207.162	13.31
207.381	21.5
207.599	33.79
207.818	-1.02
208.037	-1.02
208.255	-33.79
208.474	62.46
208.693	17.41
208.911	-3.07
209.13	25.6
209.349	-37.89
209.567	31.74
209.786	121.85
210.005	39.94
210.223	15.36
210.442	-33.79
210.661	89.09
210.879	5.12
211.098	48.13
211.316	-29.7
211.535	-1.02
211.753	31.74
211.972	27.65
212.191	-7.17
212.409	48.13
212.628	56.32
212.846	-54.27
213.065	62.46
213.283	64.51
213.502	60.42
213.72	60.42
213.938	27.65
214.157	21.5
214.375	-19.46
214.594	68.61
214.812	29.7
215.031	41.98
215.249	-13.31
215.467	74.75
215.686	3.07
215.904	70.65
216.122	35.84
216.341	41.98
216.559	15.36
216.778	5.12
216.996	68.61
217.214	3.07
217.432	-31.74
217.651	-39.94
217.869	-7.17
218.087	60.42
218.306	11.26
218.524	48.13
218.742	-37.89
218.96	41.98
219.179	31.74
219.397	21.5
219.615	128
219.833	46.08
220.051	31.74
220.27	80.89
220.488	39.94
220.706	13.31
220.924	89.09
221.142	39.94
221.36	-33.79
221.578	48.13
221.796	44.03
222.015	3.07
222.233	-3.07
222.451	23.55
222.669	-11.26
222.887	50.18
223.105	-17.41
223.323	56.32
223.541	91.13
223.759	15.36
223.977	48.13
224.195	64.51
224.413	44.03
224.631	46.08
224.849	82.94
225.067	70.65
225.285	-29.7
225.503	56.32
225.721	-25.6
225.939	56.32
226.157	1.02
226.375	193.53
226.592	-72.7
226.81	1.02
227.028	70.65
227.246	105.47
227.464	-3.07
227.682	-3.07
227.9	60.42
228.117	3.07
228.335	39.94
228.553	-23.55
228.771	11.26
228.989	48.13
229.206	46.08
229.424	-21.5
229.642	123.9
229.86	3.07
230.077	11.26
230.295	1.02
230.513	111.61
230.731	21.5
230.948	101.37
231.166	111.61
231.384	23.55
231.601	-5.12
231.819	9.22
232.037	60.42
232.254	-13.31
232.472	-23.55
232.689	9.22
232.907	39.94
233.125	7.17
233.342	54.27
233.56	7.17
233.777	23.55
233.995	21.5
234.213	97.28
234.43	101.37
234.648	19.46
234.865	-19.46
235.083	19.46
235.3	37.89
235.518	62.46
235.735	52.22
235.953	-21.5
236.17	21.5
236.388	-37.89
236.605	15.36
236.822	128
237.04	62.46
237.257	27.65
237.475	19.46
237.692	87.04
237.909	68.61
238.127	-1.02
238.344	5.12
238.562	-44.03
238.779	-52.22
238.996	-60.42
239.214	-27.65
239.431	56.32
239.648	62.46
239.865	-1.02
240.083	-29.7
240.3	-21.5
240.517	46.08
240.735	97.28
240.952	54.27
241.169	107.52
241.386	109.57
241.603	-17.41
241.821	-54.27
242.038	72.7
242.255	48.13
242.472	11.26
242.689	41.98
242.907	46.08
243.124	64.51
243.341	-17.41
243.558	-21.5
243.775	44.03
243.992	35.84
244.209	35.84
244.426	74.75
244.643	13.31
244.86	3.07
245.078	91.13
245.295	46.08
245.512	89.09
245.729	-17.41
245.946	23.55
246.163	-13.31
246.38	-3.07
246.597	9.22
246.814	-33.79
247.031	11.26
247.248	19.46
247.464	56.32
247.681	74.75
247.898	-37.89
248.115	76.8
248.332	39.94
248.549	23.55
248.766	64.51
248.983	5.12
249.2	111.61
249.417	58.37
249.633	17.41
249.85	68.61
250.067	-31.74
250.284	17.41
250.501	72.7
250.717	-25.6
250.934	5.12
251.151	15.36
251.368	7.17
251.585	7.17
251.801	60.42
252.018	13.31
252.235	50.18
252.451	82.94
252.668	-23.55
252.885	78.85
253.102	13.31
253.318	66.56
253.535	-17.41
253.752	-21.5
253.968	7.17
254.185	-27.65
254.401	-11.26
254.618	62.46
254.835	13.31
255.051	56.32
255.268	-11.26
255.484	60.42
255.701	60.42
255.917	87.04
256.134	23.55
256.351	15.36
256.567	-39.94
256.784	66.56
257	-3.07
257.217	31.74
257.433	54.27
257.65	103.42
257.866	54.27
258.082	-27.65
258.299	13.31
258.515	101.37
258.732	70.65
258.948	78.85
259.165	54.27
259.381	3.07
259.597	19.46
259.814	64.51
260.03	109.57
260.246	-41.98
260.463	93.18
260.679	39.94
260.895	3.07
261.112	78.85
261.328	52.22
261.544	19.46
261.761	101.37
261.977	-1.02
262.193	-39.94
262.409	144.38
262.626	64.51
262.842	87.04
263.058	15.36
263.274	33.79
263.49	-1.02
263.707	58.37
263.923	13.31
264.139	-37.89
264.355	64.51
264.571	95.23
264.787	44.03
265.004	76.8
265.22	-41.98
265.436	-31.74
265.652	-23.55
265.868	44.03
266.084	-3.07
266.3	64.51
266.516	-35.84
266.732	89.09
266.948	29.7
267.164	37.89
267.38	11.26
267.596	101.37
267.812	35.84
268.028	27.65
268.244	21.5
268.46	7.17
268.676	-17.41
268.892	7.17
269.108	19.46
269.324	35.84
269.54	39.94
269.756	93.18
269.972	29.7
270.188	35.84
270.403	50.18
270.619	84.99
270.835	70.65
271.051	23.55
271.267	-21.5
271.483	80.89
271.698	50.18
271.914	50.18
272.13	13.31
272.346	107.52
272.562	68.61
272.777	44.03
272.993	35.84
273.209	7.17
273.425	7.17
273.64	80.89
273.856	105.47
274.072	56.32
274.287	-5.12
274.503	56.32
274.719	31.74
274.934	60.42
275.15	-27.65
275.366	33.79
275.581	-1.02
275.797	52.22
276.012	50.18
276.228	15.36
276.444	60.42
276.659	21.5
276.875	74.75
277.09	70.65
277.306	44.03
277.521	44.03
277.737	-9.22
277.952	11.26
278.168	-3.07
278.383	68.61
278.599	-9.22
278.814	56.32
279.03	54.27
279.245	80.89
279.461	-35.84
279.676	25.6
279.892	21.5
280.107	-35.84
280.322	41.98
280.538	35.84
280.753	46.08
280.969	95.23
281.184	70.65
281.399	-1.02
281.615	48.13
281.83	-5.12
282.045	33.79
282.26	11.26
282.476	48.13
282.691	7.17
282.906	29.7
283.122	11.26
283.337	15.36
283.552	68.61
283.767	35.84
283.983	31.74
284.198	-3.07
284.413	-9.22
284.628	76.8
284.843	-7.17
285.058	1.02
285.274	-35.84
285.489	-48.13
285.704	29.7
285.919	35.84
286.134	31.74
286.349	-21.5
286.564	15.36
286.779	44.03
286.995	39.94
287.21	52.22
287.425	115.71
287.64	15.36
287.855	138.24
288.07	7.17
288.285	19.46
288.5	15.36
288.715	50.18
288.93	60.42
289.145	33.79
289.36	48.13
289.575	9.22
289.79	89.09
290.004	-27.65
290.219	-1.02
290.434	72.7
290.649	-58.37
290.864	62.46
291.079	-7.17
291.294	33.79
291.509	66.56
291.724	48.13
291.938	-3.07
292.153	-9.22
292.368	13.31
292.583	64.51
292.798	56.32
293.012	60.42
293.227	11.26
293.442	7.17
293.657	48.13
293.871	64.51
294.086	39.94
294.301	70.65
294.516	80.89
294.73	50.18
294.945	23.55
295.16	64.51
295.374	48.13
295.589	33.79
295.804	-1.02
296.018	62.46
296.233	23.55
296.447	21.5
296.662	64.51
296.877	27.65
297.091	37.89
297.306	-13.31
297.52	-1.02
297.735	105.47
297.949	1.02
298.164	7.17
298.378	35.84
298.593	19.46
298.807	-9.22
299.022	68.61
299.236	-13.31
299.451	-52.22
299.665	54.27
299.88	37.89
300.094	107.52
300.309	58.37
300.523	13.31
300.737	15.36
300.952	7.17
301.166	56.32
301.381	13.31
301.595	15.36
301.809	95.23
302.024	33.79
302.238	-1.02
302.452	97.28
302.667	48.13
302.881	134.14
303.095	21.5
303.309	52.22
303.524	-9.22
303.738	9.22
303.952	41.98
304.166	46.08
304.381	-46.08
304.595	119.81
304.809	39.94
305.023	76.8
305.237	31.74
305.452	87.04
305.666	31.74
305.88	44.03
306.094	82.94
306.308	66.56
306.522	25.6
306.736	64.51
306.95	54.27
307.164	111.61
307.379	64.51
307.593	103.42
307.807	56.32
308.021	68.61
308.235	84.99
308.449	60.42
308.663	78.85
308.877	76.8
309.091	23.55
309.305	82.94
309.519	-17.41
309.733	35.84
309.947	-3.07
310.161	105.47
310.374	64.51
310.588	33.79
310.802	-17.41
311.016	-9.22
311.23	3.07
311.444	-60.42
311.658	78.85
311.872	21.5
312.085	80.89
312.299	70.65
312.513	111.61
312.727	13.31
312.941	-35.84
313.154	31.74
313.368	74.75
313.582	11.26
313.796	37.89
314.009	84.99
314.223	29.7
314.437	21.5
314.651	105.47
314.864	-3.07
315.078	15.36
315.292	11.26
315.505	-1.02
315.719	-11.26
315.933	19.46
316.146	56.32
316.36	7.17
316.573	70.65
316.787	54.27
317.001	70.65
317.214	27.65
317.428	9.22
317.641	48.13
317.855	37.89
318.068	27.65
318.282	62.46
318.495	52.22
318.709	82.94
318.922	54.27
319.136	93.18
319.349	80.89
319.563	11.26
319.776	68.61
319.99	9.22
320.203	72.7
320.417	80.89
320.63	-3.07
320.843	95.23
321.057	76.8
321.27	23.55
321.483	46.08
321.697	13.31
321.91	39.94
322.124	-15.36
322.337	64.51
322.55	23.55
322.763	58.37
322.977	39.94
323.19	31.74
323.403	-13.31
323.617	80.89
323.83	48.13
324.043	21.5
324.256	5.12
324.469	27.65
324.683	123.9
324.896	9.22
325.109	7.17
325.322	29.7
325.535	123.9
325.748	95.23
325.962	46.08
326.175	60.42
326.388	-23.55
326.601	89.09
326.814	37.89
327.027	91.13
327.24	125.95
327.453	5.12
327.666	70.65
327.879	15.36
328.092	82.94
328.305	64.51
328.518	-5.12
328.731	-25.6
328.944	60.42
329.157	70.65
329.37	54.27
329.583	68.61
329.796	-1.02
330.009	-17.41
330.222	35.84
330.435	91.13
330.648	89.09
330.861	-29.7
331.073	105.47
331.286	50.18
331.499	15.36
331.712	78.85
331.925	5.12
332.138	31.74
332.35	-9.22
332.563	101.37
332.776	11.26
332.989	-5.12
333.202	-25.6
333.414	50.18
333.627	60.42
333.84	31.74
334.053	35.84
334.265	13.31
334.478	72.7
334.691	29.7
334.903	72.7
335.116	54.27
335.329	3.07
335.541	44.03
335.754	64.51
335.966	15.36
336.179	23.55
336.392	62.46
336.604	-31.74
336.817	80.89
337.029	93.18
337.242	72.7
337.454	60.42
337.667	31.74
337.88	50.18
338.092	35.84
338.305	62.46
338.517	48.13
338.729	68.61
338.942	39.94
339.154	56.32
339.367	31.74
339.579	-7.17
339.792	-7.17
340.004	48.13
340.217	17.41
340.429	-46.08
340.641	-41.98
340.854	33.79
341.066	132.09
341.278	89.09
341.491	33.79
341.703	9.22
341.915	56.32
342.128	54.27
342.34	84.99
342.552	68.61
342.764	35.84
342.977	52.22
343.189	68.61
343.401	-19.46
343.613	35.84
343.826	25.6
344.038	39.94
344.25	17.41
344.462	66.56
344.674	66.56
344.886	11.26
345.099	50.18
345.311	62.46
345.523	64.51
345.735	58.37
345.947	48.13
346.159	95.23
346.371	87.04
346.583	-9.22
346.795	130.05
347.007	52.22
347.219	31.74
347.431	33.79
347.643	64.51
347.855	17.41
348.067	68.61
348.279	-15.36
348.491	107.52
348.703	74.75
348.915	-44.03
349.127	64.51
349.339	78.85
349.551	1.02
349.763	3.07
349.975	68.61
350.187	17.41
350.399	62.46
350.61	68.61
350.822	44.03
351.034	35.84
351.246	23.55
351.458	119.81
351.669	48.13
351.881	78.85
352.093	64.51
352.305	74.75
352.517	48.13
352.728	5.12
352.94	31.74
353.152	93.18
353.363	19.46
353.575	66.56
353.787	27.65
353.999	39.94
354.21	113.66
354.422	37.89
354.633	31.74
354.845	29.7
355.057	41.98
355.268	50.18
355.48	48.13
355.692	19.46
355.903	107.52
356.115	46.08
356.326	11.26
356.538	97.28
356.749	19.46
356.961	115.71
357.172	-11.26
357.384	-19.46
357.595	166.91
357.807	-7.17
358.018	-13.31
358.23	111.61
358.441	93.18
358.653	93.18
358.864	23.55
359.075	7.17
359.287	44.03
359.498	76.8
359.709	19.46
359.921	97.28
360.132	21.5
360.344	41.98
360.555	60.42
360.766	29.7
360.977	62.46
361.189	64.51
361.4	41.98
361.611	29.7
361.823	39.94
362.034	52.22
362.245	19.46
362.456	39.94
362.667	17.41
362.879	31.74
363.09	101.37
363.301	50.18
363.512	15.36
363.723	46.08
363.935	46.08
364.146	105.47
364.357	15.36
364.568	54.27
364.779	39.94
364.99	62.46
365.201	33.79
365.412	125.95
365.623	-1.02
365.834	64.51
366.045	46.08
366.256	93.18
366.467	105.47
366.678	72.7
366.889	78.85
367.1	11.26
367.311	95.23
367.522	93.18
367.733	74.75
367.944	154.62
368.155	23.55
368.366	84.99
368.577	56.32
368.788	113.66
368.999	74.75
369.209	56.32
369.42	95.23
369.631	66.56
369.842	76.8
370.053	29.7
370.264	89.09
370.474	3.07
370.685	54.27
370.896	11.26
371.107	39.94
371.317	84.99
371.528	39.94
371.739	97.28
371.95	41.98
372.16	72.7
372.371	-3.07
372.582	70.65
372.792	25.6
373.003	93.18
373.214	25.6
373.424	125.95
373.635	3.07
373.846	46.08
374.056	52.22
374.267	78.85
374.477	62.46
374.688	80.89
374.898	60.42
375.109	95.23
375.319	29.7
375.53	72.7
375.74	87.04
375.951	48.13
376.161	62.46
376.372	78.85
376.582	93.18
376.793	54.27
377.003	11.26
377.214	5.12
377.424	113.66
377.635	78.85
377.845	52.22
378.055	76.8
378.266	17.41
378.476	37.89
378.686	76.8
378.897	37.89
379.107	105.47
379.317	9.22
379.528	74.75
379.738	82.94
379.948	109.57
380.158	119.81
380.369	46.08
380.579	109.57
380.789	35.84
380.999	121.85
381.21	48.13
381.42	46.08
381.63	48.13
381.84	146.43
382.05	119.81
382.261	105.47
382.471	109.57
382.681	-1.02
382.891	130.05
383.101	60.42
383.311	31.74
383.521	41.98
383.731	44.03
383.941	52.22
384.151	-1.02
384.361	80.89
384.571	70.65
384.781	109.57
384.991	72.7
385.201	119.81
385.411	64.51
385.621	84.99
385.831	17.41
386.041	50.18
386.251	121.85
386.461	21.5
386.671	23.55
386.881	76.8
387.091	60.42
387.301	52.22
387.511	7.17
387.72	130.05
387.93	162.81
388.14	27.65
388.35	82.94
388.56	128
388.769	68.61
388.979	58.37
389.189	31.74
389.399	111.61
389.609	101.37
389.818	121.85
390.028	56.32
390.238	23.55
390.447	25.6
390.657	64.51
390.867	105.47
391.076	54.27
391.286	39.94
391.496	64.51
391.705	23.55
391.915	70.65
392.125	78.85
392.334	95.23
392.544	56.32
392.753	21.5
392.963	64.51
393.172	48.13
393.382	13.31
393.591	78.85
393.801	84.99
394.01	175.1
394.22	74.75
394.429	99.33
394.639	76.8
394.848	162.81
395.058	46.08
395.267	154.62
395.477	148.48
395.686	105.47
395.895	142.33
396.105	175.1
396.314	107.52
396.524	154.62
396.733	56.32
396.942	97.28
397.152	166.91
397.361	115.71
397.57	125.95
397.78	91.13
397.989	121.85
398.198	218.11
398.407	160.77
398.617	173.05
398.826	128
399.035	142.33
399.244	138.24
399.453	113.66
399.663	138.24
399.872	164.86
400.081	82.94
400.29	168.96
400.499	138.24
400.708	154.62
400.917	123.9
401.127	117.76
401.336	91.13
401.545	87.04
401.754	189.44
401.963	117.76
402.172	134.14
402.381	44.03
402.59	134.14
402.799	148.48
403.008	164.86
403.217	121.85
403.426	132.09
403.635	97.28
403.844	93.18
404.053	181.25
404.262	171.01
404.471	173.05
404.68	230.4
404.888	125.95
405.097	177.15
405.306	168.96
405.515	222.2
405.724	220.16
405.933	224.25
406.142	197.63
406.35	216.06
406.559	220.16
406.768	242.68
406.977	244.73
407.185	216.06
407.394	310.27
407.603	214.01
407.812	226.3
408.02	369.66
408.229	322.56
408.438	246.78
408.646	281.6
408.855	214.01
409.064	300.03
409.272	279.55
409.481	324.6
409.69	375.8
409.898	302.08
410.107	375.8
410.315	404.47
410.524	406.52
410.733	388.09
410.941	435.19
411.15	422.91
411.358	510.97
411.567	508.92
411.775	449.53
411.984	523.26
412.192	465.91
412.401	519.16
412.609	629.75
412.818	607.22
413.026	609.27
413.234	615.41
413.443	531.45
413.651	629.75
413.86	666.61
414.068	795.64
414.276	738.29
414.485	703.48
414.693	816.12
414.901	756.72
415.11	906.23
415.318	799.73
415.526	936.95
415.734	883.7
415.943	936.95
416.151	965.62
416.359	975.86
416.567	1100.78
416.776	1041.39
416.984	1063.92
417.192	1121.26
417.4	1190.89
417.608	1098.74
417.817	1274.86
418.025	1227.76
418.233	1360.88
418.441	1334.25
418.649	1354.73
418.857	1545.19
419.065	1588.2
419.273	1498.09
419.481	1610.73
419.689	1737.7
419.897	1733.61
420.105	1803.24
420.313	1913.83
420.521	1897.44
420.729	1938.4
420.937	1913.83
421.145	2010.08
421.353	2028.51
421.561	2309.08
421.769	2237.41
421.977	2440.15
422.185	2304.99
422.393	2544.6
422.601	2647
422.809	2655.19
423.017	2577.37
423.224	2755.54
423.432	2864.08
423.64	2880.47
423.848	3087.31
424.056	3183.57
424.263	3347.4
424.471	3484.62
424.679	3437.52
424.887	3589.07
425.094	3777.48
425.302	3640.26
425.51	3886.02
425.718	3992.52
425.925	3959.75
426.133	4264.89
426.341	4365.25
426.548	4498.36
426.756	4555.71
426.964	4692.92
427.171	4895.67
427.379	4963.25
427.586	5176.24
427.794	5252.02
428.001	5561.26
428.209	5782.44
428.417	5837.73
428.624	6091.68
428.832	6067.11
429.039	6112.16
429.247	6013.86
429.454	6763.42
429.662	7205.78
429.869	6462.37
430.076	7218.07
430.284	6841.24
430.491	7218.07
430.699	7441.29
430.906	7443.34
431.114	7642
431.321	7979.91
431.528	8221.57
431.736	8592.25
431.943	9083.77
432.15	8846.2
432.358	8917.88
432.565	9401.2
432.772	9274.23
432.979	9968.49
433.187	9870.19
433.394	10195.81
433.601	10507.1
433.808	10742.62
434.016	10466.14
434.223	10994.52
434.43	11840.33
434.637	11754.32
434.844	12376.9
435.052	12407.62
435.259	12290.88
435.466	12503.87
435.673	12223.3
435.88	13269.81
436.087	13783.85
436.294	13916.97
436.501	13273.91
436.708	14015.27
436.915	14269.22
437.122	15029.02
437.329	14805.79
437.537	15192.86
437.743	15242.01
437.95	15553.3
438.157	16259.85
438.364	16900.86
438.571	16915.2
438.778	16919.29
438.985	18637.54
439.192	17433.33
439.399	18074.35
439.606	17619.7
439.813	18969.31
440.02	20216.52
440.227	19655.38
440.433	19450.58
440.64	19909.33
440.847	19839.7
441.054	20368.07
441.261	21940.91
441.467	21719.73
441.674	21883.57
441.881	22827.68
442.088	22713
442.294	22694.57
442.501	23343.77
442.708	23380.64
442.914	24654.47
443.121	25356.93
443.328	25021.06
443.534	26452.59
443.741	25840.25
443.948	25524.86
444.154	27486.81
444.361	27173.47
444.568	27404.89
444.774	27374.17
444.981	27675.23
445.187	28228.18
445.394	29483.58
445.6	29215.3
445.807	32018.97
446.013	30831.15
446.22	31197.73
446.426	32440.85
446.633	32705.04
446.839	33477.12
447.046	32014.87
447.252	34243.06
447.459	34046.46
447.665	33952.25
447.871	35283.43
448.078	36598.23
448.284	35023.34
448.491	35908.06
448.697	37675.46
448.903	37874.11
449.11	38087.1
449.316	37468.61
449.522	38076.86
449.728	39166.38
449.935	39328.17
450.141	39207.34
450.347	39840.16
450.553	39039.4
450.76	39326.12
450.966	40438.17
451.172	40288.67
451.378	40880.53
451.584	40040.86
451.791	40853.9
451.997	41259.4
452.203	41689.48
452.409	41798.02
452.615	40931.73
452.821	40092.06
453.027	39518.63
453.233	41398.66
453.44	39481.77
453.646	40155.55
453.852	40442.26
454.058	40862.1
454.264	39547.3
454.47	40235.42
454.676	39717.28
454.882	40837.52
455.088	37089.74
455.294	37867.97
455.5	38134.2
455.705	38779.31
455.911	37511.62
456.117	36422.1
456.323	35711.46
456.529	34054.65
456.735	35492.32
456.941	34423.28
457.147	33989.11
457.352	32934.41
457.558	32739.85
457.764	32434.71
457.97	31937.05
458.176	31283.75
458.381	31568.41
458.587	29835.83
458.793	29448.77
458.999	28310.1
459.204	30016.05
459.41	29680.19
459.616	27421.28
459.821	27593.31
460.027	27191.91
460.233	26788.46
460.438	25297.53
460.644	25795.19
460.85	24470.15
461.055	24246.93
461.261	24177.3
461.466	22465.19
461.672	21578.42
461.878	23409.31
462.083	21754.55
462.289	21435.06
462.494	21519.03
462.7	20394.7
462.905	19919.57
463.111	20044.49
463.316	20452.04
463.522	20198.09
463.727	20163.28
463.932	19954.38
464.138	19747.54
464.343	19679.96
464.549	19391.19
464.754	20277.96
464.959	19860.18
465.165	19466.97
465.37	18844.38
465.575	18346.73
465.781	19108.57
465.986	19333.85
466.191	18612.96
466.397	18223.85
466.602	17423.09
466.807	17986.29
467.012	17898.22
467.218	17978.09
467.423	17699.57
