Data from USB4F104151__75__10-24-09-131.txt Node

Date: Wed Mar 12 10:24:09 EDT 2025
User: louis
Spectrometer: USB4F10415
Trigger mode: 4
Integration Time (sec): 3.000000E-2
Scans to average: 1
Electric dark correction enabled: true
Nonlinearity correction enabled: false
Boxcar width: 0
XAxis mode: Wavelengths
Number of Pixels in Spectrum: 3648
>>>>>Begin Spectral Data<<<<<
178.204	-108.54
178.424	-108.54
178.644	-108.54
178.864	-118.78
179.084	6.14
179.304	6.14
179.524	-24.58
179.744	-38.91
179.964	10.24
180.184	-32.77
180.404	0
180.624	2.05
180.844	67.58
181.064	59.39
181.283	-36.86
181.503	-34.82
181.723	22.53
181.943	28.67
182.163	59.39
182.383	30.72
182.602	34.82
182.822	-18.43
183.042	22.53
183.262	26.62
183.482	96.25
183.701	45.06
183.921	4.1
184.141	59.39
184.361	61.44
184.58	14.34
184.8	12.29
185.02	55.3
185.239	57.34
185.459	16.38
185.679	28.67
185.898	-10.24
186.118	65.54
186.338	28.67
186.557	59.39
186.777	-4.1
186.997	57.34
187.216	6.14
187.436	102.4
187.655	6.14
187.875	75.77
188.095	49.15
188.314	34.82
188.534	118.78
188.753	26.62
188.973	63.49
189.192	55.3
189.412	24.58
189.631	59.39
189.851	81.92
190.07	34.82
190.29	-2.05
190.509	30.72
190.729	71.68
190.948	43.01
191.168	172.03
191.387	143.36
191.607	10.24
191.826	26.62
192.045	75.77
192.265	122.88
192.484	-6.14
192.704	83.97
192.923	6.14
193.142	112.64
193.362	0
193.581	43.01
193.8	94.21
194.02	18.43
194.239	6.14
194.458	75.77
194.678	20.48
194.897	6.14
195.116	57.34
195.335	57.34
195.555	47.1
195.774	24.58
195.993	69.63
196.212	12.29
196.432	22.53
196.651	53.25
196.87	-22.53
197.089	104.45
197.308	2.05
197.528	79.87
197.747	34.82
197.966	18.43
198.185	92.16
198.404	79.87
198.623	96.25
198.842	77.82
199.062	88.06
199.281	73.73
199.5	88.06
199.719	106.49
199.938	26.62
200.157	77.82
200.376	67.58
200.595	65.54
200.814	61.44
201.033	-73.73
201.252	40.96
201.471	73.73
201.69	67.58
201.909	55.3
202.128	86.01
202.347	61.44
202.566	-2.05
202.785	-10.24
203.004	30.72
203.223	145.41
203.442	55.3
203.661	16.38
203.879	-12.29
204.098	100.35
204.317	10.24
204.536	51.2
204.755	55.3
204.974	40.96
205.193	-34.82
205.411	75.77
205.63	65.54
205.849	-8.19
206.068	6.14
206.287	43.01
206.505	51.2
206.724	-49.15
206.943	40.96
207.162	79.87
207.381	8.19
207.599	63.49
207.818	92.16
208.037	98.3
208.255	18.43
208.474	63.49
208.693	34.82
208.911	77.82
209.13	26.62
209.349	28.67
209.567	6.14
209.786	55.3
210.005	32.77
210.223	96.25
210.442	-34.82
210.661	26.62
210.879	51.2
211.098	94.21
211.316	30.72
211.535	55.3
211.753	92.16
211.972	-4.1
212.191	38.91
212.409	77.82
212.628	30.72
212.846	47.1
213.065	77.82
213.283	112.64
213.502	32.77
213.72	24.58
213.938	69.63
214.157	63.49
214.375	67.58
214.594	18.43
214.812	26.62
215.031	-12.29
215.249	28.67
215.467	-40.96
215.686	38.91
215.904	57.34
216.122	63.49
216.341	106.49
216.559	45.06
216.778	69.63
216.996	40.96
217.214	20.48
217.432	-4.1
217.651	36.86
217.869	43.01
218.087	135.17
218.306	71.68
218.524	47.1
218.742	34.82
218.96	30.72
219.179	63.49
219.397	12.29
219.615	73.73
219.833	51.2
220.051	102.4
220.27	38.91
220.488	102.4
220.706	47.1
220.924	22.53
221.142	47.1
221.36	-55.3
221.578	6.14
221.796	59.39
222.015	-6.14
222.233	26.62
222.451	47.1
222.669	73.73
222.887	126.97
223.105	2.05
223.323	57.34
223.541	47.1
223.759	120.83
223.977	6.14
224.195	43.01
224.413	43.01
224.631	36.86
224.849	34.82
225.067	96.25
225.285	100.35
225.503	-12.29
225.721	14.34
225.939	-18.43
226.157	43.01
226.375	96.25
226.592	45.06
226.81	90.11
227.028	104.45
227.246	59.39
227.464	79.87
227.682	22.53
227.9	75.77
228.117	92.16
228.335	14.34
228.553	-6.14
228.771	59.39
228.989	40.96
229.206	26.62
229.424	-40.96
229.642	47.1
229.86	61.44
230.077	57.34
230.295	38.91
230.513	38.91
230.731	92.16
230.948	67.58
231.166	71.68
231.384	18.43
231.601	129.02
231.819	112.64
232.037	38.91
232.254	16.38
232.472	20.48
232.689	10.24
232.907	63.49
233.125	110.59
233.342	47.1
233.56	38.91
233.777	59.39
233.995	28.67
234.213	38.91
234.43	71.68
234.648	67.58
234.865	28.67
235.083	116.73
235.3	-34.82
235.518	83.97
235.735	36.86
235.953	65.54
236.17	88.06
236.388	96.25
236.605	116.73
236.822	71.68
237.04	53.25
237.257	61.44
237.475	14.34
237.692	22.53
237.909	45.06
238.127	65.54
238.344	24.58
238.562	4.1
238.779	16.38
238.996	-18.43
239.214	88.06
239.431	110.59
239.648	100.35
239.865	94.21
240.083	77.82
240.3	-28.67
240.517	67.58
240.735	75.77
240.952	30.72
241.169	40.96
241.386	40.96
241.603	69.63
241.821	-10.24
242.038	30.72
242.255	53.25
242.472	26.62
242.689	4.1
242.907	32.77
243.124	2.05
243.341	30.72
243.558	-24.58
243.775	28.67
243.992	34.82
244.209	77.82
244.426	79.87
244.643	83.97
244.86	28.67
245.078	59.39
245.295	43.01
245.512	55.3
245.729	79.87
245.946	69.63
246.163	38.91
246.38	14.34
246.597	-6.14
246.814	30.72
247.031	34.82
247.248	83.97
247.464	6.14
247.681	38.91
247.898	51.2
248.115	63.49
248.332	34.82
248.549	55.3
248.766	108.54
248.983	106.49
249.2	40.96
249.417	51.2
249.633	4.1
249.85	131.07
250.067	88.06
250.284	38.91
250.501	141.31
250.717	-14.34
250.934	14.34
251.151	116.73
251.368	-18.43
251.585	38.91
251.801	71.68
252.018	63.49
252.235	77.82
252.451	18.43
252.668	32.77
252.885	32.77
253.102	71.68
253.318	96.25
253.535	18.43
253.752	34.82
253.968	18.43
254.185	-38.91
254.401	-36.86
254.618	-14.34
254.835	-67.58
255.051	61.44
255.268	71.68
255.484	71.68
255.701	86.01
255.917	53.25
256.134	-4.1
256.351	67.58
256.567	59.39
256.784	104.45
257	53.25
257.217	38.91
257.433	75.77
257.65	88.06
257.866	86.01
258.082	-4.1
258.299	8.19
258.515	36.86
258.732	92.16
258.948	47.1
259.165	49.15
259.381	6.14
259.597	12.29
259.814	90.11
260.03	36.86
260.246	-10.24
260.463	104.45
260.679	-10.24
260.895	8.19
261.112	98.3
261.328	69.63
261.544	22.53
261.761	90.11
261.977	47.1
262.193	4.1
262.409	88.06
262.626	18.43
262.842	124.93
263.058	20.48
263.274	116.73
263.49	30.72
263.707	51.2
263.923	34.82
264.139	-14.34
264.355	81.92
264.571	45.06
264.787	100.35
265.004	141.31
265.22	22.53
265.436	51.2
265.652	-4.1
265.868	32.77
266.084	67.58
266.3	18.43
266.516	22.53
266.732	22.53
266.948	71.68
267.164	106.49
267.38	120.83
267.596	96.25
267.812	75.77
268.028	77.82
268.244	14.34
268.46	98.3
268.676	0
268.892	108.54
269.108	16.38
269.324	83.97
269.54	36.86
269.756	71.68
269.972	-28.67
270.188	-2.05
270.403	22.53
270.619	34.82
270.835	65.54
271.051	30.72
271.267	30.72
271.483	47.1
271.698	75.77
271.914	-26.62
272.13	0
272.346	-20.48
272.562	34.82
272.777	45.06
272.993	-10.24
273.209	34.82
273.425	94.21
273.64	38.91
273.856	106.49
274.072	8.19
274.287	-38.91
274.503	92.16
274.719	79.87
274.934	18.43
275.15	45.06
275.366	-8.19
275.581	-18.43
275.797	40.96
276.012	43.01
276.228	10.24
276.444	77.82
276.659	26.62
276.875	43.01
277.09	43.01
277.306	102.4
277.521	53.25
277.737	20.48
277.952	53.25
278.168	47.1
278.383	108.54
278.599	14.34
278.814	-6.14
279.03	-12.29
279.245	20.48
279.461	69.63
279.676	118.78
279.892	104.45
280.107	30.72
280.322	-14.34
280.538	10.24
280.753	55.3
280.969	55.3
281.184	36.86
281.399	43.01
281.615	57.34
281.83	32.77
282.045	57.34
282.26	71.68
282.476	22.53
282.691	86.01
282.906	61.44
283.122	40.96
283.337	49.15
283.552	-4.1
283.767	-18.43
283.983	38.91
284.198	59.39
284.413	94.21
284.628	47.1
284.843	22.53
285.058	69.63
285.274	26.62
285.489	2.05
285.704	92.16
285.919	8.19
286.134	36.86
286.349	45.06
286.564	38.91
286.779	126.97
286.995	102.4
287.21	36.86
287.425	63.49
287.64	14.34
287.855	4.1
288.07	-14.34
288.285	47.1
288.5	-22.53
288.715	20.48
288.93	120.83
289.145	83.97
289.36	-18.43
289.575	71.68
289.79	81.92
290.004	38.91
290.219	63.49
290.434	94.21
290.649	81.92
290.864	59.39
291.079	28.67
291.294	-2.05
291.509	67.58
291.724	88.06
291.938	-34.82
292.153	32.77
292.368	-2.05
292.583	-28.67
292.798	100.35
293.012	112.64
293.227	22.53
293.442	51.2
293.657	65.54
293.871	51.2
294.086	88.06
294.301	96.25
294.516	69.63
294.73	69.63
294.945	-12.29
295.16	83.97
295.374	40.96
295.589	92.16
295.804	2.05
296.018	124.93
296.233	69.63
296.447	-18.43
296.662	47.1
296.877	63.49
297.091	53.25
297.306	81.92
297.52	18.43
297.735	100.35
297.949	51.2
298.164	55.3
298.378	30.72
298.593	104.45
298.807	53.25
299.022	71.68
299.236	43.01
299.451	36.86
299.665	40.96
299.88	79.87
300.094	26.62
300.309	14.34
300.523	34.82
300.737	67.58
300.952	96.25
301.166	153.6
301.381	63.49
301.595	124.93
301.809	86.01
302.024	51.2
302.238	6.14
302.452	114.69
302.667	137.21
302.881	108.54
303.095	55.3
303.309	43.01
303.524	96.25
303.738	63.49
303.952	61.44
304.166	12.29
304.381	-28.67
304.595	90.11
304.809	10.24
305.023	38.91
305.237	77.82
305.452	75.77
305.666	-22.53
305.88	38.91
306.094	116.73
306.308	49.15
306.522	34.82
306.736	67.58
306.95	120.83
307.164	47.1
307.379	-6.14
307.593	100.35
307.807	81.92
308.021	43.01
308.235	71.68
308.449	6.14
308.663	55.3
308.877	112.64
309.091	4.1
309.305	69.63
309.519	22.53
309.733	120.83
309.947	69.63
310.161	108.54
310.374	12.29
310.588	53.25
310.802	90.11
311.016	4.1
311.23	51.2
311.444	28.67
311.658	63.49
311.872	137.21
312.085	38.91
312.299	45.06
312.513	75.77
312.727	79.87
312.941	4.1
313.154	20.48
313.368	104.45
313.582	63.49
313.796	67.58
314.009	-24.58
314.223	51.2
314.437	59.39
314.651	75.77
314.864	118.78
315.078	69.63
315.292	57.34
315.505	-16.38
315.719	45.06
315.933	86.01
316.146	38.91
316.36	79.87
316.573	38.91
316.787	53.25
317.001	32.77
317.214	55.3
317.428	98.3
317.641	24.58
317.855	0
318.068	53.25
318.282	65.54
318.495	43.01
318.709	90.11
318.922	18.43
319.136	90.11
319.349	106.49
319.563	-75.77
319.776	61.44
319.99	32.77
320.203	106.49
320.417	63.49
320.63	61.44
320.843	102.4
321.057	83.97
321.27	51.2
321.483	32.77
321.697	106.49
321.91	67.58
322.124	51.2
322.337	102.4
322.55	43.01
322.763	26.62
322.977	34.82
323.19	79.87
323.403	75.77
323.617	71.68
323.83	71.68
324.043	75.77
324.256	63.49
324.469	55.3
324.683	59.39
324.896	67.58
325.109	90.11
325.322	-36.86
325.535	71.68
325.748	47.1
325.962	55.3
326.175	-14.34
326.388	2.05
326.601	40.96
326.814	53.25
327.027	94.21
327.24	79.87
327.453	-12.29
327.666	55.3
327.879	79.87
328.092	83.97
328.305	18.43
328.518	81.92
328.731	14.34
328.944	16.38
329.157	-6.14
329.37	16.38
329.583	100.35
329.796	120.83
330.009	-16.38
330.222	38.91
330.435	79.87
330.648	61.44
330.861	-10.24
331.073	24.58
331.286	51.2
331.499	102.4
331.712	-2.05
331.925	49.15
332.138	47.1
332.35	90.11
332.563	20.48
332.776	75.77
332.989	57.34
333.202	-10.24
333.414	26.62
333.627	61.44
333.84	-18.43
334.053	90.11
334.265	45.06
334.478	73.73
334.691	18.43
334.903	2.05
335.116	77.82
335.329	86.01
335.541	69.63
335.754	18.43
335.966	38.91
336.179	77.82
336.392	88.06
336.604	88.06
336.817	63.49
337.029	18.43
337.242	65.54
337.454	83.97
337.667	77.82
337.88	53.25
338.092	77.82
338.305	55.3
338.517	43.01
338.729	86.01
338.942	129.02
339.154	34.82
339.367	45.06
339.579	73.73
339.792	32.77
340.004	10.24
340.217	106.49
340.429	81.92
340.641	38.91
340.854	30.72
341.066	51.2
341.278	141.31
341.491	63.49
341.703	114.69
341.915	-12.29
342.128	118.78
342.34	102.4
342.552	61.44
342.764	102.4
342.977	69.63
343.189	14.34
343.401	63.49
343.613	45.06
343.826	57.34
344.038	20.48
344.25	67.58
344.462	106.49
344.674	51.2
344.886	14.34
345.099	92.16
345.311	63.49
345.523	81.92
345.735	114.69
345.947	38.91
346.159	26.62
346.371	36.86
346.583	-8.19
346.795	104.45
347.007	40.96
347.219	49.15
347.431	86.01
347.643	100.35
347.855	26.62
348.067	90.11
348.279	-6.14
348.491	61.44
348.703	43.01
348.915	94.21
349.127	34.82
349.339	88.06
349.551	30.72
349.763	30.72
349.975	20.48
350.187	133.12
350.399	96.25
350.61	69.63
350.822	22.53
351.034	96.25
351.246	14.34
351.458	86.01
351.669	53.25
351.881	88.06
352.093	63.49
352.305	34.82
352.517	112.64
352.728	59.39
352.94	53.25
353.152	67.58
353.363	45.06
353.575	45.06
353.787	110.59
353.999	43.01
354.21	43.01
354.422	34.82
354.633	47.1
354.845	53.25
355.057	14.34
355.268	51.2
355.48	133.12
355.692	14.34
355.903	47.1
356.115	2.05
356.326	18.43
356.538	57.34
356.749	98.3
356.961	86.01
357.172	8.19
357.384	71.68
357.595	79.87
357.807	106.49
358.018	69.63
358.23	75.77
358.441	108.54
358.653	69.63
358.864	71.68
359.075	90.11
359.287	32.77
359.498	180.22
359.709	71.68
359.921	45.06
360.132	112.64
360.344	75.77
360.555	8.19
360.766	22.53
360.977	-20.48
361.189	59.39
361.4	57.34
361.611	65.54
361.823	0
362.034	75.77
362.245	-2.05
362.456	18.43
362.667	30.72
362.879	32.77
363.09	67.58
363.301	79.87
363.512	14.34
363.723	40.96
363.935	102.4
364.146	92.16
364.357	59.39
364.568	81.92
364.779	12.29
364.99	55.3
365.201	129.02
365.412	88.06
365.623	90.11
365.834	88.06
366.045	55.3
366.256	59.39
366.467	57.34
366.678	94.21
366.889	55.3
367.1	43.01
367.311	55.3
367.522	112.64
367.733	67.58
367.944	12.29
368.155	38.91
368.366	59.39
368.577	147.45
368.788	98.3
368.999	86.01
369.209	83.97
369.42	90.11
369.631	118.78
369.842	112.64
370.053	81.92
370.264	112.64
370.474	-4.1
370.685	61.44
370.896	88.06
371.107	14.34
371.317	100.35
371.528	38.91
371.739	108.54
371.95	100.35
372.16	88.06
372.371	22.53
372.582	57.34
372.792	141.31
373.003	30.72
373.214	108.54
373.424	24.58
373.635	83.97
373.846	43.01
374.056	67.58
374.267	57.34
374.477	75.77
374.688	36.86
374.898	81.92
375.109	77.82
375.319	28.67
375.53	112.64
375.74	86.01
375.951	43.01
376.161	61.44
376.372	100.35
376.582	43.01
376.793	118.78
377.003	30.72
377.214	100.35
377.424	133.12
377.635	110.59
377.845	2.05
378.055	65.54
378.266	96.25
378.476	100.35
378.686	26.62
378.897	114.69
379.107	51.2
379.317	51.2
379.528	43.01
379.738	77.82
379.948	100.35
380.158	49.15
380.369	40.96
380.579	55.3
380.789	73.73
380.999	30.72
381.21	47.1
381.42	153.6
381.63	36.86
381.84	36.86
382.05	75.77
382.261	118.78
382.471	59.39
382.681	38.91
382.891	159.74
383.101	102.4
383.311	24.58
383.521	38.91
383.731	106.49
383.941	47.1
384.151	63.49
384.361	22.53
384.571	69.63
384.781	129.02
384.991	155.65
385.201	149.5
385.411	110.59
385.621	73.73
385.831	69.63
386.041	-6.14
386.251	-26.62
386.461	135.17
386.671	122.88
386.881	102.4
387.091	96.25
387.301	86.01
387.511	71.68
387.72	81.92
387.93	49.15
388.14	75.77
388.35	40.96
388.56	20.48
388.769	96.25
388.979	124.93
389.189	32.77
389.399	49.15
389.609	65.54
389.818	53.25
390.028	57.34
390.238	61.44
390.447	43.01
390.657	112.64
390.867	24.58
391.076	53.25
391.286	53.25
391.496	59.39
391.705	108.54
391.915	67.58
392.125	49.15
392.334	69.63
392.544	145.41
392.753	118.78
392.963	116.73
393.172	30.72
393.382	49.15
393.591	155.65
393.801	47.1
394.01	178.17
394.22	96.25
394.429	47.1
394.639	36.86
394.848	75.77
395.058	73.73
395.267	92.16
395.477	157.69
395.686	71.68
395.895	129.02
396.105	157.69
396.314	108.54
396.524	112.64
396.733	77.82
396.942	174.08
397.152	135.17
397.361	112.64
397.57	88.06
397.78	118.78
397.989	135.17
398.198	169.98
398.407	137.21
398.617	104.45
398.826	122.88
399.035	63.49
399.244	122.88
399.453	120.83
399.663	131.07
399.872	81.92
400.081	94.21
400.29	133.12
400.499	71.68
400.708	96.25
400.917	120.83
401.127	135.17
401.336	118.78
401.545	200.7
401.754	67.58
401.963	196.61
402.172	106.49
402.381	120.83
402.59	141.31
402.799	118.78
403.008	149.5
403.217	122.88
403.426	206.84
403.635	79.87
403.844	182.27
404.053	161.79
404.262	143.36
404.471	235.52
404.68	200.7
404.888	161.79
405.097	190.46
405.306	215.04
405.515	237.56
405.724	112.64
405.933	167.93
406.142	221.18
406.35	192.51
406.559	151.55
406.768	239.61
406.977	223.23
407.185	184.32
407.394	333.82
407.603	210.94
407.812	253.95
408.02	282.62
408.229	276.48
408.438	282.62
408.646	272.38
408.855	243.71
409.064	290.81
409.272	251.9
409.481	284.67
409.69	296.96
409.898	331.77
410.107	305.15
410.315	413.69
410.524	299
410.733	301.05
410.941	423.93
411.15	370.68
411.358	397.31
411.567	378.87
411.775	425.98
411.984	403.45
412.192	468.98
412.401	471.03
412.609	548.86
412.818	446.46
413.026	511.99
413.234	544.76
413.443	634.87
413.651	628.73
413.86	620.53
414.068	665.59
414.276	743.41
414.485	679.93
414.693	694.26
414.901	694.26
415.11	651.25
415.318	684.02
415.526	772.08
415.734	761.84
415.943	841.72
416.151	892.91
416.359	847.86
416.567	972.79
416.776	927.73
416.984	960.5
417.192	1005.55
417.4	964.59
417.608	1030.13
417.817	1003.5
418.025	1126.38
418.233	1241.07
418.441	1159.15
418.649	1169.39
418.857	1322.99
419.065	1349.61
419.273	1388.52
419.481	1417.19
419.689	1472.49
419.897	1595.37
420.105	1591.27
420.313	1576.94
420.521	1634.28
420.729	1767.4
420.937	1644.52
421.145	1767.4
421.353	1863.65
421.561	2031.59
421.769	1929.19
421.977	2086.88
422.185	2191.33
422.393	2277.34
422.601	2351.07
422.809	2314.2
423.017	2471.9
423.224	2437.08
423.432	2461.66
423.64	2576.34
423.848	2731.99
424.056	2734.04
424.263	2934.74
424.471	2895.83
424.679	3002.32
424.887	3100.62
425.094	3258.32
425.302	3270.61
425.51	3364.81
425.718	3463.12
425.925	3639.24
426.133	3665.86
426.341	3774.41
426.548	3948.48
426.756	3989.44
426.964	3942.34
427.171	4335.55
427.379	4446.14
427.586	4478.91
427.794	4552.63
428.001	4753.34
428.209	5040.05
428.417	5007.28
428.624	5306.29
428.832	5296.05
429.039	5271.47
429.247	5382.06
429.454	5701.55
429.662	6090.66
429.869	5765.03
430.076	6055.84
430.284	6166.43
430.491	6098.85
430.699	6670.23
430.906	6549.4
431.114	6786.97
431.321	6862.74
431.528	7085.97
431.736	7552.91
431.943	7927.69
432.15	7640.97
432.358	7788.43
432.565	8118.15
432.772	8224.64
432.979	8400.77
433.187	8695.68
433.394	8818.55
433.601	9054.07
433.808	9328.5
434.016	9381.74
434.223	9731.95
434.43	10274.66
434.637	9867.11
434.844	10465.12
435.052	10626.91
435.259	10647.39
435.466	10737.5
435.673	10622.81
435.88	11474.77
436.087	12164.93
436.294	12089.16
436.501	11661.13
436.708	11724.62
436.915	12496.71
437.122	12746.56
437.329	12752.7
437.537	13465.39
437.743	13510.45
437.95	13442.87
438.157	14010.15
438.364	14423.84
438.571	14057.26
438.778	14378.79
438.985	15859.47
439.192	15204.12
439.399	15804.17
439.606	15265.56
439.813	16385.8
440.02	17315.58
440.227	17043.2
440.433	16649.99
440.64	17436.41
440.847	17338.1
441.054	17725.17
441.261	18630.37
441.467	18644.71
441.674	19056.35
441.881	19521.24
442.088	19697.36
442.294	19277.53
442.501	19797.71
442.708	20268.75
442.914	21315.26
443.121	21733.04
443.328	21554.87
443.534	22898.34
443.741	22216.36
443.948	21872.31
444.154	23291.55
444.361	23281.31
444.568	23660.18
444.774	23561.88
444.981	23738.01
445.187	24256.14
445.394	25665.14
445.6	24974.98
445.807	27723.35
446.013	26195.57
446.22	27004.52
446.426	27795.03
446.633	27948.63
446.839	28767.82
447.046	27598.43
447.252	29236.8
447.459	29034.05
447.665	29142.6
447.871	30297.65
448.078	31677.98
448.284	30088.76
448.491	31057.45
448.697	31905.31
448.903	32765.45
449.11	32611.85
449.316	32294.42
449.522	32679.44
449.728	33162.76
449.935	33484.29
450.141	33666.56
450.347	34467.31
450.553	33117.7
450.76	33918.46
450.966	35188.2
451.172	34231.8
451.378	35257.83
451.584	34543.09
451.791	35343.84
451.997	35296.74
452.203	35757.53
452.409	35964.38
452.615	35642.85
452.821	34280.95
453.027	33951.23
453.233	35767.77
453.44	33803.77
453.646	34270.71
453.852	34596.34
454.058	35266.02
454.264	34186.74
454.47	34821.61
454.676	33410.56
454.882	35253.73
455.088	31823.39
455.294	32341.52
455.5	32853.51
455.705	33291.78
455.911	31868.44
456.117	31073.83
456.323	30887.46
456.529	29077.06
456.735	30170.68
456.941	29451.84
457.147	29013.57
457.352	28331.6
457.558	27930.2
457.764	27895.38
457.97	27410.01
458.176	26484.33
458.381	26603.11
458.587	25480.83
458.793	25431.68
458.999	24129.17
459.204	25583.23
459.41	25546.36
459.616	23477.91
459.821	23445.15
460.027	23367.32
460.233	22957.73
460.438	21991.09
460.644	21974.7
460.85	20960.96
461.055	20981.44
461.261	20829.89
461.466	19187.42
461.672	18550.5
461.878	19816.15
462.083	18704.1
462.289	18020.08
462.494	17991.41
462.7	17645.3
462.905	16875.26
463.111	17465.08
463.316	17686.26
463.522	17186.55
463.727	17278.71
463.932	17053.44
464.138	17055.48
464.343	17010.43
464.549	16539.4
464.754	16877.31
464.959	16930.56
465.165	16684.8
465.37	16086.79
465.575	16115.47
465.781	16080.65
465.986	16660.23
466.191	15748.88
466.397	15826.7
466.602	14802.72
466.807	15208.22
467.012	15339.29
467.218	15101.72
467.423	14815.01
