Data from USB4F104151__120__10-25-04-715.txt Node

Date: Wed Mar 12 10:25:04 EDT 2025
User: louis
Spectrometer: USB4F10415
Trigger mode: 4
Integration Time (sec): 3.000000E-2
Scans to average: 1
Electric dark correction enabled: true
Nonlinearity correction enabled: false
Boxcar width: 0
XAxis mode: Wavelengths
Number of Pixels in Spectrum: 3648
>>>>>Begin Spectral Data<<<<<
178.204	-98.47
178.424	-98.47
178.644	-98.47
178.864	-49.32
179.084	-88.23
179.304	-123.05
179.524	-16.55
179.744	3.93
179.964	75.6
180.184	8.02
180.404	71.51
180.624	20.31
180.844	-10.41
181.064	-45.23
181.283	28.5
181.503	12.12
181.723	-24.75
181.943	-37.03
182.163	55.12
182.383	12.12
182.602	36.69
182.822	3.93
183.042	53.08
183.262	12.12
183.482	81.75
183.701	20.31
183.921	44.88
184.141	-22.7
184.361	36.69
184.58	32.6
184.8	12.12
185.02	-20.65
185.239	22.36
185.459	36.69
185.679	67.41
185.898	32.6
186.118	26.45
186.338	40.79
186.557	61.27
186.777	-49.32
186.997	79.7
187.216	16.21
187.436	51.03
187.655	57.17
187.875	153.43
188.095	-18.6
188.314	30.55
188.534	96.08
188.753	-28.84
188.973	34.64
189.192	85.84
189.412	-16.55
189.631	55.12
189.851	32.6
190.07	85.84
190.29	-43.18
190.509	67.41
190.729	44.88
190.948	20.31
191.168	171.86
191.387	71.51
191.607	-6.31
191.826	40.79
192.045	28.5
192.265	8.02
192.484	-26.79
192.704	57.17
192.923	20.31
193.142	79.7
193.362	36.69
193.581	-2.22
193.8	83.8
194.02	44.88
194.239	112.47
194.458	8.02
194.678	75.6
194.897	-2.22
195.116	12.12
195.335	48.98
195.555	32.6
195.774	48.98
195.993	77.65
196.212	48.98
196.432	40.79
196.651	77.65
196.87	-45.23
197.089	83.8
197.308	40.79
197.528	57.17
197.747	42.84
197.966	-24.75
198.185	87.89
198.404	3.93
198.623	-12.46
198.842	22.36
199.062	110.42
199.281	36.69
199.5	-6.31
199.719	-0.17
199.938	46.93
200.157	-6.31
200.376	51.03
200.595	79.7
200.814	73.56
201.033	-39.08
201.252	44.88
201.471	32.6
201.69	59.22
201.909	40.79
202.128	-20.65
202.347	67.41
202.566	-16.55
202.785	-20.65
203.004	59.22
203.223	98.13
203.442	79.7
203.661	34.64
203.879	102.23
204.098	87.89
204.317	-16.55
204.536	57.17
204.755	18.26
204.974	1.88
205.193	3.93
205.411	63.32
205.63	26.45
205.849	40.79
206.068	-22.7
206.287	28.5
206.505	51.03
206.724	79.7
206.943	-20.65
207.162	51.03
207.381	53.08
207.599	-12.46
207.818	16.21
208.037	53.08
208.255	53.08
208.474	53.08
208.693	-6.31
208.911	98.13
209.13	34.64
209.349	122.71
209.567	53.08
209.786	67.41
210.005	44.88
210.223	-53.42
210.442	14.17
210.661	26.45
210.879	42.84
211.098	18.26
211.316	61.27
211.535	69.46
211.753	77.65
211.972	1.88
212.191	34.64
212.409	-8.36
212.628	51.03
212.846	51.03
213.065	36.69
213.283	48.98
213.502	-4.27
213.72	46.93
213.938	10.07
214.157	48.98
214.375	-24.75
214.594	10.07
214.812	57.17
215.031	40.79
215.249	28.5
215.467	44.88
215.686	40.79
215.904	55.12
216.122	36.69
216.341	-20.65
216.559	40.79
216.778	83.8
216.996	61.27
217.214	44.88
217.432	22.36
217.651	40.79
217.869	18.26
218.087	22.36
218.306	12.12
218.524	81.75
218.742	48.98
218.96	53.08
219.179	3.93
219.397	38.74
219.615	110.42
219.833	61.27
220.051	51.03
220.27	40.79
220.488	75.6
220.706	73.56
220.924	-8.36
221.142	36.69
221.36	55.12
221.578	59.22
221.796	3.93
222.015	75.6
222.233	51.03
222.451	48.98
222.669	-4.27
222.887	69.46
223.105	-53.42
223.323	20.31
223.541	-90.28
223.759	40.79
223.977	69.46
224.195	124.76
224.413	10.07
224.631	22.36
224.849	-22.7
225.067	57.17
225.285	-65.71
225.503	-0.17
225.721	-18.6
225.939	48.98
226.157	12.12
226.375	221.01
226.592	-12.46
226.81	46.93
227.028	44.88
227.246	-0.17
227.464	-45.23
227.682	55.12
227.9	3.93
228.117	65.36
228.335	38.74
228.553	26.45
228.771	-34.99
228.989	77.65
229.206	-4.27
229.424	44.88
229.642	24.4
229.86	-6.31
230.077	51.03
230.295	30.55
230.513	24.4
230.731	38.74
230.948	145.24
231.166	67.41
231.384	-14.51
231.601	96.08
231.819	77.65
232.037	42.84
232.254	42.84
232.472	12.12
232.689	77.65
232.907	106.32
233.125	61.27
233.342	-4.27
233.56	20.31
233.777	100.18
233.995	57.17
234.213	51.03
234.43	44.88
234.648	3.93
234.865	16.21
235.083	12.12
235.3	12.12
235.518	63.32
235.735	24.4
235.953	34.64
236.17	57.17
236.388	16.21
236.605	75.6
236.822	102.23
237.04	71.51
237.257	57.17
237.475	-16.55
237.692	69.46
237.909	65.36
238.127	34.64
238.344	16.21
238.562	48.98
238.779	108.37
238.996	48.98
239.214	67.41
239.431	51.03
239.648	44.88
239.865	55.12
240.083	14.17
240.3	81.75
240.517	96.08
240.735	-8.36
240.952	22.36
241.169	53.08
241.386	59.22
241.603	106.32
241.821	28.5
242.038	-0.17
242.255	28.5
242.472	69.46
242.689	75.6
242.907	42.84
243.124	46.93
243.341	-0.17
243.558	36.69
243.775	46.93
243.992	-41.13
244.209	118.61
244.426	91.99
244.643	102.23
244.86	40.79
245.078	57.17
245.295	-12.46
245.512	57.17
245.729	44.88
245.946	87.89
246.163	73.56
246.38	48.98
246.597	20.31
246.814	-6.31
247.031	26.45
247.248	96.08
247.464	53.08
247.681	12.12
247.898	71.51
248.115	-47.27
248.332	-43.18
248.549	28.5
248.766	61.27
248.983	89.94
249.2	-4.27
249.417	18.26
249.633	57.17
249.85	16.21
250.067	75.6
250.284	73.56
250.501	28.5
250.717	3.93
250.934	85.84
251.151	-20.65
251.368	81.75
251.585	143.19
251.801	57.17
252.018	-12.46
252.235	100.18
252.451	-22.7
252.668	69.46
252.885	51.03
253.102	69.46
253.318	48.98
253.535	-55.47
253.752	-14.51
253.968	-47.27
254.185	36.69
254.401	12.12
254.618	-10.41
254.835	20.31
255.051	126.8
255.268	40.79
255.484	36.69
255.701	-14.51
255.917	-8.36
256.134	81.75
256.351	55.12
256.567	77.65
256.784	20.31
257	-37.03
257.217	44.88
257.433	89.94
257.65	77.65
257.866	57.17
258.082	16.21
258.299	48.98
258.515	59.22
258.732	61.27
258.948	34.64
259.165	22.36
259.381	36.69
259.597	18.26
259.814	83.8
260.03	28.5
260.246	145.24
260.463	3.93
260.679	48.98
260.895	57.17
261.112	46.93
261.328	75.6
261.544	24.4
261.761	85.84
261.977	24.4
262.193	-4.27
262.409	10.07
262.626	28.5
262.842	42.84
263.058	-22.7
263.274	65.36
263.49	34.64
263.707	48.98
263.923	30.55
264.139	28.5
264.355	28.5
264.571	42.84
264.787	73.56
265.004	36.69
265.22	61.27
265.436	20.31
265.652	53.08
265.868	16.21
266.084	-41.13
266.3	83.8
266.516	-18.6
266.732	48.98
266.948	91.99
267.164	94.04
267.38	20.31
267.596	-39.08
267.812	42.84
268.028	10.07
268.244	53.08
268.46	79.7
268.676	44.88
268.892	57.17
269.108	116.56
269.324	-10.41
269.54	-65.71
269.756	-4.27
269.972	-39.08
270.188	38.74
270.403	5.97
270.619	20.31
270.835	44.88
271.051	118.61
271.267	20.31
271.483	28.5
271.698	116.56
271.914	48.98
272.13	53.08
272.346	12.12
272.562	20.31
272.777	130.9
272.993	40.79
273.209	3.93
273.425	77.65
273.64	16.21
273.856	79.7
274.072	28.5
274.287	28.5
274.503	65.36
274.719	46.93
274.934	44.88
275.15	3.93
275.366	20.31
275.581	24.4
275.797	-22.7
276.012	18.26
276.228	57.17
276.444	61.27
276.659	-4.27
276.875	-22.7
277.09	30.55
277.306	85.84
277.521	32.6
277.737	28.5
277.952	128.85
278.168	42.84
278.383	18.26
278.599	75.6
278.814	34.64
279.03	-37.03
279.245	57.17
279.461	40.79
279.676	81.75
279.892	-41.13
280.107	12.12
280.322	36.69
280.538	106.32
280.753	-47.27
280.969	44.88
281.184	108.37
281.399	159.57
281.615	75.6
281.83	108.37
282.045	-24.75
282.26	48.98
282.476	-28.84
282.691	57.17
282.906	34.64
283.122	61.27
283.337	3.93
283.552	44.88
283.767	63.32
283.983	3.93
284.198	122.71
284.413	116.56
284.628	53.08
284.843	57.17
285.058	53.08
285.274	22.36
285.489	24.4
285.704	67.41
285.919	28.5
286.134	44.88
286.349	-4.27
286.564	-8.36
286.779	89.94
286.995	81.75
287.21	59.22
287.425	24.4
287.64	77.65
287.855	51.03
288.07	-18.6
288.285	100.18
288.5	116.56
288.715	24.4
288.93	14.17
289.145	83.8
289.36	83.8
289.575	36.69
289.79	42.84
290.004	85.84
290.219	67.41
290.434	91.99
290.649	24.4
290.864	69.46
291.079	51.03
291.294	65.36
291.509	51.03
291.724	12.12
291.938	18.26
292.153	53.08
292.368	59.22
292.583	67.41
292.798	44.88
293.012	77.65
293.227	-20.65
293.442	83.8
293.657	85.84
293.871	32.6
294.086	55.12
294.301	96.08
294.516	5.97
294.73	18.26
294.945	18.26
295.16	106.32
295.374	57.17
295.589	147.28
295.804	-20.65
296.018	40.79
296.233	40.79
296.447	44.88
296.662	3.93
296.877	42.84
297.091	38.74
297.306	40.79
297.52	40.79
297.735	12.12
297.949	-6.31
298.164	94.04
298.378	34.64
298.593	69.46
298.807	-41.13
299.022	20.31
299.236	40.79
299.451	110.42
299.665	26.45
299.88	53.08
300.094	94.04
300.309	18.26
300.523	-28.84
300.737	40.79
300.952	46.93
301.166	106.32
301.381	8.02
301.595	69.46
301.809	55.12
302.024	59.22
302.238	-12.46
302.452	126.8
302.667	65.36
302.881	75.6
303.095	94.04
303.309	85.84
303.524	-0.17
303.738	-12.46
303.952	1.88
304.166	114.52
304.381	-20.65
304.595	87.89
304.809	59.22
305.023	12.12
305.237	26.45
305.452	-47.27
305.666	63.32
305.88	100.18
306.094	51.03
306.308	112.47
306.522	57.17
306.736	135
306.95	61.27
307.164	24.4
307.379	-12.46
307.593	102.23
307.807	34.64
308.021	28.5
308.235	100.18
308.449	-41.13
308.663	69.46
308.877	147.28
309.091	79.7
309.305	77.65
309.519	-2.22
309.733	-8.36
309.947	36.69
310.161	53.08
310.374	20.31
310.588	116.56
310.802	-20.65
311.016	32.6
311.23	36.69
311.444	91.99
311.658	26.45
311.872	85.84
312.085	24.4
312.299	18.26
312.513	77.65
312.727	-0.17
312.941	18.26
313.154	-20.65
313.368	81.75
313.582	102.23
313.796	-47.27
314.009	36.69
314.223	67.41
314.437	44.88
314.651	28.5
314.864	34.64
315.078	40.79
315.292	53.08
315.505	40.79
315.719	98.13
315.933	128.85
316.146	116.56
316.36	98.13
316.573	36.69
316.787	59.22
317.001	48.98
317.214	57.17
317.428	48.98
317.641	96.08
317.855	67.41
318.068	22.36
318.282	110.42
318.495	53.08
318.709	53.08
318.922	18.26
319.136	104.28
319.349	12.12
319.563	38.74
319.776	87.89
319.99	-2.22
320.203	-4.27
320.417	-22.7
320.63	40.79
320.843	73.56
321.057	79.7
321.27	96.08
321.483	36.69
321.697	91.99
321.91	46.93
322.124	57.17
322.337	77.65
322.55	65.36
322.763	65.36
322.977	100.18
323.19	3.93
323.403	18.26
323.617	69.46
323.83	94.04
324.043	83.8
324.256	34.64
324.469	-16.55
324.683	77.65
324.896	10.07
325.109	36.69
325.322	-6.31
325.535	30.55
325.748	102.23
325.962	51.03
326.175	-0.17
326.388	42.84
326.601	85.84
326.814	42.84
327.027	73.56
327.24	116.56
327.453	-4.27
327.666	-4.27
327.879	114.52
328.092	20.31
328.305	1.88
328.518	91.99
328.731	32.6
328.944	46.93
329.157	81.75
329.37	40.79
329.583	151.38
329.796	42.84
330.009	77.65
330.222	46.93
330.435	32.6
330.648	114.52
330.861	79.7
331.073	75.6
331.286	65.36
331.499	20.31
331.712	69.46
331.925	18.26
332.138	1.88
332.35	69.46
332.563	18.26
332.776	34.64
332.989	1.88
333.202	3.93
333.414	-6.31
333.627	81.75
333.84	-37.03
334.053	8.02
334.265	26.45
334.478	8.02
334.691	42.84
334.903	59.22
335.116	65.36
335.329	130.9
335.541	57.17
335.754	67.41
335.966	48.98
336.179	-12.46
336.392	149.33
336.604	40.79
336.817	34.64
337.029	51.03
337.242	36.69
337.454	34.64
337.667	91.99
337.88	32.6
338.092	59.22
338.305	22.36
338.517	1.88
338.729	69.46
338.942	149.33
339.154	10.07
339.367	5.97
339.579	12.12
339.792	110.42
340.004	44.88
340.217	18.26
340.429	55.12
340.641	12.12
340.854	40.79
341.066	69.46
341.278	73.56
341.491	61.27
341.703	71.51
341.915	61.27
342.128	53.08
342.34	-41.13
342.552	114.52
342.764	59.22
342.977	57.17
343.189	53.08
343.401	48.98
343.613	85.84
343.826	77.65
344.038	122.71
344.25	100.18
344.462	51.03
344.674	44.88
344.886	40.79
345.099	-2.22
345.311	57.17
345.523	-14.51
345.735	12.12
345.947	40.79
346.159	24.4
346.371	137.04
346.583	51.03
346.795	132.95
347.007	81.75
347.219	51.03
347.431	40.79
347.643	36.69
347.855	12.12
348.067	55.12
348.279	10.07
348.491	67.41
348.703	59.22
348.915	-20.65
349.127	34.64
349.339	34.64
349.551	81.75
349.763	126.8
349.975	34.64
350.187	77.65
350.399	22.36
350.61	18.26
350.822	77.65
351.034	91.99
351.246	55.12
351.458	51.03
351.669	59.22
351.881	98.13
352.093	94.04
352.305	83.8
352.517	51.03
352.728	67.41
352.94	53.08
353.152	38.74
353.363	94.04
353.575	36.69
353.787	139.09
353.999	96.08
354.21	34.64
354.422	36.69
354.633	10.07
354.845	46.93
355.057	28.5
355.268	65.36
355.48	42.84
355.692	59.22
355.903	108.37
356.115	36.69
356.326	5.97
356.538	112.47
356.749	77.65
356.961	81.75
357.172	8.02
357.384	-32.94
357.595	85.84
357.807	137.04
358.018	53.08
358.23	40.79
358.441	100.18
358.653	46.93
358.864	85.84
359.075	69.46
359.287	81.75
359.498	124.76
359.709	120.66
359.921	28.5
360.132	-0.17
360.344	65.36
360.555	36.69
360.766	85.84
360.977	-4.27
361.189	128.85
361.4	61.27
361.611	46.93
361.823	96.08
362.034	155.47
362.245	-12.46
362.456	106.32
362.667	57.17
362.879	85.84
363.09	26.45
363.301	-28.84
363.512	-20.65
363.723	1.88
363.935	69.46
364.146	89.94
364.357	102.23
364.568	36.69
364.779	18.26
364.99	112.47
365.201	77.65
365.412	67.41
365.623	-24.75
365.834	94.04
366.045	77.65
366.256	75.6
366.467	110.42
366.678	89.94
366.889	44.88
367.1	-28.84
367.311	94.04
367.522	-16.55
367.733	30.55
367.944	124.76
368.155	-53.42
368.366	57.17
368.577	69.46
368.788	122.71
368.999	61.27
369.209	46.93
369.42	126.8
369.631	118.61
369.842	-10.41
370.053	85.84
370.264	85.84
370.474	-32.94
370.685	126.8
370.896	87.89
371.107	57.17
371.317	112.47
371.528	73.56
371.739	130.9
371.95	102.23
372.16	108.37
372.371	10.07
372.582	71.51
372.792	57.17
373.003	30.55
373.214	40.79
373.424	51.03
373.635	28.5
373.846	120.66
374.056	26.45
374.267	110.42
374.477	34.64
374.688	-41.13
374.898	44.88
375.109	122.71
375.319	-24.75
375.53	42.84
375.74	69.46
375.951	32.6
376.161	42.84
376.372	81.75
376.582	40.79
376.793	116.56
377.003	48.98
377.214	69.46
377.424	108.37
377.635	81.75
377.845	57.17
378.055	67.41
378.266	40.79
378.476	20.31
378.686	79.7
378.897	42.84
379.107	147.28
379.317	91.99
379.528	12.12
379.738	38.74
379.948	-26.79
380.158	65.36
380.369	42.84
380.579	10.07
380.789	46.93
380.999	61.27
381.21	98.13
381.42	108.37
381.63	61.27
381.84	151.38
382.05	61.27
382.261	57.17
382.471	24.4
382.681	59.22
382.891	53.08
383.101	63.32
383.311	-8.36
383.521	53.08
383.731	69.46
383.941	171.86
384.151	110.42
384.361	36.69
384.571	51.03
384.781	89.94
384.991	167.76
385.201	139.09
385.411	40.79
385.621	110.42
385.831	69.46
386.041	18.26
386.251	40.79
386.461	147.28
386.671	65.36
386.881	96.08
387.091	89.94
387.301	73.56
387.511	94.04
387.72	126.8
387.93	85.84
388.14	96.08
388.35	94.04
388.56	106.32
388.769	122.71
388.979	112.47
389.189	61.27
389.399	-43.18
389.609	94.04
389.818	96.08
390.028	85.84
390.238	69.46
390.447	24.4
390.657	102.23
390.867	44.88
391.076	-6.31
391.286	102.23
391.496	124.76
391.705	85.84
391.915	122.71
392.125	139.09
392.334	94.04
392.544	98.13
392.753	53.08
392.963	40.79
393.172	137.04
393.382	91.99
393.591	96.08
393.801	51.03
394.01	91.99
394.22	55.12
394.429	53.08
394.639	126.8
394.848	126.8
395.058	108.37
395.267	26.45
395.477	85.84
395.686	87.89
395.895	151.38
396.105	118.61
396.314	116.56
396.524	79.7
396.733	96.08
396.942	94.04
397.152	87.89
397.361	104.28
397.57	122.71
397.78	79.7
397.989	108.37
398.198	163.67
398.407	149.33
398.617	130.9
398.826	91.99
399.035	81.75
399.244	89.94
399.453	67.41
399.663	116.56
399.872	124.76
400.081	122.71
400.29	141.14
400.499	110.42
400.708	135
400.917	77.65
401.127	91.99
401.336	139.09
401.545	132.95
401.754	184.15
401.963	143.19
402.172	100.18
402.381	118.61
402.59	89.94
402.799	151.38
403.008	120.66
403.217	126.8
403.426	132.95
403.635	114.52
403.844	167.76
404.053	157.52
404.262	155.47
404.471	165.71
404.68	171.86
404.888	225.11
405.097	67.41
405.306	175.95
405.515	145.24
405.724	151.38
405.933	110.42
406.142	139.09
406.35	161.62
406.559	188.24
406.768	151.38
406.977	178
407.185	182.1
407.394	178
407.603	135
407.812	118.61
408.02	266.07
408.229	182.1
408.438	239.44
408.646	200.53
408.855	229.2
409.064	175.95
409.272	229.2
409.481	245.59
409.69	167.76
409.898	198.48
410.107	259.92
410.315	313.17
410.524	315.22
410.733	376.66
410.941	347.98
411.15	360.27
411.358	298.83
411.567	446.29
411.775	386.9
411.984	405.33
412.192	460.62
412.401	374.61
412.609	386.9
412.818	452.43
413.026	419.66
413.234	434
413.443	474.96
413.651	536.4
413.86	487.25
414.068	503.63
414.276	548.68
414.485	628.56
414.693	569.16
414.901	706.38
415.11	667.47
415.318	681.8
415.526	651.08
415.734	745.29
415.943	685.9
416.151	708.43
416.359	769.87
416.567	825.16
416.776	823.11
416.984	831.3
417.192	905.03
417.4	927.56
417.608	794.44
417.817	939.85
418.025	902.98
418.233	1163.08
418.441	937.8
418.649	1099.59
418.857	1204.03
419.065	1230.66
419.273	1140.55
419.481	1265.47
419.689	1331.01
419.897	1281.86
420.105	1396.54
420.313	1355.58
420.521	1474.37
420.729	1464.13
420.937	1544
421.145	1630.01
421.353	1656.64
421.561	1713.98
421.769	1724.22
421.977	1814.33
422.185	1793.85
422.393	1892.15
422.601	1931.06
422.809	2076.47
423.017	1929.02
423.224	2238.26
423.432	2307.89
423.64	2182.96
423.848	2449.2
424.056	2326.32
424.263	2467.63
424.471	2524.97
424.679	2594.61
424.887	2789.16
425.094	2750.25
425.302	2940.71
425.51	2938.66
425.718	2940.71
425.925	3092.26
426.133	3264.29
426.341	3419.94
426.548	3526.43
426.756	3544.86
426.964	3526.43
427.171	3663.65
427.379	3880.73
427.586	3993.37
427.794	4077.34
428.001	4296.47
428.209	4382.48
428.417	4300.56
428.624	4718.35
428.832	4568.85
429.039	4595.47
429.247	4505.36
429.454	4974.35
429.662	5304.07
429.869	5046.02
430.076	5371.65
430.284	5205.77
430.491	5353.22
430.699	5740.29
430.906	5641.98
431.114	5793.53
431.321	5983.99
431.528	6250.23
431.736	6532.85
431.943	6704.88
432.15	6694.64
432.358	6747.89
432.565	7014.12
432.772	7120.62
432.979	7450.34
433.187	7491.3
433.394	7587.55
433.601	8165.08
433.808	8097.5
434.016	8101.59
434.223	8464.08
434.43	8963.79
434.637	8808.14
434.844	9184.97
435.052	9608.9
435.259	9473.73
435.466	9328.33
435.673	9383.62
435.88	10041.02
436.087	10387.13
436.294	10702.51
436.501	10454.71
436.708	10399.41
436.915	10806.96
437.122	11239.08
437.329	11355.82
437.537	11720.35
437.743	11706.02
437.95	11558.56
438.157	12154.52
438.364	12689.04
438.571	12760.72
438.778	12781.2
438.985	13766.28
439.192	13266.57
439.399	13766.28
439.606	13518.47
439.813	14372.47
440.02	14988.91
440.227	14730.87
440.433	15029.87
440.64	15461.99
440.847	15347.31
441.054	15560.3
441.261	16402.01
441.467	16330.33
441.674	16633.43
441.881	17198.67
442.088	17133.14
442.294	17045.07
442.501	17798.73
442.708	17692.23
442.914	18454.08
443.121	19344.94
443.328	18839.09
443.534	20014.63
443.741	19406.38
443.948	19144.24
444.154	20860.44
444.361	20753.94
444.568	20377.12
444.774	20995.6
444.981	20878.87
445.187	21757.45
445.394	22621.69
445.6	22328.83
445.807	24384.99
446.013	22945.27
446.22	23621.1
446.426	24722.91
446.633	24813.02
446.839	25368.02
447.046	24194.53
447.252	26066.38
447.459	25705.93
447.665	25572.82
447.871	26789.31
448.078	27784.62
448.284	26557.89
448.491	27198.9
448.697	28448.16
448.903	28816.8
449.11	28796.32
449.316	28136.87
449.522	28986.78
449.728	29734.29
449.935	29998.48
450.141	29357.46
450.347	30578.05
450.553	29218.2
450.76	29797.77
450.966	30926.21
451.172	30221.7
451.378	31022.46
451.584	30375.3
451.791	31311.22
451.997	30909.82
452.203	31749.49
452.409	31352.18
452.615	31159.67
452.821	30111.11
453.027	30199.18
453.233	31837.55
453.44	30059.91
453.646	30600.58
453.852	30401.93
454.058	31042.94
454.264	29928.84
454.47	30666.11
454.676	29662.61
454.882	31163.77
455.088	28331.43
455.294	28562.85
455.5	28872.09
455.705	29154.71
455.911	27958.7
456.117	27454.9
456.323	27147.7
456.529	25728.46
456.735	26774.97
456.941	26015.18
457.147	25746.89
457.352	24577.5
457.558	24514.02
457.764	24557.02
457.97	24016.36
458.176	23692.78
458.381	23518.7
458.587	22617.6
458.793	22144.52
458.999	21235.22
459.204	22736.38
459.41	22318.59
459.616	20622.87
459.821	20608.54
460.027	20698.65
460.233	20114.98
460.438	18884.15
460.644	19351.09
460.85	18466.36
461.055	18271.81
461.261	18187.84
461.466	16709.21
461.672	16402.01
461.878	17546.83
462.083	16488.03
462.289	16213.6
462.494	16037.47
462.7	15285.87
462.905	14587.51
463.111	15447.66
463.316	15363.69
463.522	14958.19
463.727	14943.86
463.932	15144.56
464.138	14722.68
464.343	14882.42
464.549	14288.51
464.754	14880.37
464.959	14888.56
465.165	14526.07
465.37	14141.05
465.575	14005.89
465.781	14392.95
465.986	14253.69
466.191	13868.67
466.397	13411.98
466.602	12994.19
466.807	13448.84
467.012	13354.63
467.218	13401.74
