Data from USB4F104151__14__10-21-03-962.txt Node

Date: Wed Mar 12 10:21:03 EDT 2025
User: louis
Spectrometer: USB4F10415
Trigger mode: 4
Integration Time (sec): 3.000000E-2
Scans to average: 1
Electric dark correction enabled: true
Nonlinearity correction enabled: false
Boxcar width: 0
XAxis mode: Wavelengths
Number of Pixels in Spectrum: 3648
>>>>>Begin Spectral Data<<<<<
178.204	-62.12
178.424	-62.12
178.644	-62.12
178.864	-162.47
179.084	-166.57
179.304	-4.78
179.524	-49.83
179.744	40.28
179.964	-19.11
180.184	1.37
180.404	34.13
180.624	48.47
180.844	56.66
181.064	-94.89
181.283	15.7
181.503	-74.41
181.723	46.42
181.943	-41.64
182.163	5.46
182.383	1.37
182.602	23.89
182.822	-25.26
183.042	-8.87
183.262	-29.35
183.482	-12.97
183.701	19.8
183.921	21.85
184.141	-12.97
184.361	58.71
184.58	30.04
184.8	87.38
185.02	-98.99
185.239	42.32
185.459	79.19
185.679	50.52
185.898	-58.03
186.118	46.42
186.338	-21.16
186.557	77.14
186.777	38.23
186.997	-41.64
187.216	-6.83
187.436	81.24
187.655	-17.07
187.875	11.61
188.095	25.94
188.314	40.28
188.534	7.51
188.753	-66.22
188.973	-2.73
189.192	42.32
189.412	54.61
189.631	-29.35
189.851	27.99
190.07	73.04
190.29	1.37
190.509	-35.5
190.729	-19.11
190.948	1.37
191.168	105.81
191.387	34.13
191.607	-6.83
191.826	71
192.045	73.04
192.265	19.8
192.484	-33.45
192.704	5.46
192.923	73.04
193.142	60.76
193.362	46.42
193.581	17.75
193.8	19.8
194.02	81.24
194.239	-0.68
194.458	83.28
194.678	66.9
194.897	17.75
195.116	-12.97
195.335	11.61
195.555	23.89
195.774	71
195.993	30.04
196.212	-6.83
196.432	17.75
196.651	-2.73
196.87	7.51
197.089	101.72
197.308	60.76
197.528	56.66
197.747	21.85
197.966	-12.97
198.185	34.13
198.404	-84.65
198.623	25.94
198.842	7.51
199.062	62.8
199.281	109.91
199.5	-8.87
199.719	-21.16
199.938	73.04
200.157	83.28
200.376	46.42
200.595	-15.02
200.814	62.8
201.033	17.75
201.252	34.13
201.471	-31.4
201.69	50.52
201.909	-6.83
202.128	-64.17
202.347	-29.35
202.566	27.99
202.785	-15.02
203.004	-31.4
203.223	101.72
203.442	23.89
203.661	50.52
203.879	7.51
204.098	99.67
204.317	23.89
204.536	111.96
204.755	-15.02
204.974	71
205.193	68.95
205.411	40.28
205.63	9.56
205.849	-0.68
206.068	36.18
206.287	34.13
206.505	36.18
206.724	-39.59
206.943	-29.35
207.162	-2.73
207.381	56.66
207.599	38.23
207.818	38.23
208.037	27.99
208.255	-19.11
208.474	32.08
208.693	34.13
208.911	48.47
209.13	25.94
209.349	64.85
209.567	15.7
209.786	105.81
210.005	77.14
210.223	-15.02
210.442	27.99
210.661	40.28
210.879	38.23
211.098	62.8
211.316	-66.22
211.535	50.52
211.753	9.56
211.972	48.47
212.191	-17.07
212.409	9.56
212.628	71
212.846	25.94
213.065	58.71
213.283	95.57
213.502	75.09
213.72	46.42
213.938	44.37
214.157	44.37
214.375	-17.07
214.594	-25.26
214.812	-19.11
215.031	-6.83
215.249	30.04
215.467	17.75
215.686	7.51
215.904	73.04
216.122	99.67
216.341	25.94
216.559	44.37
216.778	46.42
216.996	17.75
217.214	34.13
217.432	34.13
217.651	17.75
217.869	73.04
218.087	56.66
218.306	54.61
218.524	105.81
218.742	103.76
218.96	-19.11
219.179	3.41
219.397	87.38
219.615	75.09
219.833	11.61
220.051	32.08
220.27	56.66
220.488	-51.88
220.706	27.99
220.924	77.14
221.142	-35.5
221.36	-41.64
221.578	27.99
221.796	93.52
222.015	58.71
222.233	23.89
222.451	62.8
222.669	-6.83
222.887	40.28
223.105	23.89
223.323	-17.07
223.541	-25.26
223.759	48.47
223.977	-0.68
224.195	50.52
224.413	56.66
224.631	9.56
224.849	9.56
225.067	62.8
225.285	38.23
225.503	66.9
225.721	-10.92
225.939	-47.79
226.157	-15.02
226.375	132.44
226.592	30.04
226.81	56.66
227.028	46.42
227.246	64.85
227.464	30.04
227.682	75.09
227.9	1.37
228.117	-53.93
228.335	-0.68
228.553	1.37
228.771	38.23
228.989	52.56
229.206	-4.78
229.424	13.65
229.642	73.04
229.86	-62.12
230.077	99.67
230.295	34.13
230.513	13.65
230.731	1.37
230.948	23.89
231.166	15.7
231.384	-107.18
231.601	36.18
231.819	122.2
232.037	1.37
232.254	75.09
232.472	79.19
232.689	-72.36
232.907	62.8
233.125	34.13
233.342	62.8
233.56	19.8
233.777	17.75
233.995	34.13
234.213	95.57
234.43	40.28
234.648	56.66
234.865	-43.69
235.083	58.71
235.3	58.71
235.518	52.56
235.735	79.19
235.953	5.46
236.17	-43.69
236.388	42.32
236.605	21.85
236.822	91.48
237.04	48.47
237.257	79.19
237.475	-0.68
237.692	-49.83
237.909	17.75
238.127	30.04
238.344	60.76
238.562	87.38
238.779	27.99
238.996	27.99
239.214	46.42
239.431	15.7
239.648	21.85
239.865	64.85
240.083	5.46
240.3	73.04
240.517	42.32
240.735	1.37
240.952	-27.31
241.169	-94.89
241.386	64.85
241.603	-70.31
241.821	34.13
242.038	27.99
242.255	9.56
242.472	-6.83
242.689	46.42
242.907	56.66
243.124	62.8
243.341	75.09
243.558	62.8
243.775	62.8
243.992	-45.74
244.209	-12.97
244.426	140.63
244.643	81.24
244.86	36.18
245.078	46.42
245.295	-19.11
245.512	13.65
245.729	25.94
245.946	81.24
246.163	30.04
246.38	50.52
246.597	15.7
246.814	-4.78
247.031	34.13
247.248	64.85
247.464	27.99
247.681	7.51
247.898	36.18
248.115	66.9
248.332	64.85
248.549	-2.73
248.766	116.05
248.983	1.37
249.2	93.52
249.417	-2.73
249.633	17.75
249.85	9.56
250.067	-41.64
250.284	77.14
250.501	56.66
250.717	-21.16
250.934	17.75
251.151	73.04
251.368	58.71
251.585	-17.07
251.801	42.32
252.018	25.94
252.235	9.56
252.451	-4.78
252.668	-12.97
252.885	36.18
253.102	52.56
253.318	-15.02
253.535	17.75
253.752	34.13
253.968	66.9
254.185	-2.73
254.401	-60.07
254.618	38.23
254.835	27.99
255.051	154.96
255.268	95.57
255.484	-35.5
255.701	-6.83
255.917	58.71
256.134	-60.07
256.351	66.9
256.567	5.46
256.784	114
257	-17.07
257.217	-15.02
257.433	27.99
257.65	19.8
257.866	21.85
258.082	-37.55
258.299	5.46
258.515	13.65
258.732	-35.5
258.948	91.48
259.165	46.42
259.381	66.9
259.597	7.51
259.814	85.33
260.03	30.04
260.246	11.61
260.463	36.18
260.679	17.75
260.895	-92.84
261.112	81.24
261.328	13.65
261.544	50.52
261.761	124.24
261.977	40.28
262.193	46.42
262.409	58.71
262.626	83.28
262.842	17.75
263.058	34.13
263.274	99.67
263.49	-19.11
263.707	87.38
263.923	91.48
264.139	38.23
264.355	36.18
264.571	64.85
264.787	7.51
265.004	21.85
265.22	52.56
265.436	-6.83
265.652	7.51
265.868	56.66
266.084	42.32
266.3	5.46
266.516	7.51
266.732	42.32
266.948	1.37
267.164	9.56
267.38	56.66
267.596	25.94
267.812	99.67
268.028	66.9
268.244	64.85
268.46	71
268.676	42.32
268.892	21.85
269.108	-45.74
269.324	15.7
269.54	-66.22
269.756	79.19
269.972	-70.31
270.188	46.42
270.403	-12.97
270.619	23.89
270.835	38.23
271.051	44.37
271.267	5.46
271.483	83.28
271.698	-10.92
271.914	81.24
272.13	21.85
272.346	32.08
272.562	38.23
272.777	27.99
272.993	9.56
273.209	23.89
273.425	1.37
273.64	-51.88
273.856	17.75
274.072	-19.11
274.287	30.04
274.503	81.24
274.719	40.28
274.934	-10.92
275.15	21.85
275.366	48.47
275.581	48.47
275.797	5.46
276.012	21.85
276.228	34.13
276.444	40.28
276.659	99.67
276.875	27.99
277.09	77.14
277.306	-15.02
277.521	30.04
277.737	25.94
277.952	27.99
278.168	19.8
278.383	73.04
278.599	34.13
278.814	58.71
279.03	73.04
279.245	105.81
279.461	25.94
279.676	30.04
279.892	27.99
280.107	64.85
280.322	71
280.538	-35.5
280.753	34.13
280.969	48.47
281.184	9.56
281.399	44.37
281.615	48.47
281.83	99.67
282.045	-39.59
282.26	-0.68
282.476	50.52
282.691	1.37
282.906	25.94
283.122	17.75
283.337	40.28
283.552	-29.35
283.767	9.56
283.983	-10.92
284.198	-43.69
284.413	42.32
284.628	1.37
284.843	-6.83
285.058	46.42
285.274	32.08
285.489	-17.07
285.704	25.94
285.919	23.89
286.134	124.24
286.349	48.47
286.564	64.85
286.779	107.86
286.995	89.43
287.21	-41.64
287.425	66.9
287.64	42.32
287.855	-17.07
288.07	11.61
288.285	30.04
288.5	107.86
288.715	5.46
288.93	-8.87
289.145	-2.73
289.36	3.41
289.575	21.85
289.79	40.28
290.004	52.56
290.219	13.65
290.434	7.51
290.649	-41.64
290.864	-12.97
291.079	-2.73
291.294	58.71
291.509	-15.02
291.724	27.99
291.938	21.85
292.153	95.57
292.368	17.75
292.583	-10.92
292.798	40.28
293.012	83.28
293.227	-6.83
293.442	9.56
293.657	-4.78
293.871	48.47
294.086	5.46
294.301	44.37
294.516	101.72
294.73	-0.68
294.945	30.04
295.16	62.8
295.374	111.96
295.589	56.66
295.804	9.56
296.018	17.75
296.233	130.39
296.447	89.43
296.662	-39.59
296.877	30.04
297.091	46.42
297.306	-6.83
297.52	30.04
297.735	75.09
297.949	46.42
298.164	54.61
298.378	-4.78
298.593	38.23
298.807	-27.31
299.022	-15.02
299.236	-2.73
299.451	60.76
299.665	-8.87
299.88	23.89
300.094	-10.92
300.309	3.41
300.523	9.56
300.737	25.94
300.952	44.37
301.166	17.75
301.381	-6.83
301.595	-37.55
301.809	32.08
302.024	-12.97
302.238	-27.31
302.452	30.04
302.667	-80.55
302.881	68.95
303.095	1.37
303.309	5.46
303.524	-15.02
303.738	5.46
303.952	-15.02
304.166	116.05
304.381	-6.83
304.595	58.71
304.809	15.7
305.023	42.32
305.237	7.51
305.452	-6.83
305.666	-8.87
305.88	87.38
306.094	77.14
306.308	3.41
306.522	58.71
306.736	-0.68
306.95	44.37
307.164	38.23
307.379	-23.21
307.593	44.37
307.807	-27.31
308.021	42.32
308.235	-39.59
308.449	-25.26
308.663	46.42
308.877	66.9
309.091	30.04
309.305	19.8
309.519	-15.02
309.733	13.65
309.947	-6.83
310.161	99.67
310.374	44.37
310.588	-47.79
310.802	89.43
311.016	-4.78
311.23	42.32
311.444	3.41
311.658	-25.26
311.872	73.04
312.085	17.75
312.299	17.75
312.513	95.57
312.727	50.52
312.941	5.46
313.154	5.46
313.368	64.85
313.582	-35.5
313.796	-4.78
314.009	34.13
314.223	15.7
314.437	32.08
314.651	50.52
314.864	46.42
315.078	34.13
315.292	52.56
315.505	9.56
315.719	46.42
315.933	50.52
316.146	-0.68
316.36	11.61
316.573	85.33
316.787	66.9
317.001	103.76
317.214	60.76
317.428	7.51
317.641	38.23
317.855	27.99
318.068	-15.02
318.282	5.46
318.495	66.9
318.709	62.8
318.922	17.75
319.136	64.85
319.349	48.47
319.563	-35.5
319.776	50.52
319.99	-78.51
320.203	46.42
320.417	58.71
320.63	54.61
320.843	17.75
321.057	42.32
321.27	73.04
321.483	-6.83
321.697	111.96
321.91	48.47
322.124	116.05
322.337	54.61
322.55	9.56
322.763	23.89
322.977	44.37
323.19	7.51
323.403	-8.87
323.617	85.33
323.83	1.37
324.043	-15.02
324.256	79.19
324.469	1.37
324.683	66.9
324.896	34.13
325.109	62.8
325.322	-4.78
325.535	38.23
325.748	25.94
325.962	13.65
326.175	34.13
326.388	32.08
326.601	103.76
326.814	3.41
327.027	107.86
327.24	64.85
327.453	-21.16
327.666	52.56
327.879	142.68
328.092	-39.59
328.305	105.81
328.518	-15.02
328.731	21.85
328.944	-35.5
329.157	25.94
329.37	71
329.583	79.19
329.796	124.24
330.009	38.23
330.222	54.61
330.435	105.81
330.648	83.28
330.861	71
331.073	13.65
331.286	99.67
331.499	7.51
331.712	-19.11
331.925	21.85
332.138	-15.02
332.35	99.67
332.563	1.37
332.776	9.56
332.989	19.8
333.202	25.94
333.414	60.76
333.627	-35.5
333.84	36.18
334.053	11.61
334.265	3.41
334.478	-82.6
334.691	15.7
334.903	5.46
335.116	34.13
335.329	103.76
335.541	66.9
335.754	60.76
335.966	-35.5
336.179	25.94
336.392	46.42
336.604	75.09
336.817	54.61
337.029	23.89
337.242	42.32
337.454	3.41
337.667	109.91
337.88	79.19
338.092	66.9
338.305	66.9
338.517	71
338.729	34.13
338.942	60.76
339.154	9.56
339.367	56.66
339.579	1.37
339.792	-2.73
340.004	66.9
340.217	-27.31
340.429	48.47
340.641	-64.17
340.854	-37.55
341.066	32.08
341.278	48.47
341.491	34.13
341.703	56.66
341.915	-2.73
342.128	64.85
342.34	-17.07
342.552	93.52
342.764	11.61
342.977	17.75
343.189	56.66
343.401	-15.02
343.613	42.32
343.826	34.13
344.038	75.09
344.25	91.48
344.462	19.8
344.674	-55.98
344.886	38.23
345.099	15.7
345.311	62.8
345.523	79.19
345.735	-23.21
345.947	5.46
346.159	34.13
346.371	-12.97
346.583	75.09
346.795	93.52
347.007	-51.88
347.219	5.46
347.431	23.89
347.643	99.67
347.855	27.99
348.067	81.24
348.279	54.61
348.491	42.32
348.703	56.66
348.915	5.46
349.127	56.66
349.339	50.52
349.551	79.19
349.763	58.71
349.975	1.37
350.187	140.63
350.399	38.23
350.61	97.62
350.822	40.28
351.034	62.8
351.246	140.63
351.458	23.89
351.669	68.95
351.881	66.9
352.093	27.99
352.305	48.47
352.517	54.61
352.728	81.24
352.94	75.09
353.152	79.19
353.363	13.65
353.575	-19.11
353.787	91.48
353.999	77.14
354.21	138.58
354.422	50.52
354.633	3.41
354.845	64.85
355.057	48.47
355.268	36.18
355.48	77.14
355.692	-6.83
355.903	3.41
356.115	-6.83
356.326	9.56
356.538	101.72
356.749	58.71
356.961	101.72
357.172	68.95
357.384	25.94
357.595	93.52
357.807	152.92
358.018	-4.78
358.23	19.8
358.441	87.38
358.653	52.56
358.864	32.08
359.075	66.9
359.287	5.46
359.498	105.81
359.709	58.71
359.921	34.13
360.132	38.23
360.344	13.65
360.555	23.89
360.766	71
360.977	-6.83
361.189	27.99
361.4	-68.27
361.611	34.13
361.823	54.61
362.034	81.24
362.245	-90.79
362.456	30.04
362.667	62.8
362.879	36.18
363.09	50.52
363.301	64.85
363.512	48.47
363.723	15.7
363.935	87.38
364.146	105.81
364.357	34.13
364.568	48.47
364.779	17.75
364.99	-10.92
365.201	13.65
365.412	132.44
365.623	40.28
365.834	101.72
366.045	30.04
366.256	95.57
366.467	83.28
366.678	42.32
366.889	7.51
367.1	3.41
367.311	40.28
367.522	40.28
367.733	17.75
367.944	64.85
368.155	-2.73
368.366	7.51
368.577	134.48
368.788	3.41
368.999	-37.55
369.209	-35.5
369.42	114
369.631	101.72
369.842	89.43
370.053	-6.83
370.264	7.51
370.474	15.7
370.685	32.08
370.896	71
371.107	75.09
371.317	56.66
371.528	75.09
371.739	77.14
371.95	38.23
372.16	50.52
372.371	-25.26
372.582	58.71
372.792	9.56
373.003	25.94
373.214	42.32
373.424	42.32
373.635	-6.83
373.846	103.76
374.056	58.71
374.267	-2.73
374.477	154.96
374.688	5.46
374.898	9.56
375.109	38.23
375.319	13.65
375.53	36.18
375.74	50.52
375.951	27.99
376.161	-6.83
376.372	95.57
376.582	62.8
376.793	79.19
377.003	44.37
377.214	73.04
377.424	66.9
377.635	-62.12
377.845	42.32
378.055	157.01
378.266	-2.73
378.476	48.47
378.686	66.9
378.897	79.19
379.107	9.56
379.317	116.05
379.528	40.28
379.738	-2.73
379.948	46.42
380.158	19.8
380.369	32.08
380.579	62.8
380.789	-4.78
380.999	50.52
381.21	79.19
381.42	71
381.63	73.04
381.84	66.9
382.05	48.47
382.261	48.47
382.471	85.33
382.681	83.28
382.891	56.66
383.101	7.51
383.311	17.75
383.521	-17.07
383.731	91.48
383.941	46.42
384.151	34.13
384.361	-80.55
384.571	36.18
384.781	50.52
384.991	132.44
385.201	83.28
385.411	91.48
385.621	109.91
385.831	42.32
386.041	46.42
386.251	83.28
386.461	66.9
386.671	71
386.881	38.23
387.091	-15.02
387.301	111.96
387.511	83.28
387.72	73.04
387.93	124.24
388.14	46.42
388.35	44.37
388.56	159.06
388.769	103.76
388.979	109.91
389.189	36.18
389.399	122.2
389.609	87.38
389.818	97.62
390.028	42.32
390.238	93.52
390.447	30.04
390.657	105.81
390.867	120.15
391.076	46.42
391.286	81.24
391.496	-25.26
391.705	77.14
391.915	138.58
392.125	171.35
392.334	46.42
392.544	71
392.753	77.14
392.963	56.66
393.172	91.48
393.382	42.32
393.591	79.19
393.801	36.18
394.01	132.44
394.22	79.19
394.429	89.43
394.639	109.91
394.848	46.42
395.058	66.9
395.267	77.14
395.477	93.52
395.686	71
395.895	144.72
396.105	163.15
396.314	167.25
396.524	103.76
396.733	81.24
396.942	128.34
397.152	91.48
397.361	140.63
397.57	83.28
397.78	101.72
397.989	124.24
398.198	167.25
398.407	81.24
398.617	58.71
398.826	75.09
399.035	91.48
399.244	142.68
399.453	128.34
399.663	50.52
399.872	64.85
400.081	89.43
400.29	132.44
400.499	132.44
400.708	181.59
400.917	161.11
401.127	42.32
401.336	64.85
401.545	200.02
401.754	122.2
401.963	50.52
402.172	85.33
402.381	21.85
402.59	177.49
402.799	132.44
403.008	146.77
403.217	146.77
403.426	136.53
403.635	99.67
403.844	99.67
404.053	140.63
404.262	173.39
404.471	243.03
404.68	167.25
404.888	212.31
405.097	146.77
405.306	193.87
405.515	208.21
405.724	126.29
405.933	197.97
406.142	197.97
406.35	204.11
406.559	210.26
406.768	247.12
406.977	218.45
407.185	144.72
407.394	202.07
407.603	187.73
407.812	195.92
408.02	238.93
408.229	212.31
408.438	218.45
408.646	275.79
408.855	249.17
409.064	331.09
409.272	236.88
409.481	374.1
409.69	279.89
409.898	265.55
410.107	271.7
410.315	361.81
410.524	296.27
410.733	378.19
410.941	320.85
411.15	392.53
411.358	382.29
411.567	419.15
411.775	404.82
411.984	419.15
412.192	501.07
412.401	417.1
412.609	488.78
412.818	521.55
413.026	431.44
413.234	484.69
413.443	550.22
413.651	527.69
413.86	548.17
414.068	656.72
414.276	619.85
414.485	648.52
414.693	689.48
414.901	705.87
415.11	681.29
415.318	705.87
415.526	802.12
415.734	789.83
415.943	752.97
416.151	851.27
416.359	836.94
416.567	834.89
416.776	1002.82
416.984	978.25
417.192	988.49
417.4	974.15
417.608	961.86
417.817	1082.69
418.025	1187.14
418.233	1168.71
418.441	1217.86
418.649	1135.94
418.857	1373.5
419.065	1336.64
419.273	1260.87
419.481	1432.9
419.689	1484.09
419.897	1434.94
420.105	1582.4
420.313	1609.02
420.521	1582.4
420.729	1744.19
420.937	1846.59
421.145	1686.84
421.353	1961.27
421.561	2004.28
421.769	1920.31
421.977	2098.49
422.185	2020.66
422.393	2202.93
422.601	2286.9
422.809	2342.19
423.017	2477.36
423.224	2501.94
423.432	2686.25
423.64	2565.42
423.848	2735.4
424.056	2610.48
424.263	2932.01
424.471	2942.25
424.679	2907.43
424.887	3058.98
425.094	3224.87
425.302	3302.69
425.51	3372.32
425.718	3444
425.925	3591.45
426.133	3669.28
426.341	3982.62
426.548	4037.91
426.756	4033.82
426.964	4097.3
427.171	4336.92
427.379	4500.75
427.586	4447.51
427.794	4564.24
428.001	4713.74
428.209	5022.98
428.417	5063.94
428.624	5328.13
428.832	5416.19
429.039	5285.12
429.247	5367.04
429.454	5788.93
429.662	6098.17
429.869	5872.89
430.076	6262.01
430.284	5981.43
430.491	6202.61
430.699	6497.52
430.906	6720.75
431.114	6546.67
431.321	6986.99
431.528	7144.68
431.736	7292.13
431.943	7840.99
432.15	7638.24
432.358	7677.15
432.565	8094.94
432.772	8162.52
432.979	8670.42
433.187	8578.26
433.394	8690.9
433.601	9254.09
433.808	9290.95
434.016	9192.65
434.223	9596.1
434.43	10065.08
434.637	10003.64
434.844	10716.34
435.052	10804.4
435.259	10689.71
435.466	10783.92
435.673	10755.25
435.88	11568.29
436.087	12182.68
436.294	11963.55
436.501	11895.97
436.708	12215.45
436.915	12467.35
437.122	13096.08
437.329	12786.83
437.537	13358.22
437.743	13603.97
437.95	13331.59
438.157	14021.76
438.364	14537.85
438.571	14423.16
438.778	14601.33
438.985	15864.93
439.192	15254.64
439.399	16030.82
439.606	15498.34
439.813	16395.36
440.02	17550.41
440.227	17046.61
440.433	16895.06
440.64	17433.68
440.847	17220.69
441.054	17732.68
441.261	18973.75
441.467	18736.18
441.674	19080.24
441.881	19854.37
442.088	19754.02
442.294	19418.16
442.501	20323.36
442.708	20560.92
442.914	21066.77
443.121	22103.04
443.328	21558.28
443.534	23032.82
443.741	22393.86
443.948	22066.18
444.154	23765.99
444.361	23477.23
444.568	23694.32
444.774	23671.79
444.981	24120.29
445.187	24806.36
445.394	25621.45
445.6	25449.42
445.807	27685.81
446.013	26684.35
446.22	26919.87
446.426	27861.93
446.633	28302.25
446.839	29010.84
447.046	28003.24
447.252	29428.63
447.459	29625.23
447.665	29643.66
447.871	30675.84
448.078	31816.56
448.284	30237.58
448.491	31318.9
448.697	32156.52
448.903	33037.15
449.11	33012.57
449.316	32531.3
449.522	32865.12
449.728	33690.45
449.935	34028.37
450.141	34071.37
450.347	34634.56
450.553	33659.73
450.76	34134.86
450.966	34943.81
451.172	34607.94
451.378	35109.69
451.584	34966.34
451.791	35470.14
451.997	35369.79
452.203	35857.2
452.409	36090.67
452.615	35560.25
452.821	34409.29
453.027	33932.11
453.233	35595.06
453.44	33895.25
453.646	34691.91
453.852	34624.32
454.058	35205.95
454.264	33887.06
454.47	34896.7
454.676	33733.46
454.882	35017.53
455.088	31894.38
455.294	32168.81
455.5	32652.13
455.705	33375.06
455.911	31746.93
456.117	31284.09
456.323	31107.96
456.529	28984.22
456.735	30438.28
456.941	29508.5
457.147	28935.07
457.352	28486.56
457.558	27935.66
457.764	27710.38
457.97	27405.24
458.176	26479.55
458.381	26745.79
458.587	25566.16
458.793	25332.69
458.999	24445.92
459.204	25838.54
459.41	24972.25
459.616	23254
459.821	23471.09
460.027	22926.33
460.233	23034.87
460.438	21685.26
460.644	21947.4
460.85	20825.11
461.055	20829.21
461.261	20642.84
461.466	19121.2
461.672	18691.13
461.878	19788.84
462.083	18504.76
462.289	18119.74
462.494	17867.84
462.7	17226.83
462.905	16655.45
463.111	17448.01
463.316	17445.96
463.522	16985.17
463.727	16929.88
463.932	16952.4
464.138	16792.66
464.343	16827.48
464.549	16387.16
464.754	17103.95
464.959	16880.72
465.165	16577.62
465.37	16108.64
465.575	15592.55
465.781	16168.03
465.986	16338.01
466.191	15678.57
466.397	15424.62
466.602	14687.35
466.807	15285.36
467.012	15375.47
467.218	15146.09
467.423	14949.49
467.628	14965.87
467.833	15760.48
