Data from USB4F104151__268__10-40-39-442.txt Node

Date: Wed Mar 12 10:40:39 EDT 2025
User: louis
Spectrometer: USB4F10415
Trigger mode: 4
Integration Time (sec): 3.000000E-2
Scans to average: 1
Electric dark correction enabled: true
Nonlinearity correction enabled: false
Boxcar width: 0
XAxis mode: Wavelengths
Number of Pixels in Spectrum: 3648
>>>>>Begin Spectral Data<<<<<
178.204	-137.21
178.424	-137.21
178.644	-137.21
178.864	-137.21
179.084	-116.73
179.304	-59.39
179.524	10.24
179.744	-75.77
179.964	-16.38
180.184	12.29
180.404	79.87
180.624	34.82
180.844	57.34
181.064	-24.58
181.283	22.53
181.503	-30.72
181.723	-10.24
181.943	-139.26
182.163	26.62
182.383	79.87
182.602	-40.96
182.822	-6.14
183.042	32.77
183.262	-10.24
183.482	28.67
183.701	-32.77
183.921	30.72
184.141	59.39
184.361	32.77
184.58	-22.53
184.8	40.96
185.02	-2.05
185.239	-14.34
185.459	20.48
185.679	96.25
185.898	-34.82
186.118	14.34
186.338	34.82
186.557	-28.67
186.777	-30.72
186.997	14.34
187.216	-8.19
187.436	16.38
187.655	-24.58
187.875	-32.77
188.095	40.96
188.314	38.91
188.534	-38.91
188.753	-6.14
188.973	24.58
189.192	22.53
189.412	43.01
189.631	24.58
189.851	-14.34
190.07	43.01
190.29	-51.2
190.509	-6.14
190.729	43.01
190.948	59.39
191.168	45.06
191.387	63.49
191.607	-14.34
191.826	98.3
192.045	4.1
192.265	-22.53
192.484	-55.3
192.704	-6.14
192.923	34.82
193.142	83.97
193.362	-10.24
193.581	-4.1
193.8	-28.67
194.02	-14.34
194.239	-14.34
194.458	65.54
194.678	4.1
194.897	43.01
195.116	-8.19
195.335	-45.06
195.555	32.77
195.774	-18.43
195.993	83.97
196.212	-43.01
196.432	-20.48
196.651	-24.58
196.87	-22.53
197.089	51.2
197.308	-22.53
197.528	86.01
197.747	-12.29
197.966	-22.53
198.185	69.63
198.404	2.05
198.623	20.48
198.842	36.86
199.062	26.62
199.281	0
199.5	51.2
199.719	22.53
199.938	88.06
200.157	49.15
200.376	-10.24
200.595	-16.38
200.814	14.34
201.033	55.3
201.252	18.43
201.471	-51.2
201.69	57.34
201.909	-34.82
202.128	81.92
202.347	26.62
202.566	-32.77
202.785	24.58
203.004	-28.67
203.223	114.69
203.442	34.82
203.661	10.24
203.879	12.29
204.098	40.96
204.317	10.24
204.536	59.39
204.755	24.58
204.974	12.29
205.193	-71.68
205.411	34.82
205.63	20.48
205.849	-28.67
206.068	-36.86
206.287	34.82
206.505	38.91
206.724	16.38
206.943	0
207.162	2.05
207.381	-75.77
207.599	-40.96
207.818	18.43
208.037	59.39
208.255	65.54
208.474	139.26
208.693	53.25
208.911	100.35
209.13	-12.29
209.349	65.54
209.567	-38.91
209.786	100.35
210.005	12.29
210.223	22.53
210.442	-16.38
210.661	32.77
210.879	-18.43
211.098	40.96
211.316	-22.53
211.535	2.05
211.753	10.24
211.972	-65.53
212.191	-73.73
212.409	26.62
212.628	2.05
212.846	-38.91
213.065	16.38
213.283	81.92
213.502	-2.05
213.72	-110.59
213.938	-22.53
214.157	30.72
214.375	40.96
214.594	-6.14
214.812	14.34
215.031	0
215.249	-8.19
215.467	-8.19
215.686	-26.62
215.904	69.63
216.122	-8.19
216.341	43.01
216.559	26.62
216.778	0
216.996	83.97
217.214	2.05
217.432	4.1
217.651	6.14
217.869	-10.24
218.087	2.05
218.306	30.72
218.524	28.67
218.742	2.05
218.96	10.24
219.179	30.72
219.397	2.05
219.615	63.49
219.833	26.62
220.051	-22.53
220.27	18.43
220.488	30.72
220.706	-2.05
220.924	10.24
221.142	-47.1
221.36	16.38
221.578	-16.38
221.796	-8.19
222.015	-10.24
222.233	-36.86
222.451	8.19
222.669	10.24
222.887	67.58
223.105	-30.72
223.323	22.53
223.541	24.58
223.759	34.82
223.977	-4.1
224.195	32.77
224.413	36.86
224.631	-34.82
224.849	73.73
225.067	65.54
225.285	-47.1
225.503	22.53
225.721	0
225.939	-30.72
226.157	12.29
226.375	102.4
226.592	-22.53
226.81	8.19
227.028	24.58
227.246	8.19
227.464	43.01
227.682	4.1
227.9	34.82
228.117	24.58
228.335	-18.43
228.553	24.58
228.771	-65.53
228.989	18.43
229.206	43.01
229.424	-6.14
229.642	-24.58
229.86	-43.01
230.077	32.77
230.295	53.25
230.513	49.15
230.731	36.86
230.948	10.24
231.166	86.01
231.384	-36.86
231.601	-4.1
231.819	-28.67
232.037	10.24
232.254	43.01
232.472	10.24
232.689	-30.72
232.907	-2.05
233.125	-69.63
233.342	12.29
233.56	36.86
233.777	-53.25
233.995	75.77
234.213	47.1
234.43	24.58
234.648	-28.67
234.865	45.06
235.083	0
235.3	43.01
235.518	30.72
235.735	79.87
235.953	73.73
236.17	-36.86
236.388	-65.53
236.605	-63.49
236.822	90.11
237.04	59.39
237.257	-28.67
237.475	-30.72
237.692	2.05
237.909	-59.39
238.127	-26.62
238.344	10.24
238.562	30.72
238.779	-45.06
238.996	-14.34
239.214	20.48
239.431	92.16
239.648	16.38
239.865	12.29
240.083	43.01
240.3	-8.19
240.517	34.82
240.735	-16.38
240.952	-10.24
241.169	34.82
241.386	-6.14
241.603	36.86
241.821	-47.1
242.038	16.38
242.255	32.77
242.472	16.38
242.689	43.01
242.907	18.43
243.124	-55.3
243.341	-18.43
243.558	-65.53
243.775	20.48
243.992	-4.1
244.209	102.4
244.426	10.24
244.643	22.53
244.86	55.3
245.078	-28.67
245.295	67.58
245.512	57.34
245.729	43.01
245.946	-40.96
246.163	-6.14
246.38	10.24
246.597	-8.19
246.814	0
247.031	12.29
247.248	-53.25
247.464	-34.82
247.681	-32.77
247.898	2.05
248.115	71.68
248.332	-2.05
248.549	45.06
248.766	88.06
248.983	106.49
249.2	88.06
249.417	98.3
249.633	36.86
249.85	16.38
250.067	65.54
250.284	151.55
250.501	75.77
250.717	2.05
250.934	-30.72
251.151	38.91
251.368	24.58
251.585	30.72
251.801	14.34
252.018	-96.25
252.235	-4.1
252.451	10.24
252.668	-14.34
252.885	88.06
253.102	-43.01
253.318	63.49
253.535	77.82
253.752	14.34
253.968	4.1
254.185	-20.48
254.401	18.43
254.618	18.43
254.835	-43.01
255.051	38.91
255.268	-47.1
255.484	-8.19
255.701	-45.06
255.917	59.39
256.134	4.1
256.351	-38.91
256.567	-16.38
256.784	4.1
257	18.43
257.217	32.77
257.433	10.24
257.65	18.43
257.866	14.34
258.082	-110.59
258.299	14.34
258.515	47.1
258.732	-8.19
258.948	-53.25
259.165	34.82
259.381	18.43
259.597	30.72
259.814	-6.14
260.03	34.82
260.246	-43.01
260.463	10.24
260.679	2.05
260.895	32.77
261.112	12.29
261.328	4.1
261.544	-43.01
261.761	65.54
261.977	24.58
262.193	4.1
262.409	22.53
262.626	18.43
262.842	30.72
263.058	-26.62
263.274	-12.29
263.49	24.58
263.707	-6.14
263.923	18.43
264.139	28.67
264.355	2.05
264.571	67.58
264.787	-6.14
265.004	47.1
265.22	51.2
265.436	-40.96
265.652	-30.72
265.868	-24.58
266.084	28.67
266.3	67.58
266.516	-2.05
266.732	-8.19
266.948	61.44
267.164	40.96
267.38	63.49
267.596	36.86
267.812	-10.24
268.028	0
268.244	-4.1
268.46	51.2
268.676	-24.58
268.892	28.67
269.108	-26.62
269.324	-6.14
269.54	79.87
269.756	12.29
269.972	12.29
270.188	47.1
270.403	16.38
270.619	18.43
270.835	14.34
271.051	16.38
271.267	20.48
271.483	-59.39
271.698	-6.14
271.914	-36.86
272.13	-24.58
272.346	20.48
272.562	32.77
272.777	18.43
272.993	8.19
273.209	8.19
273.425	10.24
273.64	32.77
273.856	14.34
274.072	49.15
274.287	-8.19
274.503	90.11
274.719	10.24
274.934	-10.24
275.15	18.43
275.366	28.67
275.581	34.82
275.797	73.73
276.012	55.3
276.228	32.77
276.444	12.29
276.659	63.49
276.875	-63.49
277.09	63.49
277.306	0
277.521	8.19
277.737	38.91
277.952	10.24
278.168	18.43
278.383	-38.91
278.599	4.1
278.814	53.25
279.03	10.24
279.245	34.82
279.461	2.05
279.676	6.14
279.892	24.58
280.107	53.25
280.322	-22.53
280.538	18.43
280.753	-43.01
280.969	36.86
281.184	-10.24
281.399	8.19
281.615	22.53
281.83	30.72
282.045	38.91
282.26	-36.86
282.476	49.15
282.691	55.3
282.906	-4.1
283.122	38.91
283.337	59.39
283.552	69.63
283.767	-10.24
283.983	30.72
284.198	18.43
284.413	51.2
284.628	26.62
284.843	57.34
285.058	45.06
285.274	0
285.489	-20.48
285.704	63.49
285.919	28.67
286.134	51.2
286.349	67.58
286.564	22.53
286.779	59.39
286.995	47.1
287.21	-53.25
287.425	71.68
287.64	-24.58
287.855	-22.53
288.07	-30.72
288.285	32.77
288.5	26.62
288.715	51.2
288.93	-16.38
289.145	-16.38
289.36	0
289.575	2.05
289.79	32.77
290.004	-6.14
290.219	-20.48
290.434	-40.96
290.649	-38.91
290.864	2.05
291.079	-4.1
291.294	14.34
291.509	51.2
291.724	-36.86
291.938	38.91
292.153	73.73
292.368	-22.53
292.583	90.11
292.798	38.91
293.012	-73.73
293.227	34.82
293.442	38.91
293.657	8.19
293.871	94.21
294.086	92.16
294.301	110.59
294.516	55.3
294.73	28.67
294.945	10.24
295.16	-22.53
295.374	45.06
295.589	18.43
295.804	4.1
296.018	6.14
296.233	77.82
296.447	4.1
296.662	-40.96
296.877	45.06
297.091	79.87
297.306	26.62
297.52	6.14
297.735	32.77
297.949	57.34
298.164	0
298.378	90.11
298.593	-57.34
298.807	8.19
299.022	-8.19
299.236	-18.43
299.451	40.96
299.665	4.1
299.88	24.58
300.094	120.83
300.309	24.58
300.523	51.2
300.737	36.86
300.952	-34.82
301.166	14.34
301.381	30.72
301.595	-2.05
301.809	10.24
302.024	10.24
302.238	38.91
302.452	51.2
302.667	-16.38
302.881	30.72
303.095	73.73
303.309	75.77
303.524	-112.64
303.738	24.58
303.952	-8.19
304.166	139.26
304.381	-2.05
304.595	24.58
304.809	2.05
305.023	98.3
305.237	96.25
305.452	45.06
305.666	20.48
305.88	36.86
306.094	-45.06
306.308	24.58
306.522	96.25
306.736	88.06
306.95	71.68
307.164	45.06
307.379	18.43
307.593	94.21
307.807	94.21
308.021	53.25
308.235	-2.05
308.449	28.67
308.663	63.49
308.877	47.1
309.091	14.34
309.305	114.69
309.519	32.77
309.733	-43.01
309.947	-71.68
310.161	65.54
310.374	-20.48
310.588	30.72
310.802	28.67
311.016	34.82
311.23	6.14
311.444	26.62
311.658	-28.67
311.872	-30.72
312.085	126.97
312.299	38.91
312.513	61.44
312.727	34.82
312.941	43.01
313.154	65.54
313.368	-8.19
313.582	0
313.796	102.4
314.009	-12.29
314.223	100.35
314.437	-8.19
314.651	43.01
314.864	10.24
315.078	104.45
315.292	-75.77
315.505	-32.77
315.719	34.82
315.933	94.21
316.146	36.86
316.36	55.3
316.573	59.39
316.787	51.2
317.001	6.14
317.214	38.91
317.428	81.92
317.641	18.43
317.855	10.24
318.068	18.43
318.282	6.14
318.495	106.49
318.709	20.48
318.922	6.14
319.136	75.77
319.349	40.96
319.563	63.49
319.776	10.24
319.99	-4.1
320.203	61.44
320.417	-8.19
320.63	49.15
320.843	79.87
321.057	10.24
321.27	-10.24
321.483	30.72
321.697	43.01
321.91	53.25
322.124	26.62
322.337	22.53
322.55	40.96
322.763	47.1
322.977	-24.58
323.19	-30.72
323.403	18.43
323.617	43.01
323.83	28.67
324.043	-59.39
324.256	43.01
324.469	-6.14
324.683	49.15
324.896	20.48
325.109	10.24
325.322	-22.53
325.535	0
325.748	26.62
325.962	67.58
326.175	43.01
326.388	45.06
326.601	28.67
326.814	26.62
327.027	26.62
327.24	98.3
327.453	-67.58
327.666	75.77
327.879	43.01
328.092	120.83
328.305	75.77
328.518	47.1
328.731	-32.77
328.944	30.72
329.157	24.58
329.37	6.14
329.583	55.3
329.796	86.01
330.009	4.1
330.222	-38.91
330.435	26.62
330.648	112.64
330.861	22.53
331.073	59.39
331.286	57.34
331.499	10.24
331.712	-26.62
331.925	18.43
332.138	-55.3
332.35	22.53
332.563	-12.29
332.776	63.49
332.989	49.15
333.202	20.48
333.414	34.82
333.627	-12.29
333.84	94.21
334.053	32.77
334.265	24.58
334.478	-12.29
334.691	96.25
334.903	0
335.116	26.62
335.329	-2.05
335.541	57.34
335.754	106.49
335.966	34.82
336.179	47.1
336.392	18.43
336.604	63.49
336.817	16.38
337.029	14.34
337.242	16.38
337.454	67.58
337.667	-22.53
337.88	38.91
338.092	38.91
338.305	110.59
338.517	8.19
338.729	-2.05
338.942	10.24
339.154	36.86
339.367	-12.29
339.579	24.58
339.792	-20.48
340.004	45.06
340.217	24.58
340.429	24.58
340.641	22.53
340.854	-18.43
341.066	-16.38
341.278	63.49
341.491	59.39
341.703	10.24
341.915	43.01
342.128	38.91
342.34	-88.06
342.552	-34.82
342.764	14.34
342.977	26.62
343.189	53.25
343.401	90.11
343.613	-2.05
343.826	51.2
344.038	-45.06
344.25	51.2
344.462	-55.3
344.674	10.24
344.886	18.43
345.099	8.19
345.311	28.67
345.523	-14.34
345.735	-69.63
345.947	30.72
346.159	-8.19
346.371	55.3
346.583	2.05
346.795	100.35
347.007	-4.1
347.219	57.34
347.431	43.01
347.643	65.54
347.855	16.38
348.067	75.77
348.279	67.58
348.491	0
348.703	43.01
348.915	-6.14
349.127	-108.54
349.339	40.96
349.551	47.1
349.763	63.49
349.975	26.62
350.187	30.72
350.399	63.49
350.61	43.01
350.822	47.1
351.034	63.49
351.246	96.25
351.458	69.63
351.669	67.58
351.881	43.01
352.093	-26.62
352.305	120.83
352.517	-2.05
352.728	-26.62
352.94	4.1
353.152	-24.58
353.363	-32.77
353.575	65.54
353.787	4.1
353.999	104.45
354.21	8.19
354.422	53.25
354.633	20.48
354.845	-26.62
355.057	18.43
355.268	49.15
355.48	45.06
355.692	83.97
355.903	-16.38
356.115	22.53
356.326	-53.25
356.538	34.82
356.749	59.39
356.961	124.93
357.172	8.19
357.384	47.1
357.595	100.35
357.807	47.1
358.018	47.1
358.23	77.82
358.441	22.53
358.653	92.16
358.864	63.49
359.075	-8.19
359.287	43.01
359.498	120.83
359.709	55.3
359.921	75.77
360.132	2.05
360.344	-8.19
360.555	18.43
360.766	57.34
360.977	-57.34
361.189	90.11
361.4	22.53
361.611	83.97
361.823	-36.86
362.034	34.82
362.245	10.24
362.456	92.16
362.667	53.25
362.879	28.67
363.09	34.82
363.301	49.15
363.512	59.39
363.723	43.01
363.935	-26.62
364.146	49.15
364.357	26.62
364.568	22.53
364.779	-40.96
364.99	73.73
365.201	-4.1
365.412	47.1
365.623	2.05
365.834	55.3
366.045	51.2
366.256	2.05
366.467	43.01
366.678	51.2
366.889	28.67
367.1	14.34
367.311	49.15
367.522	55.3
367.733	47.1
367.944	49.15
368.155	16.38
368.366	-2.05
368.577	49.15
368.788	67.58
368.999	10.24
369.209	51.2
369.42	75.77
369.631	43.01
369.842	71.68
370.053	32.77
370.264	18.43
370.474	-14.34
370.685	24.58
370.896	-4.1
371.107	65.54
371.317	10.24
371.528	59.39
371.739	49.15
371.95	100.35
372.16	30.72
372.371	-8.19
372.582	26.62
372.792	49.15
373.003	30.72
373.214	71.68
373.424	55.3
373.635	10.24
373.846	75.77
374.056	90.11
374.267	36.86
374.477	61.44
374.688	73.73
374.898	-14.34
375.109	-10.24
375.319	2.05
375.53	71.68
375.74	51.2
375.951	6.14
376.161	94.21
376.372	38.91
376.582	2.05
376.793	26.62
377.003	63.49
377.214	36.86
377.424	124.93
377.635	77.82
377.845	-6.14
378.055	51.2
378.266	26.62
378.476	-6.14
378.686	26.62
378.897	110.59
379.107	57.34
379.317	57.34
379.528	120.83
379.738	69.63
379.948	-47.1
380.158	8.19
380.369	10.24
380.579	77.82
380.789	116.73
380.999	100.35
381.21	38.91
381.42	133.12
381.63	30.72
381.84	-26.62
382.05	-47.1
382.261	45.06
382.471	59.39
382.681	40.96
382.891	67.58
383.101	26.62
383.311	26.62
383.521	0
383.731	-10.24
383.941	94.21
384.151	45.06
384.361	0
384.571	67.58
384.781	65.54
384.991	67.58
385.201	79.87
385.411	94.21
385.621	116.73
385.831	47.1
386.041	-14.34
386.251	71.68
386.461	120.83
386.671	59.39
386.881	81.92
387.091	65.54
387.301	133.12
387.511	26.62
387.72	65.54
387.93	14.34
388.14	34.82
388.35	53.25
388.56	124.93
388.769	65.54
388.979	65.54
389.189	75.77
389.399	59.39
389.609	30.72
389.818	47.1
390.028	26.62
390.238	96.25
390.447	65.54
390.657	108.54
390.867	6.14
391.076	45.06
391.286	-14.34
391.496	18.43
391.705	0
391.915	63.49
392.125	43.01
392.334	34.82
392.544	57.34
392.753	24.58
392.963	90.11
393.172	47.1
393.382	-47.1
393.591	110.59
393.801	98.3
394.01	133.12
394.22	122.88
394.429	161.79
394.639	110.59
394.848	45.06
395.058	126.97
395.267	83.97
395.477	184.32
395.686	126.97
395.895	124.93
396.105	36.86
396.314	38.91
396.524	65.54
396.733	51.2
396.942	81.92
397.152	106.49
397.361	106.49
397.57	159.74
397.78	49.15
397.989	83.97
398.198	159.74
398.407	65.54
398.617	118.78
398.826	43.01
399.035	81.92
399.244	202.75
399.453	114.69
399.663	83.97
399.872	126.97
400.081	90.11
400.29	112.64
400.499	102.4
400.708	104.45
400.917	141.31
401.127	165.89
401.336	65.54
401.545	169.98
401.754	67.58
401.963	163.84
402.172	79.87
402.381	143.36
402.59	92.16
402.799	104.45
403.008	110.59
403.217	108.54
403.426	145.41
403.635	83.97
403.844	194.56
404.053	104.45
404.262	153.6
404.471	145.41
404.68	149.5
404.888	133.12
405.097	180.22
405.306	116.73
405.515	235.52
405.724	235.52
405.933	163.84
406.142	100.35
406.35	165.89
406.559	145.41
406.768	165.89
406.977	237.56
407.185	180.22
407.394	217.08
407.603	223.23
407.812	229.37
408.02	344.06
408.229	225.28
408.438	178.17
408.646	221.18
408.855	296.96
409.064	241.66
409.272	268.28
409.481	399.35
409.69	321.53
409.898	270.33
410.107	305.15
410.315	331.77
410.524	335.87
410.733	360.44
410.941	378.87
411.15	450.55
411.358	395.26
411.567	442.36
411.775	419.83
411.984	432.12
412.192	524.28
412.401	479.22
412.609	538.62
412.818	618.49
413.026	557.05
413.234	528.38
413.443	567.29
413.651	614.39
413.86	638.97
414.068	700.41
414.276	690.17
414.485	638.97
414.693	747.51
414.901	784.37
415.11	745.46
415.318	729.08
415.526	870.39
415.734	788.47
415.943	919.54
416.151	935.92
416.359	956.4
416.567	907.25
416.776	980.98
416.984	1046.51
417.192	1134.57
417.4	1144.81
417.608	1077.23
417.817	1245.16
418.025	1331.18
418.233	1353.71
418.441	1222.64
418.649	1345.52
418.857	1466.35
419.065	1439.72
419.273	1499.11
419.481	1578.98
419.689	1738.73
419.897	1628.14
420.105	1859.56
420.313	1904.61
420.521	1941.47
420.729	1902.56
420.937	1955.81
421.145	2093.02
421.353	2193.37
421.561	2281.44
421.769	2234.33
421.977	2414.56
422.185	2342.88
422.393	2506.71
422.601	2785.24
422.809	2770.9
423.017	2652.12
423.224	2854.87
423.432	3008.47
423.64	2887.64
423.848	3102.67
424.056	3094.48
424.263	3313.61
424.471	3407.82
424.679	3436.49
424.887	3622.86
425.094	3700.68
425.302	3669.96
425.51	3932.1
425.718	4018.11
425.925	3991.49
426.133	4177.86
426.341	4315.07
426.548	4679.61
426.756	4528.06
426.964	4644.79
427.171	5117.87
427.379	5101.49
427.586	5203.89
427.794	5169.07
428.001	5595.05
428.209	5789.61
428.417	5748.65
428.624	6231.97
428.832	6070.18
429.039	6127.52
429.247	6150.05
429.454	6776.73
429.662	7120.79
429.869	6756.25
430.076	7225.23
430.284	6928.28
430.491	7255.95
430.699	7716.75
430.906	7569.29
431.114	7690.12
431.321	8050.57
431.528	8198.02
431.736	8978.29
431.943	9047.93
432.15	8931.19
432.358	8953.72
432.565	9504.62
432.772	9318.26
432.979	9914.22
433.187	10057.57
433.394	10209.12
433.601	10948.44
433.808	10927.96
434.016	10796.89
434.223	11214.68
434.43	11970.38
434.637	11749.2
434.844	12576.58
435.052	12650.3
435.259	12560.19
435.466	12703.55
435.673	12736.32
435.88	13387.57
436.087	14358.31
436.294	14198.57
436.501	13881.13
436.708	14313.25
436.915	14620.45
437.122	15273.75
437.329	15214.36
437.537	15771.41
437.743	16123.66
437.95	16070.41
438.157	16836.35
438.364	17407.73
438.571	17479.41
438.778	17317.62
438.985	18642.66
439.192	18083.56
439.399	18734.82
439.606	18398.95
439.813	19369.69
440.02	20831.94
440.227	20172.49
440.433	19986.13
440.64	20827.84
440.847	20598.47
441.054	21116.61
441.261	22462.12
441.467	22228.65
441.674	22421.16
441.881	23512.73
442.088	23420.57
442.294	23045.79
442.501	24120.98
442.708	24446.6
442.914	25239.17
443.121	26373.74
443.328	25697.91
443.534	27471.45
443.741	26750.57
443.948	26312.3
444.154	28378.7
444.361	27803.22
444.568	28292.69
444.774	28186.19
444.981	28708.43
445.187	29285.95
445.394	30567.98
445.6	30205.49
445.807	33185.29
446.013	31870.49
446.22	32157.21
446.426	33263.11
446.633	33803.77
446.839	35124.71
447.046	33566.21
447.252	35294.69
447.459	35278.31
447.665	34991.59
447.871	36791.76
448.078	37830.08
448.284	36515.28
448.491	37350.85
448.697	38768.05
448.903	39347.62
449.11	39081.39
449.316	38837.68
449.522	39603.62
449.728	40146.33
449.935	40668.56
450.141	41213.32
450.347	41186.7
450.553	39853.47
450.76	40725.91
450.966	41776.51
451.172	41508.23
451.378	42511.74
451.584	41590.15
451.791	42429.82
451.997	42495.35
452.203	43187.56
452.409	43257.2
452.615	42626.42
452.821	41131.4
453.027	40836.5
453.233	42814.83
453.44	40961.42
453.646	41377.16
453.852	41438.6
454.058	42085.76
454.264	40394.14
454.47	41409.93
454.676	40668.56
454.882	41536.9
455.088	37821.89
455.294	38446.52
455.5	38944.17
455.705	39185.83
455.911	38018.49
456.117	36951.5
456.323	36681.17
456.529	34778.61
456.735	36154.84
456.941	35122.66
457.147	34700.78
457.352	33218.05
457.558	33267.2
457.764	33218.05
457.97	32318.99
458.176	31481.38
458.381	31802.91
458.587	30299.7
458.793	30029.37
458.999	28223.06
459.204	30527.02
459.41	29771.32
459.616	27854.42
459.821	27760.22
460.027	27584.09
460.233	27041.38
460.438	25646.71
460.644	25874.04
460.85	25065.09
461.055	24252.05
461.261	24245.9
461.466	22439.59
461.672	21792.44
461.878	23496.35
462.083	21870.26
462.289	21612.21
462.494	21415.61
462.7	20321.99
462.905	19918.54
463.111	20573.89
463.316	20549.32
463.522	20436.68
463.727	20229.84
463.932	20276.94
464.138	20156.11
464.343	20233.93
464.549	19521.24
464.754	20201.16
464.959	20266.7
465.165	20025.04
465.37	18931.42
465.575	18603.75
465.781	19287.77
465.986	19543.77
466.191	18835.17
466.397	18460.39
466.602	17534.71
466.807	18370.28
467.012	18353.9
467.218	18136.81
