Data from USB4F104151__223__10-30-12-871.txt Node

Date: Wed Mar 12 10:30:12 EDT 2025
User: louis
Spectrometer: USB4F10415
Trigger mode: 4
Integration Time (sec): 3.000000E-2
Scans to average: 1
Electric dark correction enabled: true
Nonlinearity correction enabled: false
Boxcar width: 0
XAxis mode: Wavelengths
Number of Pixels in Spectrum: 3648
>>>>>Begin Spectral Data<<<<<
178.204	-127.49
178.424	-127.49
178.644	-127.49
178.864	-109.05
179.084	-178.69
179.304	-6.66
179.524	-8.7
179.744	-31.23
179.964	28.16
180.184	52.74
180.404	-12.8
180.624	9.73
180.844	-37.38
181.064	15.87
181.283	9.73
181.503	-45.57
181.723	26.11
181.943	-39.42
182.163	26.11
182.383	11.78
182.602	3.58
182.822	81.41
183.042	-8.7
183.262	22.02
183.482	-37.38
183.701	-45.57
183.921	5.63
184.141	56.83
184.361	38.4
184.58	1.54
184.8	13.82
185.02	-45.57
185.239	52.74
185.459	-0.51
185.679	38.4
185.898	-55.81
186.118	1.54
186.338	-25.09
186.557	7.68
186.777	-6.66
186.997	-14.85
187.216	-14.85
187.436	24.06
187.655	26.11
187.875	60.93
188.095	-86.53
188.314	11.78
188.534	56.83
188.753	-6.66
188.973	56.83
189.192	-51.71
189.412	44.54
189.631	3.58
189.851	11.78
190.07	48.64
190.29	-12.8
190.509	36.35
190.729	3.58
190.948	36.35
191.168	73.21
191.387	69.12
191.607	58.88
191.826	-6.66
192.045	15.87
192.265	-2.56
192.484	56.83
192.704	32.26
192.923	-12.8
193.142	85.5
193.362	69.12
193.581	93.69
193.8	11.78
194.02	81.41
194.239	52.74
194.458	9.73
194.678	-37.38
194.897	-35.33
195.116	-4.61
195.335	24.06
195.555	15.87
195.774	36.35
195.993	69.12
196.212	34.3
196.432	-8.7
196.651	19.97
196.87	1.54
197.089	103.93
197.308	13.82
197.528	28.16
197.747	-76.29
197.966	-29.18
198.185	36.35
198.404	-20.99
198.623	9.73
198.842	28.16
199.062	62.98
199.281	-8.7
199.5	7.68
199.719	-8.7
199.938	-10.75
200.157	40.45
200.376	38.4
200.595	40.45
200.814	-2.56
201.033	-16.9
201.252	50.69
201.471	-20.99
201.69	75.26
201.909	36.35
202.128	5.63
202.347	-16.9
202.566	32.26
202.785	-23.04
203.004	5.63
203.223	73.21
203.442	-0.51
203.661	36.35
203.879	54.78
204.098	85.5
204.317	-33.28
204.536	69.12
204.755	24.06
204.974	44.54
205.193	-4.61
205.411	79.36
205.63	56.83
205.849	40.45
206.068	9.73
206.287	1.54
206.505	9.73
206.724	-18.94
206.943	-0.51
207.162	-4.61
207.381	-59.9
207.599	17.92
207.818	-23.04
208.037	28.16
208.255	42.5
208.474	52.74
208.693	19.97
208.911	-8.7
209.13	5.63
209.349	65.02
209.567	-0.51
209.786	65.02
210.005	-31.23
210.223	-27.14
210.442	28.16
210.661	60.93
210.879	17.92
211.098	-25.09
211.316	-0.51
211.535	22.02
211.753	-20.99
211.972	28.16
212.191	-45.57
212.409	44.54
212.628	-61.95
212.846	-92.67
213.065	36.35
213.283	40.45
213.502	-64
213.72	48.64
213.938	15.87
214.157	7.68
214.375	-20.99
214.594	-18.94
214.812	-27.14
215.031	-10.75
215.249	-74.24
215.467	62.98
215.686	-0.51
215.904	28.16
216.122	89.6
216.341	28.16
216.559	5.63
216.778	17.92
216.996	32.26
217.214	-0.51
217.432	50.69
217.651	65.02
217.869	-12.8
218.087	-4.61
218.306	-14.85
218.524	54.78
218.742	-10.75
218.96	-4.61
219.179	9.73
219.397	17.92
219.615	62.98
219.833	36.35
220.051	-18.94
220.27	101.89
220.488	-0.51
220.706	26.11
220.924	5.63
221.142	-0.51
221.36	44.54
221.578	28.16
221.796	52.74
222.015	7.68
222.233	17.92
222.451	24.06
222.669	-74.24
222.887	52.74
223.105	1.54
223.323	52.74
223.541	13.82
223.759	54.78
223.977	-33.28
224.195	44.54
224.413	-20.99
224.631	5.63
224.849	-18.94
225.067	5.63
225.285	-8.7
225.503	-86.53
225.721	-64
225.939	36.35
226.157	-35.33
226.375	62.98
226.592	7.68
226.81	-16.9
227.028	85.5
227.246	60.93
227.464	-4.61
227.682	-10.75
227.9	-16.9
228.117	9.73
228.335	17.92
228.553	-29.18
228.771	-27.14
228.989	-37.38
229.206	54.78
229.424	32.26
229.642	-20.99
229.86	-14.85
230.077	67.07
230.295	-4.61
230.513	52.74
230.731	19.97
230.948	24.06
231.166	1.54
231.384	-0.51
231.601	-16.9
231.819	67.07
232.037	-12.8
232.254	32.26
232.472	-25.09
232.689	1.54
232.907	48.64
233.125	9.73
233.342	-20.99
233.56	-25.09
233.777	38.4
233.995	32.26
234.213	-4.61
234.43	9.73
234.648	38.4
234.865	-31.23
235.083	-4.61
235.3	7.68
235.518	65.02
235.735	30.21
235.953	81.41
236.17	11.78
236.388	71.17
236.605	-8.7
236.822	46.59
237.04	54.78
237.257	32.26
237.475	19.97
237.692	26.11
237.909	-16.9
238.127	-70.14
238.344	7.68
238.562	52.74
238.779	-98.81
238.996	-59.9
239.214	-20.99
239.431	-37.38
239.648	-29.18
239.865	36.35
240.083	-33.28
240.3	1.54
240.517	-29.18
240.735	54.78
240.952	15.87
241.169	89.6
241.386	1.54
241.603	52.74
241.821	-16.9
242.038	11.78
242.255	-4.61
242.472	-33.28
242.689	38.4
242.907	-37.38
243.124	28.16
243.341	9.73
243.558	1.54
243.775	9.73
243.992	-61.95
244.209	17.92
244.426	126.46
244.643	79.36
244.86	1.54
245.078	32.26
245.295	-0.51
245.512	11.78
245.729	-20.99
245.946	-25.09
246.163	-6.66
246.38	-4.61
246.597	-27.14
246.814	-29.18
247.031	-16.9
247.248	32.26
247.464	22.02
247.681	24.06
247.898	15.87
248.115	52.74
248.332	-12.8
248.549	71.17
248.766	46.59
248.983	11.78
249.2	-29.18
249.417	44.54
249.633	-31.23
249.85	19.97
250.067	36.35
250.284	17.92
250.501	-2.56
250.717	46.59
250.934	62.98
251.151	-6.66
251.368	28.16
251.585	15.87
251.801	-10.75
252.018	40.45
252.235	52.74
252.451	-25.09
252.668	99.84
252.885	62.98
253.102	48.64
253.318	9.73
253.535	-6.66
253.752	30.21
253.968	-53.76
254.185	-27.14
254.401	9.73
254.618	32.26
254.835	9.73
255.051	38.4
255.268	15.87
255.484	-20.99
255.701	22.02
255.917	-14.85
256.134	-68.09
256.351	85.5
256.567	-0.51
256.784	44.54
257	-29.18
257.217	30.21
257.433	11.78
257.65	26.11
257.866	-0.51
258.082	-12.8
258.299	26.11
258.515	11.78
258.732	44.54
258.948	-4.61
259.165	-31.23
259.381	24.06
259.597	32.26
259.814	28.16
260.03	17.92
260.246	71.17
260.463	19.97
260.679	-8.7
260.895	-4.61
261.112	65.02
261.328	7.68
261.544	-70.14
261.761	77.31
261.977	-76.29
262.193	-39.42
262.409	26.11
262.626	-12.8
262.842	-27.14
263.058	65.02
263.274	60.93
263.49	3.58
263.707	3.58
263.923	-23.04
264.139	-8.7
264.355	28.16
264.571	34.3
264.787	81.41
265.004	32.26
265.22	-23.04
265.436	62.98
265.652	-64
265.868	5.63
266.084	-25.09
266.3	-37.38
266.516	-61.95
266.732	9.73
266.948	-86.53
267.164	-6.66
267.38	24.06
267.596	32.26
267.812	26.11
268.028	52.74
268.244	-4.61
268.46	28.16
268.676	-4.61
268.892	19.97
269.108	-39.42
269.324	7.68
269.54	1.54
269.756	-57.86
269.972	-18.94
270.188	-68.09
270.403	-35.33
270.619	32.26
270.835	-41.47
271.051	32.26
271.267	-4.61
271.483	-45.57
271.698	-29.18
271.914	65.02
272.13	26.11
272.346	-72.19
272.562	54.78
272.777	-18.94
272.993	58.88
273.209	-6.66
273.425	54.78
273.64	-8.7
273.856	19.97
274.072	50.69
274.287	11.78
274.503	56.83
274.719	81.41
274.934	-82.43
275.15	-37.38
275.366	-57.86
275.581	3.58
275.797	-0.51
276.012	24.06
276.228	32.26
276.444	-18.94
276.659	5.63
276.875	-16.9
277.09	-33.28
277.306	5.63
277.521	40.45
277.737	9.73
277.952	19.97
278.168	-0.51
278.383	30.21
278.599	13.82
278.814	48.64
279.03	-6.66
279.245	75.26
279.461	-27.14
279.676	85.5
279.892	-41.47
280.107	40.45
280.322	-31.23
280.538	-6.66
280.753	-66.05
280.969	28.16
281.184	-6.66
281.399	50.69
281.615	9.73
281.83	11.78
282.045	50.69
282.26	28.16
282.476	3.58
282.691	91.65
282.906	52.74
283.122	38.4
283.337	24.06
283.552	15.87
283.767	-53.76
283.983	60.93
284.198	-4.61
284.413	24.06
284.628	-49.66
284.843	-29.18
285.058	32.26
285.274	19.97
285.489	-20.99
285.704	-10.75
285.919	60.93
286.134	-6.66
286.349	-8.7
286.564	69.12
286.779	95.74
286.995	87.55
287.21	-29.18
287.425	-8.7
287.64	65.02
287.855	-35.33
288.07	-57.86
288.285	73.21
288.5	34.3
288.715	26.11
288.93	-16.9
289.145	9.73
289.36	24.06
289.575	7.68
289.79	-16.9
290.004	-27.14
290.219	85.5
290.434	34.3
290.649	71.17
290.864	-20.99
291.079	60.93
291.294	-2.56
291.509	-23.04
291.724	-39.42
291.938	44.54
292.153	44.54
292.368	65.02
292.583	52.74
292.798	3.58
293.012	46.59
293.227	85.5
293.442	-0.51
293.657	-49.66
293.871	-29.18
294.086	58.88
294.301	112.13
294.516	3.58
294.73	-0.51
294.945	-53.76
295.16	65.02
295.374	73.21
295.589	73.21
295.804	-49.66
296.018	52.74
296.233	15.87
296.447	24.06
296.662	-55.81
296.877	-14.85
297.091	22.02
297.306	-6.66
297.52	52.74
297.735	65.02
297.949	38.4
298.164	97.79
298.378	-59.9
298.593	73.21
298.807	-59.9
299.022	-6.66
299.236	32.26
299.451	-47.62
299.665	17.92
299.88	-23.04
300.094	-0.51
300.309	-37.38
300.523	62.98
300.737	1.54
300.952	28.16
301.166	7.68
301.381	-41.47
301.595	-10.75
301.809	52.74
302.024	34.3
302.238	-16.9
302.452	69.12
302.667	-12.8
302.881	22.02
303.095	42.5
303.309	9.73
303.524	7.68
303.738	9.73
303.952	1.54
304.166	65.02
304.381	-31.23
304.595	26.11
304.809	58.88
305.023	56.83
305.237	36.35
305.452	34.3
305.666	85.5
305.88	-39.42
306.094	32.26
306.308	32.26
306.522	9.73
306.736	40.45
306.95	44.54
307.164	-39.42
307.379	-55.81
307.593	112.13
307.807	15.87
308.021	-0.51
308.235	38.4
308.449	-8.7
308.663	42.5
308.877	91.65
309.091	26.11
309.305	69.12
309.519	-27.14
309.733	58.88
309.947	-4.61
310.161	-6.66
310.374	34.3
310.588	50.69
310.802	7.68
311.016	48.64
311.23	17.92
311.444	-4.61
311.658	-20.99
311.872	87.55
312.085	52.74
312.299	13.82
312.513	5.63
312.727	7.68
312.941	-45.57
313.154	13.82
313.368	44.54
313.582	5.63
313.796	-31.23
314.009	22.02
314.223	-2.56
314.437	77.31
314.651	5.63
314.864	52.74
315.078	24.06
315.292	-18.94
315.505	60.93
315.719	19.97
315.933	17.92
316.146	26.11
316.36	-23.04
316.573	15.87
316.787	67.07
317.001	26.11
317.214	52.74
317.428	-72.19
317.641	15.87
317.855	101.89
318.068	1.54
318.282	3.58
318.495	44.54
318.709	126.46
318.922	-33.28
319.136	114.17
319.349	-2.56
319.563	24.06
319.776	48.64
319.99	52.74
320.203	85.5
320.417	32.26
320.63	5.63
320.843	97.79
321.057	3.58
321.27	-45.57
321.483	52.74
321.697	83.45
321.91	-25.09
322.124	24.06
322.337	17.92
322.55	73.21
322.763	-37.38
322.977	5.63
323.19	44.54
323.403	-23.04
323.617	-4.61
323.83	56.83
324.043	-23.04
324.256	54.78
324.469	-51.71
324.683	79.36
324.896	-29.18
325.109	13.82
325.322	3.58
325.535	9.73
325.748	-16.9
325.962	40.45
326.175	81.41
326.388	24.06
326.601	17.92
326.814	24.06
327.027	-14.85
327.24	5.63
327.453	-45.57
327.666	50.69
327.879	81.41
328.092	15.87
328.305	28.16
328.518	5.63
328.731	-29.18
328.944	-86.53
329.157	15.87
329.37	60.93
329.583	93.69
329.796	36.35
330.009	-29.18
330.222	1.54
330.435	77.31
330.648	13.82
330.861	36.35
331.073	-31.23
331.286	71.17
331.499	-33.28
331.712	-47.62
331.925	40.45
332.138	-4.61
332.35	19.97
332.563	-53.76
332.776	-4.61
332.989	-78.33
333.202	7.68
333.414	93.69
333.627	52.74
333.84	-47.62
334.053	44.54
334.265	-27.14
334.478	-18.94
334.691	24.06
334.903	3.58
335.116	-29.18
335.329	-29.18
335.541	-2.56
335.754	85.5
335.966	1.54
336.179	-4.61
336.392	69.12
336.604	-23.04
336.817	77.31
337.029	67.07
337.242	5.63
337.454	-14.85
337.667	7.68
337.88	79.36
338.092	1.54
338.305	56.83
338.517	-4.61
338.729	5.63
338.942	79.36
339.154	3.58
339.367	9.73
339.579	11.78
339.792	89.6
340.004	71.17
340.217	-41.47
340.429	7.68
340.641	26.11
340.854	22.02
341.066	50.69
341.278	69.12
341.491	62.98
341.703	124.41
341.915	44.54
342.128	-16.9
342.34	9.73
342.552	26.11
342.764	-23.04
342.977	34.3
343.189	36.35
343.401	-18.94
343.613	-23.04
343.826	30.21
344.038	-12.8
344.25	36.35
344.462	-0.51
344.674	60.93
344.886	-37.38
345.099	-4.61
345.311	19.97
345.523	44.54
345.735	-55.81
345.947	56.83
346.159	32.26
346.371	65.02
346.583	19.97
346.795	17.92
347.007	19.97
347.219	44.54
347.431	40.45
347.643	58.88
347.855	60.93
348.067	75.26
348.279	11.78
348.491	42.5
348.703	19.97
348.915	48.64
349.127	-49.66
349.339	-4.61
349.551	3.58
349.763	-41.47
349.975	-0.51
350.187	65.02
350.399	19.97
350.61	17.92
350.822	11.78
351.034	54.78
351.246	60.93
351.458	-8.7
351.669	50.69
351.881	83.45
352.093	32.26
352.305	42.5
352.517	48.64
352.728	36.35
352.94	9.73
353.152	44.54
353.363	-27.14
353.575	-10.75
353.787	67.07
353.999	48.64
354.21	54.78
354.422	26.11
354.633	11.78
354.845	5.63
355.057	-12.8
355.268	-20.99
355.48	28.16
355.692	-8.7
355.903	-16.9
356.115	-29.18
356.326	11.78
356.538	-23.04
356.749	77.31
356.961	28.16
357.172	46.59
357.384	40.45
357.595	38.4
357.807	-4.61
358.018	7.68
358.23	34.3
358.441	60.93
358.653	108.03
358.864	7.68
359.075	-27.14
359.287	81.41
359.498	69.12
359.709	60.93
359.921	-10.75
360.132	-16.9
360.344	73.21
360.555	62.98
360.766	71.17
360.977	17.92
361.189	81.41
361.4	-53.76
361.611	-6.66
361.823	44.54
362.034	-12.8
362.245	97.79
362.456	34.3
362.667	36.35
362.879	-10.75
363.09	19.97
363.301	22.02
363.512	67.07
363.723	40.45
363.935	-4.61
364.146	83.45
364.357	97.79
364.568	38.4
364.779	3.58
364.99	130.56
365.201	-16.9
365.412	69.12
365.623	13.82
365.834	19.97
366.045	62.98
366.256	103.93
366.467	-23.04
366.678	15.87
366.889	56.83
367.1	42.5
367.311	79.36
367.522	9.73
367.733	36.35
367.944	105.98
368.155	-47.62
368.366	97.79
368.577	54.78
368.788	24.06
368.999	7.68
369.209	44.54
369.42	67.07
369.631	91.65
369.842	24.06
370.053	26.11
370.264	-4.61
370.474	3.58
370.685	85.5
370.896	24.06
371.107	-12.8
371.317	-20.99
371.528	-31.23
371.739	67.07
371.95	19.97
372.16	103.93
372.371	114.17
372.582	-12.8
372.792	97.79
373.003	38.4
373.214	62.98
373.424	5.63
373.635	9.73
373.846	62.98
374.056	17.92
374.267	26.11
374.477	44.54
374.688	-0.51
374.898	-8.7
375.109	93.69
375.319	36.35
375.53	108.03
375.74	77.31
375.951	15.87
376.161	17.92
376.372	105.98
376.582	5.63
376.793	38.4
377.003	-18.94
377.214	26.11
377.424	60.93
377.635	7.68
377.845	42.5
378.055	11.78
378.266	-39.42
378.476	83.45
378.686	-8.7
378.897	73.21
379.107	34.3
379.317	50.69
379.528	-23.04
379.738	91.65
379.948	13.82
380.158	69.12
380.369	67.07
380.579	151.04
380.789	19.97
380.999	153.09
381.21	17.92
381.42	97.79
381.63	11.78
381.84	50.69
382.05	-25.09
382.261	65.02
382.471	73.21
382.681	-23.04
382.891	69.12
383.101	118.27
383.311	108.03
383.521	40.45
383.731	77.31
383.941	122.37
384.151	26.11
384.361	-20.99
384.571	60.93
384.781	22.02
384.991	67.07
385.201	122.37
385.411	38.4
385.621	48.64
385.831	69.12
386.041	54.78
386.251	-14.85
386.461	79.36
386.671	79.36
386.881	44.54
387.091	79.36
387.301	97.79
387.511	77.31
387.72	34.3
387.93	136.7
388.14	71.17
388.35	52.74
388.56	110.08
388.769	-0.51
388.979	50.69
389.189	65.02
389.399	36.35
389.609	-0.51
389.818	32.26
390.028	13.82
390.238	77.31
390.447	24.06
390.657	54.78
390.867	11.78
391.076	9.73
391.286	40.45
391.496	28.16
391.705	60.93
391.915	62.98
392.125	91.65
392.334	77.31
392.544	-2.56
392.753	101.89
392.963	85.5
393.172	65.02
393.382	17.92
393.591	34.3
393.801	-29.18
394.01	69.12
394.22	30.21
394.429	26.11
394.639	77.31
394.848	114.17
395.058	56.83
395.267	81.41
395.477	32.26
395.686	89.6
395.895	151.04
396.105	128.51
396.314	95.74
396.524	81.41
396.733	126.46
396.942	69.12
397.152	134.65
397.361	120.32
397.57	110.08
397.78	83.45
397.989	105.98
398.198	89.6
398.407	99.84
398.617	65.02
398.826	48.64
399.035	67.07
399.244	77.31
399.453	85.5
399.663	52.74
399.872	89.6
400.081	28.16
400.29	181.76
400.499	185.85
400.708	85.5
400.917	126.46
401.127	101.89
401.336	132.61
401.545	183.81
401.754	142.85
401.963	175.61
402.172	128.51
402.381	75.26
402.59	136.7
402.799	110.08
403.008	142.85
403.217	122.37
403.426	118.27
403.635	11.78
403.844	93.69
404.053	212.48
404.262	120.32
404.471	200.19
404.68	171.52
404.888	124.41
405.097	108.03
405.306	138.75
405.515	105.98
405.724	93.69
405.933	126.46
406.142	208.38
406.35	97.79
406.559	105.98
406.768	140.8
406.977	189.95
407.185	212.48
407.394	222.72
407.603	210.43
407.812	206.33
408.02	136.7
408.229	280.06
408.438	241.15
408.646	192
408.855	257.53
409.064	265.72
409.272	204.28
409.481	247.29
409.69	321.02
409.898	331.26
410.107	230.91
410.315	341.5
410.524	298.49
410.733	349.69
410.941	306.68
411.15	357.88
411.358	388.6
411.567	370.17
411.775	445.95
411.984	398.84
412.192	458.23
412.401	464.38
412.609	474.62
412.818	509.43
413.026	523.77
413.234	679.41
413.443	595.45
413.651	603.64
413.86	622.07
414.068	658.93
414.276	660.98
414.485	712.18
414.693	726.52
414.901	775.67
415.11	824.82
415.318	736.76
415.526	835.06
415.734	902.64
415.943	902.64
416.151	941.55
416.359	980.47
416.567	992.75
416.776	998.9
416.984	1117.68
417.192	1074.67
417.4	1068.53
417.608	1113.58
417.817	1146.35
418.025	1304.04
418.233	1326.57
418.441	1347.05
418.649	1338.86
418.857	1451.5
419.065	1424.87
419.273	1451.5
419.481	1510.89
419.689	1525.22
419.897	1715.69
420.105	1650.15
420.313	1691.11
420.521	1787.36
420.729	1846.76
420.937	1848.8
421.145	1924.58
421.353	2098.66
421.561	2127.33
421.769	2186.72
421.977	2285.02
422.185	2186.72
422.393	2534.87
422.601	2627.03
422.809	2440.67
423.017	2657.75
423.224	2717.14
423.432	2715.09
423.64	2846.16
423.848	3063.25
424.056	3040.72
424.263	3255.76
424.471	3210.7
424.679	3298.77
424.887	3538.38
425.094	3589.58
425.302	3653.06
425.51	3755.46
425.718	3765.7
425.925	3933.64
426.133	4015.55
426.341	4287.93
426.548	4337.09
426.756	4476.35
426.964	4541.88
427.171	4859.32
427.379	4748.73
427.586	4986.29
427.794	5137.84
428.001	5313.97
428.209	5578.15
428.417	5520.81
428.624	5868.97
428.832	5856.68
429.039	5977.51
429.247	5799.34
429.454	6393.25
429.662	6755.74
429.869	6426.01
430.076	6817.18
430.284	6591.9
430.491	6983.06
430.699	7275.92
430.906	7302.54
431.114	7435.66
431.321	7705.99
431.528	7732.62
431.736	8340.86
431.943	8729.98
432.15	8412.54
432.358	8719.74
432.565	9024.89
432.772	9008.5
432.979	9493.87
433.187	9856.36
433.394	9833.83
433.601	10241.38
433.808	10429.79
434.016	10425.7
434.223	10796.38
434.43	11386.19
434.637	10964.31
434.844	11957.58
435.052	12033.35
435.259	12045.64
435.466	12158.28
435.673	12133.7
435.88	12897.6
436.087	13444.4
436.294	13489.46
436.501	13075.77
436.708	13434.16
436.915	14089.51
437.122	14214.44
437.329	14378.28
437.537	14877.98
437.743	15144.22
437.95	15265.05
438.157	15772.94
438.364	16114.95
438.571	16452.87
438.778	16432.39
438.985	17732.85
439.192	17188.09
439.399	17687.79
439.606	17196.28
439.813	18509.03
440.02	19651.8
440.227	19180.76
440.433	18844.9
440.64	19524.82
440.847	19064.03
441.054	20147.4
441.261	21124.29
441.467	20614.34
441.674	21105.85
441.881	22160.56
442.088	21879.99
442.294	21802.16
442.501	22310.06
442.708	22817.96
442.914	23434.39
443.121	24644.74
443.328	23878.8
443.534	25662.58
443.741	25169.02
443.948	24482.95
444.154	26315.89
444.361	26279.02
444.568	26549.35
444.774	26301.55
444.981	26528.88
445.187	27227.23
445.394	28755.02
445.6	28318.8
445.807	30835.75
446.013	29443.13
446.22	30096.44
446.426	31159.33
446.633	31538.21
446.839	32705.55
447.046	31335.46
447.252	32853
447.459	32998.41
447.665	32998.41
447.871	34374.64
448.078	35410.92
448.284	33577.98
448.491	34851.82
448.697	35929.05
448.903	36791.25
449.11	36922.32
449.316	36217.82
449.522	36867.02
449.728	37723.07
449.935	38235.06
450.141	38052.8
450.347	38937.52
450.553	37368.77
450.76	38108.09
450.966	39234.47
451.172	38740.91
451.378	39736.23
451.584	39009.2
451.791	40047.52
451.997	39728.03
452.203	40244.12
452.409	40049.56
452.615	39617.44
452.821	38624.18
453.027	38331.32
453.233	39984.03
453.44	38192.06
453.646	38796.21
453.852	39302.06
454.058	39824.29
454.264	37821.37
454.47	38964.14
454.676	37999.55
454.882	39623.59
455.088	36025.31
455.294	36346.84
455.5	36776.91
455.705	37663.68
455.911	36187.1
456.117	35261.41
456.323	34937.83
456.529	32879.63
456.735	34368.5
456.941	33375.23
457.147	32482.32
457.352	32046.1
457.558	31341.6
457.764	31372.32
457.97	30923.82
458.176	30207.03
458.381	30354.48
458.587	28724.3
458.793	28777.54
458.999	27327.58
459.204	29512.77
459.41	28740.68
459.616	26532.97
459.821	26522.73
460.027	26741.86
460.233	26033.27
460.438	24708.23
460.644	25076.87
460.85	23483.55
461.055	23483.55
461.261	23436.44
461.466	21755.06
461.672	20911.3
461.878	22760.61
462.083	21048.51
462.289	20774.08
462.494	20409.54
462.7	19619.03
462.905	19021.02
463.111	19711.19
463.316	19709.14
463.522	19498.2
463.727	19342.55
463.932	19211.48
464.138	19035.36
464.343	19303.64
464.549	18715.87
464.754	19483.86
464.959	19086.56
465.165	18828.51
465.37	17923.31
465.575	17693.94
465.781	18611.43
465.986	18453.73
466.191	17925.36
466.397	17294.58
466.602	16463.11
466.807	17495.29
467.012	17206.52
467.218	17280.25
467.423	17116.41
