Data from USB4F104151__121__10-25-14-944.txt Node

Date: Wed Mar 12 10:25:14 EDT 2025
User: louis
Spectrometer: USB4F10415
Trigger mode: 4
Integration Time (sec): 3.000000E-2
Scans to average: 1
Electric dark correction enabled: true
Nonlinearity correction enabled: false
Boxcar width: 0
XAxis mode: Wavelengths
Number of Pixels in Spectrum: 3648
>>>>>Begin Spectral Data<<<<<
178.204	-67.41
178.424	-67.41
178.644	-67.41
178.864	-139.09
179.084	-141.14
179.304	-5.97
179.524	10.41
179.744	-3.93
179.964	-3.93
180.184	12.46
180.404	30.89
180.624	16.55
180.844	-32.6
181.064	-57.17
181.283	-8.02
181.503	-30.55
181.723	71.85
181.943	-87.89
182.163	-30.55
182.383	30.89
182.602	94.38
182.822	18.6
183.042	100.52
183.262	-26.45
183.482	-14.17
183.701	39.08
183.921	69.8
184.141	6.31
184.361	39.08
184.58	63.66
184.8	41.13
185.02	39.08
185.239	24.75
185.459	-53.08
185.679	8.36
185.898	-22.36
186.118	98.47
186.338	14.51
186.557	-8.02
186.777	14.51
186.997	8.36
187.216	-1.88
187.436	43.18
187.655	26.79
187.875	49.32
188.095	-42.84
188.314	-22.36
188.534	49.32
188.753	6.31
188.973	55.47
189.192	24.75
189.412	-30.55
189.631	43.18
189.851	10.41
190.07	43.18
190.29	-30.55
190.509	43.18
190.729	73.9
190.948	41.13
191.168	116.9
191.387	-42.84
191.607	-5.97
191.826	24.75
192.045	30.89
192.265	2.22
192.484	92.33
192.704	26.79
192.923	84.14
193.142	39.08
193.362	-24.4
193.581	20.65
193.8	71.85
194.02	53.42
194.239	-32.6
194.458	22.7
194.678	8.36
194.897	22.7
195.116	14.51
195.335	-28.5
195.555	94.38
195.774	32.94
195.993	51.37
196.212	-5.97
196.432	39.08
196.651	20.65
196.87	-18.26
197.089	131.24
197.308	43.18
197.528	2.22
197.747	-16.21
197.966	47.27
198.185	37.03
198.404	2.22
198.623	57.51
198.842	20.65
199.062	-5.97
199.281	-1.88
199.5	2.22
199.719	53.42
199.938	6.31
200.157	55.47
200.376	28.84
200.595	-18.26
200.814	80.04
201.033	-8.02
201.252	82.09
201.471	45.23
201.69	55.47
201.909	28.84
202.128	34.99
202.347	37.03
202.566	18.6
202.785	51.37
203.004	-20.31
203.223	16.55
203.442	90.28
203.661	28.84
203.879	-51.03
204.098	116.9
204.317	2.22
204.536	26.79
204.755	24.75
204.974	-3.93
205.193	45.23
205.411	129.19
205.63	12.46
205.849	51.37
206.068	2.22
206.287	-8.02
206.505	55.47
206.724	-57.17
206.943	51.37
207.162	69.8
207.381	0.17
207.599	86.19
207.818	55.47
208.037	51.37
208.255	24.75
208.474	59.56
208.693	26.79
208.911	28.84
209.13	61.61
209.349	59.56
209.567	63.66
209.786	108.71
210.005	71.85
210.223	6.31
210.442	-40.79
210.661	12.46
210.879	-20.31
211.098	-12.12
211.316	2.22
211.535	49.32
211.753	80.04
211.972	84.14
212.191	-42.84
212.409	118.95
212.628	10.41
212.846	32.94
213.065	16.55
213.283	73.9
213.502	-10.07
213.72	-28.5
213.938	104.62
214.157	49.32
214.375	16.55
214.594	24.75
214.812	37.03
215.031	18.6
215.249	0.17
215.467	-20.31
215.686	14.51
215.904	34.99
216.122	-53.08
216.341	43.18
216.559	-38.74
216.778	2.22
216.996	-75.6
217.214	-1.88
217.432	30.89
217.651	-42.84
217.869	4.27
218.087	104.62
218.306	10.41
218.524	55.47
218.742	20.65
218.96	67.75
219.179	6.31
219.397	20.65
219.615	110.76
219.833	73.9
220.051	-22.36
220.27	-20.31
220.488	-3.93
220.706	-12.12
220.924	92.33
221.142	39.08
221.36	-18.26
221.578	39.08
221.796	84.14
222.015	41.13
222.233	-34.64
222.451	53.42
222.669	59.56
222.887	16.55
223.105	96.43
223.323	67.75
223.541	39.08
223.759	92.33
223.977	61.61
224.195	39.08
224.413	43.18
224.631	-3.93
224.849	8.36
225.067	145.58
225.285	14.51
225.503	-1.88
225.721	32.94
225.939	47.27
226.157	-12.12
226.375	63.66
226.592	8.36
226.81	49.32
227.028	34.99
227.246	39.08
227.464	24.75
227.682	10.41
227.9	-8.02
228.117	34.99
228.335	49.32
228.553	28.84
228.771	-57.17
228.989	61.61
229.206	0.17
229.424	-5.97
229.642	-1.88
229.86	-53.08
230.077	51.37
230.295	20.65
230.513	84.14
230.731	2.22
230.948	10.41
231.166	71.85
231.384	-46.93
231.601	4.27
231.819	34.99
232.037	37.03
232.254	4.27
232.472	51.37
232.689	12.46
232.907	30.89
233.125	34.99
233.342	16.55
233.56	4.27
233.777	30.89
233.995	116.9
234.213	41.13
234.43	-5.97
234.648	53.42
234.865	24.75
235.083	24.75
235.3	0.17
235.518	82.09
235.735	59.56
235.953	0.17
236.17	-22.36
236.388	10.41
236.605	37.03
236.822	121
237.04	55.47
237.257	24.75
237.475	-30.55
237.692	67.75
237.909	37.03
238.127	4.27
238.344	75.95
238.562	47.27
238.779	-14.17
238.996	43.18
239.214	26.79
239.431	65.71
239.648	71.85
239.865	59.56
240.083	49.32
240.3	8.36
240.517	-24.4
240.735	69.8
240.952	80.04
241.169	34.99
241.386	47.27
241.603	61.61
241.821	-8.02
242.038	53.42
242.255	39.08
242.472	-5.97
242.689	26.79
242.907	24.75
243.124	47.27
243.341	-18.26
243.558	41.13
243.775	-57.17
243.992	-30.55
244.209	139.43
244.426	80.04
244.643	14.51
244.86	16.55
245.078	34.99
245.295	18.6
245.512	0.17
245.729	57.51
245.946	69.8
246.163	77.99
246.38	65.71
246.597	22.7
246.814	2.22
247.031	18.6
247.248	51.37
247.464	18.6
247.681	61.61
247.898	49.32
248.115	18.6
248.332	4.27
248.549	71.85
248.766	39.08
248.983	84.14
249.2	-26.45
249.417	-38.74
249.633	77.99
249.85	-18.26
250.067	28.84
250.284	37.03
250.501	61.61
250.717	-5.97
250.934	-20.31
251.151	47.27
251.368	16.55
251.585	-3.93
251.801	30.89
252.018	12.46
252.235	-5.97
252.451	-12.12
252.668	-8.02
252.885	67.75
253.102	94.38
253.318	16.55
253.535	8.36
253.752	-28.5
253.968	28.84
254.185	71.85
254.401	75.95
254.618	59.56
254.835	75.95
255.051	14.51
255.268	102.57
255.484	49.32
255.701	-30.55
255.917	-1.88
256.134	26.79
256.351	-48.98
256.567	6.31
256.784	34.99
257	-38.74
257.217	2.22
257.433	43.18
257.65	51.37
257.866	108.71
258.082	-14.17
258.299	73.9
258.515	47.27
258.732	32.94
258.948	22.7
259.165	32.94
259.381	-8.02
259.597	100.52
259.814	73.9
260.03	63.66
260.246	-8.02
260.463	55.47
260.679	90.28
260.895	41.13
261.112	37.03
261.328	57.51
261.544	-28.5
261.761	22.7
261.977	16.55
262.193	57.51
262.409	-18.26
262.626	10.41
262.842	59.56
263.058	34.99
263.274	34.99
263.49	6.31
263.707	-16.21
263.923	14.51
264.139	12.46
264.355	57.51
264.571	2.22
264.787	0.17
265.004	45.23
265.22	51.37
265.436	24.75
265.652	26.79
265.868	114.86
266.084	18.6
266.3	14.51
266.516	2.22
266.732	18.6
266.948	112.81
267.164	61.61
267.38	24.75
267.596	94.38
267.812	59.56
268.028	18.6
268.244	-5.97
268.46	22.7
268.676	-14.17
268.892	55.47
269.108	67.75
269.324	-8.02
269.54	-22.36
269.756	39.08
269.972	-61.27
270.188	32.94
270.403	-30.55
270.619	63.66
270.835	22.7
271.051	-89.94
271.267	16.55
271.483	24.75
271.698	30.89
271.914	92.33
272.13	-16.21
272.346	57.51
272.562	69.8
272.777	71.85
272.993	55.47
273.209	-34.64
273.425	4.27
273.64	-34.64
273.856	65.71
274.072	24.75
274.287	-30.55
274.503	-1.88
274.719	34.99
274.934	39.08
275.15	20.65
275.366	24.75
275.581	2.22
275.797	6.31
276.012	4.27
276.228	57.51
276.444	34.99
276.659	14.51
276.875	28.84
277.09	22.7
277.306	24.75
277.521	43.18
277.737	73.9
277.952	34.99
278.168	34.99
278.383	55.47
278.599	10.41
278.814	2.22
279.03	32.94
279.245	8.36
279.461	69.8
279.676	26.79
279.892	39.08
280.107	18.6
280.322	26.79
280.538	8.36
280.753	8.36
280.969	75.95
281.184	20.65
281.399	102.57
281.615	80.04
281.83	49.32
282.045	43.18
282.26	53.42
282.476	18.6
282.691	82.09
282.906	-42.84
283.122	2.22
283.337	92.33
283.552	82.09
283.767	26.79
283.983	41.13
284.198	-24.4
284.413	63.66
284.628	67.75
284.843	30.89
285.058	71.85
285.274	14.51
285.489	32.94
285.704	28.84
285.919	6.31
286.134	-51.03
286.349	49.32
286.564	86.19
286.779	8.36
286.995	-42.84
287.21	18.6
287.425	14.51
287.64	22.7
287.855	26.79
288.07	8.36
288.285	59.56
288.5	-5.97
288.715	51.37
288.93	106.67
289.145	47.27
289.36	51.37
289.575	55.47
289.79	96.43
290.004	86.19
290.219	123.05
290.434	47.27
290.649	45.23
290.864	-10.07
291.079	8.36
291.294	43.18
291.509	34.99
291.724	16.55
291.938	8.36
292.153	49.32
292.368	26.79
292.583	12.46
292.798	71.85
293.012	67.75
293.227	45.23
293.442	20.65
293.657	26.79
293.871	47.27
294.086	6.31
294.301	80.04
294.516	37.03
294.73	2.22
294.945	18.6
295.16	-1.88
295.374	84.14
295.589	75.95
295.804	28.84
296.018	53.42
296.233	26.79
296.447	92.33
296.662	37.03
296.877	14.51
297.091	-18.26
297.306	39.08
297.52	53.42
297.735	118.95
297.949	86.19
298.164	-14.17
298.378	125.1
298.593	71.85
298.807	16.55
299.022	10.41
299.236	30.89
299.451	-5.97
299.665	69.8
299.88	28.84
300.094	30.89
300.309	30.89
300.523	24.75
300.737	4.27
300.952	63.66
301.166	71.85
301.381	-1.88
301.595	71.85
301.809	53.42
302.024	57.51
302.238	37.03
302.452	106.67
302.667	14.51
302.881	55.47
303.095	24.75
303.309	121
303.524	-16.21
303.738	10.41
303.952	-22.36
304.166	-1.88
304.381	-16.21
304.595	0.17
304.809	-40.79
305.023	65.71
305.237	57.51
305.452	34.99
305.666	135.34
305.88	-42.84
306.094	104.62
306.308	47.27
306.522	41.13
306.736	2.22
306.95	96.43
307.164	22.7
307.379	61.61
307.593	102.57
307.807	-12.12
308.021	34.99
308.235	80.04
308.449	43.18
308.663	-16.21
308.877	170.15
309.091	10.41
309.305	55.47
309.519	-10.07
309.733	45.23
309.947	20.65
310.161	49.32
310.374	6.31
310.588	-1.88
310.802	34.99
311.016	-8.02
311.23	63.66
311.444	10.41
311.658	65.71
311.872	55.47
312.085	14.51
312.299	88.23
312.513	63.66
312.727	8.36
312.941	65.71
313.154	22.7
313.368	133.29
313.582	123.05
313.796	4.27
314.009	30.89
314.223	77.99
314.437	45.23
314.651	41.13
314.864	24.75
315.078	32.94
315.292	59.56
315.505	55.47
315.719	57.51
315.933	14.51
316.146	34.99
316.36	14.51
316.573	127.14
316.787	98.47
317.001	-1.88
317.214	-5.97
317.428	28.84
317.641	-26.45
317.855	-36.69
318.068	26.79
318.282	77.99
318.495	92.33
318.709	129.19
318.922	34.99
319.136	47.27
319.349	20.65
319.563	53.42
319.776	106.67
319.99	59.56
320.203	51.37
320.417	6.31
320.63	26.79
320.843	84.14
321.057	39.08
321.27	2.22
321.483	55.47
321.697	73.9
321.91	53.42
322.124	24.75
322.337	49.32
322.55	-3.93
322.763	26.79
322.977	32.94
323.19	51.37
323.403	-20.31
323.617	-14.17
323.83	59.56
324.043	16.55
324.256	94.38
324.469	30.89
324.683	86.19
324.896	61.61
325.109	30.89
325.322	-22.36
325.535	2.22
325.748	34.99
325.962	26.79
326.175	39.08
326.388	63.66
326.601	147.62
326.814	-24.4
327.027	-38.74
327.24	32.94
327.453	-46.93
327.666	22.7
327.879	22.7
328.092	6.31
328.305	71.85
328.518	22.7
328.731	-5.97
328.944	92.33
329.157	-10.07
329.37	39.08
329.583	-51.03
329.796	133.29
330.009	61.61
330.222	39.08
330.435	20.65
330.648	10.41
330.861	6.31
331.073	45.23
331.286	65.71
331.499	47.27
331.712	43.18
331.925	6.31
332.138	-1.88
332.35	51.37
332.563	4.27
332.776	90.28
332.989	4.27
333.202	80.04
333.414	100.52
333.627	26.79
333.84	8.36
334.053	106.67
334.265	6.31
334.478	20.65
334.691	49.32
334.903	-10.07
335.116	57.51
335.329	22.7
335.541	-34.64
335.754	67.75
335.966	84.14
336.179	-5.97
336.392	12.46
336.604	-14.17
336.817	75.95
337.029	69.8
337.242	20.65
337.454	2.22
337.667	-1.88
337.88	69.8
338.092	73.9
338.305	53.42
338.517	-51.03
338.729	45.23
338.942	32.94
339.154	37.03
339.367	96.43
339.579	133.29
339.792	20.65
340.004	55.47
340.217	55.47
340.429	80.04
340.641	30.89
340.854	6.31
341.066	-28.5
341.278	53.42
341.491	149.67
341.703	71.85
341.915	-1.88
342.128	39.08
342.34	112.81
342.552	-55.12
342.764	59.56
342.977	34.99
343.189	16.55
343.401	100.52
343.613	28.84
343.826	43.18
344.038	65.71
344.25	-10.07
344.462	41.13
344.674	12.46
344.886	47.27
345.099	96.43
345.311	22.7
345.523	63.66
345.735	-36.69
345.947	47.27
346.159	41.13
346.371	-28.5
346.583	-1.88
346.795	114.86
347.007	86.19
347.219	16.55
347.431	-14.17
347.643	39.08
347.855	0.17
348.067	34.99
348.279	75.95
348.491	139.43
348.703	-20.31
348.915	28.84
349.127	69.8
349.339	-8.02
349.551	-3.93
349.763	-3.93
349.975	59.56
350.187	47.27
350.399	30.89
350.61	96.43
350.822	6.31
351.034	26.79
351.246	-34.64
351.458	92.33
351.669	-18.26
351.881	55.47
352.093	51.37
352.305	84.14
352.517	90.28
352.728	84.14
352.94	16.55
353.152	47.27
353.363	0.17
353.575	8.36
353.787	112.81
353.999	32.94
354.21	94.38
354.422	49.32
354.633	63.66
354.845	45.23
355.057	22.7
355.268	88.23
355.48	14.51
355.692	8.36
355.903	90.28
356.115	-8.02
356.326	32.94
356.538	26.79
356.749	55.47
356.961	67.75
357.172	22.7
357.384	22.7
357.595	53.42
357.807	22.7
358.018	-10.07
358.23	69.8
358.441	106.67
358.653	67.75
358.864	80.04
359.075	-12.12
359.287	67.75
359.498	92.33
359.709	30.89
359.921	-1.88
360.132	94.38
360.344	47.27
360.555	39.08
360.766	65.71
360.977	20.65
361.189	14.51
361.4	34.99
361.611	24.75
361.823	96.43
362.034	30.89
362.245	47.27
362.456	22.7
362.667	43.18
362.879	-10.07
363.09	32.94
363.301	94.38
363.512	75.95
363.723	22.7
363.935	65.71
364.146	0.17
364.357	43.18
364.568	6.31
364.779	-14.17
364.99	49.32
365.201	24.75
365.412	67.75
365.623	2.22
365.834	34.99
366.045	34.99
366.256	49.32
366.467	73.9
366.678	67.75
366.889	57.51
367.1	8.36
367.311	63.66
367.522	43.18
367.733	41.13
367.944	123.05
368.155	69.8
368.366	26.79
368.577	49.32
368.788	2.22
368.999	-14.17
369.209	8.36
369.42	108.71
369.631	51.37
369.842	114.86
370.053	18.6
370.264	71.85
370.474	8.36
370.685	90.28
370.896	6.31
371.107	59.56
371.317	55.47
371.528	-5.97
371.739	90.28
371.95	55.47
372.16	88.23
372.371	108.71
372.582	32.94
372.792	-14.17
373.003	34.99
373.214	10.41
373.424	92.33
373.635	10.41
373.846	110.76
374.056	24.75
374.267	28.84
374.477	-75.6
374.688	39.08
374.898	96.43
375.109	10.41
375.319	71.85
375.53	45.23
375.74	77.99
375.951	8.36
376.161	-26.45
376.372	53.42
376.582	63.66
376.793	67.75
377.003	26.79
377.214	82.09
377.424	73.9
377.635	-36.69
377.845	41.13
378.055	112.81
378.266	24.75
378.476	84.14
378.686	-8.02
378.897	-18.26
379.107	59.56
379.317	37.03
379.528	-10.07
379.738	55.47
379.948	98.47
380.158	16.55
380.369	112.81
380.579	18.6
380.789	12.46
380.999	49.32
381.21	45.23
381.42	98.47
381.63	61.61
381.84	51.37
382.05	16.55
382.261	84.14
382.471	16.55
382.681	86.19
382.891	77.99
383.101	75.95
383.311	59.56
383.521	67.75
383.731	51.37
383.941	112.81
384.151	102.57
384.361	55.47
384.571	6.31
384.781	92.33
384.991	90.28
385.201	96.43
385.411	98.47
385.621	51.37
385.831	34.99
386.041	88.23
386.251	112.81
386.461	84.14
386.671	57.51
386.881	37.03
387.091	24.75
387.301	34.99
387.511	34.99
387.72	80.04
387.93	51.37
388.14	61.61
388.35	16.55
388.56	84.14
388.769	114.86
388.979	26.79
389.189	45.23
389.399	73.9
389.609	96.43
389.818	102.57
390.028	14.51
390.238	53.42
390.447	65.71
390.657	61.61
390.867	-12.12
391.076	6.31
391.286	92.33
391.496	49.32
391.705	100.52
391.915	2.22
392.125	92.33
392.334	47.27
392.544	18.6
392.753	51.37
392.963	63.66
393.172	67.75
393.382	41.13
393.591	129.19
393.801	20.65
394.01	59.56
394.22	-26.45
394.429	55.47
394.639	34.99
394.848	63.66
395.058	80.04
395.267	24.75
395.477	141.48
395.686	98.47
395.895	145.58
396.105	84.14
396.314	108.71
396.524	49.32
396.733	90.28
396.942	53.42
397.152	55.47
397.361	59.56
397.57	75.95
397.78	86.19
397.989	110.76
398.198	164.01
398.407	0.17
398.617	100.52
398.826	114.86
399.035	69.8
399.244	161.96
399.453	106.67
399.663	108.71
399.872	94.38
400.081	145.58
400.29	112.81
400.499	69.8
400.708	118.95
400.917	88.23
401.127	135.34
401.336	34.99
401.545	176.3
401.754	196.78
401.963	135.34
402.172	182.44
402.381	143.53
402.59	102.57
402.799	43.18
403.008	112.81
403.217	137.38
403.426	149.67
403.635	49.32
403.844	190.63
404.053	147.62
404.262	151.72
404.471	254.12
404.68	157.86
404.888	98.47
405.097	71.85
405.306	196.78
405.515	182.44
405.724	188.58
405.933	174.25
406.142	176.3
406.35	137.38
406.559	186.54
406.768	145.58
406.977	207.02
407.185	186.54
407.394	209.06
407.603	204.97
407.812	161.96
408.02	217.26
408.229	284.84
408.438	264.36
408.646	258.21
408.855	262.31
409.064	313.51
409.272	229.54
409.481	290.98
409.69	297.13
409.898	274.6
410.107	342.18
410.315	354.47
410.524	276.65
410.733	350.37
410.941	297.13
411.15	354.47
411.358	362.66
411.567	528.55
411.775	397.48
411.984	409.76
412.192	422.05
412.401	405.67
412.609	518.31
412.818	573.6
413.026	508.07
413.234	540.83
413.443	551.07
413.651	575.65
413.86	563.36
414.068	688.29
414.276	708.77
414.485	647.33
414.693	639.14
414.901	770.21
415.11	737.44
415.318	669.86
415.526	764.06
415.734	792.73
415.943	770.21
416.151	932
416.359	856.22
416.567	929.95
416.776	975
416.984	1038.49
417.192	1108.12
417.4	1040.54
417.608	936.09
417.817	1118.36
418.025	1224.86
418.233	1271.96
418.441	1097.88
418.649	1149.08
418.857	1368.21
419.065	1351.83
419.273	1388.69
419.481	1454.23
419.689	1493.14
419.897	1661.07
420.105	1626.26
420.313	1616.02
420.521	1802.38
420.729	1630.35
420.937	1767.57
421.145	1824.91
421.353	1935.5
421.561	1933.45
421.769	2015.37
421.977	2138.25
422.185	2111.63
422.393	2195.59
422.601	2531.46
422.809	2429.06
423.017	2422.92
423.224	2574.47
423.432	2723.97
423.64	2537.6
423.848	2898.05
424.056	2832.51
424.263	2949.25
424.471	2883.71
424.679	3129.47
424.887	3192.95
425.094	3362.94
425.302	3389.56
425.51	3471.48
425.718	3604.6
425.925	3672.18
426.133	3790.96
426.341	3827.82
426.548	4089.96
426.756	4122.73
426.964	4235.37
427.171	4487.27
427.379	4491.37
427.586	4601.96
427.794	4679.78
428.001	5144.67
428.209	5085.28
428.417	5038.17
428.624	5531.73
428.832	5449.82
429.039	5322.84
429.247	5474.39
429.454	5998.67
429.662	6355.02
429.869	5957.71
430.076	6178.89
430.284	6211.66
430.491	6463.56
430.699	6711.36
430.906	6723.65
431.114	6981.7
431.321	7084.09
431.528	7299.13
431.736	7729.2
431.943	7960.63
432.15	7725.11
432.358	7888.95
432.565	8296.49
432.772	8298.54
432.979	8808.48
433.187	8871.97
433.394	8972.32
433.601	9478.17
433.808	9490.46
434.016	9504.79
434.223	9938.96
434.43	10446.86
434.637	10393.61
434.844	11048.96
435.052	11081.73
435.259	11046.91
435.466	11292.67
435.673	10913.8
435.88	12163.06
436.087	12296.18
436.294	12572.65
436.501	12185.58
436.708	12511.21
436.915	12779.5
437.122	13418.46
437.329	13195.23
437.537	13842.39
437.743	13973.46
437.95	14012.37
438.157	14473.17
438.364	15177.67
438.571	14964.68
438.778	15167.43
438.985	16514.99
439.192	15972.28
439.399	16228.28
439.606	15974.33
439.813	16869.29
440.02	17868.7
440.227	17555.36
440.433	17465.25
440.64	18061.21
440.847	17948.57
441.054	18278.29
441.261	19382.15
441.467	19371.91
441.674	19754.88
441.881	20420.47
442.088	20432.75
442.294	20068.22
442.501	20752.24
442.708	21153.64
442.914	21880.67
443.121	22816.59
443.328	22243.16
443.534	23893.82
443.741	23088.97
443.948	22726.48
444.154	24622.9
444.361	24110.91
444.568	24518.45
444.774	24575.8
444.981	24850.22
445.187	25513.77
445.394	26578.71
445.6	26328.86
445.807	28837.62
446.013	27266.83
446.22	27817.73
446.426	28704.5
446.633	29058.8
446.839	30346.97
447.046	29021.94
447.252	30506.71
447.459	30418.65
447.665	30285.53
447.871	31610.57
448.078	33054.39
448.284	31403.72
448.491	32456.38
448.697	33537.71
448.903	34186.91
449.11	34315.94
449.316	33480.36
449.522	34027.17
449.728	35329.68
449.935	35178.13
450.141	35163.79
450.347	35942.02
450.553	35014.29
450.76	35489.42
450.966	36241.03
451.172	35790.47
451.378	37058.17
451.584	36081.28
451.791	36806.27
451.997	36871.8
452.203	37557.87
452.409	37617.26
452.615	37572.21
452.821	35825.29
453.027	35182.23
453.233	37336.69
453.44	35624.59
453.646	36271.75
453.852	36427.39
454.058	36316.8
454.264	35784.33
454.47	36542.08
454.676	35391.12
454.882	36421.25
455.088	33580.71
455.294	34100.9
455.5	34107.04
455.705	34662.04
455.911	33418.92
456.117	32341.69
456.323	32177.86
456.529	30330.59
456.735	31729.35
456.941	30969.55
457.147	30539.48
457.352	29779.68
457.558	28911.35
457.764	28905.2
457.97	28817.14
458.176	28118.78
458.381	27967.23
458.587	26625.81
458.793	26849.04
458.999	25257.77
459.204	27203.34
459.41	26058.53
459.616	24446.77
459.821	24436.53
460.027	24291.13
460.233	24076.09
460.438	22587.22
460.644	23312.2
460.85	21774.17
461.055	21755.74
461.261	21663.58
461.466	19793.79
461.672	19283.84
461.878	20608.88
462.083	19388.29
462.289	19216.26
462.494	18907.02
462.7	18255.76
462.905	17641.37
463.111	18315.16
463.316	18608.01
463.522	17829.79
463.727	17915.8
463.932	17954.71
464.138	17772.44
464.343	17848.22
464.549	17309.6
464.754	17784.73
464.959	17737.63
465.165	17561.5
465.37	16762.79
465.575	16469.94
465.781	17104.81
465.986	17414.05
466.191	16500.65
466.397	16156.6
466.602	15224.77
466.807	16031.67
467.012	15931.32
467.218	15787.96
467.423	15622.08
467.628	15943.61
