Data from USB4F104151__267__10-40-38-993.txt Node

Date: Wed Mar 12 10:40:38 EDT 2025
User: louis
Spectrometer: USB4F10415
Trigger mode: 4
Integration Time (sec): 3.000000E-2
Scans to average: 1
Electric dark correction enabled: true
Nonlinearity correction enabled: false
Boxcar width: 0
XAxis mode: Wavelengths
Number of Pixels in Spectrum: 3648
>>>>>Begin Spectral Data<<<<<
178.204	-57.68
178.424	-57.68
178.644	-57.68
178.864	-125.27
179.084	-100.69
179.304	-49.49
179.524	36.52
179.744	-24.92
179.964	50.86
180.184	40.62
180.404	18.09
180.624	30.38
180.844	-41.3
181.064	36.52
181.283	-43.35
181.503	-49.49
181.723	-4.44
181.943	16.04
182.163	69.29
182.383	54.95
182.602	20.14
182.822	59.05
183.042	114.34
183.262	38.57
183.482	11.95
183.701	13.99
183.921	44.71
184.141	28.33
184.361	16.04
184.58	16.04
184.8	50.86
185.02	38.57
185.239	20.14
185.459	3.75
185.679	-47.44
185.898	9.9
186.118	71.34
186.338	57
186.557	48.81
186.777	-6.49
186.997	24.23
187.216	-41.3
187.436	61.1
187.655	46.76
187.875	28.33
188.095	44.71
188.314	46.76
188.534	124.58
188.753	97.96
188.973	-33.11
189.192	87.72
189.412	-0.34
189.631	69.29
189.851	5.8
190.07	61.1
190.29	57
190.509	-45.4
190.729	30.38
190.948	110.25
191.168	155.3
191.387	61.1
191.607	34.47
191.826	54.95
192.045	26.28
192.265	-33.11
192.484	54.95
192.704	28.33
192.923	-22.87
193.142	114.34
193.362	83.63
193.581	71.34
193.8	97.96
194.02	112.3
194.239	42.67
194.458	20.14
194.678	40.62
194.897	9.9
195.116	54.95
195.335	13.99
195.555	95.91
195.774	42.67
195.993	63.15
196.212	34.47
196.432	-43.35
196.651	112.3
196.87	83.63
197.089	42.67
197.308	-20.82
197.528	97.96
197.747	-24.92
197.966	16.04
198.185	102.06
198.404	18.09
198.623	5.8
198.842	65.19
199.062	85.67
199.281	40.62
199.5	22.19
199.719	48.81
199.938	7.85
200.157	79.53
200.376	95.91
200.595	116.39
200.814	42.67
201.033	-0.34
201.252	87.72
201.471	1.71
201.69	97.96
201.909	-26.96
202.128	91.82
202.347	85.67
202.566	50.86
202.785	89.77
203.004	-18.77
203.223	52.91
203.442	5.8
203.661	44.71
203.879	73.39
204.098	63.15
204.317	50.86
204.536	77.48
204.755	48.81
204.974	136.87
205.193	54.95
205.411	89.77
205.63	-18.77
205.849	28.33
206.068	65.19
206.287	30.38
206.505	42.67
206.724	54.95
206.943	36.52
207.162	81.58
207.381	20.14
207.599	59.05
207.818	65.19
208.037	24.23
208.255	52.91
208.474	81.58
208.693	30.38
208.911	9.9
209.13	79.53
209.349	28.33
209.567	-10.58
209.786	73.39
210.005	77.48
210.223	52.91
210.442	48.81
210.661	24.23
210.879	81.58
211.098	26.28
211.316	97.96
211.535	26.28
211.753	52.91
211.972	110.25
212.191	-6.49
212.409	50.86
212.628	63.15
212.846	16.04
213.065	83.63
213.283	40.62
213.502	65.19
213.72	114.34
213.938	24.23
214.157	7.85
214.375	106.15
214.594	48.81
214.812	34.47
215.031	59.05
215.249	1.71
215.467	75.43
215.686	24.23
215.904	83.63
216.122	13.99
216.341	89.77
216.559	20.14
216.778	34.47
216.996	42.67
217.214	42.67
217.432	30.38
217.651	5.8
217.869	69.29
218.087	77.48
218.306	-65.88
218.524	73.39
218.742	30.38
218.96	7.85
219.179	24.23
219.397	48.81
219.615	52.91
219.833	97.96
220.051	102.06
220.27	77.48
220.488	44.71
220.706	36.52
220.924	-33.11
221.142	83.63
221.36	50.86
221.578	83.63
221.796	7.85
222.015	30.38
222.233	40.62
222.451	52.91
222.669	-24.92
222.887	38.57
223.105	102.06
223.323	20.14
223.541	57
223.759	65.19
223.977	57
224.195	118.44
224.413	50.86
224.631	50.86
224.849	28.33
225.067	87.72
225.285	11.95
225.503	34.47
225.721	-4.44
225.939	28.33
226.157	-4.44
226.375	198.31
226.592	30.38
226.81	3.75
227.028	71.34
227.246	93.87
227.464	-10.58
227.682	48.81
227.9	71.34
228.117	102.06
228.335	38.57
228.553	87.72
228.771	5.8
228.989	65.19
229.206	32.43
229.424	42.67
229.642	61.1
229.86	97.96
230.077	81.58
230.295	32.43
230.513	134.82
230.731	54.95
230.948	28.33
231.166	161.45
231.384	42.67
231.601	42.67
231.819	79.53
232.037	-12.63
232.254	11.95
232.472	93.87
232.689	61.1
232.907	69.29
233.125	63.15
233.342	20.14
233.56	9.9
233.777	26.28
233.995	75.43
234.213	110.25
234.43	59.05
234.648	79.53
234.865	-20.82
235.083	87.72
235.3	3.75
235.518	-4.44
235.735	79.53
235.953	122.54
236.17	59.05
236.388	143.02
236.605	73.39
236.822	93.87
237.04	91.82
237.257	50.86
237.475	-26.96
237.692	46.76
237.909	30.38
238.127	32.43
238.344	110.25
238.562	59.05
238.779	-6.49
238.996	36.52
239.214	42.67
239.431	16.04
239.648	13.99
239.865	83.63
240.083	48.81
240.3	44.71
240.517	-4.44
240.735	83.63
240.952	63.15
241.169	24.23
241.386	36.52
241.603	28.33
241.821	-18.77
242.038	30.38
242.255	106.15
242.472	9.9
242.689	52.91
242.907	116.39
243.124	50.86
243.341	16.04
243.558	18.09
243.775	65.19
243.992	34.47
244.209	81.58
244.426	89.77
244.643	36.52
244.86	54.95
245.078	124.58
245.295	85.67
245.512	54.95
245.729	11.95
245.946	22.19
246.163	38.57
246.38	5.8
246.597	3.75
246.814	46.76
247.031	3.75
247.248	54.95
247.464	73.39
247.681	89.77
247.898	13.99
248.115	91.82
248.332	57
248.549	97.96
248.766	102.06
248.983	112.3
249.2	32.43
249.417	54.95
249.633	71.34
249.85	3.75
250.067	5.8
250.284	20.14
250.501	75.43
250.717	13.99
250.934	-26.96
251.151	-0.34
251.368	73.39
251.585	65.19
251.801	42.67
252.018	1.71
252.235	22.19
252.451	57
252.668	36.52
252.885	63.15
253.102	81.58
253.318	1.71
253.535	75.43
253.752	18.09
253.968	112.3
254.185	40.62
254.401	11.95
254.618	36.52
254.835	46.76
255.051	24.23
255.268	91.82
255.484	79.53
255.701	54.95
255.917	79.53
256.134	46.76
256.351	20.14
256.567	-0.34
256.784	13.99
257	-12.63
257.217	65.19
257.433	48.81
257.65	79.53
257.866	63.15
258.082	1.71
258.299	52.91
258.515	11.95
258.732	57
258.948	122.54
259.165	7.85
259.381	-2.39
259.597	-2.39
259.814	134.82
260.03	-12.63
260.246	-57.68
260.463	-8.53
260.679	85.67
260.895	13.99
261.112	69.29
261.328	18.09
261.544	48.81
261.761	110.25
261.977	20.14
262.193	-12.63
262.409	46.76
262.626	32.43
262.842	67.24
263.058	-2.39
263.274	54.95
263.49	40.62
263.707	20.14
263.923	48.81
264.139	95.91
264.355	32.43
264.571	81.58
264.787	-0.34
265.004	114.34
265.22	20.14
265.436	36.52
265.652	83.63
265.868	52.91
266.084	20.14
266.3	16.04
266.516	-0.34
266.732	-0.34
266.948	71.34
267.164	128.68
267.38	79.53
267.596	44.71
267.812	108.2
268.028	26.28
268.244	71.34
268.46	11.95
268.676	13.99
268.892	118.44
269.108	54.95
269.324	20.14
269.54	20.14
269.756	-31.06
269.972	-12.63
270.188	61.1
270.403	-29.01
270.619	36.52
270.835	65.19
271.051	40.62
271.267	54.95
271.483	67.24
271.698	73.39
271.914	16.04
272.13	124.58
272.346	116.39
272.562	46.76
272.777	81.58
272.993	20.14
273.209	75.43
273.425	81.58
273.64	16.04
273.856	91.82
274.072	-4.44
274.287	65.19
274.503	79.53
274.719	-0.34
274.934	36.52
275.15	20.14
275.366	34.47
275.581	50.86
275.797	32.43
276.012	-10.58
276.228	67.24
276.444	85.67
276.659	73.39
276.875	-6.49
277.09	5.8
277.306	71.34
277.521	26.28
277.737	16.04
277.952	79.53
278.168	26.28
278.383	93.87
278.599	52.91
278.814	126.63
279.03	61.1
279.245	116.39
279.461	95.91
279.676	52.91
279.892	-12.63
280.107	46.76
280.322	36.52
280.538	59.05
280.753	69.29
280.969	69.29
281.184	36.52
281.399	-12.63
281.615	32.43
281.83	63.15
282.045	-33.11
282.26	16.04
282.476	104.11
282.691	26.28
282.906	79.53
283.122	61.1
283.337	26.28
283.552	106.15
283.767	54.95
283.983	73.39
284.198	83.63
284.413	-16.73
284.628	22.19
284.843	-2.39
285.058	110.25
285.274	-22.87
285.489	36.52
285.704	24.23
285.919	-6.49
286.134	11.95
286.349	-8.53
286.564	36.52
286.779	124.58
286.995	42.67
287.21	48.81
287.425	34.47
287.64	87.72
287.855	48.81
288.07	30.38
288.285	7.85
288.5	65.19
288.715	32.43
288.93	149.16
289.145	40.62
289.36	59.05
289.575	65.19
289.79	79.53
290.004	36.52
290.219	114.34
290.434	102.06
290.649	20.14
290.864	-37.2
291.079	44.71
291.294	79.53
291.509	122.54
291.724	54.95
291.938	71.34
292.153	97.96
292.368	40.62
292.583	24.23
292.798	81.58
293.012	34.47
293.227	61.1
293.442	61.1
293.657	97.96
293.871	138.92
294.086	48.81
294.301	114.34
294.516	126.63
294.73	73.39
294.945	73.39
295.16	57
295.374	118.44
295.589	52.91
295.804	-2.39
296.018	46.76
296.233	91.82
296.447	143.02
296.662	48.81
296.877	73.39
297.091	108.2
297.306	93.87
297.52	81.58
297.735	122.54
297.949	65.19
298.164	134.82
298.378	67.24
298.593	-12.63
298.807	97.96
299.022	89.77
299.236	108.2
299.451	-16.73
299.665	28.33
299.88	24.23
300.094	57
300.309	61.1
300.523	67.24
300.737	75.43
300.952	48.81
301.166	67.24
301.381	-53.59
301.595	46.76
301.809	91.82
302.024	110.25
302.238	-29.01
302.452	77.48
302.667	52.91
302.881	155.3
303.095	114.34
303.309	91.82
303.524	48.81
303.738	36.52
303.952	69.29
304.166	-12.63
304.381	50.86
304.595	-14.68
304.809	42.67
305.023	63.15
305.237	13.99
305.452	69.29
305.666	128.68
305.88	91.82
306.094	24.23
306.308	52.91
306.522	65.19
306.736	120.49
306.95	57
307.164	-24.92
307.379	-24.92
307.593	126.63
307.807	112.3
308.021	85.67
308.235	5.8
308.449	3.75
308.663	11.95
308.877	81.58
309.091	59.05
309.305	32.43
309.519	44.71
309.733	57
309.947	13.99
310.161	134.82
310.374	-14.68
310.588	61.1
310.802	30.38
311.016	71.34
311.23	67.24
311.444	44.71
311.658	44.71
311.872	75.43
312.085	57
312.299	126.63
312.513	122.54
312.727	44.71
312.941	34.47
313.154	52.91
313.368	71.34
313.582	128.68
313.796	73.39
314.009	112.3
314.223	63.15
314.437	87.72
314.651	52.91
314.864	97.96
315.078	50.86
315.292	48.81
315.505	34.47
315.719	-10.58
315.933	79.53
316.146	63.15
316.36	40.62
316.573	108.2
316.787	65.19
317.001	153.26
317.214	61.1
317.428	61.1
317.641	40.62
317.855	-18.77
318.068	24.23
318.282	59.05
318.495	63.15
318.709	48.81
318.922	54.95
319.136	67.24
319.349	13.99
319.563	83.63
319.776	63.15
319.99	26.28
320.203	44.71
320.417	-10.58
320.63	-0.34
320.843	110.25
321.057	32.43
321.27	28.33
321.483	3.75
321.697	93.87
321.91	36.52
322.124	122.54
322.337	69.29
322.55	16.04
322.763	46.76
322.977	75.43
323.19	18.09
323.403	11.95
323.617	28.33
323.83	106.15
324.043	110.25
324.256	69.29
324.469	63.15
324.683	69.29
324.896	13.99
325.109	73.39
325.322	7.85
325.535	28.33
325.748	97.96
325.962	38.57
326.175	83.63
326.388	46.76
326.601	140.97
326.814	46.76
327.027	118.44
327.24	63.15
327.453	11.95
327.666	118.44
327.879	63.15
328.092	93.87
328.305	-4.44
328.518	9.9
328.731	63.15
328.944	67.24
329.157	-20.82
329.37	136.87
329.583	83.63
329.796	120.49
330.009	-0.34
330.222	118.44
330.435	81.58
330.648	91.82
330.861	63.15
331.073	102.06
331.286	20.14
331.499	97.96
331.712	36.52
331.925	95.91
332.138	3.75
332.35	79.53
332.563	67.24
332.776	71.34
332.989	85.67
333.202	69.29
333.414	118.44
333.627	102.06
333.84	28.33
334.053	73.39
334.265	85.67
334.478	7.85
334.691	30.38
334.903	9.9
335.116	38.57
335.329	61.1
335.541	145.06
335.754	50.86
335.966	79.53
336.179	-31.06
336.392	20.14
336.604	22.19
336.817	65.19
337.029	75.43
337.242	30.38
337.454	57
337.667	89.77
337.88	52.91
338.092	81.58
338.305	116.39
338.517	52.91
338.729	71.34
338.942	48.81
339.154	73.39
339.367	46.76
339.579	32.43
339.792	122.54
340.004	46.76
340.217	77.48
340.429	85.67
340.641	59.05
340.854	44.71
341.066	79.53
341.278	52.91
341.491	75.43
341.703	102.06
341.915	69.29
342.128	22.19
342.34	61.1
342.552	-18.77
342.764	16.04
342.977	71.34
343.189	40.62
343.401	91.82
343.613	-20.82
343.826	95.91
344.038	-49.49
344.25	61.1
344.462	32.43
344.674	79.53
344.886	104.11
345.099	61.1
345.311	46.76
345.523	54.95
345.735	-29.01
345.947	44.71
346.159	57
346.371	42.67
346.583	30.38
346.795	93.87
347.007	38.57
347.219	67.24
347.431	40.62
347.643	71.34
347.855	63.15
348.067	-8.53
348.279	89.77
348.491	65.19
348.703	5.8
348.915	42.67
349.127	52.91
349.339	73.39
349.551	24.23
349.763	57
349.975	54.95
350.187	42.67
350.399	32.43
350.61	38.57
350.822	120.49
351.034	116.39
351.246	69.29
351.458	83.63
351.669	54.95
351.881	122.54
352.093	57
352.305	106.15
352.517	75.43
352.728	143.02
352.94	73.39
353.152	50.86
353.363	89.77
353.575	114.34
353.787	138.92
353.999	22.19
354.21	81.58
354.422	87.72
354.633	40.62
354.845	32.43
355.057	48.81
355.268	75.43
355.48	63.15
355.692	22.19
355.903	85.67
356.115	73.39
356.326	-2.39
356.538	110.25
356.749	-35.16
356.961	108.2
357.172	69.29
357.384	63.15
357.595	106.15
357.807	3.75
358.018	54.95
358.23	106.15
358.441	102.06
358.653	97.96
358.864	104.11
359.075	22.19
359.287	77.48
359.498	89.77
359.709	91.82
359.921	13.99
360.132	93.87
360.344	9.9
360.555	87.72
360.766	97.96
360.977	71.34
361.189	97.96
361.4	69.29
361.611	77.48
361.823	50.86
362.034	122.54
362.245	91.82
362.456	136.87
362.667	67.24
362.879	118.44
363.09	108.2
363.301	48.81
363.512	91.82
363.723	32.43
363.935	83.63
364.146	122.54
364.357	5.8
364.568	65.19
364.779	89.77
364.99	165.54
365.201	71.34
365.412	69.29
365.623	59.05
365.834	87.72
366.045	93.87
366.256	151.21
366.467	61.1
366.678	79.53
366.889	65.19
367.1	81.58
367.311	63.15
367.522	36.52
367.733	44.71
367.944	48.81
368.155	46.76
368.366	54.95
368.577	159.4
368.788	134.82
368.999	20.14
369.209	-10.58
369.42	85.67
369.631	67.24
369.842	97.96
370.053	46.76
370.264	91.82
370.474	52.91
370.685	130.73
370.896	118.44
371.107	132.78
371.317	50.86
371.528	57
371.739	38.57
371.95	16.04
372.16	81.58
372.371	26.28
372.582	22.19
372.792	95.91
373.003	85.67
373.214	69.29
373.424	75.43
373.635	30.38
373.846	30.38
374.056	46.76
374.267	54.95
374.477	87.72
374.688	20.14
374.898	1.71
375.109	75.43
375.319	77.48
375.53	91.82
375.74	167.59
375.951	73.39
376.161	52.91
376.372	122.54
376.582	16.04
376.793	95.91
377.003	81.58
377.214	100.01
377.424	-6.49
377.635	32.43
377.845	-12.63
378.055	106.15
378.266	36.52
378.476	97.96
378.686	77.48
378.897	73.39
379.107	11.95
379.317	38.57
379.528	75.43
379.738	28.33
379.948	52.91
380.158	97.96
380.369	128.68
380.579	140.97
380.789	79.53
380.999	163.5
381.21	18.09
381.42	128.68
381.63	57
381.84	110.25
382.05	118.44
382.261	114.34
382.471	-4.44
382.681	89.77
382.891	46.76
383.101	59.05
383.311	9.9
383.521	1.71
383.731	79.53
383.941	77.48
384.151	57
384.361	102.06
384.571	95.91
384.781	134.82
384.991	114.34
385.201	179.88
385.411	122.54
385.621	79.53
385.831	65.19
386.041	28.33
386.251	85.67
386.461	155.3
386.671	130.73
386.881	132.78
387.091	87.72
387.301	95.91
387.511	61.1
387.72	104.11
387.93	89.77
388.14	57
388.35	81.58
388.56	155.3
388.769	112.3
388.979	81.58
389.189	54.95
389.399	61.1
389.609	75.43
389.818	48.81
390.028	95.91
390.238	50.86
390.447	97.96
390.657	95.91
390.867	3.75
391.076	36.52
391.286	95.91
391.496	93.87
391.705	116.39
391.915	97.96
392.125	71.34
392.334	165.54
392.544	155.3
392.753	126.63
392.963	91.82
393.172	138.92
393.382	28.33
393.591	202.41
393.801	104.11
394.01	157.35
394.22	118.44
394.429	120.49
394.639	83.63
394.848	122.54
395.058	140.97
395.267	93.87
395.477	175.78
395.686	57
395.895	95.91
396.105	151.21
396.314	97.96
396.524	126.63
396.733	91.82
396.942	143.02
397.152	171.69
397.361	138.92
397.57	120.49
397.78	175.78
397.989	77.48
398.198	204.46
398.407	149.16
398.617	134.82
398.826	120.49
399.035	151.21
399.244	179.88
399.453	116.39
399.663	100.01
399.872	179.88
400.081	163.5
400.29	237.22
400.499	65.19
400.708	190.12
400.917	145.06
401.127	145.06
401.336	145.06
401.545	147.11
401.754	163.5
401.963	169.64
402.172	95.91
402.381	110.25
402.59	130.73
402.799	145.06
403.008	179.88
403.217	163.5
403.426	163.5
403.635	181.93
403.844	200.36
404.053	204.46
404.262	226.98
404.471	173.74
404.68	233.13
404.888	186.02
405.097	179.88
405.306	224.94
405.515	231.08
405.724	198.31
405.933	224.94
406.142	130.73
406.35	196.26
406.559	196.26
406.768	247.46
406.977	167.59
407.185	239.27
407.394	204.46
407.603	282.28
407.812	263.85
408.02	315.05
408.229	202.41
408.438	333.48
408.646	235.18
408.855	321.19
409.064	317.09
409.272	329.38
409.481	321.19
409.69	321.19
409.898	323.24
410.107	331.43
410.315	409.25
410.524	390.82
410.733	425.64
410.941	364.2
411.15	439.97
411.358	345.77
411.567	407.2
411.775	466.6
411.984	464.55
412.192	550.56
412.401	548.51
412.609	552.61
412.818	560.8
413.026	560.8
413.234	630.43
413.443	732.83
413.651	605.86
413.86	661.15
414.068	673.44
414.276	833.18
414.485	614.05
414.693	796.32
414.901	853.66
415.11	845.47
415.318	786.08
415.526	804.51
415.734	847.52
415.943	986.78
416.151	812.7
416.359	1033.88
416.567	939.68
416.776	956.06
416.984	1117.85
417.192	1222.3
417.4	1130.14
417.608	1119.9
417.817	1185.43
418.025	1326.74
418.233	1351.32
418.441	1300.12
418.649	1455.76
418.857	1410.71
419.065	1578.64
419.273	1580.69
419.481	1552.02
419.689	1730.19
419.897	1822.35
420.105	1750.67
420.313	1828.49
420.521	1863.31
420.729	1957.52
420.937	2016.91
421.145	2006.67
421.353	2207.37
421.561	2311.82
421.769	2297.48
421.977	2467.46
422.185	2451.08
422.393	2555.52
422.601	2639.49
422.809	2621.06
423.017	2678.4
423.224	2872.96
423.432	2981.5
423.64	2905.73
423.848	3321.46
424.056	3155.58
424.263	3159.67
424.471	3337.85
424.679	3563.12
424.887	3604.08
425.094	3839.6
425.302	3874.42
425.51	3927.66
425.718	3905.14
425.925	4150.89
426.133	4214.38
426.341	4429.42
426.548	4660.84
426.756	4724.32
426.964	4798.05
427.171	4918.88
427.379	5121.63
427.586	5131.87
427.794	5400.15
428.001	5785.17
428.209	5836.37
428.417	5805.65
428.624	6194.76
428.832	6266.44
429.039	6188.62
429.247	6127.18
429.454	6821.44
429.662	7267.9
429.869	6778.44
430.076	7181.89
430.284	7003.71
430.491	7249.47
430.699	7900.72
430.906	7734.84
431.114	7790.13
431.321	8152.62
431.528	8402.47
431.736	8844.84
431.943	9164.32
432.15	8791.59
432.358	9018.91
432.565	9539.1
432.772	9489.95
432.979	9946.64
433.187	10120.72
433.394	10419.72
433.601	11165.18
433.808	10913.28
434.016	10862.08
434.223	11265.53
434.43	12086.77
434.637	11550.2
434.844	12520.94
435.052	12664.3
435.259	12660.2
435.466	12918.25
435.673	12559.85
435.88	13641.18
436.087	14335.44
436.294	14366.16
436.501	13463.01
436.708	14136.79
436.915	14573
437.122	15224.26
437.329	15416.77
437.537	15834.55
437.743	16049.59
437.95	15844.79
438.157	16772.52
438.364	17261.99
438.571	17280.42
438.778	17352.1
438.985	18843.02
439.192	18042.26
439.399	18908.55
439.606	18410.9
439.813	19457.41
440.02	20735.34
440.227	20282.74
440.433	20120.95
440.64	20835.69
440.847	20837.74
441.054	21093.74
441.261	22461.78
441.467	22173.02
441.674	22900.05
441.881	23412.04
442.088	23301.45
442.294	23160.14
442.501	23948.61
442.708	24446.26
442.914	25505.06
443.121	26395.93
443.328	25793.83
443.534	27577.61
443.741	26895.63
443.948	26193.18
444.154	28523.77
444.361	27845.89
444.568	27890.95
444.774	28314.87
444.981	28738.8
445.187	29404.39
445.394	30774.49
445.6	30127.33
445.807	33113.27
446.013	31902.92
446.22	32220.35
446.426	33334.45
446.633	33832.1
446.839	34833.56
447.046	33883.3
447.252	35538.06
447.459	35316.88
447.665	35114.13
447.871	36865.14
448.078	38298.72
448.284	36355.2
448.491	37538.93
448.697	38671.45
448.903	39486.54
449.11	39281.75
449.316	38661.21
449.522	39519.31
449.728	40338.5
449.935	40887.35
450.141	40539.2
450.347	41829.42
450.553	40463.43
450.76	40748.09
450.966	41745.45
451.172	41595.95
451.378	42333.22
451.584	41944.11
451.791	42632.22
451.997	42791.97
452.203	43279.38
452.409	42984.47
452.615	42722.33
452.821	41157.69
453.027	40574.02
453.233	42765.34
453.44	40526.91
453.646	41397.3
453.852	41890.86
454.058	42169.38
454.264	40522.82
454.47	41960.49
454.676	40580.16
454.882	41794.6
455.088	38278.24
455.294	38792.28
455.5	38734.94
455.705	39785.55
455.911	37938.28
456.117	36994.17
456.323	36676.73
456.529	34815.13
456.735	36021.38
456.941	35255.44
457.147	34981.01
457.352	33559.72
457.558	32957.62
457.764	33039.54
457.97	32384.19
458.176	31769.8
458.381	31741.13
458.587	30321.88
458.793	30131.42
458.999	28654.84
459.204	30684.37
459.41	29922.53
459.616	27903.23
459.821	27680
460.027	27768.07
460.233	27102.48
460.438	26015.01
460.644	26125.6
460.85	25158.95
461.055	24714.55
461.261	24624.43
461.466	22588.75
461.672	22322.52
461.878	23453
462.083	21968.22
462.289	21648.74
462.494	21685.6
462.7	20338.04
462.905	19969.4
463.111	20667.76
463.316	20843.88
463.522	20346.23
463.727	20206.97
463.932	20665.71
464.138	20131.19
464.343	20239.73
464.549	19707.26
464.754	20153.72
464.959	20182.39
465.165	19948.92
465.37	19305.86
465.575	18404.75
465.781	19477.89
465.986	19701.12
466.191	18818.44
466.397	18451.86
466.602	17737.12
466.807	18152.85
467.012	18501.01
467.218	18202
