Data from USB4F104151__167__10-27-24-380.txt Node

Date: Wed Mar 12 10:27:24 EDT 2025
User: louis
Spectrometer: USB4F10415
Trigger mode: 4
Integration Time (sec): 3.000000E-2
Scans to average: 1
Electric dark correction enabled: true
Nonlinearity correction enabled: false
Boxcar width: 0
XAxis mode: Wavelengths
Number of Pixels in Spectrum: 3648
>>>>>Begin Spectral Data<<<<<
178.204	-59.05
178.424	-59.05
178.644	-59.05
178.864	-59.05
179.084	-77.48
179.304	-26.28
179.524	6.49
179.744	10.58
179.964	76.12
180.184	12.63
180.404	-3.75
180.624	-28.33
180.844	55.64
181.064	-73.39
181.283	-34.47
181.503	-38.57
181.723	43.35
181.943	-63.15
182.163	110.93
182.383	92.5
182.602	53.59
182.822	14.68
183.042	35.16
183.262	10.58
183.482	33.11
183.701	4.44
183.921	4.44
184.141	59.73
184.361	84.31
184.58	14.68
184.8	6.49
185.02	12.63
185.239	74.07
185.459	31.06
185.679	51.54
185.898	-7.85
186.118	16.73
186.338	41.3
186.557	53.59
186.777	16.73
186.997	51.54
187.216	78.16
187.436	4.44
187.655	-7.85
187.875	6.49
188.095	20.82
188.314	72.02
188.534	39.25
188.753	-22.19
188.973	51.54
189.192	33.11
189.412	45.4
189.631	-26.28
189.851	37.2
190.07	92.5
190.29	-20.14
190.509	0.34
190.729	12.63
190.948	47.44
191.168	129.36
191.387	106.84
191.607	26.96
191.826	39.25
192.045	53.59
192.265	16.73
192.484	18.77
192.704	8.53
192.923	22.87
193.142	112.98
193.362	67.92
193.581	-5.8
193.8	16.73
194.02	106.84
194.239	84.31
194.458	45.4
194.678	-7.85
194.897	115.03
195.116	90.45
195.335	18.77
195.555	-1.71
195.774	51.54
195.993	51.54
196.212	20.82
196.432	22.87
196.651	0.34
196.87	31.06
197.089	151.89
197.308	16.73
197.528	53.59
197.747	37.2
197.966	8.53
198.185	12.63
198.404	20.82
198.623	6.49
198.842	14.68
199.062	24.92
199.281	49.49
199.5	16.73
199.719	45.4
199.938	88.4
200.157	51.54
200.376	0.34
200.595	76.12
200.814	29.01
201.033	-38.57
201.252	12.63
201.471	4.44
201.69	110.93
201.909	-3.75
202.128	10.58
202.347	59.73
202.566	29.01
202.785	-18.09
203.004	-20.14
203.223	176.47
203.442	41.3
203.661	53.59
203.879	0.34
204.098	33.11
204.317	78.16
204.536	26.96
204.755	8.53
204.974	10.58
205.193	-11.95
205.411	51.54
205.63	57.68
205.849	82.26
206.068	-13.99
206.287	39.25
206.505	20.82
206.724	24.92
206.943	-26.28
207.162	-44.71
207.381	22.87
207.599	45.4
207.818	65.88
208.037	90.45
208.255	104.79
208.474	41.3
208.693	41.3
208.911	-7.85
209.13	16.73
209.349	49.49
209.567	84.31
209.786	8.53
210.005	20.82
210.223	33.11
210.442	-36.52
210.661	-44.71
210.879	69.97
211.098	43.35
211.316	29.01
211.535	47.44
211.753	-24.23
211.972	41.3
212.191	8.53
212.409	78.16
212.628	31.06
212.846	39.25
213.065	24.92
213.283	53.59
213.502	14.68
213.72	43.35
213.938	-22.19
214.157	-3.75
214.375	-3.75
214.594	-46.76
214.812	26.96
215.031	33.11
215.249	78.16
215.467	26.96
215.686	24.92
215.904	63.83
216.122	-24.23
216.341	45.4
216.559	22.87
216.778	74.07
216.996	72.02
217.214	37.2
217.432	43.35
217.651	-1.71
217.869	65.88
218.087	33.11
218.306	41.3
218.524	55.64
218.742	69.97
218.96	110.93
219.179	-24.23
219.397	35.16
219.615	61.78
219.833	92.5
220.051	2.39
220.27	8.53
220.488	51.54
220.706	29.01
220.924	43.35
221.142	24.92
221.36	74.07
221.578	22.87
221.796	31.06
222.015	94.55
222.233	-36.52
222.451	80.21
222.669	-38.57
222.887	80.21
223.105	-63.15
223.323	57.68
223.541	20.82
223.759	35.16
223.977	51.54
224.195	10.58
224.413	-7.85
224.631	94.55
224.849	92.5
225.067	112.98
225.285	-42.67
225.503	31.06
225.721	-11.95
225.939	2.39
226.157	86.36
226.375	110.93
226.592	14.68
226.81	92.5
227.028	29.01
227.246	82.26
227.464	8.53
227.682	-28.33
227.9	41.3
228.117	45.4
228.335	41.3
228.553	74.07
228.771	135.51
228.989	90.45
229.206	8.53
229.424	35.16
229.642	-34.47
229.86	18.77
230.077	45.4
230.295	-34.47
230.513	59.73
230.731	110.93
230.948	100.69
231.166	53.59
231.384	39.25
231.601	47.44
231.819	67.92
232.037	-9.9
232.254	84.31
232.472	51.54
232.689	10.58
232.907	76.12
233.125	-7.85
233.342	12.63
233.56	12.63
233.777	41.3
233.995	76.12
234.213	41.3
234.43	78.16
234.648	43.35
234.865	67.92
235.083	45.4
235.3	-16.04
235.518	33.11
235.735	45.4
235.953	-7.85
236.17	12.63
236.388	18.77
236.605	43.35
236.822	35.16
237.04	53.59
237.257	61.78
237.475	-38.57
237.692	26.96
237.909	39.25
238.127	49.49
238.344	-7.85
238.562	31.06
238.779	53.59
238.996	10.58
239.214	2.39
239.431	82.26
239.648	-28.33
239.865	14.68
240.083	53.59
240.3	-28.33
240.517	6.49
240.735	65.88
240.952	104.79
241.169	53.59
241.386	14.68
241.603	-26.28
241.821	43.35
242.038	80.21
242.255	20.82
242.472	0.34
242.689	78.16
242.907	-5.8
243.124	80.21
243.341	55.64
243.558	-48.81
243.775	92.5
243.992	-36.52
244.209	-18.09
244.426	16.73
244.643	90.45
244.86	65.88
245.078	-63.15
245.295	-61.1
245.512	47.44
245.729	-16.04
245.946	37.2
246.163	33.11
246.38	20.82
246.597	51.54
246.814	49.49
247.031	31.06
247.248	41.3
247.464	31.06
247.681	26.96
247.898	-36.52
248.115	12.63
248.332	24.92
248.549	31.06
248.766	29.01
248.983	41.3
249.2	2.39
249.417	61.78
249.633	-46.76
249.85	29.01
250.067	-48.81
250.284	14.68
250.501	39.25
250.717	110.93
250.934	18.77
251.151	20.82
251.368	20.82
251.585	4.44
251.801	33.11
252.018	20.82
252.235	78.16
252.451	-13.99
252.668	-20.14
252.885	67.92
253.102	63.83
253.318	14.68
253.535	29.01
253.752	35.16
253.968	29.01
254.185	0.34
254.401	12.63
254.618	53.59
254.835	0.34
255.051	117.08
255.268	2.39
255.484	-26.28
255.701	-11.95
255.917	55.64
256.134	-24.23
256.351	69.97
256.567	74.07
256.784	53.59
257	-28.33
257.217	-7.85
257.433	16.73
257.65	37.2
257.866	86.36
258.082	86.36
258.299	-3.75
258.515	74.07
258.732	-9.9
258.948	57.68
259.165	74.07
259.381	33.11
259.597	16.73
259.814	-9.9
260.03	-7.85
260.246	84.31
260.463	51.54
260.679	-16.04
260.895	8.53
261.112	88.4
261.328	20.82
261.544	45.4
261.761	88.4
261.977	63.83
262.193	-5.8
262.409	63.83
262.626	61.78
262.842	39.25
263.058	92.5
263.274	84.31
263.49	110.93
263.707	16.73
263.923	94.55
264.139	-28.33
264.355	63.83
264.571	72.02
264.787	37.2
265.004	29.01
265.22	4.44
265.436	37.2
265.652	6.49
265.868	41.3
266.084	-7.85
266.3	29.01
266.516	-34.47
266.732	4.44
266.948	18.77
267.164	72.02
267.38	108.88
267.596	10.58
267.812	104.79
268.028	31.06
268.244	102.74
268.46	-26.28
268.676	4.44
268.892	61.78
269.108	-61.1
269.324	2.39
269.54	41.3
269.756	78.16
269.972	49.49
270.188	45.4
270.403	-7.85
270.619	10.58
270.835	51.54
271.051	92.5
271.267	-57
271.483	35.16
271.698	43.35
271.914	16.73
272.13	-9.9
272.346	67.92
272.562	57.68
272.777	45.4
272.993	6.49
273.209	20.82
273.425	82.26
273.64	-7.85
273.856	92.5
274.072	65.88
274.287	18.77
274.503	-1.71
274.719	0.34
274.934	20.82
275.15	53.59
275.366	-7.85
275.581	-22.19
275.797	-1.71
276.012	26.96
276.228	35.16
276.444	43.35
276.659	12.63
276.875	-26.28
277.09	18.77
277.306	18.77
277.521	84.31
277.737	-7.85
277.952	59.73
278.168	63.83
278.383	63.83
278.599	78.16
278.814	90.45
279.03	20.82
279.245	102.74
279.461	45.4
279.676	74.07
279.892	-5.8
280.107	-44.71
280.322	51.54
280.538	57.68
280.753	8.53
280.969	61.78
281.184	31.06
281.399	94.55
281.615	0.34
281.83	72.02
282.045	-40.62
282.26	24.92
282.476	43.35
282.691	45.4
282.906	8.53
283.122	47.44
283.337	16.73
283.552	110.93
283.767	12.63
283.983	0.34
284.198	-3.75
284.413	16.73
284.628	45.4
284.843	14.68
285.058	33.11
285.274	43.35
285.489	67.92
285.704	92.5
285.919	39.25
286.134	12.63
286.349	-24.23
286.564	33.11
286.779	76.12
286.995	2.39
287.21	29.01
287.425	127.32
287.64	18.77
287.855	16.73
288.07	-5.8
288.285	57.68
288.5	110.93
288.715	76.12
288.93	51.54
289.145	35.16
289.36	67.92
289.575	41.3
289.79	84.31
290.004	-48.81
290.219	-20.14
290.434	-13.99
290.649	24.92
290.864	31.06
291.079	45.4
291.294	61.78
291.509	86.36
291.724	45.4
291.938	-24.23
292.153	74.07
292.368	26.96
292.583	82.26
292.798	24.92
293.012	106.84
293.227	16.73
293.442	84.31
293.657	37.2
293.871	76.12
294.086	16.73
294.301	78.16
294.516	53.59
294.73	20.82
294.945	4.44
295.16	14.68
295.374	-3.75
295.589	26.96
295.804	51.54
296.018	41.3
296.233	35.16
296.447	94.55
296.662	-75.43
296.877	110.93
297.091	78.16
297.306	49.49
297.52	41.3
297.735	-13.99
297.949	26.96
298.164	10.58
298.378	29.01
298.593	18.77
298.807	26.96
299.022	53.59
299.236	69.97
299.451	39.25
299.665	20.82
299.88	80.21
300.094	-89.77
300.309	53.59
300.523	-3.75
300.737	45.4
300.952	31.06
301.166	24.92
301.381	20.82
301.595	-34.47
301.809	-18.09
302.024	26.96
302.238	-24.23
302.452	10.58
302.667	29.01
302.881	67.92
303.095	33.11
303.309	0.34
303.524	53.59
303.738	-3.75
303.952	-1.71
304.166	4.44
304.381	-93.87
304.595	61.78
304.809	16.73
305.023	88.4
305.237	41.3
305.452	29.01
305.666	41.3
305.88	155.99
306.094	49.49
306.308	24.92
306.522	59.73
306.736	65.88
306.95	12.63
307.164	31.06
307.379	29.01
307.593	51.54
307.807	69.97
308.021	24.92
308.235	55.64
308.449	84.31
308.663	0.34
308.877	90.45
309.091	0.34
309.305	-32.43
309.519	-11.95
309.733	69.97
309.947	20.82
310.161	98.64
310.374	67.92
310.588	74.07
310.802	-3.75
311.016	-26.28
311.23	80.21
311.444	4.44
311.658	51.54
311.872	69.97
312.085	24.92
312.299	26.96
312.513	39.25
312.727	88.4
312.941	31.06
313.154	65.88
313.368	-3.75
313.582	102.74
313.796	53.59
314.009	59.73
314.223	18.77
314.437	47.44
314.651	92.5
314.864	18.77
315.078	22.87
315.292	14.68
315.505	67.92
315.719	22.87
315.933	-40.62
316.146	24.92
316.36	2.39
316.573	37.2
316.787	104.79
317.001	131.41
317.214	-7.85
317.428	31.06
317.641	78.16
317.855	31.06
318.068	26.96
318.282	35.16
318.495	67.92
318.709	65.88
318.922	26.96
319.136	45.4
319.349	69.97
319.563	33.11
319.776	41.3
319.99	12.63
320.203	61.78
320.417	45.4
320.63	29.01
320.843	33.11
321.057	57.68
321.27	94.55
321.483	37.2
321.697	49.49
321.91	78.16
322.124	26.96
322.337	24.92
322.55	51.54
322.763	76.12
322.977	-13.99
323.19	29.01
323.403	127.32
323.617	74.07
323.83	61.78
324.043	69.97
324.256	67.92
324.469	-1.71
324.683	63.83
324.896	65.88
325.109	53.59
325.322	-13.99
325.535	41.3
325.748	24.92
325.962	8.53
326.175	102.74
326.388	47.44
326.601	53.59
326.814	63.83
327.027	74.07
327.24	82.26
327.453	-1.71
327.666	14.68
327.879	24.92
328.092	29.01
328.305	112.98
328.518	18.77
328.731	86.36
328.944	29.01
329.157	45.4
329.37	-18.09
329.583	-9.9
329.796	61.78
330.009	-16.04
330.222	10.58
330.435	108.88
330.648	41.3
330.861	-9.9
331.073	33.11
331.286	61.78
331.499	78.16
331.712	45.4
331.925	-9.9
332.138	-24.23
332.35	115.03
332.563	33.11
332.776	59.73
332.989	84.31
333.202	24.92
333.414	-36.52
333.627	31.06
333.84	-28.33
334.053	133.46
334.265	41.3
334.478	6.49
334.691	-22.19
334.903	-16.04
335.116	6.49
335.329	4.44
335.541	133.46
335.754	117.08
335.966	37.2
336.179	-40.62
336.392	6.49
336.604	49.49
336.817	108.88
337.029	-3.75
337.242	-1.71
337.454	74.07
337.667	4.44
337.88	102.74
338.092	67.92
338.305	45.4
338.517	-13.99
338.729	115.03
338.942	59.73
339.154	8.53
339.367	22.87
339.579	37.2
339.792	51.54
340.004	143.7
340.217	22.87
340.429	29.01
340.641	-3.75
340.854	2.39
341.066	74.07
341.278	94.55
341.491	67.92
341.703	8.53
341.915	65.88
342.128	108.88
342.34	22.87
342.552	-16.04
342.764	72.02
342.977	41.3
343.189	141.65
343.401	24.92
343.613	-36.52
343.826	92.5
344.038	16.73
344.25	69.97
344.462	4.44
344.674	-20.14
344.886	102.74
345.099	72.02
345.311	57.68
345.523	41.3
345.735	-32.43
345.947	115.03
346.159	-3.75
346.371	39.25
346.583	43.35
346.795	123.22
347.007	-36.52
347.219	0.34
347.431	78.16
347.643	121.17
347.855	12.63
348.067	139.6
348.279	-28.33
348.491	18.77
348.703	59.73
348.915	24.92
349.127	2.39
349.339	24.92
349.551	-30.38
349.763	78.16
349.975	41.3
350.187	49.49
350.399	67.92
350.61	51.54
350.822	-9.9
351.034	35.16
351.246	45.4
351.458	53.59
351.669	69.97
351.881	100.69
352.093	102.74
352.305	53.59
352.517	125.27
352.728	69.97
352.94	59.73
353.152	18.77
353.363	20.82
353.575	78.16
353.787	72.02
353.999	72.02
354.21	39.25
354.422	-13.99
354.633	119.12
354.845	37.2
355.057	57.68
355.268	45.4
355.48	4.44
355.692	98.64
355.903	4.44
356.115	96.6
356.326	10.58
356.538	100.69
356.749	102.74
356.961	-52.91
357.172	37.2
357.384	4.44
357.595	125.27
357.807	26.96
358.018	74.07
358.23	55.64
358.441	139.6
358.653	22.87
358.864	123.22
359.075	57.68
359.287	51.54
359.498	49.49
359.709	31.06
359.921	-11.95
360.132	72.02
360.344	33.11
360.555	33.11
360.766	24.92
360.977	33.11
361.189	41.3
361.4	96.6
361.611	67.92
361.823	41.3
362.034	102.74
362.245	26.96
362.456	88.4
362.667	47.44
362.879	53.59
363.09	57.68
363.301	78.16
363.512	43.35
363.723	78.16
363.935	4.44
364.146	80.21
364.357	49.49
364.568	18.77
364.779	29.01
364.99	102.74
365.201	119.12
365.412	94.55
365.623	20.82
365.834	-7.85
366.045	49.49
366.256	4.44
366.467	59.73
366.678	6.49
366.889	18.77
367.1	72.02
367.311	29.01
367.522	8.53
367.733	65.88
367.944	117.08
368.155	31.06
368.366	61.78
368.577	74.07
368.788	90.45
368.999	84.31
369.209	45.4
369.42	74.07
369.631	45.4
369.842	33.11
370.053	53.59
370.264	67.92
370.474	-44.71
370.685	29.01
370.896	-16.04
371.107	102.74
371.317	69.97
371.528	59.73
371.739	80.21
371.95	57.68
372.16	61.78
372.371	-18.09
372.582	-30.38
372.792	-3.75
373.003	45.4
373.214	8.53
373.424	31.06
373.635	31.06
373.846	76.12
374.056	92.5
374.267	41.3
374.477	16.73
374.688	88.4
374.898	69.97
375.109	20.82
375.319	43.35
375.53	82.26
375.74	55.64
375.951	117.08
376.161	131.41
376.372	43.35
376.582	16.73
376.793	29.01
377.003	45.4
377.214	65.88
377.424	57.68
377.635	86.36
377.845	-1.71
378.055	57.68
378.266	61.78
378.476	53.59
378.686	102.74
378.897	53.59
379.107	98.64
379.317	33.11
379.528	59.73
379.738	26.96
379.948	-18.09
380.158	80.21
380.369	84.31
380.579	82.26
380.789	-5.8
380.999	51.54
381.21	61.78
381.42	94.55
381.63	35.16
381.84	41.3
382.05	61.78
382.261	86.36
382.471	76.12
382.681	115.03
382.891	26.96
383.101	29.01
383.311	86.36
383.521	51.54
383.731	90.45
383.941	53.59
384.151	45.4
384.361	131.41
384.571	26.96
384.781	78.16
384.991	82.26
385.201	90.45
385.411	61.78
385.621	133.46
385.831	98.64
386.041	59.73
386.251	29.01
386.461	96.6
386.671	123.22
386.881	45.4
387.091	61.78
387.301	16.73
387.511	74.07
387.72	47.44
387.93	-28.33
388.14	41.3
388.35	119.12
388.56	47.44
388.769	51.54
388.979	45.4
389.189	26.96
389.399	12.63
389.609	143.7
389.818	94.55
390.028	61.78
390.238	33.11
390.447	37.2
390.657	61.78
390.867	82.26
391.076	-7.85
391.286	115.03
391.496	33.11
391.705	92.5
391.915	108.88
392.125	176.47
392.334	59.73
392.544	127.32
392.753	84.31
392.963	43.35
393.172	67.92
393.382	12.63
393.591	63.83
393.801	53.59
394.01	80.21
394.22	45.4
394.429	63.83
394.639	106.84
394.848	96.6
395.058	110.93
395.267	31.06
395.477	100.69
395.686	86.36
395.895	160.08
396.105	115.03
396.314	49.49
396.524	125.27
396.733	131.41
396.942	104.79
397.152	16.73
397.361	133.46
397.57	155.99
397.78	141.65
397.989	123.22
398.198	96.6
398.407	94.55
398.617	92.5
398.826	37.2
399.035	84.31
399.244	158.03
399.453	153.94
399.663	125.27
399.872	141.65
400.081	53.59
400.29	147.8
400.499	86.36
400.708	94.55
400.917	151.89
401.127	106.84
401.336	-7.85
401.545	198.99
401.754	137.56
401.963	41.3
402.172	78.16
402.381	155.99
402.59	127.32
402.799	82.26
403.008	125.27
403.217	139.6
403.426	84.31
403.635	100.69
403.844	135.51
404.053	88.4
404.262	147.8
404.471	192.85
404.68	90.45
404.888	139.6
405.097	102.74
405.306	196.95
405.515	90.45
405.724	213.33
405.933	184.66
406.142	100.69
406.35	237.91
406.559	190.8
406.768	213.33
406.977	184.66
407.185	201.04
407.394	182.61
407.603	194.9
407.812	297.3
408.02	280.91
408.229	135.51
408.438	268.63
408.646	160.08
408.855	282.96
409.064	262.48
409.272	233.81
409.481	305.49
409.69	340.3
409.898	250.19
410.107	332.11
410.315	303.44
410.524	381.26
410.733	323.92
410.941	270.67
411.15	377.17
411.358	340.3
411.567	397.65
411.775	350.54
411.984	463.18
412.192	440.65
412.401	368.98
412.609	479.57
412.818	463.18
413.026	438.61
413.234	534.86
413.443	508.24
413.651	516.43
413.86	588.11
414.068	600.4
414.276	592.2
414.485	547.15
414.693	635.21
414.901	627.02
415.11	655.69
415.318	620.88
415.526	692.55
415.734	659.79
415.943	842.06
416.151	788.81
416.359	727.37
416.567	782.67
416.776	872.78
416.984	973.13
417.192	952.65
417.4	942.41
417.608	909.64
417.817	1085.76
418.025	1069.38
418.233	1235.27
418.441	1184.07
418.649	1098.05
418.857	1270.08
419.065	1216.83
419.273	1200.45
419.481	1272.13
419.689	1286.47
419.897	1462.59
420.105	1354.05
420.313	1462.59
420.521	1577.28
420.729	1595.71
420.937	1560.89
421.145	1728.83
421.353	1812.79
421.561	1907
421.769	1798.46
421.977	2017.59
422.185	2048.31
422.393	2058.55
422.601	2068.79
422.809	2167.09
423.017	2244.92
423.224	2296.11
423.432	2363.7
423.64	2306.35
423.848	2576.69
424.056	2599.21
424.263	2658.6
424.471	2785.58
424.679	2857.26
424.887	2945.32
425.094	3033.38
425.302	3021.1
425.51	3252.52
425.718	3303.71
425.925	3336.48
426.133	3361.06
426.341	3572
426.548	3871
426.756	3698.97
426.964	3772.7
427.171	4071.7
427.379	4210.97
427.586	4165.91
427.794	4333.84
428.001	4546.83
428.209	4788.49
428.417	4704.53
428.624	5093.64
428.832	5054.73
429.039	4907.27
429.247	4952.33
429.454	5458.18
429.662	5843.2
429.869	5415.17
430.076	5839.1
430.284	5724.41
430.491	5871.87
430.699	6203.64
430.906	6172.92
431.114	6062.33
431.321	6381.81
431.528	6715.63
431.736	6977.77
431.943	7323.88
432.15	7102.7
432.358	7225.58
432.565	7704.8
432.772	7526.63
432.979	7901.4
433.187	8212.7
433.394	8124.63
433.601	8687.82
433.808	8706.26
434.016	8665.3
434.223	9181.39
434.43	9586.88
434.637	9216.2
434.844	9883.84
435.052	10162.36
435.259	10033.34
435.466	10207.42
435.673	9785.54
435.88	10893.49
436.087	11497.64
436.294	11264.17
436.501	11161.77
436.708	11303.08
436.915	11737.25
437.122	12339.35
437.329	12386.46
437.537	12413.08
437.743	12693.65
437.95	12710.04
438.157	13289.61
438.364	13901.95
438.571	13539.46
438.778	13830.27
438.985	15073.39
439.192	14522.49
439.399	15093.87
439.606	14708.85
439.813	15573.1
440.02	16455.77
440.227	16033.89
440.433	15872.1
440.64	16672.85
440.847	16425.05
441.054	16742.49
441.261	17737.8
441.467	17502.28
441.674	18237.5
441.881	18479.16
442.088	18534.46
442.294	18489.4
442.501	18851.89
442.708	19126.32
442.914	19922.98
443.121	20920.34
443.328	20256.8
443.534	21579.79
443.741	21073.94
443.948	20908.05
444.154	22374.4
444.361	22202.37
444.568	22329.34
444.774	22421.5
444.981	22632.44
445.187	23306.23
445.394	24287.2
445.6	23877.61
445.807	25989.06
446.013	24993.75
446.22	25470.93
446.426	26423.23
446.633	26550.21
446.839	27377.59
447.046	26578.88
447.252	27709.36
447.459	27953.07
447.665	27740.08
447.871	29052.83
448.078	30371.72
448.284	28663.71
448.491	29704.08
448.697	30738.3
448.903	31487.86
449.11	31158.14
449.316	30363.53
449.522	31199.1
449.728	31752.05
449.935	32173.93
450.141	32288.62
450.347	32935.77
450.553	31793.01
450.76	32245.61
450.966	32792.42
451.172	32771.94
451.378	33402.71
451.584	33371.99
451.791	33560.41
451.997	33390.42
452.203	34260.81
452.409	33838.93
452.615	33748.82
452.821	32628.58
453.027	32200.55
453.233	33974.09
453.44	32405.35
453.646	32964.45
453.852	32886.62
454.058	33154.91
454.264	32079.72
454.47	32864.1
454.676	32331.62
454.882	33318.74
455.088	30427.01
455.294	30740.35
455.5	31334.26
455.705	31678.32
455.911	30361.48
456.117	29890.45
456.323	29079.45
456.529	27684.78
456.735	28669.86
456.941	27926.44
457.147	27676.59
457.352	26623.94
457.558	26320.84
457.764	26621.89
457.97	26083.27
458.176	25630.67
458.381	25378.77
458.587	24367.07
458.793	24127.46
458.999	23039.99
459.204	24627.17
459.41	23674.86
459.616	22130.69
459.821	22224.9
460.027	22030.34
460.233	21762.06
460.438	20693.02
460.644	20828.18
460.85	19996.71
461.055	19767.34
461.261	19449.9
461.466	18096.19
461.672	17424.46
461.878	18890.81
462.083	17823.81
462.289	17291.34
462.494	16896.08
462.7	16480.35
462.905	15990.88
463.111	16689.24
463.316	16705.62
463.522	16185.44
463.727	16406.62
463.932	16048.22
464.138	15806.56
464.343	16152.67
464.549	15663.21
464.754	16240.73
464.959	16015.46
465.165	15691.88
465.37	15212.65
465.575	14852.21
465.781	15513.7
465.986	15450.22
466.191	15147.12
466.397	14671.99
466.602	13899.91
466.807	14690.42
467.012	14551.16
467.218	14436.47
467.423	14198.91
467.628	14370.94
467.833	14891.12
468.038	14393.47
468.244	14088.32
