Data from USB4F104151__272__10-40-48-622.txt Node

Date: Wed Mar 12 10:40:48 EDT 2025
User: louis
Spectrometer: USB4F10415
Trigger mode: 4
Integration Time (sec): 3.000000E-2
Scans to average: 1
Electric dark correction enabled: true
Nonlinearity correction enabled: false
Boxcar width: 0
XAxis mode: Wavelengths
Number of Pixels in Spectrum: 3648
>>>>>Begin Spectral Data<<<<<
178.204	-201.21
178.424	-201.21
178.644	-201.21
178.864	-90.62
179.084	-113.15
179.304	-25.09
179.524	-23.04
179.744	40.45
179.964	-18.94
180.184	56.83
180.404	3.58
180.624	19.97
180.844	-76.29
181.064	-23.04
181.283	38.4
181.503	-18.94
181.723	26.11
181.943	42.5
182.163	-0.51
182.383	-88.57
182.602	87.55
182.822	48.64
183.042	13.82
183.262	50.69
183.482	-43.52
183.701	22.02
183.921	60.93
184.141	-72.19
184.361	48.64
184.58	65.02
184.8	30.21
185.02	-20.99
185.239	36.35
185.459	-10.75
185.679	24.06
185.898	-2.56
186.118	77.31
186.338	-82.43
186.557	52.74
186.777	-25.09
186.997	-29.18
187.216	-6.66
187.436	34.3
187.655	42.5
187.875	-31.23
188.095	24.06
188.314	56.83
188.534	62.98
188.753	40.45
188.973	58.88
189.192	91.65
189.412	56.83
189.631	-2.56
189.851	120.32
190.07	87.55
190.29	40.45
190.509	-16.9
190.729	11.78
190.948	30.21
191.168	58.88
191.387	65.02
191.607	17.92
191.826	17.92
192.045	36.35
192.265	7.68
192.484	32.26
192.704	-0.51
192.923	7.68
193.142	34.3
193.362	24.06
193.581	38.4
193.8	93.69
194.02	15.87
194.239	28.16
194.458	52.74
194.678	46.59
194.897	52.74
195.116	44.54
195.335	30.21
195.555	40.45
195.774	56.83
195.993	95.74
196.212	7.68
196.432	-25.09
196.651	-2.56
196.87	34.3
197.089	75.26
197.308	9.73
197.528	13.82
197.747	-8.7
197.966	1.54
198.185	58.88
198.404	1.54
198.623	-2.56
198.842	48.64
199.062	7.68
199.281	67.07
199.5	69.12
199.719	44.54
199.938	-29.18
200.157	17.92
200.376	85.5
200.595	52.74
200.814	30.21
201.033	-4.61
201.252	24.06
201.471	52.74
201.69	71.17
201.909	11.78
202.128	50.69
202.347	69.12
202.566	89.6
202.785	-16.9
203.004	71.17
203.223	56.83
203.442	-31.23
203.661	7.68
203.879	-33.28
204.098	19.97
204.317	-10.75
204.536	-12.8
204.755	52.74
204.974	52.74
205.193	-20.99
205.411	40.45
205.63	34.3
205.849	-45.57
206.068	-2.56
206.287	40.45
206.505	56.83
206.724	-2.56
206.943	26.11
207.162	46.59
207.381	7.68
207.599	140.8
207.818	-68.09
208.037	-25.09
208.255	11.78
208.474	15.87
208.693	56.83
208.911	19.97
209.13	62.98
209.349	95.74
209.567	56.83
209.786	32.26
210.005	9.73
210.223	65.02
210.442	48.64
210.661	73.21
210.879	15.87
211.098	-27.14
211.316	24.06
211.535	48.64
211.753	-23.04
211.972	-0.51
212.191	-4.61
212.409	-10.75
212.628	30.21
212.846	36.35
213.065	58.88
213.283	112.13
213.502	19.97
213.72	13.82
213.938	13.82
214.157	3.58
214.375	110.08
214.594	7.68
214.812	30.21
215.031	-4.61
215.249	-51.71
215.467	62.98
215.686	89.6
215.904	46.59
216.122	58.88
216.341	17.92
216.559	-39.42
216.778	-29.18
216.996	89.6
217.214	19.97
217.432	15.87
217.651	-80.38
217.869	56.83
218.087	73.21
218.306	40.45
218.524	42.5
218.742	38.4
218.96	103.93
219.179	48.64
219.397	7.68
219.615	19.97
219.833	7.68
220.051	-29.18
220.27	-25.09
220.488	65.02
220.706	42.5
220.924	36.35
221.142	48.64
221.36	38.4
221.578	30.21
221.796	-4.61
222.015	85.5
222.233	46.59
222.451	40.45
222.669	56.83
222.887	15.87
223.105	19.97
223.323	-6.66
223.541	11.78
223.759	30.21
223.977	75.26
224.195	105.98
224.413	36.35
224.631	77.31
224.849	48.64
225.067	48.64
225.285	19.97
225.503	40.45
225.721	-78.33
225.939	56.83
226.157	-2.56
226.375	30.21
226.592	26.11
226.81	-47.62
227.028	-49.66
227.246	103.93
227.464	5.63
227.682	34.3
227.9	17.92
228.117	46.59
228.335	54.78
228.553	7.68
228.771	44.54
228.989	83.45
229.206	11.78
229.424	30.21
229.642	89.6
229.86	-27.14
230.077	-0.51
230.295	99.84
230.513	34.3
230.731	58.88
230.948	44.54
231.166	56.83
231.384	-25.09
231.601	36.35
231.819	46.59
232.037	-10.75
232.254	-16.9
232.472	52.74
232.689	-6.66
232.907	97.79
233.125	48.64
233.342	28.16
233.56	19.97
233.777	32.26
233.995	32.26
234.213	75.26
234.43	-4.61
234.648	48.64
234.865	-8.7
235.083	69.12
235.3	87.55
235.518	3.58
235.735	34.3
235.953	60.93
236.17	15.87
236.388	30.21
236.605	24.06
236.822	60.93
237.04	40.45
237.257	30.21
237.475	-8.7
237.692	13.82
237.909	-12.8
238.127	28.16
238.344	-0.51
238.562	73.21
238.779	-0.51
238.996	44.54
239.214	28.16
239.431	62.98
239.648	-10.75
239.865	26.11
240.083	38.4
240.3	28.16
240.517	-4.61
240.735	13.82
240.952	87.55
241.169	17.92
241.386	30.21
241.603	32.26
241.821	-20.99
242.038	46.59
242.255	32.26
242.472	7.68
242.689	79.36
242.907	87.55
243.124	7.68
243.341	30.21
243.558	11.78
243.775	60.93
243.992	26.11
244.209	-10.75
244.426	36.35
244.643	42.5
244.86	17.92
245.078	-12.8
245.295	75.26
245.512	48.64
245.729	-2.56
245.946	77.31
246.163	-25.09
246.38	54.78
246.597	24.06
246.814	-4.61
247.031	24.06
247.248	11.78
247.464	28.16
247.681	5.63
247.898	42.5
248.115	3.58
248.332	28.16
248.549	83.45
248.766	58.88
248.983	-2.56
249.2	30.21
249.417	62.98
249.633	122.37
249.85	83.45
250.067	42.5
250.284	11.78
250.501	26.11
250.717	46.59
250.934	48.64
251.151	30.21
251.368	15.87
251.585	46.59
251.801	-6.66
252.018	-61.95
252.235	44.54
252.451	-16.9
252.668	77.31
252.885	11.78
253.102	52.74
253.318	60.93
253.535	17.92
253.752	60.93
253.968	79.36
254.185	-23.04
254.401	-37.38
254.618	69.12
254.835	71.17
255.051	36.35
255.268	-27.14
255.484	85.5
255.701	65.02
255.917	13.82
256.134	48.64
256.351	7.68
256.567	44.54
256.784	30.21
257	-47.62
257.217	28.16
257.433	3.58
257.65	89.6
257.866	22.02
258.082	28.16
258.299	60.93
258.515	34.3
258.732	89.6
258.948	52.74
259.165	32.26
259.381	7.68
259.597	-39.42
259.814	67.07
260.03	3.58
260.246	-23.04
260.463	32.26
260.679	-0.51
260.895	-10.75
261.112	32.26
261.328	58.88
261.544	-23.04
261.761	85.5
261.977	13.82
262.193	9.73
262.409	-6.66
262.626	-14.85
262.842	67.07
263.058	-25.09
263.274	62.98
263.49	44.54
263.707	38.4
263.923	65.02
264.139	11.78
264.355	11.78
264.571	85.5
264.787	-20.99
265.004	-8.7
265.22	-8.7
265.436	17.92
265.652	44.54
265.868	73.21
266.084	56.83
266.3	17.92
266.516	-43.52
266.732	32.26
266.948	69.12
267.164	11.78
267.38	22.02
267.596	5.63
267.812	34.3
268.028	13.82
268.244	-2.56
268.46	30.21
268.676	3.58
268.892	38.4
269.108	95.74
269.324	15.87
269.54	-43.52
269.756	26.11
269.972	7.68
270.188	-20.99
270.403	-57.86
270.619	28.16
270.835	-10.75
271.051	-6.66
271.267	-6.66
271.483	60.93
271.698	-23.04
271.914	79.36
272.13	42.5
272.346	32.26
272.562	34.3
272.777	95.74
272.993	36.35
273.209	32.26
273.425	-37.38
273.64	50.69
273.856	42.5
274.072	-0.51
274.287	-4.61
274.503	-47.62
274.719	77.31
274.934	11.78
275.15	67.07
275.366	-8.7
275.581	56.83
275.797	-0.51
276.012	62.98
276.228	-25.09
276.444	30.21
276.659	36.35
276.875	40.45
277.09	-78.33
277.306	50.69
277.521	99.84
277.737	62.98
277.952	132.61
278.168	3.58
278.383	28.16
278.599	15.87
278.814	89.6
279.03	-14.85
279.245	38.4
279.461	69.12
279.676	44.54
279.892	-12.8
280.107	-14.85
280.322	38.4
280.538	15.87
280.753	30.21
280.969	-0.51
281.184	24.06
281.399	114.17
281.615	69.12
281.83	56.83
282.045	19.97
282.26	54.78
282.476	24.06
282.691	30.21
282.906	69.12
283.122	60.93
283.337	24.06
283.552	58.88
283.767	7.68
283.983	40.45
284.198	52.74
284.413	60.93
284.628	1.54
284.843	24.06
285.058	38.4
285.274	60.93
285.489	-27.14
285.704	120.32
285.919	95.74
286.134	-8.7
286.349	19.97
286.564	26.11
286.779	26.11
286.995	-23.04
287.21	40.45
287.425	11.78
287.64	-10.75
287.855	-35.33
288.07	-10.75
288.285	120.32
288.5	85.5
288.715	83.45
288.93	38.4
289.145	24.06
289.36	13.82
289.575	56.83
289.79	58.88
290.004	-23.04
290.219	22.02
290.434	15.87
290.649	13.82
290.864	24.06
291.079	7.68
291.294	81.41
291.509	11.78
291.724	28.16
291.938	36.35
292.153	-18.94
292.368	-4.61
292.583	56.83
292.798	13.82
293.012	48.64
293.227	26.11
293.442	-57.86
293.657	54.78
293.871	54.78
294.086	40.45
294.301	116.22
294.516	32.26
294.73	-20.99
294.945	-10.75
295.16	22.02
295.374	7.68
295.589	73.21
295.804	-10.75
296.018	40.45
296.233	58.88
296.447	60.93
296.662	54.78
296.877	22.02
297.091	11.78
297.306	42.5
297.52	-18.94
297.735	93.69
297.949	-14.85
298.164	50.69
298.378	58.88
298.593	58.88
298.807	60.93
299.022	56.83
299.236	19.97
299.451	-18.94
299.665	48.64
299.88	85.5
300.094	1.54
300.309	28.16
300.523	-18.94
300.737	-4.61
300.952	-16.9
301.166	19.97
301.381	-2.56
301.595	93.69
301.809	3.58
302.024	-4.61
302.238	73.21
302.452	38.4
302.667	-2.56
302.881	11.78
303.095	50.69
303.309	5.63
303.524	71.17
303.738	81.41
303.952	62.98
304.166	30.21
304.381	13.82
304.595	69.12
304.809	79.36
305.023	38.4
305.237	56.83
305.452	46.59
305.666	15.87
305.88	56.83
306.094	30.21
306.308	54.78
306.522	9.73
306.736	60.93
306.95	11.78
307.164	22.02
307.379	15.87
307.593	73.21
307.807	19.97
308.021	62.98
308.235	52.74
308.449	-27.14
308.663	28.16
308.877	34.3
309.091	32.26
309.305	60.93
309.519	40.45
309.733	85.5
309.947	48.64
310.161	38.4
310.374	85.5
310.588	50.69
310.802	67.07
311.016	58.88
311.23	32.26
311.444	15.87
311.658	95.74
311.872	122.37
312.085	85.5
312.299	28.16
312.513	-12.8
312.727	54.78
312.941	-45.57
313.154	60.93
313.368	19.97
313.582	13.82
313.796	5.63
314.009	-12.8
314.223	134.65
314.437	22.02
314.651	48.64
314.864	65.02
315.078	52.74
315.292	13.82
315.505	11.78
315.719	73.21
315.933	56.83
316.146	9.73
316.36	79.36
316.573	40.45
316.787	50.69
317.001	48.64
317.214	9.73
317.428	17.92
317.641	28.16
317.855	110.08
318.068	-31.23
318.282	99.84
318.495	103.93
318.709	32.26
318.922	62.98
319.136	9.73
319.349	32.26
319.563	-25.09
319.776	36.35
319.99	26.11
320.203	73.21
320.417	69.12
320.63	79.36
320.843	73.21
321.057	17.92
321.27	-2.56
321.483	44.54
321.697	26.11
321.91	42.5
322.124	65.02
322.337	48.64
322.55	83.45
322.763	36.35
322.977	69.12
323.19	65.02
323.403	65.02
323.617	99.84
323.83	69.12
324.043	44.54
324.256	19.97
324.469	71.17
324.683	65.02
324.896	50.69
325.109	24.06
325.322	-27.14
325.535	58.88
325.748	110.08
325.962	79.36
326.175	73.21
326.388	36.35
326.601	56.83
326.814	-10.75
327.027	65.02
327.24	101.89
327.453	-59.9
327.666	60.93
327.879	32.26
328.092	28.16
328.305	44.54
328.518	-16.9
328.731	13.82
328.944	44.54
329.157	-20.99
329.37	52.74
329.583	91.65
329.796	50.69
330.009	32.26
330.222	60.93
330.435	97.79
330.648	-4.61
330.861	95.74
331.073	48.64
331.286	-20.99
331.499	69.12
331.712	-57.86
331.925	48.64
332.138	93.69
332.35	89.6
332.563	-0.51
332.776	83.45
332.989	67.07
333.202	-12.8
333.414	79.36
333.627	50.69
333.84	36.35
334.053	54.78
334.265	9.73
334.478	46.59
334.691	67.07
334.903	89.6
335.116	15.87
335.329	71.17
335.541	69.12
335.754	171.52
335.966	-2.56
336.179	60.93
336.392	3.58
336.604	69.12
336.817	142.85
337.029	67.07
337.242	-82.43
337.454	36.35
337.667	65.02
337.88	122.37
338.092	54.78
338.305	52.74
338.517	-4.61
338.729	5.63
338.942	46.59
339.154	28.16
339.367	24.06
339.579	75.26
339.792	19.97
340.004	65.02
340.217	36.35
340.429	11.78
340.641	-23.04
340.854	62.98
341.066	50.69
341.278	81.41
341.491	-41.47
341.703	105.98
341.915	60.93
342.128	50.69
342.34	101.89
342.552	38.4
342.764	101.89
342.977	-2.56
343.189	38.4
343.401	-33.28
343.613	-0.51
343.826	54.78
344.038	56.83
344.25	19.97
344.462	32.26
344.674	122.37
344.886	62.98
345.099	46.59
345.311	54.78
345.523	134.65
345.735	13.82
345.947	30.21
346.159	110.08
346.371	103.93
346.583	110.08
346.795	85.5
347.007	65.02
347.219	44.54
347.431	75.26
347.643	108.03
347.855	-0.51
348.067	65.02
348.279	-4.61
348.491	46.59
348.703	134.65
348.915	67.07
349.127	19.97
349.339	75.26
349.551	5.63
349.763	126.46
349.975	-20.99
350.187	40.45
350.399	65.02
350.61	77.31
350.822	40.45
351.034	40.45
351.246	73.21
351.458	-16.9
351.669	36.35
351.881	40.45
352.093	54.78
352.305	24.06
352.517	69.12
352.728	87.55
352.94	48.64
353.152	3.58
353.363	-33.28
353.575	118.27
353.787	105.98
353.999	62.98
354.21	97.79
354.422	3.58
354.633	22.02
354.845	75.26
355.057	28.16
355.268	81.41
355.48	79.36
355.692	52.74
355.903	42.5
356.115	83.45
356.326	-2.56
356.538	89.6
356.749	32.26
356.961	62.98
357.172	56.83
357.384	99.84
357.595	114.17
357.807	11.78
358.018	91.65
358.23	-10.75
358.441	112.13
358.653	95.74
358.864	62.98
359.075	19.97
359.287	52.74
359.498	32.26
359.709	28.16
359.921	7.68
360.132	26.11
360.344	-25.09
360.555	15.87
360.766	87.55
360.977	7.68
361.189	81.41
361.4	22.02
361.611	122.37
361.823	97.79
362.034	46.59
362.245	7.68
362.456	44.54
362.667	5.63
362.879	28.16
363.09	44.54
363.301	69.12
363.512	17.92
363.723	65.02
363.935	40.45
364.146	60.93
364.357	36.35
364.568	69.12
364.779	17.92
364.99	130.56
365.201	3.58
365.412	97.79
365.623	65.02
365.834	52.74
366.045	75.26
366.256	36.35
366.467	93.69
366.678	48.64
366.889	19.97
367.1	-27.14
367.311	69.12
367.522	56.83
367.733	93.69
367.944	44.54
368.155	91.65
368.366	62.98
368.577	114.17
368.788	83.45
368.999	-2.56
369.209	73.21
369.42	85.5
369.631	151.04
369.842	134.65
370.053	77.31
370.264	32.26
370.474	40.45
370.685	11.78
370.896	65.02
371.107	11.78
371.317	75.26
371.528	48.64
371.739	126.46
371.95	134.65
372.16	26.11
372.371	17.92
372.582	77.31
372.792	97.79
373.003	85.5
373.214	77.31
373.424	81.41
373.635	52.74
373.846	196.09
374.056	65.02
374.267	77.31
374.477	75.26
374.688	97.79
374.898	-12.8
375.109	116.22
375.319	24.06
375.53	126.46
375.74	65.02
375.951	112.13
376.161	60.93
376.372	148.99
376.582	40.45
376.793	36.35
377.003	42.5
377.214	32.26
377.424	77.31
377.635	56.83
377.845	65.02
378.055	28.16
378.266	9.73
378.476	15.87
378.686	126.46
378.897	56.83
379.107	60.93
379.317	1.54
379.528	19.97
379.738	91.65
379.948	3.58
380.158	89.6
380.369	81.41
380.579	99.84
380.789	58.88
380.999	177.66
381.21	110.08
381.42	69.12
381.63	28.16
381.84	95.74
382.05	85.5
382.261	83.45
382.471	65.02
382.681	105.98
382.891	101.89
383.101	40.45
383.311	-14.85
383.521	48.64
383.731	81.41
383.941	69.12
384.151	112.13
384.361	7.68
384.571	48.64
384.781	3.58
384.991	126.46
385.201	105.98
385.411	83.45
385.621	130.56
385.831	44.54
386.041	183.81
386.251	87.55
386.461	3.58
386.671	112.13
386.881	44.54
387.091	-2.56
387.301	97.79
387.511	15.87
387.72	97.79
387.93	32.26
388.14	5.63
388.35	79.36
388.56	79.36
388.769	75.26
388.979	77.31
389.189	105.98
389.399	38.4
389.609	155.13
389.818	87.55
390.028	40.45
390.238	52.74
390.447	101.89
390.657	93.69
390.867	28.16
391.076	22.02
391.286	17.92
391.496	114.17
391.705	73.21
391.915	93.69
392.125	89.6
392.334	95.74
392.544	93.69
392.753	65.02
392.963	122.37
393.172	114.17
393.382	69.12
393.591	91.65
393.801	71.17
394.01	151.04
394.22	130.56
394.429	112.13
394.639	15.87
394.848	103.93
395.058	89.6
395.267	62.98
395.477	142.85
395.686	75.26
395.895	146.94
396.105	179.71
396.314	17.92
396.524	95.74
396.733	142.85
396.942	153.09
397.152	210.43
397.361	136.7
397.57	151.04
397.78	124.41
397.989	97.79
398.198	249.34
398.407	126.46
398.617	151.04
398.826	171.52
399.035	185.85
399.244	183.81
399.453	157.18
399.663	177.66
399.872	112.13
400.081	75.26
400.29	196.09
400.499	97.79
400.708	77.31
400.917	81.41
401.127	249.34
401.336	118.27
401.545	212.48
401.754	44.54
401.963	173.57
402.172	120.32
402.381	206.33
402.59	89.6
402.799	175.61
403.008	116.22
403.217	134.65
403.426	124.41
403.635	163.33
403.844	155.13
404.053	83.45
404.262	126.46
404.471	243.2
404.68	202.24
404.888	136.7
405.097	122.37
405.306	228.86
405.515	157.18
405.724	200.19
405.933	218.62
406.142	169.47
406.35	286.2
406.559	220.67
406.768	288.25
406.977	302.59
407.185	206.33
407.394	294.4
407.603	218.62
407.812	239.1
408.02	257.53
408.229	296.44
408.438	302.59
408.646	331.26
408.855	327.16
409.064	327.16
409.272	310.78
409.481	318.97
409.69	392.7
409.898	323.07
410.107	425.47
410.315	409.08
410.524	357.88
410.733	429.56
410.941	486.9
411.15	486.9
411.358	495.1
411.567	540.15
411.775	540.15
411.984	531.96
412.192	546.3
412.401	605.69
412.609	669.17
412.818	638.45
413.026	642.55
413.234	634.36
413.443	687.61
413.651	695.8
413.86	706.04
414.068	763.38
414.276	800.24
414.485	802.29
414.693	855.54
414.901	953.84
415.11	847.35
415.318	880.11
415.526	1033.71
415.734	1007.09
415.943	1023.47
416.151	1043.95
416.359	1048.05
416.567	1070.58
416.776	1199.6
416.984	1277.42
417.192	1297.9
417.4	1273.32
417.608	1324.52
417.817	1439.21
418.025	1418.73
418.233	1457.64
418.441	1422.83
418.649	1484.27
418.857	1781.22
419.065	1701.35
419.273	1732.07
419.481	1813.99
419.689	1916.39
419.897	2043.36
420.105	2059.74
420.313	2063.84
420.521	2067.94
420.729	2196.96
420.937	2313.69
421.145	2227.68
421.353	2514.39
421.561	2594.26
421.769	2708.95
421.977	2749.91
422.185	2747.86
422.393	2946.52
422.601	3151.31
422.809	2985.43
423.017	3010
423.224	3247.57
423.432	3249.61
423.64	3374.54
423.848	3657.16
424.056	3581.39
424.263	3681.74
424.471	3864.01
424.679	3964.36
424.887	3974.6
425.094	4201.92
425.302	4312.51
425.51	4455.87
425.718	4554.17
425.925	4660.66
426.133	4756.92
426.341	5023.16
426.548	5303.73
426.756	5361.07
426.964	5373.36
427.171	5588.39
427.379	5817.77
427.586	5987.75
427.794	6032.8
428.001	6370.72
428.209	6636.95
428.417	6530.46
428.624	6942.1
428.832	7024.02
429.039	6919.57
429.247	6944.15
429.454	7568.78
429.662	8187.27
429.869	7525.77
430.076	8111.49
430.284	7806.34
430.491	8185.22
430.699	8760.7
430.906	8793.47
431.114	9065.85
431.321	9270.64
431.528	9399.66
431.736	9987.43
431.943	10255.72
432.15	10075.49
432.358	10157.41
432.565	10773.85
432.772	10831.19
432.979	11277.65
433.187	11601.23
433.394	11439.44
433.601	12250.44
433.808	12301.64
434.016	12209.48
434.223	12750.14
434.43	13688.11
434.637	13395.25
434.844	14169.38
435.052	14361.89
435.259	14427.43
435.466	14441.76
435.673	14228.77
435.88	15162.65
436.087	16194.82
436.294	16030.99
436.501	15983.88
436.708	16110.86
436.915	16618.75
437.122	17165.56
437.329	17233.15
437.537	17745.14
437.743	18150.64
437.95	18021.61
438.157	19018.97
438.364	19614.93
438.571	19227.87
438.778	19569.88
438.985	21521.59
439.192	20647.11
439.399	21116.09
439.606	20724.93
439.813	22144.17
440.02	23237.79
440.227	22834.34
440.433	22668.45
440.64	23368.86
440.847	23209.12
441.054	23962.77
441.261	25379.96
441.467	25175.17
441.674	25922.68
441.881	26811.49
442.088	26340.46
442.294	26041.46
442.501	27249.76
442.708	27419.74
442.914	28828.74
443.121	29901.88
443.328	29238.34
443.534	31112.23
443.741	30350.38
443.948	29568.06
444.154	32144.41
444.361	31970.33
444.568	31941.66
444.774	32183.32
444.981	32453.65
445.187	33238.02
445.394	34888.68
445.6	34270.2
445.807	37428.16
446.013	35910.62
446.22	36484.05
446.426	37938.11
446.633	38142.91
446.839	39689.12
447.046	38032.32
447.252	39738.27
447.459	39953.31
447.665	39707.55
447.871	41669.51
448.078	42795.89
448.284	40774.55
448.491	42255.23
448.697	43602.79
448.903	44718.93
449.11	44651.35
449.316	43348.84
449.522	44854.1
449.728	45888.32
449.935	46043.97
450.141	46050.11
450.347	47205.17
450.553	45198.16
450.76	46015.3
450.966	47434.54
451.172	46863.16
451.378	47919.91
451.584	46865.2
451.791	48096.03
451.997	48042.79
452.203	48569.11
452.409	48468.76
452.615	48378.65
452.821	46682.94
453.027	45458.25
453.233	48356.13
453.44	46400.32
453.646	47047.47
453.852	46908.21
454.058	47571.75
454.264	45929.28
454.47	47287.09
454.676	46158.66
454.882	47377.2
455.088	43346.79
455.294	44026.72
455.5	44157.79
455.705	45114.19
455.911	43467.62
456.117	42257.28
456.323	41773.95
456.529	39297.96
456.735	40919.95
456.941	40035.23
457.147	39365.54
457.352	38042.56
457.558	37970.88
457.764	37675.97
457.97	37043.15
458.176	36357.08
458.381	36694.99
458.587	34587.63
458.793	34448.37
458.999	33072.14
459.204	35320.81
459.41	33913.85
459.616	31978.52
459.821	31796.25
460.027	31441.95
460.233	30940.2
460.438	29236.29
460.644	29807.67
460.85	28517.45
461.055	28136.53
461.261	27964.5
461.466	25889.91
461.672	25228.42
461.878	27196.51
462.083	25091.2
462.289	24702.09
462.494	24695.94
462.7	23489.69
462.905	22940.83
463.111	23927.95
463.316	23907.48
463.522	23340.19
463.727	23260.32
463.932	23340.19
464.138	22916.26
464.343	23348.38
464.549	22531.24
464.754	23258.27
464.959	23192.73
465.165	22711.46
465.37	21982.38
465.575	21112
465.781	22068.4
465.986	22500.52
466.191	21595.32
466.397	21007.55
466.602	20415.69
466.807	20782.27
467.012	20980.93
