Data from USB4F104151__298__10-43-22-805.txt Node

Date: Wed Mar 12 10:43:22 EDT 2025
User: louis
Spectrometer: USB4F10415
Trigger mode: 4
Integration Time (sec): 3.000000E-2
Scans to average: 1
Electric dark correction enabled: true
Nonlinearity correction enabled: false
Boxcar width: 0
XAxis mode: Wavelengths
Number of Pixels in Spectrum: 3648
>>>>>Begin Spectral Data<<<<<
178.204	-105.3
178.424	-105.3
178.644	-105.3
178.864	-146.26
179.084	-127.83
179.304	-35.67
179.524	-33.62
179.744	-37.72
179.964	54.44
180.184	-19.29
180.404	85.16
180.624	-39.76
180.844	111.78
181.064	-50
181.283	48.3
181.503	-107.35
181.723	23.72
181.943	-35.67
182.163	76.97
182.383	-43.86
182.602	62.63
182.822	60.59
183.042	50.35
183.262	-27.48
183.482	46.25
183.701	-60.24
183.921	42.15
184.141	-2.9
184.361	97.45
184.58	66.73
184.8	33.96
185.02	33.96
185.239	70.83
185.459	-0.85
185.679	97.45
185.898	-15.19
186.118	50.35
186.338	-9.05
186.557	93.35
186.777	40.11
186.997	-31.57
187.216	25.77
187.436	48.3
187.655	54.44
187.875	13.48
188.095	-17.24
188.314	36.01
188.534	-23.38
188.753	87.21
188.973	19.63
189.192	27.82
189.412	33.96
189.631	3.24
189.851	-0.85
190.07	36.01
190.29	62.63
190.509	29.87
190.729	9.39
190.948	5.29
191.168	138.41
191.387	99.5
191.607	-11.09
191.826	15.53
192.045	33.96
192.265	15.53
192.484	-80.72
192.704	25.77
192.923	-0.85
193.142	140.46
193.362	58.54
193.581	48.3
193.8	-39.76
194.02	66.73
194.239	-23.38
194.458	72.87
194.678	68.78
194.897	21.67
195.116	1.19
195.335	11.43
195.555	40.11
195.774	-0.85
195.993	54.44
196.212	21.67
196.432	95.4
196.651	40.11
196.87	23.72
197.089	54.44
197.308	38.06
197.528	31.91
197.747	15.53
197.966	29.87
198.185	64.68
198.404	1.19
198.623	13.48
198.842	-4.95
199.062	23.72
199.281	21.67
199.5	5.29
199.719	50.35
199.938	1.19
200.157	-37.72
200.376	19.63
200.595	91.31
200.814	132.26
201.033	-15.19
201.252	85.16
201.471	40.11
201.69	-0.85
201.909	99.5
202.128	-2.9
202.347	132.26
202.566	87.21
202.785	-4.95
203.004	5.29
203.223	103.59
203.442	44.2
203.661	60.59
203.879	52.39
204.098	40.11
204.317	-7
204.536	44.2
204.755	-2.9
204.974	5.29
205.193	15.53
205.411	81.07
205.63	-2.9
205.849	25.77
206.068	64.68
206.287	132.26
206.505	38.06
206.724	5.29
206.943	48.3
207.162	7.34
207.381	-27.48
207.599	9.39
207.818	74.92
208.037	62.63
208.255	-39.76
208.474	1.19
208.693	56.49
208.911	74.92
209.13	162.98
209.349	7.34
209.567	29.87
209.786	89.26
210.005	33.96
210.223	60.59
210.442	-9.05
210.661	87.21
210.879	-11.09
211.098	-138.07
211.316	62.63
211.535	9.39
211.753	52.39
211.972	31.91
212.191	-31.57
212.409	-41.81
212.628	54.44
212.846	23.72
213.065	83.11
213.283	56.49
213.502	31.91
213.72	44.2
213.938	9.39
214.157	27.82
214.375	60.59
214.594	27.82
214.812	36.01
215.031	46.25
215.249	-13.14
215.467	-15.19
215.686	-23.38
215.904	95.4
216.122	36.01
216.341	64.68
216.559	25.77
216.778	31.91
216.996	-11.09
217.214	58.54
217.432	36.01
217.651	50.35
217.869	56.49
218.087	107.69
218.306	-4.95
218.524	13.48
218.742	-66.39
218.96	31.91
219.179	-17.24
219.397	36.01
219.615	-11.09
219.833	29.87
220.051	5.29
220.27	25.77
220.488	23.72
220.706	72.87
220.924	25.77
221.142	81.07
221.36	9.39
221.578	-0.85
221.796	54.44
222.015	83.11
222.233	-0.85
222.451	79.02
222.669	1.19
222.887	58.54
223.105	-74.58
223.323	-29.52
223.541	1.19
223.759	25.77
223.977	62.63
224.195	99.5
224.413	42.15
224.631	70.83
224.849	66.73
225.067	124.07
225.285	9.39
225.503	-9.05
225.721	-9.05
225.939	-60.24
226.157	15.53
226.375	91.31
226.592	5.29
226.81	19.63
227.028	42.15
227.246	54.44
227.464	70.83
227.682	81.07
227.9	46.25
228.117	1.19
228.335	62.63
228.553	-31.57
228.771	5.29
228.989	29.87
229.206	31.91
229.424	-41.81
229.642	-7
229.86	-7
230.077	91.31
230.295	38.06
230.513	91.31
230.731	25.77
230.948	79.02
231.166	48.3
231.384	-33.62
231.601	-11.09
231.819	105.64
232.037	7.34
232.254	29.87
232.472	-4.95
232.689	74.92
232.907	-11.09
233.125	-35.67
233.342	46.25
233.56	-2.9
233.777	38.06
233.995	-9.05
234.213	91.31
234.43	64.68
234.648	52.39
234.865	-11.09
235.083	23.72
235.3	62.63
235.518	119.98
235.735	44.2
235.953	5.29
236.17	-4.95
236.388	25.77
236.605	54.44
236.822	95.4
237.04	23.72
237.257	46.25
237.475	42.15
237.692	58.54
237.909	79.02
238.127	-2.9
238.344	15.53
238.562	60.59
238.779	-56.15
238.996	-27.48
239.214	66.73
239.431	79.02
239.648	27.82
239.865	27.82
240.083	1.19
240.3	5.29
240.517	-0.85
240.735	48.3
240.952	13.48
241.169	58.54
241.386	5.29
241.603	15.53
241.821	-4.95
242.038	54.44
242.255	107.69
242.472	-64.34
242.689	50.35
242.907	68.78
243.124	31.91
243.341	5.29
243.558	-17.24
243.775	38.06
243.992	-39.76
244.209	-17.24
244.426	54.44
244.643	-15.19
244.86	17.58
245.078	46.25
245.295	11.43
245.512	-7
245.729	40.11
245.946	23.72
246.163	21.67
246.38	58.54
246.597	-11.09
246.814	40.11
247.031	58.54
247.248	56.49
247.464	38.06
247.681	42.15
247.898	36.01
248.115	15.53
248.332	38.06
248.549	54.44
248.766	99.5
248.983	29.87
249.2	27.82
249.417	1.19
249.633	-9.05
249.85	-11.09
250.067	-13.14
250.284	64.68
250.501	70.83
250.717	62.63
250.934	17.58
251.151	46.25
251.368	50.35
251.585	60.59
251.801	19.63
252.018	-0.85
252.235	-17.24
252.451	-25.43
252.668	17.58
252.885	95.4
253.102	42.15
253.318	46.25
253.535	-4.95
253.752	54.44
253.968	64.68
254.185	-33.62
254.401	-7
254.618	23.72
254.835	-19.29
255.051	56.49
255.268	23.72
255.484	117.93
255.701	52.39
255.917	33.96
256.134	-7
256.351	-7
256.567	-0.85
256.784	56.49
257	17.58
257.217	68.78
257.433	40.11
257.65	-0.85
257.866	111.78
258.082	-11.09
258.299	-37.72
258.515	33.96
258.732	11.43
258.948	11.43
259.165	25.77
259.381	33.96
259.597	33.96
259.814	68.78
260.03	52.39
260.246	60.59
260.463	38.06
260.679	33.96
260.895	-2.9
261.112	107.69
261.328	81.07
261.544	-23.38
261.761	93.35
261.977	50.35
262.193	9.39
262.409	83.11
262.626	15.53
262.842	-21.33
263.058	-9.05
263.274	85.16
263.49	-7
263.707	68.78
263.923	27.82
264.139	62.63
264.355	36.01
264.571	99.5
264.787	48.3
265.004	40.11
265.22	25.77
265.436	48.3
265.652	38.06
265.868	68.78
266.084	17.58
266.3	33.96
266.516	5.29
266.732	79.02
266.948	29.87
267.164	42.15
267.38	7.34
267.596	21.67
267.812	101.55
268.028	21.67
268.244	79.02
268.46	33.96
268.676	9.39
268.892	7.34
269.108	5.29
269.324	-58.2
269.54	13.48
269.756	76.97
269.972	11.43
270.188	56.49
270.403	25.77
270.619	81.07
270.835	54.44
271.051	-27.48
271.267	23.72
271.483	9.39
271.698	52.39
271.914	58.54
272.13	66.73
272.346	15.53
272.562	27.82
272.777	58.54
272.993	29.87
273.209	9.39
273.425	72.87
273.64	-21.33
273.856	105.64
274.072	33.96
274.287	70.83
274.503	23.72
274.719	109.74
274.934	52.39
275.15	-43.86
275.366	17.58
275.581	-2.9
275.797	21.67
276.012	27.82
276.228	21.67
276.444	76.97
276.659	83.11
276.875	-11.09
277.09	-4.95
277.306	64.68
277.521	58.54
277.737	89.26
277.952	21.67
278.168	-0.85
278.383	89.26
278.599	9.39
278.814	56.49
279.03	52.39
279.245	29.87
279.461	21.67
279.676	27.82
279.892	-74.58
280.107	38.06
280.322	25.77
280.538	93.35
280.753	76.97
280.969	54.44
281.184	54.44
281.399	89.26
281.615	46.25
281.83	95.4
282.045	15.53
282.26	13.48
282.476	76.97
282.691	85.16
282.906	103.59
283.122	46.25
283.337	13.48
283.552	89.26
283.767	33.96
283.983	60.59
284.198	-0.85
284.413	3.24
284.628	52.39
284.843	72.87
285.058	111.78
285.274	58.54
285.489	62.63
285.704	111.78
285.919	33.96
286.134	33.96
286.349	-11.09
286.564	3.24
286.779	40.11
286.995	74.92
287.21	-47.96
287.425	64.68
287.64	-0.85
287.855	56.49
288.07	-15.19
288.285	105.64
288.5	66.73
288.715	95.4
288.93	-37.72
289.145	21.67
289.36	5.29
289.575	-2.9
289.79	-2.9
290.004	48.3
290.219	38.06
290.434	1.19
290.649	58.54
290.864	-4.95
291.079	33.96
291.294	158.89
291.509	33.96
291.724	-11.09
291.938	-37.72
292.153	83.11
292.368	56.49
292.583	-13.14
292.798	5.29
293.012	42.15
293.227	62.63
293.442	66.73
293.657	-7
293.871	91.31
294.086	46.25
294.301	74.92
294.516	42.15
294.73	62.63
294.945	66.73
295.16	27.82
295.374	48.3
295.589	66.73
295.804	21.67
296.018	72.87
296.233	50.35
296.447	56.49
296.662	76.97
296.877	87.21
297.091	17.58
297.306	33.96
297.52	36.01
297.735	64.68
297.949	29.87
298.164	76.97
298.378	-23.38
298.593	31.91
298.807	52.39
299.022	3.24
299.236	76.97
299.451	54.44
299.665	64.68
299.88	23.72
300.094	62.63
300.309	36.01
300.523	15.53
300.737	23.72
300.952	38.06
301.166	-7
301.381	11.43
301.595	13.48
301.809	40.11
302.024	122.02
302.238	42.15
302.452	66.73
302.667	7.34
302.881	60.59
303.095	25.77
303.309	46.25
303.524	64.68
303.738	1.19
303.952	33.96
304.166	74.92
304.381	87.21
304.595	42.15
304.809	76.97
305.023	109.74
305.237	33.96
305.452	54.44
305.666	79.02
305.88	50.35
306.094	66.73
306.308	79.02
306.522	103.59
306.736	17.58
306.95	81.07
307.164	72.87
307.379	50.35
307.593	66.73
307.807	85.16
308.021	79.02
308.235	95.4
308.449	27.82
308.663	-17.24
308.877	140.46
309.091	109.74
309.305	130.22
309.519	-76.63
309.733	56.49
309.947	11.43
310.161	54.44
310.374	-2.9
310.588	70.83
310.802	68.78
311.016	48.3
311.23	79.02
311.444	44.2
311.658	25.77
311.872	40.11
312.085	136.36
312.299	52.39
312.513	97.45
312.727	66.73
312.941	27.82
313.154	21.67
313.368	5.29
313.582	52.39
313.796	124.07
314.009	38.06
314.223	74.92
314.437	74.92
314.651	13.48
314.864	52.39
315.078	54.44
315.292	25.77
315.505	58.54
315.719	91.31
315.933	9.39
316.146	-52.05
316.36	-4.95
316.573	31.91
316.787	46.25
317.001	72.87
317.214	-2.9
317.428	81.07
317.641	15.53
317.855	21.67
318.068	103.59
318.282	70.83
318.495	122.02
318.709	46.25
318.922	7.34
319.136	52.39
319.349	64.68
319.563	29.87
319.776	42.15
319.99	17.58
320.203	109.74
320.417	87.21
320.63	31.91
320.843	91.31
321.057	76.97
321.27	42.15
321.483	48.3
321.697	87.21
321.91	66.73
322.124	85.16
322.337	99.5
322.55	15.53
322.763	87.21
322.977	54.44
323.19	58.54
323.403	76.97
323.617	23.72
323.83	85.16
324.043	9.39
324.256	56.49
324.469	23.72
324.683	138.41
324.896	-0.85
325.109	3.24
325.322	19.63
325.535	48.3
325.748	68.78
325.962	3.24
326.175	17.58
326.388	81.07
326.601	79.02
326.814	-2.9
327.027	21.67
327.24	44.2
327.453	23.72
327.666	101.55
327.879	79.02
328.092	62.63
328.305	36.01
328.518	38.06
328.731	21.67
328.944	46.25
329.157	29.87
329.37	38.06
329.583	42.15
329.796	79.02
330.009	31.91
330.222	76.97
330.435	66.73
330.648	54.44
330.861	58.54
331.073	66.73
331.286	9.39
331.499	83.11
331.712	-33.62
331.925	44.2
332.138	83.11
332.35	33.96
332.563	38.06
332.776	95.4
332.989	66.73
333.202	66.73
333.414	31.91
333.627	19.63
333.84	-19.29
334.053	33.96
334.265	-43.86
334.478	54.44
334.691	-15.19
334.903	29.87
335.116	11.43
335.329	25.77
335.541	58.54
335.754	119.98
335.966	68.78
336.179	23.72
336.392	52.39
336.604	58.54
336.817	93.35
337.029	42.15
337.242	38.06
337.454	87.21
337.667	56.49
337.88	83.11
338.092	58.54
338.305	13.48
338.517	-15.19
338.729	76.97
338.942	64.68
339.154	1.19
339.367	91.31
339.579	72.87
339.792	79.02
340.004	42.15
340.217	7.34
340.429	17.58
340.641	42.15
340.854	21.67
341.066	15.53
341.278	122.02
341.491	91.31
341.703	-35.67
341.915	33.96
342.128	1.19
342.34	87.21
342.552	1.19
342.764	52.39
342.977	-60.24
343.189	58.54
343.401	17.58
343.613	31.91
343.826	38.06
344.038	58.54
344.25	38.06
344.462	19.63
344.674	89.26
344.886	-35.67
345.099	36.01
345.311	72.87
345.523	50.35
345.735	23.72
345.947	46.25
346.159	81.07
346.371	9.39
346.583	-15.19
346.795	79.02
347.007	40.11
347.219	76.97
347.431	124.07
347.643	87.21
347.855	33.96
348.067	74.92
348.279	9.39
348.491	-11.09
348.703	62.63
348.915	-50
349.127	50.35
349.339	74.92
349.551	60.59
349.763	99.5
349.975	60.59
350.187	117.93
350.399	111.78
350.61	42.15
350.822	70.83
351.034	91.31
351.246	115.88
351.458	1.19
351.669	128.17
351.881	13.48
352.093	64.68
352.305	48.3
352.517	48.3
352.728	66.73
352.94	62.63
353.152	64.68
353.363	-19.29
353.575	107.69
353.787	64.68
353.999	40.11
354.21	119.98
354.422	62.63
354.633	56.49
354.845	7.34
355.057	-7
355.268	-23.38
355.48	91.31
355.692	42.15
355.903	48.3
356.115	15.53
356.326	13.48
356.538	167.08
356.749	29.87
356.961	107.69
357.172	29.87
357.384	44.2
357.595	187.56
357.807	42.15
358.018	70.83
358.23	105.64
358.441	58.54
358.653	56.49
358.864	68.78
359.075	83.11
359.287	-33.62
359.498	25.77
359.709	72.87
359.921	66.73
360.132	70.83
360.344	54.44
360.555	36.01
360.766	48.3
360.977	33.96
361.189	56.49
361.4	15.53
361.611	70.83
361.823	3.24
362.034	89.26
362.245	-19.29
362.456	-4.95
362.667	52.39
362.879	-4.95
363.09	48.3
363.301	97.45
363.512	33.96
363.723	70.83
363.935	85.16
364.146	87.21
364.357	72.87
364.568	-0.85
364.779	29.87
364.99	91.31
365.201	46.25
365.412	91.31
365.623	-2.9
365.834	17.58
366.045	64.68
366.256	42.15
366.467	111.78
366.678	42.15
366.889	85.16
367.1	-19.29
367.311	23.72
367.522	66.73
367.733	99.5
367.944	52.39
368.155	111.78
368.366	85.16
368.577	103.59
368.788	36.01
368.999	89.26
369.209	76.97
369.42	85.16
369.631	87.21
369.842	103.59
370.053	148.65
370.264	58.54
370.474	21.67
370.685	31.91
370.896	19.63
371.107	74.92
371.317	103.59
371.528	44.2
371.739	60.59
371.95	109.74
372.16	64.68
372.371	70.83
372.582	-15.19
372.792	85.16
373.003	50.35
373.214	56.49
373.424	48.3
373.635	13.48
373.846	66.73
374.056	62.63
374.267	54.44
374.477	13.48
374.688	48.3
374.898	74.92
375.109	66.73
375.319	17.58
375.53	154.79
375.74	40.11
375.951	31.91
376.161	91.31
376.372	89.26
376.582	25.77
376.793	89.26
377.003	5.29
377.214	56.49
377.424	5.29
377.635	97.45
377.845	54.44
378.055	56.49
378.266	-35.67
378.476	68.78
378.686	74.92
378.897	113.83
379.107	64.68
379.317	109.74
379.528	40.11
379.738	48.3
379.948	81.07
380.158	54.44
380.369	38.06
380.579	21.67
380.789	54.44
380.999	105.64
381.21	48.3
381.42	115.88
381.63	76.97
381.84	74.92
382.05	7.34
382.261	93.35
382.471	177.32
382.681	107.69
382.891	76.97
383.101	7.34
383.311	76.97
383.521	91.31
383.731	68.78
383.941	111.78
384.151	27.82
384.361	33.96
384.571	50.35
384.781	109.74
384.991	89.26
385.201	140.46
385.411	74.92
385.621	103.59
385.831	66.73
386.041	130.22
386.251	9.39
386.461	83.11
386.671	87.21
386.881	91.31
387.091	132.26
387.301	132.26
387.511	42.15
387.72	103.59
387.93	74.92
388.14	70.83
388.35	60.59
388.56	113.83
388.769	38.06
388.979	132.26
389.189	40.11
389.399	111.78
389.609	150.7
389.818	50.35
390.028	58.54
390.238	44.2
390.447	46.25
390.657	101.55
390.867	29.87
391.076	56.49
391.286	76.97
391.496	85.16
391.705	142.5
391.915	66.73
392.125	83.11
392.334	50.35
392.544	11.43
392.753	42.15
392.963	29.87
393.172	158.89
393.382	38.06
393.591	140.46
393.801	70.83
394.01	122.02
394.22	48.3
394.429	81.07
394.639	87.21
394.848	87.21
395.058	179.37
395.267	103.59
395.477	130.22
395.686	130.22
395.895	240.81
396.105	152.74
396.314	124.07
396.524	83.11
396.733	109.74
396.942	105.64
397.152	140.46
397.361	95.4
397.57	54.44
397.78	60.59
397.989	171.18
398.198	167.08
398.407	111.78
398.617	99.5
398.826	119.98
399.035	152.74
399.244	105.64
399.453	117.93
399.663	99.5
399.872	107.69
400.081	132.26
400.29	101.55
400.499	177.32
400.708	175.27
400.917	150.7
401.127	130.22
401.336	146.6
401.545	210.09
401.754	160.94
401.963	144.55
402.172	165.03
402.381	212.14
402.59	91.31
402.799	111.78
403.008	101.55
403.217	208.04
403.426	187.56
403.635	132.26
403.844	95.4
404.053	124.07
404.262	107.69
404.471	132.26
404.68	134.31
404.888	83.11
405.097	201.9
405.306	257.19
405.515	124.07
405.724	142.5
405.933	193.7
406.142	214.18
406.35	271.53
406.559	132.26
406.768	195.75
406.977	287.91
407.185	175.27
407.394	189.61
407.603	257.19
407.812	246.95
408.02	255.14
408.229	234.66
408.438	234.66
408.646	246.95
408.855	265.38
409.064	292.01
409.272	263.33
409.481	328.87
409.69	296.1
409.898	308.39
410.107	371.88
410.315	392.36
410.524	273.57
410.733	459.94
410.941	261.29
411.15	402.6
411.358	459.94
411.567	459.94
411.775	490.66
411.984	472.23
412.192	492.71
412.401	541.86
412.609	517.28
412.818	572.58
413.026	498.85
413.234	548
413.443	595.11
413.651	650.4
413.86	656.54
414.068	656.54
414.276	666.78
414.485	711.84
414.693	728.22
414.901	812.19
415.11	742.56
415.318	791.71
415.526	861.34
415.734	879.77
415.943	847.01
416.151	928.92
416.359	914.59
416.567	943.26
416.776	990.36
416.984	1111.19
417.192	1037.47
417.4	1107.1
417.608	1133.72
417.817	1242.26
418.025	1209.5
418.233	1471.64
418.441	1299.61
418.649	1258.65
418.857	1428.63
419.065	1500.31
419.273	1416.34
419.481	1428.63
419.689	1684.62
419.897	1709.2
420.105	1682.58
420.313	1885.33
420.521	1918.09
420.729	1772.69
420.937	1918.09
421.145	1920.14
421.353	2225.29
421.561	2290.82
421.769	2131.08
421.977	2374.79
422.185	2327.69
422.393	2571.4
422.601	2673.79
422.809	2573.44
423.017	2694.27
423.224	2706.56
423.432	2735.23
423.64	2804.86
423.848	3089.53
424.056	2974.85
424.263	3271.8
424.471	3212.41
424.679	3425.4
424.887	3607.67
425.094	3673.2
425.302	3669.11
425.51	3740.79
425.718	3753.07
425.925	3908.72
426.133	3982.45
426.341	4349.03
426.548	4465.77
426.756	4406.38
426.964	4650.08
427.171	4850.78
427.379	5086.3
427.586	5002.33
427.794	5168.22
428.001	5375.06
428.209	5567.57
428.417	5586.01
428.624	6016.08
428.832	5915.73
429.039	5823.57
429.247	5950.54
429.454	6501.45
429.662	6806.59
429.869	6526.02
430.076	6880.32
430.284	6732.87
430.491	6935.62
430.699	7302.2
430.906	7445.56
431.114	7382.07
431.321	7681.08
431.528	7857.2
431.736	8461.35
431.943	8840.23
432.15	8492.07
432.358	8662.05
432.565	9206.81
432.772	9223.2
432.979	9808.92
433.187	9831.44
433.394	9917.46
433.601	10523.66
433.808	10503.18
434.016	10433.55
434.223	10929.16
434.43	11361.28
434.637	11385.85
434.844	11875.32
435.052	12157.94
435.259	12334.06
435.466	12241.9
435.673	11867.13
435.88	12844.01
436.087	13372.38
436.294	13945.81
436.501	13394.91
436.708	13534.17
436.915	14152.66
437.122	14623.69
437.329	14601.16
437.537	14934.98
437.743	15383.49
437.95	15014.85
438.157	16012.21
438.364	16378.8
438.571	16405.42
438.778	16870.31
438.985	18129.81
439.192	17583.01
439.399	17800.09
439.606	17619.87
439.813	18498.45
440.02	19751.81
440.227	19409.79
440.433	19321.73
440.64	20151.16
440.847	19815.29
441.054	20337.52
441.261	21525.35
441.467	21019.5
441.674	21889.88
441.881	22352.73
442.088	22471.51
442.294	21982.04
442.501	23014.22
442.708	23391.05
442.914	24230.71
443.121	25010.99
443.328	24773.42
443.534	26491.67
443.741	25338.66
443.948	25031.47
444.154	27566.85
444.361	26741.52
444.568	26862.35
444.774	27034.38
444.981	27482.89
445.187	28195.58
445.394	29608.68
445.6	29176.56
445.807	31894.21
446.013	30339.8
446.22	30898.9
446.426	31984.32
446.633	32322.24
446.839	33422
447.046	31969.99
447.252	33819.3
447.459	33915.56
447.665	34001.57
447.871	34781.85
448.078	36530.81
448.284	34839.19
448.491	35875.46
448.697	37425.78
448.903	37599.85
449.11	38083.17
449.316	37411.44
449.522	37945.96
449.728	38779.48
449.935	39350.87
450.141	38894.17
450.347	40641.09
450.553	38713.95
450.76	39260.76
450.966	40317.51
451.172	39965.26
451.378	40725.05
451.584	40272.45
451.791	41316.92
451.997	41060.92
452.203	41620.02
452.409	41216.57
452.615	41310.77
452.821	39701.07
453.027	39375.44
453.233	41624.11
453.44	39662.16
453.646	40266.31
453.852	40274.5
454.058	41032.25
454.264	39920.2
454.47	40577.6
454.676	39074.39
454.882	40612.41
455.088	37360.24
455.294	37956.2
455.5	38298.21
455.705	38638.17
455.911	36991.61
456.117	36287.1
456.323	35728.01
456.529	33536.68
456.735	35412.62
456.941	34523.8
457.147	33956.52
457.352	32905.91
457.558	32228.03
457.764	32817.85
457.97	32256.7
458.176	31220.43
458.381	30681.81
458.587	29893.35
458.793	29571.82
458.999	27906.82
459.204	30139.1
459.41	29022.96
459.616	27308.81
459.821	27409.16
460.027	27190.03
460.233	26868.5
460.438	25123.63
460.644	25551.65
460.85	24525.62
461.055	24101.69
461.261	23909.18
461.466	22530.9
461.672	21648.22
461.878	23688
462.083	21613.41
462.289	21336.93
462.494	20867.95
462.7	20089.72
462.905	19469.19
463.111	20431.73
463.316	20374.39
463.522	19929.98
463.727	19848.06
463.932	20112.25
464.138	19628.93
464.343	19665.79
464.549	19254.15
464.754	20104.06
464.959	19821.44
465.165	19321.73
465.37	18627.47
465.575	18342.8
465.781	19090.31
465.986	19004.3
466.191	18322.32
466.397	17927.07
466.602	17310.63
466.807	17828.76
467.012	17998.74
467.218	17787.8
467.423	17517.47
467.628	17849.24
