Data from USB4F104151__132__10-25-45-240.txt Node

Date: Wed Mar 12 10:25:45 EDT 2025
User: louis
Spectrometer: USB4F10415
Trigger mode: 4
Integration Time (sec): 3.000000E-2
Scans to average: 1
Electric dark correction enabled: true
Nonlinearity correction enabled: false
Boxcar width: 0
XAxis mode: Wavelengths
Number of Pixels in Spectrum: 3648
>>>>>Begin Spectral Data<<<<<
178.204	-26.28
178.424	-26.28
178.644	-26.28
178.864	-85.67
179.084	-85.67
179.304	-38.57
179.524	20.82
179.744	39.25
179.964	-9.9
180.184	10.58
180.404	4.44
180.624	41.3
180.844	29.01
181.064	-54.95
181.283	-34.47
181.503	-18.09
181.723	10.58
181.943	-26.28
182.163	55.64
182.383	18.77
182.602	67.92
182.822	55.64
183.042	57.68
183.262	-28.33
183.482	0.34
183.701	-20.14
183.921	18.77
184.141	12.63
184.361	59.73
184.58	18.77
184.8	69.97
185.02	6.49
185.239	16.73
185.459	-18.09
185.679	45.4
185.898	-28.33
186.118	24.92
186.338	-36.52
186.557	108.88
186.777	2.39
186.997	-28.33
187.216	69.97
187.436	100.69
187.655	22.87
187.875	67.92
188.095	53.59
188.314	67.92
188.534	37.2
188.753	20.82
188.973	59.73
189.192	-1.71
189.412	90.45
189.631	12.63
189.851	39.25
190.07	18.77
190.29	10.58
190.509	16.73
190.729	61.78
190.948	6.49
191.168	141.65
191.387	51.54
191.607	35.16
191.826	88.4
192.045	-26.28
192.265	96.6
192.484	-26.28
192.704	-13.99
192.923	72.02
193.142	127.32
193.362	47.44
193.581	78.16
193.8	-13.99
194.02	33.11
194.239	14.68
194.458	80.21
194.678	76.12
194.897	-7.85
195.116	0.34
195.335	59.73
195.555	29.01
195.774	-20.14
195.993	39.25
196.212	53.59
196.432	16.73
196.651	74.07
196.87	33.11
197.089	117.08
197.308	88.4
197.528	55.64
197.747	14.68
197.966	-9.9
198.185	112.98
198.404	-67.24
198.623	33.11
198.842	43.35
199.062	88.4
199.281	100.69
199.5	76.12
199.719	35.16
199.938	67.92
200.157	18.77
200.376	82.26
200.595	61.78
200.814	53.59
201.033	29.01
201.252	-20.14
201.471	10.58
201.69	35.16
201.909	41.3
202.128	-48.81
202.347	-20.14
202.566	0.34
202.785	88.4
203.004	16.73
203.223	112.98
203.442	31.06
203.661	-5.8
203.879	-3.75
204.098	74.07
204.317	-5.8
204.536	76.12
204.755	121.17
204.974	33.11
205.193	-11.95
205.411	82.26
205.63	94.55
205.849	22.87
206.068	-9.9
206.287	14.68
206.505	49.49
206.724	63.83
206.943	94.55
207.162	59.73
207.381	96.6
207.599	43.35
207.818	47.44
208.037	37.2
208.255	16.73
208.474	24.92
208.693	-28.33
208.911	35.16
209.13	106.84
209.349	51.54
209.567	33.11
209.786	35.16
210.005	55.64
210.223	-1.71
210.442	-50.86
210.661	96.6
210.879	45.4
211.098	45.4
211.316	61.78
211.535	-1.71
211.753	22.87
211.972	-13.99
212.191	14.68
212.409	-30.38
212.628	6.49
212.846	-36.52
213.065	4.44
213.283	76.12
213.502	88.4
213.72	22.87
213.938	14.68
214.157	-30.38
214.375	100.69
214.594	24.92
214.812	69.97
215.031	24.92
215.249	31.06
215.467	-34.47
215.686	78.16
215.904	65.88
216.122	110.93
216.341	72.02
216.559	2.39
216.778	35.16
216.996	29.01
217.214	31.06
217.432	51.54
217.651	76.12
217.869	8.53
218.087	18.77
218.306	-5.8
218.524	72.02
218.742	-3.75
218.96	67.92
219.179	-36.52
219.397	55.64
219.615	88.4
219.833	47.44
220.051	59.73
220.27	84.31
220.488	4.44
220.706	4.44
220.924	6.49
221.142	-13.99
221.36	65.88
221.578	35.16
221.796	96.6
222.015	67.92
222.233	-46.76
222.451	8.53
222.669	-38.57
222.887	22.87
223.105	-24.23
223.323	35.16
223.541	20.82
223.759	100.69
223.977	35.16
224.195	-20.14
224.413	63.83
224.631	45.4
224.849	53.59
225.067	92.5
225.285	35.16
225.503	53.59
225.721	-50.86
225.939	61.78
226.157	106.84
226.375	170.32
226.592	-16.04
226.81	82.26
227.028	67.92
227.246	55.64
227.464	-16.04
227.682	31.06
227.9	2.39
228.117	10.58
228.335	61.78
228.553	69.97
228.771	-38.57
228.989	6.49
229.206	-63.15
229.424	45.4
229.642	35.16
229.86	29.01
230.077	22.87
230.295	-7.85
230.513	108.88
230.731	26.96
230.948	127.32
231.166	125.27
231.384	55.64
231.601	43.35
231.819	125.27
232.037	90.45
232.254	26.96
232.472	-22.19
232.689	80.21
232.907	149.84
233.125	-5.8
233.342	45.4
233.56	59.73
233.777	69.97
233.995	22.87
234.213	110.93
234.43	24.92
234.648	53.59
234.865	47.44
235.083	61.78
235.3	-30.38
235.518	45.4
235.735	100.69
235.953	61.78
236.17	2.39
236.388	-3.75
236.605	63.83
236.822	33.11
237.04	86.36
237.257	80.21
237.475	119.12
237.692	72.02
237.909	39.25
238.127	49.49
238.344	2.39
238.562	14.68
238.779	-26.28
238.996	22.87
239.214	12.63
239.431	6.49
239.648	69.97
239.865	39.25
240.083	49.49
240.3	104.79
240.517	47.44
240.735	121.17
240.952	45.4
241.169	47.44
241.386	31.06
241.603	49.49
241.821	39.25
242.038	100.69
242.255	2.39
242.472	-32.43
242.689	86.36
242.907	117.08
243.124	18.77
243.341	31.06
243.558	18.77
243.775	-5.8
243.992	4.44
244.209	6.49
244.426	119.12
244.643	-1.71
244.86	59.73
245.078	31.06
245.295	14.68
245.512	76.12
245.729	4.44
245.946	49.49
246.163	-26.28
246.38	14.68
246.597	41.3
246.814	24.92
247.031	26.96
247.248	84.31
247.464	55.64
247.681	29.01
247.898	145.75
248.115	153.94
248.332	20.82
248.549	59.73
248.766	26.96
248.983	31.06
249.2	24.92
249.417	16.73
249.633	69.97
249.85	108.88
250.067	86.36
250.284	37.2
250.501	92.5
250.717	98.64
250.934	39.25
251.151	-3.75
251.368	43.35
251.585	-9.9
251.801	31.06
252.018	-13.99
252.235	-30.38
252.451	67.92
252.668	-3.75
252.885	2.39
253.102	39.25
253.318	96.6
253.535	61.78
253.752	35.16
253.968	-46.76
254.185	47.44
254.401	2.39
254.618	74.07
254.835	10.58
255.051	47.44
255.268	127.32
255.484	31.06
255.701	22.87
255.917	76.12
256.134	10.58
256.351	82.26
256.567	-69.29
256.784	-1.71
257	-28.33
257.217	59.73
257.433	45.4
257.65	108.88
257.866	-3.75
258.082	-1.71
258.299	92.5
258.515	0.34
258.732	61.78
258.948	10.58
259.165	80.21
259.381	24.92
259.597	14.68
259.814	6.49
260.03	-1.71
260.246	37.2
260.463	45.4
260.679	69.97
260.895	92.5
261.112	76.12
261.328	-38.57
261.544	2.39
261.761	57.68
261.977	0.34
262.193	59.73
262.409	92.5
262.626	22.87
262.842	-11.95
263.058	33.11
263.274	20.82
263.49	14.68
263.707	90.45
263.923	47.44
264.139	-7.85
264.355	33.11
264.571	49.49
264.787	88.4
265.004	47.44
265.22	29.01
265.436	78.16
265.652	45.4
265.868	61.78
266.084	67.92
266.3	43.35
266.516	86.36
266.732	63.83
266.948	35.16
267.164	45.4
267.38	35.16
267.596	86.36
267.812	84.31
268.028	67.92
268.244	18.77
268.46	63.83
268.676	12.63
268.892	104.79
269.108	-5.8
269.324	-3.75
269.54	18.77
269.756	35.16
269.972	2.39
270.188	18.77
270.403	102.74
270.619	63.83
270.835	84.31
271.051	65.88
271.267	67.92
271.483	-42.67
271.698	24.92
271.914	104.79
272.13	94.55
272.346	-7.85
272.562	86.36
272.777	31.06
272.993	61.78
273.209	0.34
273.425	78.16
273.64	24.92
273.856	-11.95
274.072	65.88
274.287	80.21
274.503	59.73
274.719	2.39
274.934	22.87
275.15	80.21
275.366	45.4
275.581	31.06
275.797	80.21
276.012	35.16
276.228	39.25
276.444	4.44
276.659	41.3
276.875	47.44
277.09	55.64
277.306	74.07
277.521	55.64
277.737	39.25
277.952	72.02
278.168	88.4
278.383	61.78
278.599	-3.75
278.814	35.16
279.03	65.88
279.245	61.78
279.461	-13.99
279.676	67.92
279.892	-42.67
280.107	-50.86
280.322	108.88
280.538	92.5
280.753	-46.76
280.969	4.44
281.184	35.16
281.399	65.88
281.615	65.88
281.83	98.64
282.045	61.78
282.26	47.44
282.476	131.41
282.691	47.44
282.906	47.44
283.122	29.01
283.337	6.49
283.552	69.97
283.767	10.58
283.983	78.16
284.198	55.64
284.413	45.4
284.628	-34.47
284.843	65.88
285.058	-20.14
285.274	57.68
285.489	-38.57
285.704	96.6
285.919	-18.09
286.134	29.01
286.349	47.44
286.564	67.92
286.779	39.25
286.995	80.21
287.21	-44.71
287.425	88.4
287.64	-9.9
287.855	-3.75
288.07	2.39
288.285	86.36
288.5	10.58
288.715	94.55
288.93	4.44
289.145	-22.19
289.36	61.78
289.575	45.4
289.79	72.02
290.004	-9.9
290.219	14.68
290.434	63.83
290.649	-7.85
290.864	59.73
291.079	37.2
291.294	88.4
291.509	20.82
291.724	-32.43
291.938	59.73
292.153	53.59
292.368	63.83
292.583	29.01
292.798	0.34
293.012	0.34
293.227	10.58
293.442	55.64
293.657	65.88
293.871	149.84
294.086	72.02
294.301	137.56
294.516	26.96
294.73	37.2
294.945	63.83
295.16	53.59
295.374	31.06
295.589	94.55
295.804	51.54
296.018	-5.8
296.233	82.26
296.447	59.73
296.662	-9.9
296.877	18.77
297.091	31.06
297.306	102.74
297.52	22.87
297.735	51.54
297.949	76.12
298.164	41.3
298.378	78.16
298.593	24.92
298.807	53.59
299.022	76.12
299.236	119.12
299.451	20.82
299.665	18.77
299.88	0.34
300.094	-28.33
300.309	4.44
300.523	72.02
300.737	59.73
300.952	12.63
301.166	37.2
301.381	14.68
301.595	29.01
301.809	-30.38
302.024	63.83
302.238	24.92
302.452	51.54
302.667	33.11
302.881	61.78
303.095	86.36
303.309	78.16
303.524	22.87
303.738	55.64
303.952	-11.95
304.166	100.69
304.381	20.82
304.595	55.64
304.809	-5.8
305.023	69.97
305.237	14.68
305.452	63.83
305.666	53.59
305.88	170.32
306.094	39.25
306.308	55.64
306.522	20.82
306.736	47.44
306.95	-9.9
307.164	53.59
307.379	-9.9
307.593	102.74
307.807	31.06
308.021	26.96
308.235	94.55
308.449	78.16
308.663	35.16
308.877	80.21
309.091	67.92
309.305	78.16
309.519	22.87
309.733	121.17
309.947	8.53
310.161	96.6
310.374	41.3
310.588	112.98
310.802	-9.9
311.016	61.78
311.23	39.25
311.444	20.82
311.658	20.82
311.872	76.12
312.085	235.86
312.299	100.69
312.513	43.35
312.727	115.03
312.941	22.87
313.154	82.26
313.368	12.63
313.582	-5.8
313.796	45.4
314.009	39.25
314.223	55.64
314.437	22.87
314.651	88.4
314.864	12.63
315.078	61.78
315.292	12.63
315.505	4.44
315.719	45.4
315.933	-34.47
316.146	72.02
316.36	102.74
316.573	108.88
316.787	22.87
317.001	125.27
317.214	12.63
317.428	57.68
317.641	4.44
317.855	31.06
318.068	121.17
318.282	72.02
318.495	143.7
318.709	47.44
318.922	33.11
319.136	201.04
319.349	26.96
319.563	63.83
319.776	10.58
319.99	72.02
320.203	37.2
320.417	14.68
320.63	39.25
320.843	67.92
321.057	141.65
321.27	-28.33
321.483	-1.71
321.697	110.93
321.91	-1.71
322.124	33.11
322.337	-1.71
322.55	59.73
322.763	133.46
322.977	102.74
323.19	37.2
323.403	78.16
323.617	16.73
323.83	67.92
324.043	119.12
324.256	51.54
324.469	69.97
324.683	-3.75
324.896	31.06
325.109	2.39
325.322	-50.86
325.535	121.17
325.748	31.06
325.962	31.06
326.175	-5.8
326.388	102.74
326.601	112.98
326.814	26.96
327.027	14.68
327.24	112.98
327.453	24.92
327.666	59.73
327.879	65.88
328.092	67.92
328.305	67.92
328.518	31.06
328.731	2.39
328.944	53.59
329.157	80.21
329.37	82.26
329.583	82.26
329.796	90.45
330.009	-20.14
330.222	31.06
330.435	74.07
330.648	4.44
330.861	14.68
331.073	55.64
331.286	127.32
331.499	76.12
331.712	22.87
331.925	59.73
332.138	26.96
332.35	117.08
332.563	47.44
332.776	26.96
332.989	45.4
333.202	-18.09
333.414	55.64
333.627	53.59
333.84	96.6
334.053	29.01
334.265	18.77
334.478	78.16
334.691	43.35
334.903	69.97
335.116	35.16
335.329	-26.28
335.541	45.4
335.754	78.16
335.966	65.88
336.179	72.02
336.392	-22.19
336.604	94.55
336.817	100.69
337.029	69.97
337.242	74.07
337.454	59.73
337.667	-11.95
337.88	112.98
338.092	35.16
338.305	82.26
338.517	22.87
338.729	61.78
338.942	96.6
339.154	24.92
339.367	-5.8
339.579	61.78
339.792	-20.14
340.004	53.59
340.217	26.96
340.429	47.44
340.641	31.06
340.854	31.06
341.066	69.97
341.278	76.12
341.491	125.27
341.703	20.82
341.915	4.44
342.128	55.64
342.34	80.21
342.552	31.06
342.764	117.08
342.977	67.92
343.189	47.44
343.401	31.06
343.613	53.59
343.826	76.12
344.038	-3.75
344.25	100.69
344.462	-13.99
344.674	53.59
344.886	10.58
345.099	55.64
345.311	110.93
345.523	31.06
345.735	2.39
345.947	22.87
346.159	61.78
346.371	2.39
346.583	41.3
346.795	133.46
347.007	74.07
347.219	63.83
347.431	22.87
347.643	115.03
347.855	88.4
348.067	98.64
348.279	37.2
348.491	59.73
348.703	14.68
348.915	104.79
349.127	63.83
349.339	82.26
349.551	65.88
349.763	92.5
349.975	84.31
350.187	78.16
350.399	14.68
350.61	78.16
350.822	49.49
351.034	67.92
351.246	20.82
351.458	59.73
351.669	-1.71
351.881	55.64
352.093	110.93
352.305	82.26
352.517	37.2
352.728	55.64
352.94	82.26
353.152	26.96
353.363	47.44
353.575	92.5
353.787	104.79
353.999	41.3
354.21	110.93
354.422	55.64
354.633	76.12
354.845	78.16
355.057	61.78
355.268	39.25
355.48	106.84
355.692	49.49
355.903	29.01
356.115	-5.8
356.326	8.53
356.538	88.4
356.749	22.87
356.961	119.12
357.172	37.2
357.384	63.83
357.595	129.36
357.807	16.73
358.018	35.16
358.23	61.78
358.441	78.16
358.653	63.83
358.864	49.49
359.075	16.73
359.287	37.2
359.498	0.34
359.709	59.73
359.921	139.6
360.132	45.4
360.344	-11.95
360.555	12.63
360.766	2.39
360.977	57.68
361.189	131.41
361.4	80.21
361.611	96.6
361.823	168.27
362.034	170.32
362.245	74.07
362.456	108.88
362.667	31.06
362.879	94.55
363.09	96.6
363.301	67.92
363.512	12.63
363.723	18.77
363.935	51.54
364.146	69.97
364.357	55.64
364.568	18.77
364.779	-1.71
364.99	84.31
365.201	-9.9
365.412	125.27
365.623	55.64
365.834	104.79
366.045	115.03
366.256	53.59
366.467	63.83
366.678	123.22
366.889	80.21
367.1	18.77
367.311	24.92
367.522	55.64
367.733	14.68
367.944	125.27
368.155	59.73
368.366	29.01
368.577	43.35
368.788	96.6
368.999	26.96
369.209	69.97
369.42	112.98
369.631	166.23
369.842	20.82
370.053	-11.95
370.264	100.69
370.474	37.2
370.685	133.46
370.896	41.3
371.107	94.55
371.317	123.22
371.528	69.97
371.739	59.73
371.95	100.69
372.16	108.88
372.371	47.44
372.582	39.25
372.792	31.06
373.003	55.64
373.214	92.5
373.424	55.64
373.635	55.64
373.846	112.98
374.056	35.16
374.267	12.63
374.477	-26.28
374.688	63.83
374.898	2.39
375.109	31.06
375.319	51.54
375.53	65.88
375.74	63.83
375.951	-13.99
376.161	55.64
376.372	74.07
376.582	47.44
376.793	139.6
377.003	6.49
377.214	76.12
377.424	80.21
377.635	49.49
377.845	-3.75
378.055	78.16
378.266	47.44
378.476	94.55
378.686	20.82
378.897	47.44
379.107	92.5
379.317	123.22
379.528	47.44
379.738	84.31
379.948	72.02
380.158	18.77
380.369	59.73
380.579	39.25
380.789	31.06
380.999	-22.19
381.21	151.89
381.42	72.02
381.63	108.88
381.84	119.12
382.05	59.73
382.261	110.93
382.471	55.64
382.681	43.35
382.891	141.65
383.101	94.55
383.311	63.83
383.521	82.26
383.731	112.98
383.941	94.55
384.151	35.16
384.361	47.44
384.571	86.36
384.781	51.54
384.991	76.12
385.201	65.88
385.411	102.74
385.621	125.27
385.831	115.03
386.041	2.39
386.251	47.44
386.461	61.78
386.671	26.96
386.881	110.93
387.091	24.92
387.301	96.6
387.511	43.35
387.72	53.59
387.93	90.45
388.14	59.73
388.35	82.26
388.56	55.64
388.769	51.54
388.979	45.4
389.189	39.25
389.399	39.25
389.609	65.88
389.818	49.49
390.028	39.25
390.238	55.64
390.447	43.35
390.657	119.12
390.867	65.88
391.076	35.16
391.286	29.01
391.496	76.12
391.705	84.31
391.915	143.7
392.125	24.92
392.334	35.16
392.544	110.93
392.753	112.98
392.963	76.12
393.172	80.21
393.382	55.64
393.591	82.26
393.801	96.6
394.01	115.03
394.22	31.06
394.429	117.08
394.639	74.07
394.848	86.36
395.058	59.73
395.267	94.55
395.477	96.6
395.686	102.74
395.895	137.56
396.105	176.47
396.314	47.44
396.524	143.7
396.733	80.21
396.942	86.36
397.152	164.18
397.361	39.25
397.57	78.16
397.78	137.56
397.989	164.18
398.198	215.38
398.407	88.4
398.617	129.36
398.826	55.64
399.035	186.71
399.244	158.03
399.453	72.02
399.663	137.56
399.872	137.56
400.081	14.68
400.29	176.47
400.499	104.79
400.708	133.46
400.917	125.27
401.127	217.43
401.336	137.56
401.545	149.84
401.754	178.51
401.963	112.98
402.172	125.27
402.381	162.13
402.59	112.98
402.799	90.45
403.008	176.47
403.217	67.92
403.426	108.88
403.635	84.31
403.844	137.56
404.053	108.88
404.262	143.7
404.471	182.61
404.68	135.51
404.888	112.98
405.097	131.41
405.306	98.64
405.515	211.28
405.724	153.94
405.933	213.33
406.142	143.7
406.35	233.81
406.559	180.56
406.768	145.75
406.977	201.04
407.185	252.24
407.394	176.47
407.603	246.1
407.812	188.75
408.02	338.26
408.229	325.97
408.438	235.86
408.646	196.95
408.855	262.48
409.064	256.34
409.272	260.43
409.481	381.26
409.69	252.24
409.898	307.54
410.107	272.72
410.315	291.15
410.524	287.06
410.733	299.34
410.941	309.58
411.15	317.78
411.358	436.56
411.567	403.79
411.775	411.98
411.984	473.42
412.192	444.75
412.401	366.93
412.609	485.71
412.818	448.85
413.026	502.09
413.234	534.86
413.443	516.43
413.651	555.34
413.86	600.4
414.068	649.55
414.276	610.64
414.485	594.25
414.693	643.4
414.901	753.99
415.11	760.14
415.318	702.79
415.526	815.43
415.734	760.14
415.943	786.76
416.151	887.11
416.359	866.63
416.567	948.55
416.776	1024.33
416.984	915.78
417.192	993.61
417.4	891.21
417.608	919.88
417.817	973.13
418.025	1079.62
418.233	1237.31
418.441	1141.06
418.649	1108.29
418.857	1347.9
419.065	1175.88
419.273	1358.14
419.481	1413.44
419.689	1462.59
419.897	1472.83
420.105	1444.16
420.313	1546.56
420.521	1564.99
420.729	1685.82
420.937	1628.48
421.145	1782.07
421.353	1843.51
421.561	1907
421.769	1929.53
421.977	1986.87
422.185	1999.16
422.393	2216.24
422.601	2335.03
422.809	2298.16
423.017	2357.55
423.224	2283.83
423.432	2382.13
423.64	2550.06
423.848	2730.28
424.056	2558.25
424.263	2799.91
424.471	3043.62
424.679	2945.32
424.887	3060.01
425.094	3139.88
425.302	3193.12
425.51	3316
425.718	3365.15
425.925	3475.74
426.133	3512.61
426.341	3692.83
426.548	3875.1
426.756	3934.49
426.964	4051.22
427.171	4274.45
427.379	4264.21
427.586	4223.25
427.794	4387.09
428.001	4604.18
428.209	4978.95
428.417	4927.75
428.624	5153.03
428.832	5169.41
429.039	5206.28
429.247	5112.07
429.454	5617.92
429.662	6097.14
429.869	5372.16
430.076	6058.23
430.284	5724.41
430.491	5990.65
430.699	6392.05
430.906	6473.97
431.114	6412.53
431.321	6725.87
431.528	6895.85
431.736	7291.11
431.943	7641.31
432.15	7452.9
432.358	7565.54
432.565	7936.22
432.772	7743.71
432.979	8331.48
433.187	8349.91
433.394	8409.3
433.601	9007.31
433.808	9134.28
434.016	8898.77
434.223	9246.92
434.43	10141.88
434.637	9785.54
434.844	10229.95
435.052	10549.43
435.259	10356.92
435.466	10664.11
435.673	10426.55
435.88	11292.84
436.087	11534.5
436.294	11671.72
436.501	11403.43
436.708	11487.4
436.915	12050.59
437.122	12687.51
437.329	12568.73
437.537	12925.07
437.743	13457.54
437.95	12935.31
438.157	13787.27
438.364	14301.31
438.571	14180.48
438.778	14149.76
438.985	15505.51
439.192	14944.37
439.399	15521.9
439.606	15280.24
439.813	15947.87
440.02	16863.32
440.227	16521.31
440.433	16592.98
440.64	17244.24
440.847	17016.91
441.054	17303.63
441.261	18389.05
441.467	18432.06
441.674	18401.34
441.881	19042.35
442.088	19097.65
442.294	19210.29
442.501	19230.77
442.708	19894.31
442.914	20760.6
443.121	21604.36
443.328	20934.68
443.534	22333.44
443.741	21876.74
443.948	21434.38
444.154	23058.42
444.361	22874.1
444.568	23138.29
444.774	23261.17
444.981	23150.58
445.187	23959.53
445.394	24965.08
445.6	24754.14
445.807	26763.2
446.013	25548.75
446.22	26386.37
446.426	27508.66
446.633	27479.99
446.839	28176.3
447.046	27150.26
447.252	28721.06
447.459	28682.14
447.665	28387.24
447.871	30023.56
448.078	30812.03
448.284	29781.9
448.491	30293.9
448.697	31367.03
448.903	31928.17
449.11	31991.66
449.316	31694.71
449.522	31922.03
449.728	32761.7
449.935	33187.67
450.141	32913.25
450.347	33757.01
450.553	32694.11
450.76	32933.73
450.966	33906.51
451.172	33617.75
451.378	34490.18
451.584	33744.72
451.791	34457.42
451.997	34328.39
452.203	34645.83
452.409	35131.2
452.615	34942.78
452.821	33701.72
453.027	33296.22
453.233	34688.84
453.44	33582.93
453.646	33746.77
453.852	34121.55
454.058	34455.37
454.264	33351.51
454.47	34338.63
454.676	33447.77
454.882	34234.19
455.088	31209.34
455.294	31340.41
455.5	32022.38
455.705	32329.58
455.911	31047.55
456.117	30414.73
456.323	30154.63
456.529	28352.42
456.735	29603.73
456.941	28811.17
457.147	28409.76
457.352	27486.13
457.558	27295.67
457.764	27271.09
457.97	26740.67
458.176	26316.74
458.381	26177.48
458.587	24727.52
458.793	25044.95
458.999	23349.23
459.204	25276.37
459.41	24612.83
459.616	22880.25
459.821	22849.53
460.027	22779.9
460.233	22298.63
460.438	21114.9
460.644	21534.73
460.85	20617.24
461.055	20277.28
461.261	20201.51
461.466	18571.32
461.672	17920.07
461.878	19492.91
462.083	17946.69
462.289	17633.35
462.494	17598.54
462.7	16595.03
462.905	16224.35
463.111	17080.4
463.316	17082.45
463.522	16857.17
463.727	16840.79
463.932	16867.41
464.138	16595.03
464.343	16455.77
464.549	15911.01
464.754	16848.98
464.959	16691.29
465.165	16504.92
465.37	15908.96
465.575	15155.31
465.781	16052.32
465.986	16021.6
466.191	15538.28
466.397	15118.45
466.602	14108.8
466.807	15165.55
467.012	14948.47
467.218	14999.66
467.423	14747.76
