Data from USB4F104151__9__10-20-36-695.txt Node

Date: Wed Mar 12 10:20:36 EDT 2025
User: louis
Spectrometer: USB4F10415
Trigger mode: 4
Integration Time (sec): 3.000000E-2
Scans to average: 1
Electric dark correction enabled: true
Nonlinearity correction enabled: false
Boxcar width: 0
XAxis mode: Wavelengths
Number of Pixels in Spectrum: 3648
>>>>>Begin Spectral Data<<<<<
178.204	-44.2
178.424	-44.2
178.644	-44.2
178.864	-74.92
179.084	-62.63
179.304	-52.39
179.524	-64.68
179.744	4.95
179.964	64.34
180.184	-7.34
180.404	21.33
180.624	-7.34
180.844	23.38
181.064	-36.01
181.283	-36.01
181.503	80.72
181.723	9.05
181.943	35.67
182.163	103.25
182.383	78.68
182.602	125.78
182.822	105.3
183.042	9.05
183.262	19.29
183.482	-9.39
183.701	127.83
183.921	50
184.141	41.81
184.361	7
184.58	45.91
184.8	37.72
185.02	15.19
185.239	121.68
185.459	84.82
185.679	84.82
185.898	27.48
186.118	70.48
186.338	37.72
186.557	60.24
186.777	60.24
186.997	-15.53
187.216	47.96
187.436	54.1
187.655	105.3
187.875	11.09
188.095	25.43
188.314	80.72
188.534	101.2
188.753	19.29
188.973	21.33
189.192	78.68
189.412	99.16
189.631	64.34
189.851	84.82
190.07	156.5
190.29	47.96
190.509	90.96
190.729	82.77
190.948	-5.29
191.168	150.36
191.387	68.44
191.607	52.05
191.826	50
192.045	-11.43
192.265	-25.77
192.484	115.54
192.704	84.82
192.923	35.67
193.142	60.24
193.362	43.86
193.581	131.92
193.8	0.85
194.02	142.16
194.239	23.38
194.458	119.64
194.678	43.86
194.897	29.52
195.116	64.34
195.335	70.48
195.555	47.96
195.774	50
195.993	189.27
196.212	15.19
196.432	13.14
196.651	45.91
196.87	-7.34
197.089	109.4
197.308	47.96
197.528	19.29
197.747	-27.82
197.966	74.58
198.185	-17.58
198.404	88.92
198.623	68.44
198.842	76.63
199.062	43.86
199.281	60.24
199.5	33.62
199.719	72.53
199.938	52.05
200.157	72.53
200.376	109.4
200.595	121.68
200.814	99.16
201.033	27.48
201.252	103.25
201.471	-54.44
201.69	-15.53
201.909	39.76
202.128	93.01
202.347	0.85
202.566	37.72
202.785	54.1
203.004	11.09
203.223	113.49
203.442	39.76
203.661	39.76
203.879	62.29
204.098	58.2
204.317	11.09
204.536	56.15
204.755	17.24
204.974	109.4
205.193	56.15
205.411	97.11
205.63	105.3
205.849	31.57
206.068	17.24
206.287	23.38
206.505	23.38
206.724	72.53
206.943	19.29
207.162	47.96
207.381	27.48
207.599	15.19
207.818	13.14
208.037	7
208.255	15.19
208.474	56.15
208.693	52.05
208.911	29.52
209.13	39.76
209.349	27.48
209.567	90.96
209.786	72.53
210.005	101.2
210.223	13.14
210.442	0.85
210.661	117.59
210.879	27.48
211.098	62.29
211.316	86.87
211.535	72.53
211.753	64.34
211.972	60.24
212.191	31.57
212.409	119.64
212.628	88.92
212.846	17.24
213.065	52.05
213.283	39.76
213.502	45.91
213.72	25.43
213.938	72.53
214.157	60.24
214.375	27.48
214.594	93.01
214.812	54.1
215.031	47.96
215.249	-13.48
215.467	70.48
215.686	52.05
215.904	13.14
216.122	64.34
216.341	68.44
216.559	52.05
216.778	72.53
216.996	39.76
217.214	58.2
217.432	39.76
217.651	-7.34
217.869	113.49
218.087	95.06
218.306	15.19
218.524	109.4
218.742	82.77
218.96	115.54
219.179	4.95
219.397	27.48
219.615	47.96
219.833	33.62
220.051	25.43
220.27	80.72
220.488	129.88
220.706	76.63
220.924	60.24
221.142	58.2
221.36	35.67
221.578	-25.77
221.796	76.63
222.015	27.48
222.233	-42.15
222.451	111.44
222.669	33.62
222.887	52.05
223.105	7
223.323	9.05
223.541	39.76
223.759	66.39
223.977	-9.39
224.195	15.19
224.413	84.82
224.631	113.49
224.849	62.29
225.067	154.45
225.285	68.44
225.503	21.33
225.721	-54.44
225.939	66.39
226.157	35.67
226.375	148.31
226.592	68.44
226.81	9.05
227.028	121.68
227.246	84.82
227.464	121.68
227.682	64.34
227.9	47.96
228.117	80.72
228.335	27.48
228.553	60.24
228.771	43.86
228.989	113.49
229.206	97.11
229.424	-13.48
229.642	95.06
229.86	45.91
230.077	99.16
230.295	56.15
230.513	52.05
230.731	27.48
230.948	23.38
231.166	64.34
231.384	-3.24
231.601	15.19
231.819	93.01
232.037	25.43
232.254	13.14
232.472	31.57
232.689	-27.82
232.907	97.11
233.125	31.57
233.342	82.77
233.56	58.2
233.777	35.67
233.995	119.64
234.213	101.2
234.43	109.4
234.648	45.91
234.865	56.15
235.083	41.81
235.3	19.29
235.518	21.33
235.735	23.38
235.953	60.24
236.17	7
236.388	9.05
236.605	47.96
236.822	93.01
237.04	7
237.257	29.52
237.475	68.44
237.692	27.48
237.909	56.15
238.127	-21.67
238.344	60.24
238.562	7
238.779	4.95
238.996	113.49
239.214	13.14
239.431	4.95
239.648	29.52
239.865	88.92
240.083	56.15
240.3	47.96
240.517	37.72
240.735	45.91
240.952	105.3
241.169	142.16
241.386	47.96
241.603	72.53
241.821	31.57
242.038	62.29
242.255	84.82
242.472	129.88
242.689	84.82
242.907	19.29
243.124	35.67
243.341	17.24
243.558	19.29
243.775	19.29
243.992	-40.11
244.209	39.76
244.426	74.58
244.643	123.73
244.86	78.68
245.078	86.87
245.295	140.12
245.512	115.54
245.729	66.39
245.946	78.68
246.163	13.14
246.38	154.45
246.597	4.95
246.814	15.19
247.031	95.06
247.248	54.1
247.464	31.57
247.681	17.24
247.898	90.96
248.115	72.53
248.332	64.34
248.549	37.72
248.766	76.63
248.983	37.72
249.2	29.52
249.417	33.62
249.633	15.19
249.85	103.25
250.067	78.68
250.284	27.48
250.501	43.86
250.717	37.72
250.934	15.19
251.151	13.14
251.368	13.14
251.585	133.97
251.801	21.33
252.018	-1.19
252.235	80.72
252.451	-3.24
252.668	21.33
252.885	107.35
253.102	88.92
253.318	13.14
253.535	2.9
253.752	2.9
253.968	31.57
254.185	7
254.401	93.01
254.618	52.05
254.835	31.57
255.051	39.76
255.268	45.91
255.484	50
255.701	54.1
255.917	97.11
256.134	21.33
256.351	15.19
256.567	-9.39
256.784	21.33
257	9.05
257.217	86.87
257.433	111.44
257.65	86.87
257.866	43.86
258.082	41.81
258.299	23.38
258.515	31.57
258.732	58.2
258.948	58.2
259.165	19.29
259.381	64.34
259.597	52.05
259.814	88.92
260.03	64.34
260.246	95.06
260.463	58.2
260.679	93.01
260.895	56.15
261.112	74.58
261.328	-31.91
261.544	2.9
261.761	103.25
261.977	43.86
262.193	54.1
262.409	50
262.626	13.14
262.842	-9.39
263.058	129.88
263.274	86.87
263.49	82.77
263.707	45.91
263.923	101.2
264.139	7
264.355	117.59
264.571	58.2
264.787	2.9
265.004	103.25
265.22	31.57
265.436	72.53
265.652	-29.87
265.868	58.2
266.084	27.48
266.3	154.45
266.516	64.34
266.732	78.68
266.948	93.01
267.164	121.68
267.38	68.44
267.596	60.24
267.812	125.78
268.028	76.63
268.244	43.86
268.46	37.72
268.676	88.92
268.892	54.1
269.108	-31.91
269.324	68.44
269.54	52.05
269.756	176.98
269.972	-48.3
270.188	88.92
270.403	-21.67
270.619	78.68
270.835	4.95
271.051	27.48
271.267	138.07
271.483	21.33
271.698	88.92
271.914	41.81
272.13	39.76
272.346	37.72
272.562	31.57
272.777	64.34
272.993	-9.39
273.209	60.24
273.425	64.34
273.64	9.05
273.856	113.49
274.072	-9.39
274.287	58.2
274.503	93.01
274.719	27.48
274.934	45.91
275.15	23.38
275.366	39.76
275.581	78.68
275.797	52.05
276.012	41.81
276.228	70.48
276.444	88.92
276.659	84.82
276.875	72.53
277.09	-5.29
277.306	64.34
277.521	-11.43
277.737	39.76
277.952	84.82
278.168	33.62
278.383	56.15
278.599	52.05
278.814	148.31
279.03	29.52
279.245	127.83
279.461	-11.43
279.676	58.2
279.892	15.19
280.107	-3.24
280.322	58.2
280.538	70.48
280.753	29.52
280.969	123.73
281.184	43.86
281.399	62.29
281.615	39.76
281.83	68.44
282.045	-29.87
282.26	52.05
282.476	68.44
282.691	70.48
282.906	72.53
283.122	60.24
283.337	56.15
283.552	45.91
283.767	74.58
283.983	80.72
284.198	-3.24
284.413	80.72
284.628	58.2
284.843	107.35
285.058	152.4
285.274	56.15
285.489	29.52
285.704	103.25
285.919	47.96
286.134	23.38
286.349	74.58
286.564	21.33
286.779	39.76
286.995	41.81
287.21	62.29
287.425	-19.63
287.64	25.43
287.855	43.86
288.07	35.67
288.285	64.34
288.5	52.05
288.715	84.82
288.93	72.53
289.145	70.48
289.36	76.63
289.575	-1.19
289.79	35.67
290.004	113.49
290.219	31.57
290.434	23.38
290.649	68.44
290.864	58.2
291.079	86.87
291.294	125.78
291.509	-40.11
291.724	23.38
291.938	109.4
292.153	39.76
292.368	52.05
292.583	86.87
292.798	113.49
293.012	45.91
293.227	80.72
293.442	29.52
293.657	58.2
293.871	56.15
294.086	29.52
294.301	158.55
294.516	68.44
294.73	127.83
294.945	43.86
295.16	31.57
295.374	117.59
295.589	72.53
295.804	-33.96
296.018	103.25
296.233	84.82
296.447	80.72
296.662	-46.25
296.877	80.72
297.091	86.87
297.306	39.76
297.52	47.96
297.735	74.58
297.949	90.96
298.164	15.19
298.378	117.59
298.593	68.44
298.807	45.91
299.022	76.63
299.236	-3.24
299.451	84.82
299.665	56.15
299.88	70.48
300.094	19.29
300.309	101.2
300.523	37.72
300.737	7
300.952	-3.24
301.166	111.44
301.381	11.09
301.595	99.16
301.809	7
302.024	29.52
302.238	101.2
302.452	76.63
302.667	19.29
302.881	105.3
303.095	31.57
303.309	62.29
303.524	60.24
303.738	27.48
303.952	47.96
304.166	125.78
304.381	103.25
304.595	19.29
304.809	15.19
305.023	107.35
305.237	23.38
305.452	45.91
305.666	4.95
305.88	41.81
306.094	62.29
306.308	111.44
306.522	-1.19
306.736	45.91
306.95	101.2
307.164	47.96
307.379	7
307.593	72.53
307.807	31.57
308.021	90.96
308.235	113.49
308.449	-56.49
308.663	66.39
308.877	123.73
309.091	29.52
309.305	52.05
309.519	-3.24
309.733	78.68
309.947	64.34
310.161	70.48
310.374	95.06
310.588	76.63
310.802	88.92
311.016	56.15
311.23	72.53
311.444	19.29
311.658	-1.19
311.872	-1.19
312.085	82.77
312.299	58.2
312.513	23.38
312.727	105.3
312.941	66.39
313.154	39.76
313.368	15.19
313.582	11.09
313.796	62.29
314.009	-13.48
314.223	105.3
314.437	125.78
314.651	35.67
314.864	41.81
315.078	-17.58
315.292	50
315.505	-70.83
315.719	64.34
315.933	15.19
316.146	56.15
316.36	50
316.573	58.2
316.787	84.82
317.001	80.72
317.214	39.76
317.428	33.62
317.641	29.52
317.855	-76.97
318.068	43.86
318.282	43.86
318.495	74.58
318.709	52.05
318.922	58.2
319.136	125.78
319.349	97.11
319.563	66.39
319.776	7
319.99	35.67
320.203	68.44
320.417	119.64
320.63	88.92
320.843	62.29
321.057	31.57
321.27	88.92
321.483	80.72
321.697	97.11
321.91	56.15
322.124	74.58
322.337	121.68
322.55	82.77
322.763	11.09
322.977	74.58
323.19	27.48
323.403	80.72
323.617	56.15
323.83	39.76
324.043	47.96
324.256	111.44
324.469	52.05
324.683	111.44
324.896	62.29
325.109	78.68
325.322	-3.24
325.535	97.11
325.748	31.57
325.962	39.76
326.175	86.87
326.388	136.02
326.601	27.48
326.814	47.96
327.027	39.76
327.24	64.34
327.453	23.38
327.666	33.62
327.879	78.68
328.092	127.83
328.305	111.44
328.518	68.44
328.731	119.64
328.944	78.68
329.157	64.34
329.37	47.96
329.583	101.2
329.796	84.82
330.009	86.87
330.222	86.87
330.435	7
330.648	58.2
330.861	93.01
331.073	47.96
331.286	54.1
331.499	109.4
331.712	54.1
331.925	68.44
332.138	107.35
332.35	23.38
332.563	-5.29
332.776	97.11
332.989	76.63
333.202	86.87
333.414	52.05
333.627	58.2
333.84	-25.77
334.053	125.78
334.265	-42.15
334.478	101.2
334.691	86.87
334.903	70.48
335.116	39.76
335.329	11.09
335.541	111.44
335.754	125.78
335.966	-13.48
336.179	101.2
336.392	31.57
336.604	27.48
336.817	50
337.029	90.96
337.242	142.16
337.454	78.68
337.667	64.34
337.88	99.16
338.092	56.15
338.305	90.96
338.517	64.34
338.729	27.48
338.942	78.68
339.154	56.15
339.367	52.05
339.579	88.92
339.792	19.29
340.004	39.76
340.217	-81.07
340.429	66.39
340.641	-1.19
340.854	39.76
341.066	95.06
341.278	111.44
341.491	189.27
341.703	62.29
341.915	72.53
342.128	7
342.34	72.53
342.552	-33.96
342.764	82.77
342.977	58.2
343.189	37.72
343.401	119.64
343.613	21.33
343.826	52.05
344.038	9.05
344.25	74.58
344.462	41.81
344.674	70.48
344.886	68.44
345.099	60.24
345.311	-1.19
345.523	-1.19
345.735	31.57
345.947	146.26
346.159	54.1
346.371	88.92
346.583	23.38
346.795	121.68
347.007	7
347.219	47.96
347.431	105.3
347.643	52.05
347.855	162.64
348.067	74.58
348.279	-3.24
348.491	76.63
348.703	54.1
348.915	74.58
349.127	62.29
349.339	52.05
349.551	43.86
349.763	88.92
349.975	23.38
350.187	74.58
350.399	119.64
350.61	76.63
350.822	74.58
351.034	23.38
351.246	95.06
351.458	95.06
351.669	99.16
351.881	39.76
352.093	95.06
352.305	84.82
352.517	101.2
352.728	117.59
352.94	2.9
353.152	123.73
353.363	-44.2
353.575	56.15
353.787	97.11
353.999	66.39
354.21	123.73
354.422	64.34
354.633	41.81
354.845	88.92
355.057	7
355.268	43.86
355.48	27.48
355.692	17.24
355.903	35.67
356.115	-27.82
356.326	52.05
356.538	78.68
356.749	70.48
356.961	183.12
357.172	78.68
357.384	144.21
357.595	119.64
357.807	117.59
358.018	68.44
358.23	105.3
358.441	113.49
358.653	109.4
358.864	35.67
359.075	23.38
359.287	25.43
359.498	109.4
359.709	68.44
359.921	47.96
360.132	35.67
360.344	50
360.555	45.91
360.766	35.67
360.977	-11.43
361.189	68.44
361.4	33.62
361.611	111.44
361.823	86.87
362.034	86.87
362.245	11.09
362.456	74.58
362.667	80.72
362.879	82.77
363.09	78.68
363.301	101.2
363.512	72.53
363.723	140.12
363.935	123.73
364.146	78.68
364.357	121.68
364.568	95.06
364.779	74.58
364.99	72.53
365.201	68.44
365.412	88.92
365.623	99.16
365.834	15.19
366.045	39.76
366.256	21.33
366.467	88.92
366.678	101.2
366.889	84.82
367.1	121.68
367.311	109.4
367.522	41.81
367.733	103.25
367.944	45.91
368.155	66.39
368.366	152.4
368.577	95.06
368.788	101.2
368.999	84.82
369.209	115.54
369.42	129.88
369.631	146.26
369.842	107.35
370.053	47.96
370.264	31.57
370.474	52.05
370.685	86.87
370.896	72.53
371.107	95.06
371.317	33.62
371.528	86.87
371.739	76.63
371.95	-9.39
372.16	47.96
372.371	74.58
372.582	52.05
372.792	86.87
373.003	64.34
373.214	121.68
373.424	88.92
373.635	160.59
373.846	131.92
374.056	64.34
374.267	72.53
374.477	43.86
374.688	144.21
374.898	45.91
375.109	50
375.319	62.29
375.53	117.59
375.74	93.01
375.951	72.53
376.161	93.01
376.372	37.72
376.582	47.96
376.793	29.52
377.003	70.48
377.214	41.81
377.424	142.16
377.635	97.11
377.845	62.29
378.055	74.58
378.266	52.05
378.476	68.44
378.686	64.34
378.897	105.3
379.107	-1.19
379.317	97.11
379.528	54.1
379.738	170.83
379.948	29.52
380.158	88.92
380.369	31.57
380.579	119.64
380.789	76.63
380.999	47.96
381.21	101.2
381.42	60.24
381.63	64.34
381.84	80.72
382.05	56.15
382.261	107.35
382.471	162.64
382.681	39.76
382.891	45.91
383.101	117.59
383.311	97.11
383.521	52.05
383.731	144.21
383.941	101.2
384.151	86.87
384.361	127.83
384.571	37.72
384.781	146.26
384.991	117.59
385.201	140.12
385.411	121.68
385.621	131.92
385.831	64.34
386.041	-19.63
386.251	60.24
386.461	119.64
386.671	60.24
386.881	113.49
387.091	23.38
387.301	119.64
387.511	78.68
387.72	72.53
387.93	45.91
388.14	60.24
388.35	84.82
388.56	146.26
388.769	82.77
388.979	131.92
389.189	105.3
389.399	84.82
389.609	86.87
389.818	74.58
390.028	45.91
390.238	27.48
390.447	25.43
390.657	103.25
390.867	13.14
391.076	52.05
391.286	80.72
391.496	101.2
391.705	117.59
391.915	172.88
392.125	47.96
392.334	99.16
392.544	160.59
392.753	39.76
392.963	179.03
393.172	95.06
393.382	82.77
393.591	215.89
393.801	54.1
394.01	205.65
394.22	93.01
394.429	70.48
394.639	117.59
394.848	170.83
395.058	123.73
395.267	90.96
395.477	78.68
395.686	142.16
395.895	164.69
396.105	152.4
396.314	138.07
396.524	121.68
396.733	80.72
396.942	117.59
397.152	127.83
397.361	152.4
397.57	78.68
397.78	138.07
397.989	156.5
398.198	111.44
398.407	15.19
398.617	90.96
398.826	162.64
399.035	78.68
399.244	156.5
399.453	111.44
399.663	115.54
399.872	93.01
400.081	72.53
400.29	111.44
400.499	162.64
400.708	76.63
400.917	189.27
401.127	201.55
401.336	160.59
401.545	195.41
401.754	113.49
401.963	125.78
402.172	117.59
402.381	60.24
402.59	211.79
402.799	207.7
403.008	150.36
403.217	113.49
403.426	172.88
403.635	97.11
403.844	82.77
404.053	203.6
404.262	146.26
404.471	205.65
404.68	160.59
404.888	183.12
405.097	179.03
405.306	228.18
405.515	222.03
405.724	146.26
405.933	226.13
406.142	207.7
406.35	185.17
406.559	172.88
406.768	164.69
406.977	172.88
407.185	226.13
407.394	293.71
407.603	260.95
407.812	207.7
408.02	269.14
408.229	211.79
408.438	301.9
408.646	293.71
408.855	308.05
409.064	332.62
409.272	260.95
409.481	351.06
409.69	338.77
409.898	301.9
410.107	310.1
410.315	326.48
410.524	334.67
410.733	416.59
410.941	326.48
411.15	324.43
411.358	420.69
411.567	459.6
411.775	416.59
411.984	475.98
412.192	510.8
412.401	510.8
412.609	539.47
412.818	697.16
413.026	609.1
413.234	631.63
413.443	498.51
413.651	619.34
413.86	596.81
414.068	731.98
414.276	680.78
414.485	670.54
414.693	785.23
414.901	760.65
415.11	824.14
415.318	756.55
415.526	834.38
415.734	824.14
415.943	840.52
416.151	934.73
416.359	1012.55
416.567	1012.55
416.776	899.91
416.984	1104.71
417.192	1086.28
417.4	1028.93
417.608	1035.08
417.817	1172.29
418.025	1203.01
418.233	1293.12
418.441	1231.68
418.649	1420.1
418.857	1372.99
419.065	1467.2
419.273	1332.03
419.481	1422.14
419.689	1626.94
419.897	1622.84
420.105	1690.43
420.313	1647.42
420.521	1792.83
420.729	1850.17
420.937	1923.9
421.145	1893.18
421.353	1993.53
421.561	2198.32
421.769	2116.41
421.977	2292.53
422.185	2173.75
422.393	2317.11
422.601	2509.62
422.809	2513.71
423.017	2482.99
423.224	2560.81
423.432	2657.07
423.64	2745.13
423.848	2986.79
424.056	2863.91
424.263	3144.49
424.471	3107.62
424.679	3298.08
424.887	3347.23
425.094	3396.39
425.302	3566.37
425.51	3584.8
425.718	3695.39
425.925	3816.22
426.133	3863.32
426.341	4147.99
426.548	4223.76
426.756	4213.53
426.964	4248.34
427.171	4576.02
427.379	4625.17
427.586	4864.78
427.794	4864.78
428.001	5161.73
428.209	5294.85
428.417	5229.32
428.624	5708.54
428.832	5569.28
429.039	5708.54
429.247	5618.43
429.454	6111.99
429.662	6441.72
429.869	5896.96
430.076	6632.18
430.284	6294.26
430.491	6605.55
430.699	7015.15
430.906	7013.1
431.114	6992.62
431.321	7437.03
431.528	7506.66
431.736	8096.47
431.943	8252.12
432.15	8116.95
432.358	8413.91
432.565	8583.89
432.772	8737.49
432.979	9054.92
433.187	9149.13
433.394	9231.05
433.601	9876.16
433.808	10056.38
434.016	9886.4
434.223	10392.25
434.43	10877.62
434.637	10781.36
434.844	11258.54
435.052	11412.14
435.259	11496.1
435.466	11547.3
435.673	11631.27
435.88	12198.56
436.087	12964.5
436.294	12673.68
436.501	12497.56
436.708	12696.21
436.915	13275.79
437.122	13785.73
437.329	13638.28
437.537	14332.54
437.743	14535.29
437.95	14477.94
438.157	15104.62
438.364	15463.02
438.571	15592.04
438.778	15616.62
438.985	17203.79
439.192	16751.19
439.399	17099.34
439.606	16575.06
439.813	17472.07
440.02	18584.12
440.227	18326.08
440.433	18078.27
440.64	18741.82
440.847	18455.1
441.054	19040.82
441.261	20437.53
441.467	20093.47
441.674	20537.88
441.881	20951.57
442.088	20906.52
442.294	20945.43
442.501	21391.89
442.708	22125.06
442.914	22858.23
443.121	23562.73
443.328	22993.4
443.534	24408.54
443.741	23822.83
443.948	23515.63
444.154	25164.25
444.361	25082.33
444.568	25111
444.774	25301.46
444.981	25858.51
445.187	26157.51
445.394	27158.97
445.6	26935.74
445.807	29618.58
446.013	28238.25
446.22	28909.98
446.426	29999.5
446.633	30273.93
446.839	31052.16
447.046	29917.58
447.252	31478.13
447.459	31498.61
447.665	31287.67
447.871	32702.82
448.078	33882.45
448.284	32581.99
448.491	33329.5
448.697	34521.41
448.903	35086.65
449.11	35162.43
449.316	34566.47
449.522	35227.96
449.728	36153.65
449.935	36213.04
450.141	36233.52
450.347	37177.63
450.553	35901.75
450.76	35940.66
450.966	37247.26
451.172	36944.16
451.378	37783.83
451.584	37404.95
451.791	37865.75
451.997	37769.49
452.203	38404.36
452.409	38261.01
452.615	38191.37
452.821	36778.28
453.027	36469.03
453.233	38115.6
453.44	36436.27
453.646	36880.67
453.852	36880.67
454.058	37669.14
454.264	36028.72
454.47	37136.67
454.676	36141.36
454.882	37650.71
455.088	34132.3
455.294	34535.75
455.5	34855.23
455.705	35637.56
455.911	33866.06
456.117	33204.57
456.323	32805.22
456.529	31058.3
456.735	32145.77
456.941	31531.38
457.147	31011.2
457.352	30093.71
457.558	29381.01
457.764	29673.87
457.97	28981.66
458.176	28574.11
458.381	28441
458.587	26907.07
458.793	27247.03
458.999	25522.64
459.204	27554.22
459.41	27019.71
459.616	24924.63
459.821	25102.81
460.027	25133.53
460.233	24367.59
460.438	23540.21
460.644	23595.5
460.85	22168.07
461.055	21871.11
461.261	21817.86
461.466	20328.99
461.672	19882.53
461.878	21447.18
462.083	19833.38
462.289	19462.7
462.494	19296.81
462.7	18534.97
462.905	17904.2
463.111	18776.63
463.316	18772.53
463.522	18096.71
463.727	18334.27
463.932	17971.78
464.138	17986.11
464.343	18137.66
464.549	17592.9
464.754	18258.49
464.959	18063.94
465.165	17785.41
465.37	17201.74
465.575	17062.48
465.781	17375.82
465.986	17678.92
466.191	16810.58
466.397	16593.5
466.602	15837.8
466.807	16429.66
467.012	16306.78
467.218	16282.2
467.423	16056.93
467.628	16255.58
