Data from USB4F104151__269__10-40-39-893.txt Node

Date: Wed Mar 12 10:40:39 EDT 2025
User: louis
Spectrometer: USB4F10415
Trigger mode: 4
Integration Time (sec): 3.000000E-2
Scans to average: 1
Electric dark correction enabled: true
Nonlinearity correction enabled: false
Boxcar width: 0
XAxis mode: Wavelengths
Number of Pixels in Spectrum: 3648
>>>>>Begin Spectral Data<<<<<
178.204	-55.3
178.424	-55.3
178.644	-55.3
178.864	-165.89
179.084	-159.74
179.304	-49.15
179.524	18.43
179.744	10.24
179.964	34.82
180.184	-40.96
180.404	0
180.624	-24.58
180.844	4.1
181.064	26.62
181.283	4.1
181.503	-12.29
181.723	28.67
181.943	-114.69
182.163	51.2
182.383	24.58
182.602	40.96
182.822	12.29
183.042	45.06
183.262	18.43
183.482	-2.05
183.701	-8.19
183.921	90.11
184.141	-12.29
184.361	6.14
184.58	-12.29
184.8	36.86
185.02	40.96
185.239	81.92
185.459	53.25
185.679	49.15
185.898	38.91
186.118	100.35
186.338	-14.34
186.557	108.54
186.777	59.39
186.997	24.58
187.216	-34.82
187.436	-20.48
187.655	30.72
187.875	34.82
188.095	2.05
188.314	83.97
188.534	71.68
188.753	-30.72
188.973	92.16
189.192	83.97
189.412	14.34
189.631	-8.19
189.851	36.86
190.07	57.34
190.29	-12.29
190.509	-24.58
190.729	22.53
190.948	-24.58
191.168	102.4
191.387	83.97
191.607	14.34
191.826	47.1
192.045	81.92
192.265	4.1
192.484	43.01
192.704	40.96
192.923	12.29
193.142	116.73
193.362	53.25
193.581	26.62
193.8	36.86
194.02	53.25
194.239	28.67
194.458	51.2
194.678	75.77
194.897	88.06
195.116	12.29
195.335	51.2
195.555	59.39
195.774	53.25
195.993	26.62
196.212	36.86
196.432	-4.1
196.651	-18.43
196.87	16.38
197.089	108.54
197.308	12.29
197.528	16.38
197.747	59.39
197.966	28.67
198.185	124.93
198.404	20.48
198.623	-22.53
198.842	-22.53
199.062	0
199.281	24.58
199.5	20.48
199.719	34.82
199.938	40.96
200.157	75.77
200.376	71.68
200.595	73.73
200.814	26.62
201.033	-10.24
201.252	92.16
201.471	73.73
201.69	16.38
201.909	38.91
202.128	22.53
202.347	14.34
202.566	49.15
202.785	65.54
203.004	-10.24
203.223	114.69
203.442	38.91
203.661	24.58
203.879	12.29
204.098	-45.06
204.317	-20.48
204.536	16.38
204.755	67.58
204.974	-2.05
205.193	20.48
205.411	57.34
205.63	28.67
205.849	86.01
206.068	55.3
206.287	36.86
206.505	45.06
206.724	90.11
206.943	38.91
207.162	36.86
207.381	8.19
207.599	14.34
207.818	-10.24
208.037	24.58
208.255	26.62
208.474	90.11
208.693	36.86
208.911	116.73
209.13	67.58
209.349	63.49
209.567	67.58
209.786	90.11
210.005	24.58
210.223	59.39
210.442	-4.1
210.661	20.48
210.879	77.82
211.098	-38.91
211.316	57.34
211.535	-2.05
211.753	22.53
211.972	40.96
212.191	24.58
212.409	4.1
212.628	86.01
212.846	-10.24
213.065	81.92
213.283	83.97
213.502	65.54
213.72	86.01
213.938	67.58
214.157	32.77
214.375	55.3
214.594	18.43
214.812	51.2
215.031	38.91
215.249	-30.72
215.467	-6.14
215.686	104.45
215.904	75.77
216.122	18.43
216.341	4.1
216.559	73.73
216.778	100.35
216.996	108.54
217.214	24.58
217.432	-47.1
217.651	77.82
217.869	12.29
218.087	12.29
218.306	6.14
218.524	110.59
218.742	45.06
218.96	104.45
219.179	47.1
219.397	65.54
219.615	36.86
219.833	88.06
220.051	10.24
220.27	75.77
220.488	18.43
220.706	43.01
220.924	-79.87
221.142	28.67
221.36	-49.15
221.578	10.24
221.796	32.77
222.015	-30.72
222.233	-12.29
222.451	51.2
222.669	-18.43
222.887	120.83
223.105	-8.19
223.323	45.06
223.541	8.19
223.759	51.2
223.977	18.43
224.195	67.58
224.413	118.78
224.631	59.39
224.849	40.96
225.067	51.2
225.285	36.86
225.503	34.82
225.721	30.72
225.939	53.25
226.157	4.1
226.375	71.68
226.592	83.97
226.81	43.01
227.028	100.35
227.246	90.11
227.464	-45.06
227.682	14.34
227.9	77.82
228.117	14.34
228.335	-12.29
228.553	51.2
228.771	-6.14
228.989	16.38
229.206	32.77
229.424	-4.1
229.642	0
229.86	38.91
230.077	114.69
230.295	75.77
230.513	10.24
230.731	40.96
230.948	77.82
231.166	45.06
231.384	8.19
231.601	8.19
231.819	45.06
232.037	45.06
232.254	-47.1
232.472	22.53
232.689	73.73
232.907	22.53
233.125	10.24
233.342	73.73
233.56	12.29
233.777	-47.1
233.995	104.45
234.213	2.05
234.43	30.72
234.648	86.01
234.865	-4.1
235.083	4.1
235.3	4.1
235.518	61.44
235.735	69.63
235.953	2.05
236.17	-8.19
236.388	45.06
236.605	43.01
236.822	102.4
237.04	94.21
237.257	57.34
237.475	8.19
237.692	73.73
237.909	12.29
238.127	40.96
238.344	43.01
238.562	40.96
238.779	28.67
238.996	-12.29
239.214	55.3
239.431	49.15
239.648	18.43
239.865	77.82
240.083	69.63
240.3	55.3
240.517	12.29
240.735	-2.05
240.952	63.49
241.169	4.1
241.386	63.49
241.603	24.58
241.821	-51.2
242.038	53.25
242.255	20.48
242.472	-10.24
242.689	22.53
242.907	38.91
243.124	10.24
243.341	-12.29
243.558	-14.34
243.775	61.44
243.992	-45.06
244.209	14.34
244.426	114.69
244.643	28.67
244.86	-14.34
245.078	90.11
245.295	28.67
245.512	28.67
245.729	-38.91
245.946	77.82
246.163	92.16
246.38	16.38
246.597	32.77
246.814	10.24
247.031	57.34
247.248	40.96
247.464	20.48
247.681	10.24
247.898	55.3
248.115	49.15
248.332	16.38
248.549	43.01
248.766	94.21
248.983	57.34
249.2	0
249.417	77.82
249.633	-4.1
249.85	104.45
250.067	40.96
250.284	2.05
250.501	4.1
250.717	90.11
250.934	-32.77
251.151	32.77
251.368	-28.67
251.585	110.59
251.801	30.72
252.018	59.39
252.235	92.16
252.451	16.38
252.668	-22.53
252.885	57.34
253.102	49.15
253.318	20.48
253.535	-18.43
253.752	32.77
253.968	0
254.185	47.1
254.401	45.06
254.618	-32.77
254.835	88.06
255.051	45.06
255.268	110.59
255.484	65.54
255.701	45.06
255.917	36.86
256.134	26.62
256.351	55.3
256.567	2.05
256.784	96.25
257	-12.29
257.217	61.44
257.433	47.1
257.65	77.82
257.866	57.34
258.082	30.72
258.299	4.1
258.515	71.68
258.732	36.86
258.948	0
259.165	71.68
259.381	22.53
259.597	8.19
259.814	71.68
260.03	-8.19
260.246	98.3
260.463	34.82
260.679	53.25
260.895	4.1
261.112	26.62
261.328	20.48
261.544	4.1
261.761	57.34
261.977	88.06
262.193	-16.38
262.409	88.06
262.626	28.67
262.842	69.63
263.058	26.62
263.274	118.78
263.49	53.25
263.707	28.67
263.923	77.82
264.139	-83.97
264.355	24.58
264.571	98.3
264.787	71.68
265.004	18.43
265.22	10.24
265.436	43.01
265.652	51.2
265.868	129.02
266.084	-22.53
266.3	40.96
266.516	-10.24
266.732	-22.53
266.948	36.86
267.164	53.25
267.38	-8.19
267.596	34.82
267.812	4.1
268.028	53.25
268.244	49.15
268.46	-10.24
268.676	36.86
268.892	40.96
269.108	-30.72
269.324	10.24
269.54	10.24
269.756	61.44
269.972	8.19
270.188	26.62
270.403	-28.67
270.619	81.92
270.835	24.58
271.051	2.05
271.267	26.62
271.483	47.1
271.698	77.82
271.914	53.25
272.13	104.45
272.346	14.34
272.562	81.92
272.777	81.92
272.993	24.58
273.209	43.01
273.425	71.68
273.64	4.1
273.856	36.86
274.072	69.63
274.287	24.58
274.503	106.49
274.719	90.11
274.934	-2.05
275.15	69.63
275.366	-12.29
275.581	20.48
275.797	36.86
276.012	-38.91
276.228	14.34
276.444	-12.29
276.659	81.92
276.875	67.58
277.09	14.34
277.306	-2.05
277.521	-6.14
277.737	-8.19
277.952	40.96
278.168	51.2
278.383	61.44
278.599	-14.34
278.814	-4.1
279.03	79.87
279.245	63.49
279.461	-6.14
279.676	26.62
279.892	-26.62
280.107	-45.06
280.322	14.34
280.538	38.91
280.753	10.24
280.969	79.87
281.184	38.91
281.399	118.78
281.615	61.44
281.83	28.67
282.045	28.67
282.26	49.15
282.476	92.16
282.691	98.3
282.906	20.48
283.122	83.97
283.337	14.34
283.552	83.97
283.767	-6.14
283.983	94.21
284.198	-36.86
284.413	59.39
284.628	-8.19
284.843	-8.19
285.058	-2.05
285.274	59.39
285.489	-4.1
285.704	-4.1
285.919	49.15
286.134	57.34
286.349	24.58
286.564	12.29
286.779	112.64
286.995	-20.48
287.21	-38.91
287.425	24.58
287.64	28.67
287.855	110.59
288.07	-22.53
288.285	104.45
288.5	77.82
288.715	143.36
288.93	24.58
289.145	57.34
289.36	0
289.575	40.96
289.79	49.15
290.004	8.19
290.219	4.1
290.434	2.05
290.649	-40.96
290.864	16.38
291.079	12.29
291.294	88.06
291.509	4.1
291.724	53.25
291.938	28.67
292.153	53.25
292.368	40.96
292.583	2.05
292.798	-6.14
293.012	57.34
293.227	28.67
293.442	18.43
293.657	47.1
293.871	104.45
294.086	69.63
294.301	120.83
294.516	28.67
294.73	67.58
294.945	14.34
295.16	57.34
295.374	67.58
295.589	55.3
295.804	14.34
296.018	77.82
296.233	163.84
296.447	71.68
296.662	10.24
296.877	102.4
297.091	49.15
297.306	69.63
297.52	32.77
297.735	71.68
297.949	14.34
298.164	86.01
298.378	38.91
298.593	26.62
298.807	20.48
299.022	34.82
299.236	45.06
299.451	20.48
299.665	-40.96
299.88	-28.67
300.094	-22.53
300.309	55.3
300.523	-4.1
300.737	20.48
300.952	-12.29
301.166	61.44
301.381	45.06
301.595	43.01
301.809	57.34
302.024	8.19
302.238	32.77
302.452	122.88
302.667	77.82
302.881	16.38
303.095	92.16
303.309	49.15
303.524	-79.87
303.738	26.62
303.952	32.77
304.166	40.96
304.381	20.48
304.595	45.06
304.809	-6.14
305.023	12.29
305.237	-38.91
305.452	6.14
305.666	51.2
305.88	102.4
306.094	98.3
306.308	55.3
306.522	26.62
306.736	45.06
306.95	-12.29
307.164	-8.19
307.379	0
307.593	110.59
307.807	90.11
308.021	20.48
308.235	79.87
308.449	47.1
308.663	51.2
308.877	28.67
309.091	47.1
309.305	32.77
309.519	43.01
309.733	69.63
309.947	-4.1
310.161	86.01
310.374	124.93
310.588	65.54
310.802	2.05
311.016	4.1
311.23	12.29
311.444	22.53
311.658	2.05
311.872	69.63
312.085	18.43
312.299	83.97
312.513	122.88
312.727	51.2
312.941	12.29
313.154	96.25
313.368	75.77
313.582	-14.34
313.796	-47.1
314.009	0
314.223	47.1
314.437	90.11
314.651	22.53
314.864	69.63
315.078	34.82
315.292	22.53
315.505	-10.24
315.719	36.86
315.933	86.01
316.146	32.77
316.36	26.62
316.573	86.01
316.787	18.43
317.001	71.68
317.214	26.62
317.428	18.43
317.641	102.4
317.855	-61.44
318.068	71.68
318.282	2.05
318.495	92.16
318.709	81.92
318.922	0
319.136	77.82
319.349	43.01
319.563	116.73
319.776	118.78
319.99	-4.1
320.203	79.87
320.417	14.34
320.63	36.86
320.843	79.87
321.057	34.82
321.27	49.15
321.483	104.45
321.697	2.05
321.91	-16.38
322.124	96.25
322.337	18.43
322.55	53.25
322.763	-16.38
322.977	81.92
323.19	20.48
323.403	-38.91
323.617	59.39
323.83	90.11
324.043	36.86
324.256	77.82
324.469	49.15
324.683	79.87
324.896	-2.05
325.109	49.15
325.322	-4.1
325.535	77.82
325.748	43.01
325.962	26.62
326.175	36.86
326.388	118.78
326.601	32.77
326.814	57.34
327.027	-12.29
327.24	-38.91
327.453	-18.43
327.666	65.54
327.879	77.82
328.092	30.72
328.305	12.29
328.518	90.11
328.731	-26.62
328.944	63.49
329.157	51.2
329.37	-4.1
329.583	102.4
329.796	34.82
330.009	24.58
330.222	-10.24
330.435	73.73
330.648	43.01
330.861	36.86
331.073	57.34
331.286	34.82
331.499	26.62
331.712	36.86
331.925	45.06
332.138	65.54
332.35	100.35
332.563	22.53
332.776	81.92
332.989	18.43
333.202	102.4
333.414	22.53
333.627	26.62
333.84	53.25
334.053	38.91
334.265	47.1
334.478	2.05
334.691	-8.19
334.903	8.19
335.116	10.24
335.329	24.58
335.541	12.29
335.754	77.82
335.966	40.96
336.179	98.3
336.392	28.67
336.604	0
336.817	-6.14
337.029	32.77
337.242	69.63
337.454	77.82
337.667	104.45
337.88	83.97
338.092	32.77
338.305	108.54
338.517	53.25
338.729	-45.06
338.942	4.1
339.154	30.72
339.367	57.34
339.579	61.44
339.792	4.1
340.004	49.15
340.217	12.29
340.429	81.92
340.641	32.77
340.854	67.58
341.066	26.62
341.278	126.97
341.491	45.06
341.703	45.06
341.915	-2.05
342.128	106.49
342.34	94.21
342.552	2.05
342.764	45.06
342.977	28.67
343.189	77.82
343.401	94.21
343.613	-4.1
343.826	98.3
344.038	-10.24
344.25	53.25
344.462	90.11
344.674	75.77
344.886	63.49
345.099	135.17
345.311	69.63
345.523	14.34
345.735	-30.72
345.947	36.86
346.159	108.54
346.371	112.64
346.583	-6.14
346.795	122.88
347.007	24.58
347.219	86.01
347.431	69.63
347.643	126.97
347.855	20.48
348.067	71.68
348.279	71.68
348.491	98.3
348.703	90.11
348.915	43.01
349.127	67.58
349.339	55.3
349.551	69.63
349.763	98.3
349.975	-34.82
350.187	4.1
350.399	69.63
350.61	69.63
350.822	94.21
351.034	24.58
351.246	34.82
351.458	40.96
351.669	77.82
351.881	47.1
352.093	-10.24
352.305	57.34
352.517	57.34
352.728	40.96
352.94	81.92
353.152	49.15
353.363	178.17
353.575	55.3
353.787	59.39
353.999	94.21
354.21	65.54
354.422	38.91
354.633	65.54
354.845	-20.48
355.057	10.24
355.268	61.44
355.48	53.25
355.692	28.67
355.903	73.73
356.115	63.49
356.326	-61.44
356.538	106.49
356.749	-2.05
356.961	131.07
357.172	79.87
357.384	6.14
357.595	69.63
357.807	28.67
358.018	28.67
358.23	100.35
358.441	92.16
358.653	83.97
358.864	12.29
359.075	10.24
359.287	51.2
359.498	28.67
359.709	90.11
359.921	69.63
360.132	45.06
360.344	77.82
360.555	-24.58
360.766	-2.05
360.977	63.49
361.189	86.01
361.4	-12.29
361.611	139.26
361.823	100.35
362.034	-4.1
362.245	57.34
362.456	45.06
362.667	-2.05
362.879	43.01
363.09	55.3
363.301	61.44
363.512	8.19
363.723	59.39
363.935	-16.38
364.146	36.86
364.357	86.01
364.568	90.11
364.779	-30.72
364.99	36.86
365.201	83.97
365.412	79.87
365.623	14.34
365.834	38.91
366.045	110.59
366.256	79.87
366.467	28.67
366.678	10.24
366.889	55.3
367.1	26.62
367.311	65.54
367.522	61.44
367.733	133.12
367.944	61.44
368.155	45.06
368.366	26.62
368.577	69.63
368.788	53.25
368.999	-10.24
369.209	38.91
369.42	69.63
369.631	73.73
369.842	2.05
370.053	77.82
370.264	124.93
370.474	65.54
370.685	71.68
370.896	-26.62
371.107	73.73
371.317	-28.67
371.528	18.43
371.739	124.93
371.95	122.88
372.16	51.2
372.371	36.86
372.582	88.06
372.792	81.92
373.003	22.53
373.214	4.1
373.424	38.91
373.635	-8.19
373.846	143.36
374.056	81.92
374.267	69.63
374.477	53.25
374.688	96.25
374.898	67.58
375.109	116.73
375.319	61.44
375.53	38.91
375.74	75.77
375.951	126.97
376.161	65.54
376.372	100.35
376.582	65.54
376.793	81.92
377.003	38.91
377.214	90.11
377.424	28.67
377.635	94.21
377.845	24.58
378.055	102.4
378.266	14.34
378.476	106.49
378.686	-4.1
378.897	65.54
379.107	137.21
379.317	69.63
379.528	28.67
379.738	69.63
379.948	65.54
380.158	133.12
380.369	-22.53
380.579	67.58
380.789	102.4
380.999	14.34
381.21	45.06
381.42	141.31
381.63	108.54
381.84	40.96
382.05	147.45
382.261	167.93
382.471	28.67
382.681	90.11
382.891	51.2
383.101	155.65
383.311	28.67
383.521	57.34
383.731	90.11
383.941	167.93
384.151	92.16
384.361	47.1
384.571	49.15
384.781	88.06
384.991	79.87
385.201	192.51
385.411	83.97
385.621	45.06
385.831	20.48
386.041	151.55
386.251	43.01
386.461	133.12
386.671	116.73
386.881	63.49
387.091	22.53
387.301	81.92
387.511	69.63
387.72	112.64
387.93	98.3
388.14	0
388.35	57.34
388.56	98.3
388.769	108.54
388.979	110.59
389.189	133.12
389.399	118.78
389.609	61.44
389.818	124.93
390.028	61.44
390.238	47.1
390.447	36.86
390.657	108.54
390.867	129.02
391.076	63.49
391.286	73.73
391.496	88.06
391.705	124.93
391.915	135.17
392.125	114.69
392.334	81.92
392.544	143.36
392.753	120.83
392.963	43.01
393.172	83.97
393.382	36.86
393.591	120.83
393.801	90.11
394.01	92.16
394.22	106.49
394.429	94.21
394.639	20.48
394.848	67.58
395.058	81.92
395.267	53.25
395.477	73.73
395.686	94.21
395.895	133.12
396.105	139.26
396.314	86.01
396.524	92.16
396.733	81.92
396.942	202.75
397.152	94.21
397.361	104.45
397.57	98.3
397.78	73.73
397.989	108.54
398.198	210.94
398.407	81.92
398.617	108.54
398.826	151.55
399.035	106.49
399.244	143.36
399.453	96.25
399.663	139.26
399.872	188.41
400.081	71.68
400.29	155.65
400.499	110.59
400.708	139.26
400.917	81.92
401.127	184.32
401.336	116.73
401.545	151.55
401.754	129.02
401.963	153.6
402.172	100.35
402.381	129.02
402.59	149.5
402.799	167.93
403.008	176.13
403.217	98.3
403.426	141.31
403.635	122.88
403.844	157.69
404.053	100.35
404.262	151.55
404.471	165.89
404.68	221.18
404.888	116.73
405.097	161.79
405.306	215.04
405.515	227.32
405.724	165.89
405.933	126.97
406.142	108.54
406.35	212.99
406.559	186.37
406.768	249.85
406.977	268.28
407.185	196.61
407.394	286.72
407.603	151.55
407.812	241.66
408.02	276.48
408.229	249.85
408.438	266.24
408.646	251.9
408.855	274.43
409.064	317.44
409.272	272.38
409.481	333.82
409.69	366.59
409.898	319.48
410.107	372.73
410.315	409.59
410.524	393.21
410.733	473.08
410.941	401.4
411.15	454.65
411.358	509.94
411.567	477.18
411.775	471.03
411.984	479.22
412.192	489.46
412.401	481.27
412.609	571.38
412.818	655.35
413.026	563.19
413.234	544.76
413.443	575.48
413.651	686.07
413.86	649.21
414.068	737.27
414.276	681.97
414.485	702.45
414.693	786.42
414.901	788.47
415.11	860.15
415.318	804.85
415.526	792.56
415.734	786.42
415.943	950.26
416.151	995.31
416.359	909.3
416.567	923.63
416.776	978.93
416.984	1138.67
417.192	1153.01
417.4	1079.28
417.608	1052.66
417.817	1140.72
418.025	1198.06
418.233	1376.24
418.441	1282.03
418.649	1384.43
418.857	1427.43
419.065	1583.08
419.273	1529.83
419.481	1597.42
419.689	1667.05
419.897	1777.64
420.105	1804.26
420.313	1671.14
420.521	1882.08
420.729	1972.19
420.937	2062.3
421.145	2060.26
421.353	2164.7
421.561	2283.49
421.769	2293.73
421.977	2367.45
422.185	2373.6
422.393	2539.48
422.601	2625.5
422.809	2658.26
423.017	2693.08
423.224	2805.72
423.432	3059.67
423.64	2983.89
423.848	3151.82
424.056	3074
424.263	3395.53
424.471	3297.23
424.679	3403.72
424.887	3665.86
425.094	3715.02
425.302	3764.17
425.51	3919.81
425.718	3911.62
425.925	4192.19
426.133	4237.25
426.341	4241.34
426.548	4661.18
426.756	4573.11
426.964	4603.83
427.171	4956.08
427.379	5081.01
427.586	5205.94
427.794	5371.82
428.001	5599.15
428.209	5889.96
428.417	5730.22
428.624	6186.91
428.832	6229.92
429.039	6102.95
429.247	6061.99
429.454	6680.47
429.662	7186.32
429.869	6594.46
430.076	7360.4
430.284	6852.5
430.491	7323.54
430.699	7651.21
430.906	7796.62
431.114	7851.91
431.321	8152.96
431.528	8365.95
431.736	8697.72
431.943	9144.18
432.15	8818.55
432.358	8953.72
432.565	9469.81
432.772	9650.03
432.979	9971.56
433.187	10293.09
433.394	10086.25
433.601	10903.39
433.808	10637.15
434.016	10909.53
434.223	11331.41
434.43	12121.93
434.637	11775.82
434.844	12410.69
435.052	12980.03
435.259	12617.54
435.466	12799.8
435.673	12736.32
435.88	13610.8
436.087	14255.91
436.294	14262.05
436.501	13727.53
436.708	14094.12
436.915	14675.74
437.122	15292.18
437.329	15017.75
437.537	15695.63
437.743	15904.53
437.95	16011.02
438.157	16656.13
438.364	17264.38
438.571	17288.95
438.778	17397.49
438.985	18960.09
439.192	18153.19
439.399	18908.9
439.606	18292.46
439.813	19234.52
440.02	20573.89
440.227	19959.5
440.433	20278.99
440.64	20688.58
440.847	20727.49
441.054	21165.76
441.261	22574.76
441.467	22136.49
441.674	22617.77
441.881	23600.79
442.088	23658.13
442.294	23209.63
442.501	24030.87
442.708	24225.42
442.914	25095.81
443.121	26044.02
443.328	25876.09
443.534	27616.86
443.741	26762.86
443.948	26091.12
444.154	28046.93
444.361	28044.88
444.568	28628.56
444.774	27948.63
444.981	28528.2
445.187	29488.7
445.394	30645.8
445.6	30311.99
445.807	33080.84
446.013	31661.6
446.22	32333.33
446.426	33283.59
446.633	33900.03
446.839	34340.34
447.046	33472
447.252	35245.54
447.459	35395.04
447.665	34956.78
447.871	36517.33
448.078	38110.65
448.284	36412.88
448.491	37457.35
448.697	38935.98
448.903	39085.48
449.11	39374.25
449.316	38360.5
449.522	39763.36
449.728	40568.21
449.935	41000.33
450.141	40277.4
450.347	41719.17
450.553	40056.22
450.76	40340.89
450.966	41594.25
451.172	41344.39
451.378	42294.65
451.584	41172.36
451.791	42214.78
451.997	42182.01
452.203	43146.61
452.409	42808.69
452.615	42550.65
452.821	41299.34
453.027	40412.57
453.233	42685.81
453.44	40793.49
453.646	41381.26
453.852	41409.93
454.058	42169.72
454.264	40631.7
454.47	41573.77
454.676	40234.39
454.882	41637.25
455.088	38280.63
455.294	38434.23
455.5	39019.95
455.705	39622.05
455.911	37731.78
456.117	37209.54
456.323	36818.38
456.529	34567.66
456.735	36304.34
456.941	34899.44
457.147	34338.29
457.352	33510.91
457.558	33097.22
457.764	33168.9
457.97	32450.06
458.176	31909.4
458.381	31706.65
458.587	30277.17
458.793	30170.68
458.999	28376.65
459.204	30492.21
459.41	29828.66
459.616	27784.79
459.821	27817.56
460.027	27911.77
460.233	27047.52
460.438	25478.78
460.644	26113.65
460.85	24592.01
461.055	24385.16
461.261	24217.23
461.466	22808.23
461.672	22062.77
461.878	23352.99
462.083	22015.66
462.289	21585.59
462.494	21593.78
462.7	20719.3
462.905	20012.75
463.111	20682.44
463.316	20733.64
463.522	20365
463.727	20362.95
463.932	20213.45
464.138	20133.58
464.343	20049.61
464.549	19424.98
464.754	20213.45
464.959	20143.82
465.165	20027.09
465.37	19388.12
465.575	18845.41
465.781	19429.08
465.986	19685.08
466.191	18794.21
466.397	18650.85
466.602	17422.07
466.807	18247.4
467.012	18269.93
467.218	18454.25
467.423	17676.02
467.628	17884.91
