Data from USB4F104151__145__10-26-28-766.txt Node

Date: Wed Mar 12 10:26:28 EDT 2025
User: louis
Spectrometer: USB4F10415
Trigger mode: 4
Integration Time (sec): 3.000000E-2
Scans to average: 1
Electric dark correction enabled: true
Nonlinearity correction enabled: false
Boxcar width: 0
XAxis mode: Wavelengths
Number of Pixels in Spectrum: 3648
>>>>>Begin Spectral Data<<<<<
178.204	-95.06
178.424	-95.06
178.644	-95.06
178.864	-90.96
179.084	-99.16
179.304	7.34
179.524	13.48
179.744	1.19
179.964	5.29
180.184	-9.05
180.404	-4.95
180.624	-2.9
180.844	-7
181.064	-11.09
181.283	-23.38
181.503	3.24
181.723	27.82
181.943	-121.68
182.163	48.3
182.383	29.87
182.602	91.31
182.822	68.78
183.042	44.2
183.262	42.15
183.482	70.83
183.701	64.68
183.921	9.39
184.141	31.91
184.361	19.63
184.58	5.29
184.8	-27.48
185.02	7.34
185.239	7.34
185.459	33.96
185.679	31.91
185.898	-0.85
186.118	-0.85
186.338	-17.24
186.557	15.53
186.777	7.34
186.997	-4.95
187.216	-13.14
187.436	134.31
187.655	52.39
187.875	27.82
188.095	9.39
188.314	42.15
188.534	40.11
188.753	-50
188.973	44.2
189.192	-19.29
189.412	-33.62
189.631	44.2
189.851	-35.67
190.07	97.45
190.29	23.72
190.509	-35.67
190.729	-7
190.948	27.82
191.168	136.36
191.387	72.87
191.607	-25.43
191.826	7.34
192.045	21.67
192.265	13.48
192.484	56.49
192.704	11.43
192.923	7.34
193.142	107.69
193.362	68.78
193.581	50.35
193.8	23.72
194.02	38.06
194.239	33.96
194.458	66.73
194.678	-0.85
194.897	46.25
195.116	87.21
195.335	56.49
195.555	19.63
195.774	-2.9
195.993	9.39
196.212	-13.14
196.432	-0.85
196.651	-33.62
196.87	11.43
197.089	56.49
197.308	48.3
197.528	-21.33
197.747	-58.2
197.966	3.24
198.185	107.69
198.404	-68.44
198.623	-0.85
198.842	-2.9
199.062	-43.86
199.281	25.77
199.5	54.44
199.719	-13.14
199.938	95.4
200.157	7.34
200.376	-19.29
200.595	107.69
200.814	23.72
201.033	-9.05
201.252	1.19
201.471	109.74
201.69	48.3
201.909	-9.05
202.128	25.77
202.347	87.21
202.566	19.63
202.785	21.67
203.004	-21.33
203.223	107.69
203.442	29.87
203.661	60.59
203.879	-9.05
204.098	93.35
204.317	-17.24
204.536	146.6
204.755	56.49
204.974	52.39
205.193	5.29
205.411	87.21
205.63	36.01
205.849	13.48
206.068	9.39
206.287	-64.34
206.505	42.15
206.724	89.26
206.943	-13.14
207.162	-25.43
207.381	-4.95
207.599	-2.9
207.818	-0.85
208.037	44.2
208.255	1.19
208.474	23.72
208.693	3.24
208.911	-23.38
209.13	1.19
209.349	42.15
209.567	46.25
209.786	13.48
210.005	5.29
210.223	48.3
210.442	31.91
210.661	40.11
210.879	54.44
211.098	-4.95
211.316	31.91
211.535	27.82
211.753	-13.14
211.972	19.63
212.191	40.11
212.409	-50
212.628	36.01
212.846	-9.05
213.065	7.34
213.283	62.63
213.502	60.59
213.72	-2.9
213.938	25.77
214.157	44.2
214.375	23.72
214.594	66.73
214.812	54.44
215.031	27.82
215.249	68.78
215.467	50.35
215.686	52.39
215.904	70.83
216.122	-0.85
216.341	81.07
216.559	89.26
216.778	81.07
216.996	70.83
217.214	-31.57
217.432	-43.86
217.651	27.82
217.869	19.63
218.087	19.63
218.306	21.67
218.524	5.29
218.742	1.19
218.96	81.07
219.179	-7
219.397	23.72
219.615	40.11
219.833	31.91
220.051	-29.52
220.27	81.07
220.488	70.83
220.706	15.53
220.924	13.48
221.142	7.34
221.36	40.11
221.578	113.83
221.796	-19.29
222.015	-39.76
222.233	38.06
222.451	85.16
222.669	-45.91
222.887	1.19
223.105	-66.39
223.323	31.91
223.541	-9.05
223.759	-9.05
223.977	-7
224.195	29.87
224.413	33.96
224.631	33.96
224.849	38.06
225.067	44.2
225.285	15.53
225.503	40.11
225.721	-41.81
225.939	66.73
226.157	79.02
226.375	156.84
226.592	-25.43
226.81	-4.95
227.028	1.19
227.246	50.35
227.464	-31.57
227.682	115.88
227.9	62.63
228.117	-21.33
228.335	56.49
228.553	74.92
228.771	-29.52
228.989	-11.09
229.206	17.58
229.424	40.11
229.642	70.83
229.86	13.48
230.077	89.26
230.295	15.53
230.513	38.06
230.731	99.5
230.948	122.02
231.166	85.16
231.384	-17.24
231.601	40.11
231.819	126.12
232.037	-37.72
232.254	-33.62
232.472	-9.05
232.689	27.82
232.907	111.78
233.125	74.92
233.342	-23.38
233.56	42.15
233.777	1.19
233.995	29.87
234.213	56.49
234.43	132.26
234.648	68.78
234.865	87.21
235.083	13.48
235.3	13.48
235.518	93.35
235.735	97.45
235.953	52.39
236.17	72.87
236.388	-35.67
236.605	7.34
236.822	58.54
237.04	13.48
237.257	76.97
237.475	7.34
237.692	83.11
237.909	48.3
238.127	103.59
238.344	29.87
238.562	-2.9
238.779	-27.48
238.996	-19.29
239.214	15.53
239.431	-9.05
239.648	17.58
239.865	25.77
240.083	3.24
240.3	15.53
240.517	19.63
240.735	-23.38
240.952	126.12
241.169	29.87
241.386	64.68
241.603	68.78
241.821	103.59
242.038	93.35
242.255	62.63
242.472	-15.19
242.689	64.68
242.907	48.3
243.124	-13.14
243.341	23.72
243.558	7.34
243.775	-31.57
243.992	-66.39
244.209	29.87
244.426	15.53
244.643	-29.52
244.86	15.53
245.078	19.63
245.295	-4.95
245.512	27.82
245.729	33.96
245.946	31.91
246.163	29.87
246.38	56.49
246.597	40.11
246.814	27.82
247.031	40.11
247.248	21.67
247.464	105.64
247.681	-19.29
247.898	79.02
248.115	52.39
248.332	-56.15
248.549	91.31
248.766	105.64
248.983	33.96
249.2	54.44
249.417	89.26
249.633	52.39
249.85	17.58
250.067	21.67
250.284	23.72
250.501	93.35
250.717	62.63
250.934	11.43
251.151	-0.85
251.368	33.96
251.585	76.97
251.801	5.29
252.018	-9.05
252.235	27.82
252.451	48.3
252.668	48.3
252.885	101.55
253.102	9.39
253.318	-19.29
253.535	68.78
253.752	93.35
253.968	48.3
254.185	74.92
254.401	27.82
254.618	48.3
254.835	7.34
255.051	76.97
255.268	44.2
255.484	38.06
255.701	46.25
255.917	-2.9
256.134	40.11
256.351	52.39
256.567	9.39
256.784	19.63
257	-7
257.217	54.44
257.433	-13.14
257.65	-23.38
257.866	15.53
258.082	-7
258.299	-17.24
258.515	52.39
258.732	31.91
258.948	52.39
259.165	74.92
259.381	54.44
259.597	-0.85
259.814	-27.48
260.03	1.19
260.246	64.68
260.463	46.25
260.679	48.3
260.895	-29.52
261.112	58.54
261.328	23.72
261.544	19.63
261.761	46.25
261.977	-35.67
262.193	21.67
262.409	130.22
262.626	81.07
262.842	-7
263.058	3.24
263.274	72.87
263.49	36.01
263.707	58.54
263.923	46.25
264.139	5.29
264.355	-13.14
264.571	62.63
264.787	-35.67
265.004	54.44
265.22	56.49
265.436	-9.05
265.652	64.68
265.868	81.07
266.084	-0.85
266.3	21.67
266.516	60.59
266.732	11.43
266.948	42.15
267.164	33.96
267.38	-11.09
267.596	-54.1
267.812	119.98
268.028	-0.85
268.244	3.24
268.46	-19.29
268.676	-4.95
268.892	62.63
269.108	-25.43
269.324	-0.85
269.54	-0.85
269.756	68.78
269.972	19.63
270.188	60.59
270.403	-43.86
270.619	-4.95
270.835	40.11
271.051	21.67
271.267	29.87
271.483	52.39
271.698	126.12
271.914	3.24
272.13	-13.14
272.346	-41.81
272.562	44.2
272.777	42.15
272.993	85.16
273.209	-25.43
273.425	11.43
273.64	-15.19
273.856	33.96
274.072	3.24
274.287	54.44
274.503	38.06
274.719	62.63
274.934	66.73
275.15	-0.85
275.366	81.07
275.581	-15.19
275.797	60.59
276.012	17.58
276.228	52.39
276.444	52.39
276.659	56.49
276.875	-50
277.09	-27.48
277.306	44.2
277.521	52.39
277.737	-15.19
277.952	52.39
278.168	-17.24
278.383	60.59
278.599	-0.85
278.814	33.96
279.03	-39.76
279.245	74.92
279.461	54.44
279.676	25.77
279.892	3.24
280.107	-25.43
280.322	-33.62
280.538	33.96
280.753	13.48
280.969	58.54
281.184	46.25
281.399	40.11
281.615	9.39
281.83	111.78
282.045	-58.2
282.26	19.63
282.476	-39.76
282.691	66.73
282.906	44.2
283.122	56.49
283.337	-68.44
283.552	70.83
283.767	31.91
283.983	17.58
284.198	89.26
284.413	13.48
284.628	15.53
284.843	29.87
285.058	81.07
285.274	27.82
285.489	-11.09
285.704	11.43
285.919	29.87
286.134	-7
286.349	44.2
286.564	7.34
286.779	56.49
286.995	25.77
287.21	-13.14
287.425	56.49
287.64	13.48
287.855	64.68
288.07	38.06
288.285	7.34
288.5	89.26
288.715	93.35
288.93	31.91
289.145	38.06
289.36	-2.9
289.575	64.68
289.79	33.96
290.004	72.87
290.219	31.91
290.434	33.96
290.649	42.15
290.864	19.63
291.079	33.96
291.294	128.17
291.509	48.3
291.724	23.72
291.938	-9.05
292.153	40.11
292.368	89.26
292.583	36.01
292.798	107.69
293.012	52.39
293.227	40.11
293.442	40.11
293.657	56.49
293.871	87.21
294.086	79.02
294.301	52.39
294.516	152.74
294.73	-27.48
294.945	-4.95
295.16	36.01
295.374	-4.95
295.589	36.01
295.804	13.48
296.018	72.87
296.233	79.02
296.447	33.96
296.662	36.01
296.877	9.39
297.091	-35.67
297.306	91.31
297.52	46.25
297.735	-27.48
297.949	-7
298.164	36.01
298.378	46.25
298.593	40.11
298.807	-21.33
299.022	19.63
299.236	13.48
299.451	68.78
299.665	1.19
299.88	-43.86
300.094	31.91
300.309	19.63
300.523	93.35
300.737	15.53
300.952	68.78
301.166	15.53
301.381	97.45
301.595	46.25
301.809	5.29
302.024	-58.2
302.238	72.87
302.452	31.91
302.667	-17.24
302.881	40.11
303.095	7.34
303.309	93.35
303.524	-90.96
303.738	95.4
303.952	40.11
304.166	23.72
304.381	40.11
304.595	44.2
304.809	40.11
305.023	-2.9
305.237	29.87
305.452	40.11
305.666	44.2
305.88	87.21
306.094	48.3
306.308	36.01
306.522	58.54
306.736	87.21
306.95	44.2
307.164	-7
307.379	29.87
307.593	44.2
307.807	52.39
308.021	23.72
308.235	-11.09
308.449	31.91
308.663	-35.67
308.877	25.77
309.091	1.19
309.305	64.68
309.519	-33.62
309.733	-19.29
309.947	27.82
310.161	87.21
310.374	23.72
310.588	66.73
310.802	31.91
311.016	66.73
311.23	64.68
311.444	70.83
311.658	44.2
311.872	150.7
312.085	33.96
312.299	87.21
312.513	25.77
312.727	97.45
312.941	25.77
313.154	60.59
313.368	-0.85
313.582	58.54
313.796	52.39
314.009	-62.29
314.223	97.45
314.437	-45.91
314.651	11.43
314.864	72.87
315.078	40.11
315.292	-9.05
315.505	-2.9
315.719	44.2
315.933	76.97
316.146	13.48
316.36	-43.86
316.573	31.91
316.787	62.63
317.001	56.49
317.214	-17.24
317.428	38.06
317.641	31.91
317.855	-0.85
318.068	81.07
318.282	79.02
318.495	132.26
318.709	27.82
318.922	56.49
319.136	50.35
319.349	81.07
319.563	60.59
319.776	3.24
319.99	81.07
320.203	56.49
320.417	60.59
320.63	7.34
320.843	115.88
321.057	81.07
321.27	9.39
321.483	64.68
321.697	72.87
321.91	27.82
322.124	23.72
322.337	68.78
322.55	17.58
322.763	23.72
322.977	40.11
323.19	11.43
323.403	11.43
323.617	52.39
323.83	-13.14
324.043	-0.85
324.256	60.59
324.469	-43.86
324.683	9.39
324.896	-60.24
325.109	50.35
325.322	38.06
325.535	103.59
325.748	-58.2
325.962	-4.95
326.175	36.01
326.388	85.16
326.601	83.11
326.814	13.48
327.027	29.87
327.24	23.72
327.453	21.67
327.666	50.35
327.879	81.07
328.092	79.02
328.305	56.49
328.518	83.11
328.731	40.11
328.944	105.64
329.157	52.39
329.37	1.19
329.583	83.11
329.796	72.87
330.009	-4.95
330.222	3.24
330.435	52.39
330.648	29.87
330.861	7.34
331.073	44.2
331.286	52.39
331.499	74.92
331.712	36.01
331.925	36.01
332.138	19.63
332.35	62.63
332.563	-90.96
332.776	50.35
332.989	-17.24
333.202	3.24
333.414	25.77
333.627	52.39
333.84	-54.1
334.053	58.54
334.265	50.35
334.478	29.87
334.691	42.15
334.903	74.92
335.116	19.63
335.329	79.02
335.541	87.21
335.754	185.51
335.966	3.24
336.179	7.34
336.392	58.54
336.604	23.72
336.817	62.63
337.029	-2.9
337.242	40.11
337.454	105.64
337.667	7.34
337.88	5.29
338.092	9.39
338.305	52.39
338.517	44.2
338.729	72.87
338.942	23.72
339.154	5.29
339.367	36.01
339.579	15.53
339.792	31.91
340.004	-45.91
340.217	31.91
340.429	54.44
340.641	40.11
340.854	56.49
341.066	36.01
341.278	66.73
341.491	70.83
341.703	64.68
341.915	7.34
342.128	60.59
342.34	72.87
342.552	40.11
342.764	74.92
342.977	11.43
343.189	48.3
343.401	40.11
343.613	9.39
343.826	40.11
344.038	58.54
344.25	50.35
344.462	-11.09
344.674	46.25
344.886	33.96
345.099	13.48
345.311	68.78
345.523	105.64
345.735	-41.81
345.947	27.82
346.159	27.82
346.371	27.82
346.583	68.78
346.795	52.39
347.007	11.43
347.219	27.82
347.431	87.21
347.643	-27.48
347.855	68.78
348.067	115.88
348.279	-2.9
348.491	-13.14
348.703	68.78
348.915	74.92
349.127	27.82
349.339	27.82
349.551	58.54
349.763	117.93
349.975	23.72
350.187	93.35
350.399	42.15
350.61	60.59
350.822	17.58
351.034	46.25
351.246	79.02
351.458	29.87
351.669	11.43
351.881	60.59
352.093	117.93
352.305	31.91
352.517	-4.95
352.728	7.34
352.94	21.67
353.152	-0.85
353.363	-4.95
353.575	60.59
353.787	140.46
353.999	1.19
354.21	25.77
354.422	58.54
354.633	72.87
354.845	19.63
355.057	72.87
355.268	11.43
355.48	36.01
355.692	68.78
355.903	-13.14
356.115	38.06
356.326	15.53
356.538	79.02
356.749	9.39
356.961	38.06
357.172	7.34
357.384	21.67
357.595	54.44
357.807	25.77
358.018	54.44
358.23	31.91
358.441	60.59
358.653	117.93
358.864	31.91
359.075	-17.24
359.287	74.92
359.498	81.07
359.709	50.35
359.921	38.06
360.132	-9.05
360.344	72.87
360.555	-33.62
360.766	44.2
360.977	-4.95
361.189	54.44
361.4	-35.67
361.611	99.5
361.823	19.63
362.034	-47.96
362.245	29.87
362.456	87.21
362.667	119.98
362.879	15.53
363.09	76.97
363.301	-9.05
363.512	89.26
363.723	-0.85
363.935	48.3
364.146	72.87
364.357	-2.9
364.568	58.54
364.779	15.53
364.99	97.45
365.201	38.06
365.412	5.29
365.623	89.26
365.834	115.88
366.045	15.53
366.256	-13.14
366.467	97.45
366.678	79.02
366.889	54.44
367.1	60.59
367.311	72.87
367.522	29.87
367.733	44.2
367.944	66.73
368.155	72.87
368.366	19.63
368.577	11.43
368.788	87.21
368.999	97.45
369.209	5.29
369.42	52.39
369.631	44.2
369.842	66.73
370.053	33.96
370.264	89.26
370.474	72.87
370.685	-2.9
370.896	13.48
371.107	74.92
371.317	68.78
371.528	-39.76
371.739	93.35
371.95	85.16
372.16	56.49
372.371	91.31
372.582	44.2
372.792	70.83
373.003	117.93
373.214	-64.34
373.424	33.96
373.635	48.3
373.846	70.83
374.056	33.96
374.267	56.49
374.477	52.39
374.688	68.78
374.898	54.44
375.109	85.16
375.319	83.11
375.53	136.36
375.74	46.25
375.951	-9.05
376.161	93.35
376.372	111.78
376.582	21.67
376.793	52.39
377.003	-0.85
377.214	56.49
377.424	72.87
377.635	62.63
377.845	23.72
378.055	93.35
378.266	15.53
378.476	64.68
378.686	44.2
378.897	60.59
379.107	101.55
379.317	42.15
379.528	64.68
379.738	101.55
379.948	3.24
380.158	101.55
380.369	50.35
380.579	99.5
380.789	54.44
380.999	-56.15
381.21	56.49
381.42	95.4
381.63	31.91
381.84	83.11
382.05	56.49
382.261	62.63
382.471	130.22
382.681	-13.14
382.891	21.67
383.101	64.68
383.311	23.72
383.521	89.26
383.731	21.67
383.941	36.01
384.151	99.5
384.361	29.87
384.571	62.63
384.781	79.02
384.991	74.92
385.201	173.22
385.411	68.78
385.621	83.11
385.831	11.43
386.041	-29.52
386.251	70.83
386.461	74.92
386.671	81.07
386.881	154.79
387.091	44.2
387.301	158.89
387.511	113.83
387.72	97.45
387.93	42.15
388.14	76.97
388.35	3.24
388.56	11.43
388.769	101.55
388.979	68.78
389.189	56.49
389.399	93.35
389.609	-9.05
389.818	134.31
390.028	54.44
390.238	66.73
390.447	97.45
390.657	68.78
390.867	109.74
391.076	23.72
391.286	42.15
391.496	124.07
391.705	93.35
391.915	105.64
392.125	97.45
392.334	105.64
392.544	66.73
392.753	113.83
392.963	79.02
393.172	42.15
393.382	95.4
393.591	132.26
393.801	50.35
394.01	95.4
394.22	132.26
394.429	40.11
394.639	113.83
394.848	89.26
395.058	5.29
395.267	25.77
395.477	97.45
395.686	103.59
395.895	158.89
396.105	113.83
396.314	183.46
396.524	40.11
396.733	95.4
396.942	160.94
397.152	70.83
397.361	109.74
397.57	64.68
397.78	109.74
397.989	89.26
398.198	154.79
398.407	109.74
398.617	126.12
398.826	101.55
399.035	165.03
399.244	132.26
399.453	128.17
399.663	113.83
399.872	152.74
400.081	29.87
400.29	130.22
400.499	64.68
400.708	126.12
400.917	142.5
401.127	76.97
401.336	81.07
401.545	103.59
401.754	105.64
401.963	167.08
402.172	31.91
402.381	113.83
402.59	126.12
402.799	64.68
403.008	126.12
403.217	119.98
403.426	99.5
403.635	154.79
403.844	152.74
404.053	212.14
404.262	113.83
404.471	134.31
404.68	236.71
404.888	128.17
405.097	183.46
405.306	138.41
405.515	150.7
405.724	85.16
405.933	226.47
406.142	158.89
406.35	130.22
406.559	150.7
406.768	201.9
406.977	216.23
407.185	226.47
407.394	150.7
407.603	165.03
407.812	197.8
408.02	273.57
408.229	224.42
408.438	263.33
408.646	234.66
408.855	208.04
409.064	357.54
409.272	363.69
409.481	339.11
409.69	228.52
409.898	298.15
410.107	294.05
410.315	367.78
410.524	302.25
410.733	418.98
410.941	353.45
411.15	330.92
411.358	359.59
411.567	408.74
411.775	382.12
411.984	451.75
412.192	435.36
412.401	437.41
412.609	400.55
412.818	474.28
413.026	517.28
413.234	548
413.443	498.85
413.651	556.19
413.86	576.67
414.068	527.52
414.276	722.08
414.485	535.71
414.693	638.11
414.901	746.66
415.11	738.46
415.318	691.36
415.526	769.18
415.734	750.75
415.943	799.9
416.151	928.92
416.359	806.05
416.567	847.01
416.776	904.35
416.984	832.67
417.192	1064.09
417.4	1019.04
417.608	947.36
417.817	1088.67
418.025	1041.56
418.233	1193.11
418.441	1148.06
418.649	1131.67
418.857	1315.99
419.065	1227.93
419.273	1326.23
419.481	1330.33
419.689	1430.68
419.897	1514.64
420.105	1490.07
420.313	1645.71
420.521	1662.1
420.729	1692.82
420.937	1756.3
421.145	1750.16
421.353	1727.63
421.561	1914
421.769	1901.71
421.977	2083.98
422.185	2032.78
422.393	2102.41
422.601	2311.3
422.809	2253.96
423.017	2391.17
423.224	2428.04
423.432	2491.52
423.64	2532.48
423.848	2831.49
424.056	2714.75
424.263	2907.26
424.471	2778.24
424.679	3009.66
424.887	3175.55
425.094	3316.86
425.302	3157.11
425.51	3413.11
425.718	3396.73
425.925	3433.59
426.133	3683.44
426.341	3771.51
426.548	4095.08
426.756	4004.97
426.964	4037.74
427.171	4209.77
427.379	4287.59
427.586	4373.61
427.794	4607.08
428.001	4682.85
428.209	5108.83
428.417	5014.62
428.624	5233.75
428.832	5221.47
429.039	5262.43
429.247	5405.78
429.454	5866.58
429.662	6181.96
429.869	5803.09
430.076	6255.69
430.284	6044.75
430.491	6059.09
430.699	6698.05
430.906	6634.57
431.114	6599.75
431.321	7015.49
431.528	7003.2
431.736	7523.38
431.943	7859.25
432.15	7500.86
432.358	7693.37
432.565	8191.02
432.772	8057.9
432.979	8629.29
433.187	8694.82
433.394	8653.86
433.601	9356.32
433.808	9337.88
434.016	9118.75
434.223	9608.22
434.43	10224.65
434.637	10042.39
434.844	10540.04
435.052	10875.91
435.259	10849.29
435.466	10822.66
435.673	10660.87
435.88	11480.06
436.087	12137.46
436.294	12166.13
436.501	11662.33
436.708	11932.66
436.915	12454.89
437.122	12893.16
437.329	12821.48
437.537	13292.51
437.743	13530.08
437.95	13585.37
438.157	14144.47
438.364	14560.2
438.571	14408.65
438.778	14613.45
438.985	16120.76
439.192	15582.14
439.399	15899.58
439.606	15563.71
439.813	16405.42
440.02	17335.2
440.227	17023.91
440.433	16772.01
440.64	17482.66
440.847	17247.14
441.054	17757.08
441.261	19010.44
441.467	19000.2
441.674	19334.02
441.881	19841.92
442.088	19968.89
442.294	19442.56
442.501	20167.54
442.708	20530.03
442.914	21295.97
443.121	22074.2
443.328	21662.56
443.534	23106.38
443.741	22283.09
443.948	21922.65
444.154	23870.27
444.361	23421.77
444.568	23825.22
444.774	23915.33
444.981	24140.6
445.187	24607.54
445.394	25641.76
445.6	25434.92
445.807	28072.7
446.013	26452.76
446.22	27054.86
446.426	28214.01
446.633	28181.24
446.839	29260.52
447.046	28156.67
447.252	29702.89
447.459	29727.46
447.665	29637.35
447.871	30778.07
448.078	32049.86
448.284	30513.88
448.491	31378.12
448.697	32514.75
448.903	33133.23
449.11	33092.27
449.316	32463.55
449.522	33321.65
449.728	34140.83
449.935	34208.42
450.141	34226.85
450.347	35242.64
450.553	33690.28
450.76	34462.36
450.966	35355.28
451.172	34826.9
451.378	35498.64
451.584	34859.67
451.791	35799.69
451.997	35721.87
452.203	36383.36
452.409	36557.44
452.615	35865.22
452.821	34566.81
453.027	34259.62
453.233	36373.12
453.44	34554.52
453.646	35072.66
453.852	35256.98
454.058	36016.77
454.264	34394.78
454.47	35365.52
454.676	34282.14
454.882	35361.42
455.088	32408.25
455.294	32547.51
455.5	33348.27
455.705	33784.49
455.911	32613.05
456.117	31851.2
456.323	31234.77
456.529	29387.5
456.735	30614.23
456.941	30081.76
457.147	29489.9
457.352	28318.46
457.558	28410.62
457.764	28717.81
457.97	27650.82
458.176	27114.25
458.381	26944.27
458.587	25756.45
458.793	25762.59
458.999	24400.69
459.204	26123.04
459.41	25477.93
459.616	23747.39
459.821	24144.7
460.027	23882.56
460.233	23608.13
460.438	21916.51
460.644	22412.12
460.85	21332.84
461.055	21218.15
461.261	21121.9
461.466	19217.29
461.672	18942.86
461.878	20452.21
462.083	18748.3
462.289	18668.43
462.494	18545.55
462.7	17523.62
462.905	17269.67
463.111	17808.28
463.316	17927.07
463.522	17316.77
463.727	17554.33
463.932	17226.66
464.138	17357.73
464.343	17333.15
464.549	16868.27
464.754	17378.21
464.959	17234.85
465.165	17077.16
465.37	16260.02
465.575	15946.68
465.781	16362.42
465.986	16784.3
466.191	16126.9
466.397	15795.13
466.602	14982.09
466.807	15610.81
467.012	15616.96
467.218	15813.56
467.423	15363.01
467.628	15385.54
467.833	15905.72
