Data from USB4F104151__216__10-29-58-023.txt Node

Date: Wed Mar 12 10:29:58 EDT 2025
User: louis
Spectrometer: USB4F10415
Trigger mode: 4
Integration Time (sec): 3.000000E-2
Scans to average: 1
Electric dark correction enabled: true
Nonlinearity correction enabled: false
Boxcar width: 0
XAxis mode: Wavelengths
Number of Pixels in Spectrum: 3648
>>>>>Begin Spectral Data<<<<<
178.204	-77.82
178.424	-77.82
178.644	-77.82
178.864	-139.26
179.084	-22.53
179.304	-18.43
179.524	-28.67
179.744	-2.05
179.964	36.86
180.184	-18.43
180.404	30.72
180.624	-40.96
180.844	-12.29
181.064	-20.48
181.283	65.54
181.503	-49.15
181.723	57.34
181.943	-28.67
182.163	110.59
182.383	12.29
182.602	79.87
182.822	45.06
183.042	26.62
183.262	-22.53
183.482	77.82
183.701	-28.67
183.921	0
184.141	59.39
184.361	49.15
184.58	61.44
184.8	8.19
185.02	40.96
185.239	79.87
185.459	34.82
185.679	47.1
185.898	43.01
186.118	-4.1
186.338	65.54
186.557	12.29
186.777	-24.58
186.997	18.43
187.216	63.49
187.436	59.39
187.655	88.06
187.875	43.01
188.095	38.91
188.314	81.92
188.534	86.01
188.753	10.24
188.973	38.91
189.192	131.07
189.412	110.59
189.631	94.21
189.851	4.1
190.07	79.87
190.29	-40.96
190.509	12.29
190.729	69.63
190.948	32.77
191.168	108.54
191.387	24.58
191.607	-10.24
191.826	10.24
192.045	2.05
192.265	0
192.484	-16.38
192.704	73.73
192.923	-8.19
193.142	133.12
193.362	49.15
193.581	38.91
193.8	53.25
194.02	49.15
194.239	0
194.458	32.77
194.678	112.64
194.897	24.58
195.116	47.1
195.335	100.35
195.555	18.43
195.774	-20.48
195.993	8.19
196.212	6.14
196.432	16.38
196.651	53.25
196.87	12.29
197.089	73.73
197.308	30.72
197.528	43.01
197.747	24.58
197.966	75.77
198.185	69.63
198.404	6.14
198.623	49.15
198.842	73.73
199.062	-24.58
199.281	69.63
199.5	-16.38
199.719	81.92
199.938	118.78
200.157	16.38
200.376	22.53
200.595	-2.05
200.814	73.73
201.033	-65.53
201.252	43.01
201.471	65.54
201.69	45.06
201.909	100.35
202.128	8.19
202.347	40.96
202.566	22.53
202.785	12.29
203.004	-16.38
203.223	133.12
203.442	12.29
203.661	-14.34
203.879	57.34
204.098	32.77
204.317	-8.19
204.536	8.19
204.755	-55.3
204.974	0
205.193	43.01
205.411	81.92
205.63	57.34
205.849	18.43
206.068	45.06
206.287	-36.86
206.505	88.06
206.724	-34.82
206.943	40.96
207.162	45.06
207.381	57.34
207.599	88.06
207.818	65.54
208.037	30.72
208.255	-24.58
208.474	14.34
208.693	45.06
208.911	-22.53
209.13	32.77
209.349	-2.05
209.567	114.69
209.786	28.67
210.005	53.25
210.223	22.53
210.442	-10.24
210.661	36.86
210.879	36.86
211.098	28.67
211.316	8.19
211.535	34.82
211.753	-16.38
211.972	94.21
212.191	-12.29
212.409	16.38
212.628	22.53
212.846	26.62
213.065	79.87
213.283	-8.19
213.502	-12.29
213.72	32.77
213.938	10.24
214.157	49.15
214.375	32.77
214.594	49.15
214.812	45.06
215.031	4.1
215.249	61.44
215.467	32.77
215.686	14.34
215.904	49.15
216.122	43.01
216.341	75.77
216.559	155.65
216.778	122.88
216.996	59.39
217.214	34.82
217.432	36.86
217.651	-36.86
217.869	-45.06
218.087	14.34
218.306	0
218.524	-2.05
218.742	45.06
218.96	53.25
219.179	47.1
219.397	55.3
219.615	96.25
219.833	53.25
220.051	-10.24
220.27	32.77
220.488	53.25
220.706	-8.19
220.924	28.67
221.142	-6.14
221.36	8.19
221.578	6.14
221.796	81.92
222.015	43.01
222.233	49.15
222.451	18.43
222.669	-49.15
222.887	38.91
223.105	61.44
223.323	61.44
223.541	6.14
223.759	-8.19
223.977	51.2
224.195	22.53
224.413	77.82
224.631	53.25
224.849	10.24
225.067	-16.38
225.285	77.82
225.503	51.2
225.721	0
225.939	53.25
226.157	-4.1
226.375	120.83
226.592	8.19
226.81	55.3
227.028	4.1
227.246	49.15
227.464	38.91
227.682	61.44
227.9	71.68
228.117	36.86
228.335	-8.19
228.553	57.34
228.771	81.92
228.989	26.62
229.206	26.62
229.424	53.25
229.642	20.48
229.86	38.91
230.077	24.58
230.295	71.68
230.513	45.06
230.731	73.73
230.948	88.06
231.166	-24.58
231.384	16.38
231.601	63.49
231.819	57.34
232.037	34.82
232.254	6.14
232.472	65.54
232.689	49.15
232.907	32.77
233.125	36.86
233.342	14.34
233.56	-4.1
233.777	34.82
233.995	24.58
234.213	18.43
234.43	22.53
234.648	-16.38
234.865	26.62
235.083	-4.1
235.3	32.77
235.518	16.38
235.735	47.1
235.953	73.73
236.17	43.01
236.388	-12.29
236.605	-36.86
236.822	-40.96
237.04	75.77
237.257	61.44
237.475	-24.58
237.692	6.14
237.909	6.14
238.127	18.43
238.344	77.82
238.562	77.82
238.779	30.72
238.996	51.2
239.214	10.24
239.431	10.24
239.648	75.77
239.865	108.54
240.083	49.15
240.3	-2.05
240.517	-34.82
240.735	0
240.952	0
241.169	120.83
241.386	26.62
241.603	-14.34
241.821	-26.62
242.038	-8.19
242.255	12.29
242.472	8.19
242.689	135.17
242.907	30.72
243.124	16.38
243.341	38.91
243.558	-40.96
243.775	8.19
243.992	-2.05
244.209	36.86
244.426	96.25
244.643	45.06
244.86	0
245.078	24.58
245.295	0
245.512	81.92
245.729	55.3
245.946	38.91
246.163	32.77
246.38	6.14
246.597	90.11
246.814	16.38
247.031	106.49
247.248	-10.24
247.464	57.34
247.681	20.48
247.898	90.11
248.115	40.96
248.332	-32.77
248.549	61.44
248.766	65.54
248.983	-26.62
249.2	32.77
249.417	151.55
249.633	18.43
249.85	57.34
250.067	-10.24
250.284	-2.05
250.501	12.29
250.717	98.3
250.934	-69.63
251.151	53.25
251.368	38.91
251.585	8.19
251.801	-16.38
252.018	-10.24
252.235	71.68
252.451	18.43
252.668	65.54
252.885	0
253.102	81.92
253.318	38.91
253.535	32.77
253.752	22.53
253.968	73.73
254.185	-26.62
254.401	-10.24
254.618	8.19
254.835	-12.29
255.051	135.17
255.268	-2.05
255.484	61.44
255.701	40.96
255.917	124.93
256.134	14.34
256.351	12.29
256.567	-12.29
256.784	47.1
257	-30.72
257.217	47.1
257.433	49.15
257.65	86.01
257.866	67.58
258.082	-4.1
258.299	73.73
258.515	32.77
258.732	49.15
258.948	22.53
259.165	65.54
259.381	92.16
259.597	51.2
259.814	73.73
260.03	110.59
260.246	-12.29
260.463	98.3
260.679	36.86
260.895	69.63
261.112	69.63
261.328	24.58
261.544	63.49
261.761	122.88
261.977	20.48
262.193	28.67
262.409	71.68
262.626	36.86
262.842	36.86
263.058	24.58
263.274	24.58
263.49	-32.77
263.707	26.62
263.923	30.72
264.139	-8.19
264.355	63.49
264.571	112.64
264.787	-12.29
265.004	55.3
265.22	43.01
265.436	49.15
265.652	24.58
265.868	102.4
266.084	-12.29
266.3	-2.05
266.516	49.15
266.732	24.58
266.948	67.58
267.164	14.34
267.38	12.29
267.596	47.1
267.812	59.39
268.028	32.77
268.244	-12.29
268.46	16.38
268.676	34.82
268.892	18.43
269.108	38.91
269.324	-28.67
269.54	-18.43
269.756	94.21
269.972	-18.43
270.188	-2.05
270.403	-20.48
270.619	24.58
270.835	45.06
271.051	30.72
271.267	24.58
271.483	14.34
271.698	-22.53
271.914	30.72
272.13	-88.06
272.346	-53.25
272.562	38.91
272.777	69.63
272.993	8.19
273.209	-8.19
273.425	49.15
273.64	-73.73
273.856	55.3
274.072	55.3
274.287	-8.19
274.503	100.35
274.719	104.45
274.934	-18.43
275.15	-34.82
275.366	-43.01
275.581	88.06
275.797	-2.05
276.012	28.67
276.228	47.1
276.444	24.58
276.659	59.39
276.875	-12.29
277.09	22.53
277.306	47.1
277.521	69.63
277.737	22.53
277.952	77.82
278.168	55.3
278.383	67.58
278.599	47.1
278.814	16.38
279.03	36.86
279.245	110.59
279.461	106.49
279.676	83.97
279.892	16.38
280.107	12.29
280.322	96.25
280.538	40.96
280.753	20.48
280.969	0
281.184	73.73
281.399	32.77
281.615	16.38
281.83	83.97
282.045	6.14
282.26	38.91
282.476	8.19
282.691	88.06
282.906	8.19
283.122	-28.67
283.337	24.58
283.552	45.06
283.767	65.54
283.983	108.54
284.198	-32.77
284.413	71.68
284.628	36.86
284.843	16.38
285.058	88.06
285.274	67.58
285.489	81.92
285.704	6.14
285.919	10.24
286.134	6.14
286.349	40.96
286.564	65.54
286.779	118.78
286.995	49.15
287.21	0
287.425	16.38
287.64	12.29
287.855	65.54
288.07	22.53
288.285	32.77
288.5	65.54
288.715	137.21
288.93	51.2
289.145	0
289.36	20.48
289.575	43.01
289.79	108.54
290.004	8.19
290.219	38.91
290.434	47.1
290.649	40.96
290.864	20.48
291.079	53.25
291.294	-14.34
291.509	-8.19
291.724	73.73
291.938	77.82
292.153	61.44
292.368	57.34
292.583	69.63
292.798	73.73
293.012	26.62
293.227	36.86
293.442	-51.2
293.657	73.73
293.871	61.44
294.086	73.73
294.301	49.15
294.516	8.19
294.73	-40.96
294.945	-16.38
295.16	49.15
295.374	43.01
295.589	-2.05
295.804	0
296.018	22.53
296.233	53.25
296.447	36.86
296.662	16.38
296.877	55.3
297.091	55.3
297.306	6.14
297.52	67.58
297.735	114.69
297.949	30.72
298.164	0
298.378	-20.48
298.593	-24.58
298.807	38.91
299.022	32.77
299.236	112.64
299.451	38.91
299.665	-20.48
299.88	57.34
300.094	79.87
300.309	67.58
300.523	75.77
300.737	-40.96
300.952	38.91
301.166	43.01
301.381	8.19
301.595	36.86
301.809	18.43
302.024	-22.53
302.238	-8.19
302.452	24.58
302.667	96.25
302.881	102.4
303.095	149.5
303.309	81.92
303.524	-16.38
303.738	-4.1
303.952	8.19
304.166	36.86
304.381	6.14
304.595	90.11
304.809	77.82
305.023	55.3
305.237	53.25
305.452	12.29
305.666	71.68
305.88	40.96
306.094	12.29
306.308	36.86
306.522	73.73
306.736	24.58
306.95	55.3
307.164	26.62
307.379	86.01
307.593	110.59
307.807	77.82
308.021	108.54
308.235	38.91
308.449	43.01
308.663	57.34
308.877	98.3
309.091	100.35
309.305	40.96
309.519	63.49
309.733	143.36
309.947	-16.38
310.161	81.92
310.374	-20.48
310.588	57.34
310.802	24.58
311.016	51.2
311.23	40.96
311.444	49.15
311.658	65.54
311.872	59.39
312.085	77.82
312.299	100.35
312.513	-14.34
312.727	26.62
312.941	20.48
313.154	38.91
313.368	4.1
313.582	81.92
313.796	57.34
314.009	88.06
314.223	71.68
314.437	75.77
314.651	30.72
314.864	-8.19
315.078	-16.38
315.292	36.86
315.505	-16.38
315.719	22.53
315.933	38.91
316.146	98.3
316.36	63.49
316.573	53.25
316.787	61.44
317.001	63.49
317.214	-49.15
317.428	14.34
317.641	65.54
317.855	-26.62
318.068	63.49
318.282	116.73
318.495	51.2
318.709	32.77
318.922	49.15
319.136	-20.48
319.349	124.93
319.563	-20.48
319.776	114.69
319.99	0
320.203	53.25
320.417	4.1
320.63	139.26
320.843	118.78
321.057	34.82
321.27	38.91
321.483	32.77
321.697	49.15
321.91	28.67
322.124	47.1
322.337	69.63
322.55	34.82
322.763	112.64
322.977	49.15
323.19	-59.39
323.403	16.38
323.617	63.49
323.83	63.49
324.043	61.44
324.256	59.39
324.469	12.29
324.683	14.34
324.896	14.34
325.109	40.96
325.322	-16.38
325.535	57.34
325.748	104.45
325.962	-6.14
326.175	30.72
326.388	88.06
326.601	57.34
326.814	30.72
327.027	69.63
327.24	10.24
327.453	34.82
327.666	28.67
327.879	69.63
328.092	79.87
328.305	8.19
328.518	8.19
328.731	16.38
328.944	45.06
329.157	28.67
329.37	26.62
329.583	79.87
329.796	61.44
330.009	-77.82
330.222	4.1
330.435	4.1
330.648	32.77
330.861	129.02
331.073	8.19
331.286	4.1
331.499	81.92
331.712	-20.48
331.925	86.01
332.138	-6.14
332.35	116.73
332.563	32.77
332.776	59.39
332.989	96.25
333.202	141.31
333.414	32.77
333.627	71.68
333.84	81.92
334.053	-32.77
334.265	18.43
334.478	40.96
334.691	22.53
334.903	24.58
335.116	47.1
335.329	118.78
335.541	51.2
335.754	135.17
335.966	43.01
336.179	71.68
336.392	36.86
336.604	104.45
336.817	77.82
337.029	133.12
337.242	40.96
337.454	69.63
337.667	57.34
337.88	96.25
338.092	30.72
338.305	116.73
338.517	-32.77
338.729	40.96
338.942	30.72
339.154	24.58
339.367	77.82
339.579	28.67
339.792	-18.43
340.004	118.78
340.217	49.15
340.429	57.34
340.641	-12.29
340.854	-40.96
341.066	57.34
341.278	65.54
341.491	40.96
341.703	100.35
341.915	53.25
342.128	73.73
342.34	47.1
342.552	45.06
342.764	116.73
342.977	65.54
343.189	73.73
343.401	69.63
343.613	-24.58
343.826	40.96
344.038	4.1
344.25	61.44
344.462	22.53
344.674	116.73
344.886	59.39
345.099	-22.53
345.311	49.15
345.523	-8.19
345.735	43.01
345.947	57.34
346.159	22.53
346.371	6.14
346.583	47.1
346.795	108.54
347.007	55.3
347.219	47.1
347.431	32.77
347.643	90.11
347.855	45.06
348.067	184.32
348.279	73.73
348.491	102.4
348.703	47.1
348.915	-14.34
349.127	18.43
349.339	110.59
349.551	88.06
349.763	55.3
349.975	94.21
350.187	96.25
350.399	120.83
350.61	102.4
350.822	24.58
351.034	94.21
351.246	36.86
351.458	10.24
351.669	-8.19
351.881	43.01
352.093	6.14
352.305	92.16
352.517	65.54
352.728	14.34
352.94	61.44
353.152	98.3
353.363	-6.14
353.575	8.19
353.787	106.49
353.999	83.97
354.21	61.44
354.422	16.38
354.633	32.77
354.845	90.11
355.057	55.3
355.268	61.44
355.48	65.54
355.692	-4.1
355.903	20.48
356.115	43.01
356.326	73.73
356.538	120.83
356.749	55.3
356.961	20.48
357.172	4.1
357.384	45.06
357.595	114.69
357.807	135.17
358.018	6.14
358.23	4.1
358.441	143.36
358.653	88.06
358.864	71.68
359.075	59.39
359.287	22.53
359.498	94.21
359.709	75.77
359.921	59.39
360.132	104.45
360.344	53.25
360.555	47.1
360.766	34.82
360.977	51.2
361.189	86.01
361.4	67.58
361.611	63.49
361.823	83.97
362.034	18.43
362.245	-32.77
362.456	114.69
362.667	67.58
362.879	141.31
363.09	137.21
363.301	98.3
363.512	88.06
363.723	83.97
363.935	-45.06
364.146	38.91
364.357	83.97
364.568	45.06
364.779	36.86
364.99	73.73
365.201	49.15
365.412	65.54
365.623	47.1
365.834	53.25
366.045	61.44
366.256	65.54
366.467	98.3
366.678	61.44
366.889	75.77
367.1	47.1
367.311	61.44
367.522	73.73
367.733	73.73
367.944	122.88
368.155	49.15
368.366	81.92
368.577	65.54
368.788	147.45
368.999	45.06
369.209	59.39
369.42	6.14
369.631	114.69
369.842	34.82
370.053	67.58
370.264	81.92
370.474	-4.1
370.685	81.92
370.896	86.01
371.107	104.45
371.317	126.97
371.528	63.49
371.739	18.43
371.95	79.87
372.16	157.69
372.371	38.91
372.582	16.38
372.792	102.4
373.003	110.59
373.214	45.06
373.424	98.3
373.635	-2.05
373.846	190.46
374.056	110.59
374.267	32.77
374.477	86.01
374.688	61.44
374.898	98.3
375.109	-12.29
375.319	61.44
375.53	83.97
375.74	77.82
375.951	90.11
376.161	83.97
376.372	94.21
376.582	79.87
376.793	88.06
377.003	65.54
377.214	94.21
377.424	126.97
377.635	90.11
377.845	65.54
378.055	155.65
378.266	57.34
378.476	30.72
378.686	45.06
378.897	90.11
379.107	57.34
379.317	73.73
379.528	61.44
379.738	0
379.948	-14.34
380.158	75.77
380.369	32.77
380.579	65.54
380.789	65.54
380.999	131.07
381.21	32.77
381.42	90.11
381.63	86.01
381.84	83.97
382.05	92.16
382.261	108.54
382.471	86.01
382.681	47.1
382.891	79.87
383.101	145.41
383.311	86.01
383.521	20.48
383.731	147.45
383.941	73.73
384.151	137.21
384.361	135.17
384.571	40.96
384.781	63.49
384.991	153.6
385.201	98.3
385.411	178.17
385.621	69.63
385.831	57.34
386.041	88.06
386.251	8.19
386.461	90.11
386.671	131.07
386.881	110.59
387.091	-2.05
387.301	57.34
387.511	122.88
387.72	53.25
387.93	83.97
388.14	83.97
388.35	45.06
388.56	55.3
388.769	51.2
388.979	147.45
389.189	16.38
389.399	77.82
389.609	83.97
389.818	98.3
390.028	47.1
390.238	63.49
390.447	88.06
390.657	45.06
390.867	120.83
391.076	45.06
391.286	135.17
391.496	67.58
391.705	139.26
391.915	94.21
392.125	86.01
392.334	118.78
392.544	176.13
392.753	135.17
392.963	63.49
393.172	165.89
393.382	120.83
393.591	114.69
393.801	114.69
394.01	176.13
394.22	81.92
394.429	116.73
394.639	116.73
394.848	53.25
395.058	102.4
395.267	102.4
395.477	94.21
395.686	178.17
395.895	81.92
396.105	208.89
396.314	149.5
396.524	112.64
396.733	120.83
396.942	202.75
397.152	102.4
397.361	120.83
397.57	106.49
397.78	133.12
397.989	90.11
398.198	137.21
398.407	129.02
398.617	145.41
398.826	129.02
399.035	161.79
399.244	135.17
399.453	151.55
399.663	182.27
399.872	176.13
400.081	110.59
400.29	155.65
400.499	129.02
400.708	104.45
400.917	137.21
401.127	135.17
401.336	118.78
401.545	276.48
401.754	172.03
401.963	192.51
402.172	200.7
402.381	88.06
402.59	188.41
402.799	169.98
403.008	180.22
403.217	208.89
403.426	217.08
403.635	163.84
403.844	253.95
404.053	192.51
404.262	245.76
404.471	251.9
404.68	268.28
404.888	208.89
405.097	245.76
405.306	112.64
405.515	249.85
405.724	217.08
405.933	286.72
406.142	333.82
406.35	172.03
406.559	296.96
406.768	307.2
406.977	292.86
407.185	280.57
407.394	262.14
407.603	309.24
407.812	350.2
408.02	319.48
408.229	352.25
408.438	301.05
408.646	276.48
408.855	438.27
409.064	387.07
409.272	481.27
409.481	438.27
409.69	374.78
409.898	409.59
410.107	477.18
410.315	499.7
410.524	475.13
410.733	475.13
410.941	374.78
411.15	520.18
411.358	550.9
411.567	557.05
411.775	632.82
411.984	622.58
412.192	667.64
412.401	741.36
412.609	647.16
412.818	751.6
413.026	718.84
413.234	763.89
413.443	690.17
413.651	858.1
413.86	784.37
414.068	913.39
414.276	921.59
414.485	983.02
414.693	952.31
414.901	1066.99
415.11	1003.5
415.318	1064.94
415.526	1103.86
415.734	1110
415.943	1165.29
416.151	1273.84
416.359	1241.07
416.567	1261.55
416.776	1318.89
416.984	1447.91
417.192	1441.77
417.4	1429.48
417.608	1431.53
417.817	1468.39
418.025	1560.55
418.233	1662.95
418.441	1683.43
418.649	1695.72
418.857	1851.36
419.065	2058.21
419.273	1945.57
419.481	2158.56
419.689	2052.06
419.897	2232.29
420.105	2287.58
420.313	2295.77
420.521	2408.41
420.729	2398.17
420.937	2580.44
421.145	2602.97
421.353	2643.93
421.561	2971.6
421.769	2846.68
421.977	3188.69
422.185	3010.51
422.393	3174.35
422.601	3518.41
422.809	3258.32
423.017	3325.9
423.224	3719.11
423.432	3536.84
423.64	3590.09
423.848	4079.55
424.056	3962.82
424.263	4351.93
424.471	4227.01
424.679	4503.48
424.887	4636.6
425.094	4693.94
425.302	4683.7
425.51	5038
425.718	5113.78
425.925	5134.26
426.133	5380.01
426.341	5654.44
426.548	5810.09
426.756	5822.38
426.964	5945.25
427.171	6145.95
427.379	6629.27
427.586	6399.9
427.794	6743.96
428.001	7112.6
428.209	7454.61
428.417	7276.43
428.624	7808.9
428.832	7806.86
429.039	7833.48
429.247	7726.99
429.454	8408.96
429.662	8931.19
429.869	8304.51
430.076	9002.87
430.284	8853.37
430.491	9078.65
430.699	9541.49
430.906	9654.12
431.114	9764.71
431.321	10014.57
431.528	10282.85
431.736	10942.3
431.943	11495.25
432.15	11065.18
432.358	11269.97
432.565	11999.05
432.772	11736.91
432.979	12545.86
433.187	12564.29
433.394	12732.22
433.601	13399.86
433.808	13657.9
434.016	13338.42
434.223	14120.74
434.43	14882.59
434.637	14593.83
434.844	15595.28
435.052	15767.31
435.259	15570.71
435.466	15957.77
435.673	15709.97
435.88	16672.51
436.087	17575.67
436.294	17491.7
436.501	17141.5
436.708	17626.87
436.915	18183.91
437.122	19214.04
437.329	18802.4
437.537	19723.99
437.743	20094.67
437.95	19766.99
438.157	20485.83
438.364	21630.65
438.571	21534.39
438.778	21440.18
438.985	23668.37
439.192	22398.63
439.399	23303.84
439.606	22646.44
439.813	23989.91
440.02	25702.01
440.227	24964.74
440.433	24886.92
440.64	25667.19
440.847	25298.56
441.054	26455.66
441.261	27989.59
441.467	27698.78
441.674	27895.38
441.881	28669.51
442.088	29156.93
442.294	28610.12
442.501	29560.38
442.708	29906.49
442.914	31247.91
443.121	32601.61
443.328	31610.4
443.534	34004.47
443.741	32837.13
443.948	32595.47
444.154	35096.04
444.361	34113.02
444.568	34745.84
444.774	34883.05
444.981	35026.41
445.187	36290.01
445.394	37668.29
445.6	37268.94
445.807	40691.09
446.013	38778.29
446.22	39407.01
446.426	41166.22
446.633	41321.87
446.839	42390.91
447.046	41117.07
447.252	42968.43
447.459	43279.72
447.665	42917.23
447.871	44512.6
448.078	46746.93
448.284	44467.55
448.491	45778.25
448.697	47142.19
448.903	47682.86
449.11	47867.17
449.316	47156.53
449.522	48227.62
449.728	49556.75
449.935	49923.33
450.141	49872.13
450.347	50808.06
450.553	49042.71
450.76	49851.66
450.966	51162.36
451.172	51008.76
451.378	51963.11
451.584	50930.93
451.791	52331.75
451.997	51999.97
452.203	52311.27
452.409	52270.31
452.615	52018.41
452.821	50562.3
453.027	49874.18
453.233	52438.24
453.44	50248.96
453.646	50763
453.852	50621.69
454.058	51436.78
454.264	49716.49
454.47	50906.36
454.676	49423.63
454.882	51250.42
455.088	47131.95
455.294	47748.39
455.5	48166.18
455.705	48553.24
455.911	46755.13
456.117	45931.84
456.323	45256.01
456.529	42790.26
456.735	44565.85
456.941	43574.63
457.147	42874.23
457.352	41733.51
457.558	41293.19
457.764	41325.96
457.97	40256.92
458.176	39572.9
458.381	39464.36
458.587	37529.03
458.793	37438.92
458.999	35530.21
459.204	38399.41
459.41	37252.55
459.616	35120.62
459.821	34792.94
460.027	34672.11
460.233	33963.51
460.438	32362
460.644	32941.58
460.85	31276.58
461.055	30385.71
461.261	30379.57
461.466	28431.95
461.672	27555.42
461.878	29552.19
462.083	27618.91
462.289	27190.88
462.494	26953.32
462.7	25740.92
462.905	24870.53
463.111	25802.36
463.316	25904.76
463.522	25298.56
463.727	24960.64
463.932	25568.89
464.138	25175.68
464.343	25093.76
464.549	24532.62
464.754	25253.5
464.959	25087.62
465.165	25038.47
465.37	23907.99
465.575	23455.39
465.781	24174.22
465.986	24458.89
466.191	23518.87
466.397	22984.35
466.602	21819.06
466.807	22593.19
467.012	22576.81
467.218	22740.65
