Data from USB4F104151__62__10-23-58-183.txt Node

Date: Wed Mar 12 10:23:58 EDT 2025
User: louis
Spectrometer: USB4F10415
Trigger mode: 4
Integration Time (sec): 3.000000E-2
Scans to average: 1
Electric dark correction enabled: true
Nonlinearity correction enabled: false
Boxcar width: 0
XAxis mode: Wavelengths
Number of Pixels in Spectrum: 3648
>>>>>Begin Spectral Data<<<<<
178.204	-107.86
178.424	-107.86
178.644	-107.86
178.864	-93.52
179.084	-212.31
179.304	-1.37
179.524	19.11
179.744	-46.42
179.964	35.5
180.184	-19.8
180.404	10.92
180.624	25.26
180.844	-34.13
181.064	-27.99
181.283	33.45
181.503	-23.89
181.723	29.35
181.943	-19.8
182.163	43.69
182.383	17.07
182.602	43.69
182.822	31.4
183.042	78.51
183.262	58.03
183.482	27.31
183.701	45.74
183.921	41.64
184.141	-36.18
184.361	21.16
184.58	0.68
184.8	88.75
185.02	-56.66
185.239	70.31
185.459	133.8
185.679	64.17
185.898	-77.14
186.118	90.79
186.338	41.64
186.557	12.97
186.777	-19.8
186.997	-11.61
187.216	4.78
187.436	0.68
187.655	-5.46
187.875	66.22
188.095	-17.75
188.314	4.78
188.534	39.59
188.753	66.22
188.973	21.16
189.192	0.68
189.412	49.83
189.631	27.31
189.851	21.16
190.07	92.84
190.29	33.45
190.509	-42.32
190.729	66.22
190.948	33.45
191.168	70.31
191.387	4.78
191.607	29.35
191.826	21.16
192.045	35.5
192.265	49.83
192.484	27.31
192.704	37.55
192.923	-1.37
193.142	41.64
193.362	86.7
193.581	88.75
193.8	98.99
194.02	25.26
194.239	45.74
194.458	49.83
194.678	6.83
194.897	-50.52
195.116	51.88
195.335	12.97
195.555	43.69
195.774	62.12
195.993	41.64
196.212	80.55
196.432	64.17
196.651	-21.85
196.87	27.31
197.089	94.89
197.308	21.16
197.528	111.27
197.747	0.68
197.966	0.68
198.185	41.64
198.404	29.35
198.623	33.45
198.842	64.17
199.062	2.73
199.281	66.22
199.5	39.59
199.719	88.75
199.938	12.97
200.157	105.13
200.376	51.88
200.595	80.55
200.814	-21.85
201.033	107.18
201.252	82.6
201.471	-1.37
201.69	105.13
201.909	133.8
202.128	37.55
202.347	101.03
202.566	33.45
202.785	12.97
203.004	39.59
203.223	94.89
203.442	25.26
203.661	17.07
203.879	60.07
204.098	62.12
204.317	-19.8
204.536	94.89
204.755	-42.32
204.974	60.07
205.193	-13.65
205.411	78.51
205.63	109.23
205.849	10.92
206.068	84.65
206.287	55.98
206.505	82.6
206.724	92.84
206.943	-11.61
207.162	74.41
207.381	55.98
207.599	58.03
207.818	-7.51
208.037	-1.37
208.255	51.88
208.474	66.22
208.693	74.41
208.911	37.55
209.13	78.51
209.349	-21.85
209.567	21.16
209.786	53.93
210.005	-17.75
210.223	41.64
210.442	-7.51
210.661	66.22
210.879	-3.41
211.098	49.83
211.316	96.94
211.535	115.37
211.753	66.22
211.972	98.99
212.191	53.93
212.409	-32.08
212.628	51.88
212.846	-7.51
213.065	45.74
213.283	60.07
213.502	68.27
213.72	23.21
213.938	-1.37
214.157	31.4
214.375	90.79
214.594	-17.75
214.812	150.18
215.031	33.45
215.249	-40.28
215.467	31.4
215.686	88.75
215.904	107.18
216.122	-64.85
216.341	31.4
216.559	17.07
216.778	68.27
216.996	78.51
217.214	27.31
217.432	74.41
217.651	39.59
217.869	37.55
218.087	64.17
218.306	68.27
218.524	29.35
218.742	39.59
218.96	86.7
219.179	92.84
219.397	72.36
219.615	90.79
219.833	21.16
220.051	25.26
220.27	78.51
220.488	88.75
220.706	60.07
220.924	55.98
221.142	-27.99
221.36	70.31
221.578	31.4
221.796	4.78
222.015	-11.61
222.233	35.5
222.451	64.17
222.669	37.55
222.887	135.85
223.105	-3.41
223.323	-21.85
223.541	15.02
223.759	60.07
223.977	-5.46
224.195	70.31
224.413	74.41
224.631	29.35
224.849	10.92
225.067	103.08
225.285	12.97
225.503	-23.89
225.721	49.83
225.939	62.12
226.157	70.31
226.375	119.46
226.592	45.74
226.81	25.26
227.028	19.11
227.246	43.69
227.464	4.78
227.682	90.79
227.9	53.93
228.117	105.13
228.335	105.13
228.553	21.16
228.771	31.4
228.989	53.93
229.206	17.07
229.424	58.03
229.642	47.79
229.86	-3.41
230.077	19.11
230.295	70.31
230.513	82.6
230.731	68.27
230.948	76.46
231.166	98.99
231.384	-13.65
231.601	68.27
231.819	49.83
232.037	-3.41
232.254	45.74
232.472	74.41
232.689	53.93
232.907	131.75
233.125	111.27
233.342	51.88
233.56	55.98
233.777	23.21
233.995	25.26
234.213	45.74
234.43	51.88
234.648	88.75
234.865	33.45
235.083	21.16
235.3	62.12
235.518	60.07
235.735	66.22
235.953	37.55
236.17	21.16
236.388	29.35
236.605	4.78
236.822	90.79
237.04	84.65
237.257	53.93
237.475	2.73
237.692	33.45
237.909	25.26
238.127	-23.89
238.344	8.87
238.562	17.07
238.779	37.55
238.996	2.73
239.214	12.97
239.431	135.85
239.648	10.92
239.865	86.7
240.083	21.16
240.3	41.64
240.517	53.93
240.735	6.83
240.952	45.74
241.169	19.11
241.386	53.93
241.603	39.59
241.821	-23.89
242.038	43.69
242.255	33.45
242.472	60.07
242.689	47.79
242.907	105.13
243.124	27.31
243.341	19.11
243.558	29.35
243.775	-25.94
243.992	41.64
244.209	45.74
244.426	164.52
244.643	62.12
244.86	-11.61
245.078	109.23
245.295	45.74
245.512	25.26
245.729	-7.51
245.946	45.74
246.163	70.31
246.38	78.51
246.597	51.88
246.814	4.78
247.031	25.26
247.248	41.64
247.464	21.16
247.681	33.45
247.898	78.51
248.115	90.79
248.332	-19.8
248.549	19.11
248.766	74.41
248.983	-40.28
249.2	96.94
249.417	62.12
249.633	27.31
249.85	33.45
250.067	82.6
250.284	152.23
250.501	23.21
250.717	41.64
250.934	31.4
251.151	-1.37
251.368	41.64
251.585	0.68
251.801	51.88
252.018	62.12
252.235	41.64
252.451	78.51
252.668	62.12
252.885	27.31
253.102	-17.75
253.318	37.55
253.535	27.31
253.752	45.74
253.968	8.87
254.185	31.4
254.401	17.07
254.618	15.02
254.835	0.68
255.051	53.93
255.268	25.26
255.484	84.65
255.701	43.69
255.917	58.03
256.134	21.16
256.351	58.03
256.567	-5.46
256.784	29.35
257	2.73
257.217	64.17
257.433	39.59
257.65	29.35
257.866	64.17
258.082	58.03
258.299	-25.94
258.515	25.26
258.732	37.55
258.948	0.68
259.165	19.11
259.381	70.31
259.597	55.98
259.814	29.35
260.03	55.98
260.246	113.32
260.463	10.92
260.679	66.22
260.895	82.6
261.112	-9.56
261.328	15.02
261.544	-17.75
261.761	109.23
261.977	86.7
262.193	-60.76
262.409	45.74
262.626	111.27
262.842	90.79
263.058	-58.71
263.274	-25.94
263.49	76.46
263.707	41.64
263.923	47.79
264.139	29.35
264.355	84.65
264.571	117.42
264.787	62.12
265.004	74.41
265.22	10.92
265.436	84.65
265.652	74.41
265.868	58.03
266.084	12.97
266.3	31.4
266.516	2.73
266.732	31.4
266.948	103.08
267.164	72.36
267.38	115.37
267.596	154.28
267.812	6.83
268.028	45.74
268.244	-13.65
268.46	45.74
268.676	10.92
268.892	119.46
269.108	-21.85
269.324	-52.56
269.54	19.11
269.756	78.51
269.972	51.88
270.188	68.27
270.403	-7.51
270.619	45.74
270.835	19.11
271.051	0.68
271.267	51.88
271.483	-1.37
271.698	51.88
271.914	6.83
272.13	-3.41
272.346	127.66
272.562	23.21
272.777	58.03
272.993	33.45
273.209	43.69
273.425	-5.46
273.64	-19.8
273.856	37.55
274.072	19.11
274.287	86.7
274.503	2.73
274.719	70.31
274.934	35.5
275.15	12.97
275.366	58.03
275.581	31.4
275.797	29.35
276.012	0.68
276.228	12.97
276.444	17.07
276.659	27.31
276.875	31.4
277.09	39.59
277.306	41.64
277.521	60.07
277.737	27.31
277.952	70.31
278.168	33.45
278.383	55.98
278.599	31.4
278.814	84.65
279.03	-15.7
279.245	98.99
279.461	-54.61
279.676	96.94
279.892	4.78
280.107	47.79
280.322	-23.89
280.538	60.07
280.753	103.08
280.969	45.74
281.184	45.74
281.399	94.89
281.615	39.59
281.83	74.41
282.045	-13.65
282.26	15.02
282.476	21.16
282.691	53.93
282.906	47.79
283.122	-7.51
283.337	37.55
283.552	68.27
283.767	27.31
283.983	88.75
284.198	25.26
284.413	33.45
284.628	12.97
284.843	64.17
285.058	45.74
285.274	8.87
285.489	6.83
285.704	103.08
285.919	-21.85
286.134	45.74
286.349	27.31
286.564	23.21
286.779	58.03
286.995	12.97
287.21	51.88
287.425	37.55
287.64	-25.94
287.855	45.74
288.07	27.31
288.285	45.74
288.5	37.55
288.715	-11.61
288.93	-11.61
289.145	29.35
289.36	33.45
289.575	64.17
289.79	68.27
290.004	66.22
290.219	70.31
290.434	-3.41
290.649	6.83
290.864	23.21
291.079	62.12
291.294	8.87
291.509	135.85
291.724	58.03
291.938	25.26
292.153	88.75
292.368	-17.75
292.583	21.16
292.798	60.07
293.012	127.66
293.227	-36.18
293.442	-42.32
293.657	107.18
293.871	121.51
294.086	58.03
294.301	98.99
294.516	131.75
294.73	6.83
294.945	43.69
295.16	58.03
295.374	-3.41
295.589	72.36
295.804	8.87
296.018	86.7
296.233	-1.37
296.447	90.79
296.662	-11.61
296.877	78.51
297.091	74.41
297.306	66.22
297.52	98.99
297.735	62.12
297.949	62.12
298.164	15.02
298.378	33.45
298.593	-52.56
298.807	-34.13
299.022	-9.56
299.236	47.79
299.451	41.64
299.665	70.31
299.88	76.46
300.094	78.51
300.309	21.16
300.523	58.03
300.737	49.83
300.952	-13.65
301.166	-44.37
301.381	49.83
301.595	68.27
301.809	-7.51
302.024	6.83
302.238	25.26
302.452	62.12
302.667	74.41
302.881	-9.56
303.095	62.12
303.309	105.13
303.524	-36.18
303.738	74.41
303.952	37.55
304.166	78.51
304.381	-11.61
304.595	88.75
304.809	15.02
305.023	37.55
305.237	47.79
305.452	47.79
305.666	37.55
305.88	123.56
306.094	29.35
306.308	82.6
306.522	2.73
306.736	47.79
306.95	25.26
307.164	62.12
307.379	80.55
307.593	72.36
307.807	31.4
308.021	37.55
308.235	-11.61
308.449	27.31
308.663	37.55
308.877	88.75
309.091	23.21
309.305	4.78
309.519	33.45
309.733	37.55
309.947	4.78
310.161	72.36
310.374	37.55
310.588	39.59
310.802	-13.65
311.016	58.03
311.23	12.97
311.444	33.45
311.658	12.97
311.872	90.79
312.085	119.46
312.299	21.16
312.513	84.65
312.727	-11.61
312.941	4.78
313.154	90.79
313.368	-7.51
313.582	62.12
313.796	68.27
314.009	6.83
314.223	25.26
314.437	33.45
314.651	4.78
314.864	70.31
315.078	78.51
315.292	35.5
315.505	62.12
315.719	66.22
315.933	66.22
316.146	17.07
316.36	15.02
316.573	74.41
316.787	21.16
317.001	2.73
317.214	0.68
317.428	12.97
317.641	-7.51
317.855	12.97
318.068	70.31
318.282	55.98
318.495	62.12
318.709	12.97
318.922	62.12
319.136	33.45
319.349	78.51
319.563	17.07
319.776	41.64
319.99	25.26
320.203	92.84
320.417	37.55
320.63	148.14
320.843	64.17
321.057	66.22
321.27	86.7
321.483	82.6
321.697	25.26
321.91	45.74
322.124	103.08
322.337	-3.41
322.55	0.68
322.763	47.79
322.977	37.55
323.19	68.27
323.403	0.68
323.617	43.69
323.83	137.9
324.043	60.07
324.256	60.07
324.469	-11.61
324.683	31.4
324.896	60.07
325.109	35.5
325.322	-38.23
325.535	45.74
325.748	78.51
325.962	-7.51
326.175	39.59
326.388	76.46
326.601	33.45
326.814	62.12
327.027	66.22
327.24	82.6
327.453	58.03
327.666	84.65
327.879	74.41
328.092	84.65
328.305	68.27
328.518	109.23
328.731	58.03
328.944	66.22
329.157	76.46
329.37	19.11
329.583	86.7
329.796	119.46
330.009	-7.51
330.222	62.12
330.435	-3.41
330.648	53.93
330.861	2.73
331.073	55.98
331.286	121.51
331.499	92.84
331.712	37.55
331.925	-9.56
332.138	41.64
332.35	141.99
332.563	53.93
332.776	53.93
332.989	98.99
333.202	55.98
333.414	33.45
333.627	33.45
333.84	33.45
334.053	78.51
334.265	8.87
334.478	8.87
334.691	66.22
334.903	117.42
335.116	62.12
335.329	58.03
335.541	39.59
335.754	64.17
335.966	43.69
336.179	74.41
336.392	2.73
336.604	55.98
336.817	105.13
337.029	25.26
337.242	88.75
337.454	53.93
337.667	103.08
337.88	107.18
338.092	86.7
338.305	84.65
338.517	41.64
338.729	19.11
338.942	74.41
339.154	41.64
339.367	64.17
339.579	55.98
339.792	-1.37
340.004	8.87
340.217	49.83
340.429	43.69
340.641	27.31
340.854	53.93
341.066	84.65
341.278	88.75
341.491	119.46
341.703	45.74
341.915	-58.71
342.128	98.99
342.34	6.83
342.552	49.83
342.764	60.07
342.977	45.74
343.189	45.74
343.401	53.93
343.613	-27.99
343.826	-7.51
344.038	37.55
344.25	58.03
344.462	17.07
344.674	27.31
344.886	37.55
345.099	21.16
345.311	70.31
345.523	45.74
345.735	-44.37
345.947	117.42
346.159	27.31
346.371	86.7
346.583	-1.37
346.795	43.69
347.007	70.31
347.219	64.17
347.431	21.16
347.643	88.75
347.855	103.08
348.067	4.78
348.279	60.07
348.491	23.21
348.703	90.79
348.915	25.26
349.127	70.31
349.339	10.92
349.551	78.51
349.763	64.17
349.975	68.27
350.187	70.31
350.399	49.83
350.61	86.7
350.822	4.78
351.034	105.13
351.246	-15.7
351.458	111.27
351.669	51.88
351.881	127.66
352.093	74.41
352.305	68.27
352.517	-3.41
352.728	131.75
352.94	27.31
353.152	90.79
353.363	88.75
353.575	115.37
353.787	53.93
353.999	105.13
354.21	160.42
354.422	64.17
354.633	49.83
354.845	94.89
355.057	92.84
355.268	64.17
355.48	45.74
355.692	35.5
355.903	45.74
356.115	96.94
356.326	64.17
356.538	19.11
356.749	72.36
356.961	49.83
357.172	76.46
357.384	8.87
357.595	33.45
357.807	49.83
358.018	90.79
358.23	137.9
358.441	96.94
358.653	74.41
358.864	27.31
359.075	78.51
359.287	55.98
359.498	21.16
359.709	51.88
359.921	51.88
360.132	21.16
360.344	49.83
360.555	41.64
360.766	123.56
360.977	70.31
361.189	64.17
361.4	78.51
361.611	94.89
361.823	53.93
362.034	35.5
362.245	88.75
362.456	4.78
362.667	68.27
362.879	23.21
363.09	78.51
363.301	66.22
363.512	78.51
363.723	25.26
363.935	74.41
364.146	6.83
364.357	66.22
364.568	94.89
364.779	47.79
364.99	115.37
365.201	-13.65
365.412	62.12
365.623	53.93
365.834	133.8
366.045	37.55
366.256	74.41
366.467	25.26
366.678	25.26
366.889	94.89
367.1	64.17
367.311	39.59
367.522	23.21
367.733	74.41
367.944	53.93
368.155	53.93
368.366	58.03
368.577	90.79
368.788	107.18
368.999	33.45
369.209	107.18
369.42	78.51
369.631	154.28
369.842	0.68
370.053	72.36
370.264	43.69
370.474	37.55
370.685	96.94
370.896	90.79
371.107	64.17
371.317	0.68
371.528	17.07
371.739	113.32
371.95	10.92
372.16	88.75
372.371	21.16
372.582	86.7
372.792	21.16
373.003	121.51
373.214	109.23
373.424	-15.7
373.635	31.4
373.846	64.17
374.056	96.94
374.267	49.83
374.477	51.88
374.688	51.88
374.898	19.11
375.109	103.08
375.319	103.08
375.53	84.65
375.74	84.65
375.951	35.5
376.161	74.41
376.372	43.69
376.582	33.45
376.793	119.46
377.003	68.27
377.214	6.83
377.424	35.5
377.635	47.79
377.845	-32.08
378.055	90.79
378.266	49.83
378.476	107.18
378.686	125.61
378.897	25.26
379.107	53.93
379.317	21.16
379.528	72.36
379.738	21.16
379.948	-9.56
380.158	96.94
380.369	21.16
380.579	88.75
380.789	105.13
380.999	41.64
381.21	78.51
381.42	55.98
381.63	33.45
381.84	21.16
382.05	58.03
382.261	172.71
382.471	70.31
382.681	88.75
382.891	43.69
383.101	43.69
383.311	60.07
383.521	86.7
383.731	82.6
383.941	64.17
384.151	78.51
384.361	152.23
384.571	45.74
384.781	84.65
384.991	74.41
385.201	191.14
385.411	41.64
385.621	135.85
385.831	37.55
386.041	119.46
386.251	58.03
386.461	107.18
386.671	58.03
386.881	58.03
387.091	33.45
387.301	90.79
387.511	60.07
387.72	109.23
387.93	53.93
388.14	25.26
388.35	127.66
388.56	53.93
388.769	62.12
388.979	41.64
389.189	-11.61
389.399	47.79
389.609	119.46
389.818	80.55
390.028	84.65
390.238	76.46
390.447	84.65
390.657	17.07
390.867	-5.46
391.076	70.31
391.286	123.56
391.496	123.56
391.705	82.6
391.915	80.55
392.125	98.99
392.334	66.22
392.544	107.18
392.753	109.23
392.963	86.7
393.172	107.18
393.382	39.59
393.591	160.42
393.801	129.7
394.01	101.03
394.22	53.93
394.429	107.18
394.639	209.58
394.848	101.03
395.058	78.51
395.267	152.23
395.477	119.46
395.686	187.05
395.895	82.6
396.105	156.33
396.314	53.93
396.524	107.18
396.733	51.88
396.942	174.76
397.152	133.8
397.361	103.08
397.57	119.46
397.78	131.75
397.989	107.18
398.198	68.27
398.407	111.27
398.617	96.94
398.826	90.79
399.035	84.65
399.244	72.36
399.453	156.33
399.663	158.38
399.872	101.03
400.081	137.9
400.29	103.08
400.499	180.9
400.708	146.09
400.917	166.57
401.127	82.6
401.336	111.27
401.545	160.42
401.754	176.81
401.963	160.42
402.172	58.03
402.381	94.89
402.59	166.57
402.799	84.65
403.008	217.77
403.217	160.42
403.426	152.23
403.635	144.04
403.844	158.38
404.053	123.56
404.262	193.19
404.471	160.42
404.68	123.56
404.888	131.75
405.097	119.46
405.306	201.38
405.515	158.38
405.724	156.33
405.933	209.58
406.142	201.38
406.35	264.87
406.559	217.77
406.768	258.73
406.977	121.51
407.185	266.92
407.394	185
407.603	182.95
407.812	252.58
408.02	238.25
408.229	242.34
408.438	238.25
408.646	234.15
408.855	148.14
409.064	240.3
409.272	287.4
409.481	248.49
409.69	219.82
409.898	285.35
410.107	250.53
410.315	340.65
410.524	359.08
410.733	316.07
410.941	299.69
411.15	311.97
411.358	438.95
411.567	510.63
411.775	387.75
411.984	373.41
412.192	395.94
412.401	449.19
412.609	545.44
412.818	516.77
413.026	576.16
413.234	529.06
413.443	539.3
413.651	553.63
413.86	649.89
414.068	719.52
414.276	627.36
414.485	584.35
414.693	715.42
414.901	672.42
415.11	803.49
415.318	682.66
415.526	823.97
415.734	832.16
415.943	791.2
416.151	883.36
416.359	869.02
416.567	844.45
416.776	914.08
416.984	1043.1
417.192	1073.82
417.4	983.71
417.608	1071.77
417.817	1053.34
418.025	1151.64
418.233	1176.22
418.441	1133.21
418.649	1186.46
418.857	1270.42
419.065	1368.73
419.273	1333.91
419.481	1311.38
419.689	1485.46
419.897	1518.23
420.105	1561.23
420.313	1442.45
420.521	1655.44
420.729	1778.32
420.937	1659.54
421.145	1776.27
421.353	1792.66
421.561	1958.54
421.769	1946.25
421.977	2056.84
422.185	2155.15
422.393	2259.59
422.601	2308.74
422.809	2343.56
423.017	2331.27
423.224	2437.77
423.432	2517.64
423.64	2468.49
423.848	2701.95
424.056	2601.6
424.263	2878.08
424.471	2847.36
424.679	2863.74
424.887	3123.84
425.094	3170.94
425.302	3304.06
425.51	3271.29
425.718	3521.14
425.925	3465.85
426.133	3560.05
426.341	3818.1
426.548	4059.76
426.756	3900.02
426.964	3986.03
427.171	4229.74
427.379	4190.83
427.586	4383.34
427.794	4438.63
428.001	4655.72
428.209	4846.18
428.417	4977.25
428.624	5313.11
428.832	5210.72
429.039	5186.14
429.247	5180
429.454	5683.8
429.662	6056.53
429.869	5796.43
430.076	6058.57
430.284	5749.33
430.491	6079.05
430.699	6599.24
430.906	6425.16
431.114	6449.74
431.321	6894.15
431.528	6992.45
431.736	7289.4
431.943	7733.81
432.15	7526.97
432.358	7514.68
432.565	8102.45
432.772	8012.34
432.979	8239.66
433.187	8565.29
433.394	8493.61
433.601	9169.44
433.808	9204.25
434.016	9062.94
434.223	9366.04
434.43	10076.69
434.637	9851.41
434.844	10508.81
435.052	10668.55
435.259	10590.73
435.466	10635.78
435.673	10572.3
435.88	11278.85
436.087	11811.32
436.294	11725.3
436.501	11717.11
436.708	11727.35
436.915	12358.13
437.122	12943.85
437.329	12700.14
437.537	12949.99
437.743	13208.03
437.95	13273.57
438.157	13883.86
438.364	14197.2
438.571	14299.6
438.778	14373.33
438.985	16005.56
439.192	15020.49
439.399	15681.98
439.606	15249.86
439.813	16171.44
440.02	17090.98
440.227	16535.98
440.433	16669.1
440.64	17162.66
440.847	16955.82
441.054	17551.77
441.261	18579.86
441.467	18327.95
441.674	18741.64
441.881	19126.66
442.088	19489.15
442.294	19194.25
442.501	19493.25
442.708	20279.67
442.914	20889.96
443.121	21842.27
443.328	20812.14
443.534	22554.96
443.741	22090.07
443.948	21971.29
444.154	23288.14
444.361	23308.61
444.568	23406.92
444.774	23378.25
444.981	23501.12
445.187	23941.44
445.394	25092.4
445.6	24699.19
445.807	27498.76
446.013	26100
446.22	26396.95
446.426	27396.36
446.633	27746.56
446.839	28420.34
447.046	27339.02
447.252	29012.21
447.459	29171.95
447.665	28975.34
447.871	30173.41
448.078	31482.06
448.284	29999.33
448.491	30662.87
448.697	31617.22
448.903	32637.11
449.11	32530.62
449.316	31791.3
449.522	32190.66
449.728	33376.43
449.935	33429.68
450.141	33579.18
450.347	34457.76
450.553	32600.25
450.76	33417.39
450.966	34498.72
451.172	34117.79
451.378	34816.15
451.584	34457.76
451.791	34971.8
451.997	34830.49
452.203	35293.33
452.409	35616.91
452.615	35666.06
452.821	34001.06
453.027	33212.59
453.233	35192.98
453.44	33478.83
453.646	33843.37
453.852	34166.95
454.058	34498.72
454.264	33497.26
454.47	34191.52
454.676	33441.96
454.882	34605.21
455.088	31520.97
455.294	32147.65
455.5	32520.38
455.705	32704.7
455.911	31504.59
456.117	30898.39
456.323	30632.15
456.529	28834.03
456.735	30322.91
456.941	29341.93
457.147	28911.86
457.352	27836.67
457.558	27615.49
457.764	27601.16
457.97	27107.6
458.176	26528.02
458.381	26687.76
458.587	25014.57
458.793	25424.17
458.999	23976.25
459.204	25772.32
459.41	25276.71
459.616	23353.67
459.821	23361.86
460.027	23056.71
460.233	22905.17
460.438	21606.75
460.644	21766.49
460.85	20873.58
461.055	20484.47
461.261	20599.15
461.466	19241.35
461.672	18428.31
461.878	19724.67
462.083	18596.24
462.289	18041.24
462.494	17834.39
462.7	17160.61
462.905	16931.24
463.111	17088.93
463.316	17346.98
463.522	16798.12
463.727	17041.83
463.932	16845.23
464.138	16689.58
464.343	16820.65
464.549	16210.36
464.754	16875.95
464.959	16656.81
465.165	16730.54
465.37	15835.58
465.575	15397.31
465.781	16316.85
465.986	16284.08
466.191	15851.96
466.397	15333.82
466.602	14707.15
466.807	15227.33
467.012	15040.97
