Data from USB4F104151__170__10-27-25-760.txt Node

Date: Wed Mar 12 10:27:25 EDT 2025
User: louis
Spectrometer: USB4F10415
Trigger mode: 4
Integration Time (sec): 3.000000E-2
Scans to average: 1
Electric dark correction enabled: true
Nonlinearity correction enabled: false
Boxcar width: 0
XAxis mode: Wavelengths
Number of Pixels in Spectrum: 3648
>>>>>Begin Spectral Data<<<<<
178.204	-151.38
178.424	-151.38
178.644	-151.38
178.864	-126.8
179.084	-110.42
179.304	-32.6
179.524	-14.17
179.744	14.51
179.964	55.47
180.184	-1.88
180.404	-26.45
180.624	-5.97
180.844	-30.55
181.064	16.55
181.283	-10.07
181.503	34.99
181.723	0.17
181.943	26.79
182.163	59.56
182.383	-51.03
182.602	-69.46
182.822	6.31
183.042	16.55
183.262	-1.88
183.482	-10.07
183.701	-71.51
183.921	-44.88
184.141	-42.84
184.361	-38.74
184.58	-36.69
184.8	-18.26
185.02	47.27
185.239	2.22
185.459	-16.21
185.679	57.51
185.898	-69.46
186.118	75.95
186.338	20.65
186.557	-5.97
186.777	-59.22
186.997	-48.98
187.216	0.17
187.436	45.23
187.655	24.75
187.875	-10.07
188.095	-32.6
188.314	-16.21
188.534	67.75
188.753	22.7
188.973	-1.88
189.192	0.17
189.412	-10.07
189.631	47.27
189.851	43.18
190.07	41.13
190.29	-26.45
190.509	-51.03
190.729	12.46
190.948	18.6
191.168	121
191.387	12.46
191.607	-3.93
191.826	26.79
192.045	67.75
192.265	92.33
192.484	14.51
192.704	-20.31
192.923	-67.41
193.142	51.37
193.362	59.56
193.581	12.46
193.8	110.76
194.02	-40.79
194.239	32.94
194.458	61.61
194.678	16.55
194.897	22.7
195.116	28.84
195.335	24.75
195.555	67.75
195.774	-8.02
195.993	39.08
196.212	-65.36
196.432	-87.89
196.651	-42.84
196.87	61.61
197.089	-16.21
197.308	-55.12
197.528	-20.31
197.747	14.51
197.966	75.95
198.185	-32.6
198.404	-67.41
198.623	57.51
198.842	10.41
199.062	8.36
199.281	65.71
199.5	28.84
199.719	20.65
199.938	32.94
200.157	-57.17
200.376	-18.26
200.595	67.75
200.814	-1.88
201.033	30.89
201.252	0.17
201.471	-69.46
201.69	73.9
201.909	10.41
202.128	-8.02
202.347	67.75
202.566	20.65
202.785	2.22
203.004	-10.07
203.223	104.62
203.442	45.23
203.661	10.41
203.879	20.65
204.098	-46.93
204.317	20.65
204.536	-65.36
204.755	18.6
204.974	4.27
205.193	14.51
205.411	77.99
205.63	51.37
205.849	30.89
206.068	12.46
206.287	-12.12
206.505	53.42
206.724	-30.55
206.943	-1.88
207.162	-40.79
207.381	-18.26
207.599	-14.17
207.818	-73.56
208.037	49.32
208.255	-42.84
208.474	22.7
208.693	69.8
208.911	-10.07
209.13	-12.12
209.349	-46.93
209.567	65.71
209.786	8.36
210.005	37.03
210.223	-36.69
210.442	-18.26
210.661	10.41
210.879	-1.88
211.098	0.17
211.316	37.03
211.535	14.51
211.753	10.41
211.972	-22.36
212.191	4.27
212.409	-20.31
212.628	24.75
212.846	-12.12
213.065	14.51
213.283	57.51
213.502	88.23
213.72	32.94
213.938	59.56
214.157	-22.36
214.375	-30.55
214.594	-36.69
214.812	45.23
215.031	-1.88
215.249	71.85
215.467	92.33
215.686	-12.12
215.904	59.56
216.122	-10.07
216.341	22.7
216.559	-102.23
216.778	-14.17
216.996	30.89
217.214	-3.93
217.432	-20.31
217.651	-30.55
217.869	20.65
218.087	-3.93
218.306	49.32
218.524	37.03
218.742	-20.31
218.96	14.51
219.179	-34.64
219.397	28.84
219.615	57.51
219.833	-16.21
220.051	-12.12
220.27	0.17
220.488	-3.93
220.706	-20.31
220.924	-34.64
221.142	2.22
221.36	-61.27
221.578	-34.64
221.796	-26.45
222.015	75.95
222.233	18.6
222.451	37.03
222.669	-26.45
222.887	53.42
223.105	-30.55
223.323	-20.31
223.541	28.84
223.759	28.84
223.977	-48.98
224.195	28.84
224.413	45.23
224.631	30.89
224.849	-14.17
225.067	43.18
225.285	-1.88
225.503	10.41
225.721	-14.17
225.939	-10.07
226.157	30.89
226.375	112.81
226.592	22.7
226.81	2.22
227.028	37.03
227.246	65.71
227.464	12.46
227.682	39.08
227.9	18.6
228.117	8.36
228.335	-20.31
228.553	-24.4
228.771	37.03
228.989	98.47
229.206	-20.31
229.424	-81.75
229.642	-48.98
229.86	18.6
230.077	-28.5
230.295	-5.97
230.513	24.75
230.731	-18.26
230.948	-1.88
231.166	41.13
231.384	-16.21
231.601	-53.08
231.819	63.66
232.037	-10.07
232.254	-34.64
232.472	-40.79
232.689	-3.93
232.907	-10.07
233.125	-30.55
233.342	-42.84
233.56	2.22
233.777	22.7
233.995	2.22
234.213	102.57
234.43	-22.36
234.648	-16.21
234.865	71.85
235.083	39.08
235.3	10.41
235.518	6.31
235.735	77.99
235.953	30.89
236.17	59.56
236.388	32.94
236.605	-32.6
236.822	-14.17
237.04	4.27
237.257	-38.74
237.475	22.7
237.692	26.79
237.909	34.99
238.127	2.22
238.344	63.66
238.562	47.27
238.779	-38.74
238.996	-53.08
239.214	-1.88
239.431	14.51
239.648	71.85
239.865	-1.88
240.083	80.04
240.3	-40.79
240.517	63.66
240.735	63.66
240.952	22.7
241.169	39.08
241.386	63.66
241.603	53.42
241.821	-10.07
242.038	-67.41
242.255	-5.97
242.472	6.31
242.689	34.99
242.907	53.42
243.124	6.31
243.341	14.51
243.558	4.27
243.775	-34.64
243.992	20.65
244.209	-38.74
244.426	8.36
244.643	6.31
244.86	-34.64
245.078	6.31
245.295	4.27
245.512	-16.21
245.729	-51.03
245.946	84.14
246.163	26.79
246.38	10.41
246.597	43.18
246.814	104.62
247.031	-63.32
247.248	-26.45
247.464	59.56
247.681	39.08
247.898	59.56
248.115	-8.02
248.332	-26.45
248.549	2.22
248.766	18.6
248.983	63.66
249.2	-18.26
249.417	57.51
249.633	0.17
249.85	69.8
250.067	-3.93
250.284	-14.17
250.501	-12.12
250.717	0.17
250.934	-48.98
251.151	14.51
251.368	-3.93
251.585	43.18
251.801	63.66
252.018	8.36
252.235	30.89
252.451	-46.93
252.668	16.55
252.885	112.81
253.102	28.84
253.318	-46.93
253.535	-67.41
253.752	12.46
253.968	-24.4
254.185	26.79
254.401	-44.88
254.618	37.03
254.835	-14.17
255.051	0.17
255.268	-100.18
255.484	37.03
255.701	-18.26
255.917	77.99
256.134	12.46
256.351	57.51
256.567	-34.64
256.784	18.6
257	-3.93
257.217	114.86
257.433	-14.17
257.65	-22.36
257.866	55.47
258.082	-40.79
258.299	-42.84
258.515	63.66
258.732	2.22
258.948	-3.93
259.165	-22.36
259.381	-8.02
259.597	-34.64
259.814	51.37
260.03	14.51
260.246	-3.93
260.463	-30.55
260.679	-12.12
260.895	55.47
261.112	-36.69
261.328	-42.84
261.544	-34.64
261.761	12.46
261.977	30.89
262.193	41.13
262.409	51.37
262.626	34.99
262.842	-3.93
263.058	-61.27
263.274	-16.21
263.49	41.13
263.707	8.36
263.923	-55.12
264.139	-30.55
264.355	43.18
264.571	-10.07
264.787	-26.45
265.004	24.75
265.22	12.46
265.436	-5.97
265.652	-42.84
265.868	-32.6
266.084	-30.55
266.3	-40.79
266.516	-65.36
266.732	28.84
266.948	-22.36
267.164	63.66
267.38	57.51
267.596	10.41
267.812	20.65
268.028	20.65
268.244	-3.93
268.46	20.65
268.676	47.27
268.892	-51.03
269.108	-36.69
269.324	-34.64
269.54	-28.5
269.756	51.37
269.972	43.18
270.188	28.84
270.403	-12.12
270.619	-108.37
270.835	10.41
271.051	47.27
271.267	4.27
271.483	-18.26
271.698	2.22
271.914	67.75
272.13	0.17
272.346	16.55
272.562	-135
272.777	22.7
272.993	0.17
273.209	-44.88
273.425	55.47
273.64	-10.07
273.856	-10.07
274.072	-1.88
274.287	-59.22
274.503	30.89
274.719	102.57
274.934	-48.98
275.15	-20.31
275.366	14.51
275.581	-67.41
275.797	-22.36
276.012	55.47
276.228	-20.31
276.444	12.46
276.659	59.56
276.875	6.31
277.09	63.66
277.306	-42.84
277.521	80.04
277.737	10.41
277.952	4.27
278.168	114.86
278.383	26.79
278.599	-14.17
278.814	-46.93
279.03	80.04
279.245	49.32
279.461	-75.6
279.676	-3.93
279.892	-67.41
280.107	-34.64
280.322	-36.69
280.538	43.18
280.753	-46.93
280.969	43.18
281.184	2.22
281.399	0.17
281.615	-59.22
281.83	45.23
282.045	-16.21
282.26	-36.69
282.476	32.94
282.691	-12.12
282.906	-26.45
283.122	-28.5
283.337	34.99
283.552	88.23
283.767	-28.5
283.983	43.18
284.198	-28.5
284.413	63.66
284.628	-100.18
284.843	-46.93
285.058	94.38
285.274	-55.12
285.489	28.84
285.704	-12.12
285.919	-30.55
286.134	-1.88
286.349	-16.21
286.564	37.03
286.779	28.84
286.995	10.41
287.21	55.47
287.425	22.7
287.64	14.51
287.855	61.61
288.07	-26.45
288.285	67.75
288.5	75.95
288.715	28.84
288.93	8.36
289.145	-10.07
289.36	43.18
289.575	2.22
289.79	43.18
290.004	-1.88
290.219	10.41
290.434	-51.03
290.649	-18.26
290.864	-18.26
291.079	39.08
291.294	34.99
291.509	-5.97
291.724	16.55
291.938	39.08
292.153	41.13
292.368	45.23
292.583	14.51
292.798	10.41
293.012	77.99
293.227	53.42
293.442	-75.6
293.657	45.23
293.871	71.85
294.086	-10.07
294.301	71.85
294.516	8.36
294.73	18.6
294.945	61.61
295.16	-14.17
295.374	-3.93
295.589	30.89
295.804	28.84
296.018	26.79
296.233	32.94
296.447	-1.88
296.662	-67.41
296.877	-42.84
297.091	39.08
297.306	2.22
297.52	-28.5
297.735	41.13
297.949	-20.31
298.164	47.27
298.378	84.14
298.593	-34.64
298.807	-36.69
299.022	63.66
299.236	102.57
299.451	-1.88
299.665	-53.08
299.88	-26.45
300.094	-18.26
300.309	14.51
300.523	-36.69
300.737	-18.26
300.952	2.22
301.166	55.47
301.381	-48.98
301.595	86.19
301.809	-38.74
302.024	32.94
302.238	-5.97
302.452	43.18
302.667	-28.5
302.881	37.03
303.095	12.46
303.309	55.47
303.524	-10.07
303.738	-14.17
303.952	-36.69
304.166	30.89
304.381	-10.07
304.595	98.47
304.809	-10.07
305.023	47.27
305.237	37.03
305.452	39.08
305.666	71.85
305.88	86.19
306.094	43.18
306.308	-32.6
306.522	-1.88
306.736	-48.98
306.95	-42.84
307.164	-1.88
307.379	-69.46
307.593	41.13
307.807	-1.88
308.021	43.18
308.235	-40.79
308.449	30.89
308.663	-14.17
308.877	63.66
309.091	30.89
309.305	63.66
309.519	18.6
309.733	-12.12
309.947	26.79
310.161	47.27
310.374	-18.26
310.588	86.19
310.802	-40.79
311.016	37.03
311.23	30.89
311.444	-55.12
311.658	43.18
311.872	47.27
312.085	65.71
312.299	-5.97
312.513	14.51
312.727	137.38
312.941	-112.47
313.154	47.27
313.368	-75.6
313.582	14.51
313.796	39.08
314.009	-28.5
314.223	39.08
314.437	94.38
314.651	-26.45
314.864	-67.41
315.078	26.79
315.292	-30.55
315.505	-22.36
315.719	30.89
315.933	55.47
316.146	18.6
316.36	77.99
316.573	41.13
316.787	12.46
317.001	-20.31
317.214	-59.22
317.428	-28.5
317.641	-61.27
317.855	12.46
318.068	28.84
318.282	-8.02
318.495	94.38
318.709	77.99
318.922	49.32
319.136	61.61
319.349	55.47
319.563	-10.07
319.776	80.04
319.99	-5.97
320.203	32.94
320.417	-42.84
320.63	32.94
320.843	90.28
321.057	59.56
321.27	-77.65
321.483	59.56
321.697	-20.31
321.91	80.04
322.124	-53.08
322.337	30.89
322.55	-24.4
322.763	88.23
322.977	0.17
323.19	53.42
323.403	43.18
323.617	12.46
323.83	16.55
324.043	10.41
324.256	-14.17
324.469	-51.03
324.683	26.79
324.896	8.36
325.109	34.99
325.322	30.89
325.535	22.7
325.748	-63.32
325.962	16.55
326.175	45.23
326.388	39.08
326.601	73.9
326.814	39.08
327.027	37.03
327.24	88.23
327.453	51.37
327.666	12.46
327.879	121
328.092	12.46
328.305	-61.27
328.518	65.71
328.731	-38.74
328.944	-46.93
329.157	26.79
329.37	4.27
329.583	67.75
329.796	18.6
330.009	45.23
330.222	22.7
330.435	6.31
330.648	-42.84
330.861	14.51
331.073	-14.17
331.286	6.31
331.499	8.36
331.712	34.99
331.925	8.36
332.138	10.41
332.35	-1.88
332.563	-3.93
332.776	80.04
332.989	-1.88
333.202	43.18
333.414	75.95
333.627	-44.88
333.84	-55.12
334.053	-38.74
334.265	16.55
334.478	69.8
334.691	-8.02
334.903	26.79
335.116	-5.97
335.329	71.85
335.541	63.66
335.754	41.13
335.966	-20.31
336.179	6.31
336.392	59.56
336.604	22.7
336.817	32.94
337.029	-22.36
337.242	-67.41
337.454	63.66
337.667	63.66
337.88	88.23
338.092	4.27
338.305	12.46
338.517	-34.64
338.729	28.84
338.942	96.43
339.154	26.79
339.367	-71.51
339.579	41.13
339.792	-10.07
340.004	-16.21
340.217	77.99
340.429	26.79
340.641	-16.21
340.854	18.6
341.066	47.27
341.278	43.18
341.491	61.61
341.703	65.71
341.915	30.89
342.128	26.79
342.34	-67.41
342.552	6.31
342.764	12.46
342.977	-5.97
343.189	0.17
343.401	-34.64
343.613	-20.31
343.826	22.7
344.038	-48.98
344.25	61.61
344.462	0.17
344.674	67.75
344.886	-20.31
345.099	18.6
345.311	41.13
345.523	41.13
345.735	-61.27
345.947	30.89
346.159	-59.22
346.371	-26.45
346.583	59.56
346.795	30.89
347.007	34.99
347.219	47.27
347.431	-28.5
347.643	10.41
347.855	8.36
348.067	57.51
348.279	-16.21
348.491	28.84
348.703	-5.97
348.915	30.89
349.127	-28.5
349.339	-65.36
349.551	-1.88
349.763	6.31
349.975	-5.97
350.187	55.47
350.399	129.19
350.61	67.75
350.822	2.22
351.034	2.22
351.246	71.85
351.458	61.61
351.669	-5.97
351.881	121
352.093	63.66
352.305	18.6
352.517	-16.21
352.728	16.55
352.94	-40.79
353.152	30.89
353.363	-5.97
353.575	12.46
353.787	24.75
353.999	16.55
354.21	63.66
354.422	32.94
354.633	67.75
354.845	2.22
355.057	-3.93
355.268	6.31
355.48	-10.07
355.692	32.94
355.903	34.99
356.115	59.56
356.326	-53.08
356.538	188.58
356.749	63.66
356.961	-30.55
357.172	57.51
357.384	-24.4
357.595	96.43
357.807	55.47
358.018	20.65
358.23	30.89
358.441	116.9
358.653	51.37
358.864	22.7
359.075	26.79
359.287	-5.97
359.498	86.19
359.709	37.03
359.921	30.89
360.132	22.7
360.344	32.94
360.555	0.17
360.766	-5.97
360.977	-48.98
361.189	63.66
361.4	12.46
361.611	88.23
361.823	59.56
362.034	39.08
362.245	26.79
362.456	4.27
362.667	-40.79
362.879	26.79
363.09	22.7
363.301	41.13
363.512	30.89
363.723	-36.69
363.935	4.27
364.146	30.89
364.357	37.03
364.568	6.31
364.779	-36.69
364.99	69.8
365.201	28.84
365.412	-1.88
365.623	-36.69
365.834	129.19
366.045	82.09
366.256	20.65
366.467	-3.93
366.678	-5.97
366.889	-36.69
367.1	4.27
367.311	28.84
367.522	-34.64
367.733	-3.93
367.944	100.52
368.155	30.89
368.366	108.71
368.577	55.47
368.788	59.56
368.999	-20.31
369.209	6.31
369.42	121
369.631	88.23
369.842	39.08
370.053	6.31
370.264	57.51
370.474	18.6
370.685	-53.08
370.896	8.36
371.107	84.14
371.317	55.47
371.528	55.47
371.739	92.33
371.95	8.36
372.16	34.99
372.371	86.19
372.582	32.94
372.792	39.08
373.003	-8.02
373.214	104.62
373.424	10.41
373.635	-30.55
373.846	82.09
374.056	63.66
374.267	84.14
374.477	41.13
374.688	39.08
374.898	34.99
375.109	43.18
375.319	-8.02
375.53	75.95
375.74	22.7
375.951	6.31
376.161	2.22
376.372	123.05
376.582	-36.69
376.793	-10.07
377.003	47.27
377.214	28.84
377.424	-1.88
377.635	16.55
377.845	-32.6
378.055	28.84
378.266	-57.17
378.476	55.47
378.686	49.32
378.897	-26.45
379.107	34.99
379.317	2.22
379.528	88.23
379.738	71.85
379.948	-77.65
380.158	26.79
380.369	43.18
380.579	94.38
380.789	14.51
380.999	125.1
381.21	55.47
381.42	104.62
381.63	14.51
381.84	-10.07
382.05	43.18
382.261	53.42
382.471	65.71
382.681	73.9
382.891	65.71
383.101	51.37
383.311	47.27
383.521	6.31
383.731	-18.26
383.941	14.51
384.151	-12.12
384.361	82.09
384.571	65.71
384.781	6.31
384.991	77.99
385.201	75.95
385.411	53.42
385.621	14.51
385.831	67.75
386.041	-24.4
386.251	116.9
386.461	59.56
386.671	55.47
386.881	116.9
387.091	-26.45
387.301	-12.12
387.511	65.71
387.72	-1.88
387.93	51.37
388.14	10.41
388.35	30.89
388.56	106.67
388.769	10.41
388.979	65.71
389.189	71.85
389.399	8.36
389.609	80.04
389.818	57.51
390.028	63.66
390.238	65.71
390.447	45.23
390.657	77.99
390.867	30.89
391.076	4.27
391.286	96.43
391.496	57.51
391.705	-22.36
391.915	145.58
392.125	67.75
392.334	-18.26
392.544	-1.88
392.753	114.86
392.963	43.18
393.172	43.18
393.382	32.94
393.591	147.62
393.801	14.51
394.01	100.52
394.22	94.38
394.429	45.23
394.639	59.56
394.848	14.51
395.058	32.94
395.267	84.14
395.477	108.71
395.686	92.33
395.895	82.09
396.105	86.19
396.314	73.9
396.524	84.14
396.733	41.13
396.942	84.14
397.152	2.22
397.361	118.95
397.57	84.14
397.78	67.75
397.989	61.61
398.198	65.71
398.407	110.76
398.617	34.99
398.826	77.99
399.035	92.33
399.244	86.19
399.453	49.32
399.663	55.47
399.872	26.79
400.081	86.19
400.29	92.33
400.499	20.65
400.708	71.85
400.917	108.71
401.127	112.81
401.336	-1.88
401.545	96.43
401.754	86.19
401.963	127.14
402.172	108.71
402.381	59.56
402.59	149.67
402.799	28.84
403.008	77.99
403.217	96.43
403.426	129.19
403.635	94.38
403.844	28.84
404.053	77.99
404.262	149.67
404.471	194.73
404.68	30.89
404.888	123.05
405.097	75.95
405.306	151.72
405.515	151.72
405.724	114.86
405.933	149.67
406.142	155.82
406.35	112.81
406.559	145.58
406.768	137.38
406.977	151.72
407.185	219.3
407.394	186.54
407.603	141.48
407.812	280.74
408.02	268.45
408.229	186.54
408.438	207.02
408.646	233.64
408.855	207.02
409.064	264.36
409.272	229.54
409.481	237.74
409.69	223.4
409.898	256.17
410.107	217.26
410.315	311.46
410.524	225.45
410.733	272.55
410.941	293.03
411.15	315.56
411.358	309.41
411.567	381.09
411.775	354.47
411.984	379.04
412.192	383.14
412.401	374.95
412.609	381.09
412.818	473.25
413.026	473.25
413.234	424.1
413.443	559.27
413.651	614.56
413.86	489.64
414.068	573.6
414.276	589.99
414.485	602.27
414.693	581.79
414.901	592.03
415.11	671.9
415.318	696.48
415.526	690.34
415.734	755.87
415.943	731.3
416.151	729.25
416.359	772.25
416.567	813.21
416.776	778.4
416.984	874.65
417.192	858.27
417.4	970.91
417.608	952.48
417.817	948.38
418.025	1030.3
418.233	1038.49
418.441	1087.64
418.649	1095.83
418.857	1093.79
419.065	1149.08
419.273	1106.07
419.481	1337.49
419.689	1300.63
419.897	1347.73
420.105	1398.93
420.313	1386.65
420.521	1429.65
420.729	1497.24
420.937	1587.35
421.145	1616.02
421.353	1648.79
421.561	1706.13
421.769	1822.86
421.977	1880.21
422.185	1915.02
422.393	1902.73
422.601	2128.01
422.809	2175.11
423.017	2152.59
423.224	2240.65
423.432	2388.1
423.64	2263.18
423.848	2568.32
424.056	2484.36
424.263	2680.96
424.471	2640
424.679	2734.21
424.887	2928.77
425.094	3008.64
425.302	3022.97
425.51	3201.15
425.718	3096.7
425.925	3262.58
426.133	3467.38
426.341	3606.64
426.548	3534.96
426.756	3709.04
426.964	3668.08
427.171	3858.54
427.379	4096.11
427.586	4030.57
427.794	4245.61
428.001	4348.01
428.209	4515.94
428.417	4669.54
428.624	4851.81
428.832	4956.26
429.039	4677.73
429.247	4735.07
429.454	5345.37
429.662	5648.47
429.869	5300.31
430.076	5611.61
430.284	5478.49
430.491	5742.68
430.699	6047.82
430.906	6115.41
431.114	5920.85
431.321	6252.62
431.528	6457.42
431.736	6918.21
431.943	7188.54
432.15	6944.83
432.358	6998.08
432.565	7477.3
432.772	7522.36
432.979	7813.17
433.187	8079.41
433.394	7858.23
433.601	8542.25
433.808	8738.85
434.016	8452.14
434.223	8845.35
434.43	9412.64
434.637	9213.98
434.844	9617.43
435.052	9748.5
435.259	9820.18
435.466	9963.54
435.673	10006.55
435.88	10713.1
436.087	11116.55
436.294	11184.13
436.501	10864.64
436.708	11089.92
436.915	11427.84
437.122	11835.38
437.329	11978.74
437.537	12335.09
437.743	12486.64
437.95	12204.02
438.157	12996.58
438.364	13432.8
438.571	13352.93
438.778	13174.75
438.985	14532.56
439.192	14325.71
439.399	14542.8
439.606	14352.34
439.813	14985.16
440.02	15880.12
440.227	15583.16
440.433	15478.72
440.64	16246.71
440.847	15914.94
441.054	16410.54
441.261	17645.47
441.467	17379.23
441.674	17639.33
441.881	18239.38
442.088	18208.66
442.294	17833.88
442.501	18403.22
442.708	18988.94
442.914	19373.96
443.121	20404.08
443.328	20113.27
443.534	21221.22
443.741	20725.61
443.948	20273.01
444.154	22052.7
444.361	21587.81
444.568	22015.83
444.774	21796.7
444.981	22095.71
445.187	22607.7
445.394	23975.74
445.6	23148.36
445.807	25646.88
446.013	24262.46
446.22	24901.42
446.426	25992.99
446.633	26146.59
446.839	27029.26
447.046	25816.86
447.252	26971.92
447.459	27133.71
447.665	27240.2
447.871	28385.02
448.078	29581.03
448.284	28014.34
448.491	29046.51
448.697	30011.1
448.903	30674.65
449.11	30437.08
449.316	29763.3
449.522	30301.92
449.728	31309.52
449.935	31624.9
450.141	31342.28
450.347	32159.42
450.553	31069.9
450.76	31553.23
450.966	32499.39
451.172	32020.16
451.378	32835.25
451.584	32382.65
451.791	33019.57
451.997	32739
452.203	33318.57
452.409	33248.94
452.615	33062.58
452.821	31952.58
453.027	31971.01
453.233	33242.8
453.44	31778.5
453.646	32069.31
453.852	32636.6
454.058	33007.28
454.264	31780.55
454.47	32351.93
454.676	31690.44
454.882	32845.49
455.088	29470.44
455.294	29968.1
455.5	30584.54
455.705	31241.93
455.911	29587.18
456.117	29038.32
456.323	28471.03
456.529	26670.87
456.735	28075.77
456.941	27203.34
457.147	26818.32
457.352	26126.11
457.558	25927.46
457.764	25876.26
457.97	25515.81
458.176	24872.75
458.381	24850.22
458.587	23611.2
458.793	23385.93
458.999	22349.65
459.204	24076.09
459.41	23060.3
459.616	21518.18
459.821	21573.47
460.027	21385.06
460.233	21186.41
460.438	20275.06
460.644	20612.98
460.85	19142.53
461.055	19087.24
461.261	19298.18
461.466	17618.85
461.672	17004.46
461.878	18524.05
462.083	17061.8
462.289	16998.31
462.494	16730.03
462.7	16039.86
462.905	15570.88
463.111	16091.06
463.316	16215.99
463.522	15796.15
463.727	16009.14
463.932	15761.34
464.138	15476.67
464.343	15237.06
464.549	15085.51
464.754	15749.05
464.959	15753.15
465.165	15433.66
465.37	14919.62
465.575	14356.43
465.781	15083.46
465.986	15384.51
