Data from USB4F104151__71__10-24-06-971.txt Node

Date: Wed Mar 12 10:24:06 EDT 2025
User: louis
Spectrometer: USB4F10415
Trigger mode: 4
Integration Time (sec): 3.000000E-2
Scans to average: 1
Electric dark correction enabled: true
Nonlinearity correction enabled: false
Boxcar width: 0
XAxis mode: Wavelengths
Number of Pixels in Spectrum: 3648
>>>>>Begin Spectral Data<<<<<
178.204	-108.54
178.424	-108.54
178.644	-108.54
178.864	-92.16
179.084	-69.63
179.304	-6.14
179.524	-10.24
179.744	36.86
179.964	22.53
180.184	-47.1
180.404	-14.34
180.624	0
180.844	14.34
181.064	-20.48
181.283	20.48
181.503	-43.01
181.723	47.1
181.943	-14.34
182.163	49.15
182.383	26.62
182.602	36.86
182.822	45.06
183.042	88.06
183.262	96.25
183.482	51.2
183.701	47.1
183.921	4.1
184.141	90.11
184.361	81.92
184.58	-2.05
184.8	26.62
185.02	-51.2
185.239	73.73
185.459	4.1
185.679	10.24
185.898	10.24
186.118	-43.01
186.338	-43.01
186.557	26.62
186.777	38.91
186.997	10.24
187.216	4.1
187.436	79.87
187.655	83.97
187.875	81.92
188.095	-16.38
188.314	34.82
188.534	51.2
188.753	-40.96
188.973	98.3
189.192	-2.05
189.412	6.14
189.631	22.53
189.851	90.11
190.07	118.78
190.29	18.43
190.509	79.87
190.729	-2.05
190.948	65.53
191.168	104.45
191.387	75.77
191.607	36.86
191.826	-36.86
192.045	88.06
192.265	57.34
192.484	98.3
192.704	51.2
192.923	45.06
193.142	43.01
193.362	-2.05
193.581	38.91
193.8	122.88
194.02	38.91
194.239	0
194.458	10.24
194.678	24.58
194.897	100.35
195.116	8.19
195.335	34.82
195.555	110.59
195.774	59.39
195.993	8.19
196.212	-12.29
196.432	-18.43
196.651	47.1
196.87	2.05
197.089	77.82
197.308	53.25
197.528	28.67
197.747	6.14
197.966	51.2
198.185	75.77
198.404	55.3
198.623	86.01
198.842	14.34
199.062	49.15
199.281	22.53
199.5	47.1
199.719	61.44
199.938	124.93
200.157	124.93
200.376	59.39
200.595	57.34
200.814	43.01
201.033	-10.24
201.252	94.21
201.471	36.86
201.69	61.44
201.909	49.15
202.128	92.16
202.347	40.96
202.566	-2.05
202.785	26.62
203.004	30.72
203.223	167.93
203.442	-10.24
203.661	38.91
203.879	53.25
204.098	-18.43
204.317	24.58
204.536	20.48
204.755	12.29
204.974	16.38
205.193	49.15
205.411	69.63
205.63	34.82
205.849	34.82
206.068	26.62
206.287	36.86
206.505	28.67
206.724	14.34
206.943	-22.53
207.162	51.2
207.381	-6.14
207.599	20.48
207.818	94.21
208.037	22.53
208.255	-10.24
208.474	36.86
208.693	88.06
208.911	45.06
209.13	36.86
209.349	40.96
209.567	47.1
209.786	124.93
210.005	53.25
210.223	40.96
210.442	18.43
210.661	69.63
210.879	47.1
211.098	-16.38
211.316	16.38
211.535	61.44
211.753	102.4
211.972	112.64
212.191	14.34
212.409	88.06
212.628	69.63
212.846	81.92
213.065	30.72
213.283	67.58
213.502	-4.1
213.72	47.1
213.938	59.39
214.157	77.82
214.375	67.58
214.594	4.1
214.812	43.01
215.031	34.82
215.249	20.48
215.467	67.58
215.686	10.24
215.904	81.92
216.122	26.62
216.341	-28.67
216.559	22.53
216.778	45.06
216.996	49.15
217.214	38.91
217.432	116.73
217.651	83.97
217.869	6.14
218.087	67.58
218.306	61.44
218.524	43.01
218.742	-2.05
218.96	65.53
219.179	4.1
219.397	30.72
219.615	102.4
219.833	53.25
220.051	-40.96
220.27	-36.86
220.488	102.4
220.706	-8.19
220.924	14.34
221.142	69.63
221.36	65.53
221.578	86.01
221.796	-14.34
222.015	34.82
222.233	30.72
222.451	45.06
222.669	28.67
222.887	88.06
223.105	61.44
223.323	102.4
223.541	2.05
223.759	118.78
223.977	32.77
224.195	100.35
224.413	71.68
224.631	32.77
224.849	55.3
225.067	81.92
225.285	55.3
225.503	86.01
225.721	24.58
225.939	45.06
226.157	59.39
226.375	96.25
226.592	2.05
226.81	79.87
227.028	2.05
227.246	120.83
227.464	22.53
227.682	34.82
227.9	110.59
228.117	69.63
228.335	24.58
228.553	63.49
228.771	69.63
228.989	38.91
229.206	59.39
229.424	98.3
229.642	0
229.86	18.43
230.077	65.53
230.295	20.48
230.513	-10.24
230.731	22.53
230.948	116.73
231.166	79.87
231.384	69.63
231.601	28.67
231.819	155.65
232.037	30.72
232.254	8.19
232.472	-30.72
232.689	-4.1
232.907	32.77
233.125	86.01
233.342	8.19
233.56	92.16
233.777	-10.24
233.995	-45.06
234.213	57.34
234.43	110.59
234.648	65.53
234.865	34.82
235.083	73.73
235.3	38.91
235.518	139.26
235.735	61.44
235.953	124.93
236.17	10.24
236.388	16.38
236.605	45.06
236.822	14.34
237.04	108.54
237.257	45.06
237.475	67.58
237.692	-24.58
237.909	73.73
238.127	-10.24
238.344	14.34
238.562	43.01
238.779	83.97
238.996	4.1
239.214	59.39
239.431	49.15
239.648	16.38
239.865	20.48
240.083	22.53
240.3	71.68
240.517	108.54
240.735	36.86
240.952	63.49
241.169	106.49
241.386	71.68
241.603	22.53
241.821	59.39
242.038	45.06
242.255	47.1
242.472	83.97
242.689	102.4
242.907	30.72
243.124	43.01
243.341	100.35
243.558	-10.24
243.775	22.53
243.992	71.68
244.209	4.1
244.426	79.87
244.643	108.54
244.86	47.1
245.078	45.06
245.295	83.97
245.512	57.34
245.729	-53.25
245.946	10.24
246.163	120.83
246.38	57.34
246.597	28.67
246.814	90.11
247.031	22.53
247.248	59.39
247.464	36.86
247.681	59.39
247.898	71.68
248.115	28.67
248.332	55.3
248.549	137.21
248.766	217.08
248.983	108.54
249.2	36.86
249.417	51.2
249.633	47.1
249.85	53.25
250.067	30.72
250.284	28.67
250.501	79.87
250.717	16.38
250.934	4.1
251.151	133.12
251.368	32.77
251.585	51.2
251.801	34.82
252.018	28.67
252.235	71.68
252.451	36.86
252.668	2.05
252.885	63.49
253.102	55.3
253.318	28.67
253.535	-18.43
253.752	53.25
253.968	47.1
254.185	96.25
254.401	14.34
254.618	2.05
254.835	-86.01
255.051	65.53
255.268	133.12
255.484	51.2
255.701	12.29
255.917	55.3
256.134	88.06
256.351	51.2
256.567	32.77
256.784	30.72
257	47.1
257.217	151.55
257.433	32.77
257.65	65.53
257.866	71.68
258.082	-81.92
258.299	-12.29
258.515	71.68
258.732	43.01
258.948	26.62
259.165	6.14
259.381	38.91
259.597	28.67
259.814	4.1
260.03	63.49
260.246	6.14
260.463	71.68
260.679	137.21
260.895	98.3
261.112	51.2
261.328	77.82
261.544	-4.1
261.761	94.21
261.977	26.62
262.193	-18.43
262.409	77.82
262.626	94.21
262.842	2.05
263.058	4.1
263.274	63.49
263.49	-14.34
263.707	122.88
263.923	104.45
264.139	51.2
264.355	45.06
264.571	100.35
264.787	-4.1
265.004	40.96
265.22	38.91
265.436	22.53
265.652	18.43
265.868	59.39
266.084	16.38
266.3	2.05
266.516	-22.53
266.732	100.35
266.948	96.25
267.164	69.63
267.38	71.68
267.596	108.54
267.812	69.63
268.028	63.49
268.244	61.44
268.46	67.58
268.676	-28.67
268.892	57.34
269.108	22.53
269.324	86.01
269.54	-59.39
269.756	73.73
269.972	-45.06
270.188	98.3
270.403	-6.14
270.619	26.62
270.835	49.15
271.051	79.87
271.267	12.29
271.483	67.58
271.698	45.06
271.914	-8.19
272.13	40.96
272.346	81.92
272.562	-14.34
272.777	38.91
272.993	53.25
273.209	102.4
273.425	75.77
273.64	12.29
273.856	73.73
274.072	92.16
274.287	22.53
274.503	36.86
274.719	59.39
274.934	69.63
275.15	14.34
275.366	36.86
275.581	2.05
275.797	43.01
276.012	51.2
276.228	129.02
276.444	16.38
276.659	51.2
276.875	38.91
277.09	38.91
277.306	77.82
277.521	120.83
277.737	100.35
277.952	94.21
278.168	-34.82
278.383	71.68
278.599	-28.67
278.814	90.11
279.03	88.06
279.245	67.58
279.461	-4.1
279.676	71.68
279.892	22.53
280.107	81.92
280.322	32.77
280.538	104.45
280.753	92.16
280.969	-14.34
281.184	34.82
281.399	83.97
281.615	18.43
281.83	86.01
282.045	51.2
282.26	96.25
282.476	57.34
282.691	116.73
282.906	59.39
283.122	38.91
283.337	71.68
283.552	34.82
283.767	129.02
283.983	124.93
284.198	92.16
284.413	43.01
284.628	34.82
284.843	20.48
285.058	71.68
285.274	75.77
285.489	16.38
285.704	104.45
285.919	-6.14
286.134	-20.48
286.349	14.34
286.564	96.25
286.779	75.77
286.995	71.68
287.21	-38.91
287.425	47.1
287.64	-26.62
287.855	79.87
288.07	32.77
288.285	14.34
288.5	102.4
288.715	49.15
288.93	20.48
289.145	38.91
289.36	18.43
289.575	30.72
289.79	55.3
290.004	38.91
290.219	86.01
290.434	75.77
290.649	49.15
290.864	6.14
291.079	53.25
291.294	88.06
291.509	67.58
291.724	8.19
291.938	55.3
292.153	131.07
292.368	55.3
292.583	34.82
292.798	86.01
293.012	40.96
293.227	100.35
293.442	55.3
293.657	126.97
293.871	94.21
294.086	30.72
294.301	61.44
294.516	75.77
294.73	30.72
294.945	12.29
295.16	43.01
295.374	69.63
295.589	106.49
295.804	45.06
296.018	28.67
296.233	131.07
296.447	22.53
296.662	-2.05
296.877	4.1
297.091	40.96
297.306	98.3
297.52	75.77
297.735	57.34
297.949	131.07
298.164	24.58
298.378	2.05
298.593	49.15
298.807	-20.48
299.022	90.11
299.236	114.69
299.451	10.24
299.665	129.02
299.88	2.05
300.094	47.1
300.309	63.49
300.523	59.39
300.737	100.35
300.952	22.53
301.166	47.1
301.381	8.19
301.595	61.44
301.809	59.39
302.024	20.48
302.238	-12.29
302.452	149.5
302.667	-2.05
302.881	104.45
303.095	51.2
303.309	53.25
303.524	94.21
303.738	24.58
303.952	108.54
304.166	8.19
304.381	-43.01
304.595	133.12
304.809	-14.34
305.023	116.73
305.237	34.82
305.452	96.25
305.666	79.87
305.88	141.31
306.094	83.97
306.308	86.01
306.522	88.06
306.736	67.58
306.95	45.06
307.164	-6.14
307.379	-4.1
307.593	135.17
307.807	77.82
308.021	59.39
308.235	94.21
308.449	67.58
308.663	86.01
308.877	71.68
309.091	96.25
309.305	65.53
309.519	49.15
309.733	94.21
309.947	38.91
310.161	77.82
310.374	96.25
310.588	38.91
310.802	-20.48
311.016	43.01
311.23	45.06
311.444	47.1
311.658	18.43
311.872	28.67
312.085	61.44
312.299	73.73
312.513	129.02
312.727	-47.1
312.941	6.14
313.154	88.06
313.368	18.43
313.582	102.4
313.796	71.68
314.009	59.39
314.223	49.15
314.437	45.06
314.651	79.87
314.864	59.39
315.078	63.49
315.292	88.06
315.505	59.39
315.719	88.06
315.933	75.77
316.146	-45.06
316.36	6.14
316.573	75.77
316.787	24.58
317.001	106.49
317.214	32.77
317.428	83.97
317.641	47.1
317.855	63.49
318.068	4.1
318.282	71.68
318.495	100.35
318.709	57.34
318.922	94.21
319.136	96.25
319.349	55.3
319.563	4.1
319.776	8.19
319.99	47.1
320.203	22.53
320.417	51.2
320.63	47.1
320.843	114.69
321.057	-51.2
321.27	147.45
321.483	40.96
321.697	45.06
321.91	124.93
322.124	71.68
322.337	67.58
322.55	65.53
322.763	30.72
322.977	6.14
323.19	38.91
323.403	43.01
323.617	88.06
323.83	55.3
324.043	69.63
324.256	49.15
324.469	49.15
324.683	61.44
324.896	18.43
325.109	34.82
325.322	-26.62
325.535	83.97
325.748	34.82
325.962	53.25
326.175	126.97
326.388	51.2
326.601	83.97
326.814	116.73
327.027	47.1
327.24	147.45
327.453	22.53
327.666	38.91
327.879	-24.58
328.092	61.44
328.305	47.1
328.518	38.91
328.731	73.73
328.944	61.44
329.157	79.87
329.37	-2.05
329.583	135.17
329.796	73.73
330.009	79.87
330.222	43.01
330.435	79.87
330.648	57.34
330.861	55.3
331.073	38.91
331.286	22.53
331.499	124.93
331.712	32.77
331.925	135.17
332.138	51.2
332.35	51.2
332.563	38.91
332.776	67.58
332.989	55.3
333.202	40.96
333.414	69.63
333.627	61.44
333.84	16.38
334.053	10.24
334.265	-71.68
334.478	-8.19
334.691	75.77
334.903	10.24
335.116	36.86
335.329	112.64
335.541	104.45
335.754	133.12
335.966	49.15
336.179	51.2
336.392	6.14
336.604	73.73
336.817	59.39
337.029	86.01
337.242	38.91
337.454	47.1
337.667	45.06
337.88	126.97
338.092	131.07
338.305	63.49
338.517	38.91
338.729	79.87
338.942	40.96
339.154	-24.58
339.367	-18.43
339.579	61.44
339.792	20.48
340.004	120.83
340.217	0
340.429	65.53
340.641	-26.62
340.854	-6.14
341.066	129.02
341.278	79.87
341.491	43.01
341.703	108.54
341.915	53.25
342.128	67.58
342.34	10.24
342.552	26.62
342.764	100.35
342.977	116.73
343.189	22.53
343.401	18.43
343.613	4.1
343.826	34.82
344.038	6.14
344.25	98.3
344.462	22.53
344.674	59.39
344.886	88.06
345.099	96.25
345.311	88.06
345.523	53.25
345.735	71.68
345.947	16.38
346.159	147.45
346.371	20.48
346.583	30.72
346.795	73.73
347.007	55.3
347.219	-34.82
347.431	55.3
347.643	137.21
347.855	38.91
348.067	139.26
348.279	47.1
348.491	104.45
348.703	90.11
348.915	12.29
349.127	4.1
349.339	-2.05
349.551	40.96
349.763	71.68
349.975	24.58
350.187	81.92
350.399	86.01
350.61	34.82
350.822	43.01
351.034	30.72
351.246	124.93
351.458	77.82
351.669	-10.24
351.881	147.45
352.093	147.45
352.305	63.49
352.517	59.39
352.728	135.17
352.94	43.01
353.152	141.31
353.363	-45.06
353.575	38.91
353.787	43.01
353.999	51.2
354.21	124.93
354.422	83.97
354.633	34.82
354.845	71.68
355.057	126.97
355.268	92.16
355.48	114.69
355.692	83.97
355.903	114.69
356.115	112.64
356.326	12.29
356.538	83.97
356.749	100.35
356.961	122.88
357.172	43.01
357.384	63.49
357.595	92.16
357.807	75.77
358.018	86.01
358.23	63.49
358.441	6.14
358.653	53.25
358.864	43.01
359.075	43.01
359.287	18.43
359.498	149.5
359.709	71.68
359.921	110.59
360.132	43.01
360.344	100.35
360.555	6.14
360.766	98.3
360.977	92.16
361.189	61.44
361.4	22.53
361.611	79.87
361.823	77.82
362.034	83.97
362.245	104.45
362.456	143.36
362.667	43.01
362.879	14.34
363.09	71.68
363.301	45.06
363.512	53.25
363.723	18.43
363.935	-2.05
364.146	133.12
364.357	47.1
364.568	6.14
364.779	40.96
364.99	67.58
365.201	28.67
365.412	116.73
365.623	71.68
365.834	49.15
366.045	28.67
366.256	135.17
366.467	79.87
366.678	75.77
366.889	-12.29
367.1	38.91
367.311	98.3
367.522	20.48
367.733	65.53
367.944	106.49
368.155	86.01
368.366	45.06
368.577	65.53
368.788	71.68
368.999	-10.24
369.209	88.06
369.42	159.74
369.631	67.58
369.842	118.78
370.053	63.49
370.264	45.06
370.474	102.4
370.685	59.39
370.896	75.77
371.107	108.54
371.317	104.45
371.528	55.3
371.739	192.51
371.95	104.45
372.16	104.45
372.371	61.44
372.582	55.3
372.792	94.21
373.003	38.91
373.214	73.73
373.424	112.64
373.635	22.53
373.846	118.78
374.056	53.25
374.267	43.01
374.477	69.63
374.688	63.49
374.898	75.77
375.109	34.82
375.319	108.54
375.53	116.73
375.74	-2.05
375.951	32.77
376.161	81.92
376.372	174.08
376.582	28.67
376.793	108.54
377.003	94.21
377.214	65.53
377.424	98.3
377.635	129.02
377.845	32.77
378.055	106.49
378.266	28.67
378.476	57.34
378.686	38.91
378.897	6.14
379.107	102.4
379.317	110.59
379.528	-16.38
379.738	18.43
379.948	96.25
380.158	178.17
380.369	94.21
380.579	59.39
380.789	24.58
380.999	47.1
381.21	143.36
381.42	79.87
381.63	77.82
381.84	124.93
382.05	88.06
382.261	30.72
382.471	104.45
382.681	51.2
382.891	38.91
383.101	57.34
383.311	-2.05
383.521	22.53
383.731	53.25
383.941	149.5
384.151	-2.05
384.361	51.2
384.571	14.34
384.781	118.78
384.991	92.16
385.201	188.41
385.411	133.12
385.621	63.49
385.831	6.14
386.041	118.78
386.251	38.91
386.461	110.59
386.671	45.06
386.881	94.21
387.091	81.92
387.301	116.73
387.511	71.68
387.72	45.06
387.93	120.83
388.14	100.35
388.35	40.96
388.56	26.62
388.769	143.36
388.979	59.39
389.189	55.3
389.399	92.16
389.609	26.62
389.818	45.06
390.028	98.3
390.238	36.86
390.447	163.84
390.657	129.02
390.867	43.01
391.076	26.62
391.286	94.21
391.496	77.82
391.705	137.21
391.915	120.83
392.125	96.25
392.334	92.16
392.544	104.45
392.753	30.72
392.963	49.15
393.172	135.17
393.382	-6.14
393.591	192.51
393.801	112.64
394.01	129.02
394.22	178.17
394.429	143.36
394.639	69.63
394.848	122.88
395.058	151.55
395.267	155.65
395.477	188.41
395.686	145.41
395.895	102.4
396.105	153.6
396.314	135.17
396.524	104.45
396.733	86.01
396.942	145.41
397.152	180.22
397.361	98.3
397.57	135.17
397.78	116.73
397.989	167.93
398.198	153.6
398.407	79.87
398.617	192.51
398.826	118.78
399.035	192.51
399.244	122.88
399.453	6.14
399.663	131.07
399.872	180.22
400.081	116.73
400.29	147.45
400.499	126.97
400.708	139.26
400.917	131.07
401.127	190.46
401.336	129.02
401.545	192.51
401.754	153.6
401.963	131.07
402.172	98.3
402.381	124.93
402.59	108.54
402.799	67.58
403.008	149.5
403.217	141.31
403.426	186.37
403.635	118.78
403.844	147.45
404.053	174.08
404.262	92.16
404.471	167.93
404.68	147.45
404.888	172.03
405.097	114.69
405.306	268.28
405.515	139.26
405.724	114.69
405.933	161.79
406.142	169.98
406.35	223.23
406.559	237.56
406.768	165.89
406.977	200.7
407.185	202.75
407.394	169.98
407.603	192.51
407.812	208.89
408.02	309.24
408.229	235.52
408.438	227.32
408.646	270.33
408.855	311.29
409.064	239.61
409.272	317.44
409.481	342.01
409.69	352.25
409.898	296.96
410.107	382.97
410.315	282.62
410.524	337.91
410.733	378.87
410.941	364.54
411.15	350.2
411.358	399.35
411.567	407.55
411.775	391.16
411.984	405.5
412.192	460.79
412.401	440.31
412.609	452.6
412.818	538.62
413.026	479.22
413.234	493.56
413.443	456.7
413.651	598.01
413.86	614.39
414.068	704.5
414.276	643.06
414.485	702.45
414.693	626.68
414.901	761.84
415.11	790.52
415.318	712.69
415.526	770.04
415.734	870.39
415.943	763.89
416.151	815.09
416.359	839.67
416.567	966.64
416.776	968.69
416.984	913.39
417.192	1124.33
417.4	1087.47
417.608	1009.65
417.817	1075.18
418.025	1114.1
418.233	1173.49
418.441	1171.44
418.649	1271.79
418.857	1339.37
419.065	1341.42
419.273	1304.56
419.481	1480.68
419.689	1603.56
419.897	1437.67
420.105	1630.18
420.313	1632.23
420.521	1658.85
420.729	1701.86
420.937	1753.06
421.145	1761.25
421.353	1812.45
421.561	1937.38
421.769	2037.73
421.977	2131.94
422.185	2084.83
422.393	2269.15
422.601	2385.88
422.809	2353.12
423.017	2410.46
423.224	2516.95
423.432	2666.46
423.64	2602.97
423.848	2861.01
424.056	2719.7
424.263	2842.58
424.471	2910.16
424.679	2965.46
424.887	3098.58
425.094	3334.09
425.302	3233.74
425.51	3446.73
425.718	3569.61
425.925	3557.32
426.133	3735.49
426.341	3872.71
426.548	4024.26
426.756	3872.71
426.964	4022.21
427.171	4308.93
427.379	4380.61
427.586	4407.23
427.794	4564.92
428.001	4763.58
428.209	5001.14
428.417	4859.83
428.624	5298.1
428.832	5175.22
429.039	5261.23
429.247	5334.96
429.454	5734.31
429.662	6100.9
429.869	5877.67
430.076	6154.15
430.284	6139.81
430.491	6301.6
430.699	6551.45
430.906	6508.44
431.114	6645.66
431.321	6999.96
431.528	7100.31
431.736	7651.21
431.943	7681.93
432.15	7624.59
432.358	7755.66
432.565	8079.24
432.772	8075.14
432.979	8419.2
433.187	8611.71
433.394	8654.72
433.601	9381.74
433.808	9363.31
434.016	9222
434.223	9633.65
434.43	10114.92
434.637	10114.92
434.844	10520.42
435.052	10856.28
435.259	10784.6
435.466	11124.57
435.673	10719.07
435.88	11530.06
436.087	11972.43
436.294	12050.25
436.501	11738.96
436.708	12123.98
436.915	12451.65
437.122	12867.39
437.329	12912.44
437.537	13307.7
437.743	13506.35
437.95	13322.04
438.157	14130.98
438.364	14722.85
438.571	14548.77
438.778	14468.9
438.985	16154.38
439.192	15365.91
439.399	15701.78
439.606	15646.48
439.813	16432.9
440.02	17385.21
440.227	17000.19
440.433	16817.92
440.64	17309.43
440.847	17006.33
441.054	17540.85
441.261	19003.1
441.467	18570.98
441.674	19082.97
441.881	19705.56
442.088	19676.88
442.294	19554.01
442.501	19863.25
442.708	20154.06
442.914	21085.89
443.121	22146.73
443.328	21503.67
443.534	22752.93
443.741	22437.55
443.948	21980.85
444.154	23680.66
444.361	23336.6
444.568	23766.68
444.774	23537.3
444.981	24233.61
445.187	24549
445.394	25470.59
445.6	25212.54
445.807	27663.96
446.013	26197.62
446.22	26967.65
446.426	27885.14
446.633	28192.34
446.839	29113.92
447.046	27999.83
447.252	29374.02
447.459	29609.53
447.665	29333.06
447.871	30713.39
448.078	31768.09
448.284	30168.63
448.491	31045.16
448.697	31956.5
448.903	32531.98
449.11	32986.63
449.316	32362
449.522	33136.13
449.728	33560.06
449.935	33983.99
450.141	33889.79
450.347	34538.99
450.553	33435.14
450.76	33981.95
450.966	35118.57
451.172	34633.2
451.378	35687.9
451.584	34489.84
451.791	35395.04
451.997	35397.09
452.203	35933.66
452.409	35894.75
452.615	35603.94
452.821	34373.11
453.027	33930.75
453.233	35501.54
453.44	34096.63
453.646	34420.21
453.852	34856.43
454.058	35347.94
454.264	34143.74
454.47	34878.96
454.676	33926.65
454.882	34913.77
455.088	32022.04
455.294	32456.21
455.5	32826.89
455.705	33482.24
455.911	31995.42
456.117	31399.46
456.323	30907.94
456.529	29308.48
456.735	30592.56
456.941	29777.47
457.147	29412.93
457.352	28386.89
457.558	27858.52
457.764	27979.35
457.97	27489.88
458.176	26797.67
458.381	26642.03
458.587	25585.27
458.793	25566.84
458.999	24430.22
459.204	25847.41
459.41	25196.16
459.616	23621.27
459.821	23545.5
460.027	23445.15
460.233	23037.6
460.438	21817.01
460.644	21909.17
460.85	21157.57
461.055	21110.46
461.261	20838.08
461.466	19502.81
461.672	18650.85
461.878	20121.29
462.083	18697.95
462.289	18302.7
462.494	18038.51
462.7	17422.07
462.905	17069.82
463.111	17221.37
463.316	17661.68
463.522	17282.81
463.727	17542.9
463.932	17155.83
464.138	17032.96
464.343	17000.19
464.549	16695.04
464.754	17319.67
464.959	17014.52
465.165	17035
465.37	16154.38
465.575	15650.58
465.781	16414.47
465.986	16369.41
466.191	15886.09
466.397	15447.83
466.602	14821.15
466.807	15169.3
467.012	15537.94
467.218	15539.99
