Data from USB4F104151__122__10-25-15-454.txt Node

Date: Wed Mar 12 10:25:15 EDT 2025
User: louis
Spectrometer: USB4F10415
Trigger mode: 4
Integration Time (sec): 3.000000E-2
Scans to average: 1
Electric dark correction enabled: true
Nonlinearity correction enabled: false
Boxcar width: 0
XAxis mode: Wavelengths
Number of Pixels in Spectrum: 3648
>>>>>Begin Spectral Data<<<<<
178.204	-69.8
178.424	-69.8
178.644	-69.8
178.864	-98.47
179.084	-110.76
179.304	71.51
179.524	14.17
179.744	-8.36
179.964	-34.99
180.184	-30.89
180.404	-26.79
180.624	51.03
180.844	3.93
181.064	-0.17
181.283	-14.51
181.503	-51.37
181.723	26.45
181.943	8.02
182.163	67.41
182.383	24.4
182.602	110.42
182.822	59.22
183.042	36.69
183.262	53.08
183.482	-14.51
183.701	51.03
183.921	104.28
184.141	-59.56
184.361	36.69
184.58	102.23
184.8	10.07
185.02	71.51
185.239	91.99
185.459	67.41
185.679	81.75
185.898	-51.37
186.118	75.6
186.338	38.74
186.557	89.94
186.777	57.17
186.997	51.03
187.216	10.07
187.436	40.79
187.655	104.28
187.875	-4.27
188.095	38.74
188.314	55.12
188.534	67.41
188.753	75.6
188.973	67.41
189.192	69.46
189.412	40.79
189.631	51.03
189.851	59.22
190.07	34.64
190.29	24.4
190.509	34.64
190.729	48.98
190.948	59.22
191.168	149.33
191.387	-12.46
191.607	32.6
191.826	59.22
192.045	57.17
192.265	8.02
192.484	75.6
192.704	59.22
192.923	-116.9
193.142	77.65
193.362	63.32
193.581	94.04
193.8	89.94
194.02	89.94
194.239	-22.7
194.458	67.41
194.678	67.41
194.897	38.74
195.116	10.07
195.335	71.51
195.555	44.88
195.774	48.98
195.993	85.84
196.212	42.84
196.432	10.07
196.651	42.84
196.87	8.02
197.089	159.57
197.308	48.98
197.528	42.84
197.747	34.64
197.966	8.02
198.185	34.64
198.404	-0.17
198.623	18.26
198.842	108.37
199.062	108.37
199.281	18.26
199.5	30.55
199.719	22.36
199.938	108.37
200.157	91.99
200.376	40.79
200.595	110.42
200.814	71.51
201.033	-16.55
201.252	51.03
201.471	28.5
201.69	87.89
201.909	1.88
202.128	30.55
202.347	89.94
202.566	65.36
202.785	-10.41
203.004	65.36
203.223	71.51
203.442	-32.94
203.661	-12.46
203.879	65.36
204.098	36.69
204.317	-6.31
204.536	51.03
204.755	3.93
204.974	71.51
205.193	94.04
205.411	141.14
205.63	65.36
205.849	3.93
206.068	73.56
206.287	32.6
206.505	48.98
206.724	104.28
206.943	24.4
207.162	-22.7
207.381	51.03
207.599	32.6
207.818	38.74
208.037	20.31
208.255	1.88
208.474	3.93
208.693	89.94
208.911	106.32
209.13	67.41
209.349	59.22
209.567	51.03
209.786	48.98
210.005	40.79
210.223	65.36
210.442	-30.89
210.661	30.55
210.879	-43.18
211.098	79.7
211.316	-12.46
211.535	44.88
211.753	-34.99
211.972	26.45
212.191	89.94
212.409	-10.41
212.628	16.21
212.846	61.27
213.065	116.56
213.283	14.17
213.502	-43.18
213.72	55.12
213.938	83.8
214.157	24.4
214.375	26.45
214.594	100.18
214.812	16.21
215.031	61.27
215.249	28.5
215.467	34.64
215.686	48.98
215.904	38.74
216.122	30.55
216.341	83.8
216.559	-12.46
216.778	55.12
216.996	-2.22
217.214	10.07
217.432	-43.18
217.651	30.55
217.869	-47.27
218.087	63.32
218.306	46.93
218.524	22.36
218.742	16.21
218.96	40.79
219.179	26.45
219.397	26.45
219.615	139.09
219.833	30.55
220.051	108.37
220.27	81.75
220.488	36.69
220.706	106.32
220.924	22.36
221.142	22.36
221.36	46.93
221.578	57.17
221.796	34.64
222.015	91.99
222.233	65.36
222.451	75.6
222.669	28.5
222.887	96.08
223.105	28.5
223.323	51.03
223.541	14.17
223.759	53.08
223.977	8.02
224.195	18.26
224.413	32.6
224.631	24.4
224.849	30.55
225.067	85.84
225.285	-24.75
225.503	16.21
225.721	-24.75
225.939	34.64
226.157	44.88
226.375	157.52
226.592	-49.32
226.81	30.55
227.028	104.28
227.246	120.66
227.464	-24.75
227.682	51.03
227.9	28.5
228.117	128.85
228.335	-51.37
228.553	-2.22
228.771	89.94
228.989	-2.22
229.206	57.17
229.424	51.03
229.642	5.97
229.86	22.36
230.077	73.56
230.295	73.56
230.513	57.17
230.731	114.52
230.948	-2.22
231.166	83.8
231.384	30.55
231.601	106.32
231.819	81.75
232.037	65.36
232.254	14.17
232.472	18.26
232.689	8.02
232.907	83.8
233.125	42.84
233.342	94.04
233.56	1.88
233.777	26.45
233.995	48.98
234.213	132.95
234.43	71.51
234.648	53.08
234.865	20.31
235.083	104.28
235.3	-14.51
235.518	24.4
235.735	61.27
235.953	18.26
236.17	73.56
236.388	-6.31
236.605	-8.36
236.822	-28.84
237.04	96.08
237.257	-6.31
237.475	-6.31
237.692	59.22
237.909	32.6
238.127	124.76
238.344	-18.6
238.562	40.79
238.779	1.88
238.996	53.08
239.214	-0.17
239.431	112.47
239.648	38.74
239.865	89.94
240.083	71.51
240.3	42.84
240.517	-16.55
240.735	48.98
240.952	30.55
241.169	139.09
241.386	-14.51
241.603	-18.6
241.821	1.88
242.038	69.46
242.255	55.12
242.472	91.99
242.689	71.51
242.907	108.37
243.124	69.46
243.341	-63.66
243.558	63.32
243.775	20.31
243.992	63.32
244.209	75.6
244.426	57.17
244.643	59.22
244.86	28.5
245.078	46.93
245.295	-30.89
245.512	32.6
245.729	-14.51
245.946	69.46
246.163	51.03
246.38	12.12
246.597	75.6
246.814	120.66
247.031	14.17
247.248	46.93
247.464	91.99
247.681	120.66
247.898	10.07
248.115	75.6
248.332	24.4
248.549	73.56
248.766	79.7
248.983	81.75
249.2	73.56
249.417	34.64
249.633	-10.41
249.85	12.12
250.067	75.6
250.284	22.36
250.501	71.51
250.717	59.22
250.934	-20.65
251.151	-16.55
251.368	46.93
251.585	67.41
251.801	28.5
252.018	34.64
252.235	63.32
252.451	-12.46
252.668	46.93
252.885	114.52
253.102	-8.36
253.318	100.18
253.535	122.71
253.752	18.26
253.968	-49.32
254.185	-67.75
254.401	38.74
254.618	51.03
254.835	38.74
255.051	130.9
255.268	38.74
255.484	46.93
255.701	22.36
255.917	71.51
256.134	-6.31
256.351	46.93
256.567	-0.17
256.784	46.93
257	22.36
257.217	67.41
257.433	14.17
257.65	81.75
257.866	91.99
258.082	51.03
258.299	32.6
258.515	42.84
258.732	53.08
258.948	46.93
259.165	38.74
259.381	38.74
259.597	89.94
259.814	10.07
260.03	22.36
260.246	63.32
260.463	51.03
260.679	102.23
260.895	59.22
261.112	69.46
261.328	18.26
261.544	53.08
261.761	120.66
261.977	30.55
262.193	-6.31
262.409	114.52
262.626	48.98
262.842	26.45
263.058	18.26
263.274	104.28
263.49	-6.31
263.707	16.21
263.923	106.32
264.139	18.26
264.355	51.03
264.571	44.88
264.787	57.17
265.004	157.52
265.22	-39.08
265.436	18.26
265.652	79.7
265.868	-20.65
266.084	75.6
266.3	51.03
266.516	5.97
266.732	81.75
266.948	30.55
267.164	55.12
267.38	-20.65
267.596	-24.75
267.812	79.7
268.028	3.93
268.244	24.4
268.46	98.13
268.676	85.84
268.892	81.75
269.108	20.31
269.324	-49.32
269.54	-73.9
269.756	71.51
269.972	-28.84
270.188	61.27
270.403	-6.31
270.619	24.4
270.835	10.07
271.051	30.55
271.267	16.21
271.483	75.6
271.698	67.41
271.914	1.88
272.13	-0.17
272.346	32.6
272.562	18.26
272.777	112.47
272.993	51.03
273.209	75.6
273.425	-32.94
273.64	67.41
273.856	108.37
274.072	147.28
274.287	44.88
274.503	112.47
274.719	53.08
274.934	26.45
275.15	-18.6
275.366	65.36
275.581	59.22
275.797	-26.79
276.012	89.94
276.228	91.99
276.444	57.17
276.659	141.14
276.875	-39.08
277.09	108.37
277.306	-0.17
277.521	59.22
277.737	48.98
277.952	53.08
278.168	114.52
278.383	-12.46
278.599	55.12
278.814	48.98
279.03	-30.89
279.245	108.37
279.461	59.22
279.676	83.8
279.892	14.17
280.107	5.97
280.322	-10.41
280.538	5.97
280.753	18.26
280.969	10.07
281.184	5.97
281.399	100.18
281.615	18.26
281.83	3.93
282.045	10.07
282.26	94.04
282.476	26.45
282.691	30.55
282.906	20.31
283.122	106.32
283.337	42.84
283.552	61.27
283.767	-14.51
283.983	96.08
284.198	28.5
284.413	65.36
284.628	5.97
284.843	73.56
285.058	53.08
285.274	38.74
285.489	108.37
285.704	-8.36
285.919	59.22
286.134	81.75
286.349	16.21
286.564	79.7
286.779	114.52
286.995	65.36
287.21	59.22
287.425	67.41
287.64	30.55
287.855	42.84
288.07	63.32
288.285	71.51
288.5	126.8
288.715	71.51
288.93	-39.08
289.145	48.98
289.36	73.56
289.575	87.89
289.79	89.94
290.004	79.7
290.219	102.23
290.434	75.6
290.649	26.45
290.864	44.88
291.079	5.97
291.294	46.93
291.509	65.36
291.724	34.64
291.938	75.6
292.153	132.95
292.368	-34.99
292.583	36.69
292.798	87.89
293.012	87.89
293.227	18.26
293.442	65.36
293.657	124.76
293.871	51.03
294.086	16.21
294.301	63.32
294.516	32.6
294.73	42.84
294.945	16.21
295.16	59.22
295.374	24.4
295.589	141.14
295.804	48.98
296.018	26.45
296.233	83.8
296.447	79.7
296.662	59.22
296.877	98.13
297.091	38.74
297.306	85.84
297.52	65.36
297.735	16.21
297.949	-18.6
298.164	118.61
298.378	16.21
298.593	18.26
298.807	94.04
299.022	130.9
299.236	108.37
299.451	26.45
299.665	104.28
299.88	-2.22
300.094	38.74
300.309	55.12
300.523	65.36
300.737	3.93
300.952	91.99
301.166	141.14
301.381	83.8
301.595	-30.89
301.809	42.84
302.024	53.08
302.238	-0.17
302.452	57.17
302.667	65.36
302.881	55.12
303.095	75.6
303.309	32.6
303.524	57.17
303.738	61.27
303.952	34.64
304.166	-6.31
304.381	40.79
304.595	102.23
304.809	53.08
305.023	71.51
305.237	24.4
305.452	12.12
305.666	3.93
305.88	67.41
306.094	75.6
306.308	71.51
306.522	26.45
306.736	48.98
306.95	22.36
307.164	91.99
307.379	59.22
307.593	141.14
307.807	83.8
308.021	79.7
308.235	38.74
308.449	-26.79
308.663	85.84
308.877	81.75
309.091	48.98
309.305	98.13
309.519	10.07
309.733	91.99
309.947	-14.51
310.161	112.47
310.374	79.7
310.588	42.84
310.802	-16.55
311.016	44.88
311.23	42.84
311.444	20.31
311.658	53.08
311.872	182.1
312.085	51.03
312.299	130.9
312.513	14.17
312.727	63.32
312.941	24.4
313.154	75.6
313.368	24.4
313.582	-0.17
313.796	-4.27
314.009	44.88
314.223	71.51
314.437	71.51
314.651	51.03
314.864	67.41
315.078	-8.36
315.292	1.88
315.505	71.51
315.719	87.89
315.933	61.27
316.146	5.97
316.36	24.4
316.573	55.12
316.787	30.55
317.001	63.32
317.214	38.74
317.428	98.13
317.641	-22.7
317.855	36.69
318.068	22.36
318.282	26.45
318.495	83.8
318.709	81.75
318.922	89.94
319.136	75.6
319.349	110.42
319.563	32.6
319.776	63.32
319.99	51.03
320.203	83.8
320.417	32.6
320.63	36.69
320.843	180.05
321.057	30.55
321.27	94.04
321.483	75.6
321.697	59.22
321.91	24.4
322.124	67.41
322.337	48.98
322.55	83.8
322.763	91.99
322.977	16.21
323.19	20.31
323.403	3.93
323.617	22.36
323.83	67.41
324.043	1.88
324.256	108.37
324.469	-14.51
324.683	42.84
324.896	42.84
325.109	83.8
325.322	32.6
325.535	94.04
325.748	83.8
325.962	51.03
326.175	83.8
326.388	87.89
326.601	114.52
326.814	71.51
327.027	34.64
327.24	51.03
327.453	-0.17
327.666	89.94
327.879	36.69
328.092	42.84
328.305	-16.55
328.518	14.17
328.731	14.17
328.944	14.17
329.157	61.27
329.37	-2.22
329.583	120.66
329.796	71.51
330.009	-45.23
330.222	63.32
330.435	59.22
330.648	83.8
330.861	-71.85
331.073	59.22
331.286	100.18
331.499	22.36
331.712	155.47
331.925	10.07
332.138	128.85
332.35	59.22
332.563	28.5
332.776	67.41
332.989	1.88
333.202	114.52
333.414	18.26
333.627	-18.6
333.84	51.03
334.053	57.17
334.265	63.32
334.478	42.84
334.691	44.88
334.903	26.45
335.116	63.32
335.329	-0.17
335.541	145.24
335.754	110.42
335.966	24.4
336.179	18.26
336.392	-0.17
336.604	12.12
336.817	42.84
337.029	30.55
337.242	57.17
337.454	83.8
337.667	18.26
337.88	91.99
338.092	65.36
338.305	40.79
338.517	18.26
338.729	65.36
338.942	57.17
339.154	16.21
339.367	28.5
339.579	32.6
339.792	1.88
340.004	24.4
340.217	83.8
340.429	69.46
340.641	-6.31
340.854	-12.46
341.066	79.7
341.278	100.18
341.491	67.41
341.703	87.89
341.915	-2.22
342.128	42.84
342.34	24.4
342.552	-26.79
342.764	48.98
342.977	3.93
343.189	89.94
343.401	42.84
343.613	-14.51
343.826	-0.17
344.038	-18.6
344.25	98.13
344.462	44.88
344.674	16.21
344.886	55.12
345.099	79.7
345.311	10.07
345.523	67.41
345.735	65.36
345.947	48.98
346.159	59.22
346.371	28.5
346.583	18.26
346.795	208.72
347.007	69.46
347.219	120.66
347.431	28.5
347.643	63.32
347.855	40.79
348.067	96.08
348.279	-0.17
348.491	118.61
348.703	67.41
348.915	46.93
349.127	59.22
349.339	10.07
349.551	24.4
349.763	-43.18
349.975	108.37
350.187	139.09
350.399	110.42
350.61	124.76
350.822	61.27
351.034	1.88
351.246	-8.36
351.458	77.65
351.669	18.26
351.881	106.32
352.093	104.28
352.305	57.17
352.517	89.94
352.728	94.04
352.94	96.08
353.152	79.7
353.363	20.31
353.575	55.12
353.787	126.8
353.999	1.88
354.21	65.36
354.422	83.8
354.633	-4.27
354.845	139.09
355.057	-12.46
355.268	73.56
355.48	30.55
355.692	77.65
355.903	22.36
356.115	55.12
356.326	55.12
356.538	16.21
356.749	108.37
356.961	106.32
357.172	59.22
357.384	42.84
357.595	67.41
357.807	104.28
358.018	-4.27
358.23	75.6
358.441	77.65
358.653	175.95
358.864	71.51
359.075	-8.36
359.287	89.94
359.498	73.56
359.709	40.79
359.921	57.17
360.132	28.5
360.344	100.18
360.555	75.6
360.766	96.08
360.977	8.02
361.189	87.89
361.4	22.36
361.611	96.08
361.823	48.98
362.034	89.94
362.245	18.26
362.456	42.84
362.667	87.89
362.879	59.22
363.09	55.12
363.301	120.66
363.512	20.31
363.723	51.03
363.935	51.03
364.146	91.99
364.357	48.98
364.568	46.93
364.779	48.98
364.99	69.46
365.201	-18.6
365.412	94.04
365.623	10.07
365.834	30.55
366.045	89.94
366.256	26.45
366.467	-6.31
366.678	89.94
366.889	104.28
367.1	32.6
367.311	104.28
367.522	83.8
367.733	96.08
367.944	112.47
368.155	34.64
368.366	81.75
368.577	87.89
368.788	102.23
368.999	44.88
369.209	83.8
369.42	122.71
369.631	118.61
369.842	63.32
370.053	96.08
370.264	59.22
370.474	77.65
370.685	65.36
370.896	30.55
371.107	69.46
371.317	102.23
371.528	71.51
371.739	75.6
371.95	73.56
372.16	91.99
372.371	96.08
372.582	30.55
372.792	48.98
373.003	38.74
373.214	104.28
373.424	83.8
373.635	89.94
373.846	51.03
374.056	67.41
374.267	108.37
374.477	94.04
374.688	89.94
374.898	79.7
375.109	118.61
375.319	67.41
375.53	81.75
375.74	34.64
375.951	122.71
376.161	89.94
376.372	67.41
376.582	79.7
376.793	79.7
377.003	124.76
377.214	61.27
377.424	116.56
377.635	85.84
377.845	51.03
378.055	32.6
378.266	53.08
378.476	87.89
378.686	48.98
378.897	122.71
379.107	137.04
379.317	73.56
379.528	53.08
379.738	77.65
379.948	67.41
380.158	96.08
380.369	26.45
380.579	81.75
380.789	1.88
380.999	135
381.21	48.98
381.42	77.65
381.63	91.99
381.84	38.74
382.05	38.74
382.261	63.32
382.471	26.45
382.681	28.5
382.891	83.8
383.101	108.37
383.311	67.41
383.521	32.6
383.731	16.21
383.941	120.66
384.151	87.89
384.361	149.33
384.571	102.23
384.781	106.32
384.991	94.04
385.201	149.33
385.411	139.09
385.621	69.46
385.831	102.23
386.041	26.45
386.251	94.04
386.461	137.04
386.671	120.66
386.881	110.42
387.091	34.64
387.301	63.32
387.511	59.22
387.72	44.88
387.93	89.94
388.14	67.41
388.35	141.14
388.56	63.32
388.769	22.36
388.979	120.66
389.189	83.8
389.399	30.55
389.609	10.07
389.818	91.99
390.028	100.18
390.238	51.03
390.447	34.64
390.657	124.76
390.867	-0.17
391.076	34.64
391.286	63.32
391.496	51.03
391.705	-41.13
391.915	71.51
392.125	169.81
392.334	100.18
392.544	128.85
392.753	22.36
392.963	171.86
393.172	77.65
393.382	71.51
393.591	112.47
393.801	67.41
394.01	157.52
394.22	77.65
394.429	51.03
394.639	184.15
394.848	48.98
395.058	87.89
395.267	65.36
395.477	132.95
395.686	151.38
395.895	69.46
396.105	126.8
396.314	175.95
396.524	81.75
396.733	18.26
396.942	128.85
397.152	137.04
397.361	112.47
397.57	147.28
397.78	169.81
397.989	208.72
398.198	145.24
398.407	61.27
398.617	75.6
398.826	143.19
399.035	63.32
399.244	171.86
399.453	116.56
399.663	106.32
399.872	132.95
400.081	104.28
400.29	145.24
400.499	102.23
400.708	202.58
400.917	132.95
401.127	130.9
401.336	100.18
401.545	145.24
401.754	108.37
401.963	139.09
402.172	145.24
402.381	145.24
402.59	165.71
402.799	161.62
403.008	139.09
403.217	182.1
403.426	147.28
403.635	102.23
403.844	173.91
404.053	130.9
404.262	137.04
404.471	167.76
404.68	130.9
404.888	186.19
405.097	178
405.306	212.82
405.515	239.44
405.724	110.42
405.933	159.57
406.142	165.71
406.35	192.34
406.559	206.67
406.768	223.06
406.977	202.58
407.185	194.39
407.394	239.44
407.603	247.63
407.812	231.25
408.02	243.54
408.229	171.86
408.438	247.63
408.646	309.07
408.855	253.78
409.064	290.64
409.272	354.13
409.481	315.22
409.69	278.35
409.898	335.7
410.107	304.98
410.315	395.09
410.524	315.22
410.733	411.47
410.941	356.18
411.15	368.46
411.358	452.43
411.567	419.66
411.775	417.61
411.984	393.04
412.192	458.57
412.401	483.15
412.609	585.55
412.818	509.77
413.026	542.54
413.234	550.73
413.443	517.97
413.651	536.4
413.86	546.64
414.068	587.6
414.276	683.85
414.485	716.62
414.693	681.8
414.901	808.78
415.11	730.95
415.318	755.53
415.526	757.58
415.734	859.98
415.943	796.49
416.151	870.22
416.359	894.79
416.567	896.84
416.776	911.18
416.984	1019.72
417.192	1021.77
417.4	1019.72
417.608	1107.78
417.817	1038.15
418.025	1167.17
418.233	1232.71
418.441	1189.7
418.649	1349.44
418.857	1361.73
419.065	1341.25
419.273	1386.3
419.481	1478.46
419.689	1523.52
419.897	1638.2
420.105	1597.24
420.313	1566.53
420.521	1632.06
420.729	1711.93
420.937	1843
421.145	1855.29
421.353	2008.89
421.561	2101.05
421.769	2082.61
421.977	2162.48
422.185	2197.3
422.393	2281.27
422.601	2473.78
422.809	2352.95
423.017	2424.62
423.224	2604.85
423.432	2582.32
423.64	2721.58
423.848	2922.28
424.056	2740.01
424.263	2987.82
424.471	2901.8
424.679	3057.45
424.887	3313.44
425.094	3335.97
425.302	3311.39
425.51	3428.13
425.718	3544.86
425.925	3655.45
426.133	3774.24
426.341	4036.38
426.548	4120.34
426.756	4101.91
426.964	4089.62
427.171	4534.03
427.379	4505.36
427.586	4605.71
427.794	4839.18
428.001	4990.73
428.209	5287.68
428.417	5099.27
428.624	5447.43
428.832	5543.68
429.039	5476.1
429.247	5351.17
429.454	6096.63
429.662	6412.02
429.869	5953.27
430.076	6149.88
430.284	6266.61
430.491	6616.82
430.699	6768.37
430.906	6862.57
431.114	6930.16
431.321	7177.96
431.528	7245.54
431.736	7741.15
431.943	8201.94
432.15	7685.86
432.358	8066.78
432.565	8457.94
432.772	8496.85
432.979	8804.05
433.187	9094.86
433.394	8715.98
433.601	9608.9
433.808	9594.56
434.016	9531.08
434.223	9979.58
434.43	10593.97
434.637	10469.05
434.844	11065
435.052	11265.71
435.259	11079.34
435.466	11118.25
435.673	11128.49
435.88	11650.72
436.087	12418.71
436.294	12521.11
436.501	12086.94
436.708	12478.1
436.915	12936.85
437.122	13602.44
437.329	13266.57
437.537	13698.69
437.743	14104.19
437.95	13883.01
438.157	14767.73
438.364	14911.09
438.571	15152.75
438.778	15124.08
438.985	16537.18
439.192	15906.4
439.399	16545.37
439.606	15945.31
439.813	16805.46
440.02	17856.07
440.227	17534.54
440.433	17514.06
440.64	17913.41
440.847	17841.73
441.054	18306.62
441.261	19357.23
441.467	19390
441.674	19754.54
441.881	20383.26
442.088	20393.5
442.294	20133.41
442.501	20753.94
442.708	20946.45
442.914	22031.88
443.121	23006.71
443.328	22167.04
443.534	23913.96
443.741	23107.06
443.948	22533.63
444.154	24839.64
444.361	24073.7
444.568	24698.33
444.774	24585.69
444.981	24851.93
445.187	25488.85
445.394	26492.35
445.6	25984.46
445.807	28730.78
446.013	27446.71
446.22	28235.17
446.426	28915.1
446.633	29138.33
446.839	30262.66
447.046	28882.33
447.252	30639.49
447.459	30875.01
447.665	30375.3
447.871	31628.66
448.078	33135.96
448.284	31427.96
448.491	32386.41
448.697	33592.66
448.903	34174.28
449.11	34231.63
449.316	33813.84
449.522	34227.53
449.728	35077.44
449.935	35595.57
450.141	35466.55
450.347	36021.55
450.553	34731.33
450.76	35454.26
450.966	36902.18
451.172	35808.56
451.378	37082.4
451.584	36400.43
451.791	36846.88
451.997	36898.08
452.203	37258.52
452.409	37276.96
452.615	37203.23
452.821	35638.58
453.027	35329.34
453.233	37416.22
453.44	35577.14
453.646	36062.51
453.852	36586.79
454.058	36715.81
454.264	35872.05
454.47	36597.03
454.676	35153.21
454.882	36631.85
455.088	33437.02
455.294	33721.68
455.5	34274.63
455.705	34731.33
455.911	33410.39
456.117	32574.82
456.323	32208.23
456.529	30516.61
456.735	31806.83
456.941	31012.22
457.147	30424.45
457.352	30018.96
457.558	29169.05
457.764	29056.41
457.97	28616.1
458.176	27874.73
458.381	28210.6
458.587	26611.14
458.793	26707.39
458.999	25595.34
459.204	27178.42
459.41	26164.68
459.616	24714.72
459.821	24497.63
460.027	24530.4
460.233	23877.1
460.438	22924.79
460.644	23154.16
460.85	21999.11
461.055	21909
461.261	21696.01
461.466	20041.25
461.672	19365.42
461.878	20975.13
462.083	19656.23
462.289	19154.48
462.494	19191.34
462.7	18234.94
462.905	17503.82
463.111	18116.16
463.316	18347.58
463.522	18048.58
463.727	18132.54
463.932	17989.19
464.138	17669.7
464.343	17712.71
464.549	17370.7
464.754	17868.36
464.959	17604.17
465.165	17327.69
465.37	16901.72
465.575	16500.31
465.781	17047.12
465.986	17065.55
466.191	16475.74
466.397	16289.37
466.602	15545.96
466.807	15949.41
467.012	15939.17
467.218	15984.23
