Data from USB4F104151__90__10-24-24-249.txt Node

Date: Wed Mar 12 10:24:24 EDT 2025
User: louis
Spectrometer: USB4F10415
Trigger mode: 4
Integration Time (sec): 3.000000E-2
Scans to average: 1
Electric dark correction enabled: true
Nonlinearity correction enabled: false
Boxcar width: 0
XAxis mode: Wavelengths
Number of Pixels in Spectrum: 3648
>>>>>Begin Spectral Data<<<<<
178.204	-107.86
178.424	-107.86
178.644	-107.86
178.864	-83.28
179.084	-187.73
179.304	45.74
179.524	-25.94
179.744	-42.32
179.964	19.11
180.184	37.55
180.404	-21.85
180.624	4.78
180.844	12.97
181.064	-38.23
181.283	-40.28
181.503	27.31
181.723	21.16
181.943	-95.57
182.163	58.03
182.383	53.93
182.602	47.79
182.822	35.5
183.042	25.26
183.262	2.73
183.482	37.55
183.701	-15.7
183.921	88.75
184.141	-48.47
184.361	15.02
184.58	-21.85
184.8	68.27
185.02	-21.85
185.239	29.35
185.459	49.83
185.679	53.93
185.898	70.31
186.118	76.46
186.338	17.07
186.557	58.03
186.777	6.83
186.997	45.74
187.216	72.36
187.436	-7.51
187.655	66.22
187.875	62.12
188.095	-44.37
188.314	37.55
188.534	17.07
188.753	10.92
188.973	27.31
189.192	-13.65
189.412	4.78
189.631	43.69
189.851	-5.46
190.07	29.35
190.29	-15.7
190.509	60.07
190.729	-7.51
190.948	-48.47
191.168	117.42
191.387	68.27
191.607	12.97
191.826	51.88
192.045	-13.65
192.265	-9.56
192.484	35.5
192.704	29.35
192.923	-60.76
193.142	66.22
193.362	2.73
193.581	60.07
193.8	86.7
194.02	37.55
194.239	17.07
194.458	-44.37
194.678	29.35
194.897	37.55
195.116	33.45
195.335	33.45
195.555	-13.65
195.774	-13.65
195.993	64.17
196.212	-11.61
196.432	49.83
196.651	49.83
196.87	19.11
197.089	15.02
197.308	60.07
197.528	27.31
197.747	-44.37
197.966	8.87
198.185	111.27
198.404	-21.85
198.623	-5.46
198.842	0.68
199.062	49.83
199.281	88.75
199.5	39.59
199.719	0.68
199.938	-21.85
200.157	55.98
200.376	-13.65
200.595	25.26
200.814	31.4
201.033	17.07
201.252	31.4
201.471	31.4
201.69	78.51
201.909	25.26
202.128	8.87
202.347	55.98
202.566	29.35
202.785	66.22
203.004	-21.85
203.223	123.56
203.442	49.83
203.661	-25.94
203.879	0.68
204.098	72.36
204.317	-21.85
204.536	10.92
204.755	0.68
204.974	-21.85
205.193	-32.08
205.411	98.99
205.63	17.07
205.849	-15.7
206.068	31.4
206.287	0.68
206.505	29.35
206.724	23.21
206.943	-52.56
207.162	55.98
207.381	74.41
207.599	23.21
207.818	-36.18
208.037	-3.41
208.255	4.78
208.474	82.6
208.693	23.21
208.911	0.68
209.13	-52.56
209.349	-13.65
209.567	15.02
209.786	53.93
210.005	0.68
210.223	43.69
210.442	53.93
210.661	-7.51
210.879	76.46
211.098	0.68
211.316	-34.13
211.535	45.74
211.753	-15.7
211.972	29.35
212.191	6.83
212.409	27.31
212.628	17.07
212.846	8.87
213.065	92.84
213.283	76.46
213.502	35.5
213.72	49.83
213.938	47.79
214.157	-36.18
214.375	62.12
214.594	-40.28
214.812	98.99
215.031	4.78
215.249	-25.94
215.467	60.07
215.686	64.17
215.904	53.93
216.122	-3.41
216.341	74.41
216.559	60.07
216.778	98.99
216.996	115.37
217.214	4.78
217.432	-21.85
217.651	-13.65
217.869	82.6
218.087	29.35
218.306	-34.13
218.524	19.11
218.742	74.41
218.96	103.08
219.179	21.16
219.397	-3.41
219.615	51.88
219.833	53.93
220.051	-3.41
220.27	53.93
220.488	10.92
220.706	39.59
220.924	-3.41
221.142	-21.85
221.36	37.55
221.578	-68.95
221.796	-9.56
222.015	-32.08
222.233	8.87
222.451	37.55
222.669	-23.89
222.887	-15.7
223.105	29.35
223.323	-48.47
223.541	-7.51
223.759	49.83
223.977	-81.24
224.195	78.51
224.413	10.92
224.631	68.27
224.849	101.03
225.067	58.03
225.285	-1.37
225.503	-13.65
225.721	4.78
225.939	31.4
226.157	29.35
226.375	68.27
226.592	-11.61
226.81	-52.56
227.028	33.45
227.246	72.36
227.464	53.93
227.682	35.5
227.9	39.59
228.117	29.35
228.335	33.45
228.553	-25.94
228.771	43.69
228.989	0.68
229.206	-38.23
229.424	-25.94
229.642	23.21
229.86	-15.7
230.077	45.74
230.295	33.45
230.513	78.51
230.731	-23.89
230.948	39.59
231.166	39.59
231.384	-44.37
231.601	-9.56
231.819	41.64
232.037	45.74
232.254	-19.8
232.472	4.78
232.689	-17.75
232.907	139.94
233.125	17.07
233.342	43.69
233.56	-42.32
233.777	49.83
233.995	21.16
234.213	12.97
234.43	-3.41
234.648	-3.41
234.865	21.16
235.083	70.31
235.3	53.93
235.518	19.11
235.735	78.51
235.953	58.03
236.17	27.31
236.388	-19.8
236.605	41.64
236.822	8.87
237.04	60.07
237.257	68.27
237.475	-30.04
237.692	-1.37
237.909	-93.52
238.127	31.4
238.344	23.21
238.562	-21.85
238.779	-66.9
238.996	-11.61
239.214	4.78
239.431	55.98
239.648	-42.32
239.865	96.94
240.083	17.07
240.3	10.92
240.517	-15.7
240.735	-15.7
240.952	92.84
241.169	33.45
241.386	-36.18
241.603	12.97
241.821	33.45
242.038	-11.61
242.255	53.93
242.472	6.83
242.689	70.31
242.907	66.22
243.124	-116.05
243.341	84.65
243.558	39.59
243.775	19.11
243.992	-19.8
244.209	37.55
244.426	94.89
244.643	78.51
244.86	-1.37
245.078	101.03
245.295	-62.8
245.512	-21.85
245.729	-46.42
245.946	17.07
246.163	29.35
246.38	53.93
246.597	19.11
246.814	64.17
247.031	55.98
247.248	49.83
247.464	58.03
247.681	-42.32
247.898	0.68
248.115	43.69
248.332	-17.75
248.549	37.55
248.766	4.78
248.983	29.35
249.2	-19.8
249.417	96.94
249.633	-7.51
249.85	12.97
250.067	45.74
250.284	-1.37
250.501	-7.51
250.717	37.55
250.934	55.98
251.151	17.07
251.368	12.97
251.585	35.5
251.801	-19.8
252.018	-68.95
252.235	90.79
252.451	27.31
252.668	-17.75
252.885	51.88
253.102	-15.7
253.318	2.73
253.535	55.98
253.752	19.11
253.968	-13.65
254.185	47.79
254.401	8.87
254.618	37.55
254.835	33.45
255.051	43.69
255.268	21.16
255.484	78.51
255.701	10.92
255.917	17.07
256.134	76.46
256.351	-9.56
256.567	-44.37
256.784	23.21
257	-27.99
257.217	66.22
257.433	45.74
257.65	-23.89
257.866	25.26
258.082	-23.89
258.299	19.11
258.515	15.02
258.732	-13.65
258.948	8.87
259.165	78.51
259.381	4.78
259.597	-52.56
259.814	29.35
260.03	21.16
260.246	35.5
260.463	-9.56
260.679	21.16
260.895	70.31
261.112	-5.46
261.328	51.88
261.544	4.78
261.761	76.46
261.977	49.83
262.193	23.21
262.409	25.26
262.626	39.59
262.842	-7.51
263.058	2.73
263.274	-30.04
263.49	62.12
263.707	66.22
263.923	6.83
264.139	-15.7
264.355	53.93
264.571	78.51
264.787	-25.94
265.004	45.74
265.22	29.35
265.436	-15.7
265.652	-23.89
265.868	21.16
266.084	-7.51
266.3	29.35
266.516	-60.76
266.732	10.92
266.948	2.73
267.164	43.69
267.38	98.99
267.596	78.51
267.812	51.88
268.028	-13.65
268.244	0.68
268.46	41.64
268.676	70.31
268.892	70.31
269.108	0.68
269.324	23.21
269.54	33.45
269.756	78.51
269.972	21.16
270.188	-3.41
270.403	-32.08
270.619	2.73
270.835	49.83
271.051	-3.41
271.267	31.4
271.483	23.21
271.698	10.92
271.914	-7.51
272.13	-11.61
272.346	53.93
272.562	-19.8
272.777	60.07
272.993	41.64
273.209	-15.7
273.425	68.27
273.64	31.4
273.856	86.7
274.072	17.07
274.287	25.26
274.503	39.59
274.719	31.4
274.934	6.83
275.15	21.16
275.366	0.68
275.581	2.73
275.797	62.12
276.012	19.11
276.228	-30.04
276.444	90.79
276.659	49.83
276.875	-40.28
277.09	58.03
277.306	58.03
277.521	21.16
277.737	23.21
277.952	98.99
278.168	31.4
278.383	-40.28
278.599	29.35
278.814	58.03
279.03	90.79
279.245	27.31
279.461	-11.61
279.676	19.11
279.892	-11.61
280.107	-46.42
280.322	2.73
280.538	25.26
280.753	27.31
280.969	4.78
281.184	78.51
281.399	72.36
281.615	62.12
281.83	49.83
282.045	-11.61
282.26	0.68
282.476	6.83
282.691	35.5
282.906	-25.94
283.122	2.73
283.337	35.5
283.552	21.16
283.767	94.89
283.983	53.93
284.198	4.78
284.413	-3.41
284.628	17.07
284.843	55.98
285.058	19.11
285.274	-11.61
285.489	10.92
285.704	-5.46
285.919	23.21
286.134	-1.37
286.349	-44.37
286.564	-19.8
286.779	4.78
286.995	27.31
287.21	86.7
287.425	70.31
287.64	8.87
287.855	-1.37
288.07	8.87
288.285	76.46
288.5	111.27
288.715	51.88
288.93	-5.46
289.145	-19.8
289.36	82.6
289.575	-5.46
289.79	19.11
290.004	0.68
290.219	86.7
290.434	53.93
290.649	49.83
290.864	-13.65
291.079	23.21
291.294	58.03
291.509	-58.71
291.724	39.59
291.938	-48.47
292.153	94.89
292.368	35.5
292.583	-27.99
292.798	41.64
293.012	62.12
293.227	-23.89
293.442	58.03
293.657	-1.37
293.871	119.46
294.086	45.74
294.301	62.12
294.516	94.89
294.73	49.83
294.945	25.26
295.16	58.03
295.374	-11.61
295.589	31.4
295.804	-27.99
296.018	-3.41
296.233	60.07
296.447	-1.37
296.662	47.79
296.877	41.64
297.091	119.46
297.306	31.4
297.52	49.83
297.735	2.73
297.949	-11.61
298.164	-5.46
298.378	-11.61
298.593	-11.61
298.807	25.26
299.022	15.02
299.236	117.42
299.451	68.27
299.665	21.16
299.88	15.02
300.094	-19.8
300.309	-19.8
300.523	35.5
300.737	21.16
300.952	33.45
301.166	86.7
301.381	-25.94
301.595	-42.32
301.809	17.07
302.024	-48.47
302.238	-44.37
302.452	-11.61
302.667	21.16
302.881	27.31
303.095	8.87
303.309	113.32
303.524	45.74
303.738	33.45
303.952	27.31
304.166	90.79
304.381	-7.51
304.595	78.51
304.809	84.65
305.023	29.35
305.237	-52.56
305.452	-19.8
305.666	17.07
305.88	41.64
306.094	-7.51
306.308	33.45
306.522	60.07
306.736	78.51
306.95	84.65
307.164	10.92
307.379	33.45
307.593	74.41
307.807	78.51
308.021	2.73
308.235	62.12
308.449	-54.61
308.663	70.31
308.877	152.23
309.091	70.31
309.305	115.37
309.519	-23.89
309.733	19.11
309.947	-91.48
310.161	72.36
310.374	144.04
310.588	96.94
310.802	-25.94
311.016	84.65
311.23	37.55
311.444	70.31
311.658	53.93
311.872	51.88
312.085	66.22
312.299	86.7
312.513	60.07
312.727	80.55
312.941	-5.46
313.154	78.51
313.368	53.93
313.582	31.4
313.796	19.11
314.009	49.83
314.223	109.22
314.437	72.36
314.651	74.41
314.864	45.74
315.078	17.07
315.292	-27.99
315.505	-3.41
315.719	53.93
315.933	37.55
316.146	29.35
316.36	41.64
316.573	29.35
316.787	0.68
317.001	43.69
317.214	53.93
317.428	53.93
317.641	-50.52
317.855	-19.8
318.068	-36.18
318.282	21.16
318.495	125.61
318.709	27.31
318.922	21.16
319.136	101.03
319.349	62.12
319.563	33.45
319.776	103.08
319.99	-36.18
320.203	43.69
320.417	96.94
320.63	49.83
320.843	74.41
321.057	-19.8
321.27	29.35
321.483	35.5
321.697	8.87
321.91	31.4
322.124	82.6
322.337	29.35
322.55	-17.75
322.763	39.59
322.977	6.83
323.19	8.87
323.403	25.26
323.617	31.4
323.83	58.03
324.043	-64.85
324.256	37.55
324.469	17.07
324.683	35.5
324.896	25.26
325.109	47.79
325.322	-34.13
325.535	101.03
325.748	72.36
325.962	90.79
326.175	25.26
326.388	-11.61
326.601	70.31
326.814	6.83
327.027	6.83
327.24	133.8
327.453	-52.56
327.666	70.31
327.879	49.83
328.092	66.22
328.305	43.69
328.518	27.31
328.731	-36.18
328.944	0.68
329.157	6.83
329.37	2.73
329.583	70.31
329.796	68.27
330.009	62.12
330.222	123.56
330.435	-11.61
330.648	53.93
330.861	33.45
331.073	6.83
331.286	29.35
331.499	90.79
331.712	17.07
331.925	58.03
332.138	43.69
332.35	19.11
332.563	-19.8
332.776	78.51
332.989	21.16
333.202	33.45
333.414	41.64
333.627	6.83
333.84	37.55
334.053	101.03
334.265	45.74
334.478	27.31
334.691	68.27
334.903	29.35
335.116	-3.41
335.329	55.98
335.541	45.74
335.754	94.89
335.966	4.78
336.179	-25.94
336.392	45.74
336.604	31.4
336.817	-7.51
337.029	17.07
337.242	29.35
337.454	29.35
337.667	60.07
337.88	-19.8
338.092	39.59
338.305	-9.56
338.517	-25.94
338.729	51.88
338.942	-23.89
339.154	21.16
339.367	-9.56
339.579	84.65
339.792	33.45
340.004	15.02
340.217	10.92
340.429	33.45
340.641	-11.61
340.854	78.51
341.066	60.07
341.278	37.55
341.491	103.08
341.703	127.66
341.915	68.27
342.128	96.94
342.34	29.35
342.552	-3.41
342.764	107.18
342.977	-5.46
343.189	-77.14
343.401	115.37
343.613	21.16
343.826	78.51
344.038	45.74
344.25	4.78
344.462	27.31
344.674	60.07
344.886	47.79
345.099	-38.23
345.311	58.03
345.523	60.07
345.735	27.31
345.947	29.35
346.159	-3.41
346.371	33.45
346.583	12.97
346.795	109.22
347.007	-11.61
347.219	62.12
347.431	80.55
347.643	70.31
347.855	-36.18
348.067	80.55
348.279	-32.08
348.491	111.27
348.703	84.65
348.915	123.56
349.127	-27.99
349.339	-3.41
349.551	37.55
349.763	58.03
349.975	51.88
350.187	125.61
350.399	101.03
350.61	21.16
350.822	6.83
351.034	0.68
351.246	-27.99
351.458	78.51
351.669	33.45
351.881	8.87
352.093	125.61
352.305	31.4
352.517	29.35
352.728	51.88
352.94	33.45
353.152	8.87
353.363	35.5
353.575	27.31
353.787	-3.41
353.999	25.26
354.21	80.55
354.422	47.79
354.633	-19.8
354.845	72.36
355.057	80.55
355.268	29.35
355.48	29.35
355.692	-5.46
355.903	35.5
356.115	10.92
356.326	8.87
356.538	74.41
356.749	19.11
356.961	66.22
357.172	17.07
357.384	60.07
357.595	64.17
357.807	25.26
358.018	49.83
358.23	-60.76
358.441	35.5
358.653	53.93
358.864	-34.13
359.075	37.55
359.287	70.31
359.498	15.02
359.709	43.69
359.921	78.51
360.132	68.27
360.344	129.7
360.555	53.93
360.766	-40.28
360.977	33.45
361.189	53.93
361.4	60.07
361.611	47.79
361.823	45.74
362.034	39.59
362.245	-19.8
362.456	43.69
362.667	80.55
362.879	-9.56
363.09	47.79
363.301	74.41
363.512	82.6
363.723	45.74
363.935	-56.66
364.146	43.69
364.357	25.26
364.568	51.88
364.779	53.93
364.99	68.27
365.201	35.5
365.412	33.45
365.623	-7.51
365.834	12.97
366.045	33.45
366.256	27.31
366.467	94.89
366.678	29.35
366.889	21.16
367.1	78.51
367.311	78.51
367.522	82.6
367.733	29.35
367.944	4.78
368.155	70.31
368.366	96.94
368.577	-15.7
368.788	109.22
368.999	10.92
369.209	49.83
369.42	135.85
369.631	117.42
369.842	19.11
370.053	37.55
370.264	131.75
370.474	25.26
370.685	74.41
370.896	-34.13
371.107	64.17
371.317	62.12
371.528	43.69
371.739	117.42
371.95	6.83
372.16	74.41
372.371	-17.75
372.582	51.88
372.792	29.35
373.003	68.27
373.214	55.98
373.424	139.94
373.635	-7.51
373.846	94.89
374.056	0.68
374.267	60.07
374.477	55.98
374.688	82.6
374.898	76.46
375.109	12.97
375.319	80.55
375.53	78.51
375.74	135.85
375.951	33.45
376.161	33.45
376.372	58.03
376.582	12.97
376.793	111.27
377.003	86.7
377.214	94.89
377.424	70.31
377.635	121.51
377.845	111.27
378.055	125.61
378.266	10.92
378.476	70.31
378.686	64.17
378.897	80.55
379.107	109.22
379.317	-9.56
379.528	47.79
379.738	111.27
379.948	15.02
380.158	45.74
380.369	111.27
380.579	115.37
380.789	37.55
380.999	62.12
381.21	164.52
381.42	86.7
381.63	-11.61
381.84	58.03
382.05	70.31
382.261	115.37
382.471	84.65
382.681	-19.8
382.891	-21.85
383.101	58.03
383.311	84.65
383.521	12.97
383.731	53.93
383.941	119.46
384.151	43.69
384.361	35.5
384.571	58.03
384.781	98.99
384.991	76.46
385.201	37.55
385.411	-5.46
385.621	119.46
385.831	82.6
386.041	78.51
386.251	23.21
386.461	68.27
386.671	68.27
386.881	62.12
387.091	86.7
387.301	27.31
387.511	80.55
387.72	29.35
387.93	94.89
388.14	82.6
388.35	115.37
388.56	109.22
388.769	41.64
388.979	53.93
389.189	23.21
389.399	45.74
389.609	41.64
389.818	41.64
390.028	53.93
390.238	82.6
390.447	45.74
390.657	129.7
390.867	82.6
391.076	105.13
391.286	70.31
391.496	53.93
391.705	119.46
391.915	82.6
392.125	21.16
392.334	141.99
392.544	127.66
392.753	88.75
392.963	45.74
393.172	27.31
393.382	86.7
393.591	103.08
393.801	66.22
394.01	125.61
394.22	47.79
394.429	70.31
394.639	148.14
394.848	82.6
395.058	133.8
395.267	21.16
395.477	150.18
395.686	58.03
395.895	111.27
396.105	135.85
396.314	101.03
396.524	47.79
396.733	58.03
396.942	111.27
397.152	68.27
397.361	139.94
397.57	78.51
397.78	39.59
397.989	115.37
398.198	78.51
398.407	68.27
398.617	78.51
398.826	86.7
399.035	96.94
399.244	144.04
399.453	74.41
399.663	166.57
399.872	121.51
400.081	76.46
400.29	182.95
400.499	62.12
400.708	148.14
400.917	178.86
401.127	131.75
401.336	215.72
401.545	189.1
401.754	191.14
401.963	244.39
402.172	35.5
402.381	49.83
402.59	133.8
402.799	178.86
403.008	225.96
403.217	150.18
403.426	148.14
403.635	121.51
403.844	158.38
404.053	162.47
404.262	139.94
404.471	182.95
404.68	80.55
404.888	127.66
405.097	168.62
405.306	156.33
405.515	193.19
405.724	187.05
405.933	176.81
406.142	201.38
406.35	221.86
406.559	225.96
406.768	205.48
406.977	305.83
407.185	185
407.394	266.92
407.603	150.18
407.812	158.38
408.02	289.45
408.229	256.68
408.438	332.45
408.646	236.2
408.855	289.45
409.064	271.01
409.272	283.3
409.481	357.03
409.69	297.64
409.898	318.12
410.107	418.47
410.315	387.75
410.524	354.98
410.733	391.84
410.941	430.76
411.15	447.14
411.358	496.29
411.567	535.2
411.775	545.44
411.984	559.78
412.192	459.43
412.401	527.01
412.609	541.35
412.818	572.07
413.026	610.98
413.234	551.59
413.443	627.36
413.651	658.08
413.86	604.83
414.068	737.95
414.276	688.8
414.485	803.49
414.693	885.41
414.901	828.06
415.11	787.1
415.318	895.64
415.526	950.94
415.734	813.73
415.943	965.28
416.151	1057.43
416.359	1012.38
416.567	1030.81
416.776	1104.54
416.984	1100.44
417.192	1135.26
417.4	1129.11
417.608	1176.22
417.817	1245.85
418.025	1272.47
418.233	1512.08
418.441	1393.3
418.649	1454.74
418.857	1583.76
419.065	1477.27
419.273	1546.9
419.481	1714.83
419.689	1675.92
419.897	1737.36
420.105	1790.61
420.313	1862.29
420.521	1921.68
420.729	2042.51
420.937	2019.98
421.145	2128.52
421.353	2253.45
421.561	2361.99
421.769	2386.57
421.977	2425.48
422.185	2439.81
422.393	2660.99
422.601	2714.24
422.809	2804.35
423.017	2744.96
423.224	3000.96
423.432	2972.29
423.64	3099.26
423.848	3285.62
424.056	3119.74
424.263	3506.81
424.471	3467.89
424.679	3568.24
424.887	3623.54
425.094	3871.34
425.302	3848.82
425.51	4278.89
425.718	4072.04
425.925	4287.08
426.133	4430.44
426.341	4598.37
426.548	4889.18
426.756	4778.59
426.964	4782.69
427.171	5065.31
427.379	5425.75
427.586	5145.18
427.794	5556.82
428.001	5741.14
428.209	6019.66
428.417	5909.07
428.624	6322.76
428.832	6355.53
429.039	6341.19
429.247	6468.17
429.454	6898.24
429.662	7397.95
429.869	6918.72
430.076	7313.98
430.284	7234.11
430.491	7295.55
430.699	8065.58
430.906	7993.9
431.114	8024.62
431.321	8286.76
431.528	8442.41
431.736	8950.31
431.943	9243.17
432.15	9232.93
432.358	9239.07
432.565	9853.46
432.772	9761.3
432.979	10127.89
433.187	10322.45
433.394	10471.95
433.601	11174.4
433.808	11395.58
434.016	10983.94
434.223	11536.89
434.43	12212.72
434.637	11897.33
434.844	12816.87
435.052	12814.82
435.259	13050.34
435.466	12993
435.673	12980.71
435.88	13769.18
436.087	14332.37
436.294	14574.03
436.501	14234.07
436.708	14342.61
436.915	15024.58
437.122	15438.27
437.329	15477.18
437.537	16019.89
437.743	16476.59
437.95	16185.78
438.157	16882.09
438.364	17375.65
438.571	17432.99
438.778	17725.85
438.985	19265.92
439.192	18426.26
439.399	18985.35
439.606	18895.24
439.813	19970.43
440.02	20605.3
440.227	20318.58
440.433	20365.68
440.64	21041.51
440.847	20840.81
441.054	21344.61
441.261	22706.51
441.467	22106.46
441.674	22851.92
441.881	24049.98
442.088	23888.19
442.294	23564.61
442.501	24023.36
442.708	24346.94
442.914	25397.54
443.121	26644.76
443.328	26083.61
443.534	27504.9
443.741	26650.9
443.948	26296.6
444.154	28238.08
444.361	28184.83
444.568	28723.44
444.774	28272.89
444.981	28858.61
445.187	29380.84
445.394	30873.81
445.6	30324.96
445.807	32889.01
446.013	31850.69
446.22	32536.76
446.426	33751.21
446.633	34052.26
446.839	34822.3
447.046	33433.77
447.252	35362.96
447.459	35100.82
447.665	35127.44
447.871	36456.57
448.078	37961.83
448.284	36235.39
448.491	37486.7
448.697	38910.04
448.903	39508.05
449.11	39442.51
449.316	38439.01
449.522	39364.69
449.728	40636.48
449.935	40470.59
450.141	40818.75
450.347	41541.68
450.553	40079.43
450.76	40605.76
450.966	41726
451.172	41486.39
451.378	42475.55
451.584	41410.61
451.791	42481.7
451.997	42022.95
452.203	42731.55
452.409	43036.7
452.615	42862.62
452.821	41070.65
453.027	40644.67
453.233	43116.57
453.44	40761.4
453.646	41398.32
453.852	41867.31
454.058	41979.95
454.264	40228.93
454.47	41529.39
454.676	40478.78
454.882	42094.63
455.088	38434.91
455.294	38826.07
455.5	39198.8
455.705	39626.83
455.911	37996.65
456.117	37369.97
456.323	36823.16
456.529	34998.42
456.735	36724.86
456.941	35238.03
457.147	34971.8
457.352	33718.44
457.558	33136.82
457.764	33423.53
457.97	32809.14
458.176	32024.77
458.381	32004.29
458.587	30593.24
458.793	30593.24
458.999	28913.91
459.204	31115.47
459.41	30277.85
459.616	28137.73
459.821	28356.86
460.027	27945.22
460.233	27498.76
460.438	25852.19
460.644	26517.78
460.85	24998.19
461.055	24572.21
461.261	24742.19
461.466	22985.04
461.672	22380.89
461.878	23927.1
462.083	22301.01
462.289	22131.03
462.494	21627.23
462.7	20480.37
462.905	19894.65
463.111	20896.11
463.316	20877.68
463.522	20402.55
463.727	20633.97
463.932	20687.21
464.138	20361.59
464.343	20251
464.549	19632.51
464.754	20461.94
464.959	20011.39
465.165	20105.59
465.37	19362.18
465.575	18864.52
465.781	19728.77
465.986	19755.39
466.191	18686.35
466.397	18694.54
466.602	17699.23
466.807	18395.54
