Data from USB4F104151__295__10-43-21-275.txt Node

Date: Wed Mar 12 10:43:21 EDT 2025
User: louis
Spectrometer: USB4F10415
Trigger mode: 4
Integration Time (sec): 3.000000E-2
Scans to average: 1
Electric dark correction enabled: true
Nonlinearity correction enabled: false
Boxcar width: 0
XAxis mode: Wavelengths
Number of Pixels in Spectrum: 3648
>>>>>Begin Spectral Data<<<<<
178.204	-111.78
178.424	-111.78
178.644	-111.78
178.864	-99.5
179.084	-58.54
179.304	-19.63
179.524	4.95
179.744	-79.02
179.964	4.95
180.184	-11.43
180.404	0.85
180.624	21.33
180.844	52.05
181.064	-93.35
181.283	21.33
181.503	45.91
181.723	52.05
181.943	-27.82
182.163	64.34
182.383	-3.24
182.602	76.63
182.822	15.19
183.042	50
183.262	84.82
183.482	78.68
183.701	41.81
183.921	13.14
184.141	-95.4
184.361	35.67
184.58	19.29
184.8	-25.77
185.02	-23.72
185.239	107.35
185.459	27.48
185.679	82.77
185.898	-23.72
186.118	29.52
186.338	74.58
186.557	64.34
186.777	-5.29
186.997	21.33
187.216	41.81
187.436	13.14
187.655	52.05
187.875	70.48
188.095	17.24
188.314	90.96
188.534	47.96
188.753	-15.53
188.973	66.39
189.192	74.58
189.412	70.48
189.631	68.44
189.851	45.91
190.07	35.67
190.29	-7.34
190.509	72.53
190.729	21.33
190.948	66.39
191.168	174.93
191.387	68.44
191.607	90.96
191.826	33.62
192.045	29.52
192.265	-40.11
192.484	41.81
192.704	54.1
192.923	-68.78
193.142	121.68
193.362	-5.29
193.581	64.34
193.8	-17.58
194.02	33.62
194.239	-40.11
194.458	-15.53
194.678	45.91
194.897	-11.43
195.116	-3.24
195.335	54.1
195.555	-44.2
195.774	-1.19
195.993	39.76
196.212	-31.91
196.432	23.38
196.651	107.35
196.87	29.52
197.089	86.87
197.308	70.48
197.528	45.91
197.747	-36.01
197.966	84.82
198.185	74.58
198.404	43.86
198.623	7
198.842	-11.43
199.062	-21.67
199.281	82.77
199.5	21.33
199.719	33.62
199.938	78.68
200.157	33.62
200.376	62.29
200.595	64.34
200.814	74.58
201.033	-1.19
201.252	39.76
201.471	45.91
201.69	62.29
201.909	138.07
202.128	29.52
202.347	23.38
202.566	33.62
202.785	39.76
203.004	-33.96
203.223	21.33
203.442	113.49
203.661	9.05
203.879	54.1
204.098	45.91
204.317	4.95
204.536	54.1
204.755	23.38
204.974	62.29
205.193	29.52
205.411	86.87
205.63	113.49
205.849	2.9
206.068	47.96
206.287	52.05
206.505	93.01
206.724	47.96
206.943	-76.97
207.162	17.24
207.381	-5.29
207.599	37.72
207.818	31.57
208.037	115.54
208.255	47.96
208.474	45.91
208.693	23.38
208.911	-1.19
209.13	74.58
209.349	66.39
209.567	23.38
209.786	2.9
210.005	37.72
210.223	29.52
210.442	-36.01
210.661	41.81
210.879	60.24
211.098	15.19
211.316	41.81
211.535	115.54
211.753	-36.01
211.972	11.09
212.191	-5.29
212.409	-15.53
212.628	29.52
212.846	33.62
213.065	41.81
213.283	62.29
213.502	-5.29
213.72	-27.82
213.938	11.09
214.157	66.39
214.375	23.38
214.594	-13.48
214.812	95.06
215.031	58.2
215.249	25.43
215.467	-25.77
215.686	25.43
215.904	54.1
216.122	-3.24
216.341	33.62
216.559	66.39
216.778	39.76
216.996	41.81
217.214	60.24
217.432	37.72
217.651	-25.77
217.869	-5.29
218.087	29.52
218.306	45.91
218.524	37.72
218.742	50
218.96	72.53
219.179	43.86
219.397	56.15
219.615	170.83
219.833	13.14
220.051	21.33
220.27	86.87
220.488	56.15
220.706	31.57
220.924	111.44
221.142	39.76
221.36	13.14
221.578	13.14
221.796	-17.58
222.015	29.52
222.233	9.05
222.451	72.53
222.669	13.14
222.887	19.29
223.105	64.34
223.323	0.85
223.541	-17.58
223.759	99.16
223.977	68.44
224.195	47.96
224.413	-9.39
224.631	80.72
224.849	21.33
225.067	54.1
225.285	17.24
225.503	-15.53
225.721	-21.67
225.939	27.48
226.157	19.29
226.375	80.72
226.592	0.85
226.81	-58.54
227.028	97.11
227.246	35.67
227.464	-23.72
227.682	47.96
227.9	76.63
228.117	78.68
228.335	50
228.553	9.05
228.771	78.68
228.989	72.53
229.206	90.96
229.424	21.33
229.642	-25.77
229.86	-23.72
230.077	19.29
230.295	82.77
230.513	-40.11
230.731	25.43
230.948	62.29
231.166	-9.39
231.384	-23.72
231.601	33.62
231.819	95.06
232.037	56.15
232.254	7
232.472	29.52
232.689	50
232.907	29.52
233.125	80.72
233.342	43.86
233.56	-27.82
233.777	47.96
233.995	-29.87
234.213	82.77
234.43	-13.48
234.648	58.2
234.865	56.15
235.083	50
235.3	-7.34
235.518	72.53
235.735	37.72
235.953	47.96
236.17	-3.24
236.388	39.76
236.605	62.29
236.822	58.2
237.04	33.62
237.257	41.81
237.475	7
237.692	19.29
237.909	68.44
238.127	41.81
238.344	27.48
238.562	-44.2
238.779	58.2
238.996	58.2
239.214	50
239.431	95.06
239.648	66.39
239.865	64.34
240.083	31.57
240.3	58.2
240.517	27.48
240.735	88.92
240.952	103.25
241.169	183.12
241.386	-15.53
241.603	-3.24
241.821	52.05
242.038	35.67
242.255	45.91
242.472	19.29
242.689	19.29
242.907	82.77
243.124	13.14
243.341	33.62
243.558	35.67
243.775	58.2
243.992	-29.87
244.209	47.96
244.426	39.76
244.643	41.81
244.86	13.14
245.078	31.57
245.295	90.96
245.512	19.29
245.729	15.19
245.946	54.1
246.163	-3.24
246.38	-5.29
246.597	37.72
246.814	-11.43
247.031	35.67
247.248	88.92
247.464	131.92
247.681	70.48
247.898	-17.58
248.115	58.2
248.332	-64.68
248.549	60.24
248.766	2.9
248.983	19.29
249.2	9.05
249.417	121.68
249.633	136.02
249.85	-1.19
250.067	31.57
250.284	-9.39
250.501	35.67
250.717	56.15
250.934	-11.43
251.151	-9.39
251.368	66.39
251.585	66.39
251.801	21.33
252.018	-52.39
252.235	78.68
252.451	9.05
252.668	60.24
252.885	37.72
253.102	13.14
253.318	43.86
253.535	-3.24
253.752	2.9
253.968	56.15
254.185	56.15
254.401	70.48
254.618	-74.92
254.835	19.29
255.051	105.3
255.268	11.09
255.484	-19.63
255.701	-21.67
255.917	25.43
256.134	-5.29
256.351	52.05
256.567	54.1
256.784	2.9
257	-3.24
257.217	78.68
257.433	43.86
257.65	93.01
257.866	39.76
258.082	25.43
258.299	-50.35
258.515	86.87
258.732	43.86
258.948	0.85
259.165	31.57
259.381	105.3
259.597	-1.19
259.814	62.29
260.03	37.72
260.246	93.01
260.463	0.85
260.679	90.96
260.895	54.1
261.112	37.72
261.328	99.16
261.544	-15.53
261.761	17.24
261.977	56.15
262.193	86.87
262.409	50
262.626	45.91
262.842	27.48
263.058	13.14
263.274	76.63
263.49	-23.72
263.707	117.59
263.923	39.76
264.139	31.57
264.355	-1.19
264.571	90.96
264.787	15.19
265.004	29.52
265.22	19.29
265.436	52.05
265.652	39.76
265.868	-17.58
266.084	15.19
266.3	-58.54
266.516	31.57
266.732	37.72
266.948	90.96
267.164	52.05
267.38	64.34
267.596	56.15
267.812	105.3
268.028	37.72
268.244	31.57
268.46	52.05
268.676	33.62
268.892	25.43
269.108	2.9
269.324	-17.58
269.54	74.58
269.756	50
269.972	-52.39
270.188	97.11
270.403	84.82
270.619	72.53
270.835	70.48
271.051	76.63
271.267	-7.34
271.483	29.52
271.698	101.2
271.914	66.39
272.13	95.06
272.346	66.39
272.562	29.52
272.777	115.54
272.993	41.81
273.209	4.95
273.425	-29.87
273.64	31.57
273.856	54.1
274.072	74.58
274.287	31.57
274.503	127.83
274.719	29.52
274.934	-13.48
275.15	23.38
275.366	4.95
275.581	50
275.797	29.52
276.012	54.1
276.228	62.29
276.444	-56.49
276.659	41.81
276.875	33.62
277.09	97.11
277.306	11.09
277.521	50
277.737	52.05
277.952	78.68
278.168	19.29
278.383	2.9
278.599	37.72
278.814	95.06
279.03	78.68
279.245	17.24
279.461	60.24
279.676	-1.19
279.892	37.72
280.107	-11.43
280.322	-5.29
280.538	47.96
280.753	-11.43
280.969	29.52
281.184	41.81
281.399	37.72
281.615	-25.77
281.83	86.87
282.045	19.29
282.26	11.09
282.476	-19.63
282.691	109.4
282.906	62.29
283.122	74.58
283.337	35.67
283.552	121.68
283.767	-33.96
283.983	66.39
284.198	68.44
284.413	66.39
284.628	-23.72
284.843	-15.53
285.058	76.63
285.274	13.14
285.489	19.29
285.704	4.95
285.919	-7.34
286.134	45.91
286.349	68.44
286.564	54.1
286.779	140.12
286.995	9.05
287.21	0.85
287.425	13.14
287.64	15.19
287.855	70.48
288.07	33.62
288.285	-3.24
288.5	95.06
288.715	62.29
288.93	68.44
289.145	-5.29
289.36	70.48
289.575	25.43
289.79	27.48
290.004	29.52
290.219	11.09
290.434	88.92
290.649	-7.34
290.864	7
291.079	23.38
291.294	21.33
291.509	84.82
291.724	11.09
291.938	-33.96
292.153	23.38
292.368	9.05
292.583	60.24
292.798	119.64
293.012	84.82
293.227	50
293.442	-15.53
293.657	43.86
293.871	90.96
294.086	35.67
294.301	2.9
294.516	74.58
294.73	56.15
294.945	-23.72
295.16	74.58
295.374	123.73
295.589	111.44
295.804	62.29
296.018	13.14
296.233	-3.24
296.447	72.53
296.662	37.72
296.877	62.29
297.091	13.14
297.306	35.67
297.52	47.96
297.735	80.72
297.949	58.2
298.164	76.63
298.378	-64.68
298.593	-3.24
298.807	80.72
299.022	56.15
299.236	146.26
299.451	74.58
299.665	-9.39
299.88	-27.82
300.094	25.43
300.309	23.38
300.523	2.9
300.737	97.11
300.952	45.91
301.166	74.58
301.381	13.14
301.595	37.72
301.809	25.43
302.024	58.2
302.238	37.72
302.452	41.81
302.667	68.44
302.881	101.2
303.095	41.81
303.309	21.33
303.524	64.34
303.738	0.85
303.952	25.43
304.166	4.95
304.381	-23.72
304.595	35.67
304.809	29.52
305.023	109.4
305.237	37.72
305.452	45.91
305.666	56.15
305.88	39.76
306.094	25.43
306.308	7
306.522	66.39
306.736	39.76
306.95	60.24
307.164	47.96
307.379	66.39
307.593	111.44
307.807	15.19
308.021	72.53
308.235	35.67
308.449	35.67
308.663	-9.39
308.877	95.06
309.091	11.09
309.305	74.58
309.519	0.85
309.733	23.38
309.947	2.9
310.161	109.4
310.374	45.91
310.588	105.3
310.802	23.38
311.016	0.85
311.23	-33.96
311.444	52.05
311.658	99.16
311.872	45.91
312.085	47.96
312.299	82.77
312.513	76.63
312.727	15.19
312.941	50
313.154	-11.43
313.368	11.09
313.582	27.48
313.796	66.39
314.009	45.91
314.223	80.72
314.437	50
314.651	37.72
314.864	17.24
315.078	66.39
315.292	15.19
315.505	9.05
315.719	0.85
315.933	33.62
316.146	2.9
316.36	-1.19
316.573	50
316.787	50
317.001	54.1
317.214	78.68
317.428	-13.48
317.641	-54.44
317.855	50
318.068	58.2
318.282	13.14
318.495	82.77
318.709	70.48
318.922	78.68
319.136	140.12
319.349	27.48
319.563	13.14
319.776	29.52
319.99	-21.67
320.203	93.01
320.417	113.49
320.63	41.81
320.843	78.68
321.057	68.44
321.27	39.76
321.483	99.16
321.697	29.52
321.91	25.43
322.124	99.16
322.337	9.05
322.55	70.48
322.763	-3.24
322.977	64.34
323.19	86.87
323.403	103.25
323.617	58.2
323.83	76.63
324.043	4.95
324.256	95.06
324.469	15.19
324.683	72.53
324.896	78.68
325.109	17.24
325.322	31.57
325.535	50
325.748	43.86
325.962	64.34
326.175	41.81
326.388	58.2
326.601	101.2
326.814	13.14
327.027	-17.58
327.24	23.38
327.453	9.05
327.666	72.53
327.879	56.15
328.092	99.16
328.305	39.76
328.518	70.48
328.731	-17.58
328.944	11.09
329.157	66.39
329.37	50
329.583	119.64
329.796	144.21
330.009	-19.63
330.222	13.14
330.435	129.88
330.648	45.91
330.861	95.06
331.073	9.05
331.286	-19.63
331.499	82.77
331.712	-74.92
331.925	90.96
332.138	-27.82
332.35	47.96
332.563	4.95
332.776	117.59
332.989	82.77
333.202	54.1
333.414	54.1
333.627	99.16
333.84	33.62
334.053	33.62
334.265	-13.48
334.478	74.58
334.691	78.68
334.903	74.58
335.116	50
335.329	11.09
335.541	62.29
335.754	111.44
335.966	13.14
336.179	56.15
336.392	129.88
336.604	13.14
336.817	47.96
337.029	95.06
337.242	39.76
337.454	86.87
337.667	90.96
337.88	70.48
338.092	39.76
338.305	13.14
338.517	-1.19
338.729	19.29
338.942	-21.67
339.154	7
339.367	62.29
339.579	7
339.792	82.77
340.004	43.86
340.217	-13.48
340.429	82.77
340.641	0.85
340.854	41.81
341.066	27.48
341.278	105.3
341.491	97.11
341.703	37.72
341.915	-11.43
342.128	107.35
342.34	99.16
342.552	-11.43
342.764	4.95
342.977	4.95
343.189	13.14
343.401	33.62
343.613	-19.63
343.826	17.24
344.038	39.76
344.25	31.57
344.462	76.63
344.674	70.48
344.886	64.34
345.099	13.14
345.311	56.15
345.523	13.14
345.735	17.24
345.947	99.16
346.159	117.59
346.371	68.44
346.583	47.96
346.795	176.98
347.007	9.05
347.219	84.82
347.431	70.48
347.643	13.14
347.855	-36.01
348.067	117.59
348.279	62.29
348.491	39.76
348.703	13.14
348.915	-7.34
349.127	41.81
349.339	84.82
349.551	66.39
349.763	62.29
349.975	25.43
350.187	47.96
350.399	62.29
350.61	9.05
350.822	50
351.034	90.96
351.246	21.33
351.458	19.29
351.669	50
351.881	29.52
352.093	66.39
352.305	80.72
352.517	82.77
352.728	33.62
352.94	23.38
353.152	84.82
353.363	29.52
353.575	-9.39
353.787	66.39
353.999	31.57
354.21	86.87
354.422	129.88
354.633	115.54
354.845	13.14
355.057	80.72
355.268	78.68
355.48	74.58
355.692	54.1
355.903	70.48
356.115	74.58
356.326	62.29
356.538	50
356.749	0.85
356.961	43.86
357.172	90.96
357.384	80.72
357.595	131.92
357.807	99.16
358.018	86.87
358.23	52.05
358.441	86.87
358.653	-1.19
358.864	-11.43
359.075	39.76
359.287	111.44
359.498	86.87
359.709	9.05
359.921	119.64
360.132	25.43
360.344	74.58
360.555	70.48
360.766	-9.39
360.977	54.1
361.189	88.92
361.4	54.1
361.611	111.44
361.823	80.72
362.034	117.59
362.245	-19.63
362.456	-1.19
362.667	90.96
362.879	25.43
363.09	103.25
363.301	82.77
363.512	86.87
363.723	60.24
363.935	62.29
364.146	68.44
364.357	84.82
364.568	54.1
364.779	25.43
364.99	54.1
365.201	-17.58
365.412	47.96
365.623	-29.87
365.834	64.34
366.045	0.85
366.256	13.14
366.467	88.92
366.678	-48.3
366.889	35.67
367.1	33.62
367.311	93.01
367.522	-23.72
367.733	37.72
367.944	115.54
368.155	15.19
368.366	115.54
368.577	60.24
368.788	99.16
368.999	109.4
369.209	25.43
369.42	54.1
369.631	78.68
369.842	27.48
370.053	21.33
370.264	76.63
370.474	39.76
370.685	78.68
370.896	27.48
371.107	62.29
371.317	107.35
371.528	68.44
371.739	164.69
371.95	82.77
372.16	62.29
372.371	54.1
372.582	29.52
372.792	7
373.003	74.58
373.214	29.52
373.424	50
373.635	66.39
373.846	84.82
374.056	19.29
374.267	47.96
374.477	58.2
374.688	86.87
374.898	33.62
375.109	50
375.319	-3.24
375.53	76.63
375.74	50
375.951	193.36
376.161	-11.43
376.372	121.68
376.582	76.63
376.793	56.15
377.003	35.67
377.214	47.96
377.424	43.86
377.635	64.34
377.845	47.96
378.055	103.25
378.266	58.2
378.476	123.73
378.686	76.63
378.897	33.62
379.107	13.14
379.317	58.2
379.528	54.1
379.738	103.25
379.948	-1.19
380.158	52.05
380.369	35.67
380.579	88.92
380.789	25.43
380.999	64.34
381.21	103.25
381.42	117.59
381.63	13.14
381.84	62.29
382.05	62.29
382.261	113.49
382.471	13.14
382.681	41.81
382.891	99.16
383.101	111.44
383.311	-25.77
383.521	58.2
383.731	103.25
383.941	4.95
384.151	54.1
384.361	-7.34
384.571	84.82
384.781	93.01
384.991	136.02
385.201	117.59
385.411	23.38
385.621	111.44
385.831	52.05
386.041	45.91
386.251	43.86
386.461	158.55
386.671	107.35
386.881	109.4
387.091	99.16
387.301	207.7
387.511	70.48
387.72	93.01
387.93	45.91
388.14	115.54
388.35	97.11
388.56	47.96
388.769	164.69
388.979	76.63
389.189	7
389.399	45.91
389.609	146.26
389.818	64.34
390.028	168.79
390.238	15.19
390.447	97.11
390.657	9.05
390.867	84.82
391.076	74.58
391.286	99.16
391.496	82.77
391.705	56.15
391.915	129.88
392.125	68.44
392.334	17.24
392.544	119.64
392.753	27.48
392.963	15.19
393.172	123.73
393.382	105.3
393.591	133.97
393.801	47.96
394.01	207.7
394.22	56.15
394.429	164.69
394.639	37.72
394.848	68.44
395.058	84.82
395.267	88.92
395.477	95.06
395.686	62.29
395.895	138.07
396.105	129.88
396.314	47.96
396.524	43.86
396.733	74.58
396.942	99.16
397.152	88.92
397.361	45.91
397.57	76.63
397.78	142.16
397.989	125.78
398.198	146.26
398.407	107.35
398.617	131.92
398.826	107.35
399.035	109.4
399.244	121.68
399.453	125.78
399.663	58.2
399.872	133.97
400.081	50
400.29	131.92
400.499	162.64
400.708	119.64
400.917	109.4
401.127	129.88
401.336	127.83
401.545	166.74
401.754	162.64
401.963	185.17
402.172	111.44
402.381	115.54
402.59	144.21
402.799	142.16
403.008	111.44
403.217	185.17
403.426	205.65
403.635	121.68
403.844	168.79
404.053	131.92
404.262	74.58
404.471	189.27
404.68	224.08
404.888	152.4
405.097	199.51
405.306	140.12
405.515	140.12
405.724	115.54
405.933	138.07
406.142	160.59
406.35	195.41
406.559	183.12
406.768	262.99
406.977	240.47
407.185	269.14
407.394	291.66
407.603	195.41
407.812	234.32
408.02	328.53
408.229	291.66
408.438	207.7
408.646	217.94
408.855	334.67
409.064	267.09
409.272	250.71
409.481	291.66
409.69	271.19
409.898	318.29
410.107	314.19
410.315	310.1
410.524	414.54
410.733	424.78
410.941	377.68
411.15	402.26
411.358	430.93
411.567	422.73
411.775	459.6
411.984	408.4
412.192	408.4
412.401	437.07
412.609	451.41
412.818	621.39
413.026	539.47
413.234	553.8
413.443	562
413.651	621.39
413.86	586.57
414.068	705.35
414.276	691.02
414.485	609.1
414.693	645.96
414.901	760.65
415.11	774.99
415.318	817.99
415.526	840.52
415.734	803.66
415.943	914.25
416.151	920.39
416.359	887.62
416.567	957.25
416.776	951.11
416.984	1035.08
417.192	1121.09
417.4	990.02
417.608	1053.51
417.817	1180.48
418.025	1160
418.233	1284.93
418.441	1233.73
418.649	1282.88
418.857	1434.43
419.065	1551.17
419.273	1418.05
419.481	1610.56
419.689	1508.16
419.897	1583.93
420.105	1557.31
420.313	1708.86
420.521	1694.52
420.729	1755.96
420.937	1844.03
421.145	1934.14
421.353	1889.08
421.561	2186.04
421.769	2188.08
421.977	2147.12
422.185	2159.41
422.393	2360.11
422.601	2401.07
422.809	2454.32
423.017	2454.32
423.224	2579.25
423.432	2847.53
423.64	2767.66
423.848	2986.79
424.056	2847.53
424.263	3177.25
424.471	3169.06
424.679	3040.04
424.887	3349.28
425.094	3484.45
425.302	3474.21
425.51	3457.82
425.718	3676.96
425.925	3803.93
426.133	3930.91
426.341	4201.24
426.548	4360.98
426.756	4066.07
426.964	4293.4
427.171	4629.26
427.379	4641.55
427.586	4563.73
427.794	4995.85
428.001	5092.1
428.209	5456.64
428.417	5315.33
428.624	5614.34
428.832	5591.81
429.039	5618.43
429.247	5618.43
429.454	6171.38
429.662	6439.67
429.869	6238.97
430.076	6544.11
430.284	6284.02
430.491	6593.26
430.699	7021.29
430.906	6945.52
431.114	7111.4
431.321	7496.42
431.528	7387.88
431.736	8065.75
431.943	8395.48
432.15	8157.91
432.358	8280.79
432.565	8555.22
432.772	8544.98
432.979	8930
433.187	9364.17
433.394	9194.19
433.601	9982.65
433.808	9990.84
434.016	9810.62
434.223	10236.6
434.43	10867.38
434.637	10683.06
434.844	11416.23
435.052	11504.29
435.259	11508.39
435.466	11461.29
435.673	11416.23
435.88	12386.97
436.087	12999.31
436.294	12821.14
436.501	12550.81
436.708	12966.54
436.915	13357.71
437.122	13947.52
437.329	13697.67
437.537	14244.48
437.743	14664.31
437.95	14535.29
438.157	15297.13
438.364	15936.1
438.571	15788.64
438.778	15688.29
438.985	17248.85
439.192	16564.82
439.399	17211.98
439.606	16679.51
439.813	17719.88
440.02	18721.34
440.227	18508.35
440.433	18094.66
440.64	18883.13
440.847	18975.28
441.054	19468.84
441.261	20128.29
441.467	20085.28
441.674	20617.75
441.881	21332.5
442.088	21381.65
442.294	21041.68
442.501	21506.57
442.708	22028.81
442.914	22950.39
443.121	24168.93
443.328	23392.75
443.534	24781.28
443.741	24381.92
443.948	23849.45
444.154	25745.87
444.361	25735.63
444.568	25747.92
444.774	25627.09
444.981	26042.82
445.187	26982.84
445.394	27974.06
445.6	27619.76
445.807	30206.34
446.013	29114.78
446.22	29309.33
446.426	30712.19
446.633	30742.91
446.839	31877.49
447.046	30536.07
447.252	32039.28
447.459	32346.47
447.665	32016.75
447.871	33786.19
448.078	34853.19
448.284	33188.19
448.491	34206.03
448.697	35324.22
448.903	36030.77
449.11	36047.15
449.316	35273.02
449.522	35991.86
449.728	37040.42
449.935	37450.01
450.141	37333.28
450.347	37929.23
450.553	36860.19
450.76	37390.62
450.966	38025.49
451.172	38052.11
451.378	38811.91
451.584	38111.5
451.791	38951.17
451.997	39024.9
452.203	39764.21
452.409	39520.51
452.615	39057.67
452.821	37927.19
453.027	37169.44
453.233	39364.86
453.44	37708.05
453.646	38097.17
453.852	38498.57
454.058	38979.84
454.264	37798.16
454.47	38365.45
454.676	37486.87
454.882	38840.58
455.088	35291.45
455.294	35940.66
455.5	36204.84
455.705	36593.96
455.911	35492.15
456.117	34795.84
456.323	33835.35
456.529	32008.56
456.735	33306.97
456.941	32614.76
457.147	32041.32
457.352	31211.9
457.558	30841.21
457.764	30996.86
457.97	30366.09
458.176	29641.11
458.381	29712.78
458.587	28074.41
458.793	27998.63
458.999	26851.77
459.204	28615.07
459.41	27675.06
459.616	25971.15
459.821	26100.17
460.027	25602.51
460.233	25477.58
460.438	24275.43
460.644	24553.95
460.85	23015.93
461.055	22911.48
461.261	22837.75
461.466	20791.83
461.672	20296.22
461.878	21932.55
462.083	20722.2
462.289	20185.63
462.494	19878.44
462.7	19202.61
462.905	18555.45
463.111	19180.08
463.316	19386.93
463.522	18981.43
463.727	19046.96
463.932	18786.87
464.138	18668.09
464.343	18659.9
464.549	18346.56
464.754	18741.82
464.959	18659.9
465.165	18506.3
465.37	17646.15
465.575	17201.74
465.781	18080.32
465.986	18098.75
466.191	17390.16
466.397	17160.78
466.602	16454.23
466.807	16736.85
467.012	17195.6
467.218	17156.69
467.423	16403.04
467.628	16726.61
467.833	17535.56
468.038	16810.58
468.244	16443.99
