Data from USB4F104151__297__10-43-22-168.txt Node

Date: Wed Mar 12 10:43:22 EDT 2025
User: louis
Spectrometer: USB4F10415
Trigger mode: 4
Integration Time (sec): 3.000000E-2
Scans to average: 1
Electric dark correction enabled: true
Nonlinearity correction enabled: false
Boxcar width: 0
XAxis mode: Wavelengths
Number of Pixels in Spectrum: 3648
>>>>>Begin Spectral Data<<<<<
178.204	-91.99
178.424	-91.99
178.644	-91.99
178.864	-169.81
179.084	-51.03
179.304	-26.45
179.524	65.71
179.744	-14.17
179.964	37.03
180.184	2.22
180.404	-24.4
180.624	-10.07
180.844	0.17
181.064	-28.5
181.283	20.65
181.503	-20.31
181.723	-1.88
181.943	-18.26
182.163	41.13
182.383	10.41
182.602	73.9
182.822	96.43
183.042	-8.02
183.262	2.22
183.482	65.71
183.701	22.7
183.921	84.14
184.141	-55.12
184.361	102.57
184.58	-40.79
184.8	-24.4
185.02	88.23
185.239	57.51
185.459	80.04
185.679	30.89
185.898	-10.07
186.118	82.09
186.338	61.61
186.557	100.52
186.777	84.14
186.997	-28.5
187.216	2.22
187.436	121
187.655	39.08
187.875	20.65
188.095	82.09
188.314	61.61
188.534	143.53
188.753	24.75
188.973	116.9
189.192	71.85
189.412	-14.17
189.631	67.75
189.851	18.6
190.07	84.14
190.29	-53.08
190.509	-22.36
190.729	0.17
190.948	102.57
191.168	147.62
191.387	88.23
191.607	-18.26
191.826	59.56
192.045	-20.31
192.265	-32.6
192.484	-34.64
192.704	71.85
192.923	-10.07
193.142	135.34
193.362	67.75
193.581	71.85
193.8	77.99
194.02	45.23
194.239	-22.36
194.458	49.32
194.678	-1.88
194.897	37.03
195.116	34.99
195.335	30.89
195.555	73.9
195.774	73.9
195.993	28.84
196.212	67.75
196.432	-3.93
196.651	8.36
196.87	71.85
197.089	112.81
197.308	102.57
197.528	30.89
197.747	-16.21
197.966	-14.17
198.185	82.09
198.404	67.75
198.623	96.43
198.842	63.66
199.062	141.48
199.281	123.05
199.5	100.52
199.719	57.51
199.938	57.51
200.157	98.47
200.376	84.14
200.595	39.08
200.814	4.27
201.033	30.89
201.252	53.42
201.471	41.13
201.69	-3.93
201.909	106.67
202.128	-14.17
202.347	-8.02
202.566	82.09
202.785	8.36
203.004	69.8
203.223	75.95
203.442	-53.08
203.661	6.31
203.879	80.04
204.098	51.37
204.317	-1.88
204.536	49.32
204.755	10.41
204.974	104.62
205.193	104.62
205.411	47.27
205.63	-3.93
205.849	30.89
206.068	26.79
206.287	51.37
206.505	39.08
206.724	-8.02
206.943	88.23
207.162	53.42
207.381	-20.31
207.599	30.89
207.818	34.99
208.037	39.08
208.255	53.42
208.474	67.75
208.693	51.37
208.911	-16.21
209.13	39.08
209.349	-40.79
209.567	-3.93
209.786	65.71
210.005	98.47
210.223	6.31
210.442	2.22
210.661	37.03
210.879	116.9
211.098	47.27
211.316	14.51
211.535	71.85
211.753	59.56
211.972	18.6
212.191	28.84
212.409	45.23
212.628	22.7
212.846	82.09
213.065	45.23
213.283	102.57
213.502	65.71
213.72	59.56
213.938	30.89
214.157	41.13
214.375	82.09
214.594	-38.74
214.812	88.23
215.031	14.51
215.249	55.47
215.467	2.22
215.686	14.51
215.904	149.67
216.122	28.84
216.341	102.57
216.559	149.67
216.778	77.99
216.996	71.85
217.214	22.7
217.432	41.13
217.651	34.99
217.869	-14.17
218.087	41.13
218.306	57.51
218.524	45.23
218.742	118.95
218.96	45.23
219.179	2.22
219.397	73.9
219.615	53.42
219.833	30.89
220.051	63.66
220.27	67.75
220.488	75.95
220.706	18.6
220.924	-26.45
221.142	61.61
221.36	-18.26
221.578	98.47
221.796	30.89
222.015	26.79
222.233	90.28
222.451	39.08
222.669	-26.45
222.887	53.42
223.105	-22.36
223.323	55.47
223.541	14.51
223.759	49.32
223.977	-1.88
224.195	6.31
224.413	47.27
224.631	30.89
224.849	86.19
225.067	88.23
225.285	-26.45
225.503	26.79
225.721	-12.12
225.939	73.9
226.157	-36.69
226.375	80.04
226.592	-32.6
226.81	32.94
227.028	71.85
227.246	69.8
227.464	53.42
227.682	61.61
227.9	63.66
228.117	10.41
228.335	-1.88
228.553	0.17
228.771	22.7
228.989	73.9
229.206	77.99
229.424	96.43
229.642	24.75
229.86	73.9
230.077	-3.93
230.295	-10.07
230.513	141.48
230.731	30.89
230.948	94.38
231.166	10.41
231.384	59.56
231.601	80.04
231.819	49.32
232.037	47.27
232.254	34.99
232.472	69.8
232.689	6.31
232.907	90.28
233.125	0.17
233.342	39.08
233.56	16.55
233.777	-40.79
233.995	12.46
234.213	90.28
234.43	43.18
234.648	34.99
234.865	61.61
235.083	127.14
235.3	84.14
235.518	100.52
235.735	106.67
235.953	67.75
236.17	24.75
236.388	88.23
236.605	16.55
236.822	65.71
237.04	75.95
237.257	82.09
237.475	80.04
237.692	55.47
237.909	26.79
238.127	18.6
238.344	123.05
238.562	0.17
238.779	80.04
238.996	63.66
239.214	55.47
239.431	88.23
239.648	37.03
239.865	26.79
240.083	86.19
240.3	6.31
240.517	43.18
240.735	-1.88
240.952	88.23
241.169	37.03
241.386	20.65
241.603	18.6
241.821	84.14
242.038	53.42
242.255	96.43
242.472	47.27
242.689	80.04
242.907	67.75
243.124	10.41
243.341	80.04
243.558	-20.31
243.775	34.99
243.992	49.32
244.209	-30.55
244.426	61.61
244.643	145.58
244.86	57.51
245.078	63.66
245.295	125.1
245.512	67.75
245.729	14.51
245.946	57.51
246.163	18.6
246.38	30.89
246.597	18.6
246.814	8.36
247.031	55.47
247.248	69.8
247.464	-28.5
247.681	80.04
247.898	47.27
248.115	10.41
248.332	47.27
248.549	47.27
248.766	6.31
248.983	16.55
249.2	16.55
249.417	77.99
249.633	18.6
249.85	39.08
250.067	92.33
250.284	26.79
250.501	80.04
250.717	-63.32
250.934	65.71
251.151	96.43
251.368	39.08
251.585	92.33
251.801	53.42
252.018	-5.97
252.235	92.33
252.451	86.19
252.668	26.79
252.885	133.29
253.102	51.37
253.318	32.94
253.535	-14.17
253.752	28.84
253.968	57.51
254.185	32.94
254.401	59.56
254.618	-26.45
254.835	22.7
255.051	100.52
255.268	20.65
255.484	24.75
255.701	30.89
255.917	63.66
256.134	4.27
256.351	104.62
256.567	18.6
256.784	41.13
257	55.47
257.217	84.14
257.433	151.72
257.65	67.75
257.866	12.46
258.082	2.22
258.299	51.37
258.515	49.32
258.732	84.14
258.948	12.46
259.165	94.38
259.381	67.75
259.597	108.71
259.814	80.04
260.03	28.84
260.246	73.9
260.463	32.94
260.679	102.57
260.895	80.04
261.112	96.43
261.328	12.46
261.544	43.18
261.761	159.91
261.977	-3.93
262.193	51.37
262.409	75.95
262.626	92.33
262.842	84.14
263.058	73.9
263.274	73.9
263.49	32.94
263.707	69.8
263.923	53.42
264.139	92.33
264.355	77.99
264.571	45.23
264.787	32.94
265.004	90.28
265.22	100.52
265.436	16.55
265.652	22.7
265.868	22.7
266.084	10.41
266.3	2.22
266.516	61.61
266.732	67.75
266.948	0.17
267.164	20.65
267.38	67.75
267.596	26.79
267.812	26.79
268.028	53.42
268.244	53.42
268.46	45.23
268.676	88.23
268.892	110.76
269.108	71.85
269.324	32.94
269.54	-34.64
269.756	59.56
269.972	-14.17
270.188	88.23
270.403	-12.12
270.619	6.31
270.835	10.41
271.051	65.71
271.267	16.55
271.483	49.32
271.698	28.84
271.914	69.8
272.13	77.99
272.346	30.89
272.562	123.05
272.777	98.47
272.993	28.84
273.209	34.99
273.425	45.23
273.64	32.94
273.856	110.76
274.072	-5.97
274.287	-10.07
274.503	116.9
274.719	32.94
274.934	37.03
275.15	49.32
275.366	80.04
275.581	20.65
275.797	67.75
276.012	55.47
276.228	34.99
276.444	22.7
276.659	84.14
276.875	90.28
277.09	8.36
277.306	18.6
277.521	26.79
277.737	106.67
277.952	61.61
278.168	-1.88
278.383	100.52
278.599	-42.84
278.814	26.79
279.03	106.67
279.245	61.61
279.461	92.33
279.676	80.04
279.892	-22.36
280.107	39.08
280.322	18.6
280.538	92.33
280.753	69.8
280.969	65.71
281.184	32.94
281.399	59.56
281.615	108.71
281.83	16.55
282.045	37.03
282.26	61.61
282.476	37.03
282.691	84.14
282.906	-1.88
283.122	6.31
283.337	-42.84
283.552	84.14
283.767	37.03
283.983	82.09
284.198	10.41
284.413	84.14
284.628	10.41
284.843	114.86
285.058	114.86
285.274	32.94
285.489	61.61
285.704	20.65
285.919	69.8
286.134	55.47
286.349	-26.45
286.564	69.8
286.779	30.89
286.995	69.8
287.21	30.89
287.425	129.19
287.64	-12.12
287.855	30.89
288.07	75.95
288.285	61.61
288.5	84.14
288.715	32.94
288.93	159.91
289.145	-26.45
289.36	30.89
289.575	47.27
289.79	59.56
290.004	6.31
290.219	69.8
290.434	8.36
290.649	-10.07
290.864	108.71
291.079	45.23
291.294	-16.21
291.509	30.89
291.724	47.27
291.938	92.33
292.153	24.75
292.368	43.18
292.583	71.85
292.798	80.04
293.012	43.18
293.227	90.28
293.442	75.95
293.657	20.65
293.871	16.55
294.086	71.85
294.301	57.51
294.516	112.81
294.73	88.23
294.945	63.66
295.16	59.56
295.374	41.13
295.589	65.71
295.804	-24.4
296.018	34.99
296.233	59.56
296.447	155.82
296.662	61.61
296.877	47.27
297.091	71.85
297.306	4.27
297.52	16.55
297.735	59.56
297.949	53.42
298.164	88.23
298.378	98.47
298.593	65.71
298.807	8.36
299.022	10.41
299.236	129.19
299.451	34.99
299.665	28.84
299.88	71.85
300.094	67.75
300.309	14.51
300.523	59.56
300.737	24.75
300.952	59.56
301.166	153.77
301.381	47.27
301.595	57.51
301.809	100.52
302.024	98.47
302.238	104.62
302.452	28.84
302.667	37.03
302.881	30.89
303.095	61.61
303.309	55.47
303.524	82.09
303.738	69.8
303.952	-10.07
304.166	34.99
304.381	32.94
304.595	135.34
304.809	28.84
305.023	88.23
305.237	65.71
305.452	86.19
305.666	116.9
305.88	61.61
306.094	39.08
306.308	-26.45
306.522	55.47
306.736	43.18
306.95	88.23
307.164	39.08
307.379	30.89
307.593	88.23
307.807	22.7
308.021	43.18
308.235	118.95
308.449	16.55
308.663	-20.31
308.877	104.62
309.091	100.52
309.305	61.61
309.519	-22.36
309.733	63.66
309.947	59.56
310.161	131.24
310.374	22.7
310.588	75.95
310.802	100.52
311.016	22.7
311.23	49.32
311.444	61.61
311.658	47.27
311.872	129.19
312.085	47.27
312.299	96.43
312.513	10.41
312.727	75.95
312.941	43.18
313.154	41.13
313.368	69.8
313.582	88.23
313.796	65.71
314.009	77.99
314.223	88.23
314.437	51.37
314.651	129.19
314.864	-1.88
315.078	18.6
315.292	47.27
315.505	20.65
315.719	75.95
315.933	32.94
316.146	22.7
316.36	-36.69
316.573	71.85
316.787	141.48
317.001	121
317.214	53.42
317.428	98.47
317.641	59.56
317.855	45.23
318.068	37.03
318.282	114.86
318.495	34.99
318.709	96.43
318.922	34.99
319.136	96.43
319.349	57.51
319.563	98.47
319.776	88.23
319.99	-28.5
320.203	94.38
320.417	45.23
320.63	90.28
320.843	12.46
321.057	4.27
321.27	22.7
321.483	6.31
321.697	84.14
321.91	88.23
322.124	-14.17
322.337	59.56
322.55	16.55
322.763	49.32
322.977	51.37
323.19	80.04
323.403	-26.45
323.617	34.99
323.83	106.67
324.043	69.8
324.256	12.46
324.469	108.71
324.683	59.56
324.896	-18.26
325.109	43.18
325.322	80.04
325.535	104.62
325.748	8.36
325.962	88.23
326.175	67.75
326.388	49.32
326.601	-14.17
326.814	92.33
327.027	16.55
327.24	94.38
327.453	-46.93
327.666	59.56
327.879	59.56
328.092	129.19
328.305	67.75
328.518	63.66
328.731	51.37
328.944	-1.88
329.157	125.1
329.37	37.03
329.583	96.43
329.796	41.13
330.009	37.03
330.222	47.27
330.435	145.58
330.648	147.62
330.861	6.31
331.073	69.8
331.286	16.55
331.499	53.42
331.712	69.8
331.925	129.19
332.138	82.09
332.35	73.9
332.563	14.51
332.776	67.75
332.989	65.71
333.202	77.99
333.414	114.86
333.627	129.19
333.84	84.14
334.053	73.9
334.265	84.14
334.478	67.75
334.691	-53.08
334.903	90.28
335.116	8.36
335.329	114.86
335.541	14.51
335.754	135.34
335.966	43.18
336.179	84.14
336.392	92.33
336.604	28.84
336.817	94.38
337.029	45.23
337.242	94.38
337.454	39.08
337.667	10.41
337.88	43.18
338.092	41.13
338.305	125.1
338.517	2.22
338.729	92.33
338.942	80.04
339.154	14.51
339.367	-40.79
339.579	39.08
339.792	-16.21
340.004	-1.88
340.217	32.94
340.429	49.32
340.641	6.31
340.854	22.7
341.066	75.95
341.278	110.76
341.491	157.86
341.703	12.46
341.915	65.71
342.128	63.66
342.34	28.84
342.552	67.75
342.764	127.14
342.977	10.41
343.189	86.19
343.401	73.9
343.613	86.19
343.826	92.33
344.038	32.94
344.25	112.81
344.462	77.99
344.674	100.52
344.886	47.27
345.099	0.17
345.311	90.28
345.523	22.7
345.735	12.46
345.947	34.99
346.159	-3.93
346.371	116.9
346.583	14.51
346.795	137.38
347.007	65.71
347.219	18.6
347.431	-3.93
347.643	80.04
347.855	73.9
348.067	98.47
348.279	65.71
348.491	59.56
348.703	67.75
348.915	-10.07
349.127	6.31
349.339	51.37
349.551	51.37
349.763	129.19
349.975	71.85
350.187	51.37
350.399	84.14
350.61	26.79
350.822	55.47
351.034	37.03
351.246	51.37
351.458	34.99
351.669	61.61
351.881	84.14
352.093	112.81
352.305	69.8
352.517	84.14
352.728	123.05
352.94	-63.32
353.152	67.75
353.363	-1.88
353.575	139.43
353.787	98.47
353.999	26.79
354.21	139.43
354.422	71.85
354.633	84.14
354.845	104.62
355.057	98.47
355.268	45.23
355.48	10.41
355.692	90.28
355.903	63.66
356.115	39.08
356.326	57.51
356.538	61.61
356.749	118.95
356.961	92.33
357.172	16.55
357.384	30.89
357.595	63.66
357.807	77.99
358.018	47.27
358.23	63.66
358.441	71.85
358.653	98.47
358.864	2.22
359.075	28.84
359.287	47.27
359.498	69.8
359.709	-3.93
359.921	20.65
360.132	84.14
360.344	102.57
360.555	6.31
360.766	28.84
360.977	73.9
361.189	135.34
361.4	102.57
361.611	102.57
361.823	61.61
362.034	43.18
362.245	20.65
362.456	77.99
362.667	82.09
362.879	51.37
363.09	104.62
363.301	59.56
363.512	96.43
363.723	96.43
363.935	51.37
364.146	88.23
364.357	96.43
364.568	71.85
364.779	-46.93
364.99	94.38
365.201	41.13
365.412	141.48
365.623	77.99
365.834	41.13
366.045	63.66
366.256	20.65
366.467	61.61
366.678	61.61
366.889	137.38
367.1	104.62
367.311	75.95
367.522	2.22
367.733	55.47
367.944	73.9
368.155	100.52
368.366	127.14
368.577	86.19
368.788	73.9
368.999	-42.84
369.209	45.23
369.42	112.81
369.631	121
369.842	110.76
370.053	55.47
370.264	47.27
370.474	75.95
370.685	75.95
370.896	24.75
371.107	106.67
371.317	92.33
371.528	77.99
371.739	14.51
371.95	57.51
372.16	8.36
372.371	51.37
372.582	12.46
372.792	69.8
373.003	127.14
373.214	28.84
373.424	143.53
373.635	63.66
373.846	147.62
374.056	73.9
374.267	96.43
374.477	47.27
374.688	98.47
374.898	159.91
375.109	106.67
375.319	92.33
375.53	69.8
375.74	96.43
375.951	114.86
376.161	88.23
376.372	94.38
376.582	92.33
376.793	100.52
377.003	104.62
377.214	125.1
377.424	116.9
377.635	32.94
377.845	53.42
378.055	82.09
378.266	71.85
378.476	-1.88
378.686	53.42
378.897	34.99
379.107	84.14
379.317	37.03
379.528	69.8
379.738	127.14
379.948	71.85
380.158	41.13
380.369	80.04
380.579	112.81
380.789	30.89
380.999	94.38
381.21	69.8
381.42	118.95
381.63	106.67
381.84	69.8
382.05	149.67
382.261	39.08
382.471	47.27
382.681	55.47
382.891	34.99
383.101	84.14
383.311	43.18
383.521	-69.46
383.731	112.81
383.941	104.62
384.151	30.89
384.361	116.9
384.571	125.1
384.781	100.52
384.991	137.38
385.201	94.38
385.411	108.71
385.621	143.53
385.831	133.29
386.041	55.47
386.251	6.31
386.461	59.56
386.671	-42.84
386.881	41.13
387.091	86.19
387.301	92.33
387.511	-18.26
387.72	116.9
387.93	121
388.14	-26.45
388.35	55.47
388.56	63.66
388.769	82.09
388.979	37.03
389.189	80.04
389.399	80.04
389.609	157.86
389.818	63.66
390.028	100.52
390.238	73.9
390.447	67.75
390.657	110.76
390.867	77.99
391.076	90.28
391.286	-14.17
391.496	155.82
391.705	51.37
391.915	73.9
392.125	98.47
392.334	18.6
392.544	77.99
392.753	116.9
392.963	75.95
393.172	86.19
393.382	55.47
393.591	141.48
393.801	82.09
394.01	112.81
394.22	114.86
394.429	106.67
394.639	149.67
394.848	26.79
395.058	147.62
395.267	125.1
395.477	80.04
395.686	116.9
395.895	121
396.105	200.87
396.314	104.62
396.524	155.82
396.733	84.14
396.942	139.43
397.152	63.66
397.361	190.63
397.57	145.58
397.78	125.1
397.989	209.06
398.198	170.15
398.407	88.23
398.617	84.14
398.826	135.34
399.035	114.86
399.244	211.11
399.453	149.67
399.663	141.48
399.872	151.72
400.081	108.71
400.29	182.44
400.499	63.66
400.708	108.71
400.917	131.24
401.127	141.48
401.336	139.43
401.545	223.4
401.754	192.68
401.963	182.44
402.172	164.01
402.381	143.53
402.59	168.1
402.799	153.77
403.008	123.05
403.217	145.58
403.426	213.16
403.635	202.92
403.844	198.82
404.053	155.82
404.262	207.02
404.471	268.45
404.68	153.77
404.888	180.39
405.097	133.29
405.306	123.05
405.515	194.73
405.724	188.58
405.933	200.87
406.142	225.45
406.35	166.06
406.559	151.72
406.768	239.78
406.977	235.69
407.185	241.83
407.394	235.69
407.603	237.74
407.812	293.03
408.02	237.74
408.229	225.45
408.438	252.07
408.646	323.75
408.855	280.74
409.064	227.5
409.272	413.86
409.481	344.23
409.69	290.98
409.898	364.71
410.107	340.13
410.315	383.14
410.524	356.52
410.733	356.52
410.941	436.39
411.15	430.24
411.358	452.77
411.567	526.5
411.775	489.64
411.984	458.92
412.192	485.54
412.401	458.92
412.609	553.12
412.818	583.84
413.026	589.99
413.234	526.5
413.443	641.18
413.651	659.62
413.86	657.57
414.068	653.47
414.276	721.06
414.485	694.43
414.693	700.58
414.901	813.21
415.11	823.45
415.318	729.25
415.526	888.99
415.734	817.31
415.943	919.71
416.151	972.96
416.359	968.86
416.567	1071.26
416.776	1046.68
416.984	1118.36
417.192	1085.59
417.4	1163.42
417.608	1181.85
417.817	1210.52
418.025	1282.2
418.233	1300.63
418.441	1214.62
418.649	1392.79
418.857	1538.2
419.065	1425.56
419.273	1427.6
419.481	1507.48
419.689	1478.8
419.897	1734.8
420.105	1661.07
420.313	1779.86
420.521	1835.15
420.729	1843.34
420.937	1857.68
421.145	1994.89
421.353	2128.01
421.561	2216.07
421.769	2132.11
421.977	2353.29
422.185	2240.65
422.393	2398.34
422.601	2629.76
422.809	2691.2
423.017	2625.67
423.224	2676.87
423.432	2814.08
423.64	2838.66
423.848	3084.41
424.056	2990.21
424.263	3192.95
424.471	3221.63
424.679	3260.54
424.887	3555.44
425.094	3651.7
425.302	3555.44
425.51	3725.43
425.718	3819.63
425.925	3958.89
426.133	4110.44
426.341	4218.99
426.548	4407.4
426.756	4470.89
426.964	4526.18
427.171	4851.81
427.379	4993.12
427.586	4870.24
427.794	5079.13
428.001	5376.09
428.209	5656.66
428.417	5632.08
428.624	5929.04
428.832	5732.44
429.039	5996.62
429.247	6043.73
429.454	6365.26
429.662	6821.95
429.869	6389.83
430.076	6883.39
430.284	6586.44
430.491	7086.14
430.699	7379
430.906	7419.96
431.114	7465.02
431.321	7759.92
431.528	7860.27
431.736	8286.25
431.943	8814.63
432.15	8355.88
432.358	8491.05
432.565	9080.86
432.772	9134.11
432.979	9572.38
433.187	9713.69
433.394	9603.1
433.601	10407.95
433.808	10323.98
434.016	10319.89
434.223	10829.83
434.43	11333.63
434.637	11296.77
434.844	11921.4
435.052	12271.6
435.259	12216.3
435.466	12287.98
435.673	12214.26
435.88	13004.77
436.087	13365.21
436.294	13287.39
436.501	13268.96
436.708	13498.33
436.915	14112.72
437.122	14634.96
437.329	14856.14
437.537	15079.36
437.743	15448
437.95	15087.56
438.157	15734.71
438.364	16447.41
438.571	16451.5
438.778	16316.34
438.985	17973.14
439.192	17143.72
439.399	17792.92
439.606	17547.17
439.813	18571.15
440.02	19804.03
440.227	19341.19
440.433	19099.53
440.64	19920.76
440.847	19492.74
441.054	19976.06
441.261	21581.67
441.467	21297
441.674	21651.3
441.881	22372.18
442.088	22331.22
442.294	21868.38
442.501	22712.14
442.708	23359.3
442.914	24147.77
443.121	25341.74
443.328	24428.34
443.534	26380.06
443.741	25198.38
443.948	25177.9
444.154	26892.05
444.361	26441.5
444.568	26941.2
444.774	26941.2
444.981	27369.23
445.187	27991.81
445.394	29116.14
445.6	29058.8
445.807	31672.01
446.013	30215.9
446.22	30889.68
446.426	32116.42
446.633	32216.77
446.839	33373.87
447.046	31956.68
447.252	33492.65
447.459	33937.06
447.665	33867.43
447.871	35073.68
448.078	36552.32
448.284	34819.74
448.491	35786.38
448.697	37056.12
448.903	37733.99
449.11	37570.16
449.316	36892.28
449.522	37502.57
449.728	39013.98
449.935	38911.58
450.141	38747.74
450.347	39839.31
450.553	38612.57
450.76	38995.54
450.966	40433.22
451.172	39951.95
451.378	40791.61
451.584	40226.37
451.791	40914.49
451.997	40941.11
452.203	41461.3
452.409	41143.86
452.615	41180.73
452.821	39224.92
453.027	38854.23
453.233	41307.7
453.44	39509.58
453.646	40087.11
453.852	40091.21
454.058	40812.09
454.264	39351.89
454.47	39904.84
454.676	39165.53
454.882	40609.34
455.088	36937.34
455.294	37541.49
455.5	38364.77
455.705	38489.7
455.911	36923
456.117	36490.88
456.323	35786.38
456.529	33681.06
456.735	35163.79
456.941	34356.89
457.147	33928.87
457.352	32751.29
457.558	32491.19
457.764	32638.65
457.97	31915.72
458.176	31080.14
458.381	30871.25
458.587	29519.59
458.793	29568.74
458.999	27815.68
459.204	29830.88
459.41	29066.99
459.616	27086.61
459.821	26908.43
460.027	27055.89
460.233	26560.28
460.438	25540.39
460.644	25745.19
460.85	24414.01
461.055	24121.15
461.261	24082.24
461.466	22310.74
461.672	21426.02
461.878	23363.4
462.083	21442.4
462.289	21137.26
462.494	21321.57
462.7	20137.85
462.905	19394.43
463.111	20160.38
463.316	20084.6
463.522	19806.08
463.727	20117.37
463.932	19752.83
464.138	19597.18
464.343	19488.64
464.549	19081.1
464.754	19797.88
464.959	19353.48
465.165	19208.07
465.37	18859.91
465.575	18231.19
465.781	18827.15
465.986	19113.86
466.191	18319.25
466.397	18005.91
466.602	17319.84
466.807	18085.78
