Data from USB4F104151__235__10-30-26-850.txt Node

Date: Wed Mar 12 10:30:26 EDT 2025
User: louis
Spectrometer: USB4F10415
Trigger mode: 4
Integration Time (sec): 3.000000E-2
Scans to average: 1
Electric dark correction enabled: true
Nonlinearity correction enabled: false
Boxcar width: 0
XAxis mode: Wavelengths
Number of Pixels in Spectrum: 3648
>>>>>Begin Spectral Data<<<<<
178.204	-110.25
178.424	-110.25
178.644	-110.25
178.864	-124.58
179.084	-89.77
179.304	43.35
179.524	-38.57
179.744	18.77
179.964	29.01
180.184	2.39
180.404	-30.38
180.624	-9.9
180.844	16.73
181.064	29.01
181.283	-50.86
181.503	-26.28
181.723	16.73
181.943	8.53
182.163	45.4
182.383	20.82
182.602	18.77
182.822	86.36
183.042	45.4
183.262	-46.76
183.482	-9.9
183.701	12.63
183.921	6.49
184.141	-32.43
184.361	94.55
184.58	110.93
184.8	78.16
185.02	37.2
185.239	139.6
185.459	35.16
185.679	149.84
185.898	41.3
186.118	43.35
186.338	100.69
186.557	72.02
186.777	88.4
186.997	49.49
187.216	51.54
187.436	88.4
187.655	53.59
187.875	160.08
188.095	121.17
188.314	37.2
188.534	41.3
188.753	-3.75
188.973	24.92
189.192	76.12
189.412	92.5
189.631	90.45
189.851	82.26
190.07	47.44
190.29	22.87
190.509	119.12
190.729	112.98
190.948	69.97
191.168	115.03
191.387	86.36
191.607	14.68
191.826	-24.23
192.045	69.97
192.265	94.55
192.484	18.77
192.704	-18.09
192.923	-7.85
193.142	115.03
193.362	90.45
193.581	119.12
193.8	121.17
194.02	108.88
194.239	51.54
194.458	53.59
194.678	80.21
194.897	80.21
195.116	2.39
195.335	51.54
195.555	2.39
195.774	57.68
195.993	94.55
196.212	41.3
196.432	43.35
196.651	-26.28
196.87	16.73
197.089	102.74
197.308	117.08
197.528	129.36
197.747	0.34
197.966	14.68
198.185	78.16
198.404	53.59
198.623	51.54
198.842	86.36
199.062	98.64
199.281	94.55
199.5	41.3
199.719	121.17
199.938	131.41
200.157	45.4
200.376	96.6
200.595	45.4
200.814	6.49
201.033	-1.71
201.252	67.92
201.471	82.26
201.69	82.26
201.909	24.92
202.128	108.88
202.347	90.45
202.566	47.44
202.785	57.68
203.004	94.55
203.223	90.45
203.442	39.25
203.661	49.49
203.879	98.64
204.098	57.68
204.317	14.68
204.536	69.97
204.755	4.44
204.974	84.31
205.193	18.77
205.411	133.46
205.63	-7.85
205.849	57.68
206.068	57.68
206.287	-26.28
206.505	55.64
206.724	61.78
206.943	86.36
207.162	74.07
207.381	8.53
207.599	-26.28
207.818	33.11
208.037	33.11
208.255	24.92
208.474	33.11
208.693	47.44
208.911	112.98
209.13	115.03
209.349	86.36
209.567	86.36
209.786	33.11
210.005	45.4
210.223	94.55
210.442	51.54
210.661	82.26
210.879	127.32
211.098	6.49
211.316	78.16
211.535	43.35
211.753	49.49
211.972	65.88
212.191	26.96
212.409	74.07
212.628	6.49
212.846	-34.47
213.065	41.3
213.283	61.78
213.502	-30.38
213.72	82.26
213.938	102.74
214.157	20.82
214.375	78.16
214.594	47.44
214.812	24.92
215.031	106.84
215.249	4.44
215.467	2.39
215.686	94.55
215.904	37.2
216.122	49.49
216.341	106.84
216.559	4.44
216.778	59.73
216.996	74.07
217.214	78.16
217.432	45.4
217.651	41.3
217.869	47.44
218.087	12.63
218.306	61.78
218.524	45.4
218.742	35.16
218.96	104.79
219.179	67.92
219.397	59.73
219.615	137.56
219.833	76.12
220.051	94.55
220.27	55.64
220.488	121.17
220.706	57.68
220.924	86.36
221.142	39.25
221.36	35.16
221.578	24.92
221.796	39.25
222.015	29.01
222.233	69.97
222.451	57.68
222.669	18.77
222.887	39.25
223.105	33.11
223.323	74.07
223.541	90.45
223.759	86.36
223.977	98.64
224.195	110.93
224.413	22.87
224.631	49.49
224.849	90.45
225.067	139.6
225.285	-32.43
225.503	61.78
225.721	41.3
225.939	102.74
226.157	57.68
226.375	174.42
226.592	39.25
226.81	-5.8
227.028	63.83
227.246	119.12
227.464	121.17
227.682	55.64
227.9	-28.33
228.117	92.5
228.335	35.16
228.553	61.78
228.771	100.69
228.989	29.01
229.206	41.3
229.424	100.69
229.642	96.6
229.86	72.02
230.077	39.25
230.295	98.64
230.513	88.4
230.731	141.65
230.948	125.27
231.166	18.77
231.384	69.97
231.601	119.12
231.819	8.53
232.037	49.49
232.254	0.34
232.472	127.32
232.689	26.96
232.907	90.45
233.125	24.92
233.342	119.12
233.56	51.54
233.777	65.88
233.995	45.4
234.213	80.21
234.43	65.88
234.648	90.45
234.865	8.53
235.083	45.4
235.3	80.21
235.518	53.59
235.735	33.11
235.953	151.89
236.17	123.22
236.388	72.02
236.605	35.16
236.822	84.31
237.04	69.97
237.257	45.4
237.475	55.64
237.692	59.73
237.909	98.64
238.127	45.4
238.344	80.21
238.562	31.06
238.779	82.26
238.996	-3.75
239.214	-3.75
239.431	49.49
239.648	69.97
239.865	18.77
240.083	16.73
240.3	24.92
240.517	49.49
240.735	110.93
240.952	147.8
241.169	35.16
241.386	82.26
241.603	63.83
241.821	-13.99
242.038	6.49
242.255	80.21
242.472	57.68
242.689	96.6
242.907	78.16
243.124	69.97
243.341	82.26
243.558	108.88
243.775	63.83
243.992	-36.52
244.209	88.4
244.426	94.55
244.643	166.23
244.86	55.64
245.078	90.45
245.295	24.92
245.512	39.25
245.729	59.73
245.946	-22.19
246.163	8.53
246.38	133.46
246.597	65.88
246.814	74.07
247.031	72.02
247.248	72.02
247.464	35.16
247.681	123.22
247.898	33.11
248.115	127.32
248.332	37.2
248.549	139.6
248.766	106.84
248.983	90.45
249.2	18.77
249.417	108.88
249.633	67.92
249.85	45.4
250.067	49.49
250.284	110.93
250.501	33.11
250.717	86.36
250.934	6.49
251.151	55.64
251.368	72.02
251.585	69.97
251.801	98.64
252.018	-7.85
252.235	115.03
252.451	24.92
252.668	65.88
252.885	31.06
253.102	49.49
253.318	8.53
253.535	65.88
253.752	72.02
253.968	43.35
254.185	0.34
254.401	-20.14
254.618	96.6
254.835	-5.8
255.051	104.79
255.268	63.83
255.484	123.22
255.701	24.92
255.917	108.88
256.134	65.88
256.351	69.97
256.567	-13.99
256.784	59.73
257	20.82
257.217	47.44
257.433	16.73
257.65	37.2
257.866	12.63
258.082	61.78
258.299	-3.75
258.515	12.63
258.732	8.53
258.948	55.64
259.165	37.2
259.381	22.87
259.597	106.84
259.814	84.31
260.03	24.92
260.246	115.03
260.463	49.49
260.679	47.44
260.895	162.13
261.112	90.45
261.328	8.53
261.544	69.97
261.761	88.4
261.977	108.88
262.193	18.77
262.409	47.44
262.626	74.07
262.842	110.93
263.058	4.44
263.274	135.51
263.49	78.16
263.707	55.64
263.923	12.63
264.139	45.4
264.355	22.87
264.571	147.8
264.787	16.73
265.004	41.3
265.22	123.22
265.436	98.64
265.652	8.53
265.868	-11.95
266.084	67.92
266.3	78.16
266.516	31.06
266.732	82.26
266.948	55.64
267.164	74.07
267.38	139.6
267.596	16.73
267.812	135.51
268.028	137.56
268.244	63.83
268.46	33.11
268.676	76.12
268.892	57.68
269.108	72.02
269.324	-26.28
269.54	18.77
269.756	65.88
269.972	59.73
270.188	51.54
270.403	121.17
270.619	119.12
270.835	37.2
271.051	45.4
271.267	-1.71
271.483	14.68
271.698	26.96
271.914	80.21
272.13	92.5
272.346	12.63
272.562	82.26
272.777	37.2
272.993	59.73
273.209	82.26
273.425	49.49
273.64	47.44
273.856	88.4
274.072	0.34
274.287	94.55
274.503	104.79
274.719	86.36
274.934	8.53
275.15	8.53
275.366	10.58
275.581	-9.9
275.797	57.68
276.012	78.16
276.228	49.49
276.444	43.35
276.659	127.32
276.875	78.16
277.09	45.4
277.306	47.44
277.521	155.99
277.737	16.73
277.952	78.16
278.168	78.16
278.383	65.88
278.599	51.54
278.814	160.08
279.03	31.06
279.245	110.93
279.461	22.87
279.676	43.35
279.892	-13.99
280.107	16.73
280.322	4.44
280.538	47.44
280.753	59.73
280.969	131.41
281.184	26.96
281.399	47.44
281.615	20.82
281.83	104.79
282.045	94.55
282.26	-3.75
282.476	63.83
282.691	104.79
282.906	80.21
283.122	84.31
283.337	35.16
283.552	20.82
283.767	59.73
283.983	110.93
284.198	63.83
284.413	20.82
284.628	55.64
284.843	69.97
285.058	59.73
285.274	141.65
285.489	22.87
285.704	143.7
285.919	-9.9
286.134	31.06
286.349	96.6
286.564	8.53
286.779	61.78
286.995	12.63
287.21	39.25
287.425	67.92
287.64	33.11
287.855	20.82
288.07	37.2
288.285	100.69
288.5	55.64
288.715	112.98
288.93	115.03
289.145	88.4
289.36	137.56
289.575	0.34
289.79	92.5
290.004	45.4
290.219	65.88
290.434	51.54
290.649	22.87
290.864	29.01
291.079	102.74
291.294	74.07
291.509	129.36
291.724	22.87
291.938	94.55
292.153	39.25
292.368	67.92
292.583	49.49
292.798	100.69
293.012	90.45
293.227	65.88
293.442	33.11
293.657	76.12
293.871	115.03
294.086	80.21
294.301	147.8
294.516	115.03
294.73	53.59
294.945	22.87
295.16	20.82
295.374	57.68
295.589	96.6
295.804	51.54
296.018	20.82
296.233	108.88
296.447	65.88
296.662	74.07
296.877	67.92
297.091	110.93
297.306	45.4
297.52	86.36
297.735	49.49
297.949	76.12
298.164	65.88
298.378	82.26
298.593	72.02
298.807	45.4
299.022	112.98
299.236	172.37
299.451	102.74
299.665	164.18
299.88	82.26
300.094	57.68
300.309	61.78
300.523	104.79
300.737	88.4
300.952	90.45
301.166	78.16
301.381	55.64
301.595	63.83
301.809	69.97
302.024	12.63
302.238	45.4
302.452	98.64
302.667	63.83
302.881	143.7
303.095	170.32
303.309	125.27
303.524	-1.71
303.738	86.36
303.952	49.49
304.166	104.79
304.381	59.73
304.595	78.16
304.809	94.55
305.023	-11.95
305.237	31.06
305.452	84.31
305.666	16.73
305.88	149.84
306.094	31.06
306.308	96.6
306.522	45.4
306.736	151.89
306.95	115.03
307.164	45.4
307.379	67.92
307.593	65.88
307.807	74.07
308.021	49.49
308.235	143.7
308.449	39.25
308.663	0.34
308.877	160.08
309.091	51.54
309.305	135.51
309.519	14.68
309.733	139.6
309.947	24.92
310.161	84.31
310.374	-3.75
310.588	16.73
310.802	74.07
311.016	37.2
311.23	100.69
311.444	110.93
311.658	92.5
311.872	63.83
312.085	86.36
312.299	37.2
312.513	69.97
312.727	8.53
312.941	69.97
313.154	61.78
313.368	78.16
313.582	39.25
313.796	92.5
314.009	8.53
314.223	49.49
314.437	123.22
314.651	47.44
314.864	55.64
315.078	24.92
315.292	76.12
315.505	110.93
315.719	43.35
315.933	31.06
316.146	16.73
316.36	-71.34
316.573	106.84
316.787	-7.85
317.001	39.25
317.214	20.82
317.428	49.49
317.641	78.16
317.855	12.63
318.068	110.93
318.282	14.68
318.495	160.08
318.709	-16.04
318.922	106.84
319.136	117.08
319.349	74.07
319.563	2.39
319.776	78.16
319.99	-50.86
320.203	-1.71
320.417	63.83
320.63	49.49
320.843	141.65
321.057	24.92
321.27	104.79
321.483	147.8
321.697	29.01
321.91	39.25
322.124	88.4
322.337	57.68
322.55	41.3
322.763	72.02
322.977	6.49
323.19	35.16
323.403	115.03
323.617	78.16
323.83	39.25
324.043	110.93
324.256	69.97
324.469	96.6
324.683	139.6
324.896	72.02
325.109	63.83
325.322	78.16
325.535	94.55
325.748	100.69
325.962	121.17
326.175	24.92
326.388	82.26
326.601	49.49
326.814	90.45
327.027	112.98
327.24	41.3
327.453	80.21
327.666	26.96
327.879	59.73
328.092	59.73
328.305	72.02
328.518	119.12
328.731	33.11
328.944	57.68
329.157	53.59
329.37	-32.43
329.583	115.03
329.796	92.5
330.009	-32.43
330.222	80.21
330.435	92.5
330.648	94.55
330.861	135.51
331.073	41.3
331.286	84.31
331.499	49.49
331.712	41.3
331.925	76.12
332.138	-11.95
332.35	88.4
332.563	115.03
332.776	20.82
332.989	57.68
333.202	59.73
333.414	61.78
333.627	65.88
333.84	67.92
334.053	69.97
334.265	-9.9
334.478	61.78
334.691	26.96
334.903	0.34
335.116	8.53
335.329	61.78
335.541	67.92
335.754	104.79
335.966	76.12
336.179	-5.8
336.392	49.49
336.604	49.49
336.817	20.82
337.029	78.16
337.242	82.26
337.454	80.21
337.667	57.68
337.88	102.74
338.092	-1.71
338.305	94.55
338.517	115.03
338.729	88.4
338.942	65.88
339.154	41.3
339.367	55.64
339.579	115.03
339.792	45.4
340.004	72.02
340.217	67.92
340.429	80.21
340.641	-26.28
340.854	29.01
341.066	14.68
341.278	72.02
341.491	158.03
341.703	94.55
341.915	31.06
342.128	133.46
342.34	-7.85
342.552	51.54
342.764	69.97
342.977	92.5
343.189	51.54
343.401	84.31
343.613	26.96
343.826	139.6
344.038	82.26
344.25	139.6
344.462	2.39
344.674	108.88
344.886	67.92
345.099	76.12
345.311	82.26
345.523	82.26
345.735	14.68
345.947	8.53
346.159	45.4
346.371	31.06
346.583	33.11
346.795	100.69
347.007	61.78
347.219	90.45
347.431	35.16
347.643	145.75
347.855	16.73
348.067	174.42
348.279	57.68
348.491	80.21
348.703	125.27
348.915	47.44
349.127	72.02
349.339	14.68
349.551	123.22
349.763	125.27
349.975	104.79
350.187	172.37
350.399	86.36
350.61	65.88
350.822	53.59
351.034	88.4
351.246	106.84
351.458	49.49
351.669	74.07
351.881	166.23
352.093	84.31
352.305	86.36
352.517	96.6
352.728	125.27
352.94	37.2
353.152	108.88
353.363	45.4
353.575	147.8
353.787	86.36
353.999	76.12
354.21	33.11
354.422	94.55
354.633	18.77
354.845	65.88
355.057	35.16
355.268	117.08
355.48	153.94
355.692	106.84
355.903	47.44
356.115	121.17
356.326	94.55
356.538	39.25
356.749	33.11
356.961	47.44
357.172	-1.71
357.384	22.87
357.595	211.28
357.807	16.73
358.018	80.21
358.23	37.2
358.441	82.26
358.653	127.32
358.864	57.68
359.075	16.73
359.287	61.78
359.498	72.02
359.709	55.64
359.921	115.03
360.132	78.16
360.344	22.87
360.555	90.45
360.766	80.21
360.977	88.4
361.189	98.64
361.4	137.56
361.611	104.79
361.823	123.22
362.034	55.64
362.245	24.92
362.456	90.45
362.667	67.92
362.879	51.54
363.09	121.17
363.301	53.59
363.512	98.64
363.723	88.4
363.935	20.82
364.146	137.56
364.357	63.83
364.568	31.06
364.779	37.2
364.99	100.69
365.201	49.49
365.412	160.08
365.623	4.44
365.834	131.41
366.045	86.36
366.256	127.32
366.467	90.45
366.678	26.96
366.889	49.49
367.1	86.36
367.311	88.4
367.522	72.02
367.733	131.41
367.944	98.64
368.155	33.11
368.366	149.84
368.577	151.89
368.788	123.22
368.999	16.73
369.209	41.3
369.42	135.51
369.631	217.43
369.842	92.5
370.053	29.01
370.264	88.4
370.474	24.92
370.685	65.88
370.896	74.07
371.107	59.73
371.317	151.89
371.528	47.44
371.739	31.06
371.95	86.36
372.16	121.17
372.371	45.4
372.582	72.02
372.792	51.54
373.003	49.49
373.214	49.49
373.424	67.92
373.635	74.07
373.846	82.26
374.056	108.88
374.267	115.03
374.477	51.54
374.688	84.31
374.898	63.83
375.109	61.78
375.319	104.79
375.53	108.88
375.74	137.56
375.951	78.16
376.161	106.84
376.372	90.45
376.582	127.32
376.793	61.78
377.003	61.78
377.214	139.6
377.424	121.17
377.635	74.07
377.845	112.98
378.055	176.47
378.266	49.49
378.476	33.11
378.686	47.44
378.897	108.88
379.107	65.88
379.317	164.18
379.528	57.68
379.738	104.79
379.948	59.73
380.158	129.36
380.369	63.83
380.579	141.65
380.789	22.87
380.999	213.33
381.21	69.97
381.42	168.27
381.63	86.36
381.84	16.73
382.05	121.17
382.261	61.78
382.471	94.55
382.681	6.49
382.891	125.27
383.101	135.51
383.311	94.55
383.521	65.88
383.731	110.93
383.941	104.79
384.151	96.6
384.361	49.49
384.571	8.53
384.781	67.92
384.991	106.84
385.201	94.55
385.411	55.64
385.621	145.75
385.831	110.93
386.041	117.08
386.251	139.6
386.461	139.6
386.671	24.92
386.881	137.56
387.091	98.64
387.301	129.36
387.511	84.31
387.72	76.12
387.93	78.16
388.14	129.36
388.35	123.22
388.56	61.78
388.769	61.78
388.979	100.69
389.189	67.92
389.399	104.79
389.609	168.27
389.818	131.41
390.028	119.12
390.238	135.51
390.447	24.92
390.657	80.21
390.867	115.03
391.076	86.36
391.286	65.88
391.496	37.2
391.705	112.98
391.915	84.31
392.125	129.36
392.334	153.94
392.544	153.94
392.753	131.41
392.963	45.4
393.172	139.6
393.382	129.36
393.591	174.42
393.801	121.17
394.01	176.47
394.22	209.23
394.429	65.88
394.639	80.21
394.848	155.99
395.058	129.36
395.267	141.65
395.477	139.6
395.686	86.36
395.895	155.99
396.105	125.27
396.314	145.75
396.524	131.41
396.733	147.8
396.942	194.9
397.152	115.03
397.361	131.41
397.57	106.84
397.78	112.98
397.989	82.26
398.198	151.89
398.407	127.32
398.617	127.32
398.826	96.6
399.035	72.02
399.244	215.38
399.453	137.56
399.663	160.08
399.872	211.28
400.081	168.27
400.29	188.75
400.499	127.32
400.708	186.71
400.917	160.08
401.127	92.5
401.336	102.74
401.545	237.91
401.754	160.08
401.963	217.43
402.172	172.37
402.381	149.84
402.59	151.89
402.799	153.94
403.008	196.95
403.217	219.47
403.426	180.56
403.635	104.79
403.844	176.47
404.053	201.04
404.262	192.85
404.471	194.9
404.68	188.75
404.888	137.56
405.097	180.56
405.306	149.84
405.515	164.18
405.724	262.48
405.933	211.28
406.142	229.71
406.35	211.28
406.559	268.63
406.768	321.87
406.977	233.81
407.185	215.38
407.394	233.81
407.603	213.33
407.812	248.15
408.02	242
408.229	375.12
408.438	276.82
408.646	356.69
408.855	287.06
409.064	307.54
409.272	309.58
409.481	368.98
409.69	291.15
409.898	307.54
410.107	401.74
410.315	387.41
410.524	373.07
410.733	418.13
410.941	430.41
411.15	479.57
411.358	459.09
411.567	397.65
411.775	438.61
411.984	405.84
412.192	547.15
412.401	532.81
412.609	606.54
412.818	522.57
413.026	573.77
413.234	600.4
413.443	571.72
413.651	553.29
413.86	678.22
414.068	745.8
414.276	715.08
414.485	690.51
414.693	713.03
414.901	840.01
415.11	823.62
415.318	864.58
415.526	858.44
415.734	973.13
415.943	979.27
416.151	921.93
416.359	844.1
416.567	938.31
416.776	966.98
416.984	1136.96
417.192	1188.16
417.4	1128.77
417.608	1030.47
417.817	1096
418.025	1227.07
418.233	1265.99
418.441	1337.66
418.649	1356.1
418.857	1376.58
419.065	1481.02
419.273	1397.06
419.481	1552.7
419.689	1601.85
419.897	1777.98
420.105	1671.48
420.313	1767.74
420.521	1835.32
420.729	1863.99
420.937	1913.14
421.145	2007.35
421.353	2044.21
421.561	2160.95
421.769	2163
421.977	2244.92
422.185	2285.87
422.393	2431.28
422.601	2494.77
422.809	2572.59
423.017	2521.39
423.224	2654.51
423.432	2814.25
423.64	2795.82
423.848	2935.08
424.056	2973.99
424.263	3252.52
424.471	3287.33
424.679	3209.51
424.887	3561.76
425.094	3406.11
425.302	3504.42
425.51	3596.57
425.718	3795.23
425.925	3692.83
426.133	3778.84
426.341	4270.36
426.548	4213.01
426.756	4346.13
426.964	4346.13
427.171	4600.08
427.379	4808.97
427.586	4784.4
427.794	5081.35
428.001	5282.05
428.209	5374.21
428.417	5329.16
428.624	5814.52
428.832	5669.12
429.039	5697.79
429.247	5681.41
429.454	6123.77
429.662	6594.8
429.869	6400.24
430.076	6801.65
430.284	6390
430.491	6689.01
430.699	7076.07
430.906	7125.22
431.114	7250.15
431.321	7635.17
431.528	7680.22
431.736	8290.52
431.943	8489.17
432.15	8102.11
432.358	8202.46
432.565	8827.09
432.772	8831.18
432.979	9187.53
433.187	9255.11
433.394	9537.73
433.601	10082.49
433.808	10037.44
434.016	9918.65
434.223	10279.1
434.43	11325.61
434.637	10991.79
434.844	11493.54
435.052	11643.04
435.259	11593.89
435.466	11630.76
435.673	11520.17
435.88	12243.1
436.087	12976.27
436.294	13041.81
436.501	12716.18
436.708	13033.61
436.915	13506.7
437.122	14069.89
437.329	13725.83
437.537	14516.34
437.743	14643.32
437.95	14569.59
438.157	15212.65
438.364	15724.65
438.571	15661.16
438.778	15999.07
438.985	17266.77
439.192	16615.51
439.399	17092.69
439.606	16754.77
439.813	17659.98
440.02	18692.15
440.227	18286.65
440.433	18327.61
440.64	19017.78
440.847	18524.22
441.054	19198
441.261	20492.32
441.467	20260.9
441.674	20547.61
441.881	21409.81
442.088	21286.93
442.294	20807.7
442.501	21516.3
442.708	22145.03
442.914	23070.71
443.121	23812.07
443.328	23058.42
443.534	24995.8
443.741	23877.61
443.948	23724.01
444.154	25573.33
444.361	25249.75
444.568	25671.63
444.774	25726.92
444.981	25735.12
445.187	26482.63
445.394	27633.58
445.6	27578.29
445.807	29783.95
446.013	28440.48
446.22	28880.8
446.426	30097.29
446.633	30668.67
446.839	31254.39
447.046	30232.46
447.252	31876.97
447.459	31752.05
447.665	31684.47
447.871	33208.15
448.078	34379.59
448.284	32753.51
448.491	33736.53
448.697	34914.11
448.903	35383.1
449.11	35675.96
449.316	34932.54
449.522	35493.69
449.728	36849.44
449.935	36941.6
450.141	36542.25
450.347	37369.63
450.553	36390.7
450.76	36740.9
450.966	38016.79
451.172	37533.46
451.378	38332.17
451.584	37388.06
451.791	38760.2
451.997	38496.01
452.203	39059.2
452.409	38844.16
452.615	38453
452.821	37291.8
453.027	36896.55
453.233	38846.21
453.44	37080.86
453.646	37295.9
453.852	37861.14
454.058	38188.81
454.264	37236.51
454.47	37857.04
454.676	36978.47
454.882	38248.21
455.088	34721.6
455.294	35659.57
455.5	35469.11
455.705	35989.3
455.911	35002.18
456.117	34105.16
456.323	33572.69
456.529	31623.03
456.735	33206.11
456.941	32427.88
457.147	31827.82
457.352	30482.31
457.558	30394.25
457.764	30785.41
457.97	29917.07
458.176	29450.13
458.381	29441.94
458.587	27832.24
458.793	27920.3
458.999	26382.27
459.204	28075.94
459.41	27822
459.616	25905.1
459.821	25925.58
460.027	25329.62
460.233	25235.41
460.438	23730.16
460.644	23959.53
460.85	22898.68
461.055	22632.44
461.261	22765.56
461.466	21174.29
461.672	20162.59
461.878	21858.31
462.083	20402.21
462.289	20105.25
462.494	19695.66
462.7	18688.06
462.905	18362.43
463.111	19075.12
463.316	19359.79
463.522	18794.55
463.727	19005.49
463.932	18501.69
464.138	18567.23
464.343	18475.07
464.549	18212.93
464.754	18747.45
464.959	18522.17
465.165	18346.05
465.37	17586.25
465.575	17008.72
465.781	17866.82
465.986	18020.42
466.191	17254.48
466.397	16998.48
466.602	16185.44
