Data from USB4F104151__266__10-40-20-781.txt Node

Date: Wed Mar 12 10:40:20 EDT 2025
User: louis
Spectrometer: USB4F10415
Trigger mode: 4
Integration Time (sec): 3.000000E-2
Scans to average: 1
Electric dark correction enabled: true
Nonlinearity correction enabled: false
Boxcar width: 0
XAxis mode: Wavelengths
Number of Pixels in Spectrum: 3648
>>>>>Begin Spectral Data<<<<<
178.204	-43.69
178.424	-43.69
178.644	-43.69
178.864	-152.23
179.084	-139.94
179.304	-8.87
179.524	-41.64
179.744	30.04
179.964	44.37
180.184	15.7
180.404	46.42
180.624	36.18
180.844	-76.46
181.064	-25.26
181.283	38.23
181.503	-58.03
181.723	-0.68
181.943	-94.89
182.163	81.24
182.383	54.61
182.602	77.14
182.822	11.61
183.042	-68.27
183.262	27.99
183.482	-21.16
183.701	13.65
183.921	40.28
184.141	-25.26
184.361	-6.83
184.58	-55.98
184.8	42.32
185.02	9.56
185.239	11.61
185.459	25.94
185.679	17.75
185.898	-15.02
186.118	11.61
186.338	5.46
186.557	11.61
186.777	13.65
186.997	-33.45
187.216	-64.17
187.436	25.94
187.655	44.37
187.875	-2.73
188.095	111.96
188.314	114
188.534	17.75
188.753	-35.5
188.973	-58.03
189.192	105.81
189.412	3.41
189.631	-4.78
189.851	15.7
190.07	44.37
190.29	-43.69
190.509	87.38
190.729	-62.12
190.948	73.04
191.168	148.82
191.387	58.71
191.607	3.41
191.826	54.61
192.045	-31.4
192.265	77.14
192.484	-62.12
192.704	52.56
192.923	34.13
193.142	-21.16
193.362	19.8
193.581	83.28
193.8	73.04
194.02	30.04
194.239	25.94
194.458	38.23
194.678	9.56
194.897	44.37
195.116	3.41
195.335	99.67
195.555	42.32
195.774	-39.59
195.993	21.85
196.212	1.37
196.432	-4.78
196.651	13.65
196.87	9.56
197.089	50.52
197.308	11.61
197.528	-4.78
197.747	-2.73
197.966	11.61
198.185	46.42
198.404	-10.92
198.623	66.9
198.842	73.04
199.062	-6.83
199.281	111.96
199.5	-6.83
199.719	46.42
199.938	89.43
200.157	87.38
200.376	3.41
200.595	89.43
200.814	36.18
201.033	54.61
201.252	13.65
201.471	46.42
201.69	32.08
201.909	103.76
202.128	34.13
202.347	38.23
202.566	27.99
202.785	17.75
203.004	-12.97
203.223	58.71
203.442	-31.4
203.661	-21.16
203.879	54.61
204.098	36.18
204.317	-33.45
204.536	62.8
204.755	3.41
204.974	40.28
205.193	30.04
205.411	124.24
205.63	-6.83
205.849	-43.69
206.068	42.32
206.287	7.51
206.505	13.65
206.724	54.61
206.943	1.37
207.162	13.65
207.381	-29.35
207.599	-39.59
207.818	32.08
208.037	58.71
208.255	50.52
208.474	114
208.693	15.7
208.911	-10.92
209.13	-2.73
209.349	40.28
209.567	83.28
209.786	68.95
210.005	42.32
210.223	-35.5
210.442	-27.31
210.661	-23.21
210.879	48.47
211.098	-21.16
211.316	17.75
211.535	-45.74
211.753	64.85
211.972	46.42
212.191	60.76
212.409	25.94
212.628	-15.02
212.846	1.37
213.065	23.89
213.283	62.8
213.502	-86.7
213.72	75.09
213.938	-0.68
214.157	-25.26
214.375	99.67
214.594	-29.35
214.812	32.08
215.031	146.77
215.249	-27.31
215.467	-66.22
215.686	5.46
215.904	23.89
216.122	-47.79
216.341	56.66
216.559	-47.79
216.778	77.14
216.996	46.42
217.214	44.37
217.432	-15.02
217.651	71
217.869	46.42
218.087	-2.73
218.306	32.08
218.524	-51.88
218.742	-49.83
218.96	-10.92
219.179	56.66
219.397	7.51
219.615	36.18
219.833	73.04
220.051	-0.68
220.27	-10.92
220.488	-17.07
220.706	48.47
220.924	62.8
221.142	-17.07
221.36	-12.97
221.578	11.61
221.796	34.13
222.015	85.33
222.233	-37.55
222.451	-10.92
222.669	-39.59
222.887	7.51
223.105	15.7
223.323	21.85
223.541	44.37
223.759	111.96
223.977	46.42
224.195	42.32
224.413	99.67
224.631	40.28
224.849	9.56
225.067	91.48
225.285	36.18
225.503	34.13
225.721	-25.26
225.939	19.8
226.157	-25.26
226.375	116.05
226.592	17.75
226.81	7.51
227.028	73.04
227.246	23.89
227.464	-47.79
227.682	27.99
227.9	3.41
228.117	9.56
228.335	62.8
228.553	-23.21
228.771	27.99
228.989	44.37
229.206	58.71
229.424	42.32
229.642	7.51
229.86	-8.87
230.077	7.51
230.295	-45.74
230.513	50.52
230.731	52.56
230.948	58.71
231.166	38.23
231.384	50.52
231.601	17.75
231.819	17.75
232.037	58.71
232.254	-74.41
232.472	38.23
232.689	38.23
232.907	73.04
233.125	58.71
233.342	-2.73
233.56	11.61
233.777	-4.78
233.995	42.32
234.213	15.7
234.43	30.04
234.648	11.61
234.865	-53.93
235.083	81.24
235.3	34.13
235.518	-8.87
235.735	34.13
235.953	21.85
236.17	-6.83
236.388	40.28
236.605	-0.68
236.822	13.65
237.04	38.23
237.257	3.41
237.475	-27.31
237.692	15.7
237.909	7.51
238.127	9.56
238.344	7.51
238.562	11.61
238.779	-10.92
238.996	48.47
239.214	103.76
239.431	89.43
239.648	-17.07
239.865	34.13
240.083	144.72
240.3	34.13
240.517	9.56
240.735	81.24
240.952	130.39
241.169	32.08
241.386	9.56
241.603	42.32
241.821	3.41
242.038	23.89
242.255	7.51
242.472	-0.68
242.689	46.42
242.907	-10.92
243.124	30.04
243.341	-27.31
243.558	38.23
243.775	56.66
243.992	48.47
244.209	48.47
244.426	68.95
244.643	17.75
244.86	58.71
245.078	-39.59
245.295	25.94
245.512	-23.21
245.729	-55.98
245.946	-41.64
246.163	89.43
246.38	25.94
246.597	91.48
246.814	62.8
247.031	-0.68
247.248	73.04
247.464	48.47
247.681	50.52
247.898	23.89
248.115	87.38
248.332	9.56
248.549	71
248.766	66.9
248.983	54.61
249.2	21.85
249.417	21.85
249.633	27.99
249.85	-43.69
250.067	-2.73
250.284	-23.21
250.501	42.32
250.717	25.94
250.934	-6.83
251.151	34.13
251.368	-17.07
251.585	34.13
251.801	-2.73
252.018	-19.11
252.235	32.08
252.451	40.28
252.668	56.66
252.885	48.47
253.102	32.08
253.318	9.56
253.535	85.33
253.752	66.9
253.968	-23.21
254.185	21.85
254.401	66.9
254.618	7.51
254.835	-35.5
255.051	38.23
255.268	-15.02
255.484	-17.07
255.701	34.13
255.917	-17.07
256.134	-15.02
256.351	58.71
256.567	-15.02
256.784	17.75
257	9.56
257.217	19.8
257.433	-6.83
257.65	13.65
257.866	21.85
258.082	5.46
258.299	-62.12
258.515	-27.31
258.732	-35.5
258.948	30.04
259.165	11.61
259.381	-6.83
259.597	21.85
259.814	62.8
260.03	95.57
260.246	-6.83
260.463	126.29
260.679	77.14
260.895	5.46
261.112	56.66
261.328	66.9
261.544	-8.87
261.761	83.28
261.977	-76.46
262.193	21.85
262.409	-51.88
262.626	-33.45
262.842	3.41
263.058	-78.51
263.274	83.28
263.49	38.23
263.707	30.04
263.923	-12.97
264.139	1.37
264.355	7.51
264.571	73.04
264.787	-33.45
265.004	48.47
265.22	44.37
265.436	-2.73
265.652	-2.73
265.868	23.89
266.084	-2.73
266.3	95.57
266.516	-80.55
266.732	46.42
266.948	32.08
267.164	50.52
267.38	-2.73
267.596	-10.92
267.812	93.52
268.028	5.46
268.244	-23.21
268.46	103.76
268.676	-2.73
268.892	77.14
269.108	9.56
269.324	5.46
269.54	-37.55
269.756	21.85
269.972	52.56
270.188	9.56
270.403	111.96
270.619	17.75
270.835	46.42
271.051	-60.07
271.267	58.71
271.483	-8.87
271.698	-6.83
271.914	1.37
272.13	11.61
272.346	50.52
272.562	114
272.777	56.66
272.993	30.04
273.209	-25.26
273.425	21.85
273.64	52.56
273.856	25.94
274.072	-12.97
274.287	17.75
274.503	40.28
274.719	34.13
274.934	21.85
275.15	-47.79
275.366	-29.35
275.581	15.7
275.797	-25.26
276.012	25.94
276.228	-39.59
276.444	42.32
276.659	64.85
276.875	27.99
277.09	30.04
277.306	-6.83
277.521	34.13
277.737	15.7
277.952	56.66
278.168	40.28
278.383	62.8
278.599	58.71
278.814	95.57
279.03	-17.07
279.245	83.28
279.461	25.94
279.676	5.46
279.892	-2.73
280.107	38.23
280.322	-58.03
280.538	3.41
280.753	-64.17
280.969	50.52
281.184	-21.16
281.399	73.04
281.615	-8.87
281.83	87.38
282.045	-15.02
282.26	11.61
282.476	1.37
282.691	62.8
282.906	38.23
283.122	75.09
283.337	-39.59
283.552	46.42
283.767	50.52
283.983	99.67
284.198	7.51
284.413	116.05
284.628	9.56
284.843	7.51
285.058	-23.21
285.274	81.24
285.489	68.95
285.704	58.71
285.919	-35.5
286.134	40.28
286.349	5.46
286.564	30.04
286.779	77.14
286.995	73.04
287.21	42.32
287.425	30.04
287.64	15.7
287.855	15.7
288.07	-2.73
288.285	25.94
288.5	83.28
288.715	1.37
288.93	-25.26
289.145	34.13
289.36	85.33
289.575	42.32
289.79	44.37
290.004	19.8
290.219	81.24
290.434	-39.59
290.649	-23.21
290.864	60.76
291.079	9.56
291.294	-15.02
291.509	50.52
291.724	25.94
291.938	-2.73
292.153	27.99
292.368	-41.64
292.583	21.85
292.798	71
293.012	95.57
293.227	58.71
293.442	-6.83
293.657	73.04
293.871	99.67
294.086	97.62
294.301	-6.83
294.516	11.61
294.73	42.32
294.945	-15.02
295.16	40.28
295.374	109.91
295.589	62.8
295.804	85.33
296.018	73.04
296.233	95.57
296.447	17.75
296.662	9.56
296.877	5.46
297.091	58.71
297.306	1.37
297.52	-35.5
297.735	27.99
297.949	38.23
298.164	136.53
298.378	17.75
298.593	54.61
298.807	-25.26
299.022	-17.07
299.236	3.41
299.451	50.52
299.665	25.94
299.88	17.75
300.094	111.96
300.309	-27.31
300.523	42.32
300.737	32.08
300.952	-8.87
301.166	15.7
301.381	-25.26
301.595	3.41
301.809	87.38
302.024	-66.22
302.238	7.51
302.452	44.37
302.667	40.28
302.881	68.95
303.095	-6.83
303.309	17.75
303.524	64.85
303.738	42.32
303.952	-0.68
304.166	44.37
304.381	-8.87
304.595	66.9
304.809	-41.64
305.023	27.99
305.237	-0.68
305.452	25.94
305.666	42.32
305.88	54.61
306.094	50.52
306.308	60.76
306.522	-33.45
306.736	15.7
306.95	75.09
307.164	13.65
307.379	93.52
307.593	62.8
307.807	36.18
308.021	83.28
308.235	42.32
308.449	-94.89
308.663	-15.02
308.877	11.61
309.091	25.94
309.305	44.37
309.519	11.61
309.733	105.81
309.947	30.04
310.161	23.89
310.374	71
310.588	40.28
310.802	-64.17
311.016	13.65
311.23	50.52
311.444	-10.92
311.658	54.61
311.872	93.52
312.085	44.37
312.299	91.48
312.513	64.85
312.727	34.13
312.941	27.99
313.154	-0.68
313.368	68.95
313.582	58.71
313.796	25.94
314.009	-23.21
314.223	-4.78
314.437	9.56
314.651	-88.75
314.864	23.89
315.078	-15.02
315.292	42.32
315.505	52.56
315.719	50.52
315.933	34.13
316.146	7.51
316.36	-29.35
316.573	-10.92
316.787	40.28
317.001	36.18
317.214	-21.16
317.428	3.41
317.641	-17.07
317.855	40.28
318.068	46.42
318.282	17.75
318.495	52.56
318.709	130.39
318.922	-60.07
319.136	73.04
319.349	38.23
319.563	73.04
319.776	62.8
319.99	30.04
320.203	54.61
320.417	101.72
320.63	36.18
320.843	13.65
321.057	93.52
321.27	-8.87
321.483	54.61
321.697	60.76
321.91	75.09
322.124	13.65
322.337	52.56
322.55	-39.59
322.763	13.65
322.977	48.47
323.19	50.52
323.403	48.47
323.617	-15.02
323.83	107.86
324.043	62.8
324.256	21.85
324.469	17.75
324.683	116.05
324.896	-23.21
325.109	-0.68
325.322	-12.97
325.535	89.43
325.748	21.85
325.962	75.09
326.175	38.23
326.388	30.04
326.601	79.19
326.814	13.65
327.027	95.57
327.24	71
327.453	5.46
327.666	7.51
327.879	7.51
328.092	42.32
328.305	-37.55
328.518	25.94
328.731	25.94
328.944	-2.73
329.157	7.51
329.37	21.85
329.583	36.18
329.796	87.38
330.009	-6.83
330.222	85.33
330.435	62.8
330.648	13.65
330.861	-4.78
331.073	-47.79
331.286	83.28
331.499	23.89
331.712	-2.73
331.925	87.38
332.138	11.61
332.35	36.18
332.563	46.42
332.776	38.23
332.989	68.95
333.202	9.56
333.414	32.08
333.627	81.24
333.84	7.51
334.053	17.75
334.265	73.04
334.478	75.09
334.691	32.08
334.903	19.8
335.116	7.51
335.329	58.71
335.541	21.85
335.754	97.62
335.966	73.04
336.179	75.09
336.392	-15.02
336.604	148.82
336.817	21.85
337.029	-8.87
337.242	5.46
337.454	81.24
337.667	27.99
337.88	85.33
338.092	97.62
338.305	23.89
338.517	40.28
338.729	27.99
338.942	17.75
339.154	60.76
339.367	-27.31
339.579	5.46
339.792	21.85
340.004	116.05
340.217	19.8
340.429	60.76
340.641	-27.31
340.854	38.23
341.066	25.94
341.278	-4.78
341.491	68.95
341.703	91.48
341.915	19.8
342.128	-21.16
342.34	27.99
342.552	17.75
342.764	79.19
342.977	75.09
343.189	38.23
343.401	25.94
343.613	-29.35
343.826	44.37
344.038	103.76
344.25	38.23
344.462	-25.26
344.674	68.95
344.886	56.66
345.099	75.09
345.311	-4.78
345.523	32.08
345.735	46.42
345.947	5.46
346.159	7.51
346.371	15.7
346.583	-31.4
346.795	87.38
347.007	46.42
347.219	9.56
347.431	1.37
347.643	46.42
347.855	-17.07
348.067	42.32
348.279	9.56
348.491	13.65
348.703	60.76
348.915	48.47
349.127	-25.26
349.339	56.66
349.551	58.71
349.763	68.95
349.975	62.8
350.187	40.28
350.399	42.32
350.61	34.13
350.822	-6.83
351.034	99.67
351.246	42.32
351.458	11.61
351.669	75.09
351.881	91.48
352.093	48.47
352.305	68.95
352.517	32.08
352.728	19.8
352.94	58.71
353.152	79.19
353.363	-15.02
353.575	46.42
353.787	48.47
353.999	64.85
354.21	23.89
354.422	-31.4
354.633	32.08
354.845	77.14
355.057	105.81
355.268	128.34
355.48	23.89
355.692	7.51
355.903	62.8
356.115	19.8
356.326	-53.93
356.538	46.42
356.749	32.08
356.961	89.43
357.172	13.65
357.384	38.23
357.595	66.9
357.807	36.18
358.018	9.56
358.23	25.94
358.441	64.85
358.653	40.28
358.864	118.1
359.075	30.04
359.287	32.08
359.498	101.72
359.709	44.37
359.921	44.37
360.132	-27.31
360.344	30.04
360.555	95.57
360.766	66.9
360.977	3.41
361.189	68.95
361.4	85.33
361.611	109.91
361.823	66.9
362.034	73.04
362.245	-0.68
362.456	30.04
362.667	46.42
362.879	-23.21
363.09	103.76
363.301	79.19
363.512	-19.11
363.723	3.41
363.935	23.89
364.146	-12.97
364.357	36.18
364.568	79.19
364.779	62.8
364.99	73.04
365.201	34.13
365.412	87.38
365.623	13.65
365.834	25.94
366.045	38.23
366.256	120.15
366.467	83.28
366.678	128.34
366.889	-45.74
367.1	-27.31
367.311	77.14
367.522	56.66
367.733	116.05
367.944	21.85
368.155	50.52
368.366	19.8
368.577	46.42
368.788	148.82
368.999	25.94
369.209	30.04
369.42	81.24
369.631	161.11
369.842	13.65
370.053	73.04
370.264	73.04
370.474	58.71
370.685	-10.92
370.896	46.42
371.107	30.04
371.317	50.52
371.528	40.28
371.739	95.57
371.95	15.7
372.16	58.71
372.371	60.76
372.582	54.61
372.792	32.08
373.003	73.04
373.214	66.9
373.424	-27.31
373.635	-6.83
373.846	71
374.056	116.05
374.267	91.48
374.477	-25.26
374.688	91.48
374.898	21.85
375.109	107.86
375.319	-10.92
375.53	54.61
375.74	30.04
375.951	19.8
376.161	58.71
376.372	54.61
376.582	19.8
376.793	-19.11
377.003	83.28
377.214	25.94
377.424	-72.36
377.635	-15.02
377.845	64.85
378.055	64.85
378.266	40.28
378.476	54.61
378.686	15.7
378.897	17.75
379.107	48.47
379.317	116.05
379.528	83.28
379.738	144.72
379.948	-51.88
380.158	5.46
380.369	23.89
380.579	116.05
380.789	42.32
380.999	73.04
381.21	99.67
381.42	122.2
381.63	5.46
381.84	17.75
382.05	64.85
382.261	107.86
382.471	91.48
382.681	101.72
382.891	62.8
383.101	58.71
383.311	52.56
383.521	34.13
383.731	73.04
383.941	62.8
384.151	81.24
384.361	21.85
384.571	87.38
384.781	71
384.991	103.76
385.201	58.71
385.411	140.63
385.621	50.52
385.831	25.94
386.041	85.33
386.251	-25.26
386.461	111.96
386.671	7.51
386.881	68.95
387.091	7.51
387.301	42.32
387.511	42.32
387.72	171.35
387.93	93.52
388.14	58.71
388.35	50.52
388.56	99.67
388.769	27.99
388.979	30.04
389.189	105.81
389.399	42.32
389.609	89.43
389.818	38.23
390.028	75.09
390.238	142.68
390.447	40.28
390.657	68.95
390.867	21.85
391.076	30.04
391.286	66.9
391.496	7.51
391.705	11.61
391.915	163.15
392.125	44.37
392.334	19.8
392.544	107.86
392.753	5.46
392.963	27.99
393.172	1.37
393.382	36.18
393.591	95.57
393.801	87.38
394.01	75.09
394.22	27.99
394.429	-8.87
394.639	132.44
394.848	173.39
395.058	34.13
395.267	42.32
395.477	148.82
395.686	15.7
395.895	99.67
396.105	173.39
396.314	120.15
396.524	48.47
396.733	101.72
396.942	132.44
397.152	132.44
397.361	148.82
397.57	89.43
397.78	62.8
397.989	105.81
398.198	152.92
398.407	30.04
398.617	144.72
398.826	50.52
399.035	89.43
399.244	87.38
399.453	120.15
399.663	148.82
399.872	107.86
400.081	87.38
400.29	171.35
400.499	52.56
400.708	177.49
400.917	89.43
401.127	150.87
401.336	50.52
401.545	204.11
401.754	101.72
401.963	165.2
402.172	103.76
402.381	87.38
402.59	179.54
402.799	148.82
403.008	173.39
403.217	152.92
403.426	132.44
403.635	144.72
403.844	146.77
404.053	154.96
404.262	101.72
404.471	212.31
404.68	114
404.888	105.81
405.097	157.01
405.306	216.4
405.515	132.44
405.724	116.05
405.933	193.87
406.142	179.54
406.35	243.03
406.559	206.16
406.768	230.74
406.977	271.7
407.185	191.83
407.394	283.99
407.603	240.98
407.812	191.83
408.02	171.35
408.229	279.89
408.438	245.07
408.646	243.03
408.855	308.56
409.064	361.81
409.272	343.38
409.481	394.58
409.69	306.51
409.898	298.32
410.107	347.47
410.315	353.62
410.524	355.66
410.733	335.18
410.941	437.58
411.15	439.63
411.358	478.54
411.567	484.69
411.775	488.78
411.984	505.17
412.192	499.02
412.401	578.89
412.609	640.33
412.818	513.36
413.026	517.45
413.234	523.6
413.443	640.33
413.651	714.06
413.86	628.04
414.068	689.48
414.276	775.5
414.485	718.15
414.693	728.39
414.901	847.18
415.11	769.35
415.318	808.27
415.526	896.33
415.734	918.86
415.943	931.14
416.151	951.62
416.359	1045.83
416.567	1029.45
416.776	1088.84
416.984	1137.99
417.192	1187.14
417.4	1148.23
417.608	1148.23
417.817	1236.29
418.025	1285.44
418.233	1363.26
418.441	1303.87
418.649	1432.9
418.857	1576.25
419.065	1596.73
419.273	1514.81
419.481	1688.89
419.689	1668.41
419.897	1758.52
420.105	1783.1
420.313	1824.06
420.521	1971.51
420.729	1936.7
420.937	1996.09
421.145	2037.05
421.353	2213.17
421.561	2252.08
421.769	2399.54
421.977	2420.02
422.185	2338.1
422.393	2651.44
422.601	2655.53
422.809	2649.39
423.017	2770.22
423.224	2954.54
423.432	2917.67
423.64	2934.06
423.848	3251.49
424.056	3204.39
424.263	3505.44
424.471	3345.7
424.679	3544.35
424.887	3714.33
425.094	3747.1
425.302	3788.06
425.51	3943.71
425.718	4105.49
425.925	4175.13
426.133	4320.53
426.341	4377.87
426.548	4723.98
426.756	4726.03
426.964	4750.6
427.171	5152.01
427.379	5293.32
427.586	5119.24
427.794	5348.61
428.001	5866.75
428.209	5844.22
428.417	5960.95
428.624	6302.97
428.832	6276.34
429.039	6239.48
429.247	6165.75
429.454	6896.88
429.662	7197.93
429.869	6671.6
430.076	7394.53
430.284	7148.78
430.491	7462.12
430.699	7797.98
430.906	7881.95
431.114	7890.14
431.321	8191.19
431.528	8434.9
431.736	8830.16
431.943	9405.64
432.15	9178.31
432.358	9379.01
432.565	9487.56
432.772	9505.99
432.979	10249.4
433.187	10183.87
433.394	10507.44
433.601	11158.7
433.808	11291.82
434.016	10923.18
434.223	11672.74
434.43	12174.49
434.637	12010.65
434.844	12661.91
435.052	13001.87
435.259	13014.16
435.466	13077.65
435.673	12846.23
435.88	13892.74
436.087	14486.65
436.294	14480.5
436.501	14087.29
436.708	14505.08
436.915	14961.78
437.122	15760.48
437.329	15703.14
437.537	16331.87
437.743	16399.45
437.95	16159.84
438.157	17040.47
438.364	17687.62
438.571	17626.18
438.778	17964.1
438.985	19616.81
439.192	18764.85
439.399	19483.69
439.606	18715.7
439.813	19754.02
440.02	21066.77
440.227	20868.12
440.433	20423.71
440.64	21603.34
440.847	21347.34
441.054	21498.89
441.261	23327.73
441.467	22766.59
441.674	23047.16
441.881	24095.72
442.088	24243.17
442.294	23882.73
442.501	24732.64
442.708	25078.74
442.914	25988.04
443.121	27087.8
443.328	26379.2
443.534	28093.35
443.741	27327.41
443.948	27120.57
444.154	29152.15
444.361	29115.29
444.568	29193.11
444.774	29082.52
444.981	29268.89
445.187	30352.26
445.394	31363.96
445.6	31071.1
445.807	34323.27
446.013	32623.46
446.22	33250.14
446.426	34384.71
446.633	34636.61
446.839	35865.39
447.046	34257.74
447.252	36477.74
447.459	36297.52
447.665	36623.14
447.871	37933.84
448.078	39582.46
448.284	37489.43
448.491	38447.88
448.697	39881.46
448.903	40714.98
449.11	40921.83
449.316	39998.19
449.522	40954.6
449.728	41534.17
449.935	42013.4
450.141	41911
450.347	42971.85
450.553	41290.46
450.76	42164.95
450.966	43041.48
451.172	43121.35
451.378	43891.38
451.584	43147.97
451.791	43762.36
451.997	43688.63
452.203	44092.08
452.409	44556.97
452.615	44001.97
452.821	42281.68
453.027	41974.48
453.233	44290.74
453.44	42195.67
453.646	42537.68
453.852	43004.61
454.058	43236.03
454.264	42009.3
454.47	42623.69
454.676	41730.78
454.882	43418.3
455.088	39404.28
455.294	40088.31
455.5	40471.28
455.705	41366.24
455.911	39154.43
456.117	38548.23
456.323	37477.15
456.529	36059.95
456.735	37479.19
456.941	36662.05
457.147	35668.79
457.352	34462.54
457.558	34313.03
457.764	33999.69
457.97	33731.41
458.176	32607.08
458.381	32656.23
458.587	31150.97
458.793	31382.39
458.999	29551.51
459.204	31763.31
459.41	30911.36
459.616	28599.2
459.821	28517.28
460.027	28486.56
460.233	27995.05
460.438	26162.12
460.644	26983.35
460.85	25682.89
461.055	25459.66
461.261	25068.5
461.466	23510
461.672	22701.05
461.878	24570.85
462.083	22762.49
462.289	22162.44
462.494	21931.01
462.7	20855.83
462.905	20558.88
463.111	21361.68
463.316	21224.47
463.522	21027.86
463.727	20761.62
463.932	20689.95
464.138	20700.19
464.343	20681.75
464.549	20419.61
464.754	20859.93
464.959	20440.09
465.165	20333.6
465.37	19717.16
465.575	19258.42
465.781	20096.03
465.986	20134.95
466.191	19094.58
466.397	18768.95
466.602	18003.01
466.807	19108.91
467.012	18797.62
467.218	18857.01
