Data from USB4F104151__119__10-25-04-236.txt Node

Date: Wed Mar 12 10:25:04 EDT 2025
User: louis
Spectrometer: USB4F10415
Trigger mode: 4
Integration Time (sec): 3.000000E-2
Scans to average: 1
Electric dark correction enabled: true
Nonlinearity correction enabled: false
Boxcar width: 0
XAxis mode: Wavelengths
Number of Pixels in Spectrum: 3648
>>>>>Begin Spectral Data<<<<<
178.204	55.47
178.424	55.47
178.644	55.47
178.864	-61.27
179.084	-135
179.304	-48.98
179.524	0.17
179.744	-1.88
179.964	69.8
180.184	-36.69
180.404	-32.6
180.624	18.6
180.844	8.36
181.064	-53.08
181.283	32.94
181.503	8.36
181.723	34.99
181.943	-14.17
182.163	63.66
182.383	8.36
182.602	123.05
182.822	98.47
183.042	26.79
183.262	69.8
183.482	22.7
183.701	20.65
183.921	43.18
184.141	65.71
184.361	112.81
184.58	123.05
184.8	61.61
185.02	98.47
185.239	139.43
185.459	51.37
185.679	26.79
185.898	41.13
186.118	47.27
186.338	84.14
186.557	110.76
186.777	2.22
186.997	127.14
187.216	-40.79
187.436	110.76
187.655	65.71
187.875	94.38
188.095	18.6
188.314	71.85
188.534	127.14
188.753	49.32
188.973	57.51
189.192	84.14
189.412	92.33
189.631	51.37
189.851	71.85
190.07	73.9
190.29	6.31
190.509	110.76
190.729	61.61
190.948	51.37
191.168	137.38
191.387	63.66
191.607	59.56
191.826	49.32
192.045	26.79
192.265	106.67
192.484	30.89
192.704	61.61
192.923	45.23
193.142	112.81
193.362	37.03
193.581	45.23
193.8	59.56
194.02	18.6
194.239	4.27
194.458	86.19
194.678	94.38
194.897	90.28
195.116	82.09
195.335	30.89
195.555	114.86
195.774	45.23
195.993	112.81
196.212	63.66
196.432	4.27
196.651	4.27
196.87	77.99
197.089	145.58
197.308	73.9
197.528	75.95
197.747	18.6
197.966	102.57
198.185	102.57
198.404	-12.12
198.623	114.86
198.842	114.86
199.062	53.42
199.281	57.51
199.5	43.18
199.719	41.13
199.938	10.41
200.157	84.14
200.376	57.51
200.595	102.57
200.814	41.13
201.033	67.75
201.252	71.85
201.471	102.57
201.69	39.08
201.909	84.14
202.128	59.56
202.347	41.13
202.566	39.08
202.785	28.84
203.004	-18.26
203.223	98.47
203.442	34.99
203.661	39.08
203.879	22.7
204.098	116.9
204.317	94.38
204.536	131.24
204.755	61.61
204.974	55.47
205.193	59.56
205.411	129.19
205.63	32.94
205.849	14.51
206.068	45.23
206.287	-1.88
206.505	49.32
206.724	12.46
206.943	47.27
207.162	16.55
207.381	102.57
207.599	57.51
207.818	30.89
208.037	24.75
208.255	118.95
208.474	26.79
208.693	133.29
208.911	57.51
209.13	94.38
209.349	69.8
209.567	12.46
209.786	30.89
210.005	96.43
210.223	100.52
210.442	12.46
210.661	82.09
210.879	37.03
211.098	2.22
211.316	73.9
211.535	28.84
211.753	90.28
211.972	53.42
212.191	34.99
212.409	102.57
212.628	51.37
212.846	45.23
213.065	116.9
213.283	57.51
213.502	8.36
213.72	-24.4
213.938	39.08
214.157	26.79
214.375	45.23
214.594	75.95
214.812	118.95
215.031	28.84
215.249	73.9
215.467	71.85
215.686	34.99
215.904	69.8
216.122	-16.21
216.341	75.95
216.559	114.86
216.778	53.42
216.996	53.42
217.214	39.08
217.432	67.75
217.651	16.55
217.869	53.42
218.087	65.71
218.306	94.38
218.524	37.03
218.742	67.75
218.96	129.19
219.179	49.32
219.397	0.17
219.615	176.3
219.833	61.61
220.051	26.79
220.27	92.33
220.488	84.14
220.706	14.51
220.924	-69.46
221.142	43.18
221.36	102.57
221.578	37.03
221.796	77.99
222.015	16.55
222.233	57.51
222.451	116.9
222.669	14.51
222.887	67.75
223.105	55.47
223.323	98.47
223.541	-8.02
223.759	82.09
223.977	6.31
224.195	47.27
224.413	63.66
224.631	129.19
224.849	26.79
225.067	170.15
225.285	16.55
225.503	80.04
225.721	-20.31
225.939	86.19
226.157	73.9
226.375	86.19
226.592	34.99
226.81	102.57
227.028	112.81
227.246	127.14
227.464	53.42
227.682	41.13
227.9	110.76
228.117	106.67
228.335	77.99
228.553	84.14
228.771	49.32
228.989	69.8
229.206	61.61
229.424	4.27
229.642	65.71
229.86	43.18
230.077	45.23
230.295	24.75
230.513	135.34
230.731	61.61
230.948	34.99
231.166	116.9
231.384	116.9
231.601	32.94
231.819	92.33
232.037	53.42
232.254	-34.64
232.472	73.9
232.689	39.08
232.907	164.01
233.125	100.52
233.342	90.28
233.56	39.08
233.777	141.48
233.995	43.18
234.213	77.99
234.43	37.03
234.648	112.81
234.865	53.42
235.083	45.23
235.3	100.52
235.518	53.42
235.735	94.38
235.953	90.28
236.17	32.94
236.388	37.03
236.605	18.6
236.822	41.13
237.04	104.62
237.257	61.61
237.475	100.52
237.692	59.56
237.909	6.31
238.127	20.65
238.344	65.71
238.562	18.6
238.779	-5.97
238.996	-71.51
239.214	16.55
239.431	71.85
239.648	59.56
239.865	12.46
240.083	84.14
240.3	45.23
240.517	39.08
240.735	45.23
240.952	153.77
241.169	67.75
241.386	-14.17
241.603	63.66
241.821	92.33
242.038	86.19
242.255	86.19
242.472	-12.12
242.689	18.6
242.907	49.32
243.124	123.05
243.341	41.13
243.558	41.13
243.775	59.56
243.992	18.6
244.209	69.8
244.426	139.43
244.643	55.47
244.86	47.27
245.078	75.95
245.295	59.56
245.512	73.9
245.729	71.85
245.946	43.18
246.163	100.52
246.38	90.28
246.597	28.84
246.814	45.23
247.031	32.94
247.248	69.8
247.464	53.42
247.681	51.37
247.898	69.8
248.115	86.19
248.332	80.04
248.549	10.41
248.766	67.75
248.983	92.33
249.2	-8.02
249.417	51.37
249.633	65.71
249.85	110.76
250.067	45.23
250.284	129.19
250.501	94.38
250.717	45.23
250.934	-3.93
251.151	10.41
251.368	67.75
251.585	174.25
251.801	84.14
252.018	94.38
252.235	151.72
252.451	-63.32
252.668	-1.88
252.885	92.33
253.102	37.03
253.318	41.13
253.535	53.42
253.752	32.94
253.968	98.47
254.185	71.85
254.401	2.22
254.618	133.29
254.835	49.32
255.051	139.43
255.268	71.85
255.484	18.6
255.701	12.46
255.917	32.94
256.134	47.27
256.351	92.33
256.567	28.84
256.784	47.27
257	34.99
257.217	67.75
257.433	71.85
257.65	141.48
257.866	4.27
258.082	61.61
258.299	53.42
258.515	43.18
258.732	41.13
258.948	106.67
259.165	41.13
259.381	51.37
259.597	24.75
259.814	102.57
260.03	69.8
260.246	-12.12
260.463	94.38
260.679	71.85
260.895	28.84
261.112	139.43
261.328	34.99
261.544	45.23
261.761	45.23
261.977	69.8
262.193	34.99
262.409	73.9
262.626	2.22
262.842	88.23
263.058	53.42
263.274	106.67
263.49	-8.02
263.707	121
263.923	57.51
264.139	-16.21
264.355	90.28
264.571	51.37
264.787	49.32
265.004	164.01
265.22	86.19
265.436	39.08
265.652	69.8
265.868	65.71
266.084	8.36
266.3	69.8
266.516	82.09
266.732	131.24
266.948	2.22
267.164	45.23
267.38	166.06
267.596	18.6
267.812	59.56
268.028	82.09
268.244	10.41
268.46	96.43
268.676	8.36
268.892	-16.21
269.108	14.51
269.324	32.94
269.54	-8.02
269.756	86.19
269.972	49.32
270.188	61.61
270.403	16.55
270.619	57.51
270.835	121
271.051	108.71
271.267	24.75
271.483	26.79
271.698	71.85
271.914	96.43
272.13	61.61
272.346	108.71
272.562	20.65
272.777	86.19
272.993	102.57
273.209	32.94
273.425	55.47
273.64	45.23
273.856	65.71
274.072	45.23
274.287	28.84
274.503	55.47
274.719	65.71
274.934	123.05
275.15	49.32
275.366	57.51
275.581	-8.02
275.797	32.94
276.012	69.8
276.228	8.36
276.444	69.8
276.659	45.23
276.875	-44.88
277.09	24.75
277.306	88.23
277.521	102.57
277.737	49.32
277.952	94.38
278.168	41.13
278.383	63.66
278.599	39.08
278.814	135.34
279.03	-26.45
279.245	118.95
279.461	69.8
279.676	28.84
279.892	-3.93
280.107	43.18
280.322	45.23
280.538	147.62
280.753	2.22
280.969	61.61
281.184	65.71
281.399	6.31
281.615	8.36
281.83	-1.88
282.045	34.99
282.26	53.42
282.476	133.29
282.691	6.31
282.906	51.37
283.122	65.71
283.337	41.13
283.552	149.67
283.767	18.6
283.983	61.61
284.198	86.19
284.413	106.67
284.628	106.67
284.843	45.23
285.058	57.51
285.274	88.23
285.489	34.99
285.704	53.42
285.919	88.23
286.134	41.13
286.349	104.62
286.564	57.51
286.779	77.99
286.995	94.38
287.21	30.89
287.425	61.61
287.64	45.23
287.855	14.51
288.07	12.46
288.285	84.14
288.5	143.53
288.715	80.04
288.93	80.04
289.145	6.31
289.36	84.14
289.575	45.23
289.79	53.42
290.004	88.23
290.219	45.23
290.434	20.65
290.649	12.46
290.864	-24.4
291.079	53.42
291.294	37.03
291.509	49.32
291.724	47.27
291.938	80.04
292.153	16.55
292.368	51.37
292.583	94.38
292.798	88.23
293.012	80.04
293.227	118.95
293.442	65.71
293.657	41.13
293.871	102.57
294.086	90.28
294.301	73.9
294.516	73.9
294.73	53.42
294.945	45.23
295.16	102.57
295.374	69.8
295.589	41.13
295.804	90.28
296.018	77.99
296.233	-10.07
296.447	94.38
296.662	41.13
296.877	69.8
297.091	73.9
297.306	49.32
297.52	49.32
297.735	-8.02
297.949	4.27
298.164	75.95
298.378	84.14
298.593	43.18
298.807	127.14
299.022	53.42
299.236	65.71
299.451	34.99
299.665	4.27
299.88	55.47
300.094	135.34
300.309	84.14
300.523	59.56
300.737	55.47
300.952	106.67
301.166	51.37
301.381	28.84
301.595	84.14
301.809	51.37
302.024	61.61
302.238	37.03
302.452	80.04
302.667	41.13
302.881	108.71
303.095	88.23
303.309	61.61
303.524	53.42
303.738	20.65
303.952	20.65
304.166	94.38
304.381	6.31
304.595	137.38
304.809	-36.69
305.023	8.36
305.237	26.79
305.452	45.23
305.666	86.19
305.88	96.43
306.094	12.46
306.308	108.71
306.522	37.03
306.736	86.19
306.95	110.76
307.164	2.22
307.379	106.67
307.593	143.53
307.807	37.03
308.021	63.66
308.235	116.9
308.449	24.75
308.663	75.95
308.877	77.99
309.091	24.75
309.305	77.99
309.519	6.31
309.733	65.71
309.947	12.46
310.161	108.71
310.374	10.41
310.588	135.34
310.802	28.84
311.016	8.36
311.23	61.61
311.444	26.79
311.658	100.52
311.872	-44.88
312.085	123.05
312.299	102.57
312.513	151.72
312.727	80.04
312.941	82.09
313.154	67.75
313.368	63.66
313.582	127.14
313.796	41.13
314.009	51.37
314.223	106.67
314.437	61.61
314.651	110.76
314.864	102.57
315.078	47.27
315.292	47.27
315.505	102.57
315.719	96.43
315.933	61.61
316.146	77.99
316.36	18.6
316.573	55.47
316.787	37.03
317.001	63.66
317.214	77.99
317.428	24.75
317.641	106.67
317.855	51.37
318.068	51.37
318.282	39.08
318.495	84.14
318.709	57.51
318.922	125.1
319.136	90.28
319.349	139.43
319.563	32.94
319.776	30.89
319.99	63.66
320.203	139.43
320.417	100.52
320.63	22.7
320.843	82.09
321.057	102.57
321.27	73.9
321.483	108.71
321.697	73.9
321.91	63.66
322.124	30.89
322.337	77.99
322.55	61.61
322.763	106.67
322.977	123.05
323.19	67.75
323.403	80.04
323.617	100.52
323.83	65.71
324.043	-46.93
324.256	51.37
324.469	6.31
324.683	94.38
324.896	26.79
325.109	20.65
325.322	-8.02
325.535	4.27
325.748	100.52
325.962	55.47
326.175	77.99
326.388	39.08
326.601	161.96
326.814	28.84
327.027	63.66
327.24	157.86
327.453	24.75
327.666	37.03
327.879	137.38
328.092	-20.31
328.305	67.75
328.518	45.23
328.731	80.04
328.944	-3.93
329.157	63.66
329.37	112.81
329.583	90.28
329.796	106.67
330.009	77.99
330.222	137.38
330.435	86.19
330.648	65.71
330.861	43.18
331.073	102.57
331.286	77.99
331.499	153.77
331.712	65.71
331.925	112.81
332.138	110.76
332.35	131.24
332.563	-24.4
332.776	100.52
332.989	-8.02
333.202	75.95
333.414	8.36
333.627	0.17
333.84	77.99
334.053	98.47
334.265	12.46
334.478	63.66
334.691	55.47
334.903	45.23
335.116	45.23
335.329	118.95
335.541	55.47
335.754	108.71
335.966	92.33
336.179	55.47
336.392	53.42
336.604	16.55
336.817	125.1
337.029	65.71
337.242	47.27
337.454	112.81
337.667	88.23
337.88	75.95
338.092	32.94
338.305	94.38
338.517	67.75
338.729	53.42
338.942	135.34
339.154	57.51
339.367	51.37
339.579	82.09
339.792	16.55
340.004	59.56
340.217	127.14
340.429	82.09
340.641	18.6
340.854	18.6
341.066	90.28
341.278	153.77
341.491	71.85
341.703	69.8
341.915	28.84
342.128	65.71
342.34	67.75
342.552	96.43
342.764	168.1
342.977	8.36
343.189	88.23
343.401	131.24
343.613	127.14
343.826	84.14
344.038	63.66
344.25	53.42
344.462	-12.12
344.674	73.9
344.886	82.09
345.099	84.14
345.311	65.71
345.523	41.13
345.735	84.14
345.947	77.99
346.159	61.61
346.371	61.61
346.583	47.27
346.795	96.43
347.007	41.13
347.219	41.13
347.431	94.38
347.643	90.28
347.855	106.67
348.067	86.19
348.279	22.7
348.491	73.9
348.703	49.32
348.915	67.75
349.127	61.61
349.339	61.61
349.551	65.71
349.763	28.84
349.975	61.61
350.187	20.65
350.399	71.85
350.61	114.86
350.822	90.28
351.034	96.43
351.246	43.18
351.458	104.62
351.669	100.52
351.881	73.9
352.093	82.09
352.305	94.38
352.517	51.37
352.728	82.09
352.94	86.19
353.152	100.52
353.363	55.47
353.575	57.51
353.787	69.8
353.999	114.86
354.21	94.38
354.422	110.76
354.633	55.47
354.845	65.71
355.057	37.03
355.268	51.37
355.48	147.62
355.692	-30.55
355.903	61.61
356.115	26.79
356.326	-20.31
356.538	45.23
356.749	86.19
356.961	129.19
357.172	-8.02
357.384	43.18
357.595	180.39
357.807	53.42
358.018	90.28
358.23	121
358.441	133.29
358.653	86.19
358.864	49.32
359.075	123.05
359.287	47.27
359.498	92.33
359.709	57.51
359.921	39.08
360.132	-3.93
360.344	49.32
360.555	6.31
360.766	88.23
360.977	41.13
361.189	106.67
361.4	133.29
361.611	20.65
361.823	61.61
362.034	106.67
362.245	28.84
362.456	57.51
362.667	84.14
362.879	90.28
363.09	110.76
363.301	53.42
363.512	20.65
363.723	73.9
363.935	22.7
364.146	43.18
364.357	22.7
364.568	34.99
364.779	10.41
364.99	22.7
365.201	-36.69
365.412	28.84
365.623	63.66
365.834	94.38
366.045	129.19
366.256	65.71
366.467	77.99
366.678	118.95
366.889	110.76
367.1	61.61
367.311	59.56
367.522	24.75
367.733	104.62
367.944	112.81
368.155	28.84
368.366	71.85
368.577	69.8
368.788	145.58
368.999	127.14
369.209	127.14
369.42	129.19
369.631	102.57
369.842	98.47
370.053	131.24
370.264	84.14
370.474	8.36
370.685	61.61
370.896	90.28
371.107	55.47
371.317	133.29
371.528	69.8
371.739	116.9
371.95	63.66
372.16	135.34
372.371	51.37
372.582	37.03
372.792	131.24
373.003	57.51
373.214	75.95
373.424	127.14
373.635	2.22
373.846	112.81
374.056	37.03
374.267	30.89
374.477	102.57
374.688	114.86
374.898	57.51
375.109	59.56
375.319	125.1
375.53	104.62
375.74	73.9
375.951	49.32
376.161	108.71
376.372	41.13
376.582	24.75
376.793	88.23
377.003	6.31
377.214	65.71
377.424	90.28
377.635	110.76
377.845	100.52
378.055	135.34
378.266	59.56
378.476	71.85
378.686	49.32
378.897	96.43
379.107	71.85
379.317	69.8
379.528	127.14
379.738	90.28
379.948	106.67
380.158	14.51
380.369	37.03
380.579	92.33
380.789	20.65
380.999	69.8
381.21	96.43
381.42	39.08
381.63	90.28
381.84	65.71
382.05	110.76
382.261	145.58
382.471	123.05
382.681	59.56
382.891	69.8
383.101	100.52
383.311	51.37
383.521	172.2
383.731	22.7
383.941	32.94
384.151	61.61
384.361	67.75
384.571	49.32
384.781	186.54
384.991	155.82
385.201	57.51
385.411	141.48
385.621	43.18
385.831	61.61
386.041	61.61
386.251	26.79
386.461	24.75
386.671	84.14
386.881	2.22
387.091	43.18
387.301	149.67
387.511	16.55
387.72	77.99
387.93	37.03
388.14	102.57
388.35	88.23
388.56	114.86
388.769	149.67
388.979	69.8
389.189	90.28
389.399	116.9
389.609	125.1
389.818	71.85
390.028	137.38
390.238	30.89
390.447	88.23
390.657	102.57
390.867	102.57
391.076	45.23
391.286	151.72
391.496	121
391.705	112.81
391.915	131.24
392.125	75.95
392.334	69.8
392.544	73.9
392.753	67.75
392.963	20.65
393.172	121
393.382	86.19
393.591	192.68
393.801	86.19
394.01	129.19
394.22	123.05
394.429	106.67
394.639	143.53
394.848	92.33
395.058	116.9
395.267	34.99
395.477	149.67
395.686	94.38
395.895	127.14
396.105	155.82
396.314	176.3
396.524	71.85
396.733	118.95
396.942	139.43
397.152	94.38
397.361	209.06
397.57	32.94
397.78	151.72
397.989	145.58
398.198	94.38
398.407	112.81
398.617	92.33
398.826	143.53
399.035	82.09
399.244	118.95
399.453	49.32
399.663	164.01
399.872	98.47
400.081	137.38
400.29	147.62
400.499	149.67
400.708	69.8
400.917	143.53
401.127	53.42
401.336	184.49
401.545	170.15
401.754	116.9
401.963	237.74
402.172	139.43
402.381	75.95
402.59	127.14
402.799	123.05
403.008	157.86
403.217	110.76
403.426	225.45
403.635	164.01
403.844	176.3
404.053	71.85
404.262	121
404.471	233.64
404.68	151.72
404.888	88.23
405.097	141.48
405.306	147.62
405.515	141.48
405.724	96.43
405.933	135.34
406.142	159.91
406.35	223.4
406.559	207.02
406.768	157.86
406.977	159.91
407.185	237.74
407.394	221.35
407.603	247.97
407.812	288.93
408.02	282.79
408.229	237.74
408.438	315.56
408.646	176.3
408.855	237.74
409.064	215.21
409.272	282.79
409.481	325.8
409.69	290.98
409.898	272.55
410.107	305.32
410.315	411.81
410.524	329.89
410.733	317.61
410.941	331.94
411.15	344.23
411.358	428.2
411.567	467.11
411.775	399.52
411.984	387.24
412.192	452.77
412.401	409.76
412.609	463.01
412.818	489.64
413.026	497.83
413.234	493.73
413.443	479.4
413.651	555.17
413.86	536.74
414.068	575.65
414.276	630.95
414.485	536.74
414.693	700.58
414.901	637.09
415.11	686.24
415.318	684.19
415.526	733.34
415.734	741.54
415.943	702.62
416.151	788.64
416.359	731.3
416.567	753.82
416.776	802.97
416.984	909.47
417.192	1001.63
417.4	956.57
417.608	852.13
417.817	909.47
418.025	1013.92
418.233	1018.01
418.441	987.29
418.649	999.58
418.857	1165.46
419.065	1165.46
419.273	1214.62
419.481	1175.7
419.689	1300.63
419.897	1403.03
420.105	1360.02
420.313	1392.79
420.521	1538.2
420.729	1564.82
420.937	1593.49
421.145	1710.22
421.353	1650.83
421.561	1765.52
421.769	1835.15
421.977	1826.96
422.185	1839.25
422.393	1933.45
422.601	2101.39
422.809	2025.61
423.017	2023.56
423.224	2150.54
423.432	2250.89
423.64	2224.26
423.848	2474.12
424.056	2367.62
424.263	2541.7
424.471	2513.03
424.679	2637.95
424.887	2754.69
425.094	2738.3
425.302	2904.19
425.51	2990.21
425.718	3033.21
425.925	2955.39
426.133	3319.93
426.341	3364.98
426.548	3367.03
426.756	3526.77
426.964	3598.45
427.171	3678.32
427.379	3801.2
427.586	3864.69
427.794	4083.82
428.001	4135.02
428.209	4333.67
428.417	4368.49
428.624	4585.57
428.832	4663.4
429.039	4644.96
429.247	4608.1
429.454	5062.75
429.662	5267.55
429.869	5001.31
430.076	5240.92
430.284	5163.1
430.491	5679.19
430.699	5771.35
430.906	5722.2
431.114	5812.31
431.321	6033.49
431.528	6068.3
431.736	6748.23
431.943	6692.93
432.15	6705.22
432.358	6791.24
432.565	7086.14
432.772	7008.32
432.979	7288.89
433.187	7481.4
433.394	7546.94
433.601	8130.61
433.808	7966.77
434.016	8030.26
434.223	8306.73
434.43	8884.26
434.637	8804.39
434.844	9326.62
435.052	9472.03
435.259	9281.57
435.466	9562.14
435.673	9392.16
435.88	10070.03
436.087	10491.91
436.294	10522.63
436.501	10301.45
436.708	10475.53
436.915	10833.93
437.122	11114.5
437.329	11315.2
437.537	11374.59
437.743	11851.77
437.95	11769.85
438.157	12224.5
438.364	12761.06
438.571	12668.91
438.778	12836.84
438.985	14053.33
439.192	13524.96
439.399	13725.66
439.606	13545.44
439.813	14284.75
440.02	15318.98
440.227	15040.45
440.433	14804.94
440.64	15136.71
440.847	15083.46
441.054	15433.66
441.261	16418.74
441.467	16138.16
441.674	16576.43
441.881	17168.29
442.088	16996.26
442.294	16828.33
442.501	17809.31
442.708	17536.93
442.914	18415.51
443.121	19109.77
443.328	18605.97
443.534	19857.28
443.741	19414.91
443.948	19328.9
444.154	20748.14
444.361	20596.59
444.568	20580.21
444.774	20565.87
444.981	20746.09
445.187	21428.07
445.394	22718.29
445.6	22056.79
445.807	24434.49
446.013	23258.95
446.22	23729.98
446.426	24037.18
446.633	24839.98
446.839	25229.1
447.046	24364.85
447.252	25556.77
447.459	25794.34
447.665	25366.31
447.871	27119.37
448.078	27907.84
448.284	26545.94
448.491	27137.8
448.697	28387.07
448.903	28370.68
449.11	28743.41
449.316	28206.84
449.522	28514.04
449.728	29542.12
449.935	29734.63
450.141	29533.93
450.347	30340.83
450.553	29044.46
450.76	29843.17
450.966	30250.72
451.172	30394.07
451.378	30922.45
451.584	30056.16
451.791	30914.26
451.997	30918.35
452.203	31387.34
452.409	31348.43
452.615	31598.28
452.821	30045.92
453.027	29859.56
453.233	31299.28
453.44	30086.88
453.646	30580.44
453.852	30521.05
454.058	30848.72
454.264	29845.22
454.47	30312.16
454.676	29714.15
454.882	30488.28
455.088	28223.23
455.294	28290.81
455.5	29126.38
455.705	29089.52
455.911	27795.2
456.117	27645.7
456.323	26789.65
456.529	25782.05
456.735	26277.66
456.941	25982.75
457.147	25626.4
457.352	24706.87
457.558	24459.06
457.764	24491.83
457.97	23854.91
458.176	23236.42
458.381	23586.63
458.587	22415.19
458.793	22134.62
458.999	20969.32
459.204	22695.76
459.41	21909.34
459.616	20756.33
459.821	20678.51
460.027	20467.57
460.233	19992.44
460.438	19146.63
460.644	19296.13
460.85	18196.37
461.055	18173.85
461.261	18157.46
461.466	17020.84
461.672	16476.08
461.878	17368.99
462.083	16242.61
462.289	16326.58
462.494	15742.91
462.7	15486.91
462.905	14893
463.111	15558.59
463.316	15470.53
463.522	14917.58
463.727	14880.71
463.932	14983.11
464.138	14729.16
464.343	14847.94
464.549	14415.82
464.754	14897.1
464.959	14860.23
465.165	14823.37
465.37	14211.03
465.575	13553.63
465.781	14348.24
465.986	14237.65
466.191	13643.74
466.397	13672.41
466.602	13029.35
466.807	13410.27
