Data from USB4F104151__205__10-29-36-875.txt Node

Date: Wed Mar 12 10:29:36 EDT 2025
User: louis
Spectrometer: USB4F10415
Trigger mode: 4
Integration Time (sec): 3.000000E-2
Scans to average: 1
Electric dark correction enabled: true
Nonlinearity correction enabled: false
Boxcar width: 0
XAxis mode: Wavelengths
Number of Pixels in Spectrum: 3648
>>>>>Begin Spectral Data<<<<<
178.204	-104.79
178.424	-104.79
178.644	-104.79
178.864	-72.02
179.084	13.99
179.304	-8.53
179.524	9.9
179.744	-14.68
179.964	40.62
180.184	20.14
180.404	-14.68
180.624	20.14
180.844	40.62
181.064	-47.44
181.283	-16.73
181.503	-43.35
181.723	13.99
181.943	-20.82
182.163	190.12
182.383	89.77
182.602	36.52
182.822	36.52
183.042	132.78
183.262	-2.39
183.482	48.81
183.701	24.23
183.921	126.63
184.141	67.24
184.361	52.91
184.58	57
184.8	91.82
185.02	-41.3
185.239	40.62
185.459	67.24
185.679	87.72
185.898	32.43
186.118	13.99
186.338	50.86
186.557	30.38
186.777	79.53
186.997	63.15
187.216	108.2
187.436	87.72
187.655	59.05
187.875	145.06
188.095	77.48
188.314	57
188.534	149.16
188.753	54.95
188.973	67.24
189.192	54.95
189.412	32.43
189.631	71.34
189.851	34.47
190.07	75.43
190.29	71.34
190.509	22.19
190.729	57
190.948	122.54
191.168	155.3
191.387	85.67
191.607	75.43
191.826	26.28
192.045	61.1
192.265	63.15
192.484	40.62
192.704	-2.39
192.923	1.71
193.142	108.2
193.362	65.19
193.581	108.2
193.8	59.05
194.02	153.26
194.239	40.62
194.458	-26.96
194.678	-35.16
194.897	87.72
195.116	30.38
195.335	102.06
195.555	87.72
195.774	140.97
195.993	26.28
196.212	-2.39
196.432	54.95
196.651	40.62
196.87	57
197.089	100.01
197.308	77.48
197.528	-14.68
197.747	18.09
197.966	67.24
198.185	65.19
198.404	24.23
198.623	110.25
198.842	75.43
199.062	36.52
199.281	22.19
199.5	42.67
199.719	38.57
199.938	5.8
200.157	71.34
200.376	54.95
200.595	48.81
200.814	30.38
201.033	57
201.252	24.23
201.471	57
201.69	50.86
201.909	26.28
202.128	89.77
202.347	81.58
202.566	89.77
202.785	48.81
203.004	52.91
203.223	75.43
203.442	108.2
203.661	-16.73
203.879	75.43
204.098	40.62
204.317	-10.58
204.536	61.1
204.755	24.23
204.974	81.58
205.193	54.95
205.411	153.26
205.63	120.49
205.849	61.1
206.068	20.14
206.287	9.9
206.505	75.43
206.724	-16.73
206.943	34.47
207.162	3.75
207.381	67.24
207.599	30.38
207.818	22.19
208.037	106.15
208.255	44.71
208.474	5.8
208.693	134.82
208.911	22.19
209.13	36.52
209.349	42.67
209.567	44.71
209.786	34.47
210.005	87.72
210.223	-8.53
210.442	67.24
210.661	132.78
210.879	73.39
211.098	61.1
211.316	13.99
211.535	81.58
211.753	79.53
211.972	75.43
212.191	26.28
212.409	83.63
212.628	3.75
212.846	71.34
213.065	71.34
213.283	67.24
213.502	20.14
213.72	95.91
213.938	104.11
214.157	65.19
214.375	38.57
214.594	59.05
214.812	40.62
215.031	42.67
215.249	48.81
215.467	13.99
215.686	95.91
215.904	97.96
216.122	87.72
216.341	87.72
216.559	18.09
216.778	81.58
216.996	-18.77
217.214	22.19
217.432	3.75
217.651	46.76
217.869	112.3
218.087	57
218.306	73.39
218.524	63.15
218.742	38.57
218.96	81.58
219.179	34.47
219.397	42.67
219.615	112.3
219.833	46.76
220.051	38.57
220.27	59.05
220.488	122.54
220.706	59.05
220.924	65.19
221.142	-22.87
221.36	1.71
221.578	42.67
221.796	91.82
222.015	110.25
222.233	9.9
222.451	102.06
222.669	69.29
222.887	122.54
223.105	40.62
223.323	50.86
223.541	59.05
223.759	11.95
223.977	50.86
224.195	40.62
224.413	1.71
224.631	128.68
224.849	112.3
225.067	65.19
225.285	-39.25
225.503	79.53
225.721	46.76
225.939	89.77
226.157	108.2
226.375	104.11
226.592	-12.63
226.81	59.05
227.028	11.95
227.246	161.45
227.464	57
227.682	20.14
227.9	65.19
228.117	42.67
228.335	73.39
228.553	77.48
228.771	65.19
228.989	83.63
229.206	18.09
229.424	16.04
229.642	89.77
229.86	-10.58
230.077	122.54
230.295	52.91
230.513	91.82
230.731	91.82
230.948	108.2
231.166	73.39
231.384	46.76
231.601	69.29
231.819	116.39
232.037	46.76
232.254	-2.39
232.472	73.39
232.689	42.67
232.907	112.3
233.125	34.47
233.342	32.43
233.56	46.76
233.777	63.15
233.995	42.67
234.213	110.25
234.43	69.29
234.648	100.01
234.865	1.71
235.083	91.82
235.3	16.04
235.518	77.48
235.735	93.87
235.953	124.58
236.17	91.82
236.388	32.43
236.605	75.43
236.822	38.57
237.04	61.1
237.257	77.48
237.475	44.71
237.692	42.67
237.909	26.28
238.127	20.14
238.344	16.04
238.562	34.47
238.779	44.71
238.996	32.43
239.214	97.96
239.431	42.67
239.648	24.23
239.865	67.24
240.083	136.87
240.3	28.33
240.517	48.81
240.735	63.15
240.952	138.92
241.169	61.1
241.386	71.34
241.603	-2.39
241.821	59.05
242.038	73.39
242.255	73.39
242.472	114.34
242.689	59.05
242.907	95.91
243.124	-8.53
243.341	130.73
243.558	1.71
243.775	71.34
243.992	36.52
244.209	38.57
244.426	118.44
244.643	114.34
244.86	11.95
245.078	153.26
245.295	46.76
245.512	63.15
245.729	48.81
245.946	85.67
246.163	42.67
246.38	114.34
246.597	79.53
246.814	85.67
247.031	61.1
247.248	22.19
247.464	52.91
247.681	93.87
247.898	85.67
248.115	34.47
248.332	-10.58
248.549	110.25
248.766	159.4
248.983	108.2
249.2	-63.83
249.417	126.63
249.633	54.95
249.85	83.63
250.067	-39.25
250.284	69.29
250.501	59.05
250.717	59.05
250.934	-26.96
251.151	-31.06
251.368	95.91
251.585	52.91
251.801	16.04
252.018	-4.44
252.235	13.99
252.451	-31.06
252.668	-12.63
252.885	102.06
253.102	38.57
253.318	65.19
253.535	54.95
253.752	106.15
253.968	18.09
254.185	7.85
254.401	77.48
254.618	46.76
254.835	46.76
255.051	124.58
255.268	11.95
255.484	132.78
255.701	-2.39
255.917	81.58
256.134	57
256.351	97.96
256.567	77.48
256.784	87.72
257	57
257.217	42.67
257.433	149.16
257.65	95.91
257.866	50.86
258.082	-2.39
258.299	-2.39
258.515	26.28
258.732	75.43
258.948	73.39
259.165	108.2
259.381	-2.39
259.597	34.47
259.814	-6.49
260.03	73.39
260.246	136.87
260.463	34.47
260.679	65.19
260.895	24.23
261.112	122.54
261.328	67.24
261.544	91.82
261.761	165.54
261.977	104.11
262.193	1.71
262.409	95.91
262.626	83.63
262.842	50.86
263.058	-6.49
263.274	83.63
263.49	95.91
263.707	97.96
263.923	71.34
264.139	52.91
264.355	48.81
264.571	95.91
264.787	153.26
265.004	100.01
265.22	85.67
265.436	59.05
265.652	24.23
265.868	77.48
266.084	50.86
266.3	79.53
266.516	46.76
266.732	-0.34
266.948	77.48
267.164	40.62
267.38	18.09
267.596	73.39
267.812	91.82
268.028	81.58
268.244	65.19
268.46	71.34
268.676	89.77
268.892	89.77
269.108	75.43
269.324	5.8
269.54	50.86
269.756	-18.77
269.972	46.76
270.188	26.28
270.403	65.19
270.619	57
270.835	42.67
271.051	57
271.267	28.33
271.483	34.47
271.698	59.05
271.914	30.38
272.13	30.38
272.346	3.75
272.562	79.53
272.777	75.43
272.993	22.19
273.209	52.91
273.425	83.63
273.64	24.23
273.856	91.82
274.072	48.81
274.287	46.76
274.503	120.49
274.719	69.29
274.934	73.39
275.15	48.81
275.366	1.71
275.581	1.71
275.797	95.91
276.012	20.14
276.228	18.09
276.444	71.34
276.659	73.39
276.875	77.48
277.09	61.1
277.306	67.24
277.521	73.39
277.737	89.77
277.952	100.01
278.168	20.14
278.383	81.58
278.599	42.67
278.814	122.54
279.03	71.34
279.245	132.78
279.461	87.72
279.676	136.87
279.892	46.76
280.107	-16.73
280.322	1.71
280.538	22.19
280.753	77.48
280.969	24.23
281.184	54.95
281.399	112.3
281.615	114.34
281.83	91.82
282.045	63.15
282.26	28.33
282.476	97.96
282.691	93.87
282.906	110.25
283.122	69.29
283.337	124.58
283.552	52.91
283.767	73.39
283.983	20.14
284.198	-6.49
284.413	85.67
284.628	73.39
284.843	36.52
285.058	38.57
285.274	20.14
285.489	46.76
285.704	155.3
285.919	50.86
286.134	77.48
286.349	159.4
286.564	61.1
286.779	116.39
286.995	108.2
287.21	46.76
287.425	128.68
287.64	65.19
287.855	147.11
288.07	-33.11
288.285	83.63
288.5	124.58
288.715	108.2
288.93	46.76
289.145	65.19
289.36	118.44
289.575	59.05
289.79	50.86
290.004	65.19
290.219	100.01
290.434	-8.53
290.649	81.58
290.864	108.2
291.079	75.43
291.294	40.62
291.509	24.23
291.724	5.8
291.938	110.25
292.153	87.72
292.368	89.77
292.583	22.19
292.798	48.81
293.012	102.06
293.227	50.86
293.442	40.62
293.657	30.38
293.871	153.26
294.086	116.39
294.301	11.95
294.516	83.63
294.73	77.48
294.945	28.33
295.16	26.28
295.374	89.77
295.589	38.57
295.804	97.96
296.018	54.95
296.233	24.23
296.447	138.92
296.662	20.14
296.877	108.2
297.091	77.48
297.306	95.91
297.52	89.77
297.735	95.91
297.949	134.82
298.164	104.11
298.378	7.85
298.593	38.57
298.807	79.53
299.022	73.39
299.236	120.49
299.451	9.9
299.665	112.3
299.88	65.19
300.094	46.76
300.309	-6.49
300.523	77.48
300.737	54.95
300.952	-10.58
301.166	38.57
301.381	7.85
301.595	-14.68
301.809	1.71
302.024	-35.16
302.238	140.97
302.452	87.72
302.667	85.67
302.881	54.95
303.095	26.28
303.309	106.15
303.524	30.38
303.738	26.28
303.952	63.15
304.166	28.33
304.381	22.19
304.595	89.77
304.809	59.05
305.023	54.95
305.237	13.99
305.452	79.53
305.666	-8.53
305.88	116.39
306.094	91.82
306.308	22.19
306.522	102.06
306.736	91.82
306.95	46.76
307.164	69.29
307.379	-29.01
307.593	106.15
307.807	110.25
308.021	79.53
308.235	120.49
308.449	34.47
308.663	97.96
308.877	134.82
309.091	108.2
309.305	112.3
309.519	32.43
309.733	124.58
309.947	24.23
310.161	97.96
310.374	79.53
310.588	126.63
310.802	50.86
311.016	81.58
311.23	34.47
311.444	40.62
311.658	54.95
311.872	95.91
312.085	18.09
312.299	122.54
312.513	124.58
312.727	57
312.941	38.57
313.154	57
313.368	102.06
313.582	130.73
313.796	106.15
314.009	100.01
314.223	85.67
314.437	42.67
314.651	46.76
314.864	-41.3
315.078	63.15
315.292	91.82
315.505	83.63
315.719	46.76
315.933	52.91
316.146	75.43
316.36	69.29
316.573	65.19
316.787	71.34
317.001	73.39
317.214	83.63
317.428	91.82
317.641	73.39
317.855	100.01
318.068	42.67
318.282	102.06
318.495	104.11
318.709	83.63
318.922	59.05
319.136	79.53
319.349	91.82
319.563	118.44
319.776	79.53
319.99	11.95
320.203	77.48
320.417	40.62
320.63	100.01
320.843	44.71
321.057	95.91
321.27	36.52
321.483	116.39
321.697	112.3
321.91	71.34
322.124	40.62
322.337	7.85
322.55	61.1
322.763	52.91
322.977	40.62
323.19	108.2
323.403	87.72
323.617	91.82
323.83	67.24
324.043	73.39
324.256	54.95
324.469	-8.53
324.683	138.92
324.896	83.63
325.109	-4.44
325.322	1.71
325.535	97.96
325.748	36.52
325.962	11.95
326.175	61.1
326.388	77.48
326.601	61.1
326.814	34.47
327.027	61.1
327.24	126.63
327.453	116.39
327.666	126.63
327.879	24.23
328.092	69.29
328.305	40.62
328.518	104.11
328.731	54.95
328.944	104.11
329.157	95.91
329.37	95.91
329.583	124.58
329.796	130.73
330.009	67.24
330.222	95.91
330.435	50.86
330.648	65.19
330.861	18.09
331.073	122.54
331.286	100.01
331.499	50.86
331.712	89.77
331.925	48.81
332.138	77.48
332.35	79.53
332.563	87.72
332.776	122.54
332.989	75.43
333.202	75.43
333.414	91.82
333.627	77.48
333.84	63.15
334.053	87.72
334.265	44.71
334.478	93.87
334.691	40.62
334.903	128.68
335.116	40.62
335.329	79.53
335.541	48.81
335.754	145.06
335.966	18.09
336.179	24.23
336.392	112.3
336.604	46.76
336.817	63.15
337.029	46.76
337.242	34.47
337.454	50.86
337.667	83.63
337.88	132.78
338.092	28.33
338.305	120.49
338.517	26.28
338.729	83.63
338.942	108.2
339.154	20.14
339.367	24.23
339.579	50.86
339.792	73.39
340.004	95.91
340.217	102.06
340.429	118.44
340.641	59.05
340.854	24.23
341.066	40.62
341.278	128.68
341.491	97.96
341.703	108.2
341.915	114.34
342.128	112.3
342.34	87.72
342.552	59.05
342.764	81.58
342.977	22.19
343.189	81.58
343.401	91.82
343.613	24.23
343.826	50.86
344.038	38.57
344.25	118.44
344.462	132.78
344.674	81.58
344.886	116.39
345.099	54.95
345.311	59.05
345.523	50.86
345.735	9.9
345.947	71.34
346.159	83.63
346.371	87.72
346.583	52.91
346.795	128.68
347.007	22.19
347.219	157.35
347.431	26.28
347.643	93.87
347.855	87.72
348.067	145.06
348.279	61.1
348.491	97.96
348.703	112.3
348.915	91.82
349.127	57
349.339	95.91
349.551	1.71
349.763	122.54
349.975	46.76
350.187	128.68
350.399	110.25
350.61	120.49
350.822	83.63
351.034	-4.44
351.246	81.58
351.458	87.72
351.669	147.11
351.881	50.86
352.093	91.82
352.305	143.02
352.517	5.8
352.728	118.44
352.94	140.97
353.152	104.11
353.363	106.15
353.575	48.81
353.787	108.2
353.999	134.82
354.21	91.82
354.422	18.09
354.633	73.39
354.845	38.57
355.057	106.15
355.268	95.91
355.48	34.47
355.692	11.95
355.903	40.62
356.115	63.15
356.326	79.53
356.538	38.57
356.749	30.38
356.961	83.63
357.172	63.15
357.384	36.52
357.595	128.68
357.807	95.91
358.018	79.53
358.23	67.24
358.441	173.74
358.653	61.1
358.864	71.34
359.075	89.77
359.287	85.67
359.498	61.1
359.709	108.2
359.921	69.29
360.132	48.81
360.344	59.05
360.555	18.09
360.766	124.58
360.977	91.82
361.189	77.48
361.4	34.47
361.611	126.63
361.823	128.68
362.034	32.43
362.245	-22.87
362.456	91.82
362.667	132.78
362.879	87.72
363.09	104.11
363.301	100.01
363.512	63.15
363.723	50.86
363.935	73.39
364.146	77.48
364.357	30.38
364.568	104.11
364.779	48.81
364.99	116.39
365.201	-16.73
365.412	95.91
365.623	54.95
365.834	106.15
366.045	116.39
366.256	175.78
366.467	120.49
366.678	77.48
366.889	50.86
367.1	104.11
367.311	108.2
367.522	71.34
367.733	106.15
367.944	69.29
368.155	143.02
368.366	124.58
368.577	161.45
368.788	48.81
368.999	89.77
369.209	93.87
369.42	179.88
369.631	104.11
369.842	38.57
370.053	54.95
370.264	196.26
370.474	24.23
370.685	120.49
370.896	124.58
371.107	149.16
371.317	128.68
371.528	57
371.739	102.06
371.95	97.96
372.16	112.3
372.371	9.9
372.582	67.24
372.792	120.49
373.003	91.82
373.214	118.44
373.424	157.35
373.635	138.92
373.846	112.3
374.056	128.68
374.267	87.72
374.477	79.53
374.688	77.48
374.898	75.43
375.109	83.63
375.319	161.45
375.53	147.11
375.74	106.15
375.951	22.19
376.161	16.04
376.372	13.99
376.582	18.09
376.793	48.81
377.003	40.62
377.214	97.96
377.424	108.2
377.635	77.48
377.845	122.54
378.055	108.2
378.266	34.47
378.476	106.15
378.686	114.34
378.897	24.23
379.107	100.01
379.317	13.99
379.528	34.47
379.738	126.63
379.948	67.24
380.158	106.15
380.369	95.91
380.579	130.73
380.789	120.49
380.999	116.39
381.21	97.96
381.42	77.48
381.63	65.19
381.84	108.2
382.05	157.35
382.261	77.48
382.471	97.96
382.681	34.47
382.891	120.49
383.101	147.11
383.311	83.63
383.521	97.96
383.731	108.2
383.941	145.06
384.151	177.83
384.361	69.29
384.571	81.58
384.781	114.34
384.991	104.11
385.201	118.44
385.411	136.87
385.621	134.82
385.831	77.48
386.041	18.09
386.251	102.06
386.461	48.81
386.671	116.39
386.881	165.54
387.091	106.15
387.301	108.2
387.511	104.11
387.72	118.44
387.93	89.77
388.14	3.75
388.35	130.73
388.56	120.49
388.769	186.02
388.979	110.25
389.189	108.2
389.399	81.58
389.609	42.67
389.818	126.63
390.028	157.35
390.238	118.44
390.447	136.87
390.657	97.96
390.867	61.1
391.076	13.99
391.286	91.82
391.496	-0.34
391.705	102.06
391.915	79.53
392.125	106.15
392.334	116.39
392.544	161.45
392.753	89.77
392.963	122.54
393.172	75.43
393.382	118.44
393.591	165.54
393.801	159.4
394.01	204.46
394.22	171.69
394.429	59.05
394.639	118.44
394.848	192.17
395.058	130.73
395.267	54.95
395.477	106.15
395.686	100.01
395.895	167.59
396.105	188.07
396.314	54.95
396.524	138.92
396.733	167.59
396.942	192.17
397.152	120.49
397.361	179.88
397.57	145.06
397.78	145.06
397.989	157.35
398.198	222.89
398.407	155.3
398.617	114.34
398.826	102.06
399.035	192.17
399.244	149.16
399.453	106.15
399.663	136.87
399.872	200.36
400.081	132.78
400.29	169.64
400.499	145.06
400.708	149.16
400.917	108.2
401.127	159.4
401.336	173.74
401.545	159.4
401.754	175.78
401.963	210.6
402.172	171.69
402.381	145.06
402.59	171.69
402.799	153.26
403.008	183.98
403.217	214.7
403.426	190.12
403.635	161.45
403.844	229.03
404.053	218.79
404.262	210.6
404.471	210.6
404.68	247.46
404.888	190.12
405.097	206.5
405.306	239.27
405.515	198.31
405.724	231.08
405.933	276.13
406.142	224.94
406.35	280.23
406.559	358.05
406.768	321.19
406.977	249.51
407.185	298.66
407.394	333.48
407.603	321.19
407.812	364.2
408.02	362.15
408.229	286.37
408.438	337.57
408.646	345.77
408.855	390.82
409.064	302.76
409.272	304.81
409.481	460.45
409.69	386.72
409.898	347.81
410.107	419.49
410.315	351.91
410.524	411.3
410.733	431.78
410.941	460.45
411.15	560.8
411.358	513.7
411.567	491.17
411.775	560.8
411.984	540.32
412.192	589.47
412.401	609.95
412.609	628.39
412.818	689.82
413.026	648.86
413.234	763.55
413.443	712.35
413.651	745.12
413.86	724.64
414.068	736.93
414.276	804.51
414.485	745.12
414.693	804.51
414.901	829.09
415.11	851.61
415.318	880.29
415.526	908.96
415.734	1001.12
415.943	1009.31
416.151	1089.18
416.359	972.44
416.567	1119.9
416.776	1070.75
416.984	1334.93
417.192	1324.69
417.4	1246.87
417.608	1296.02
417.817	1408.66
418.025	1371.8
418.233	1533.59
418.441	1414.81
418.649	1511.06
418.857	1611.41
419.065	1631.89
419.273	1611.41
419.481	1711.76
419.689	1826.45
419.897	1865.36
420.105	1908.37
420.313	1978
420.521	2078.35
420.729	2080.39
420.937	2223.75
421.145	2139.79
421.353	2344.58
421.561	2434.69
421.769	2543.24
421.977	2668.16
422.185	2623.11
422.393	2729.6
422.601	2834.05
422.809	2885.25
423.017	2875.01
423.224	2971.26
423.432	3169.91
423.64	3112.57
423.848	3384.95
424.056	3438.2
424.263	3526.26
424.471	3618.42
424.679	3626.61
424.887	3774.07
425.094	4081.26
425.302	3974.77
425.51	4138.6
425.718	4376.17
425.925	4230.76
426.133	4636.26
426.341	4757.09
426.548	4996.7
426.756	4884.06
426.964	5017.18
427.171	5389.91
427.379	5525.08
427.586	5463.64
427.794	5600.85
428.001	6032.97
428.209	6159.95
428.417	6141.52
428.624	6501.96
428.832	6567.49
429.039	6489.67
429.247	6542.92
429.454	6944.32
429.662	7665.21
429.869	7104.06
430.076	7616.05
430.284	7411.26
430.491	7740.98
430.699	8091.18
430.906	8134.19
431.114	8201.77
431.321	8693.29
431.528	8648.23
431.736	9258.53
431.943	9606.68
432.15	9580.06
432.358	9578.01
432.565	10010.13
432.772	9987.6
432.979	10597.9
433.187	10874.37
433.394	10542.6
433.601	11548.15
433.808	11613.69
434.016	11513.34
434.223	12191.22
434.43	12748.26
434.637	12428.78
434.844	13034.98
435.052	13524.44
435.259	13313.5
435.466	13514.2
435.673	13567.45
435.88	14534.09
436.087	14882.25
436.294	14960.07
436.501	14435.79
436.708	15166.92
436.915	15459.77
437.122	16088.5
437.329	16016.82
437.537	16647.6
437.743	16694.7
437.95	16655.79
438.157	17515.94
438.364	18017.69
438.571	18290.07
438.778	18171.29
438.985	19817.85
439.192	19164.55
439.399	19543.42
439.606	19432.83
439.813	20301.17
440.02	21656.93
440.227	21374.31
440.433	21233
440.64	21701.98
440.847	21661.02
441.054	22205.78
441.261	23682.37
441.467	23465.28
441.674	23919.93
441.881	24419.64
442.088	24481.08
442.294	23958.85
442.501	25070.89
442.708	25345.32
442.914	26524.95
443.121	27567.37
443.328	26817.81
443.534	28560.63
443.741	27710.72
443.948	27456.78
444.154	29422.83
444.361	29093.1
444.568	29443.31
444.774	29385.96
444.981	29979.87
445.187	30790.87
445.394	31876.29
445.6	31485.13
445.807	34485.4
446.013	32783.54
446.22	33770.66
446.426	35042.45
446.633	35009.68
446.839	35968.13
447.046	34696.35
447.252	36598.91
447.459	36484.22
447.665	36766.84
447.871	38079.59
448.078	39496.78
448.284	37999.72
448.491	38792.28
448.697	40238.15
448.903	41245.75
449.11	40676.41
449.316	40465.47
449.522	40420.42
449.728	41724.97
449.935	42433.57
450.141	42492.96
450.347	43422.74
450.553	41741.36
450.76	42478.63
450.966	43482.13
451.172	43641.87
451.378	44028.94
451.584	43371.54
451.791	44401.67
451.997	44231.69
452.203	45054.97
452.409	44477.44
452.615	44794.88
452.821	42671.14
453.027	42193.96
453.233	44628.99
453.44	42683.42
453.646	42939.42
453.852	43545.62
454.058	43914.25
454.264	42304.55
454.47	43688.98
454.676	42437.67
454.882	44047.37
455.088	40260.68
455.294	40907.83
455.5	41233.46
455.705	41749.55
455.911	40295.49
456.117	39165.01
456.323	38550.62
456.529	36566.14
456.735	38036.58
456.941	37051.51
457.147	36519.04
457.352	35505.29
457.558	35064.98
457.764	35116.18
457.97	34405.53
458.176	33914.02
458.381	33881.25
458.587	31970.5
458.793	31888.58
458.999	30278.88
459.204	32713.91
459.41	31605.96
459.616	30112.99
459.821	29842.66
460.027	29588.71
460.233	29062.38
460.438	27643.14
460.644	28022.02
460.85	26443.03
461.055	26320.15
461.261	26295.58
461.466	23975.23
461.672	23377.22
461.878	25021.74
462.083	23512.39
462.289	23311.69
462.494	22519.12
462.7	22175.06
462.905	21423.46
463.111	21788
463.316	22199.64
463.522	21775.71
463.727	21517.67
463.932	21677.41
464.138	21380.45
464.343	21630.3
464.549	20792.69
464.754	21734.75
464.959	21499.23
465.165	21474.66
465.37	20243.83
465.575	20004.22
465.781	20714.86
