Data from USB4F104151__196__10-29-28-506.txt Node

Date: Wed Mar 12 10:29:28 EDT 2025
User: louis
Spectrometer: USB4F10415
Trigger mode: 4
Integration Time (sec): 3.000000E-2
Scans to average: 1
Electric dark correction enabled: true
Nonlinearity correction enabled: false
Boxcar width: 0
XAxis mode: Wavelengths
Number of Pixels in Spectrum: 3648
>>>>>Begin Spectral Data<<<<<
178.204	-142.68
178.424	-142.68
178.644	-142.68
178.864	-60.76
179.084	-181.59
179.304	-9.56
179.524	-77.14
179.744	2.73
179.964	2.73
180.184	17.07
180.404	41.64
180.624	15.02
180.844	43.69
181.064	10.92
181.283	-1.37
181.503	-1.37
181.723	-44.37
181.943	-52.56
182.163	29.35
182.383	-13.65
182.602	96.94
182.822	66.22
183.042	86.7
183.262	17.07
183.482	88.75
183.701	15.02
183.921	76.46
184.141	41.64
184.361	31.4
184.58	72.36
184.8	117.42
185.02	33.45
185.239	70.31
185.459	-9.56
185.679	123.56
185.898	-83.28
186.118	31.4
186.338	78.51
186.557	-17.75
186.777	58.03
186.997	47.79
187.216	-13.65
187.436	88.75
187.655	103.08
187.875	123.56
188.095	78.51
188.314	133.8
188.534	84.65
188.753	39.59
188.973	51.88
189.192	66.22
189.412	45.74
189.631	68.27
189.851	66.22
190.07	31.4
190.29	10.92
190.509	25.26
190.729	58.03
190.948	109.22
191.168	92.84
191.387	51.88
191.607	27.31
191.826	121.51
192.045	41.64
192.265	55.98
192.484	45.74
192.704	45.74
192.923	25.26
193.142	185
193.362	68.27
193.581	98.99
193.8	4.78
194.02	86.7
194.239	-32.08
194.458	27.31
194.678	27.31
194.897	-50.52
195.116	6.83
195.335	37.55
195.555	8.87
195.774	33.45
195.993	43.69
196.212	60.07
196.432	43.69
196.651	31.4
196.87	2.73
197.089	70.31
197.308	-9.56
197.528	43.69
197.747	-3.41
197.966	60.07
198.185	58.03
198.404	0.68
198.623	2.73
198.842	60.07
199.062	31.4
199.281	68.27
199.5	39.59
199.719	47.79
199.938	74.41
200.157	101.03
200.376	60.07
200.595	96.94
200.814	37.55
201.033	-17.75
201.252	60.07
201.471	68.27
201.69	58.03
201.909	84.65
202.128	10.92
202.347	41.64
202.566	2.73
202.785	29.35
203.004	74.41
203.223	80.55
203.442	72.36
203.661	62.12
203.879	-13.65
204.098	70.31
204.317	47.79
204.536	47.79
204.755	68.27
204.974	78.51
205.193	84.65
205.411	88.75
205.63	0.68
205.849	2.73
206.068	70.31
206.287	66.22
206.505	58.03
206.724	-13.65
206.943	76.46
207.162	76.46
207.381	51.88
207.599	31.4
207.818	33.45
208.037	47.79
208.255	101.03
208.474	-5.46
208.693	113.32
208.911	123.56
209.13	64.17
209.349	74.41
209.567	45.74
209.786	139.94
210.005	68.27
210.223	111.27
210.442	-21.85
210.661	-5.46
210.879	41.64
211.098	25.26
211.316	84.65
211.535	-21.85
211.753	68.27
211.972	70.31
212.191	60.07
212.409	25.26
212.628	-7.51
212.846	51.88
213.065	68.27
213.283	103.08
213.502	12.97
213.72	21.16
213.938	-7.51
214.157	0.68
214.375	-9.56
214.594	19.11
214.812	15.02
215.031	25.26
215.249	39.59
215.467	98.99
215.686	66.22
215.904	25.26
216.122	109.22
216.341	96.94
216.559	15.02
216.778	80.55
216.996	51.88
217.214	51.88
217.432	35.5
217.651	0.68
217.869	8.87
218.087	29.35
218.306	8.87
218.524	17.07
218.742	-13.65
218.96	8.87
219.179	0.68
219.397	68.27
219.615	49.83
219.833	119.46
220.051	-23.89
220.27	-19.8
220.488	68.27
220.706	80.55
220.924	80.55
221.142	90.79
221.36	19.11
221.578	60.07
221.796	66.22
222.015	-7.51
222.233	41.64
222.451	98.99
222.669	6.83
222.887	96.94
223.105	78.51
223.323	60.07
223.541	23.21
223.759	25.26
223.977	37.55
224.195	131.75
224.413	10.92
224.631	33.45
224.849	66.22
225.067	113.32
225.285	98.99
225.503	60.07
225.721	62.12
225.939	-27.99
226.157	17.07
226.375	146.09
226.592	43.69
226.81	88.75
227.028	92.84
227.246	101.03
227.464	64.17
227.682	96.94
227.9	55.98
228.117	74.41
228.335	43.69
228.553	-42.32
228.771	47.79
228.989	55.98
229.206	60.07
229.424	94.89
229.642	31.4
229.86	17.07
230.077	-15.7
230.295	80.55
230.513	-9.56
230.731	58.03
230.948	62.12
231.166	6.83
231.384	-9.56
231.601	8.87
231.819	92.84
232.037	12.97
232.254	12.97
232.472	27.31
232.689	6.83
232.907	84.65
233.125	51.88
233.342	-25.94
233.56	64.17
233.777	-17.75
233.995	62.12
234.213	76.46
234.43	17.07
234.648	82.6
234.865	6.83
235.083	10.92
235.3	15.02
235.518	10.92
235.735	125.61
235.953	47.79
236.17	-17.75
236.388	35.5
236.605	25.26
236.822	115.37
237.04	86.7
237.257	39.59
237.475	-62.8
237.692	8.87
237.909	131.75
238.127	137.9
238.344	49.83
238.562	60.07
238.779	-7.51
238.996	-3.41
239.214	55.98
239.431	35.5
239.648	43.69
239.865	113.32
240.083	23.21
240.3	29.35
240.517	74.41
240.735	66.22
240.952	92.84
241.169	35.5
241.386	4.78
241.603	64.17
241.821	-7.51
242.038	76.46
242.255	84.65
242.472	37.55
242.689	78.51
242.907	68.27
243.124	43.69
243.341	90.79
243.558	55.98
243.775	-30.04
243.992	17.07
244.209	29.35
244.426	31.4
244.643	62.12
244.86	-38.23
245.078	78.51
245.295	107.18
245.512	64.17
245.729	70.31
245.946	109.22
246.163	-7.51
246.38	25.26
246.597	-7.51
246.814	6.83
247.031	2.73
247.248	84.65
247.464	88.75
247.681	19.11
247.898	80.55
248.115	58.03
248.332	-5.46
248.549	76.46
248.766	31.4
248.983	27.31
249.2	72.36
249.417	-30.04
249.633	2.73
249.85	90.79
250.067	29.35
250.284	53.93
250.501	111.27
250.717	19.11
250.934	41.64
251.151	68.27
251.368	10.92
251.585	62.12
251.801	60.07
252.018	53.93
252.235	76.46
252.451	70.31
252.668	47.79
252.885	53.93
253.102	37.55
253.318	17.07
253.535	55.98
253.752	2.73
253.968	35.5
254.185	-56.66
254.401	49.83
254.618	37.55
254.835	4.78
255.051	101.03
255.268	27.31
255.484	33.45
255.701	49.83
255.917	51.88
256.134	58.03
256.351	88.75
256.567	33.45
256.784	17.07
257	82.6
257.217	64.17
257.433	113.32
257.65	68.27
257.866	74.41
258.082	31.4
258.299	10.92
258.515	78.51
258.732	12.97
258.948	-21.85
259.165	98.99
259.381	-34.13
259.597	47.79
259.814	92.84
260.03	43.69
260.246	43.69
260.463	31.4
260.679	58.03
260.895	53.93
261.112	2.73
261.328	49.83
261.544	-1.37
261.761	64.17
261.977	-42.32
262.193	19.11
262.409	49.83
262.626	10.92
262.842	35.5
263.058	31.4
263.274	82.6
263.49	82.6
263.707	64.17
263.923	0.68
264.139	21.16
264.355	15.02
264.571	92.84
264.787	23.21
265.004	70.31
265.22	39.59
265.436	51.88
265.652	27.31
265.868	49.83
266.084	31.4
266.3	25.26
266.516	-13.65
266.732	21.16
266.948	12.97
267.164	25.26
267.38	125.61
267.596	66.22
267.812	121.51
268.028	19.11
268.244	12.97
268.46	60.07
268.676	51.88
268.892	12.97
269.108	-15.7
269.324	-17.75
269.54	25.26
269.756	135.85
269.972	72.36
270.188	37.55
270.403	39.59
270.619	51.88
270.835	80.55
271.051	41.64
271.267	58.03
271.483	19.11
271.698	74.41
271.914	31.4
272.13	72.36
272.346	-5.46
272.562	80.55
272.777	84.65
272.993	15.02
273.209	17.07
273.425	43.69
273.64	21.16
273.856	66.22
274.072	66.22
274.287	-34.13
274.503	15.02
274.719	62.12
274.934	19.11
275.15	60.07
275.366	94.89
275.581	-5.46
275.797	88.75
276.012	10.92
276.228	84.65
276.444	47.79
276.659	103.08
276.875	53.93
277.09	109.22
277.306	43.69
277.521	115.37
277.737	55.98
277.952	19.11
278.168	88.75
278.383	92.84
278.599	92.84
278.814	0.68
279.03	49.83
279.245	96.94
279.461	27.31
279.676	41.64
279.892	10.92
280.107	35.5
280.322	-13.65
280.538	129.7
280.753	60.07
280.969	137.9
281.184	51.88
281.399	-15.7
281.615	92.84
281.83	12.97
282.045	33.45
282.26	31.4
282.476	55.98
282.691	90.79
282.906	64.17
283.122	0.68
283.337	27.31
283.552	64.17
283.767	55.98
283.983	15.02
284.198	41.64
284.413	115.37
284.628	39.59
284.843	43.69
285.058	35.5
285.274	70.31
285.489	43.69
285.704	74.41
285.919	88.75
286.134	101.03
286.349	51.88
286.564	17.07
286.779	47.79
286.995	96.94
287.21	4.78
287.425	41.64
287.64	33.45
287.855	64.17
288.07	-13.65
288.285	74.41
288.5	60.07
288.715	45.74
288.93	19.11
289.145	-34.13
289.36	105.13
289.575	-9.56
289.79	115.37
290.004	37.55
290.219	33.45
290.434	49.83
290.649	39.59
290.864	35.5
291.079	-1.37
291.294	53.93
291.509	88.75
291.724	33.45
291.938	35.5
292.153	35.5
292.368	35.5
292.583	60.07
292.798	76.46
293.012	-64.85
293.227	80.55
293.442	58.03
293.657	84.65
293.871	109.22
294.086	88.75
294.301	80.55
294.516	33.45
294.73	-5.46
294.945	-9.56
295.16	43.69
295.374	98.99
295.589	78.51
295.804	43.69
296.018	90.79
296.233	74.41
296.447	74.41
296.662	21.16
296.877	72.36
297.091	41.64
297.306	43.69
297.52	39.59
297.735	-42.32
297.949	82.6
298.164	74.41
298.378	131.75
298.593	19.11
298.807	64.17
299.022	105.13
299.236	82.6
299.451	72.36
299.665	43.69
299.88	131.75
300.094	60.07
300.309	47.79
300.523	12.97
300.737	88.75
300.952	94.89
301.166	64.17
301.381	37.55
301.595	43.69
301.809	58.03
302.024	2.73
302.238	10.92
302.452	150.18
302.667	41.64
302.881	19.11
303.095	92.84
303.309	105.13
303.524	2.73
303.738	39.59
303.952	23.21
304.166	78.51
304.381	-13.65
304.595	33.45
304.809	37.55
305.023	72.36
305.237	55.98
305.452	39.59
305.666	-5.46
305.88	39.59
306.094	29.35
306.308	31.4
306.522	84.65
306.736	41.64
306.95	41.64
307.164	39.59
307.379	60.07
307.593	76.46
307.807	111.27
308.021	43.69
308.235	84.65
308.449	58.03
308.663	27.31
308.877	101.03
309.091	35.5
309.305	51.88
309.519	35.5
309.733	117.42
309.947	-23.89
310.161	12.97
310.374	129.7
310.588	58.03
310.802	6.83
311.016	43.69
311.23	29.35
311.444	162.47
311.658	84.65
311.872	74.41
312.085	10.92
312.299	82.6
312.513	117.42
312.727	68.27
312.941	68.27
313.154	76.46
313.368	-7.51
313.582	35.5
313.796	119.46
314.009	64.17
314.223	98.99
314.437	33.45
314.651	82.6
314.864	27.31
315.078	78.51
315.292	43.69
315.505	47.79
315.719	35.5
315.933	58.03
316.146	84.65
316.36	19.11
316.573	72.36
316.787	60.07
317.001	82.6
317.214	-5.46
317.428	92.84
317.641	37.55
317.855	98.99
318.068	25.26
318.282	37.55
318.495	148.14
318.709	121.51
318.922	66.22
319.136	41.64
319.349	98.99
319.563	27.31
319.776	25.26
319.99	29.35
320.203	-17.75
320.417	86.7
320.63	66.22
320.843	117.42
321.057	-15.7
321.27	-1.37
321.483	43.69
321.697	23.21
321.91	92.84
322.124	103.08
322.337	39.59
322.55	33.45
322.763	117.42
322.977	105.13
323.19	74.41
323.403	78.51
323.617	156.33
323.83	25.26
324.043	62.12
324.256	74.41
324.469	47.79
324.683	53.93
324.896	117.42
325.109	88.75
325.322	27.31
325.535	96.94
325.748	117.42
325.962	0.68
326.175	51.88
326.388	53.93
326.601	17.07
326.814	19.11
327.027	92.84
327.24	115.37
327.453	8.87
327.666	43.69
327.879	103.08
328.092	129.7
328.305	72.36
328.518	37.55
328.731	27.31
328.944	58.03
329.157	4.78
329.37	4.78
329.583	70.31
329.796	74.41
330.009	25.26
330.222	115.37
330.435	35.5
330.648	146.09
330.861	19.11
331.073	78.51
331.286	51.88
331.499	-1.37
331.712	76.46
331.925	33.45
332.138	105.13
332.35	21.16
332.563	72.36
332.776	-32.08
332.989	39.59
333.202	55.98
333.414	84.65
333.627	-7.51
333.84	43.69
334.053	74.41
334.265	70.31
334.478	25.26
334.691	6.83
334.903	19.11
335.116	141.99
335.329	41.64
335.541	144.04
335.754	74.41
335.966	29.35
336.179	58.03
336.392	92.84
336.604	82.6
336.817	84.65
337.029	137.9
337.242	148.14
337.454	43.69
337.667	-13.65
337.88	47.79
338.092	15.02
338.305	88.75
338.517	6.83
338.729	94.89
338.942	31.4
339.154	55.98
339.367	23.21
339.579	66.22
339.792	29.35
340.004	62.12
340.217	41.64
340.429	55.98
340.641	8.87
340.854	47.79
341.066	0.68
341.278	66.22
341.491	156.33
341.703	82.6
341.915	101.03
342.128	117.42
342.34	86.7
342.552	27.31
342.764	94.89
342.977	64.17
343.189	64.17
343.401	117.42
343.613	-7.51
343.826	60.07
344.038	117.42
344.25	72.36
344.462	27.31
344.674	152.23
344.886	78.51
345.099	80.55
345.311	109.22
345.523	47.79
345.735	31.4
345.947	39.59
346.159	72.36
346.371	80.55
346.583	23.21
346.795	180.9
347.007	74.41
347.219	27.31
347.431	76.46
347.643	107.18
347.855	19.11
348.067	90.79
348.279	78.51
348.491	125.61
348.703	111.27
348.915	37.55
349.127	17.07
349.339	82.6
349.551	29.35
349.763	148.14
349.975	98.99
350.187	101.03
350.399	84.65
350.61	49.83
350.822	68.27
351.034	135.85
351.246	66.22
351.458	92.84
351.669	111.27
351.881	80.55
352.093	103.08
352.305	58.03
352.517	51.88
352.728	107.18
352.94	72.36
353.152	103.08
353.363	55.98
353.575	8.87
353.787	139.94
353.999	84.65
354.21	49.83
354.422	47.79
354.633	109.22
354.845	39.59
355.057	66.22
355.268	84.65
355.48	49.83
355.692	43.69
355.903	96.94
356.115	92.84
356.326	29.35
356.538	80.55
356.749	58.03
356.961	117.42
357.172	135.85
357.384	23.21
357.595	82.6
357.807	35.5
358.018	41.64
358.23	92.84
358.441	125.61
358.653	43.69
358.864	92.84
359.075	51.88
359.287	182.95
359.498	129.7
359.709	64.17
359.921	92.84
360.132	23.21
360.344	68.27
360.555	35.5
360.766	55.98
360.977	39.59
361.189	101.03
361.4	72.36
361.611	148.14
361.823	45.74
362.034	72.36
362.245	2.73
362.456	25.26
362.667	125.61
362.879	72.36
363.09	98.99
363.301	117.42
363.512	90.79
363.723	58.03
363.935	0.68
364.146	60.07
364.357	80.55
364.568	23.21
364.779	150.18
364.99	92.84
365.201	51.88
365.412	152.23
365.623	8.87
365.834	144.04
366.045	92.84
366.256	121.51
366.467	39.59
366.678	31.4
366.889	98.99
367.1	64.17
367.311	86.7
367.522	133.8
367.733	80.55
367.944	113.32
368.155	96.94
368.366	125.61
368.577	31.4
368.788	154.28
368.999	-7.51
369.209	137.9
369.42	158.38
369.631	178.86
369.842	72.36
370.053	51.88
370.264	72.36
370.474	60.07
370.685	62.12
370.896	127.66
371.107	107.18
371.317	60.07
371.528	25.26
371.739	107.18
371.95	105.13
372.16	72.36
372.371	125.61
372.582	82.6
372.792	35.5
373.003	131.75
373.214	88.75
373.424	125.61
373.635	53.93
373.846	152.23
374.056	23.21
374.267	123.56
374.477	4.78
374.688	86.7
374.898	55.98
375.109	76.46
375.319	92.84
375.53	101.03
375.74	60.07
375.951	154.28
376.161	92.84
376.372	164.52
376.582	19.11
376.793	35.5
377.003	111.27
377.214	68.27
377.424	88.75
377.635	70.31
377.845	117.42
378.055	60.07
378.266	58.03
378.476	53.93
378.686	135.85
378.897	43.69
379.107	139.94
379.317	23.21
379.528	66.22
379.738	125.61
379.948	35.5
380.158	82.6
380.369	111.27
380.579	111.27
380.789	23.21
380.999	150.18
381.21	158.38
381.42	80.55
381.63	107.18
381.84	129.7
382.05	123.56
382.261	129.7
382.471	62.12
382.681	107.18
382.891	51.88
383.101	88.75
383.311	25.26
383.521	41.64
383.731	29.35
383.941	107.18
384.151	80.55
384.361	96.94
384.571	62.12
384.781	94.89
384.991	80.55
385.201	92.84
385.411	82.6
385.621	111.27
385.831	60.07
386.041	88.75
386.251	123.56
386.461	53.93
386.671	45.74
386.881	90.79
387.091	74.41
387.301	107.18
387.511	152.23
387.72	82.6
387.93	84.65
388.14	72.36
388.35	154.28
388.56	76.46
388.769	141.99
388.979	107.18
389.189	84.65
389.399	66.22
389.609	139.94
389.818	103.08
390.028	172.71
390.238	76.46
390.447	90.79
390.657	60.07
390.867	72.36
391.076	60.07
391.286	66.22
391.496	129.7
391.705	76.46
391.915	174.76
392.125	66.22
392.334	10.92
392.544	123.56
392.753	158.38
392.963	58.03
393.172	131.75
393.382	117.42
393.591	215.72
393.801	41.64
394.01	205.48
394.22	88.75
394.429	82.6
394.639	150.18
394.848	84.65
395.058	72.36
395.267	141.99
395.477	172.71
395.686	127.66
395.895	180.9
396.105	78.51
396.314	129.7
396.524	117.42
396.733	178.86
396.942	121.51
397.152	109.22
397.361	109.22
397.57	76.46
397.78	156.33
397.989	152.23
398.198	176.81
398.407	111.27
398.617	217.77
398.826	187.05
399.035	123.56
399.244	107.18
399.453	109.22
399.663	180.9
399.872	199.34
400.081	72.36
400.29	154.28
400.499	162.47
400.708	228.01
400.917	146.09
401.127	162.47
401.336	182.95
401.545	152.23
401.754	185
401.963	191.14
402.172	131.75
402.381	152.23
402.59	182.95
402.799	191.14
403.008	256.68
403.217	187.05
403.426	185
403.635	191.14
403.844	152.23
404.053	344.74
404.262	178.86
404.471	195.24
404.68	131.75
404.888	223.91
405.097	141.99
405.306	232.1
405.515	268.97
405.724	191.14
405.933	285.35
406.142	248.49
406.35	230.06
406.559	322.21
406.768	256.68
406.977	336.55
407.185	236.2
407.394	301.73
407.603	311.97
407.812	281.25
408.02	377.51
408.229	350.89
408.438	357.03
408.646	352.93
408.855	314.02
409.064	365.22
409.272	318.12
409.481	344.74
409.69	369.32
409.898	422.56
410.107	445.09
410.315	410.28
410.524	408.23
410.733	502.43
410.941	481.96
411.15	467.62
411.358	488.1
411.567	582.31
411.775	504.48
411.984	492.2
412.192	653.98
412.401	643.74
412.609	617.12
412.818	795.29
413.026	662.18
413.234	684.7
413.443	699.04
413.651	696.99
413.86	742.05
414.068	752.29
414.276	844.45
414.485	834.21
414.693	922.27
414.901	893.6
415.11	930.46
415.318	934.56
415.526	965.28
415.734	1073.82
415.943	1090.2
416.151	1239.7
416.359	1100.44
416.567	1170.07
416.776	1288.85
416.984	1278.62
417.192	1376.92
417.4	1288.85
417.608	1319.57
417.817	1319.57
418.025	1569.43
418.233	1680.02
418.441	1641.11
418.649	1540.76
418.857	1690.26
419.065	1729.17
419.273	1768.08
419.481	1782.42
419.689	1952.4
419.897	2058.89
420.105	2161.29
420.313	2075.27
420.521	2132.62
420.729	2267.78
420.937	2304.65
421.145	2361.99
421.353	2458.25
421.561	2529.92
421.769	2675.33
421.977	2812.54
422.185	2824.83
422.393	2794.11
422.601	3066.49
422.809	3027.58
423.017	3084.92
423.224	3115.64
423.432	3304.06
423.64	3396.21
423.848	3734.13
424.056	3570.29
424.263	3846.77
424.471	3754.61
424.679	3848.82
424.887	4270.7
425.094	4268.65
425.302	4446.82
425.51	4403.82
425.718	4614.76
425.925	4612.71
426.133	4819.55
426.341	5028.45
426.548	5331.55
426.756	5317.21
426.964	5401.18
427.171	5710.42
427.379	5743.19
427.586	5950.03
427.794	6232.65
428.001	6310.47
428.209	6668.87
428.417	6597.19
428.624	6994.5
428.832	7162.43
429.039	6961.73
429.247	6969.92
429.454	7553.59
429.662	8192.56
429.869	7758.39
430.076	8239.66
430.284	7963.19
430.491	8213.04
430.699	8802.85
430.906	8591.91
431.114	8710.69
431.321	9134.62
431.528	9288.22
431.736	9908.76
431.943	10322.45
432.15	10172.94
432.358	10242.57
432.565	10779.14
432.772	10594.83
432.979	11289.09
433.187	11670.01
433.394	11571.71
433.601	12323.31
433.808	12356.08
434.016	12028.4
434.223	12761.58
434.43	13427.17
434.637	13353.44
434.844	14039.51
435.052	14436.81
435.259	14242.26
435.466	14420.43
435.673	14346.7
435.88	15337.92
436.087	16204.21
436.294	16255.41
436.501	15647.16
436.708	16097.72
436.915	16452.02
437.122	17301.92
437.329	17088.93
437.537	17805.72
437.743	17990.04
437.95	17858.97
438.157	18833.8
438.364	19720.57
438.571	19607.94
438.778	19665.28
438.985	21291.37
439.192	20654.45
439.399	21205.35
439.606	20666.74
439.813	21803.36
440.02	23312.71
440.227	22649.17
440.433	22573.39
440.64	23392.58
440.847	23124.3
441.054	23908.67
441.261	25229.61
441.467	25102.64
441.674	25690.4
441.881	26464.53
442.088	26304.79
442.294	26378.52
442.501	26759.44
442.708	27406.6
442.914	28457.21
443.121	30058.72
443.328	29014.26
443.534	30855.38
443.741	29825.25
443.948	29907.17
444.154	31772.87
444.361	31625.42
444.568	31572.17
444.774	31916.23
444.981	32393.4
445.187	33153.2
445.394	34347.17
445.6	34056.36
445.807	37455.98
446.013	35475.6
446.22	36114.56
446.426	37675.12
446.633	38074.47
446.839	38826.07
447.046	37425.26
447.252	39325.78
447.459	39542.86
447.665	39211.09
447.871	41525.3
448.078	42729.5
448.284	40996.92
448.491	42141.74
448.697	43294.74
448.903	44322.82
449.11	43839.5
449.316	43487.25
449.522	44228.62
449.728	45260.79
449.935	45688.82
450.141	45725.68
450.347	46288.87
450.553	45369.33
450.76	45584.37
450.966	47159.26
451.172	46378.98
451.378	47626.2
451.584	46542.82
451.791	47796.18
451.997	47843.28
452.203	48119.76
452.409	48304.07
452.615	47968.21
452.821	46469.09
453.027	45959.15
453.233	48023.5
453.44	46032.88
453.646	46319.59
453.852	47218.65
454.058	47458.26
454.264	45981.68
454.47	47267.8
454.676	45895.66
454.882	47153.12
455.088	43161.62
455.294	43649.04
455.5	44615.68
455.705	45213.69
455.911	43141.14
456.117	42342.44
456.323	41715.76
456.529	39284.82
456.735	41218.1
456.941	40081.48
457.147	39424.08
457.352	38049.89
457.558	37896.3
457.764	38002.79
457.97	36927.61
458.176	36298.88
458.381	35909.77
458.587	34437.28
458.793	34259.1
458.999	32762.04
459.204	35338.38
459.41	34191.52
459.616	31944.9
459.821	32135.36
460.027	31942.85
460.233	31027.41
460.438	29630.69
460.644	29927.65
460.85	28575.99
461.055	28473.59
461.261	28297.47
461.466	26067.23
461.672	25256.23
461.878	26765.59
462.083	25299.24
462.289	25121.07
462.494	24787.25
462.7	23558.47
462.905	23042.38
463.111	23746.88
463.316	24027.45
463.522	23349.57
463.727	23380.29
463.932	23126.35
464.138	22702.42
464.343	23124.3
464.549	22530.39
464.754	23568.71
464.959	23296.33
465.165	22886.73
465.37	21899.61
465.575	21457.25
465.781	22221.14
465.986	22471
466.191	21760.35
466.397	21492.07
466.602	19978.62
