Data from USB4F104151__243__10-30-56-424.txt Node

Date: Wed Mar 12 10:30:56 EDT 2025
User: louis
Spectrometer: USB4F10415
Trigger mode: 4
Integration Time (sec): 3.000000E-2
Scans to average: 1
Electric dark correction enabled: true
Nonlinearity correction enabled: false
Boxcar width: 0
XAxis mode: Wavelengths
Number of Pixels in Spectrum: 3648
>>>>>Begin Spectral Data<<<<<
178.204	-122.2
178.424	-122.2
178.644	-122.2
178.864	-124.24
179.084	-197.97
179.304	6.83
179.524	-62.8
179.744	0.68
179.964	4.78
180.184	-54.61
180.404	58.03
180.624	-21.85
180.844	25.26
181.064	0.68
181.283	49.83
181.503	-3.41
181.723	-3.41
181.943	-21.85
182.163	121.51
182.383	-25.94
182.602	-1.37
182.822	29.35
183.042	0.68
183.262	78.51
183.482	4.78
183.701	55.98
183.921	43.69
184.141	-9.56
184.361	17.07
184.58	4.78
184.8	51.88
185.02	8.87
185.239	0.68
185.459	4.78
185.679	47.79
185.898	25.26
186.118	8.87
186.338	-13.65
186.557	60.07
186.777	76.46
186.997	17.07
187.216	72.36
187.436	78.51
187.655	80.55
187.875	60.07
188.095	-9.56
188.314	17.07
188.534	33.45
188.753	29.35
188.973	53.93
189.192	74.41
189.412	6.83
189.631	19.11
189.851	49.83
190.07	58.03
190.29	39.59
190.509	29.35
190.729	45.74
190.948	21.16
191.168	119.46
191.387	-34.13
191.607	10.92
191.826	21.16
192.045	-30.04
192.265	39.59
192.484	62.12
192.704	10.92
192.923	-9.56
193.142	66.22
193.362	78.51
193.581	45.74
193.8	37.55
194.02	58.03
194.239	21.16
194.458	86.7
194.678	27.31
194.897	39.59
195.116	47.79
195.335	-1.37
195.555	62.12
195.774	29.35
195.993	49.83
196.212	49.83
196.432	86.7
196.651	0.68
196.87	-44.37
197.089	92.84
197.308	58.03
197.528	41.64
197.747	8.87
197.966	12.97
198.185	53.93
198.404	62.12
198.623	72.36
198.842	27.31
199.062	96.94
199.281	55.98
199.5	15.02
199.719	150.18
199.938	111.27
200.157	64.17
200.376	17.07
200.595	92.84
200.814	51.88
201.033	8.87
201.252	90.79
201.471	-40.28
201.69	60.07
201.909	60.07
202.128	21.16
202.347	-56.66
202.566	19.11
202.785	-21.85
203.004	12.97
203.223	101.03
203.442	12.97
203.661	92.84
203.879	92.84
204.098	31.4
204.317	35.5
204.536	-19.8
204.755	49.83
204.974	12.97
205.193	2.73
205.411	88.75
205.63	31.4
205.849	21.16
206.068	-21.85
206.287	15.02
206.505	12.97
206.724	62.12
206.943	68.27
207.162	49.83
207.381	25.26
207.599	58.03
207.818	4.78
208.037	19.11
208.255	-3.41
208.474	45.74
208.693	51.88
208.911	53.93
209.13	70.31
209.349	37.55
209.567	47.79
209.786	98.99
210.005	17.07
210.223	51.88
210.442	-27.99
210.661	58.03
210.879	45.74
211.098	60.07
211.316	45.74
211.535	103.08
211.753	68.27
211.972	29.35
212.191	33.45
212.409	84.65
212.628	-23.89
212.846	68.27
213.065	74.41
213.283	76.46
213.502	27.31
213.72	-27.99
213.938	2.73
214.157	47.79
214.375	49.83
214.594	60.07
214.812	111.27
215.031	45.74
215.249	2.73
215.467	41.64
215.686	70.31
215.904	80.55
216.122	80.55
216.341	21.16
216.559	62.12
216.778	51.88
216.996	88.75
217.214	70.31
217.432	29.35
217.651	4.78
217.869	98.99
218.087	76.46
218.306	-19.8
218.524	68.27
218.742	60.07
218.96	74.41
219.179	2.73
219.397	17.07
219.615	92.84
219.833	68.27
220.051	107.18
220.27	35.5
220.488	21.16
220.706	12.97
220.924	12.97
221.142	70.31
221.36	45.74
221.578	17.07
221.796	-11.61
222.015	-5.46
222.233	-7.51
222.451	-21.85
222.669	-32.08
222.887	105.13
223.105	43.69
223.323	29.35
223.541	-19.8
223.759	49.83
223.977	37.55
224.195	33.45
224.413	121.51
224.631	64.17
224.849	-60.76
225.067	62.12
225.285	45.74
225.503	55.98
225.721	-3.41
225.939	27.31
226.157	66.22
226.375	53.93
226.592	2.73
226.81	66.22
227.028	37.55
227.246	60.07
227.464	-27.99
227.682	33.45
227.9	21.16
228.117	2.73
228.335	23.21
228.553	6.83
228.771	45.74
228.989	101.03
229.206	107.18
229.424	19.11
229.642	41.64
229.86	25.26
230.077	39.59
230.295	45.74
230.513	6.83
230.731	4.78
230.948	31.4
231.166	62.12
231.384	-3.41
231.601	51.88
231.819	103.08
232.037	55.98
232.254	-38.23
232.472	-7.51
232.689	-15.7
232.907	29.35
233.125	10.92
233.342	70.31
233.56	6.83
233.777	47.79
233.995	27.31
234.213	62.12
234.43	53.93
234.648	-46.42
234.865	43.69
235.083	74.41
235.3	31.4
235.518	-54.61
235.735	8.87
235.953	62.12
236.17	21.16
236.388	39.59
236.605	66.22
236.822	55.98
237.04	47.79
237.257	27.31
237.475	-21.85
237.692	98.99
237.909	29.35
238.127	-5.46
238.344	31.4
238.562	33.45
238.779	-17.75
238.996	-48.47
239.214	39.59
239.431	58.03
239.648	27.31
239.865	23.21
240.083	-52.56
240.3	-36.18
240.517	62.12
240.735	33.45
240.952	125.61
241.169	45.74
241.386	-36.18
241.603	31.4
241.821	66.22
242.038	78.51
242.255	19.11
242.472	-5.46
242.689	45.74
242.907	31.4
243.124	-7.51
243.341	68.27
243.558	33.45
243.775	23.21
243.992	-30.04
244.209	43.69
244.426	109.22
244.643	49.83
244.86	0.68
245.078	78.51
245.295	29.35
245.512	53.93
245.729	53.93
245.946	25.26
246.163	135.85
246.38	76.46
246.597	66.22
246.814	19.11
247.031	-36.18
247.248	33.45
247.464	41.64
247.681	12.97
247.898	17.07
248.115	53.93
248.332	2.73
248.549	29.35
248.766	0.68
248.983	12.97
249.2	80.55
249.417	70.31
249.633	62.12
249.85	60.07
250.067	94.89
250.284	21.16
250.501	62.12
250.717	-11.61
250.934	49.83
251.151	-44.37
251.368	-19.8
251.585	49.83
251.801	35.5
252.018	17.07
252.235	29.35
252.451	-21.85
252.668	2.73
252.885	8.87
253.102	53.93
253.318	-32.08
253.535	62.12
253.752	86.7
253.968	29.35
254.185	8.87
254.401	-17.75
254.618	80.55
254.835	12.97
255.051	139.94
255.268	-25.94
255.484	78.51
255.701	17.07
255.917	62.12
256.134	-3.41
256.351	45.74
256.567	29.35
256.784	78.51
257	17.07
257.217	-1.37
257.433	-21.85
257.65	37.55
257.866	82.6
258.082	41.64
258.299	62.12
258.515	41.64
258.732	15.02
258.948	21.16
259.165	33.45
259.381	2.73
259.597	74.41
259.814	43.69
260.03	12.97
260.246	-40.28
260.463	70.31
260.679	27.31
260.895	55.98
261.112	68.27
261.328	66.22
261.544	60.07
261.761	55.98
261.977	51.88
262.193	12.97
262.409	17.07
262.626	-23.89
262.842	78.51
263.058	-1.37
263.274	74.41
263.49	2.73
263.707	49.83
263.923	2.73
264.139	45.74
264.355	10.92
264.571	-17.75
264.787	98.99
265.004	107.18
265.22	105.13
265.436	45.74
265.652	64.17
265.868	-1.37
266.084	-1.37
266.3	17.07
266.516	84.65
266.732	51.88
266.948	-60.76
267.164	45.74
267.38	37.55
267.596	66.22
267.812	111.27
268.028	92.84
268.244	8.87
268.46	2.73
268.676	-44.37
268.892	-11.61
269.108	-23.89
269.324	62.12
269.54	101.03
269.756	53.93
269.972	19.11
270.188	51.88
270.403	41.64
270.619	27.31
270.835	72.36
271.051	31.4
271.267	27.31
271.483	88.75
271.698	51.88
271.914	-3.41
272.13	-34.13
272.346	0.68
272.562	29.35
272.777	96.94
272.993	21.16
273.209	109.22
273.425	92.84
273.64	80.55
273.856	-7.51
274.072	51.88
274.287	74.41
274.503	45.74
274.719	-38.23
274.934	72.36
275.15	-44.37
275.366	119.46
275.581	8.87
275.797	62.12
276.012	8.87
276.228	2.73
276.444	43.69
276.659	94.89
276.875	29.35
277.09	25.26
277.306	19.11
277.521	88.75
277.737	45.74
277.952	78.51
278.168	115.37
278.383	37.55
278.599	17.07
278.814	86.7
279.03	70.31
279.245	72.36
279.461	-5.46
279.676	68.27
279.892	27.31
280.107	-79.19
280.322	-44.37
280.538	64.17
280.753	43.69
280.969	55.98
281.184	10.92
281.399	76.46
281.615	70.31
281.83	21.16
282.045	33.45
282.26	25.26
282.476	43.69
282.691	29.35
282.906	-13.65
283.122	68.27
283.337	55.98
283.552	62.12
283.767	66.22
283.983	62.12
284.198	-3.41
284.413	-21.85
284.628	15.02
284.843	92.84
285.058	-9.56
285.274	25.26
285.489	10.92
285.704	37.55
285.919	25.26
286.134	139.94
286.349	23.21
286.564	-13.65
286.779	109.22
286.995	0.68
287.21	68.27
287.425	-3.41
287.64	4.78
287.855	25.26
288.07	21.16
288.285	119.46
288.5	60.07
288.715	23.21
288.93	-38.23
289.145	0.68
289.36	-19.8
289.575	60.07
289.79	148.14
290.004	25.26
290.219	10.92
290.434	6.83
290.649	-19.8
290.864	37.55
291.079	21.16
291.294	45.74
291.509	144.04
291.724	15.02
291.938	41.64
292.153	96.94
292.368	51.88
292.583	49.83
292.798	101.03
293.012	72.36
293.227	113.32
293.442	-1.37
293.657	33.45
293.871	80.55
294.086	-1.37
294.301	131.75
294.516	72.36
294.73	33.45
294.945	70.31
295.16	47.79
295.374	43.69
295.589	43.69
295.804	15.02
296.018	-5.46
296.233	74.41
296.447	55.98
296.662	86.7
296.877	160.42
297.091	10.92
297.306	68.27
297.52	-56.66
297.735	60.07
297.949	60.07
298.164	6.83
298.378	66.22
298.593	-11.61
298.807	-3.41
299.022	25.26
299.236	62.12
299.451	29.35
299.665	21.16
299.88	86.7
300.094	15.02
300.309	49.83
300.523	96.94
300.737	64.17
300.952	-11.61
301.166	101.03
301.381	43.69
301.595	78.51
301.809	27.31
302.024	33.45
302.238	53.93
302.452	105.13
302.667	21.16
302.881	92.84
303.095	109.22
303.309	10.92
303.524	51.88
303.738	-3.41
303.952	66.22
304.166	27.31
304.381	-7.51
304.595	94.89
304.809	-34.13
305.023	33.45
305.237	53.93
305.452	23.21
305.666	19.11
305.88	101.03
306.094	135.85
306.308	43.69
306.522	29.35
306.736	-17.75
306.95	103.08
307.164	60.07
307.379	43.69
307.593	82.6
307.807	23.21
308.021	43.69
308.235	111.27
308.449	-60.76
308.663	70.31
308.877	146.09
309.091	78.51
309.305	31.4
309.519	37.55
309.733	49.83
309.947	6.83
310.161	68.27
310.374	70.31
310.588	76.46
310.802	31.4
311.016	78.51
311.23	39.59
311.444	55.98
311.658	-21.85
311.872	146.09
312.085	74.41
312.299	43.69
312.513	80.55
312.727	86.7
312.941	-11.61
313.154	123.56
313.368	78.51
313.582	12.97
313.796	-11.61
314.009	6.83
314.223	119.46
314.437	49.83
314.651	43.69
314.864	-17.75
315.078	84.65
315.292	58.03
315.505	-13.65
315.719	66.22
315.933	25.26
316.146	53.93
316.36	-23.89
316.573	70.31
316.787	66.22
317.001	-3.41
317.214	31.4
317.428	0.68
317.641	62.12
317.855	37.55
318.068	-44.37
318.282	37.55
318.495	0.68
318.709	78.51
318.922	49.83
319.136	70.31
319.349	35.5
319.563	64.17
319.776	111.27
319.99	62.12
320.203	127.66
320.417	-21.85
320.63	39.59
320.843	74.41
321.057	49.83
321.27	25.26
321.483	80.55
321.697	98.99
321.91	-21.85
322.124	21.16
322.337	103.08
322.55	49.83
322.763	6.83
322.977	21.16
323.19	117.42
323.403	-15.7
323.617	101.03
323.83	94.89
324.043	-25.94
324.256	70.31
324.469	-11.61
324.683	103.08
324.896	-7.51
325.109	62.12
325.322	4.78
325.535	49.83
325.748	58.03
325.962	-48.47
326.175	90.79
326.388	43.69
326.601	62.12
326.814	25.26
327.027	94.89
327.24	82.6
327.453	115.37
327.666	70.31
327.879	37.55
328.092	111.27
328.305	-19.8
328.518	103.08
328.731	12.97
328.944	60.07
329.157	58.03
329.37	64.17
329.583	111.27
329.796	88.75
330.009	25.26
330.222	103.08
330.435	103.08
330.648	-13.65
330.861	103.08
331.073	90.79
331.286	141.99
331.499	21.16
331.712	-3.41
331.925	64.17
332.138	78.51
332.35	-3.41
332.563	2.73
332.776	125.61
332.989	27.31
333.202	21.16
333.414	31.4
333.627	76.46
333.84	47.79
334.053	47.79
334.265	133.8
334.478	133.8
334.691	64.17
334.903	84.65
335.116	78.51
335.329	-27.99
335.541	62.12
335.754	103.08
335.966	23.21
336.179	33.45
336.392	25.26
336.604	8.87
336.817	64.17
337.029	90.79
337.242	66.22
337.454	0.68
337.667	51.88
337.88	47.79
338.092	27.31
338.305	29.35
338.517	-19.8
338.729	17.07
338.942	35.5
339.154	123.56
339.367	2.73
339.579	68.27
339.792	-11.61
340.004	78.51
340.217	27.31
340.429	98.99
340.641	78.51
340.854	53.93
341.066	17.07
341.278	94.89
341.491	111.27
341.703	47.79
341.915	17.07
342.128	25.26
342.34	74.41
342.552	-13.65
342.764	82.6
342.977	51.88
343.189	86.7
343.401	76.46
343.613	2.73
343.826	45.74
344.038	-3.41
344.25	21.16
344.462	35.5
344.674	84.65
344.886	29.35
345.099	92.84
345.311	-19.8
345.523	23.21
345.735	66.22
345.947	78.51
346.159	25.26
346.371	76.46
346.583	41.64
346.795	98.99
347.007	41.64
347.219	62.12
347.431	92.84
347.643	68.27
347.855	41.64
348.067	86.7
348.279	2.73
348.491	133.8
348.703	103.08
348.915	101.03
349.127	-19.8
349.339	53.93
349.551	31.4
349.763	70.31
349.975	-3.41
350.187	135.85
350.399	29.35
350.61	70.31
350.822	68.27
351.034	37.55
351.246	37.55
351.458	39.59
351.669	51.88
351.881	72.36
352.093	121.51
352.305	115.37
352.517	78.51
352.728	76.46
352.94	66.22
353.152	129.7
353.363	12.97
353.575	45.74
353.787	92.84
353.999	39.59
354.21	66.22
354.422	35.5
354.633	12.97
354.845	80.55
355.057	88.75
355.268	76.46
355.48	101.03
355.692	-30.04
355.903	27.31
356.115	55.98
356.326	8.87
356.538	84.65
356.749	96.94
356.961	88.75
357.172	45.74
357.384	-1.37
357.595	115.37
357.807	90.79
358.018	-11.61
358.23	111.27
358.441	58.03
358.653	115.37
358.864	68.27
359.075	82.6
359.287	82.6
359.498	-9.56
359.709	70.31
359.921	29.35
360.132	70.31
360.344	94.89
360.555	41.64
360.766	133.8
360.977	58.03
361.189	98.99
361.4	90.79
361.611	115.37
361.823	94.89
362.034	127.66
362.245	86.7
362.456	94.89
362.667	111.27
362.879	23.21
363.09	-7.51
363.301	78.51
363.512	84.65
363.723	117.42
363.935	43.69
364.146	98.99
364.357	119.46
364.568	101.03
364.779	10.92
364.99	90.79
365.201	68.27
365.412	10.92
365.623	35.5
365.834	41.64
366.045	-13.65
366.256	58.03
366.467	35.5
366.678	92.84
366.889	137.9
367.1	35.5
367.311	103.08
367.522	-23.89
367.733	47.79
367.944	60.07
368.155	88.75
368.366	43.69
368.577	115.37
368.788	64.17
368.999	47.79
369.209	98.99
369.42	94.89
369.631	137.9
369.842	121.51
370.053	125.61
370.264	8.87
370.474	49.83
370.685	21.16
370.896	90.79
371.107	51.88
371.317	160.42
371.528	74.41
371.739	84.65
371.95	82.6
372.16	115.37
372.371	53.93
372.582	66.22
372.792	15.02
373.003	23.21
373.214	53.93
373.424	96.94
373.635	62.12
373.846	43.69
374.056	98.99
374.267	29.35
374.477	139.94
374.688	31.4
374.898	90.79
375.109	76.46
375.319	17.07
375.53	74.41
375.74	41.64
375.951	41.64
376.161	12.97
376.372	101.03
376.582	12.97
376.793	2.73
377.003	86.7
377.214	39.59
377.424	94.89
377.635	82.6
377.845	10.92
378.055	109.22
378.266	43.69
378.476	49.83
378.686	33.45
378.897	35.5
379.107	43.69
379.317	62.12
379.528	21.16
379.738	94.89
379.948	121.51
380.158	45.74
380.369	58.03
380.579	90.79
380.789	84.65
380.999	45.74
381.21	33.45
381.42	131.75
381.63	-11.61
381.84	125.61
382.05	55.98
382.261	152.23
382.471	127.66
382.681	35.5
382.891	66.22
383.101	66.22
383.311	127.66
383.521	41.64
383.731	-23.89
383.941	78.51
384.151	41.64
384.361	111.27
384.571	70.31
384.781	45.74
384.991	74.41
385.201	105.13
385.411	103.08
385.621	135.85
385.831	70.31
386.041	141.99
386.251	25.26
386.461	103.08
386.671	37.55
386.881	156.33
387.091	45.74
387.301	27.31
387.511	17.07
387.72	53.93
387.93	74.41
388.14	19.11
388.35	45.74
388.56	58.03
388.769	144.04
388.979	94.89
389.189	74.41
389.399	74.41
389.609	47.79
389.818	150.18
390.028	123.56
390.238	62.12
390.447	0.68
390.657	156.33
390.867	47.79
391.076	60.07
391.286	86.7
391.496	66.22
391.705	86.7
391.915	92.84
392.125	113.32
392.334	115.37
392.544	82.6
392.753	121.51
392.963	96.94
393.172	88.75
393.382	84.65
393.591	176.81
393.801	43.69
394.01	80.55
394.22	51.88
394.429	176.81
394.639	174.76
394.848	148.14
395.058	113.32
395.267	123.56
395.477	103.08
395.686	27.31
395.895	176.81
396.105	201.38
396.314	187.05
396.524	182.95
396.733	117.42
396.942	117.42
397.152	178.86
397.361	123.56
397.57	92.84
397.78	127.66
397.989	170.66
398.198	127.66
398.407	164.52
398.617	150.18
398.826	70.31
399.035	111.27
399.244	170.66
399.453	164.52
399.663	213.67
399.872	160.42
400.081	133.8
400.29	232.1
400.499	156.33
400.708	213.67
400.917	174.76
401.127	107.18
401.336	156.33
401.545	234.15
401.754	139.94
401.963	103.08
402.172	160.42
402.381	123.56
402.59	131.75
402.799	154.28
403.008	90.79
403.217	178.86
403.426	170.66
403.635	113.32
403.844	205.48
404.053	213.67
404.262	207.53
404.471	168.62
404.68	199.34
404.888	193.19
405.097	268.97
405.306	238.25
405.515	238.25
405.724	211.62
405.933	273.06
406.142	166.57
406.35	273.06
406.559	187.05
406.768	283.3
406.977	260.77
407.185	236.2
407.394	320.17
407.603	256.68
407.812	283.3
408.02	316.07
408.229	279.21
408.438	338.6
408.646	320.17
408.855	326.31
409.064	354.98
409.272	406.18
409.481	404.13
409.69	348.84
409.898	443.04
410.107	336.55
410.315	475.81
410.524	500.39
410.733	545.44
410.941	385.7
411.15	496.29
411.358	529.06
411.567	596.64
411.775	553.63
411.984	529.06
412.192	561.83
412.401	629.41
412.609	668.32
412.818	699.04
413.026	676.51
413.234	666.27
413.443	750.24
413.651	764.58
413.86	830.11
414.068	758.43
414.276	873.12
414.485	852.64
414.693	848.54
414.901	948.89
415.11	914.08
415.318	938.65
415.526	957.08
415.734	1002.14
415.943	1120.92
416.151	1143.45
416.359	1163.93
416.567	1200.79
416.776	1200.79
416.984	1417.88
417.192	1270.42
417.4	1370.77
417.608	1288.85
417.817	1413.78
418.025	1575.57
418.233	1577.62
418.441	1610.39
418.649	1639.06
418.857	1766.03
419.065	1876.62
419.273	1811.09
419.481	1757.84
419.689	2105.99
419.897	2036.36
420.105	2048.65
420.313	2083.47
420.521	2294.41
420.729	2177.67
420.937	2318.98
421.145	2439.81
421.353	2652.8
421.561	2636.42
421.769	2751.1
421.977	2736.77
422.185	2849.41
422.393	2931.33
422.601	3115.64
422.809	3187.32
423.017	3127.93
423.224	3236.47
423.432	3451.51
423.64	3502.71
423.848	3773.04
424.056	3670.64
424.263	4002.41
424.471	4000.37
424.679	3920.49
424.887	4239.98
425.094	4221.55
425.302	4430.44
425.51	4514.41
425.718	4754.02
425.925	4723.3
426.133	5102.17
426.341	5132.89
426.548	5386.84
426.756	5413.46
426.964	5435.99
427.171	5773.91
427.379	6017.61
427.586	6117.97
427.794	6273.61
428.001	6517.32
428.209	6906.43
428.417	6701.64
428.624	7111.23
428.832	7281.21
429.039	7023.17
429.247	7027.26
429.454	7914.03
429.662	8370.73
429.869	7746.1
430.076	8280.62
430.284	8172.08
430.491	8393.26
430.699	8962.59
430.906	8972.83
431.114	9036.32
431.321	9380.38
431.528	9542.17
431.736	10308.11
431.943	10535.43
432.15	10365.45
432.358	10502.67
432.565	10975.75
432.772	10701.32
432.979	11297.28
433.187	11694.58
433.394	11692.54
433.601	12722.66
433.808	12392.94
434.016	12610.03
434.223	13017.57
434.43	13953.49
434.637	13511.13
434.844	14334.42
435.052	14830.02
435.259	14576.08
435.466	14795.21
435.673	14957
435.88	15454.65
436.087	16497.07
436.294	16568.75
436.501	15970.74
436.708	16210.36
436.915	16767.4
437.122	17582.49
437.329	17709.47
437.537	18071.96
437.743	18340.24
437.95	18377.11
438.157	19020.17
438.364	19908.99
438.571	19814.78
438.778	19921.27
438.985	21578.08
439.192	20930.92
439.399	21559.65
439.606	20892.01
439.813	22159.7
440.02	23431.49
440.227	23099.72
440.433	22622.55
440.64	23726.4
440.847	23380.29
441.054	23710.02
441.261	25626.92
441.467	25372.97
441.674	26044.7
441.881	26759.44
442.088	26648.85
442.294	26343.7
442.501	27195.66
442.708	27560.2
442.914	28348.67
443.121	29925.6
443.328	28920.05
443.534	31285.45
443.741	30058.72
443.948	29829.35
444.154	32106.69
444.361	31940.8
444.568	31936.71
444.774	32018.63
444.981	32217.28
445.187	33214.64
445.394	34611.35
445.6	33831.08
445.807	37320.82
446.013	36044.93
446.22	36526.21
446.426	38039.65
446.633	38514.78
446.839	39323.73
447.046	37988.45
447.252	39708.75
447.459	40001.61
447.665	39213.14
447.871	41603.12
448.078	42825.76
448.284	40869.95
448.491	41842.73
448.697	43767.82
448.903	44355.59
449.11	44417.03
449.316	43794.45
449.522	44365.83
449.728	45895.66
449.935	45944.81
450.141	46059.5
450.347	46899.17
450.553	45432.82
450.76	46090.22
450.966	47536.09
451.172	46757.86
451.378	47890.38
451.584	46802.91
451.791	47925.2
451.997	47986.64
452.203	48658.37
452.409	48410.57
452.615	48109.52
452.821	46622.69
453.027	46155.75
453.233	48418.76
453.44	46340.07
453.646	47241.18
453.852	47429.59
454.058	47736.79
454.264	46030.83
454.47	47202.27
454.676	46352.36
454.882	47714.26
455.088	43503.63
455.294	44273.67
455.5	44791.81
455.705	45477.88
455.911	43587.6
456.117	42625.06
456.323	41959.47
456.529	39624.78
456.735	41408.56
456.941	40534.08
457.147	40013.9
457.352	38951
457.558	37812.33
457.764	38420.58
457.97	37875.82
458.176	36882.55
458.381	37087.35
458.587	34783.38
458.793	34758.81
458.999	33292.46
459.204	35651.72
459.41	34279.58
459.616	32071.87
459.821	32426.17
460.027	32209.09
460.233	31649.99
460.438	29694.18
460.644	30472.41
460.85	28926.19
461.055	28463.35
461.261	28567.8
461.466	26446.1
461.672	25477.41
461.878	27369.74
462.083	25954.59
462.289	25301.29
462.494	24799.54
462.7	24021.31
462.905	23503.17
463.111	23947.58
463.316	24037.69
463.522	23415.11
463.727	23824.7
463.932	23437.64
464.138	23402.82
464.343	23605.57
464.549	22700.37
464.754	23621.95
464.959	23359.81
465.165	23157.07
465.37	22348.12
465.575	21436.77
465.781	22524.24
465.986	22423.89
466.191	21485.92
466.397	21578.08
