Data from USB4F104151__261__10-39-54-147.txt Node

Date: Wed Mar 12 10:39:54 EDT 2025
User: louis
Spectrometer: USB4F10415
Trigger mode: 4
Integration Time (sec): 3.000000E-2
Scans to average: 1
Electric dark correction enabled: true
Nonlinearity correction enabled: false
Boxcar width: 0
XAxis mode: Wavelengths
Number of Pixels in Spectrum: 3648
>>>>>Begin Spectral Data<<<<<
178.204	-175.44
178.424	-175.44
178.644	-175.44
178.864	-206.16
179.084	-130.39
179.304	31.4
179.524	-25.94
179.744	-19.8
179.964	0.68
180.184	-5.46
180.404	27.31
180.624	10.92
180.844	41.64
181.064	-60.76
181.283	15.02
181.503	-15.7
181.723	0.68
181.943	2.73
182.163	37.55
182.383	-66.9
182.602	45.74
182.822	-27.99
183.042	25.26
183.262	25.26
183.482	23.21
183.701	74.41
183.921	21.16
184.141	4.78
184.361	66.22
184.58	45.74
184.8	49.83
185.02	19.11
185.239	62.12
185.459	78.51
185.679	12.97
185.898	25.26
186.118	68.27
186.338	23.21
186.557	78.51
186.777	41.64
186.997	21.16
187.216	15.02
187.436	35.5
187.655	60.07
187.875	90.79
188.095	70.31
188.314	72.36
188.534	74.41
188.753	90.79
188.973	92.84
189.192	98.99
189.412	-11.61
189.631	25.26
189.851	25.26
190.07	37.55
190.29	39.59
190.509	-32.08
190.729	0.68
190.948	72.36
191.168	131.75
191.387	45.74
191.607	-21.84
191.826	105.13
192.045	60.07
192.265	78.51
192.484	60.07
192.704	21.16
192.923	23.21
193.142	41.64
193.362	105.13
193.581	41.64
193.8	45.74
194.02	64.17
194.239	49.83
194.458	8.87
194.678	19.11
194.897	45.74
195.116	-3.41
195.335	88.75
195.555	125.61
195.774	21.16
195.993	111.27
196.212	-5.46
196.432	62.12
196.651	21.16
196.87	10.92
197.089	150.18
197.308	49.83
197.528	82.6
197.747	25.26
197.966	19.11
198.185	133.8
198.404	-15.7
198.623	-9.56
198.842	25.26
199.062	45.74
199.281	88.75
199.5	60.07
199.719	58.03
199.938	74.41
200.157	115.37
200.376	6.83
200.595	37.55
200.814	-15.7
201.033	-7.51
201.252	113.32
201.471	37.55
201.69	62.12
201.909	82.6
202.128	121.51
202.347	66.22
202.566	51.88
202.785	12.97
203.004	-36.18
203.223	125.61
203.442	53.93
203.661	-34.13
203.879	68.27
204.098	58.03
204.317	74.41
204.536	84.65
204.755	37.55
204.974	15.02
205.193	41.64
205.411	101.03
205.63	72.36
205.849	39.59
206.068	4.78
206.287	33.45
206.505	88.75
206.724	129.7
206.943	-11.61
207.162	12.97
207.381	90.79
207.599	19.11
207.818	29.35
208.037	78.51
208.255	49.83
208.474	17.07
208.693	23.21
208.911	55.98
209.13	43.69
209.349	49.83
209.567	58.03
209.786	53.93
210.005	43.69
210.223	37.55
210.442	21.16
210.661	-23.89
210.879	12.97
211.098	33.45
211.316	111.27
211.535	66.22
211.753	33.45
211.972	15.02
212.191	25.26
212.409	17.07
212.628	76.46
212.846	6.83
213.065	0.68
213.283	113.32
213.502	8.87
213.72	45.74
213.938	-15.7
214.157	29.35
214.375	47.79
214.594	45.74
214.812	4.78
215.031	8.87
215.249	-15.7
215.467	15.02
215.686	68.27
215.904	51.88
216.122	4.78
216.341	25.26
216.559	45.74
216.778	80.55
216.996	25.26
217.214	-3.41
217.432	86.7
217.651	4.78
217.869	17.07
218.087	90.79
218.306	25.26
218.524	45.74
218.742	-23.89
218.96	25.26
219.179	6.83
219.397	62.12
219.615	25.26
219.833	82.6
220.051	55.98
220.27	109.23
220.488	-7.51
220.706	-44.37
220.924	10.92
221.142	-48.47
221.36	19.11
221.578	58.03
221.796	8.87
222.015	21.16
222.233	84.65
222.451	154.28
222.669	62.12
222.887	6.83
223.105	-11.61
223.323	33.45
223.541	12.97
223.759	31.4
223.977	4.78
224.195	96.94
224.413	113.32
224.631	17.07
224.849	72.36
225.067	107.18
225.285	8.87
225.503	-19.8
225.721	0.68
225.939	72.36
226.157	70.31
226.375	144.04
226.592	12.97
226.81	-50.52
227.028	21.16
227.246	60.07
227.464	60.07
227.682	82.6
227.9	17.07
228.117	47.79
228.335	64.17
228.553	29.35
228.771	4.78
228.989	10.92
229.206	35.5
229.424	66.22
229.642	49.83
229.86	-64.85
230.077	127.66
230.295	66.22
230.513	58.03
230.731	41.64
230.948	84.65
231.166	105.13
231.384	47.79
231.601	-48.47
231.819	37.55
232.037	-15.7
232.254	-48.47
232.472	74.41
232.689	-3.41
232.907	68.27
233.125	51.88
233.342	45.74
233.56	12.97
233.777	4.78
233.995	58.03
234.213	27.31
234.43	2.73
234.648	76.46
234.865	21.16
235.083	123.56
235.3	62.12
235.518	2.73
235.735	41.64
235.953	137.9
236.17	8.87
236.388	4.78
236.605	66.22
236.822	39.59
237.04	115.37
237.257	-1.37
237.475	-15.7
237.692	64.17
237.909	88.75
238.127	-15.7
238.344	47.79
238.562	90.79
238.779	33.45
238.996	51.88
239.214	-62.8
239.431	43.69
239.648	-7.51
239.865	66.22
240.083	17.07
240.3	103.08
240.517	-3.41
240.735	66.22
240.952	70.31
241.169	62.12
241.386	58.03
241.603	8.87
241.821	64.17
242.038	98.99
242.255	94.89
242.472	37.55
242.689	58.03
242.907	25.26
243.124	0.68
243.341	37.55
243.558	23.21
243.775	76.46
243.992	-3.41
244.209	33.45
244.426	62.12
244.643	66.22
244.86	17.07
245.078	51.88
245.295	21.16
245.512	12.97
245.729	107.18
245.946	-13.65
246.163	39.59
246.38	29.35
246.597	66.22
246.814	17.07
247.031	-5.46
247.248	49.83
247.464	27.31
247.681	10.92
247.898	25.26
248.115	119.46
248.332	-34.13
248.549	96.94
248.766	17.07
248.983	0.68
249.2	27.31
249.417	19.11
249.633	12.97
249.85	23.21
250.067	76.46
250.284	4.78
250.501	80.55
250.717	107.18
250.934	37.55
251.151	86.7
251.368	55.98
251.585	64.17
251.801	119.46
252.018	-34.13
252.235	31.4
252.451	35.5
252.668	101.03
252.885	70.31
253.102	25.26
253.318	64.17
253.535	66.22
253.752	-23.89
253.968	29.35
254.185	19.11
254.401	55.98
254.618	-32.08
254.835	8.87
255.051	0.68
255.268	2.73
255.484	43.69
255.701	41.64
255.917	51.88
256.134	-27.99
256.351	55.98
256.567	49.83
256.784	31.4
257	31.4
257.217	64.17
257.433	51.88
257.65	-27.99
257.866	60.07
258.082	35.5
258.299	21.16
258.515	107.18
258.732	-85.33
258.948	-27.99
259.165	80.55
259.381	-7.51
259.597	41.64
259.814	6.83
260.03	62.12
260.246	0.68
260.463	107.18
260.679	70.31
260.895	6.83
261.112	113.32
261.328	25.26
261.544	8.87
261.761	111.27
261.977	78.51
262.193	-36.18
262.409	55.98
262.626	64.17
262.842	29.35
263.058	55.98
263.274	25.26
263.49	80.55
263.707	62.12
263.923	76.46
264.139	31.4
264.355	-3.41
264.571	43.69
264.787	45.74
265.004	8.87
265.22	27.31
265.436	35.5
265.652	47.79
265.868	76.46
266.084	60.07
266.3	84.65
266.516	-15.7
266.732	-30.04
266.948	60.07
267.164	70.31
267.38	105.13
267.596	55.98
267.812	66.22
268.028	21.16
268.244	82.6
268.46	49.83
268.676	39.59
268.892	70.31
269.108	-9.56
269.324	60.07
269.54	-15.7
269.756	72.36
269.972	-11.61
270.188	37.55
270.403	-48.47
270.619	121.51
270.835	-5.46
271.051	78.51
271.267	31.4
271.483	74.41
271.698	31.4
271.914	-15.7
272.13	49.83
272.346	0.68
272.562	23.21
272.777	70.31
272.993	-23.89
273.209	6.83
273.425	64.17
273.64	12.97
273.856	49.83
274.072	74.41
274.287	17.07
274.503	72.36
274.719	76.46
274.934	117.42
275.15	35.5
275.366	113.32
275.581	25.26
275.797	41.64
276.012	62.12
276.228	10.92
276.444	58.03
276.659	178.86
276.875	70.31
277.09	66.22
277.306	41.64
277.521	117.42
277.737	60.07
277.952	29.35
278.168	113.32
278.383	49.83
278.599	33.45
278.814	86.7
279.03	37.55
279.245	37.55
279.461	17.07
279.676	80.55
279.892	-5.46
280.107	25.26
280.322	35.5
280.538	123.56
280.753	-1.37
280.969	72.36
281.184	6.83
281.399	137.9
281.615	98.99
281.83	105.13
282.045	92.84
282.26	74.41
282.476	39.59
282.691	43.69
282.906	90.79
283.122	105.13
283.337	60.07
283.552	23.21
283.767	58.03
283.983	88.75
284.198	25.26
284.413	82.6
284.628	-34.13
284.843	64.17
285.058	-3.41
285.274	-9.56
285.489	10.92
285.704	125.61
285.919	94.89
286.134	37.55
286.349	78.51
286.564	31.4
286.779	82.6
286.995	53.93
287.21	-52.56
287.425	58.03
287.64	45.74
287.855	64.17
288.07	4.78
288.285	92.84
288.5	98.99
288.715	35.5
288.93	117.42
289.145	-19.8
289.36	105.13
289.575	43.69
289.79	72.36
290.004	33.45
290.219	96.94
290.434	58.03
290.649	78.51
290.864	58.03
291.079	47.79
291.294	12.97
291.509	0.68
291.724	70.31
291.938	43.69
292.153	49.83
292.368	0.68
292.583	64.17
292.798	166.57
293.012	39.59
293.227	29.35
293.442	88.75
293.657	6.83
293.871	82.6
294.086	-15.7
294.301	66.22
294.516	117.42
294.73	17.07
294.945	55.98
295.16	49.83
295.374	6.83
295.589	78.51
295.804	94.89
296.018	49.83
296.233	68.27
296.447	101.03
296.662	-15.7
296.877	25.26
297.091	-40.28
297.306	60.07
297.52	49.83
297.735	103.08
297.949	41.64
298.164	-3.41
298.378	17.07
298.593	39.59
298.807	66.22
299.022	41.64
299.236	86.7
299.451	66.22
299.665	98.99
299.88	58.03
300.094	41.64
300.309	-17.75
300.523	58.03
300.737	-5.46
300.952	2.73
301.166	133.8
301.381	49.83
301.595	58.03
301.809	37.55
302.024	37.55
302.238	98.99
302.452	70.31
302.667	47.79
302.881	74.41
303.095	76.46
303.309	17.07
303.524	88.75
303.738	103.08
303.952	49.83
304.166	98.99
304.381	53.93
304.595	119.46
304.809	4.78
305.023	-32.08
305.237	0.68
305.452	76.46
305.666	53.93
305.88	51.88
306.094	12.97
306.308	15.02
306.522	76.46
306.736	80.55
306.95	103.08
307.164	78.51
307.379	53.93
307.593	133.8
307.807	17.07
308.021	131.75
308.235	94.89
308.449	70.31
308.663	29.35
308.877	78.51
309.091	111.27
309.305	66.22
309.519	8.87
309.733	76.46
309.947	10.92
310.161	103.08
310.374	0.68
310.588	90.79
310.802	82.6
311.016	10.92
311.23	23.21
311.444	6.83
311.658	49.83
311.872	96.94
312.085	105.13
312.299	74.41
312.513	137.9
312.727	70.31
312.941	55.98
313.154	66.22
313.368	115.37
313.582	4.78
313.796	17.07
314.009	74.41
314.223	115.37
314.437	60.07
314.651	64.17
314.864	51.88
315.078	62.12
315.292	53.93
315.505	31.4
315.719	43.69
315.933	2.73
316.146	8.87
316.36	-23.89
316.573	53.93
316.787	88.75
317.001	72.36
317.214	37.55
317.428	107.18
317.641	-19.8
317.855	17.07
318.068	82.6
318.282	109.23
318.495	123.56
318.709	127.66
318.922	45.74
319.136	64.17
319.349	84.65
319.563	31.4
319.776	76.46
319.99	35.5
320.203	51.88
320.417	84.65
320.63	74.41
320.843	68.27
321.057	74.41
321.27	27.31
321.483	117.42
321.697	19.11
321.91	127.66
322.124	144.04
322.337	74.41
322.55	70.31
322.763	39.59
322.977	39.59
323.19	58.03
323.403	66.22
323.617	64.17
323.83	92.84
324.043	78.51
324.256	60.07
324.469	105.13
324.683	82.6
324.896	41.64
325.109	0.68
325.322	39.59
325.535	39.59
325.748	74.41
325.962	49.83
326.175	66.22
326.388	27.31
326.601	62.12
326.814	47.79
327.027	-17.75
327.24	103.08
327.453	62.12
327.666	103.08
327.879	47.79
328.092	139.94
328.305	33.45
328.518	92.84
328.731	84.65
328.944	45.74
329.157	78.51
329.37	47.79
329.583	135.85
329.796	47.79
330.009	-21.84
330.222	139.94
330.435	178.86
330.648	90.79
330.861	58.03
331.073	29.35
331.286	66.22
331.499	53.93
331.712	4.78
331.925	55.98
332.138	41.64
332.35	98.99
332.563	-40.28
332.776	111.27
332.989	27.31
333.202	27.31
333.414	80.55
333.627	4.78
333.84	10.92
334.053	37.55
334.265	37.55
334.478	6.83
334.691	113.32
334.903	68.27
335.116	101.03
335.329	74.41
335.541	76.46
335.754	84.65
335.966	66.22
336.179	72.36
336.392	15.02
336.604	101.03
336.817	74.41
337.029	115.37
337.242	19.11
337.454	39.59
337.667	64.17
337.88	90.79
338.092	37.55
338.305	123.56
338.517	35.5
338.729	150.18
338.942	129.7
339.154	98.99
339.367	12.97
339.579	127.66
339.792	86.7
340.004	92.84
340.217	23.21
340.429	78.51
340.641	35.5
340.854	29.35
341.066	45.74
341.278	41.64
341.491	92.84
341.703	58.03
341.915	35.5
342.128	62.12
342.34	98.99
342.552	70.31
342.764	53.93
342.977	70.31
343.189	45.74
343.401	86.7
343.613	17.07
343.826	-1.37
344.038	74.41
344.25	94.89
344.462	115.37
344.674	68.27
344.886	19.11
345.099	41.64
345.311	23.21
345.523	19.11
345.735	17.07
345.947	80.55
346.159	15.02
346.371	158.38
346.583	62.12
346.795	103.08
347.007	53.93
347.219	78.51
347.431	27.31
347.643	127.66
347.855	51.88
348.067	135.85
348.279	-3.41
348.491	41.64
348.703	23.21
348.915	82.6
349.127	72.36
349.339	76.46
349.551	55.98
349.763	55.98
349.975	101.03
350.187	96.94
350.399	72.36
350.61	-25.94
350.822	64.17
351.034	51.88
351.246	76.46
351.458	66.22
351.669	115.37
351.881	119.46
352.093	98.99
352.305	125.61
352.517	53.93
352.728	70.31
352.94	94.89
353.152	96.94
353.363	21.16
353.575	90.79
353.787	113.32
353.999	107.18
354.21	166.57
354.422	96.94
354.633	51.88
354.845	53.93
355.057	6.83
355.268	78.51
355.48	47.79
355.692	31.4
355.903	168.62
356.115	25.26
356.326	45.74
356.538	96.94
356.749	39.59
356.961	49.83
357.172	127.66
357.384	74.41
357.595	94.89
357.807	64.17
358.018	33.45
358.23	53.93
358.441	78.51
358.653	10.92
358.864	41.64
359.075	12.97
359.287	51.88
359.498	117.42
359.709	51.88
359.921	17.07
360.132	84.65
360.344	31.4
360.555	62.12
360.766	-11.61
360.977	115.37
361.189	139.94
361.4	23.21
361.611	125.61
361.823	137.9
362.034	70.31
362.245	82.6
362.456	8.87
362.667	101.03
362.879	72.36
363.09	19.11
363.301	17.07
363.512	33.45
363.723	45.74
363.935	84.65
364.146	162.47
364.357	55.98
364.568	58.03
364.779	35.5
364.99	23.21
365.201	101.03
365.412	127.66
365.623	33.45
365.834	45.74
366.045	12.97
366.256	64.17
366.467	92.84
366.678	68.27
366.889	78.51
367.1	109.23
367.311	84.65
367.522	96.94
367.733	47.79
367.944	19.11
368.155	74.41
368.366	92.84
368.577	98.99
368.788	68.27
368.999	47.79
369.209	68.27
369.42	82.6
369.631	178.86
369.842	123.56
370.053	76.46
370.264	139.94
370.474	82.6
370.685	62.12
370.896	78.51
371.107	121.51
371.317	115.37
371.528	66.22
371.739	105.13
371.95	51.88
372.16	76.46
372.371	86.7
372.582	133.8
372.792	94.89
373.003	12.97
373.214	-9.56
373.424	135.85
373.635	53.93
373.846	131.75
374.056	80.55
374.267	47.79
374.477	144.04
374.688	90.79
374.898	139.94
375.109	86.7
375.319	127.66
375.53	123.56
375.74	96.94
375.951	139.94
376.161	51.88
376.372	109.23
376.582	23.21
376.793	119.46
377.003	-9.56
377.214	58.03
377.424	115.37
377.635	144.04
377.845	53.93
378.055	70.31
378.266	105.13
378.476	19.11
378.686	94.89
378.897	70.31
379.107	86.7
379.317	139.94
379.528	115.37
379.738	129.7
379.948	58.03
380.158	35.5
380.369	90.79
380.579	25.26
380.789	39.59
380.999	129.7
381.21	19.11
381.42	117.42
381.63	78.51
381.84	113.32
382.05	92.84
382.261	164.52
382.471	58.03
382.681	86.7
382.891	62.12
383.101	66.22
383.311	21.16
383.521	51.88
383.731	107.18
383.941	58.03
384.151	103.08
384.361	137.9
384.571	15.02
384.781	82.6
384.991	80.55
385.201	119.46
385.411	35.5
385.621	131.75
385.831	39.59
386.041	74.41
386.251	98.99
386.461	131.75
386.671	82.6
386.881	127.66
387.091	62.12
387.301	121.51
387.511	148.14
387.72	92.84
387.93	80.55
388.14	58.03
388.35	127.66
388.56	121.51
388.769	103.08
388.979	158.38
389.189	88.75
389.399	74.41
389.609	164.52
389.818	103.08
390.028	109.23
390.238	53.93
390.447	21.16
390.657	152.23
390.867	86.7
391.076	45.74
391.286	88.75
391.496	98.99
391.705	94.89
391.915	166.57
392.125	64.17
392.334	107.18
392.544	152.23
392.753	111.27
392.963	139.94
393.172	119.46
393.382	55.98
393.591	168.62
393.801	101.03
394.01	209.58
394.22	125.61
394.429	146.09
394.639	78.51
394.848	156.33
395.058	107.18
395.267	123.56
395.477	92.84
395.686	164.52
395.895	164.52
396.105	123.56
396.314	74.41
396.524	86.7
396.733	156.33
396.942	160.42
397.152	154.28
397.361	180.9
397.57	68.27
397.78	35.5
397.989	62.12
398.198	166.57
398.407	172.71
398.617	160.42
398.826	170.66
399.035	76.46
399.244	111.27
399.453	123.56
399.663	211.62
399.872	170.66
400.081	123.56
400.29	119.46
400.499	205.48
400.708	168.62
400.917	148.14
401.127	176.81
401.336	117.42
401.545	195.24
401.754	189.1
401.963	215.72
402.172	176.81
402.381	176.81
402.59	146.09
402.799	164.52
403.008	193.19
403.217	203.43
403.426	281.25
403.635	146.09
403.844	197.29
404.053	182.95
404.262	84.65
404.471	252.58
404.68	246.44
404.888	201.38
405.097	232.1
405.306	211.62
405.515	238.25
405.724	195.24
405.933	242.34
406.142	232.1
406.35	258.73
406.559	193.19
406.768	217.77
406.977	318.12
407.185	336.55
407.394	303.78
407.603	228.01
407.812	318.12
408.02	336.55
408.229	381.6
408.438	326.31
408.646	201.38
408.855	285.35
409.064	365.22
409.272	361.13
409.481	477.86
409.69	361.13
409.898	377.51
410.107	443.04
410.315	477.86
410.524	414.37
410.733	459.43
410.941	365.22
411.15	506.53
411.358	506.53
411.567	533.15
411.775	512.67
411.984	613.03
412.192	625.31
412.401	649.89
412.609	694.94
412.818	557.73
413.026	744.1
413.234	684.7
413.443	672.42
413.651	686.75
413.86	879.26
414.068	811.68
414.276	871.07
414.485	901.79
414.693	803.49
414.901	909.98
415.11	940.7
415.318	1041.05
415.526	1032.86
415.734	1073.82
415.943	1077.91
416.151	1102.49
416.359	1143.45
416.567	1280.66
416.776	1254.04
416.984	1319.57
417.192	1358.49
417.4	1354.39
417.608	1323.67
417.817	1424.02
418.025	1518.23
418.233	1557.14
418.441	1583.76
418.649	1606.29
418.857	1727.12
419.065	1792.66
419.273	1796.75
419.481	1958.54
419.689	2093.71
419.897	2042.51
420.105	2159.24
420.313	2210.44
420.521	2335.37
420.729	2450.05
420.937	2378.37
421.145	2384.52
421.353	2613.89
421.561	2704
421.769	2720.39
421.977	2992.77
422.185	2714.24
422.393	3058.3
422.601	3269.24
422.809	3175.03
423.017	3369.59
423.224	3302.01
423.432	3566.2
423.64	3437.17
423.848	3721.84
424.056	3803.76
424.263	4045.42
424.471	4076.14
424.679	4115.05
424.887	4442.73
425.094	4405.86
425.302	4563.56
425.51	4596.32
425.718	4817.51
425.925	4805.22
426.133	5050.97
426.341	5425.75
426.548	5651.03
426.756	5694.04
426.964	5577.3
427.171	6036.05
427.379	6079.05
427.586	6240.84
427.794	6509.13
428.001	6797.89
428.209	6984.26
428.417	6920.77
428.624	7406.14
428.832	7479.86
429.039	7524.92
429.247	7395.9
429.454	8100.4
429.662	8544.81
429.869	8196.65
430.076	8675.88
430.284	8430.12
430.491	8788.52
430.699	9409.05
430.906	9525.79
431.114	9333.28
431.321	9701.91
431.528	9892.37
431.736	10699.27
431.943	11004.42
432.15	10885.64
432.358	10732.04
432.565	11547.13
432.772	11534.84
432.979	12153.33
433.187	12378.61
433.394	12306.93
433.601	13185.51
433.808	13009.38
434.016	12968.42
434.223	13611.48
434.43	14416.33
434.637	14176.72
434.844	15067.59
435.052	15499.71
435.259	15172.04
435.466	15677.88
435.673	15243.71
435.88	16458.16
436.087	17095.08
436.294	17463.71
436.501	16912.81
436.708	17140.13
436.915	17549.73
437.122	18796.94
437.329	18485.65
437.537	19130.76
437.743	19376.51
437.95	19151.24
438.157	20216.18
438.364	20836.72
438.571	20799.85
438.778	21004.65
438.985	23028.04
439.192	22026.59
439.399	22780.24
439.606	22307.16
439.813	23177.54
440.02	25022.76
440.227	24529.2
440.433	24293.69
440.64	25059.63
440.847	25014.57
441.054	25448.74
441.261	27343.11
441.467	27029.77
441.674	27429.13
441.881	28360.95
442.088	28461.3
442.294	28072.19
442.501	28690.68
442.708	29231.34
442.914	30394.59
443.121	31856.84
443.328	31080.66
443.534	33441.96
443.741	32172.22
443.948	31475.91
444.154	34056.35
444.361	33910.95
444.568	34074.79
444.774	34244.77
444.981	34560.16
445.187	35901.57
445.394	37025.91
445.6	36284.54
445.807	40317
446.013	38373.47
446.22	39057.49
446.426	40228.93
446.633	40626.24
446.839	42055.72
447.046	40169.54
447.252	42543.14
447.459	42559.52
447.665	42180.65
447.871	44066.83
448.078	45918.19
448.284	43515.92
448.491	45408.25
448.697	46491.62
448.903	47228.89
449.11	47706.07
449.316	46749.67
449.522	47335.38
449.728	48586.69
449.935	49201.08
450.141	48844.74
450.347	49835.95
450.553	48429
450.76	48687.04
450.966	50282.41
451.172	49942.45
451.378	50608.04
451.584	49565.62
451.791	50866.08
451.997	50444.2
452.203	51527.58
452.409	51197.85
452.615	51169.18
452.821	49215.42
453.027	48699.33
453.233	51292.06
453.44	48611.27
453.646	49375.16
453.852	49362.87
454.058	50153.39
454.264	48433.1
454.47	49543.09
454.676	48199.63
454.882	50399.15
455.088	45420.53
455.294	45914.09
455.5	46421.99
455.705	47312.86
455.911	45563.89
456.117	44398.6
456.323	43407.38
456.529	41207.86
456.735	43085.85
456.941	41795.63
457.147	40937.53
457.352	39913.55
457.558	39280.72
457.764	39075.93
457.97	38631.52
458.176	37986.41
458.381	37644.4
458.587	35801.22
458.793	35786.89
458.999	34087.07
459.204	36606.08
459.41	35156.11
459.616	32919.73
459.821	32893.11
460.027	32995.51
460.233	32239.81
460.438	30580.95
460.644	31062.22
460.85	29571.3
461.055	29098.22
461.261	29081.84
461.466	27115.79
461.672	25809.18
461.878	28260.6
462.083	26368.28
462.289	25743.65
462.494	25303.34
462.7	24361.27
462.905	23660.87
463.111	24475.96
463.316	24670.51
463.522	24115.51
463.727	24334.65
463.932	23900.48
464.138	23914.81
464.343	23912.77
464.549	23343.43
464.754	23959.87
464.959	24084.8
465.165	23394.63
465.37	22866.25
465.575	22188.38
465.781	23114.06
465.986	23048.52
466.191	22163.8
466.397	21803.36
