Data from USB4F104151__47__10-23-27-375.txt Node

Date: Wed Mar 12 10:23:27 EDT 2025
User: louis
Spectrometer: USB4F10415
Trigger mode: 4
Integration Time (sec): 3.000000E-2
Scans to average: 1
Electric dark correction enabled: true
Nonlinearity correction enabled: false
Boxcar width: 0
XAxis mode: Wavelengths
Number of Pixels in Spectrum: 3648
>>>>>Begin Spectral Data<<<<<
178.204	-110.42
178.424	-110.42
178.644	-110.42
178.864	-114.52
179.084	-63.32
179.304	-48.98
179.524	-26.45
179.744	-28.5
179.964	55.47
180.184	-10.07
180.404	75.95
180.624	16.55
180.844	-42.84
181.064	39.08
181.283	30.89
181.503	-69.46
181.723	8.36
181.943	16.55
182.163	61.61
182.383	16.55
182.602	30.89
182.822	-24.4
183.042	-18.26
183.262	32.94
183.482	-55.12
183.701	-24.4
183.921	-8.02
184.141	-12.12
184.361	10.41
184.58	8.36
184.8	2.22
185.02	-3.93
185.239	-16.21
185.459	6.31
185.679	12.46
185.898	22.7
186.118	45.23
186.338	69.8
186.557	0.17
186.777	-44.88
186.997	-3.93
187.216	30.89
187.436	82.09
187.655	49.32
187.875	53.42
188.095	-8.02
188.314	-34.64
188.534	-16.21
188.753	-1.88
188.973	4.27
189.192	49.32
189.412	34.99
189.631	22.7
189.851	82.09
190.07	104.62
190.29	-16.21
190.509	-48.98
190.729	24.75
190.948	12.46
191.168	90.28
191.387	92.33
191.607	-32.6
191.826	67.75
192.045	-36.69
192.265	4.27
192.484	8.36
192.704	0.17
192.923	22.7
193.142	75.95
193.362	65.71
193.581	22.7
193.8	-20.31
194.02	34.99
194.239	16.55
194.458	34.99
194.678	61.61
194.897	-18.26
195.116	22.7
195.335	26.79
195.555	24.75
195.774	10.41
195.993	-46.93
196.212	16.55
196.432	-8.02
196.651	55.47
196.87	22.7
197.089	53.42
197.308	-14.17
197.528	147.62
197.747	32.94
197.966	-12.12
198.185	51.37
198.404	28.84
198.623	2.22
198.842	-28.5
199.062	37.03
199.281	20.65
199.5	-16.21
199.719	-3.93
199.938	92.33
200.157	98.47
200.376	-81.75
200.595	0.17
200.814	-32.6
201.033	8.36
201.252	69.8
201.471	55.47
201.69	18.6
201.909	57.51
202.128	57.51
202.347	2.22
202.566	47.27
202.785	39.08
203.004	-22.36
203.223	-1.88
203.442	-24.4
203.661	32.94
203.879	47.27
204.098	41.13
204.317	41.13
204.536	32.94
204.755	16.55
204.974	34.99
205.193	-51.03
205.411	104.62
205.63	82.09
205.849	-53.08
206.068	24.75
206.287	4.27
206.505	55.47
206.724	75.95
206.943	8.36
207.162	55.47
207.381	-38.74
207.599	10.41
207.818	-75.6
208.037	57.51
208.255	-16.21
208.474	43.18
208.693	-12.12
208.911	57.51
209.13	-8.02
209.349	49.32
209.567	18.6
209.786	8.36
210.005	8.36
210.223	6.31
210.442	20.65
210.661	6.31
210.879	16.55
211.098	-30.55
211.316	43.18
211.535	43.18
211.753	16.55
211.972	57.51
212.191	16.55
212.409	2.22
212.628	-26.45
212.846	32.94
213.065	96.43
213.283	-18.26
213.502	14.51
213.72	-16.21
213.938	4.27
214.157	30.89
214.375	-24.4
214.594	32.94
214.812	69.8
215.031	37.03
215.249	0.17
215.467	28.84
215.686	22.7
215.904	26.79
216.122	30.89
216.341	104.62
216.559	-3.93
216.778	55.47
216.996	86.19
217.214	-30.55
217.432	-10.07
217.651	127.14
217.869	6.31
218.087	30.89
218.306	-34.64
218.524	-24.4
218.742	-65.36
218.96	82.09
219.179	-22.36
219.397	-55.12
219.615	-20.31
219.833	65.71
220.051	-28.5
220.27	94.38
220.488	14.51
220.706	37.03
220.924	-34.64
221.142	12.46
221.36	-44.88
221.578	30.89
221.796	0.17
222.015	67.75
222.233	39.08
222.451	59.56
222.669	-100.18
222.887	24.75
223.105	-1.88
223.323	43.18
223.541	-63.32
223.759	51.37
223.977	-36.69
224.195	73.9
224.413	55.47
224.631	67.75
224.849	0.17
225.067	57.51
225.285	-53.08
225.503	45.23
225.721	71.85
225.939	-5.97
226.157	-8.02
226.375	30.89
226.592	6.31
226.81	32.94
227.028	77.99
227.246	51.37
227.464	121
227.682	53.42
227.9	96.43
228.117	37.03
228.335	55.47
228.553	12.46
228.771	32.94
228.989	26.79
229.206	16.55
229.424	-3.93
229.642	6.31
229.86	26.79
230.077	8.36
230.295	51.37
230.513	32.94
230.731	0.17
230.948	82.09
231.166	16.55
231.384	8.36
231.601	0.17
231.819	20.65
232.037	-36.69
232.254	-102.23
232.472	32.94
232.689	-1.88
232.907	-8.02
233.125	-26.45
233.342	67.75
233.56	37.03
233.777	-3.93
233.995	-16.21
234.213	28.84
234.43	-3.93
234.648	-20.31
234.865	4.27
235.083	65.71
235.3	-26.45
235.518	12.46
235.735	24.75
235.953	22.7
236.17	22.7
236.388	28.84
236.605	-5.97
236.822	53.42
237.04	16.55
237.257	18.6
237.475	84.14
237.692	104.62
237.909	45.23
238.127	-1.88
238.344	51.37
238.562	104.62
238.779	-67.41
238.996	-55.12
239.214	-48.98
239.431	8.36
239.648	12.46
239.865	55.47
240.083	53.42
240.3	32.94
240.517	-42.84
240.735	-28.5
240.952	57.51
241.169	80.04
241.386	41.13
241.603	59.56
241.821	4.27
242.038	39.08
242.255	8.36
242.472	0.17
242.689	90.28
242.907	16.55
243.124	24.75
243.341	88.23
243.558	10.41
243.775	12.46
243.992	26.79
244.209	22.7
244.426	28.84
244.643	77.99
244.86	-10.07
245.078	-34.64
245.295	73.9
245.512	2.22
245.729	41.13
245.946	77.99
246.163	-26.45
246.38	-57.17
246.597	65.71
246.814	49.32
247.031	-30.55
247.248	94.38
247.464	116.9
247.681	14.51
247.898	30.89
248.115	67.75
248.332	67.75
248.549	80.04
248.766	82.09
248.983	98.47
249.2	-36.69
249.417	71.85
249.633	32.94
249.85	6.31
250.067	28.84
250.284	71.85
250.501	104.62
250.717	26.79
250.934	-40.79
251.151	59.56
251.368	65.71
251.585	96.43
251.801	-32.6
252.018	4.27
252.235	80.04
252.451	41.13
252.668	-42.84
252.885	73.9
253.102	-57.17
253.318	-12.12
253.535	57.51
253.752	-75.6
253.968	0.17
254.185	69.8
254.401	22.7
254.618	22.7
254.835	-8.02
255.051	96.43
255.268	57.51
255.484	14.51
255.701	-14.17
255.917	88.23
256.134	-14.17
256.351	49.32
256.567	80.04
256.784	-24.4
257	71.85
257.217	98.47
257.433	-10.07
257.65	-14.17
257.866	43.18
258.082	65.71
258.299	-34.64
258.515	57.51
258.732	73.9
258.948	-10.07
259.165	43.18
259.381	73.9
259.597	-10.07
259.814	28.84
260.03	26.79
260.246	0.17
260.463	73.9
260.679	92.33
260.895	49.32
261.112	34.99
261.328	37.03
261.544	73.9
261.761	108.71
261.977	-26.45
262.193	24.75
262.409	82.09
262.626	-26.45
262.842	57.51
263.058	-28.5
263.274	-3.93
263.49	-1.88
263.707	14.51
263.923	8.36
264.139	-8.02
264.355	-44.88
264.571	30.89
264.787	43.18
265.004	73.9
265.22	65.71
265.436	-40.79
265.652	-8.02
265.868	32.94
266.084	12.46
266.3	0.17
266.516	61.61
266.732	67.75
266.948	18.6
267.164	6.31
267.38	4.27
267.596	63.66
267.812	24.75
268.028	110.76
268.244	-36.69
268.46	4.27
268.676	49.32
268.892	-10.07
269.108	24.75
269.324	-28.5
269.54	-20.31
269.756	65.71
269.972	-3.93
270.188	84.14
270.403	28.84
270.619	53.42
270.835	84.14
271.051	49.32
271.267	57.51
271.483	49.32
271.698	22.7
271.914	59.56
272.13	16.55
272.346	-20.31
272.562	-14.17
272.777	67.75
272.993	-5.97
273.209	-10.07
273.425	49.32
273.64	0.17
273.856	34.99
274.072	37.03
274.287	24.75
274.503	39.08
274.719	49.32
274.934	65.71
275.15	-20.31
275.366	24.75
275.581	10.41
275.797	43.18
276.012	49.32
276.228	18.6
276.444	28.84
276.659	57.51
276.875	12.46
277.09	28.84
277.306	-24.4
277.521	80.04
277.737	41.13
277.952	6.31
278.168	16.55
278.383	41.13
278.599	18.6
278.814	-59.22
279.03	53.42
279.245	100.52
279.461	39.08
279.676	-24.4
279.892	-69.46
280.107	69.8
280.322	65.71
280.538	123.05
280.753	30.89
280.969	-32.6
281.184	8.36
281.399	0.17
281.615	8.36
281.83	59.56
282.045	-18.26
282.26	-8.02
282.476	24.75
282.691	69.8
282.906	2.22
283.122	22.7
283.337	6.31
283.552	41.13
283.767	90.28
283.983	45.23
284.198	-1.88
284.413	57.51
284.628	-26.45
284.843	10.41
285.058	16.55
285.274	39.08
285.489	24.75
285.704	39.08
285.919	4.27
286.134	2.22
286.349	12.46
286.564	22.7
286.779	32.94
286.995	57.51
287.21	16.55
287.425	-22.36
287.64	18.6
287.855	86.19
288.07	16.55
288.285	69.8
288.5	57.51
288.715	6.31
288.93	-12.12
289.145	-24.4
289.36	-30.55
289.575	26.79
289.79	49.32
290.004	18.6
290.219	30.89
290.434	34.99
290.649	63.66
290.864	67.75
291.079	-18.26
291.294	65.71
291.509	-67.41
291.724	24.75
291.938	4.27
292.153	77.99
292.368	84.14
292.583	37.03
292.798	0.17
293.012	-8.02
293.227	-26.45
293.442	39.08
293.657	71.85
293.871	34.99
294.086	39.08
294.301	47.27
294.516	37.03
294.73	47.27
294.945	6.31
295.16	6.31
295.374	41.13
295.589	6.31
295.804	57.51
296.018	43.18
296.233	16.55
296.447	86.19
296.662	6.31
296.877	55.47
297.091	63.66
297.306	8.36
297.52	73.9
297.735	-8.02
297.949	18.6
298.164	100.52
298.378	41.13
298.593	47.27
298.807	-24.4
299.022	45.23
299.236	98.47
299.451	39.08
299.665	63.66
299.88	51.37
300.094	39.08
300.309	20.65
300.523	65.71
300.737	-8.02
300.952	65.71
301.166	10.41
301.381	-24.4
301.595	10.41
301.809	-5.97
302.024	80.04
302.238	-30.55
302.452	86.19
302.667	65.71
302.881	39.08
303.095	28.84
303.309	32.94
303.524	39.08
303.738	37.03
303.952	-24.4
304.166	123.05
304.381	-53.08
304.595	53.42
304.809	-16.21
305.023	57.51
305.237	43.18
305.452	32.94
305.666	69.8
305.88	-18.26
306.094	18.6
306.308	47.27
306.522	98.47
306.736	71.85
306.95	45.23
307.164	49.32
307.379	47.27
307.593	114.86
307.807	49.32
308.021	-1.88
308.235	131.24
308.449	18.6
308.663	20.65
308.877	71.85
309.091	24.75
309.305	84.14
309.519	2.22
309.733	22.7
309.947	30.89
310.161	98.47
310.374	18.6
310.588	73.9
310.802	2.22
311.016	6.31
311.23	45.23
311.444	10.41
311.658	65.71
311.872	37.03
312.085	82.09
312.299	69.8
312.513	22.7
312.727	10.41
312.941	-20.31
313.154	20.65
313.368	0.17
313.582	49.32
313.796	51.37
314.009	12.46
314.223	6.31
314.437	53.42
314.651	45.23
314.864	63.66
315.078	77.99
315.292	-20.31
315.505	16.55
315.719	12.46
315.933	69.8
316.146	-24.4
316.36	-8.02
316.573	0.17
316.787	28.84
317.001	49.32
317.214	6.31
317.428	37.03
317.641	-8.02
317.855	39.08
318.068	37.03
318.282	14.51
318.495	8.36
318.709	67.75
318.922	-26.45
319.136	32.94
319.349	49.32
319.563	43.18
319.776	16.55
319.99	20.65
320.203	-8.02
320.417	-10.07
320.63	90.28
320.843	55.47
321.057	39.08
321.27	24.75
321.483	18.6
321.697	86.19
321.91	6.31
322.124	28.84
322.337	-12.12
322.55	-18.26
322.763	-12.12
322.977	10.41
323.19	-20.31
323.403	-36.69
323.617	61.61
323.83	43.18
324.043	0.17
324.256	55.47
324.469	-1.88
324.683	28.84
324.896	-1.88
325.109	-5.97
325.322	-3.93
325.535	30.89
325.748	8.36
325.962	20.65
326.175	67.75
326.388	-1.88
326.601	106.67
326.814	10.41
327.027	53.42
327.24	114.86
327.453	-32.6
327.666	26.79
327.879	102.57
328.092	59.56
328.305	77.99
328.518	4.27
328.731	0.17
328.944	24.75
329.157	84.14
329.37	20.65
329.583	63.66
329.796	96.43
330.009	-30.55
330.222	65.71
330.435	108.71
330.648	32.94
330.861	77.99
331.073	59.56
331.286	82.09
331.499	32.94
331.712	32.94
331.925	-26.45
332.138	6.31
332.35	39.08
332.563	-36.69
332.776	20.65
332.989	-14.17
333.202	20.65
333.414	80.04
333.627	6.31
333.84	-8.02
334.053	14.51
334.265	121
334.478	43.18
334.691	-34.64
334.903	-16.21
335.116	8.36
335.329	41.13
335.541	98.47
335.754	121
335.966	69.8
336.179	28.84
336.392	12.46
336.604	32.94
336.817	98.47
337.029	41.13
337.242	37.03
337.454	20.65
337.667	69.8
337.88	69.8
338.092	-1.88
338.305	28.84
338.517	-3.93
338.729	-20.31
338.942	43.18
339.154	28.84
339.367	53.42
339.579	37.03
339.792	37.03
340.004	-1.88
340.217	-18.26
340.429	102.57
340.641	8.36
340.854	-36.69
341.066	94.38
341.278	65.71
341.491	84.14
341.703	61.61
341.915	24.75
342.128	96.43
342.34	10.41
342.552	57.51
342.764	28.84
342.977	71.85
343.189	24.75
343.401	135.34
343.613	-24.4
343.826	47.27
344.038	88.23
344.25	-8.02
344.462	57.51
344.674	24.75
344.886	8.36
345.099	26.79
345.311	123.05
345.523	39.08
345.735	12.46
345.947	41.13
346.159	-14.17
346.371	-10.07
346.583	8.36
346.795	41.13
347.007	84.14
347.219	92.33
347.431	34.99
347.643	10.41
347.855	49.32
348.067	82.09
348.279	-42.84
348.491	-8.02
348.703	71.85
348.915	2.22
349.127	55.47
349.339	65.71
349.551	28.84
349.763	102.57
349.975	86.19
350.187	41.13
350.399	123.05
350.61	65.71
350.822	-20.31
351.034	77.99
351.246	106.67
351.458	34.99
351.669	12.46
351.881	75.95
352.093	125.1
352.305	84.14
352.517	39.08
352.728	-22.36
352.94	16.55
353.152	30.89
353.363	12.46
353.575	47.27
353.787	84.14
353.999	41.13
354.21	41.13
354.422	37.03
354.633	53.42
354.845	75.95
355.057	-20.31
355.268	73.9
355.48	28.84
355.692	0.17
355.903	-3.93
356.115	14.51
356.326	-20.31
356.538	30.89
356.749	86.19
356.961	30.89
357.172	8.36
357.384	45.23
357.595	90.28
357.807	30.89
358.018	18.6
358.23	114.86
358.441	84.14
358.653	84.14
358.864	104.62
359.075	24.75
359.287	49.32
359.498	77.99
359.709	47.27
359.921	-5.97
360.132	49.32
360.344	24.75
360.555	12.46
360.766	39.08
360.977	59.56
361.189	57.51
361.4	98.47
361.611	22.7
361.823	100.52
362.034	129.19
362.245	0.17
362.456	0.17
362.667	20.65
362.879	39.08
363.09	8.36
363.301	41.13
363.512	57.51
363.723	-5.97
363.935	61.61
364.146	92.33
364.357	-10.07
364.568	90.28
364.779	57.51
364.99	77.99
365.201	49.32
365.412	77.99
365.623	12.46
365.834	86.19
366.045	-3.93
366.256	63.66
366.467	75.95
366.678	57.51
366.889	12.46
367.1	34.99
367.311	18.6
367.522	77.99
367.733	-1.88
367.944	28.84
368.155	-14.17
368.366	59.56
368.577	30.89
368.788	82.09
368.999	49.32
369.209	57.51
369.42	43.18
369.631	159.91
369.842	8.36
370.053	-5.97
370.264	34.99
370.474	14.51
370.685	20.65
370.896	96.43
371.107	80.04
371.317	30.89
371.528	8.36
371.739	43.18
371.95	39.08
372.16	53.42
372.371	-12.12
372.582	47.27
372.792	47.27
373.003	92.33
373.214	30.89
373.424	53.42
373.635	39.08
373.846	57.51
374.056	24.75
374.267	86.19
374.477	112.81
374.688	28.84
374.898	-8.02
375.109	37.03
375.319	24.75
375.53	108.71
375.74	98.47
375.951	16.55
376.161	8.36
376.372	53.42
376.582	39.08
376.793	84.14
377.003	57.51
377.214	61.61
377.424	28.84
377.635	61.61
377.845	14.51
378.055	123.05
378.266	45.23
378.476	32.94
378.686	14.51
378.897	75.95
379.107	61.61
379.317	41.13
379.528	57.51
379.738	100.52
379.948	12.46
380.158	94.38
380.369	6.31
380.579	18.6
380.789	-20.31
380.999	67.75
381.21	30.89
381.42	151.72
381.63	41.13
381.84	88.23
382.05	69.8
382.261	16.55
382.471	69.8
382.681	86.19
382.891	77.99
383.101	57.51
383.311	-32.6
383.521	30.89
383.731	84.14
383.941	98.47
384.151	-1.88
384.361	49.32
384.571	147.62
384.781	84.14
384.991	77.99
385.201	116.9
385.411	65.71
385.621	92.33
385.831	-1.88
386.041	32.94
386.251	-22.36
386.461	92.33
386.671	121
386.881	43.18
387.091	49.32
387.301	53.42
387.511	59.56
387.72	43.18
387.93	75.95
388.14	12.46
388.35	20.65
388.56	104.62
388.769	63.66
388.979	135.34
389.189	45.23
389.399	127.14
389.609	75.95
389.818	63.66
390.028	102.57
390.238	59.56
390.447	61.61
390.657	71.85
390.867	49.32
391.076	39.08
391.286	92.33
391.496	65.71
391.705	123.05
391.915	129.19
392.125	43.18
392.334	166.06
392.544	75.95
392.753	39.08
392.963	69.8
393.172	90.28
393.382	22.7
393.591	180.39
393.801	45.23
394.01	123.05
394.22	73.9
394.429	96.43
394.639	82.09
394.848	75.95
395.058	57.51
395.267	82.09
395.477	49.32
395.686	67.75
395.895	147.62
396.105	159.91
396.314	100.52
396.524	118.95
396.733	18.6
396.942	157.86
397.152	22.7
397.361	96.43
397.57	106.67
397.78	41.13
397.989	77.99
398.198	207.02
398.407	112.81
398.617	98.47
398.826	65.71
399.035	94.38
399.244	145.58
399.453	114.86
399.663	166.06
399.872	164.01
400.081	149.67
400.29	116.9
400.499	151.72
400.708	145.58
400.917	170.15
401.127	41.13
401.336	61.61
401.545	145.58
401.754	153.77
401.963	96.43
402.172	143.53
402.381	161.96
402.59	145.58
402.799	98.47
403.008	166.06
403.217	92.33
403.426	139.43
403.635	100.52
403.844	141.48
404.053	32.94
404.262	147.62
404.471	159.91
404.68	129.19
404.888	168.1
405.097	164.01
405.306	137.38
405.515	174.25
405.724	200.87
405.933	114.86
406.142	196.78
406.35	188.58
406.559	194.73
406.768	198.82
406.977	213.16
407.185	223.4
407.394	166.06
407.603	178.34
407.812	284.84
408.02	280.74
408.229	211.11
408.438	215.21
408.646	200.87
408.855	280.74
409.064	262.31
409.272	258.21
409.481	389.28
409.69	342.18
409.898	317.61
410.107	311.46
410.315	368.81
410.524	344.23
410.733	364.71
410.941	336.04
411.15	366.76
411.358	377
411.567	458.92
411.775	397.48
411.984	430.24
412.192	479.4
412.401	467.11
412.609	540.83
412.818	614.56
413.026	497.83
413.234	622.75
413.443	563.36
413.651	585.89
413.86	614.56
414.068	655.52
414.276	614.56
414.485	794.78
414.693	725.15
414.901	796.83
415.11	794.78
415.318	829.6
415.526	792.73
415.734	802.97
415.943	891.04
416.151	921.76
416.359	944.28
416.567	932
416.776	1034.39
416.984	1038.49
417.192	1175.7
417.4	1030.3
417.608	1058.97
417.817	1194.14
418.025	1185.94
418.233	1321.11
418.441	1200.28
418.649	1341.59
418.857	1429.65
419.065	1446.04
419.273	1396.89
419.481	1495.19
419.689	1712.27
419.897	1585.3
420.105	1663.12
420.313	1874.06
420.521	1792.14
420.729	1847.44
420.937	1855.63
421.145	1923.21
421.353	2033.8
421.561	2187.4
421.769	2203.79
421.977	2265.22
422.185	2148.49
422.393	2492.55
422.601	2611.33
422.809	2553.99
423.017	2500.74
423.224	2693.25
423.432	2855.04
423.64	2799.74
423.848	2924.67
424.056	2934.91
424.263	3225.72
424.471	3123.32
424.679	3276.92
424.887	3420.28
425.094	3571.83
425.302	3541.11
425.51	3780.72
425.718	3885.17
425.925	3885.17
426.133	3973.23
426.341	4075.63
426.548	4395.11
426.756	4509.8
426.964	4583.52
427.171	4761.7
427.379	4890.72
427.586	4833.38
427.794	4976.73
428.001	5324.89
428.209	5501.01
428.417	5349.47
428.624	5863.51
428.832	5847.12
429.039	5654.61
429.247	5906.51
429.454	6375.5
429.662	6770.76
429.869	6197.32
430.076	6840.39
430.284	6512.71
430.491	6948.93
430.699	7366.71
430.906	7178.3
431.114	7354.43
431.321	7635
431.528	7741.49
431.736	8144.94
431.943	8831.01
432.15	8306.73
432.358	8454.19
432.565	9015.33
432.772	8957.99
432.979	9322.52
433.187	9482.27
433.394	9568.28
433.601	10227.73
433.808	10414.09
434.016	10205.2
434.223	10614.79
434.43	11231.23
434.637	10973.19
434.844	11581.43
435.052	12070.9
435.259	11763.7
435.466	11917.3
435.673	11745.27
435.88	12650.47
436.087	13242.34
436.294	13332.45
436.501	12804.07
436.708	13373.41
436.915	13586.4
437.122	14505.93
437.329	14311.38
437.537	14794.7
437.743	14766.03
437.95	14921.67
438.157	15740.86
438.364	15986.61
438.571	16201.65
438.778	16342.96
438.985	17958.81
439.192	16934.82
439.399	17620.89
439.606	17203.11
439.813	17846.17
440.02	19107.72
440.227	18722.7
440.433	18466.7
440.64	19287.94
440.847	19142.53
441.054	19476.35
441.261	20952.94
441.467	20471.67
441.674	21182.31
441.881	21794.65
442.088	21729.12
442.294	21413.73
442.501	21972.83
442.708	22409.04
442.914	23281.48
443.121	24397.62
443.328	24000.32
443.534	25595.68
443.741	24889.13
443.948	24295.22
444.154	26111.77
444.361	25751.33
444.568	26023.71
444.774	26343.19
444.981	26109.72
445.187	27184.91
445.394	28413.69
445.6	27739.91
445.807	30688.98
446.013	29261.55
446.22	30131.93
446.426	30885.59
446.633	31190.73
446.839	32233.15
447.046	30701.27
447.252	32411.32
447.459	32532.15
447.665	32155.33
447.871	34109.09
448.078	35075.73
448.284	33369.77
448.491	34436.77
448.697	35606.16
448.903	36243.07
449.11	36161.15
449.316	35759.75
449.522	36327.04
449.728	37369.46
449.935	37555.82
450.141	37365.36
450.347	38495.84
450.553	37119.6
450.76	37379.7
450.966	38524.51
451.172	38358.63
451.378	39306.83
451.584	38635.1
451.791	38893.15
451.997	39089.75
452.203	39929.42
452.409	39589.45
452.615	39571.02
452.821	38606.43
453.027	37588.59
453.233	39155.29
453.44	37809.77
453.646	38266.47
453.852	38641.25
454.058	39071.32
454.264	37791.34
454.47	38430.3
454.676	37682.8
454.882	38815.32
455.088	35583.63
455.294	36025.99
455.5	36413.06
455.705	36734.59
455.911	35192.47
456.117	34238.11
456.323	34172.58
456.529	32495.29
456.735	33568.43
456.941	32818.87
457.147	32067.27
457.352	31153.87
457.558	30944.98
457.764	30803.67
457.97	30258.91
458.176	29695.72
458.381	29652.71
458.587	28094.21
458.793	27832.07
458.999	26541.85
459.204	28786.42
459.41	27873.03
459.616	26261.27
459.821	26210.07
460.027	25855.78
460.233	25339.69
460.438	24162.11
460.644	24489.78
460.85	23328.58
461.055	23035.72
461.261	22884.17
461.466	21266.28
461.672	20612.98
461.878	21946.2
462.083	20670.32
462.289	20473.71
462.494	20012.92
462.7	19140.49
462.905	18853.77
463.111	19636.1
463.316	19529.6
463.522	18794.38
463.727	18986.89
463.932	19044.23
464.138	18745.23
464.343	18866.06
464.549	18519.95
464.754	18988.94
464.959	19144.58
465.165	18562.96
465.37	18007.96
465.575	17285.03
465.781	17995.67
465.986	18550.67
466.191	17592.22
466.397	17268.64
466.602	16258.99
466.807	17041.32
467.012	17186.72
467.218	16773.03
467.423	16746.41
467.628	16801.71
