Data from USB4F104151__163__10-27-15-170.txt Node

Date: Wed Mar 12 10:27:15 EDT 2025
User: louis
Spectrometer: USB4F10415
Trigger mode: 4
Integration Time (sec): 3.000000E-2
Scans to average: 1
Electric dark correction enabled: true
Nonlinearity correction enabled: false
Boxcar width: 0
XAxis mode: Wavelengths
Number of Pixels in Spectrum: 3648
>>>>>Begin Spectral Data<<<<<
178.204	-86.36
178.424	-86.36
178.644	-86.36
178.864	-65.88
179.084	-121.17
179.304	-45.4
179.524	5.8
179.744	-37.2
179.964	30.38
180.184	-8.53
180.404	73.39
180.624	-33.11
180.844	36.52
181.064	-39.25
181.283	7.85
181.503	13.99
181.723	-4.44
181.943	-55.64
182.163	69.29
182.383	-4.44
182.602	52.91
182.822	20.14
183.042	81.58
183.262	1.71
183.482	42.67
183.701	16.04
183.921	-6.49
184.141	40.62
184.361	87.72
184.58	-67.92
184.8	63.15
185.02	24.23
185.239	48.81
185.459	67.24
185.679	59.05
185.898	3.75
186.118	77.48
186.338	-12.63
186.557	69.29
186.777	20.14
186.997	30.38
187.216	97.96
187.436	-22.87
187.655	28.33
187.875	97.96
188.095	-24.92
188.314	77.48
188.534	151.21
188.753	30.38
188.973	44.71
189.192	24.23
189.412	54.95
189.631	-37.2
189.851	13.99
190.07	52.91
190.29	73.39
190.509	36.52
190.729	11.95
190.948	11.95
191.168	95.91
191.387	18.09
191.607	9.9
191.826	42.67
192.045	22.19
192.265	59.05
192.484	-16.73
192.704	-14.68
192.923	-16.73
193.142	83.63
193.362	13.99
193.581	11.95
193.8	40.62
194.02	36.52
194.239	83.63
194.458	11.95
194.678	85.67
194.897	73.39
195.116	36.52
195.335	69.29
195.555	122.54
195.774	5.8
195.993	1.71
196.212	-26.96
196.432	-10.58
196.651	40.62
196.87	18.09
197.089	34.47
197.308	32.43
197.528	46.76
197.747	50.86
197.966	38.57
198.185	114.34
198.404	-29.01
198.623	48.81
198.842	36.52
199.062	16.04
199.281	20.14
199.5	20.14
199.719	132.78
199.938	36.52
200.157	46.76
200.376	18.09
200.595	89.77
200.814	77.48
201.033	1.71
201.252	18.09
201.471	73.39
201.69	77.48
201.909	20.14
202.128	-26.96
202.347	46.76
202.566	-47.44
202.785	7.85
203.004	7.85
203.223	102.06
203.442	85.67
203.661	-22.87
203.879	18.09
204.098	26.28
204.317	34.47
204.536	69.29
204.755	3.75
204.974	59.05
205.193	75.43
205.411	67.24
205.63	16.04
205.849	79.53
206.068	28.33
206.287	77.48
206.505	61.1
206.724	52.91
206.943	-14.68
207.162	44.71
207.381	40.62
207.599	61.1
207.818	16.04
208.037	40.62
208.255	36.52
208.474	28.33
208.693	106.15
208.911	-16.73
209.13	61.1
209.349	36.52
209.567	42.67
209.786	67.24
210.005	120.49
210.223	5.8
210.442	-10.58
210.661	79.53
210.879	22.19
211.098	71.34
211.316	-0.34
211.535	83.63
211.753	13.99
211.972	3.75
212.191	5.8
212.409	48.81
212.628	77.48
212.846	9.9
213.065	54.95
213.283	75.43
213.502	20.14
213.72	11.95
213.938	32.43
214.157	-37.2
214.375	91.82
214.594	61.1
214.812	22.19
215.031	-31.06
215.249	20.14
215.467	65.19
215.686	52.91
215.904	24.23
216.122	57
216.341	91.82
216.559	13.99
216.778	44.71
216.996	83.63
217.214	30.38
217.432	-20.82
217.651	-14.68
217.869	71.34
218.087	-6.49
218.306	-2.39
218.524	83.63
218.742	106.15
218.96	-2.39
219.179	36.52
219.397	28.33
219.615	81.58
219.833	65.19
220.051	52.91
220.27	108.2
220.488	13.99
220.706	28.33
220.924	22.19
221.142	-24.92
221.36	22.19
221.578	-4.44
221.796	40.62
222.015	32.43
222.233	-4.44
222.451	32.43
222.669	44.71
222.887	-4.44
223.105	38.57
223.323	48.81
223.541	11.95
223.759	40.62
223.977	24.23
224.195	63.15
224.413	93.87
224.631	30.38
224.849	20.14
225.067	79.53
225.285	-8.53
225.503	28.33
225.721	-74.07
225.939	-4.44
226.157	42.67
226.375	20.14
226.592	93.87
226.81	-84.31
227.028	54.95
227.246	89.77
227.464	-4.44
227.682	24.23
227.9	42.67
228.117	13.99
228.335	16.04
228.553	52.91
228.771	-31.06
228.989	16.04
229.206	65.19
229.424	11.95
229.642	75.43
229.86	52.91
230.077	-4.44
230.295	77.48
230.513	11.95
230.731	30.38
230.948	69.29
231.166	32.43
231.384	36.52
231.601	22.19
231.819	114.34
232.037	36.52
232.254	-55.64
232.472	59.05
232.689	-41.3
232.907	77.48
233.125	34.47
233.342	36.52
233.56	-39.25
233.777	59.05
233.995	20.14
234.213	118.44
234.43	65.19
234.648	116.39
234.865	3.75
235.083	65.19
235.3	36.52
235.518	59.05
235.735	28.33
235.953	87.72
236.17	42.67
236.388	-4.44
236.605	52.91
236.822	36.52
237.04	79.53
237.257	59.05
237.475	-4.44
237.692	61.1
237.909	44.71
238.127	-4.44
238.344	20.14
238.562	73.39
238.779	-41.3
238.996	18.09
239.214	28.33
239.431	59.05
239.648	-31.06
239.865	67.24
240.083	77.48
240.3	18.09
240.517	22.19
240.735	77.48
240.952	18.09
241.169	32.43
241.386	54.95
241.603	81.58
241.821	-22.87
242.038	79.53
242.255	50.86
242.472	59.05
242.689	104.11
242.907	54.95
243.124	40.62
243.341	48.81
243.558	30.38
243.775	42.67
243.992	11.95
244.209	69.29
244.426	52.91
244.643	-33.11
244.86	-26.96
245.078	32.43
245.295	32.43
245.512	-12.63
245.729	48.81
245.946	28.33
246.163	52.91
246.38	48.81
246.597	13.99
246.814	-55.64
247.031	-37.2
247.248	63.15
247.464	34.47
247.681	89.77
247.898	52.91
248.115	73.39
248.332	5.8
248.549	52.91
248.766	20.14
248.983	134.82
249.2	46.76
249.417	-10.58
249.633	81.58
249.85	89.77
250.067	3.75
250.284	65.19
250.501	48.81
250.717	63.15
250.934	-49.49
251.151	-20.82
251.368	11.95
251.585	-6.49
251.801	67.24
252.018	28.33
252.235	52.91
252.451	83.63
252.668	-59.73
252.885	112.3
253.102	38.57
253.318	36.52
253.535	20.14
253.752	5.8
253.968	5.8
254.185	52.91
254.401	28.33
254.618	61.1
254.835	5.8
255.051	81.58
255.268	-33.11
255.484	-0.34
255.701	44.71
255.917	89.77
256.134	-20.82
256.351	52.91
256.567	48.81
256.784	32.43
257	-6.49
257.217	32.43
257.433	-0.34
257.65	36.52
257.866	79.53
258.082	16.04
258.299	-35.16
258.515	36.52
258.732	22.19
258.948	-8.53
259.165	3.75
259.381	-16.73
259.597	61.1
259.814	16.04
260.03	102.06
260.246	3.75
260.463	97.96
260.679	71.34
260.895	30.38
261.112	24.23
261.328	11.95
261.544	1.71
261.761	20.14
261.977	40.62
262.193	48.81
262.409	28.33
262.626	28.33
262.842	93.87
263.058	32.43
263.274	34.47
263.49	38.57
263.707	18.09
263.923	24.23
264.139	16.04
264.355	1.71
264.571	48.81
264.787	-47.44
265.004	130.73
265.22	73.39
265.436	-16.73
265.652	9.9
265.868	85.67
266.084	34.47
266.3	11.95
266.516	-49.49
266.732	50.86
266.948	9.9
267.164	11.95
267.38	61.1
267.596	50.86
267.812	28.33
268.028	65.19
268.244	-22.87
268.46	3.75
268.676	-4.44
268.892	134.82
269.108	50.86
269.324	3.75
269.54	9.9
269.756	69.29
269.972	11.95
270.188	1.71
270.403	61.1
270.619	63.15
270.835	69.29
271.051	42.67
271.267	7.85
271.483	11.95
271.698	32.43
271.914	57
272.13	50.86
272.346	32.43
272.562	11.95
272.777	153.26
272.993	28.33
273.209	26.28
273.425	24.23
273.64	-8.53
273.856	79.53
274.072	-2.39
274.287	50.86
274.503	36.52
274.719	81.58
274.934	91.82
275.15	16.04
275.366	44.71
275.581	-29.01
275.797	63.15
276.012	20.14
276.228	65.19
276.444	73.39
276.659	97.96
276.875	11.95
277.09	11.95
277.306	18.09
277.521	40.62
277.737	34.47
277.952	1.71
278.168	24.23
278.383	167.59
278.599	91.82
278.814	54.95
279.03	3.75
279.245	65.19
279.461	9.9
279.676	-16.73
279.892	-45.4
280.107	79.53
280.322	40.62
280.538	36.52
280.753	26.28
280.969	28.33
281.184	3.75
281.399	57
281.615	48.81
281.83	24.23
282.045	-8.53
282.26	46.76
282.476	22.19
282.691	32.43
282.906	57
283.122	67.24
283.337	-0.34
283.552	38.57
283.767	-22.87
283.983	73.39
284.198	24.23
284.413	16.04
284.628	32.43
284.843	50.86
285.058	9.9
285.274	30.38
285.489	3.75
285.704	-31.06
285.919	48.81
286.134	52.91
286.349	57
286.564	138.92
286.779	67.24
286.995	11.95
287.21	-16.73
287.425	44.71
287.64	30.38
287.855	40.62
288.07	32.43
288.285	59.05
288.5	-22.87
288.715	38.57
288.93	32.43
289.145	-82.26
289.36	54.95
289.575	73.39
289.79	69.29
290.004	36.52
290.219	114.34
290.434	40.62
290.649	9.9
290.864	38.57
291.079	-41.3
291.294	-2.39
291.509	48.81
291.724	-0.34
291.938	46.76
292.153	95.91
292.368	20.14
292.583	-8.53
292.798	50.86
293.012	75.43
293.227	44.71
293.442	87.72
293.657	106.15
293.871	73.39
294.086	54.95
294.301	20.14
294.516	-4.44
294.73	22.19
294.945	77.48
295.16	-20.82
295.374	83.63
295.589	73.39
295.804	79.53
296.018	32.43
296.233	69.29
296.447	122.54
296.662	-47.44
296.877	69.29
297.091	81.58
297.306	85.67
297.52	9.9
297.735	52.91
297.949	46.76
298.164	22.19
298.378	54.95
298.593	-22.87
298.807	-24.92
299.022	63.15
299.236	44.71
299.451	93.87
299.665	18.09
299.88	34.47
300.094	-67.92
300.309	48.81
300.523	-12.63
300.737	-4.44
300.952	-18.77
301.166	16.04
301.381	-10.58
301.595	26.28
301.809	-4.44
302.024	38.57
302.238	-14.68
302.452	36.52
302.667	1.71
302.881	75.43
303.095	48.81
303.309	44.71
303.524	30.38
303.738	26.28
303.952	65.19
304.166	122.54
304.381	11.95
304.595	1.71
304.809	-31.06
305.023	-16.73
305.237	18.09
305.452	28.33
305.666	186.02
305.88	32.43
306.094	-22.87
306.308	-2.39
306.522	26.28
306.736	52.91
306.95	42.67
307.164	118.44
307.379	-57.68
307.593	34.47
307.807	7.85
308.021	3.75
308.235	-20.82
308.449	-49.49
308.663	63.15
308.877	126.63
309.091	40.62
309.305	20.14
309.519	1.71
309.733	77.48
309.947	73.39
310.161	16.04
310.374	1.71
310.588	77.48
310.802	81.58
311.016	71.34
311.23	114.34
311.444	1.71
311.658	22.19
311.872	79.53
312.085	-0.34
312.299	71.34
312.513	42.67
312.727	97.96
312.941	26.28
313.154	-59.73
313.368	42.67
313.582	-35.16
313.796	5.8
314.009	-37.2
314.223	11.95
314.437	81.58
314.651	79.53
314.864	-16.73
315.078	3.75
315.292	59.05
315.505	57
315.719	57
315.933	40.62
316.146	36.52
316.36	42.67
316.573	7.85
316.787	30.38
317.001	57
317.214	34.47
317.428	67.24
317.641	50.86
317.855	26.28
318.068	38.57
318.282	24.23
318.495	48.81
318.709	36.52
318.922	-4.44
319.136	69.29
319.349	59.05
319.563	65.19
319.776	65.19
319.99	-37.2
320.203	46.76
320.417	32.43
320.63	18.09
320.843	81.58
321.057	61.1
321.27	32.43
321.483	126.63
321.697	102.06
321.91	11.95
322.124	57
322.337	69.29
322.55	-14.68
322.763	110.25
322.977	93.87
323.19	36.52
323.403	-0.34
323.617	3.75
323.83	48.81
324.043	40.62
324.256	20.14
324.469	28.33
324.683	81.58
324.896	-29.01
325.109	77.48
325.322	-8.53
325.535	13.99
325.748	61.1
325.962	28.33
326.175	93.87
326.388	57
326.601	59.05
326.814	126.63
327.027	18.09
327.24	-10.58
327.453	7.85
327.666	11.95
327.879	102.06
328.092	106.15
328.305	32.43
328.518	73.39
328.731	9.9
328.944	11.95
329.157	28.33
329.37	-10.58
329.583	114.34
329.796	69.29
330.009	32.43
330.222	16.04
330.435	65.19
330.648	1.71
330.861	73.39
331.073	-51.54
331.286	108.2
331.499	67.24
331.712	20.14
331.925	65.19
332.138	-2.39
332.35	69.29
332.563	83.63
332.776	24.23
332.989	46.76
333.202	-22.87
333.414	18.09
333.627	110.25
333.84	81.58
334.053	79.53
334.265	59.05
334.478	77.48
334.691	73.39
334.903	-16.73
335.116	-43.35
335.329	132.78
335.541	75.43
335.754	18.09
335.966	-16.73
336.179	-16.73
336.392	73.39
336.604	87.72
336.817	106.15
337.029	85.67
337.242	26.28
337.454	52.91
337.667	52.91
337.88	24.23
338.092	132.78
338.305	85.67
338.517	73.39
338.729	85.67
338.942	36.52
339.154	13.99
339.367	-37.2
339.579	-0.34
339.792	69.29
340.004	40.62
340.217	28.33
340.429	24.23
340.641	59.05
340.854	7.85
341.066	-6.49
341.278	36.52
341.491	63.15
341.703	18.09
341.915	18.09
342.128	-35.16
342.34	102.06
342.552	61.1
342.764	97.96
342.977	75.43
343.189	59.05
343.401	73.39
343.613	34.47
343.826	116.39
344.038	91.82
344.25	63.15
344.462	28.33
344.674	59.05
344.886	-22.87
345.099	83.63
345.311	32.43
345.523	46.76
345.735	1.71
345.947	79.53
346.159	50.86
346.371	100.01
346.583	-4.44
346.795	71.34
347.007	18.09
347.219	-29.01
347.431	59.05
347.643	79.53
347.855	-12.63
348.067	61.1
348.279	100.01
348.491	26.28
348.703	24.23
348.915	-35.16
349.127	3.75
349.339	106.15
349.551	48.81
349.763	38.57
349.975	20.14
350.187	32.43
350.399	93.87
350.61	13.99
350.822	77.48
351.034	67.24
351.246	52.91
351.458	116.39
351.669	28.33
351.881	57
352.093	61.1
352.305	97.96
352.517	65.19
352.728	65.19
352.94	20.14
353.152	81.58
353.363	24.23
353.575	20.14
353.787	20.14
353.999	48.81
354.21	46.76
354.422	42.67
354.633	-39.25
354.845	54.95
355.057	32.43
355.268	-8.53
355.48	71.34
355.692	40.62
355.903	36.52
356.115	9.9
356.326	42.67
356.538	20.14
356.749	63.15
356.961	34.47
357.172	18.09
357.384	28.33
357.595	93.87
357.807	81.58
358.018	69.29
358.23	91.82
358.441	100.01
358.653	-49.49
358.864	-0.34
359.075	83.63
359.287	67.24
359.498	108.2
359.709	26.28
359.921	102.06
360.132	20.14
360.344	61.1
360.555	30.38
360.766	24.23
360.977	69.29
361.189	73.39
361.4	52.91
361.611	79.53
361.823	126.63
362.034	59.05
362.245	-2.39
362.456	7.85
362.667	165.54
362.879	1.71
363.09	30.38
363.301	38.57
363.512	54.95
363.723	79.53
363.935	69.29
364.146	93.87
364.357	30.38
364.568	67.24
364.779	79.53
364.99	20.14
365.201	-4.44
365.412	87.72
365.623	9.9
365.834	89.77
366.045	50.86
366.256	167.59
366.467	30.38
366.678	20.14
366.889	67.24
367.1	44.71
367.311	61.1
367.522	87.72
367.733	36.52
367.944	52.91
368.155	77.48
368.366	32.43
368.577	11.95
368.788	97.96
368.999	73.39
369.209	40.62
369.42	91.82
369.631	71.34
369.842	153.26
370.053	36.52
370.264	54.95
370.474	-0.34
370.685	28.33
370.896	36.52
371.107	57
371.317	81.58
371.528	18.09
371.739	52.91
371.95	38.57
372.16	106.15
372.371	40.62
372.582	85.67
372.792	89.77
373.003	93.87
373.214	46.76
373.424	50.86
373.635	-20.82
373.846	61.1
374.056	67.24
374.267	11.95
374.477	36.52
374.688	38.57
374.898	28.33
375.109	61.1
375.319	34.47
375.53	126.63
375.74	100.01
375.951	69.29
376.161	1.71
376.372	77.48
376.582	59.05
376.793	77.48
377.003	44.71
377.214	75.43
377.424	28.33
377.635	69.29
377.845	3.75
378.055	87.72
378.266	77.48
378.476	20.14
378.686	3.75
378.897	110.25
379.107	67.24
379.317	44.71
379.528	57
379.738	28.33
379.948	40.62
380.158	157.35
380.369	40.62
380.579	69.29
380.789	71.34
380.999	73.39
381.21	77.48
381.42	130.73
381.63	52.91
381.84	28.33
382.05	57
382.261	57
382.471	52.91
382.681	38.57
382.891	38.57
383.101	89.77
383.311	-2.39
383.521	-55.64
383.731	44.71
383.941	57
384.151	61.1
384.361	85.67
384.571	69.29
384.781	-8.53
384.991	132.78
385.201	44.71
385.411	20.14
385.621	106.15
385.831	9.9
386.041	24.23
386.251	7.85
386.461	140.97
386.671	42.67
386.881	44.71
387.091	57
387.301	87.72
387.511	-12.63
387.72	38.57
387.93	11.95
388.14	-37.2
388.35	67.24
388.56	106.15
388.769	73.39
388.979	97.96
389.189	3.75
389.399	83.63
389.609	167.59
389.818	95.91
390.028	83.63
390.238	81.58
390.447	97.96
390.657	89.77
390.867	77.48
391.076	44.71
391.286	130.73
391.496	13.99
391.705	9.9
391.915	136.87
392.125	65.19
392.334	71.34
392.544	114.34
392.753	48.81
392.963	28.33
393.172	48.81
393.382	57
393.591	118.44
393.801	26.28
394.01	132.78
394.22	57
394.429	28.33
394.639	85.67
394.848	163.5
395.058	59.05
395.267	44.71
395.477	77.48
395.686	130.73
395.895	140.97
396.105	130.73
396.314	93.87
396.524	-29.01
396.733	91.82
396.942	130.73
397.152	89.77
397.361	173.74
397.57	48.81
397.78	87.72
397.989	151.21
398.198	44.71
398.407	18.09
398.617	112.3
398.826	59.05
399.035	130.73
399.244	81.58
399.453	104.11
399.663	165.54
399.872	93.87
400.081	28.33
400.29	157.35
400.499	-4.44
400.708	54.95
400.917	79.53
401.127	124.58
401.336	116.39
401.545	128.68
401.754	106.15
401.963	188.07
402.172	93.87
402.381	130.73
402.59	102.06
402.799	73.39
403.008	116.39
403.217	114.34
403.426	143.02
403.635	95.91
403.844	159.4
404.053	93.87
404.262	175.78
404.471	151.21
404.68	87.72
404.888	190.12
405.097	167.59
405.306	122.54
405.515	192.17
405.724	151.21
405.933	140.97
406.142	136.87
406.35	190.12
406.559	224.94
406.768	155.3
406.977	237.22
407.185	200.36
407.394	241.32
407.603	167.59
407.812	196.26
408.02	245.41
408.229	224.94
408.438	212.65
408.646	190.12
408.855	204.46
409.064	163.5
409.272	214.7
409.481	300.71
409.69	208.55
409.898	253.61
410.107	272.04
410.315	323.24
410.524	298.66
410.733	388.77
410.941	304.81
411.15	386.72
411.358	286.37
411.567	353.96
411.775	323.24
411.984	364.2
412.192	456.36
412.401	317.09
412.609	413.35
412.818	409.25
413.026	474.79
413.234	394.92
413.443	487.08
413.651	470.69
413.86	577.19
414.068	624.29
414.276	601.76
414.485	534.18
414.693	644.77
414.901	632.48
415.11	657.06
415.318	495.27
415.526	601.76
415.734	693.92
415.943	687.78
416.151	751.26
416.359	798.37
416.567	798.37
416.776	861.85
416.984	890.53
417.192	894.62
417.4	845.47
417.608	882.33
417.817	933.53
418.025	984.73
418.233	986.78
418.441	937.63
418.649	1031.83
418.857	1128.09
419.065	1183.38
419.273	1117.85
419.481	1179.29
419.689	1265.3
419.897	1265.3
420.105	1330.84
420.313	1373.85
420.521	1386.13
420.729	1412.76
420.937	1486.48
421.145	1502.87
421.353	1625.75
421.561	1646.23
421.769	1713.81
421.977	1773.2
422.185	1713.81
422.393	1920.65
422.601	1965.71
422.809	1891.98
423.017	2021
423.224	2139.79
423.432	2330.25
423.64	2158.22
423.848	2401.93
424.056	2354.82
424.263	2475.65
424.471	2530.95
424.679	2623.11
424.887	2682.5
425.094	2782.85
425.302	2750.08
425.51	3010.17
425.718	2875.01
425.925	3012.22
426.133	3001.98
426.341	3421.81
426.548	3389.05
426.756	3384.95
426.964	3460.73
427.171	3624.56
427.379	3679.86
427.586	3763.83
427.794	3935.85
428.001	3909.23
428.209	4236.91
428.417	4173.42
428.624	4501.09
428.832	4466.28
429.039	4511.33
429.247	4347.5
429.454	5039.71
429.662	5342.81
429.869	4970.08
430.076	5322.33
430.284	4945.5
430.491	5262.94
430.699	5484.12
430.906	5607
431.114	5617.24
431.321	5922.38
431.528	5940.82
431.736	6299.21
431.943	6581.83
432.15	6469.19
432.358	6587.97
432.565	6917.7
432.772	6958.66
432.979	7366.2
433.187	7265.85
433.394	7345.72
433.601	7931.44
433.808	7767.6
434.016	7876.15
434.223	8349.23
434.43	8623.66
434.637	8654.37
434.844	9014.82
435.052	9240.09
435.259	9324.06
435.466	9338.4
435.673	9096.74
435.88	9635.35
436.087	10196.5
436.294	10368.52
436.501	10030.61
436.708	10075.66
436.915	10481.16
437.122	11021.83
437.329	10956.29
437.537	11238.91
437.743	11529.72
437.95	11564.54
438.157	11886.07
438.364	12453.36
438.571	12303.85
438.778	12572.14
438.985	13737.43
439.192	13110.75
439.399	13442.53
439.606	12996.07
439.813	13784.54
440.02	14716.36
440.227	14323.15
440.433	14360.02
440.64	14984.65
440.847	14849.48
441.054	15228.35
441.261	16205.24
441.467	16006.58
441.674	16397.74
441.881	17016.23
442.088	16706.99
442.294	16395.7
442.501	17016.23
442.708	17438.11
442.914	18242.96
443.121	18937.23
443.328	18445.71
443.534	19748.22
443.741	19068.3
443.948	18738.57
444.154	20235.64
444.361	19932.54
444.568	19961.21
444.774	20143.48
444.981	20354.42
445.187	21130.6
445.394	21792.09
445.6	21722.46
445.807	23958.85
446.013	22750.54
446.22	22900.05
446.426	23776.58
446.633	23924.03
446.839	24823.09
447.046	23811.39
447.252	24905.01
447.459	25023.79
447.665	24933.68
447.871	26055.97
448.078	27176.2
448.284	25814.3
448.491	26434.84
448.697	27530.5
448.903	28206.33
449.11	28003.58
449.316	27362.57
449.522	28208.38
449.728	28830.96
449.935	29037.81
450.141	29144.3
450.347	29668.58
450.553	28859.63
450.76	29076.72
450.966	29779.17
451.172	29678.82
451.378	29897.95
451.584	29818.08
451.791	30602.46
451.997	30633.18
452.203	31171.79
452.409	30651.61
452.615	30561.5
452.821	29715.69
453.027	29129.97
453.233	30670.04
453.44	29551.85
453.646	29662.44
453.852	29385.96
454.058	30151.9
454.264	29336.81
454.47	29656.29
454.676	29117.68
454.882	30100.7
455.088	27596.04
455.294	27651.33
455.5	27995.39
455.705	28691.7
455.911	27200.78
456.117	26801.43
456.323	26371.35
456.529	25029.93
456.735	25902.37
456.941	25326.89
457.147	24765.74
457.352	24139.07
457.558	23743.81
457.764	23893.31
457.97	23362.89
458.176	22783.31
458.381	22953.29
458.587	21859.68
458.793	21687.65
458.999	20612.46
459.204	22156.63
459.41	21443.94
459.616	20301.17
459.821	20182.39
460.027	20186.49
460.233	19664.25
460.438	18437.52
460.644	18632.08
460.85	17868.19
461.055	17812.89
461.261	17624.48
461.466	16336.31
461.672	15803.83
461.878	16928.17
462.083	15891.9
462.289	15513.02
462.494	15236.55
462.7	14757.32
462.905	14626.25
463.111	14734.79
463.316	14972.36
463.522	14921.16
463.727	14757.32
463.932	14550.48
464.138	14431.69
464.343	14663.11
464.549	14271.95
464.754	14603.72
464.959	14542.28
465.165	14030.29
465.37	13571.55
465.575	13352.41
465.781	13784.54
465.986	14241.23
466.191	13467.1
466.397	13182.43
466.602	12549.61
466.807	12996.07
467.012	13110.75
467.218	13223.39
467.423	12912.1
467.628	12860.9
467.833	13532.64
468.038	13024.74
468.244	12670.44
