Data from USB4F104151__31__10-21-52-646.txt Node

Date: Wed Mar 12 10:21:52 EDT 2025
User: louis
Spectrometer: USB4F10415
Trigger mode: 4
Integration Time (sec): 3.000000E-2
Scans to average: 1
Electric dark correction enabled: true
Nonlinearity correction enabled: false
Boxcar width: 0
XAxis mode: Wavelengths
Number of Pixels in Spectrum: 3648
>>>>>Begin Spectral Data<<<<<
178.204	-100.52
178.424	-100.52
178.644	-100.52
178.864	-123.05
179.084	-108.71
179.304	26.45
179.524	-51.37
179.744	24.4
179.964	16.21
180.184	48.98
180.404	8.02
180.624	8.02
180.844	-30.89
181.064	-43.18
181.283	10.07
181.503	-18.6
181.723	1.88
181.943	63.32
182.163	65.36
182.383	10.07
182.602	55.12
182.822	110.42
183.042	-55.47
183.262	79.7
183.482	20.31
183.701	-4.27
183.921	1.88
184.141	-22.7
184.361	-39.08
184.58	22.36
184.8	-24.75
185.02	-18.6
185.239	40.79
185.459	-2.22
185.679	44.88
185.898	-22.7
186.118	-2.22
186.338	20.31
186.557	55.12
186.777	-69.8
186.997	75.6
187.216	3.93
187.436	38.74
187.655	26.45
187.875	36.69
188.095	-24.75
188.314	57.17
188.534	59.22
188.753	1.88
188.973	-18.6
189.192	65.36
189.412	-41.13
189.631	30.55
189.851	28.5
190.07	69.46
190.29	-4.27
190.509	26.45
190.729	-88.23
190.948	77.65
191.168	112.47
191.387	63.32
191.607	46.93
191.826	-2.22
192.045	14.17
192.265	-8.36
192.484	-10.41
192.704	24.4
192.923	-6.31
193.142	24.4
193.362	65.36
193.581	75.6
193.8	-37.03
194.02	-59.56
194.239	1.88
194.458	38.74
194.678	18.26
194.897	42.84
195.116	24.4
195.335	51.03
195.555	-2.22
195.774	-45.23
195.993	30.55
196.212	32.6
196.432	5.97
196.651	20.31
196.87	26.45
197.089	44.88
197.308	40.79
197.528	81.75
197.747	36.69
197.966	32.6
198.185	63.32
198.404	53.08
198.623	55.12
198.842	20.31
199.062	-28.84
199.281	40.79
199.5	-14.51
199.719	14.17
199.938	3.93
200.157	12.12
200.376	46.93
200.595	1.88
200.814	112.47
201.033	-2.22
201.252	-10.41
201.471	55.12
201.69	28.5
201.909	63.32
202.128	51.03
202.347	28.5
202.566	10.07
202.785	-59.56
203.004	-32.94
203.223	81.75
203.442	-20.65
203.661	-0.17
203.879	3.93
204.098	40.79
204.317	-0.17
204.536	63.32
204.755	5.97
204.974	28.5
205.193	81.75
205.411	94.04
205.63	-49.32
205.849	59.22
206.068	16.21
206.287	-8.36
206.505	26.45
206.724	8.02
206.943	-2.22
207.162	12.12
207.381	14.17
207.599	20.31
207.818	18.26
208.037	-59.56
208.255	110.42
208.474	42.84
208.693	30.55
208.911	20.31
209.13	69.46
209.349	12.12
209.567	42.84
209.786	96.08
210.005	61.27
210.223	24.4
210.442	-32.94
210.661	16.21
210.879	46.93
211.098	61.27
211.316	77.65
211.535	81.75
211.753	-106.67
211.972	-59.56
212.191	65.36
212.409	71.51
212.628	-0.17
212.846	42.84
213.065	20.31
213.283	38.74
213.502	-10.41
213.72	12.12
213.938	44.88
214.157	-37.03
214.375	53.08
214.594	-41.13
214.812	-6.31
215.031	-18.6
215.249	46.93
215.467	34.64
215.686	14.17
215.904	34.64
216.122	53.08
216.341	1.88
216.559	14.17
216.778	18.26
216.996	63.32
217.214	-59.56
217.432	69.46
217.651	12.12
217.869	-10.41
218.087	24.4
218.306	10.07
218.524	-12.46
218.742	5.97
218.96	14.17
219.179	69.46
219.397	-20.65
219.615	132.95
219.833	46.93
220.051	59.22
220.27	69.46
220.488	5.97
220.706	32.6
220.924	-28.84
221.142	-28.84
221.36	1.88
221.578	36.69
221.796	12.12
222.015	87.89
222.233	85.84
222.451	42.84
222.669	18.26
222.887	137.04
223.105	32.6
223.323	-20.65
223.541	-34.99
223.759	12.12
223.977	55.12
224.195	79.7
224.413	71.51
224.631	18.26
224.849	75.6
225.067	69.46
225.285	34.64
225.503	46.93
225.721	-37.03
225.939	46.93
226.157	1.88
226.375	104.28
226.592	-2.22
226.81	57.17
227.028	-6.31
227.246	110.42
227.464	34.64
227.682	20.31
227.9	-14.51
228.117	-51.37
228.335	44.88
228.553	12.12
228.771	10.07
228.989	-10.41
229.206	98.13
229.424	83.8
229.642	42.84
229.86	-18.6
230.077	1.88
230.295	40.79
230.513	61.27
230.731	18.26
230.948	-6.31
231.166	53.08
231.384	12.12
231.601	-22.7
231.819	46.93
232.037	-0.17
232.254	-37.03
232.472	57.17
232.689	-10.41
232.907	53.08
233.125	26.45
233.342	-2.22
233.56	-30.89
233.777	18.26
233.995	77.65
234.213	51.03
234.43	61.27
234.648	24.4
234.865	10.07
235.083	46.93
235.3	22.36
235.518	-8.36
235.735	71.51
235.953	51.03
236.17	-10.41
236.388	28.5
236.605	40.79
236.822	98.13
237.04	-26.79
237.257	5.97
237.475	36.69
237.692	46.93
237.909	-18.6
238.127	63.32
238.344	83.8
238.562	46.93
238.779	22.36
238.996	-53.42
239.214	55.12
239.431	28.5
239.648	65.36
239.865	77.65
240.083	65.36
240.3	-14.51
240.517	55.12
240.735	18.26
240.952	100.18
241.169	22.36
241.386	75.6
241.603	16.21
241.821	-8.36
242.038	42.84
242.255	12.12
242.472	18.26
242.689	79.7
242.907	81.75
243.124	42.84
243.341	-4.27
243.558	34.64
243.775	12.12
243.992	-37.03
244.209	-16.55
244.426	71.51
244.643	71.51
244.86	16.21
245.078	59.22
245.295	53.08
245.512	30.55
245.729	-2.22
245.946	87.89
246.163	-0.17
246.38	75.6
246.597	-4.27
246.814	28.5
247.031	14.17
247.248	-6.31
247.464	69.46
247.681	38.74
247.898	-14.51
248.115	34.64
248.332	18.26
248.549	22.36
248.766	77.65
248.983	59.22
249.2	75.6
249.417	65.36
249.633	-24.75
249.85	3.93
250.067	55.12
250.284	59.22
250.501	26.45
250.717	110.42
250.934	-8.36
251.151	-2.22
251.368	46.93
251.585	65.36
251.801	26.45
252.018	-45.23
252.235	77.65
252.451	16.21
252.668	-12.46
252.885	8.02
253.102	1.88
253.318	71.51
253.535	36.69
253.752	22.36
253.968	-0.17
254.185	18.26
254.401	24.4
254.618	8.02
254.835	55.12
255.051	79.7
255.268	-20.65
255.484	16.21
255.701	26.45
255.917	53.08
256.134	-20.65
256.351	18.26
256.567	22.36
256.784	51.03
257	46.93
257.217	61.27
257.433	12.12
257.65	18.26
257.866	-0.17
258.082	-75.95
258.299	18.26
258.515	48.98
258.732	36.69
258.948	34.64
259.165	1.88
259.381	3.93
259.597	26.45
259.814	30.55
260.03	28.5
260.246	12.12
260.463	5.97
260.679	67.41
260.895	116.56
261.112	12.12
261.328	5.97
261.544	26.45
261.761	83.8
261.977	-30.89
262.193	40.79
262.409	-20.65
262.626	18.26
262.842	44.88
263.058	14.17
263.274	59.22
263.49	18.26
263.707	104.28
263.923	-26.79
264.139	-49.32
264.355	22.36
264.571	77.65
264.787	-34.99
265.004	48.98
265.22	-0.17
265.436	59.22
265.652	1.88
265.868	32.6
266.084	-12.46
266.3	96.08
266.516	83.8
266.732	38.74
266.948	18.26
267.164	-22.7
267.38	55.12
267.596	85.84
267.812	98.13
268.028	-55.47
268.244	51.03
268.46	5.97
268.676	-10.41
268.892	114.52
269.108	28.5
269.324	-0.17
269.54	-10.41
269.756	91.99
269.972	-20.65
270.188	-55.47
270.403	-18.6
270.619	30.55
270.835	63.32
271.051	10.07
271.267	20.31
271.483	44.88
271.698	85.84
271.914	44.88
272.13	30.55
272.346	63.32
272.562	12.12
272.777	46.93
272.993	32.6
273.209	20.31
273.425	40.79
273.64	18.26
273.856	34.64
274.072	-16.55
274.287	8.02
274.503	116.56
274.719	124.76
274.934	48.98
275.15	-22.7
275.366	40.79
275.581	61.27
275.797	-20.65
276.012	53.08
276.228	30.55
276.444	81.75
276.659	5.97
276.875	-45.23
277.09	67.41
277.306	-26.79
277.521	-2.22
277.737	-22.7
277.952	-4.27
278.168	38.74
278.383	65.36
278.599	-22.7
278.814	32.6
279.03	42.84
279.245	48.98
279.461	67.41
279.676	36.69
279.892	-30.89
280.107	69.46
280.322	-10.41
280.538	57.17
280.753	-26.79
280.969	91.99
281.184	46.93
281.399	167.76
281.615	44.88
281.83	5.97
282.045	34.64
282.26	-18.6
282.476	26.45
282.691	59.22
282.906	126.8
283.122	8.02
283.337	38.74
283.552	20.31
283.767	-20.65
283.983	5.97
284.198	-20.65
284.413	5.97
284.628	38.74
284.843	10.07
285.058	22.36
285.274	40.79
285.489	-26.79
285.704	108.37
285.919	-73.9
286.134	28.5
286.349	-47.27
286.564	24.4
286.779	65.36
286.995	-30.89
287.21	28.5
287.425	65.36
287.64	-41.13
287.855	20.31
288.07	-73.9
288.285	71.51
288.5	-18.6
288.715	18.26
288.93	87.89
289.145	-2.22
289.36	75.6
289.575	65.36
289.79	1.88
290.004	38.74
290.219	63.32
290.434	-2.22
290.649	18.26
290.864	38.74
291.079	5.97
291.294	-28.84
291.509	42.84
291.724	-49.32
291.938	46.93
292.153	104.28
292.368	38.74
292.583	89.94
292.798	-14.51
293.012	40.79
293.227	46.93
293.442	42.84
293.657	65.36
293.871	-26.79
294.086	-10.41
294.301	44.88
294.516	38.74
294.73	20.31
294.945	14.17
295.16	-18.6
295.374	108.37
295.589	34.64
295.804	34.64
296.018	10.07
296.233	1.88
296.447	-20.65
296.662	36.69
296.877	-2.22
297.091	20.31
297.306	77.65
297.52	42.84
297.735	55.12
297.949	94.04
298.164	24.4
298.378	22.36
298.593	12.12
298.807	-20.65
299.022	63.32
299.236	151.38
299.451	-22.7
299.665	51.03
299.88	18.26
300.094	3.93
300.309	94.04
300.523	55.12
300.737	5.97
300.952	38.74
301.166	159.57
301.381	5.97
301.595	40.79
301.809	22.36
302.024	59.22
302.238	-18.6
302.452	126.8
302.667	-43.18
302.881	71.51
303.095	14.17
303.309	59.22
303.524	61.27
303.738	75.6
303.952	3.93
304.166	104.28
304.381	22.36
304.595	46.93
304.809	14.17
305.023	104.28
305.237	22.36
305.452	32.6
305.666	91.99
305.88	40.79
306.094	83.8
306.308	55.12
306.522	18.26
306.736	85.84
306.95	75.6
307.164	18.26
307.379	83.8
307.593	104.28
307.807	34.64
308.021	55.12
308.235	28.5
308.449	14.17
308.663	-16.55
308.877	159.57
309.091	-20.65
309.305	40.79
309.519	-0.17
309.733	22.36
309.947	-84.14
310.161	38.74
310.374	-16.55
310.588	67.41
310.802	-26.79
311.016	20.31
311.23	106.32
311.444	1.88
311.658	-26.79
311.872	79.7
312.085	14.17
312.299	34.64
312.513	46.93
312.727	42.84
312.941	44.88
313.154	91.99
313.368	79.7
313.582	48.98
313.796	-12.46
314.009	77.65
314.223	8.02
314.437	12.12
314.651	51.03
314.864	-18.6
315.078	12.12
315.292	-26.79
315.505	34.64
315.719	26.45
315.933	48.98
316.146	40.79
316.36	10.07
316.573	96.08
316.787	12.12
317.001	77.65
317.214	12.12
317.428	18.26
317.641	5.97
317.855	1.88
318.068	34.64
318.282	3.93
318.495	96.08
318.709	26.45
318.922	42.84
319.136	53.08
319.349	-4.27
319.563	8.02
319.776	10.07
319.99	14.17
320.203	81.75
320.417	20.31
320.63	-39.08
320.843	81.75
321.057	28.5
321.27	26.45
321.483	46.93
321.697	14.17
321.91	73.56
322.124	44.88
322.337	-41.13
322.55	5.97
322.763	38.74
322.977	79.7
323.19	34.64
323.403	46.93
323.617	24.4
323.83	5.97
324.043	12.12
324.256	34.64
324.469	79.7
324.683	51.03
324.896	-26.79
325.109	65.36
325.322	-49.32
325.535	53.08
325.748	-10.41
325.962	-6.31
326.175	-6.31
326.388	5.97
326.601	65.36
326.814	14.17
327.027	24.4
327.24	30.55
327.453	3.93
327.666	73.56
327.879	91.99
328.092	89.94
328.305	71.51
328.518	-20.65
328.731	1.88
328.944	69.46
329.157	26.45
329.37	71.51
329.583	3.93
329.796	-14.51
330.009	-2.22
330.222	20.31
330.435	85.84
330.648	-18.6
330.861	55.12
331.073	44.88
331.286	63.32
331.499	63.32
331.712	-8.36
331.925	51.03
332.138	51.03
332.35	36.69
332.563	5.97
332.776	77.65
332.989	-75.95
333.202	59.22
333.414	51.03
333.627	89.94
333.84	34.64
334.053	46.93
334.265	55.12
334.478	42.84
334.691	32.6
334.903	-2.22
335.116	3.93
335.329	20.31
335.541	61.27
335.754	122.71
335.966	18.26
336.179	-14.51
336.392	-0.17
336.604	20.31
336.817	71.51
337.029	46.93
337.242	8.02
337.454	36.69
337.667	32.6
337.88	98.13
338.092	26.45
338.305	30.55
338.517	-26.79
338.729	1.88
338.942	151.38
339.154	-2.22
339.367	-61.61
339.579	106.32
339.792	14.17
340.004	59.22
340.217	108.37
340.429	75.6
340.641	-20.65
340.854	85.84
341.066	-22.7
341.278	77.65
341.491	26.45
341.703	3.93
341.915	-22.7
342.128	155.47
342.34	30.55
342.552	3.93
342.764	-80.04
342.977	26.45
343.189	10.07
343.401	44.88
343.613	5.97
343.826	30.55
344.038	59.22
344.25	8.02
344.462	14.17
344.674	65.36
344.886	14.17
345.099	124.76
345.311	42.84
345.523	-4.27
345.735	-63.66
345.947	77.65
346.159	91.99
346.371	-18.6
346.583	79.7
346.795	145.24
347.007	16.21
347.219	-34.99
347.431	26.45
347.643	59.22
347.855	55.12
348.067	98.13
348.279	14.17
348.491	3.93
348.703	57.17
348.915	20.31
349.127	46.93
349.339	65.36
349.551	38.74
349.763	-4.27
349.975	5.97
350.187	96.08
350.399	40.79
350.61	85.84
350.822	-22.7
351.034	53.08
351.246	-2.22
351.458	63.32
351.669	77.65
351.881	81.75
352.093	53.08
352.305	3.93
352.517	18.26
352.728	120.66
352.94	-6.31
353.152	-59.56
353.363	-2.22
353.575	28.5
353.787	18.26
353.999	10.07
354.21	53.08
354.422	3.93
354.633	44.88
354.845	87.89
355.057	-59.56
355.268	55.12
355.48	14.17
355.692	-0.17
355.903	26.45
356.115	1.88
356.326	79.7
356.538	12.12
356.749	67.41
356.961	44.88
357.172	63.32
357.384	79.7
357.595	161.62
357.807	-28.84
358.018	26.45
358.23	28.5
358.441	96.08
358.653	73.56
358.864	36.69
359.075	85.84
359.287	42.84
359.498	55.12
359.709	69.46
359.921	24.4
360.132	87.89
360.344	24.4
360.555	110.42
360.766	-12.46
360.977	30.55
361.189	-6.31
361.4	12.12
361.611	98.13
361.823	34.64
362.034	83.8
362.245	61.27
362.456	46.93
362.667	34.64
362.879	12.12
363.09	42.84
363.301	-20.65
363.512	12.12
363.723	-28.84
363.935	34.64
364.146	98.13
364.357	34.64
364.568	40.79
364.779	44.88
364.99	73.56
365.201	38.74
365.412	69.46
365.623	-34.99
365.834	87.89
366.045	85.84
366.256	-6.31
366.467	26.45
366.678	94.04
366.889	-22.7
367.1	51.03
367.311	-12.46
367.522	81.75
367.733	96.08
367.944	71.51
368.155	48.98
368.366	12.12
368.577	69.46
368.788	48.98
368.999	-0.17
369.209	135
369.42	130.9
369.631	83.8
369.842	55.12
370.053	75.6
370.264	67.41
370.474	-16.55
370.685	14.17
370.896	1.88
371.107	75.6
371.317	67.41
371.528	46.93
371.739	57.17
371.95	1.88
372.16	73.56
372.371	14.17
372.582	53.08
372.792	20.31
373.003	77.65
373.214	51.03
373.424	116.56
373.635	46.93
373.846	61.27
374.056	18.26
374.267	83.8
374.477	79.7
374.688	34.64
374.898	14.17
375.109	42.84
375.319	22.36
375.53	12.12
375.74	94.04
375.951	16.21
376.161	46.93
376.372	61.27
376.582	22.36
376.793	48.98
377.003	79.7
377.214	28.5
377.424	59.22
377.635	12.12
377.845	-18.6
378.055	67.41
378.266	63.32
378.476	53.08
378.686	65.36
378.897	51.03
379.107	102.23
379.317	-20.65
379.528	51.03
379.738	38.74
379.948	-12.46
380.158	87.89
380.369	63.32
380.579	34.64
380.789	12.12
380.999	51.03
381.21	38.74
381.42	108.37
381.63	71.51
381.84	98.13
382.05	-2.22
382.261	53.08
382.471	77.65
382.681	-32.94
382.891	155.47
383.101	40.79
383.311	34.64
383.521	10.07
383.731	102.23
383.941	34.64
384.151	5.97
384.361	71.51
384.571	46.93
384.781	-2.22
384.991	79.7
385.201	26.45
385.411	63.32
385.621	108.37
385.831	83.8
386.041	55.12
386.251	1.88
386.461	85.84
386.671	20.31
386.881	83.8
387.091	38.74
387.301	108.37
387.511	89.94
387.72	-0.17
387.93	14.17
388.14	108.37
388.35	77.65
388.56	94.04
388.769	34.64
388.979	14.17
389.189	-10.41
389.399	71.51
389.609	22.36
389.818	73.56
390.028	51.03
390.238	38.74
390.447	100.18
390.657	132.95
390.867	14.17
391.076	18.26
391.286	114.52
391.496	79.7
391.705	71.51
391.915	96.08
392.125	71.51
392.334	100.18
392.544	10.07
392.753	30.55
392.963	120.66
393.172	40.79
393.382	55.12
393.591	67.41
393.801	112.47
394.01	110.42
394.22	96.08
394.429	112.47
394.639	98.13
394.848	16.21
395.058	75.6
395.267	141.14
395.477	53.08
395.686	1.88
395.895	81.75
396.105	182.1
396.314	137.04
396.524	5.97
396.733	89.94
396.942	114.52
397.152	100.18
397.361	94.04
397.57	96.08
397.78	87.89
397.989	63.32
398.198	137.04
398.407	104.28
398.617	89.94
398.826	153.43
399.035	65.36
399.244	120.66
399.453	104.28
399.663	100.18
399.872	145.24
400.081	143.19
400.29	159.57
400.499	36.69
400.708	91.99
400.917	98.13
401.127	81.75
401.336	71.51
401.545	192.34
401.754	106.32
401.963	208.72
402.172	108.37
402.381	120.66
402.59	91.99
402.799	94.04
403.008	51.03
403.217	169.81
403.426	87.89
403.635	171.86
403.844	87.89
404.053	79.7
404.262	34.64
404.471	229.2
404.68	104.28
404.888	79.7
405.097	126.8
405.306	175.95
405.515	182.1
405.724	165.71
405.933	157.52
406.142	85.84
406.35	110.42
406.559	159.57
406.768	225.11
406.977	194.39
407.185	243.54
407.394	198.48
407.603	225.11
407.812	264.02
408.02	249.68
408.229	251.73
408.438	356.18
408.646	229.2
408.855	300.88
409.064	245.59
409.272	235.35
409.481	259.92
409.69	223.06
409.898	298.83
410.107	294.74
410.315	319.31
410.524	321.36
410.733	415.57
410.941	345.94
411.15	329.55
411.358	411.47
411.567	440.14
411.775	417.61
411.984	370.51
412.192	364.37
412.401	438.09
412.609	479.05
412.818	499.53
413.026	468.81
413.234	530.25
413.443	550.73
413.651	526.16
413.86	644.94
414.068	575.31
414.276	630.6
414.485	612.17
414.693	718.67
414.901	694.09
415.11	655.18
415.318	653.13
415.526	763.72
415.734	751.43
415.943	755.53
416.151	837.45
416.359	765.77
416.567	851.78
416.776	945.99
416.984	921.42
417.192	1003.33
417.4	1015.62
417.608	1075.01
417.817	1054.53
418.025	1144.64
418.233	1226.56
418.441	1097.54
418.649	1193.8
418.857	1220.42
419.065	1345.34
419.273	1251.14
419.481	1392.45
419.689	1533.76
419.897	1546.05
420.105	1527.61
420.313	1568.57
420.521	1625.92
420.729	1617.72
420.937	1707.84
421.145	1759.03
421.353	1855.29
421.561	1937.21
421.769	2004.79
421.977	2144.05
422.185	1886.01
422.393	2094.9
422.601	2205.49
422.809	2318.13
423.017	2213.68
423.224	2391.86
423.432	2469.68
423.64	2596.65
423.848	2705.2
424.056	2735.92
424.263	2916.14
424.471	2785.07
424.679	2914.09
424.887	3016.49
425.094	3125.03
425.302	3196.71
425.51	3350.31
425.718	3374.88
425.925	3290.92
426.133	3559.2
426.341	3843.87
426.548	3852.06
426.756	3995.42
426.964	4042.52
427.171	4239.12
427.379	4273.94
427.586	4435.73
427.794	4650.77
428.001	4691.73
428.209	5025.54
428.417	4822.8
428.624	5170.95
428.832	5111.56
429.039	5183.24
429.247	5232.39
429.454	5711.61
429.662	6113.02
429.869	5615.36
430.076	5994.23
430.284	5816.06
430.491	6086.39
430.699	6299.38
430.906	6397.68
431.114	6549.23
431.321	6792.94
431.528	6815.47
431.736	7276.26
431.943	7771.87
432.15	7409.38
432.358	7620.32
432.565	8050.39
432.772	7945.95
432.979	8400.6
433.187	8468.18
433.394	8623.83
433.601	9254.6
433.808	9080.52
434.016	9250.5
434.223	9397.96
434.43	10182.33
434.637	9819.84
434.844	10442.42
435.052	10776.24
435.259	10555.06
435.466	10417.85
435.673	10559.16
435.88	11290.28
436.087	11769.51
436.294	11753.12
436.501	11720.35
436.708	11927.2
436.915	12127.9
437.122	12764.82
437.329	12560.02
437.537	13233.8
437.743	13313.67
437.95	13256.33
438.157	13651.59
438.364	14349.95
438.571	14435.96
438.778	14360.19
438.985	15746.66
439.192	15013.49
439.399	15701.61
439.606	15283.82
439.813	16229.98
440.02	17083.98
440.227	16711.25
440.433	16498.27
440.64	17215.05
440.847	16946.77
441.054	17827.4
441.261	18501.18
441.467	18529.85
441.674	18933.3
441.881	19525.16
442.088	19299.89
442.294	19416.62
442.501	19824.17
442.708	20074.02
442.914	20917.78
443.121	21827.08
443.328	21351.95
443.534	22828.54
443.741	22058.5
443.948	21622.28
444.154	23569.9
444.361	23043.57
444.568	23143.92
444.774	23387.63
444.981	23375.34
445.187	24114.66
445.394	25578.96
445.6	25159.13
445.807	27616.69
446.013	26000.84
446.22	26475.97
446.426	27444.66
446.633	28089.77
446.839	28835.23
447.046	27983.27
447.252	29148.57
447.459	29140.38
447.665	28990.87
447.871	30133.64
448.078	31825.26
448.284	30162.31
448.491	31122.81
448.697	32165.23
448.903	32542.05
449.11	32697.7
449.316	32259.43
449.522	32521.57
449.728	33789.27
449.935	33807.7
450.141	33563.99
450.347	34329.93
450.553	33232.22
450.76	33506.65
450.966	34598.21
451.172	34219.34
451.378	35167.55
451.584	34755.91
451.791	35001.66
451.997	34852.16
452.203	35566.9
452.409	35646.77
452.615	35212.6
452.821	34135.37
453.027	33727.83
453.233	35607.86
453.44	33752.4
453.646	34346.31
453.852	34389.32
454.058	35306.81
454.264	33977.68
454.47	34698.56
454.676	33725.78
454.882	34829.63
455.088	31731.06
455.294	32179.56
455.5	32554.34
455.705	32830.82
455.911	31309.18
456.117	30834.05
456.323	30446.98
456.529	28956.06
456.735	30350.73
456.941	29261.21
457.147	28964.25
457.352	28011.95
457.558	27497.91
457.764	27579.82
457.97	27344.31
458.176	26551.74
458.381	26566.08
458.587	25300.44
458.793	25286.1
458.999	23989.74
459.204	25839.05
459.41	25193.94
459.616	23154.16
459.821	23315.95
460.027	23496.17
460.233	22920.7
460.438	21644.81
460.644	22050.31
460.85	20852.25
461.055	20430.37
461.261	20618.78
461.466	18726.46
461.672	18370.11
461.878	19775.02
462.083	18372.16
462.289	18603.58
462.494	18306.62
462.7	17434.19
462.905	16932.43
463.111	17344.08
463.316	17456.71
463.522	17145.42
463.727	17118.8
463.932	17264.21
464.138	16885.33
464.343	16971.35
464.549	16592.47
464.754	16793.17
464.959	16973.39
465.165	16758.36
465.37	16217.69
465.575	15765.09
465.781	16229.98
465.986	16172.64
466.191	15771.24
466.397	15525.48
466.602	14665.33
466.807	15341.16
467.012	15394.41
467.218	15122.03
467.423	14902.9
467.628	15156.85
