Data from USB4F104151__45__10-23-06-678.txt Node

Date: Wed Mar 12 10:23:06 EDT 2025
User: louis
Spectrometer: USB4F10415
Trigger mode: 4
Integration Time (sec): 3.000000E-2
Scans to average: 1
Electric dark correction enabled: true
Nonlinearity correction enabled: false
Boxcar width: 0
XAxis mode: Wavelengths
Number of Pixels in Spectrum: 3648
>>>>>Begin Spectral Data<<<<<
178.204	-116.39
178.424	-116.39
178.644	-116.39
178.864	-132.78
179.084	-75.43
179.304	6.49
179.524	-50.86
179.744	-1.71
179.964	76.12
180.184	-11.95
180.404	12.63
180.624	22.87
180.844	35.16
181.064	10.58
181.283	8.53
181.503	-48.81
181.723	-59.05
181.943	-30.38
182.163	53.59
182.383	10.58
182.602	-1.71
182.822	55.64
183.042	121.17
183.262	-1.71
183.482	51.54
183.701	57.68
183.921	39.25
184.141	33.11
184.361	61.78
184.58	53.59
184.8	74.07
185.02	18.77
185.239	96.6
185.459	69.97
185.679	104.79
185.898	-42.67
186.118	104.79
186.338	35.16
186.557	55.64
186.777	55.64
186.997	53.59
187.216	78.16
187.436	158.03
187.655	26.96
187.875	33.11
188.095	12.63
188.314	63.83
188.534	121.17
188.753	51.54
188.973	18.77
189.192	57.68
189.412	51.54
189.631	88.4
189.851	-22.19
190.07	47.44
190.29	63.83
190.509	-20.14
190.729	33.11
190.948	37.2
191.168	92.5
191.387	10.58
191.607	6.49
191.826	-13.99
192.045	47.44
192.265	29.01
192.484	12.63
192.704	45.4
192.923	88.4
193.142	59.73
193.362	72.02
193.581	31.06
193.8	26.96
194.02	88.4
194.239	43.35
194.458	102.74
194.678	35.16
194.897	22.87
195.116	45.4
195.335	-48.81
195.555	45.4
195.774	29.01
195.993	51.54
196.212	43.35
196.432	-28.33
196.651	53.59
196.87	59.73
197.089	37.2
197.308	6.49
197.528	108.88
197.747	26.96
197.966	41.3
198.185	63.83
198.404	78.16
198.623	14.68
198.842	63.83
199.062	6.49
199.281	76.12
199.5	4.44
199.719	72.02
199.938	74.07
200.157	129.36
200.376	53.59
200.595	55.64
200.814	69.97
201.033	-26.28
201.252	69.97
201.471	90.45
201.69	37.2
201.909	61.78
202.128	-13.99
202.347	112.98
202.566	55.64
202.785	6.49
203.004	-46.76
203.223	63.83
203.442	6.49
203.661	43.35
203.879	123.22
204.098	102.74
204.317	20.82
204.536	49.49
204.755	76.12
204.974	125.27
205.193	158.03
205.411	90.45
205.63	65.88
205.849	51.54
206.068	72.02
206.287	31.06
206.505	-34.47
206.724	6.49
206.943	-44.71
207.162	-20.14
207.381	10.58
207.599	43.35
207.818	37.2
208.037	18.77
208.255	41.3
208.474	-13.99
208.693	-34.47
208.911	-28.33
209.13	82.26
209.349	12.63
209.567	29.01
209.786	53.59
210.005	96.6
210.223	86.36
210.442	-52.91
210.661	90.45
210.879	-11.95
211.098	61.78
211.316	14.68
211.535	102.74
211.753	33.11
211.972	61.78
212.191	133.46
212.409	37.2
212.628	31.06
212.846	-1.71
213.065	18.77
213.283	49.49
213.502	18.77
213.72	26.96
213.938	61.78
214.157	20.82
214.375	92.5
214.594	37.2
214.812	35.16
215.031	-13.99
215.249	18.77
215.467	20.82
215.686	18.77
215.904	117.08
216.122	-9.9
216.341	65.88
216.559	127.32
216.778	51.54
216.996	43.35
217.214	151.89
217.432	67.92
217.651	104.79
217.869	16.73
218.087	18.77
218.306	49.49
218.524	82.26
218.742	2.39
218.96	69.97
219.179	-7.85
219.397	35.16
219.615	78.16
219.833	26.96
220.051	-5.8
220.27	80.21
220.488	31.06
220.706	59.73
220.924	45.4
221.142	-5.8
221.36	37.2
221.578	74.07
221.796	67.92
222.015	100.69
222.233	0.34
222.451	61.78
222.669	-5.8
222.887	88.4
223.105	47.44
223.323	72.02
223.541	47.44
223.759	96.6
223.977	74.07
224.195	96.6
224.413	74.07
224.631	51.54
224.849	37.2
225.067	55.64
225.285	22.87
225.503	16.73
225.721	-28.33
225.939	35.16
226.157	-30.38
226.375	86.36
226.592	59.73
226.81	35.16
227.028	129.36
227.246	57.68
227.464	96.6
227.682	76.12
227.9	57.68
228.117	61.78
228.335	37.2
228.553	57.68
228.771	39.25
228.989	12.63
229.206	29.01
229.424	-3.75
229.642	65.88
229.86	16.73
230.077	39.25
230.295	6.49
230.513	57.68
230.731	-7.85
230.948	106.84
231.166	119.12
231.384	72.02
231.601	41.3
231.819	94.55
232.037	47.44
232.254	8.53
232.472	35.16
232.689	18.77
232.907	74.07
233.125	10.58
233.342	104.79
233.56	6.49
233.777	94.55
233.995	131.41
234.213	39.25
234.43	65.88
234.648	63.83
234.865	-1.71
235.083	47.44
235.3	37.2
235.518	76.12
235.735	26.96
235.953	39.25
236.17	37.2
236.388	41.3
236.605	84.31
236.822	63.83
237.04	26.96
237.257	29.01
237.475	43.35
237.692	78.16
237.909	24.92
238.127	51.54
238.344	51.54
238.562	16.73
238.779	10.58
238.996	49.49
239.214	39.25
239.431	8.53
239.648	-3.75
239.865	59.73
240.083	78.16
240.3	31.06
240.517	-1.71
240.735	57.68
240.952	96.6
241.169	67.92
241.386	-3.75
241.603	135.51
241.821	47.44
242.038	51.54
242.255	72.02
242.472	10.58
242.689	67.92
242.907	80.21
243.124	10.58
243.341	14.68
243.558	53.59
243.775	63.83
243.992	37.2
244.209	53.59
244.426	129.36
244.643	49.49
244.86	47.44
245.078	82.26
245.295	63.83
245.512	35.16
245.729	55.64
245.946	84.31
246.163	12.63
246.38	96.6
246.597	35.16
246.814	47.44
247.031	-11.95
247.248	110.93
247.464	37.2
247.681	72.02
247.898	35.16
248.115	18.77
248.332	-5.8
248.549	90.45
248.766	57.68
248.983	86.36
249.2	8.53
249.417	0.34
249.633	55.64
249.85	-22.19
250.067	67.92
250.284	55.64
250.501	59.73
250.717	20.82
250.934	-26.28
251.151	16.73
251.368	43.35
251.585	49.49
251.801	12.63
252.018	59.73
252.235	76.12
252.451	69.97
252.668	41.3
252.885	-22.19
253.102	55.64
253.318	20.82
253.535	61.78
253.752	-5.8
253.968	69.97
254.185	-1.71
254.401	94.55
254.618	84.31
254.835	47.44
255.051	119.12
255.268	102.74
255.484	33.11
255.701	57.68
255.917	47.44
256.134	41.3
256.351	43.35
256.567	10.58
256.784	-18.09
257	22.87
257.217	29.01
257.433	14.68
257.65	12.63
257.866	88.4
258.082	39.25
258.299	100.69
258.515	69.97
258.732	35.16
258.948	-5.8
259.165	29.01
259.381	96.6
259.597	-3.75
259.814	-5.8
260.03	78.16
260.246	57.68
260.463	117.08
260.679	94.55
260.895	72.02
261.112	41.3
261.328	35.16
261.544	-63.15
261.761	51.54
261.977	86.36
262.193	-22.19
262.409	65.88
262.626	106.84
262.842	47.44
263.058	-11.95
263.274	8.53
263.49	31.06
263.707	115.03
263.923	80.21
264.139	31.06
264.355	-28.33
264.571	53.59
264.787	-18.09
265.004	65.88
265.22	49.49
265.436	96.6
265.652	49.49
265.868	39.25
266.084	16.73
266.3	102.74
266.516	33.11
266.732	49.49
266.948	53.59
267.164	39.25
267.38	43.35
267.596	20.82
267.812	133.46
268.028	82.26
268.244	94.55
268.46	86.36
268.676	10.58
268.892	49.49
269.108	31.06
269.324	86.36
269.54	37.2
269.756	133.46
269.972	80.21
270.188	12.63
270.403	29.01
270.619	90.45
270.835	2.39
271.051	22.87
271.267	-1.71
271.483	31.06
271.698	39.25
271.914	63.83
272.13	-11.95
272.346	104.79
272.562	2.39
272.777	90.45
272.993	49.49
273.209	69.97
273.425	80.21
273.64	24.92
273.856	26.96
274.072	90.45
274.287	16.73
274.503	139.6
274.719	94.55
274.934	-13.99
275.15	-1.71
275.366	139.6
275.581	80.21
275.797	67.92
276.012	-18.09
276.228	43.35
276.444	67.92
276.659	110.93
276.875	112.98
277.09	-13.99
277.306	14.68
277.521	121.17
277.737	-24.23
277.952	51.54
278.168	6.49
278.383	90.45
278.599	59.73
278.814	67.92
279.03	-1.71
279.245	43.35
279.461	43.35
279.676	98.64
279.892	78.16
280.107	24.92
280.322	29.01
280.538	10.58
280.753	55.64
280.969	4.44
281.184	10.58
281.399	47.44
281.615	45.4
281.83	125.27
282.045	78.16
282.26	35.16
282.476	115.03
282.691	22.87
282.906	65.88
283.122	47.44
283.337	-1.71
283.552	22.87
283.767	-18.09
283.983	92.5
284.198	20.82
284.413	78.16
284.628	-34.47
284.843	-52.91
285.058	78.16
285.274	57.68
285.489	41.3
285.704	-13.99
285.919	88.4
286.134	80.21
286.349	14.68
286.564	-40.62
286.779	86.36
286.995	72.02
287.21	39.25
287.425	39.25
287.64	-5.8
287.855	-38.57
288.07	31.06
288.285	-11.95
288.5	4.44
288.715	53.59
288.93	59.73
289.145	-28.33
289.36	6.49
289.575	14.68
289.79	57.68
290.004	-20.14
290.219	98.64
290.434	-30.38
290.649	4.44
290.864	2.39
291.079	67.92
291.294	117.08
291.509	39.25
291.724	10.58
291.938	94.55
292.153	37.2
292.368	-16.04
292.583	37.2
292.798	43.35
293.012	47.44
293.227	94.55
293.442	63.83
293.657	72.02
293.871	76.12
294.086	29.01
294.301	88.4
294.516	147.8
294.73	59.73
294.945	4.44
295.16	33.11
295.374	90.45
295.589	76.12
295.804	104.79
296.018	26.96
296.233	108.88
296.447	26.96
296.662	31.06
296.877	92.5
297.091	31.06
297.306	88.4
297.52	20.82
297.735	43.35
297.949	6.49
298.164	96.6
298.378	31.06
298.593	12.63
298.807	24.92
299.022	94.55
299.236	76.12
299.451	96.6
299.665	37.2
299.88	29.01
300.094	67.92
300.309	-5.8
300.523	57.68
300.737	63.83
300.952	80.21
301.166	14.68
301.381	22.87
301.595	115.03
301.809	41.3
302.024	72.02
302.238	76.12
302.452	31.06
302.667	-24.23
302.881	106.84
303.095	67.92
303.309	92.5
303.524	98.64
303.738	72.02
303.952	37.2
304.166	92.5
304.381	37.2
304.595	80.21
304.809	4.44
305.023	45.4
305.237	33.11
305.452	137.56
305.666	35.16
305.88	-34.47
306.094	59.73
306.308	57.68
306.522	98.64
306.736	82.26
306.95	84.31
307.164	41.3
307.379	4.44
307.593	151.89
307.807	45.4
308.021	49.49
308.235	72.02
308.449	22.87
308.663	-30.38
308.877	112.98
309.091	104.79
309.305	4.44
309.519	59.73
309.733	90.45
309.947	20.82
310.161	2.39
310.374	69.97
310.588	76.12
310.802	26.96
311.016	51.54
311.23	92.5
311.444	69.97
311.658	35.16
311.872	43.35
312.085	-30.38
312.299	84.31
312.513	41.3
312.727	31.06
312.941	57.68
313.154	31.06
313.368	37.2
313.582	-32.43
313.796	53.59
314.009	61.78
314.223	33.11
314.437	69.97
314.651	18.77
314.864	31.06
315.078	6.49
315.292	67.92
315.505	45.4
315.719	37.2
315.933	45.4
316.146	16.73
316.36	20.82
316.573	90.45
316.787	67.92
317.001	106.84
317.214	55.64
317.428	24.92
317.641	-34.47
317.855	80.21
318.068	57.68
318.282	47.44
318.495	153.94
318.709	47.44
318.922	61.78
319.136	84.31
319.349	45.4
319.563	61.78
319.776	10.58
319.99	53.59
320.203	53.59
320.417	45.4
320.63	45.4
320.843	55.64
321.057	135.51
321.27	-1.71
321.483	37.2
321.697	37.2
321.91	96.6
322.124	14.68
322.337	72.02
322.55	33.11
322.763	90.45
322.977	88.4
323.19	4.44
323.403	22.87
323.617	8.53
323.83	55.64
324.043	-5.8
324.256	10.58
324.469	43.35
324.683	119.12
324.896	51.54
325.109	110.93
325.322	55.64
325.535	80.21
325.748	92.5
325.962	-1.71
326.175	53.59
326.388	43.35
326.601	31.06
326.814	24.92
327.027	14.68
327.24	76.12
327.453	53.59
327.666	43.35
327.879	133.46
328.092	67.92
328.305	92.5
328.518	69.97
328.731	61.78
328.944	121.17
329.157	39.25
329.37	43.35
329.583	80.21
329.796	104.79
330.009	133.46
330.222	10.58
330.435	35.16
330.648	92.5
330.861	43.35
331.073	80.21
331.286	61.78
331.499	41.3
331.712	-18.09
331.925	26.96
332.138	39.25
332.35	94.55
332.563	61.78
332.776	160.08
332.989	22.87
333.202	-32.43
333.414	55.64
333.627	78.16
333.84	110.93
334.053	112.98
334.265	22.87
334.478	49.49
334.691	69.97
334.903	33.11
335.116	94.55
335.329	24.92
335.541	76.12
335.754	63.83
335.966	-11.95
336.179	31.06
336.392	92.5
336.604	100.69
336.817	59.73
337.029	88.4
337.242	37.2
337.454	-18.09
337.667	49.49
337.88	115.03
338.092	-7.85
338.305	6.49
338.517	110.93
338.729	92.5
338.942	45.4
339.154	31.06
339.367	43.35
339.579	106.84
339.792	29.01
340.004	45.4
340.217	24.92
340.429	61.78
340.641	-32.43
340.854	43.35
341.066	94.55
341.278	57.68
341.491	110.93
341.703	98.64
341.915	55.64
342.128	69.97
342.34	94.55
342.552	57.68
342.764	18.77
342.977	20.82
343.189	55.64
343.401	59.73
343.613	-9.9
343.826	-3.75
344.038	43.35
344.25	72.02
344.462	59.73
344.674	-1.71
344.886	35.16
345.099	33.11
345.311	78.16
345.523	45.4
345.735	26.96
345.947	37.2
346.159	31.06
346.371	14.68
346.583	86.36
346.795	86.36
347.007	78.16
347.219	131.41
347.431	2.39
347.643	145.75
347.855	14.68
348.067	129.36
348.279	72.02
348.491	-11.95
348.703	69.97
348.915	29.01
349.127	88.4
349.339	59.73
349.551	67.92
349.763	119.12
349.975	65.88
350.187	147.8
350.399	53.59
350.61	96.6
350.822	4.44
351.034	96.6
351.246	106.84
351.458	112.98
351.669	117.08
351.881	69.97
352.093	26.96
352.305	115.03
352.517	80.21
352.728	51.54
352.94	61.78
353.152	55.64
353.363	51.54
353.575	6.49
353.787	112.98
353.999	133.46
354.21	72.02
354.422	18.77
354.633	33.11
354.845	53.59
355.057	80.21
355.268	29.01
355.48	92.5
355.692	22.87
355.903	88.4
356.115	35.16
356.326	59.73
356.538	45.4
356.749	35.16
356.961	102.74
357.172	61.78
357.384	59.73
357.595	170.32
357.807	67.92
358.018	12.63
358.23	-22.19
358.441	115.03
358.653	57.68
358.864	59.73
359.075	76.12
359.287	78.16
359.498	69.97
359.709	145.75
359.921	33.11
360.132	92.5
360.344	67.92
360.555	59.73
360.766	-11.95
360.977	47.44
361.189	94.55
361.4	82.26
361.611	67.92
361.823	127.32
362.034	55.64
362.245	37.2
362.456	18.77
362.667	90.45
362.879	84.31
363.09	72.02
363.301	86.36
363.512	80.21
363.723	78.16
363.935	-28.33
364.146	162.13
364.357	92.5
364.568	80.21
364.779	14.68
364.99	67.92
365.201	20.82
365.412	65.88
365.623	-13.99
365.834	49.49
366.045	108.88
366.256	121.17
366.467	55.64
366.678	90.45
366.889	88.4
367.1	14.68
367.311	53.59
367.522	31.06
367.733	98.64
367.944	49.49
368.155	69.97
368.366	67.92
368.577	88.4
368.788	174.42
368.999	-11.95
369.209	100.69
369.42	112.98
369.631	166.23
369.842	67.92
370.053	39.25
370.264	94.55
370.474	45.4
370.685	78.16
370.896	84.31
371.107	51.54
371.317	84.31
371.528	96.6
371.739	63.83
371.95	67.92
372.16	59.73
372.371	59.73
372.582	78.16
372.792	88.4
373.003	135.51
373.214	108.88
373.424	112.98
373.635	-1.71
373.846	59.73
374.056	96.6
374.267	43.35
374.477	67.92
374.688	74.07
374.898	8.53
375.109	84.31
375.319	151.89
375.53	92.5
375.74	69.97
375.951	4.44
376.161	67.92
376.372	119.12
376.582	104.79
376.793	69.97
377.003	88.4
377.214	22.87
377.424	-42.67
377.635	65.88
377.845	4.44
378.055	80.21
378.266	39.25
378.476	59.73
378.686	43.35
378.897	59.73
379.107	80.21
379.317	26.96
379.528	2.39
379.738	18.77
379.948	59.73
380.158	151.89
380.369	41.3
380.579	53.59
380.789	98.64
380.999	225.62
381.21	47.44
381.42	63.83
381.63	76.12
381.84	6.49
382.05	155.99
382.261	18.77
382.471	45.4
382.681	72.02
382.891	69.97
383.101	47.44
383.311	0.34
383.521	84.31
383.731	102.74
383.941	96.6
384.151	51.54
384.361	74.07
384.571	129.36
384.781	100.69
384.991	96.6
385.201	121.17
385.411	162.13
385.621	94.55
385.831	67.92
386.041	94.55
386.251	110.93
386.461	121.17
386.671	55.64
386.881	108.88
387.091	55.64
387.301	76.12
387.511	88.4
387.72	49.49
387.93	63.83
388.14	6.49
388.35	80.21
388.56	106.84
388.769	55.64
388.979	22.87
389.189	33.11
389.399	57.68
389.609	96.6
389.818	72.02
390.028	102.74
390.238	112.98
390.447	41.3
390.657	110.93
390.867	96.6
391.076	22.87
391.286	106.84
391.496	26.96
391.705	92.5
391.915	119.12
392.125	110.93
392.334	37.2
392.544	112.98
392.753	147.8
392.963	31.06
393.172	133.46
393.382	129.36
393.591	110.93
393.801	67.92
394.01	153.94
394.22	59.73
394.429	84.31
394.639	192.85
394.848	112.98
395.058	127.32
395.267	29.01
395.477	145.75
395.686	78.16
395.895	125.27
396.105	84.31
396.314	137.56
396.524	84.31
396.733	80.21
396.942	121.17
397.152	53.59
397.361	74.07
397.57	151.89
397.78	121.17
397.989	162.13
398.198	237.91
398.407	131.41
398.617	102.74
398.826	115.03
399.035	55.64
399.244	168.27
399.453	168.27
399.663	86.36
399.872	92.5
400.081	129.36
400.29	229.71
400.499	104.79
400.708	131.41
400.917	102.74
401.127	94.55
401.336	100.69
401.545	151.89
401.754	121.17
401.963	151.89
402.172	57.68
402.381	121.17
402.59	108.88
402.799	145.75
403.008	158.03
403.217	125.27
403.426	168.27
403.635	104.79
403.844	166.23
404.053	215.38
404.262	172.37
404.471	174.42
404.68	211.28
404.888	178.51
405.097	207.19
405.306	201.04
405.515	217.43
405.724	174.42
405.933	244.05
406.142	278.87
406.35	215.38
406.559	203.09
406.768	276.82
406.977	129.36
407.185	258.39
407.394	285.01
407.603	170.32
407.812	352.59
408.02	268.63
408.229	295.25
408.438	289.1
408.646	233.81
408.855	305.49
409.064	309.58
409.272	299.34
409.481	350.54
409.69	274.77
409.898	262.48
410.107	373.07
410.315	381.26
410.524	364.88
410.733	395.6
410.941	391.5
411.15	444.75
411.358	401.74
411.567	534.86
411.775	512.33
411.984	551.24
412.192	489.81
412.401	448.85
412.609	469.33
412.818	575.82
413.026	520.53
413.234	518.48
413.443	618.83
413.651	606.54
413.86	569.68
414.068	696.65
414.276	678.22
414.485	674.12
414.693	710.99
414.901	758.09
415.11	784.71
415.318	735.56
415.526	864.58
415.734	805.19
415.943	848.2
416.151	883.02
416.359	842.06
416.567	1003.85
416.776	969.03
416.984	1100.1
417.192	1141.06
417.4	1071.43
417.608	1155.4
417.817	1147.2
418.025	1235.27
418.233	1288.51
418.441	1186.12
418.649	1345.86
418.857	1524.03
419.065	1458.5
419.273	1403.2
419.481	1519.93
419.689	1530.17
419.897	1755.45
420.105	1655.1
420.313	1794.36
420.521	1806.65
420.729	1831.23
420.937	1773.88
421.145	1976.63
421.353	2085.17
421.561	2173.24
421.769	2126.13
421.977	2316.59
422.185	2220.34
422.393	2330.93
422.601	2533.68
422.809	2597.17
423.017	2554.16
423.224	2636.08
423.432	2763.05
423.64	2885.93
423.848	3072.29
424.056	3111.21
424.263	3023.14
424.471	3234.08
424.679	3387.68
424.887	3346.72
425.094	3549.47
425.302	3498.27
425.51	3569.95
425.718	3711.26
425.925	3772.7
426.133	3766.56
426.341	4077.85
426.548	4331.8
426.756	4368.66
426.964	4370.71
427.171	4548.88
427.379	4638.99
427.586	4753.68
427.794	5028.1
428.001	5130.5
428.209	5458.18
428.417	5425.41
428.624	5536
428.832	5683.45
429.039	5650.69
429.247	5728.51
429.454	6281.46
429.662	6682.86
429.869	6177.02
430.076	6637.81
430.284	6357.24
430.491	6920.43
430.699	6926.57
430.906	7108.84
431.114	7100.65
431.321	7389.41
431.528	7549.15
431.736	8020.19
431.943	8380.63
432.15	8114.39
432.358	8270.04
432.565	8603.86
432.772	8595.67
432.979	8902.86
433.187	9375.94
433.394	9294.02
433.601	10033.34
433.808	9939.13
434.016	9828.54
434.223	10320.06
434.43	10991.79
434.637	10725.55
434.844	11266.22
435.052	11554.98
435.259	11579.56
435.466	11378.86
435.673	11499.69
435.88	12495
436.087	12781.71
436.294	12949.65
436.501	12492.95
436.708	13000.85
436.915	13314.19
437.122	14012.54
437.329	13557.89
437.537	14274.68
437.743	14424.19
437.95	14372.99
438.157	15140.97
438.364	15345.77
438.571	15511.66
438.778	15759.46
438.985	17115.22
439.192	16281.69
439.399	17061.97
439.606	16500.83
439.813	17403.98
440.02	18473.02
440.227	18245.69
440.433	17807.43
440.64	18569.27
440.847	18368.57
441.054	18858.04
441.261	20060.2
441.467	20162.59
441.674	20318.24
441.881	20955.16
442.088	20983.83
442.294	20711.45
442.501	21438.48
442.708	21790.73
442.914	22818.81
443.121	23486.45
443.328	22810.62
443.534	24483.81
443.741	23441.39
443.948	23470.06
444.154	25362.39
444.361	24678.36
444.568	25100.25
444.774	25292.76
444.981	25376.72
445.187	26202.05
445.394	27209.65
445.6	26677.18
445.807	29331.35
446.013	28045.23
446.22	28596.13
446.426	29708.18
446.633	29984.65
446.839	30791.55
447.046	29812.62
447.252	31471.48
447.459	31530.87
447.665	31278.97
447.871	32440.17
448.078	33718.1
448.284	32221.03
448.491	33156.96
448.697	34168.65
448.903	34815.81
449.11	34989.89
449.316	34342.73
449.522	35020.61
449.728	35737.4
449.935	36415.27
450.141	36001.58
450.347	37179.17
450.553	35505.98
450.76	35766.07
450.966	37359.39
451.172	36978.47
451.378	37203.74
451.584	36923.17
451.791	37689.11
451.997	37660.44
452.203	38534.92
452.409	38326.03
452.615	37744.41
452.821	36210.48
453.027	36036.4
453.233	38215.44
453.44	36415.27
453.646	36904.74
453.852	36994.85
454.058	37265.18
454.264	36419.37
454.47	37013.28
454.676	36015.92
454.882	37236.51
455.088	34105.16
455.294	34594.63
455.5	34928.45
455.705	35286.84
455.911	34056.01
456.117	33689.43
456.323	32855.9
456.529	31139.71
456.735	32374.63
456.941	31651.7
457.147	31143.8
457.352	29931.4
457.558	29939.6
457.764	29454.23
457.97	28968.86
458.176	28632.99
458.381	28395.43
458.587	26881.98
458.793	27021.24
458.999	25790.41
459.204	27654.06
459.41	26931.13
459.616	25147.35
459.821	25243.6
460.027	25274.32
460.233	24471.52
460.438	23355.38
460.644	23515.12
460.85	22513.66
461.055	22263.81
461.261	22136.84
461.466	20705.31
461.672	19748.9
461.878	21209.11
462.083	19851.3
462.289	19505.2
462.494	19085.36
462.7	18440.25
462.905	18085.95
463.111	18444.35
463.316	18817.08
463.522	18276.41
463.727	18221.12
463.932	18131.01
464.138	18131.01
464.343	18169.92
464.549	17752.13
464.754	18278.46
464.959	17866.82
465.165	17936.45
465.37	17377.36
465.575	16717.91
465.781	17383.5
465.986	17610.82
466.191	16951.38
466.397	16447.58
466.602	15806.56
466.807	16457.82
467.012	16289.88
467.218	16261.21
467.423	15992.93
