Data from USB4F104151__183__10-27-54-886.txt Node

Date: Wed Mar 12 10:27:54 EDT 2025
User: louis
Spectrometer: USB4F10415
Trigger mode: 4
Integration Time (sec): 3.000000E-2
Scans to average: 1
Electric dark correction enabled: true
Nonlinearity correction enabled: false
Boxcar width: 0
XAxis mode: Wavelengths
Number of Pixels in Spectrum: 3648
>>>>>Begin Spectral Data<<<<<
178.204	-70.14
178.424	-70.14
178.644	-70.14
178.864	-123.39
179.084	-64
179.304	34.3
179.524	-10.75
179.744	28.16
179.964	26.11
180.184	-6.66
180.404	28.16
180.624	-4.61
180.844	-45.57
181.064	-70.14
181.283	19.97
181.503	19.97
181.723	-18.94
181.943	-27.14
182.163	32.26
182.383	-43.52
182.602	5.63
182.822	-29.18
183.042	91.65
183.262	-10.75
183.482	32.26
183.701	24.06
183.921	-2.56
184.141	3.58
184.361	11.78
184.58	-18.94
184.8	-20.99
185.02	22.02
185.239	46.59
185.459	-0.51
185.679	114.17
185.898	30.21
186.118	108.03
186.338	32.26
186.557	52.74
186.777	-18.94
186.997	50.69
187.216	-16.9
187.436	50.69
187.655	67.07
187.875	30.21
188.095	7.68
188.314	85.5
188.534	73.21
188.753	9.73
188.973	24.06
189.192	56.83
189.412	30.21
189.631	-0.51
189.851	26.11
190.07	97.79
190.29	-20.99
190.509	54.78
190.729	36.35
190.948	114.17
191.168	85.5
191.387	56.83
191.607	44.54
191.826	13.82
192.045	-4.61
192.265	19.97
192.484	44.54
192.704	85.5
192.923	-27.14
193.142	89.6
193.362	24.06
193.581	34.3
193.8	-33.28
194.02	52.74
194.239	65.02
194.458	48.64
194.678	-0.51
194.897	40.45
195.116	17.92
195.335	30.21
195.555	30.21
195.774	62.98
195.993	30.21
196.212	48.64
196.432	50.69
196.651	28.16
196.87	42.5
197.089	42.5
197.308	-8.7
197.528	114.17
197.747	-8.7
197.966	13.82
198.185	-2.56
198.404	32.26
198.623	44.54
198.842	15.87
199.062	22.02
199.281	89.6
199.5	34.3
199.719	46.59
199.938	26.11
200.157	5.63
200.376	-18.94
200.595	9.73
200.814	62.98
201.033	-53.76
201.252	79.36
201.471	22.02
201.69	93.69
201.909	65.02
202.128	22.02
202.347	69.12
202.566	22.02
202.785	-6.66
203.004	-29.18
203.223	15.87
203.442	48.64
203.661	52.74
203.879	-4.61
204.098	28.16
204.317	-4.61
204.536	26.11
204.755	24.06
204.974	11.78
205.193	69.12
205.411	93.69
205.63	-6.66
205.849	34.3
206.068	24.06
206.287	46.59
206.505	52.74
206.724	77.31
206.943	24.06
207.162	26.11
207.381	28.16
207.599	73.21
207.818	-10.75
208.037	34.3
208.255	-14.85
208.474	105.98
208.693	3.58
208.911	13.82
209.13	-12.8
209.349	38.4
209.567	71.17
209.786	58.88
210.005	130.56
210.223	46.59
210.442	-49.66
210.661	34.3
210.879	71.17
211.098	48.64
211.316	46.59
211.535	69.12
211.753	28.16
211.972	-59.9
212.191	24.06
212.409	-47.62
212.628	30.21
212.846	-4.61
213.065	52.74
213.283	65.02
213.502	-55.81
213.72	-33.28
213.938	136.7
214.157	48.64
214.375	15.87
214.594	15.87
214.812	97.79
215.031	69.12
215.249	24.06
215.467	91.65
215.686	54.78
215.904	81.41
216.122	71.17
216.341	73.21
216.559	103.93
216.778	138.75
216.996	7.68
217.214	93.69
217.432	32.26
217.651	38.4
217.869	17.92
218.087	40.45
218.306	7.68
218.524	-16.9
218.742	38.4
218.96	-8.7
219.179	26.11
219.397	-10.75
219.615	116.22
219.833	28.16
220.051	5.63
220.27	48.64
220.488	-16.9
220.706	62.98
220.924	-10.75
221.142	-14.85
221.36	91.65
221.578	3.58
221.796	62.98
222.015	5.63
222.233	46.59
222.451	19.97
222.669	44.54
222.887	-16.9
223.105	-74.24
223.323	-0.51
223.541	28.16
223.759	-8.7
223.977	-10.75
224.195	56.83
224.413	103.93
224.631	13.82
224.849	-0.51
225.067	3.58
225.285	-4.61
225.503	118.27
225.721	17.92
225.939	15.87
226.157	56.83
226.375	118.27
226.592	19.97
226.81	7.68
227.028	54.78
227.246	32.26
227.464	-0.51
227.682	58.88
227.9	-41.47
228.117	163.33
228.335	40.45
228.553	-20.99
228.771	110.08
228.989	32.26
229.206	110.08
229.424	-20.99
229.642	36.35
229.86	5.63
230.077	136.7
230.295	32.26
230.513	118.27
230.731	5.63
230.948	32.26
231.166	1.54
231.384	79.36
231.601	19.97
231.819	24.06
232.037	26.11
232.254	-6.66
232.472	60.93
232.689	-8.7
232.907	19.97
233.125	65.02
233.342	44.54
233.56	-35.33
233.777	93.69
233.995	50.69
234.213	54.78
234.43	7.68
234.648	22.02
234.865	54.78
235.083	65.02
235.3	5.63
235.518	40.45
235.735	40.45
235.953	77.31
236.17	40.45
236.388	-23.04
236.605	24.06
236.822	-20.99
237.04	36.35
237.257	28.16
237.475	15.87
237.692	-33.28
237.909	-23.04
238.127	11.78
238.344	103.93
238.562	50.69
238.779	128.51
238.996	-10.75
239.214	58.88
239.431	56.83
239.648	52.74
239.865	50.69
240.083	81.41
240.3	17.92
240.517	-2.56
240.735	40.45
240.952	85.5
241.169	13.82
241.386	13.82
241.603	101.89
241.821	54.78
242.038	79.36
242.255	89.6
242.472	-8.7
242.689	40.45
242.907	89.6
243.124	85.5
243.341	77.31
243.558	-33.28
243.775	-51.71
243.992	-20.99
244.209	42.5
244.426	69.12
244.643	-16.9
244.86	-4.61
245.078	101.89
245.295	48.64
245.512	54.78
245.729	1.54
245.946	105.98
246.163	32.26
246.38	32.26
246.597	62.98
246.814	17.92
247.031	67.07
247.248	30.21
247.464	60.93
247.681	26.11
247.898	-8.7
248.115	62.98
248.332	-12.8
248.549	13.82
248.766	60.93
248.983	48.64
249.2	17.92
249.417	52.74
249.633	38.4
249.85	48.64
250.067	7.68
250.284	65.02
250.501	81.41
250.717	56.83
250.934	-61.95
251.151	5.63
251.368	48.64
251.585	-20.99
251.801	-8.7
252.018	56.83
252.235	-0.51
252.451	11.78
252.668	-16.9
252.885	32.26
253.102	46.59
253.318	95.74
253.535	-0.51
253.752	30.21
253.968	15.87
254.185	-10.75
254.401	79.36
254.618	83.45
254.835	24.06
255.051	93.69
255.268	65.02
255.484	40.45
255.701	38.4
255.917	-29.18
256.134	-0.51
256.351	83.45
256.567	-43.52
256.784	52.74
257	-0.51
257.217	112.13
257.433	38.4
257.65	-43.52
257.866	-6.66
258.082	30.21
258.299	-20.99
258.515	-78.33
258.732	5.63
258.948	-23.04
259.165	46.59
259.381	5.63
259.597	65.02
259.814	-23.04
260.03	24.06
260.246	50.69
260.463	24.06
260.679	85.5
260.895	38.4
261.112	44.54
261.328	62.98
261.544	56.83
261.761	118.27
261.977	87.55
262.193	34.3
262.409	40.45
262.626	73.21
262.842	11.78
263.058	-27.14
263.274	11.78
263.49	50.69
263.707	93.69
263.923	22.02
264.139	19.97
264.355	7.68
264.571	73.21
264.787	44.54
265.004	44.54
265.22	95.74
265.436	-25.09
265.652	3.58
265.868	71.17
266.084	3.58
266.3	118.27
266.516	87.55
266.732	73.21
266.948	26.11
267.164	75.26
267.38	87.55
267.596	11.78
267.812	128.51
268.028	50.69
268.244	22.02
268.46	-2.56
268.676	15.87
268.892	130.56
269.108	-2.56
269.324	-23.04
269.54	32.26
269.756	30.21
269.972	-0.51
270.188	71.17
270.403	3.58
270.619	3.58
270.835	3.58
271.051	30.21
271.267	91.65
271.483	73.21
271.698	-20.99
271.914	5.63
272.13	-8.7
272.346	-31.23
272.562	54.78
272.777	13.82
272.993	28.16
273.209	24.06
273.425	22.02
273.64	1.54
273.856	-33.28
274.072	-0.51
274.287	-18.94
274.503	85.5
274.719	42.5
274.934	50.69
275.15	19.97
275.366	-8.7
275.581	5.63
275.797	-8.7
276.012	89.6
276.228	22.02
276.444	85.5
276.659	65.02
276.875	15.87
277.09	54.78
277.306	-57.86
277.521	69.12
277.737	28.16
277.952	93.69
278.168	32.26
278.383	50.69
278.599	69.12
278.814	89.6
279.03	52.74
279.245	-4.61
279.461	77.31
279.676	38.4
279.892	58.88
280.107	3.58
280.322	-35.33
280.538	-8.7
280.753	30.21
280.969	-51.71
281.184	5.63
281.399	67.07
281.615	-51.71
281.83	69.12
282.045	9.73
282.26	85.5
282.476	52.74
282.691	126.46
282.906	36.35
283.122	1.54
283.337	40.45
283.552	67.07
283.767	-0.51
283.983	44.54
284.198	32.26
284.413	69.12
284.628	26.11
284.843	1.54
285.058	87.55
285.274	83.45
285.489	52.74
285.704	93.69
285.919	-55.81
286.134	79.36
286.349	-41.47
286.564	50.69
286.779	75.26
286.995	-16.9
287.21	-4.61
287.425	28.16
287.64	24.06
287.855	42.5
288.07	15.87
288.285	44.54
288.5	65.02
288.715	40.45
288.93	73.21
289.145	30.21
289.36	34.3
289.575	-37.38
289.79	93.69
290.004	38.4
290.219	85.5
290.434	48.64
290.649	-29.18
290.864	-49.66
291.079	22.02
291.294	44.54
291.509	97.79
291.724	15.87
291.938	13.82
292.153	3.58
292.368	11.78
292.583	34.3
292.798	-10.75
293.012	85.5
293.227	-8.7
293.442	5.63
293.657	120.32
293.871	116.22
294.086	40.45
294.301	73.21
294.516	105.98
294.73	87.55
294.945	-23.04
295.16	11.78
295.374	-33.28
295.589	22.02
295.804	48.64
296.018	19.97
296.233	77.31
296.447	71.17
296.662	-2.56
296.877	11.78
297.091	46.59
297.306	65.02
297.52	40.45
297.735	79.36
297.949	-25.09
298.164	105.98
298.378	3.58
298.593	-2.56
298.807	77.31
299.022	32.26
299.236	50.69
299.451	15.87
299.665	22.02
299.88	28.16
300.094	-2.56
300.309	87.55
300.523	36.35
300.737	54.78
300.952	36.35
301.166	83.45
301.381	-16.9
301.595	-29.18
301.809	65.02
302.024	112.13
302.238	28.16
302.452	189.95
302.667	30.21
302.881	60.93
303.095	95.74
303.309	-6.66
303.524	52.74
303.738	44.54
303.952	32.26
304.166	-29.18
304.381	-20.99
304.595	97.79
304.809	1.54
305.023	22.02
305.237	36.35
305.452	56.83
305.666	22.02
305.88	46.59
306.094	34.3
306.308	48.64
306.522	40.45
306.736	24.06
306.95	52.74
307.164	3.58
307.379	32.26
307.593	46.59
307.807	60.93
308.021	7.68
308.235	60.93
308.449	-29.18
308.663	67.07
308.877	26.11
309.091	-0.51
309.305	3.58
309.519	48.64
309.733	50.69
309.947	-10.75
310.161	9.73
310.374	-12.8
310.588	54.78
310.802	13.82
311.016	67.07
311.23	73.21
311.444	62.98
311.658	77.31
311.872	85.5
312.085	48.64
312.299	62.98
312.513	-18.94
312.727	-2.56
312.941	46.59
313.154	24.06
313.368	15.87
313.582	67.07
313.796	5.63
314.009	126.46
314.223	105.98
314.437	28.16
314.651	71.17
314.864	30.21
315.078	26.11
315.292	38.4
315.505	105.98
315.719	19.97
315.933	105.98
316.146	101.89
316.36	83.45
316.573	60.93
316.787	40.45
317.001	54.78
317.214	46.59
317.428	46.59
317.641	-2.56
317.855	13.82
318.068	28.16
318.282	11.78
318.495	48.64
318.709	-49.66
318.922	17.92
319.136	134.65
319.349	67.07
319.563	44.54
319.776	85.5
319.99	56.83
320.203	54.78
320.417	67.07
320.63	75.26
320.843	200.19
321.057	-16.9
321.27	30.21
321.483	38.4
321.697	-16.9
321.91	73.21
322.124	19.97
322.337	7.68
322.55	-12.8
322.763	91.65
322.977	48.64
323.19	13.82
323.403	58.88
323.617	1.54
323.83	15.87
324.043	40.45
324.256	36.35
324.469	-20.99
324.683	85.5
324.896	52.74
325.109	15.87
325.322	19.97
325.535	-6.66
325.748	73.21
325.962	71.17
326.175	48.64
326.388	1.54
326.601	71.17
326.814	19.97
327.027	73.21
327.24	46.59
327.453	9.73
327.666	22.02
327.879	36.35
328.092	-8.7
328.305	81.41
328.518	-31.23
328.731	-16.9
328.944	46.59
329.157	1.54
329.37	28.16
329.583	95.74
329.796	118.27
330.009	-33.28
330.222	171.52
330.435	48.64
330.648	17.92
330.861	-2.56
331.073	32.26
331.286	32.26
331.499	85.5
331.712	56.83
331.925	89.6
332.138	5.63
332.35	91.65
332.563	34.3
332.776	65.02
332.989	19.97
333.202	38.4
333.414	50.69
333.627	103.93
333.84	58.88
334.053	24.06
334.265	58.88
334.478	46.59
334.691	13.82
334.903	32.26
335.116	26.11
335.329	7.68
335.541	81.41
335.754	60.93
335.966	65.02
336.179	24.06
336.392	-45.57
336.604	97.79
336.817	13.82
337.029	24.06
337.242	52.74
337.454	120.32
337.667	-2.56
337.88	81.41
338.092	32.26
338.305	48.64
338.517	-25.09
338.729	56.83
338.942	65.02
339.154	-20.99
339.367	-31.23
339.579	7.68
339.792	-14.85
340.004	44.54
340.217	-0.51
340.429	22.02
340.641	40.45
340.854	56.83
341.066	15.87
341.278	87.55
341.491	7.68
341.703	30.21
341.915	81.41
342.128	103.93
342.34	101.89
342.552	46.59
342.764	32.26
342.977	24.06
343.189	81.41
343.401	69.12
343.613	17.92
343.826	120.32
344.038	58.88
344.25	97.79
344.462	11.78
344.674	85.5
344.886	-4.61
345.099	32.26
345.311	69.12
345.523	13.82
345.735	15.87
345.947	24.06
346.159	97.79
346.371	77.31
346.583	46.59
346.795	73.21
347.007	65.02
347.219	11.78
347.431	-43.52
347.643	110.08
347.855	-37.38
348.067	81.41
348.279	-16.9
348.491	81.41
348.703	60.93
348.915	19.97
349.127	-47.62
349.339	-25.09
349.551	28.16
349.763	103.93
349.975	19.97
350.187	40.45
350.399	128.51
350.61	79.36
350.822	13.82
351.034	7.68
351.246	46.59
351.458	116.22
351.669	89.6
351.881	36.35
352.093	60.93
352.305	54.78
352.517	69.12
352.728	56.83
352.94	48.64
353.152	60.93
353.363	5.63
353.575	69.12
353.787	120.32
353.999	56.83
354.21	75.26
354.422	42.5
354.633	122.37
354.845	65.02
355.057	30.21
355.268	13.82
355.48	73.21
355.692	46.59
355.903	85.5
356.115	38.4
356.326	-8.7
356.538	26.11
356.749	7.68
356.961	157.18
357.172	48.64
357.384	65.02
357.595	65.02
357.807	17.92
358.018	87.55
358.23	56.83
358.441	130.56
358.653	108.03
358.864	62.98
359.075	26.11
359.287	101.89
359.498	44.54
359.709	48.64
359.921	-12.8
360.132	79.36
360.344	134.65
360.555	77.31
360.766	38.4
360.977	15.87
361.189	120.32
361.4	62.98
361.611	54.78
361.823	40.45
362.034	65.02
362.245	1.54
362.456	32.26
362.667	73.21
362.879	-12.8
363.09	48.64
363.301	24.06
363.512	73.21
363.723	105.98
363.935	44.54
364.146	110.08
364.357	19.97
364.568	32.26
364.779	9.73
364.99	52.74
365.201	-2.56
365.412	105.98
365.623	34.3
365.834	30.21
366.045	95.74
366.256	56.83
366.467	85.5
366.678	-33.28
366.889	42.5
367.1	19.97
367.311	40.45
367.522	-23.04
367.733	69.12
367.944	32.26
368.155	77.31
368.366	130.56
368.577	118.27
368.788	83.45
368.999	-25.09
369.209	50.69
369.42	69.12
369.631	173.57
369.842	157.18
370.053	24.06
370.264	52.74
370.474	60.93
370.685	81.41
370.896	28.16
371.107	60.93
371.317	48.64
371.528	157.18
371.739	95.74
371.95	62.98
372.16	79.36
372.371	15.87
372.582	110.08
372.792	65.02
373.003	108.03
373.214	87.55
373.424	9.73
373.635	7.68
373.846	75.26
374.056	46.59
374.267	38.4
374.477	15.87
374.688	-25.09
374.898	97.79
375.109	56.83
375.319	71.17
375.53	46.59
375.74	134.65
375.951	13.82
376.161	1.54
376.372	-23.04
376.582	-4.61
376.793	138.75
377.003	52.74
377.214	89.6
377.424	83.45
377.635	34.3
377.845	105.98
378.055	5.63
378.266	9.73
378.476	77.31
378.686	105.98
378.897	62.98
379.107	54.78
379.317	93.69
379.528	32.26
379.738	85.5
379.948	81.41
380.158	38.4
380.369	-0.51
380.579	73.21
380.789	62.98
380.999	87.55
381.21	87.55
381.42	60.93
381.63	79.36
381.84	11.78
382.05	93.69
382.261	167.42
382.471	93.69
382.681	-14.85
382.891	62.98
383.101	132.61
383.311	22.02
383.521	67.07
383.731	159.23
383.941	93.69
384.151	-0.51
384.361	77.31
384.571	-23.04
384.781	73.21
384.991	93.69
385.201	130.56
385.411	34.3
385.621	62.98
385.831	101.89
386.041	69.12
386.251	73.21
386.461	32.26
386.671	44.54
386.881	65.02
387.091	-0.51
387.301	65.02
387.511	95.74
387.72	134.65
387.93	40.45
388.14	-55.81
388.35	134.65
388.56	62.98
388.769	130.56
388.979	118.27
389.189	-57.86
389.399	3.58
389.609	15.87
389.818	95.74
390.028	114.17
390.238	62.98
390.447	77.31
390.657	48.64
390.867	7.68
391.076	73.21
391.286	24.06
391.496	105.98
391.705	83.45
391.915	83.45
392.125	77.31
392.334	65.02
392.544	62.98
392.753	114.17
392.963	-35.33
393.172	48.64
393.382	95.74
393.591	69.12
393.801	87.55
394.01	124.41
394.22	9.73
394.429	105.98
394.639	38.4
394.848	146.94
395.058	101.89
395.267	116.22
395.477	128.51
395.686	118.27
395.895	114.17
396.105	202.24
396.314	95.74
396.524	151.04
396.733	128.51
396.942	71.17
397.152	122.37
397.361	34.3
397.57	151.04
397.78	130.56
397.989	89.6
398.198	118.27
398.407	89.6
398.617	114.17
398.826	179.71
399.035	89.6
399.244	75.26
399.453	101.89
399.663	122.37
399.872	140.8
400.081	114.17
400.29	120.32
400.499	79.36
400.708	163.33
400.917	32.26
401.127	97.79
401.336	155.13
401.545	108.03
401.754	151.04
401.963	93.69
402.172	62.98
402.381	112.13
402.59	114.17
402.799	124.41
403.008	153.09
403.217	95.74
403.426	138.75
403.635	159.23
403.844	151.04
404.053	146.94
404.262	85.5
404.471	200.19
404.68	179.71
404.888	169.47
405.097	165.37
405.306	138.75
405.515	85.5
405.724	202.24
405.933	196.09
406.142	196.09
406.35	144.89
406.559	153.09
406.768	97.79
406.977	269.82
407.185	214.52
407.394	206.33
407.603	128.51
407.812	214.52
408.02	218.62
408.229	224.76
408.438	187.9
408.646	185.85
408.855	294.4
409.064	308.73
409.272	228.86
409.481	253.44
409.69	228.86
409.898	204.28
410.107	251.39
410.315	222.72
410.524	273.92
410.733	327.16
410.941	304.64
411.15	341.5
411.358	429.56
411.567	368.12
411.775	474.62
411.984	376.31
412.192	364.03
412.401	329.21
412.609	437.75
412.818	464.38
413.026	591.35
413.234	501.24
413.443	458.23
413.651	564.73
413.86	570.87
414.068	599.54
414.276	581.11
414.485	593.4
414.693	552.44
414.901	687.61
415.11	654.84
415.318	699.89
415.526	736.76
415.734	689.65
415.943	681.46
416.151	802.29
416.359	763.38
416.567	742.9
416.776	824.82
416.984	916.98
417.192	900.59
417.4	1000.94
417.608	929.27
417.817	892.4
418.025	976.37
418.233	1156.59
418.441	1117.68
418.649	1007.09
418.857	1166.83
419.065	1316.33
419.273	1183.21
419.481	1201.65
419.689	1336.81
419.897	1416.68
420.105	1371.63
420.313	1412.59
420.521	1490.41
420.729	1603.05
420.937	1582.57
421.145	1601
421.353	1748.45
421.561	1783.27
421.769	1848.8
421.977	1910.24
422.185	1879.52
422.393	2035.17
422.601	2194.91
422.809	2057.7
423.017	2151.9
423.224	2209.25
423.432	2366.94
423.64	2305.5
423.848	2647.51
424.056	2514.39
424.263	2598.36
424.471	2616.79
424.679	2715.09
424.887	2790.87
425.094	2921.94
425.302	2960.85
425.51	3085.78
425.718	3153.36
425.925	3192.27
426.133	3315.15
426.341	3577.29
426.548	3839.43
426.756	3681.74
426.964	3722.7
427.171	4062.66
427.379	3835.33
427.586	4058.56
427.794	4212.16
428.001	4318.65
428.209	4517.31
428.417	4498.88
428.624	4828.6
428.832	4875.7
429.039	4705.72
429.247	4748.73
429.454	5186.99
429.662	5539.24
429.869	5293.49
430.076	5758.38
430.284	5453.23
430.491	5709.22
430.699	6049.19
430.906	6077.86
431.114	6057.38
431.321	6210.98
431.528	6409.63
431.736	6886.81
431.943	7194
432.15	7040.4
432.358	7042.45
432.565	7515.53
432.772	7306.64
432.979	7818.63
433.187	7994.76
433.394	8064.39
433.601	8510.85
433.808	8406.4
434.016	8390.02
434.223	8631.68
434.43	9094.52
434.637	9211.25
434.844	9614.7
435.052	9997.67
435.259	9768.3
435.466	9907.56
435.673	9579.89
435.88	10382.69
436.087	10960.22
436.294	10931.55
436.501	10796.38
436.708	10919.26
436.915	11425.11
437.122	11728.21
437.329	11709.77
437.537	12025.16
437.743	12303.68
437.95	12430.66
438.157	12795.2
438.364	13370.68
438.571	13190.45
438.778	13505.84
438.985	14552.35
439.192	14103.85
439.399	14632.22
439.606	14253.35
439.813	15088.92
440.02	15940.88
440.227	15826.19
440.433	15408.4
440.64	15998.22
440.847	15697.17
441.054	16211.21
441.261	17435.89
441.467	17276.15
441.674	17433.85
441.881	18257.13
442.088	17923.31
442.294	17945.84
442.501	18539.75
442.708	18681.06
442.914	19399.9
443.121	20288.71
443.328	19567.83
443.534	20954.3
443.741	20350.15
443.948	19975.38
444.154	21849.27
444.361	21404.86
444.568	21753.01
444.774	21908.66
444.981	21847.22
445.187	22455.47
445.394	23927.95
445.6	23188.64
445.807	25320.57
446.013	24470.67
446.22	24953.99
446.426	25795.7
446.633	25980.02
446.839	26819.69
447.046	25902.2
447.252	26813.54
447.459	27106.4
447.665	27112.55
447.871	28535.88
448.078	29094.98
448.284	28007.51
448.491	28675.15
448.697	29617.21
448.903	30100.53
449.11	30354.48
449.316	29824.06
449.522	30118.96
449.728	31077.41
449.935	31464.48
450.141	31579.17
450.347	31786.01
450.553	30821.42
450.76	31353.89
450.966	32314.39
451.172	31804.44
451.378	32453.65
451.584	31972.38
451.791	32689.17
451.997	32678.93
452.203	32896.01
452.409	33104.9
452.615	33102.85
452.821	32009.24
453.027	31142.95
453.233	32785.42
453.44	31740.96
453.646	31874.07
453.852	32388.11
454.058	32496.66
454.264	31681.56
454.47	32203.8
454.676	31128.61
454.882	32693.26
455.088	29555.77
455.294	30100.53
455.5	30151.73
455.705	30735.4
455.911	29250.63
456.117	28920.9
456.323	28331.09
456.529	26813.54
456.735	27884.63
456.941	27448.41
457.147	26825.83
457.352	26129.52
457.558	25531.51
457.764	25990.26
457.97	25371.77
458.176	25031.81
458.381	24665.22
458.587	23479.45
458.793	23518.36
458.999	22213.81
459.204	23637.14
459.41	23344.28
459.616	21544.12
459.821	21662.9
460.027	21703.86
460.233	21025.98
460.438	19958.99
460.644	20464.84
460.85	19447
461.055	19123.42
461.261	19035.36
461.466	17876.21
461.672	17108.22
461.878	18187.5
462.083	16921.85
462.289	16745.73
462.494	16856.32
462.7	15793.42
462.905	15408.4
463.111	16203.02
463.316	16006.41
463.522	15742.22
463.727	15834.38
463.932	15693.07
464.138	15475.99
464.343	15598.87
464.549	15226.14
464.754	15678.74
464.959	15416.6
465.165	15592.72
465.37	15070.49
465.575	14427.43
465.781	15115.55
465.986	15129.88
466.191	14703.9
466.397	14226.73
466.602	13905.2
466.807	14261.54
467.012	14099.75
467.218	14224.68
467.423	13845.8
467.628	14167.34
