Data from USB4F104151__48__10-23-28-006.txt Node

Date: Wed Mar 12 10:23:28 EDT 2025
User: louis
Spectrometer: USB4F10415
Trigger mode: 4
Integration Time (sec): 3.000000E-2
Scans to average: 1
Electric dark correction enabled: true
Nonlinearity correction enabled: false
Boxcar width: 0
XAxis mode: Wavelengths
Number of Pixels in Spectrum: 3648
>>>>>Begin Spectral Data<<<<<
178.204	-76.8
178.424	-76.8
178.644	-76.8
178.864	-148.48
179.084	-99.33
179.304	7.17
179.524	-27.65
179.744	13.31
179.964	64.51
180.184	-54.27
180.404	35.84
180.624	-15.36
180.844	-3.07
181.064	-58.37
181.283	-17.41
181.503	66.56
181.723	-11.26
181.943	-9.22
182.163	50.18
182.383	27.65
182.602	25.6
182.822	64.51
183.042	3.07
183.262	89.09
183.482	60.42
183.701	72.7
183.921	-9.22
184.141	-19.46
184.361	33.79
184.58	7.17
184.8	-11.26
185.02	11.26
185.239	72.7
185.459	-9.22
185.679	29.7
185.898	11.26
186.118	41.98
186.338	70.65
186.557	-11.26
186.777	-15.36
186.997	11.26
187.216	52.22
187.436	60.42
187.655	78.85
187.875	76.8
188.095	-3.07
188.314	93.18
188.534	82.94
188.753	7.17
188.973	66.56
189.192	44.03
189.412	-5.12
189.631	56.32
189.851	25.6
190.07	105.47
190.29	-1.02
190.509	7.17
190.729	64.51
190.948	74.75
191.168	123.9
191.387	46.08
191.607	50.18
191.826	48.13
192.045	25.6
192.265	19.46
192.484	1.02
192.704	101.37
192.923	-5.12
193.142	109.57
193.362	31.74
193.581	56.32
193.8	107.52
194.02	58.37
194.239	76.8
194.458	76.8
194.678	60.42
194.897	-21.5
195.116	25.6
195.335	1.02
195.555	101.37
195.774	76.8
195.993	50.18
196.212	31.74
196.432	95.23
196.651	19.46
196.87	-5.12
197.089	66.56
197.308	105.47
197.528	25.6
197.747	-17.41
197.966	56.32
198.185	44.03
198.404	56.32
198.623	82.94
198.842	103.42
199.062	19.46
199.281	52.22
199.5	113.66
199.719	93.18
199.938	91.13
200.157	162.81
200.376	74.75
200.595	33.79
200.814	31.74
201.033	13.31
201.252	35.84
201.471	41.98
201.69	41.98
201.909	44.03
202.128	74.75
202.347	64.51
202.566	44.03
202.785	11.26
203.004	27.65
203.223	58.37
203.442	-7.17
203.661	11.26
203.879	21.5
204.098	31.74
204.317	46.08
204.536	97.28
204.755	84.99
204.974	-7.17
205.193	103.42
205.411	58.37
205.63	121.85
205.849	78.85
206.068	46.08
206.287	-7.17
206.505	-11.26
206.724	11.26
206.943	25.6
207.162	-3.07
207.381	27.65
207.599	84.99
207.818	37.89
208.037	29.7
208.255	-17.41
208.474	-17.41
208.693	46.08
208.911	50.18
209.13	80.89
209.349	76.8
209.567	99.33
209.786	35.84
210.005	17.41
210.223	87.04
210.442	-17.41
210.661	84.99
210.879	52.22
211.098	70.65
211.316	58.37
211.535	84.99
211.753	41.98
211.972	-13.31
212.191	3.07
212.409	23.55
212.628	68.61
212.846	9.22
213.065	58.37
213.283	52.22
213.502	58.37
213.72	66.56
213.938	27.65
214.157	-9.22
214.375	41.98
214.594	-37.89
214.812	46.08
215.031	-9.22
215.249	54.27
215.467	64.51
215.686	119.81
215.904	109.57
216.122	3.07
216.341	41.98
216.559	-41.98
216.778	29.7
216.996	60.42
217.214	27.65
217.432	-5.12
217.651	37.89
217.869	62.46
218.087	-25.6
218.306	64.51
218.524	44.03
218.742	7.17
218.96	19.46
219.179	52.22
219.397	52.22
219.615	66.56
219.833	101.37
220.051	13.31
220.27	46.08
220.488	60.42
220.706	50.18
220.924	35.84
221.142	-17.41
221.36	-21.5
221.578	119.81
221.796	52.22
222.015	21.5
222.233	1.02
222.451	-5.12
222.669	-9.22
222.887	35.84
223.105	-13.31
223.323	46.08
223.541	33.79
223.759	27.65
223.977	95.23
224.195	84.99
224.413	23.55
224.631	60.42
224.849	33.79
225.067	99.33
225.285	-17.41
225.503	35.84
225.721	15.36
225.939	109.57
226.157	27.65
226.375	62.46
226.592	39.94
226.81	52.22
227.028	60.42
227.246	134.14
227.464	37.89
227.682	44.03
227.9	72.7
228.117	35.84
228.335	48.13
228.553	19.46
228.771	78.85
228.989	33.79
229.206	54.27
229.424	78.85
229.642	48.13
229.86	58.37
230.077	72.7
230.295	-5.12
230.513	56.32
230.731	29.7
230.948	3.07
231.166	54.27
231.384	62.46
231.601	58.37
231.819	39.94
232.037	44.03
232.254	-7.17
232.472	119.81
232.689	-15.36
232.907	89.09
233.125	-46.08
233.342	44.03
233.56	21.5
233.777	37.89
233.995	41.98
234.213	62.46
234.43	54.27
234.648	39.94
234.865	119.81
235.083	54.27
235.3	56.32
235.518	41.98
235.735	76.8
235.953	119.81
236.17	99.33
236.388	52.22
236.605	13.31
236.822	60.42
237.04	66.56
237.257	68.61
237.475	3.07
237.692	25.6
237.909	41.98
238.127	35.84
238.344	15.36
238.562	99.33
238.779	1.02
238.996	107.52
239.214	39.94
239.431	91.13
239.648	-1.02
239.865	54.27
240.083	54.27
240.3	107.52
240.517	-25.6
240.735	3.07
240.952	56.32
241.169	41.98
241.386	74.75
241.603	52.22
241.821	23.55
242.038	62.46
242.255	84.99
242.472	39.94
242.689	9.22
242.907	99.33
243.124	52.22
243.341	50.18
243.558	9.22
243.775	-7.17
243.992	9.22
244.209	31.74
244.426	74.75
244.643	66.56
244.86	25.6
245.078	72.7
245.295	19.46
245.512	19.46
245.729	29.7
245.946	29.7
246.163	31.74
246.38	80.89
246.597	58.37
246.814	17.41
247.031	78.85
247.248	25.6
247.464	11.26
247.681	70.65
247.898	56.32
248.115	66.56
248.332	-46.08
248.549	97.28
248.766	58.37
248.983	50.18
249.2	25.6
249.417	27.65
249.633	31.74
249.85	95.23
250.067	-1.02
250.284	11.26
250.501	87.04
250.717	109.57
250.934	60.42
251.151	60.42
251.368	9.22
251.585	15.36
251.801	25.6
252.018	19.46
252.235	91.13
252.451	130.05
252.668	19.46
252.885	84.99
253.102	89.09
253.318	101.37
253.535	-41.98
253.752	-1.02
253.968	48.13
254.185	58.37
254.401	46.08
254.618	60.42
254.835	89.09
255.051	58.37
255.268	74.75
255.484	60.42
255.701	-25.6
255.917	70.65
256.134	11.26
256.351	35.84
256.567	29.7
256.784	78.85
257	17.41
257.217	132.09
257.433	37.89
257.65	11.26
257.866	41.98
258.082	54.27
258.299	31.74
258.515	21.5
258.732	-46.08
258.948	89.09
259.165	15.36
259.381	82.94
259.597	7.17
259.814	82.94
260.03	19.46
260.246	68.61
260.463	82.94
260.679	37.89
260.895	46.08
261.112	101.37
261.328	19.46
261.544	-21.5
261.761	101.37
261.977	52.22
262.193	13.31
262.409	-13.31
262.626	93.18
262.842	72.7
263.058	78.85
263.274	29.7
263.49	115.71
263.707	41.98
263.923	33.79
264.139	33.79
264.355	56.32
264.571	52.22
264.787	27.65
265.004	62.46
265.22	113.66
265.436	76.8
265.652	44.03
265.868	-15.36
266.084	-17.41
266.3	93.18
266.516	54.27
266.732	76.8
266.948	117.76
267.164	103.42
267.38	107.52
267.596	50.18
267.812	152.57
268.028	115.71
268.244	33.79
268.46	89.09
268.676	27.65
268.892	72.7
269.108	48.13
269.324	33.79
269.54	-56.32
269.756	-13.31
269.972	33.79
270.188	60.42
270.403	-50.18
270.619	33.79
270.835	44.03
271.051	35.84
271.267	37.89
271.483	21.5
271.698	48.13
271.914	-7.17
272.13	58.37
272.346	74.75
272.562	70.65
272.777	70.65
272.993	52.22
273.209	41.98
273.425	82.94
273.64	33.79
273.856	80.89
274.072	60.42
274.287	105.47
274.503	52.22
274.719	80.89
274.934	25.6
275.15	-7.17
275.366	46.08
275.581	89.09
275.797	76.8
276.012	39.94
276.228	-25.6
276.444	35.84
276.659	17.41
276.875	35.84
277.09	107.52
277.306	76.8
277.521	27.65
277.737	84.99
277.952	97.28
278.168	29.7
278.383	72.7
278.599	41.98
278.814	101.37
279.03	68.61
279.245	56.32
279.461	93.18
279.676	91.13
279.892	41.98
280.107	11.26
280.322	-44.03
280.538	-7.17
280.753	17.41
280.969	113.66
281.184	19.46
281.399	64.51
281.615	31.74
281.83	56.32
282.045	41.98
282.26	-21.5
282.476	48.13
282.691	142.33
282.906	33.79
283.122	50.18
283.337	17.41
283.552	80.89
283.767	23.55
283.983	113.66
284.198	93.18
284.413	48.13
284.628	-1.02
284.843	72.7
285.058	74.75
285.274	-15.36
285.489	1.02
285.704	48.13
285.919	41.98
286.134	56.32
286.349	1.02
286.564	5.12
286.779	95.23
286.995	58.37
287.21	31.74
287.425	-3.07
287.64	48.13
287.855	56.32
288.07	3.07
288.285	50.18
288.5	74.75
288.715	-13.31
288.93	107.52
289.145	-1.02
289.36	84.99
289.575	78.85
289.79	52.22
290.004	19.46
290.219	64.51
290.434	48.13
290.649	60.42
290.864	41.98
291.079	84.99
291.294	60.42
291.509	33.79
291.724	68.61
291.938	-7.17
292.153	52.22
292.368	66.56
292.583	41.98
292.798	66.56
293.012	35.84
293.227	66.56
293.442	17.41
293.657	154.62
293.871	117.76
294.086	66.56
294.301	109.57
294.516	25.6
294.73	113.66
294.945	29.7
295.16	7.17
295.374	50.18
295.589	138.24
295.804	33.79
296.018	17.41
296.233	125.95
296.447	37.89
296.662	33.79
296.877	89.09
297.091	91.13
297.306	35.84
297.52	-68.61
297.735	64.51
297.949	56.32
298.164	72.7
298.378	74.75
298.593	41.98
298.807	-25.6
299.022	84.99
299.236	70.65
299.451	91.13
299.665	29.7
299.88	44.03
300.094	105.47
300.309	41.98
300.523	54.27
300.737	17.41
300.952	56.32
301.166	-15.36
301.381	35.84
301.595	48.13
301.809	68.61
302.024	23.55
302.238	66.56
302.452	82.94
302.667	44.03
302.881	60.42
303.095	82.94
303.309	39.94
303.524	52.22
303.738	68.61
303.952	19.46
304.166	31.74
304.381	37.89
304.595	82.94
304.809	76.8
305.023	70.65
305.237	117.76
305.452	54.27
305.666	66.56
305.88	56.32
306.094	60.42
306.308	52.22
306.522	62.46
306.736	78.85
306.95	29.7
307.164	-9.22
307.379	91.13
307.593	27.65
307.807	39.94
308.021	41.98
308.235	93.18
308.449	125.95
308.663	52.22
308.877	105.47
309.091	25.6
309.305	87.04
309.519	-37.89
309.733	70.65
309.947	99.33
310.161	50.18
310.374	93.18
310.588	64.51
310.802	-13.31
311.016	39.94
311.23	154.62
311.444	1.02
311.658	91.13
311.872	27.65
312.085	89.09
312.299	66.56
312.513	41.98
312.727	-29.7
312.941	107.52
313.154	72.7
313.368	-3.07
313.582	56.32
313.796	15.36
314.009	25.6
314.223	105.47
314.437	41.98
314.651	48.13
314.864	-37.89
315.078	7.17
315.292	11.26
315.505	68.61
315.719	64.51
315.933	44.03
316.146	37.89
316.36	50.18
316.573	66.56
316.787	19.46
317.001	138.24
317.214	50.18
317.428	27.65
317.641	-31.74
317.855	1.02
318.068	64.51
318.282	33.79
318.495	64.51
318.709	25.6
318.922	35.84
319.136	93.18
319.349	91.13
319.563	19.46
319.776	134.14
319.99	27.65
320.203	173.05
320.417	19.46
320.63	41.98
320.843	95.23
321.057	56.32
321.27	27.65
321.483	74.75
321.697	89.09
321.91	72.7
322.124	74.75
322.337	68.61
322.55	11.26
322.763	5.12
322.977	-5.12
323.19	68.61
323.403	-9.22
323.617	101.37
323.83	105.47
324.043	58.37
324.256	117.76
324.469	-13.31
324.683	23.55
324.896	52.22
325.109	21.5
325.322	56.32
325.535	56.32
325.748	50.18
325.962	93.18
326.175	27.65
326.388	70.65
326.601	17.41
326.814	91.13
327.027	50.18
327.24	56.32
327.453	9.22
327.666	44.03
327.879	72.7
328.092	154.62
328.305	29.7
328.518	58.37
328.731	66.56
328.944	41.98
329.157	107.52
329.37	48.13
329.583	31.74
329.796	128
330.009	13.31
330.222	33.79
330.435	3.07
330.648	-33.79
330.861	78.85
331.073	19.46
331.286	52.22
331.499	68.61
331.712	31.74
331.925	68.61
332.138	-19.46
332.35	99.33
332.563	19.46
332.776	87.04
332.989	1.02
333.202	72.7
333.414	44.03
333.627	62.46
333.84	44.03
334.053	39.94
334.265	19.46
334.478	35.84
334.691	64.51
334.903	68.61
335.116	7.17
335.329	154.62
335.541	33.79
335.754	168.96
335.966	58.37
336.179	76.8
336.392	52.22
336.604	66.56
336.817	37.89
337.029	21.5
337.242	1.02
337.454	44.03
337.667	64.51
337.88	68.61
338.092	46.08
338.305	62.46
338.517	41.98
338.729	21.5
338.942	123.9
339.154	-58.37
339.367	60.42
339.579	121.85
339.792	21.5
340.004	50.18
340.217	87.04
340.429	1.02
340.641	84.99
340.854	9.22
341.066	-13.31
341.278	84.99
341.491	123.9
341.703	60.42
341.915	-5.12
342.128	21.5
342.34	31.74
342.552	56.32
342.764	31.74
342.977	62.46
343.189	50.18
343.401	99.33
343.613	-9.22
343.826	-7.17
344.038	87.04
344.25	68.61
344.462	64.51
344.674	84.99
344.886	-1.02
345.099	74.75
345.311	-5.12
345.523	3.07
345.735	27.65
345.947	181.25
346.159	115.71
346.371	5.12
346.583	29.7
346.795	111.61
347.007	46.08
347.219	62.46
347.431	25.6
347.643	164.86
347.855	68.61
348.067	128
348.279	31.74
348.491	46.08
348.703	132.09
348.915	23.55
349.127	3.07
349.339	21.5
349.551	25.6
349.763	52.22
349.975	93.18
350.187	31.74
350.399	-15.36
350.61	52.22
350.822	21.5
351.034	52.22
351.246	31.74
351.458	89.09
351.669	95.23
351.881	44.03
352.093	60.42
352.305	78.85
352.517	52.22
352.728	132.09
352.94	50.18
353.152	87.04
353.363	-29.7
353.575	68.61
353.787	142.33
353.999	27.65
354.21	121.85
354.422	44.03
354.633	27.65
354.845	105.47
355.057	95.23
355.268	62.46
355.48	70.65
355.692	-5.12
355.903	101.37
356.115	101.37
356.326	68.61
356.538	46.08
356.749	113.66
356.961	123.9
357.172	52.22
357.384	17.41
357.595	115.71
357.807	25.6
358.018	115.71
358.23	76.8
358.441	68.61
358.653	-29.7
358.864	3.07
359.075	48.13
359.287	91.13
359.498	19.46
359.709	91.13
359.921	-39.94
360.132	115.71
360.344	39.94
360.555	33.79
360.766	19.46
360.977	60.42
361.189	101.37
361.4	78.85
361.611	56.32
361.823	132.09
362.034	91.13
362.245	27.65
362.456	29.7
362.667	52.22
362.879	68.61
363.09	11.26
363.301	80.89
363.512	21.5
363.723	11.26
363.935	11.26
364.146	80.89
364.357	76.8
364.568	93.18
364.779	41.98
364.99	50.18
365.201	76.8
365.412	50.18
365.623	35.84
365.834	68.61
366.045	64.51
366.256	195.58
366.467	125.95
366.678	113.66
366.889	50.18
367.1	134.14
367.311	68.61
367.522	52.22
367.733	132.09
367.944	37.89
368.155	52.22
368.366	138.24
368.577	74.75
368.788	154.62
368.999	-15.36
369.209	56.32
369.42	121.85
369.631	134.14
369.842	74.75
370.053	29.7
370.264	121.85
370.474	121.85
370.685	82.94
370.896	52.22
371.107	93.18
371.317	115.71
371.528	84.99
371.739	80.89
371.95	1.02
372.16	17.41
372.371	37.89
372.582	72.7
372.792	70.65
373.003	84.99
373.214	95.23
373.424	89.09
373.635	123.9
373.846	80.89
374.056	74.75
374.267	7.17
374.477	117.76
374.688	87.04
374.898	89.09
375.109	68.61
375.319	72.7
375.53	93.18
375.74	37.89
375.951	39.94
376.161	80.89
376.372	39.94
376.582	58.37
376.793	41.98
377.003	89.09
377.214	33.79
377.424	136.19
377.635	74.75
377.845	33.79
378.055	93.18
378.266	7.17
378.476	66.56
378.686	109.57
378.897	44.03
379.107	74.75
379.317	33.79
379.528	107.52
379.738	91.13
379.948	-5.12
380.158	101.37
380.369	15.36
380.579	23.55
380.789	113.66
380.999	101.37
381.21	111.61
381.42	37.89
381.63	68.61
381.84	152.57
382.05	64.51
382.261	181.25
382.471	125.95
382.681	50.18
382.891	113.66
383.101	44.03
383.311	21.5
383.521	56.32
383.731	89.09
383.941	82.94
384.151	72.7
384.361	72.7
384.571	52.22
384.781	91.13
384.991	95.23
385.201	115.71
385.411	62.46
385.621	117.76
385.831	136.19
386.041	50.18
386.251	50.18
386.461	93.18
386.671	105.47
386.881	80.89
387.091	115.71
387.301	84.99
387.511	84.99
387.72	142.33
387.93	107.52
388.14	-5.12
388.35	95.23
388.56	52.22
388.769	101.37
388.979	91.13
389.189	-17.41
389.399	76.8
389.609	109.57
389.818	41.98
390.028	154.62
390.238	91.13
390.447	70.65
390.657	89.09
390.867	33.79
391.076	66.56
391.286	80.89
391.496	109.57
391.705	50.18
391.915	140.29
392.125	148.48
392.334	80.89
392.544	173.05
392.753	78.85
392.963	132.09
393.172	50.18
393.382	37.89
393.591	140.29
393.801	117.76
394.01	230.4
394.22	97.28
394.429	150.53
394.639	93.18
394.848	134.14
395.058	76.8
395.267	80.89
395.477	107.52
395.686	150.53
395.895	132.09
396.105	152.57
396.314	150.53
396.524	107.52
396.733	117.76
396.942	181.25
397.152	113.66
397.361	148.48
397.57	99.33
397.78	107.52
397.989	105.47
398.198	138.24
398.407	41.98
398.617	60.42
398.826	144.38
399.035	166.91
399.244	142.33
399.453	154.62
399.663	162.81
399.872	142.33
400.081	136.19
400.29	195.58
400.499	48.13
400.708	211.96
400.917	132.09
401.127	113.66
401.336	84.99
401.545	185.34
401.754	248.83
401.963	152.57
402.172	87.04
402.381	80.89
402.59	109.57
402.799	218.11
403.008	158.72
403.217	109.57
403.426	177.15
403.635	152.57
403.844	150.53
404.053	111.61
404.262	183.29
404.471	187.39
404.68	220.16
404.888	164.86
405.097	109.57
405.306	187.39
405.515	289.79
405.724	283.64
405.933	220.16
406.142	177.15
406.35	191.49
406.559	187.39
406.768	277.5
406.977	277.5
407.185	287.74
407.394	252.92
407.603	142.33
407.812	291.84
408.02	254.97
408.229	257.02
408.438	293.88
408.646	293.88
408.855	279.55
409.064	285.69
409.272	279.55
409.481	418.81
409.69	332.79
409.898	336.89
410.107	369.66
410.315	400.38
410.524	355.32
410.733	453.63
410.941	357.37
411.15	402.43
411.358	451.58
411.567	482.3
411.775	455.67
411.984	490.49
412.192	498.68
412.401	523.26
412.609	560.12
412.818	558.07
413.026	590.84
413.234	541.69
413.443	670.71
413.651	588.79
413.86	617.46
414.068	703.48
414.276	744.44
414.485	713.72
414.693	764.92
414.901	695.29
415.11	838.64
415.318	840.69
415.526	748.53
415.734	793.59
415.943	838.64
416.151	904.18
416.359	965.62
416.567	994.29
416.776	977.91
416.984	1059.82
417.192	1063.92
417.4	1135.6
417.608	1094.64
417.817	1164.27
418.025	1264.62
418.233	1291.24
418.441	1252.33
418.649	1362.92
418.857	1354.73
419.065	1428.46
419.273	1371.12
419.481	1450.99
419.689	1686.5
419.897	1623.02
420.105	1651.69
420.313	1752.04
420.521	1739.75
420.729	1747.94
420.937	1911.78
421.145	1960.93
421.353	2048.99
421.561	2059.23
421.769	2227.17
421.977	2288.61
422.185	2247.65
422.393	2415.58
422.601	2698.2
422.809	2552.79
423.017	2556.89
423.224	2595.8
423.432	2792.41
423.64	2829.27
423.848	2974.67
424.056	2941.91
424.263	3283.92
424.471	3218.38
424.679	3328.97
424.887	3546.06
425.094	3621.83
425.302	3468.24
425.51	3728.33
425.718	3757
425.925	3746.76
426.133	4135.87
426.341	4357.05
426.548	4402.11
426.756	4424.64
426.964	4545.47
427.171	4635.58
427.379	4799.41
427.586	4934.58
427.794	5071.79
428.001	5303.22
428.209	5553.07
428.417	5233.58
428.624	5815.21
428.832	5845.93
429.039	5833.64
429.247	5809.06
429.454	6364.06
429.662	6833.05
429.869	6384.54
430.076	6693.79
430.284	6689.69
430.491	6849.43
430.699	7168.91
430.906	7183.25
431.114	7289.74
431.321	7625.61
431.528	7746.44
431.736	8235.91
431.943	8692.6
432.15	8483.71
432.358	8555.39
432.565	9036.66
432.772	8790.91
432.979	9233.27
433.187	9778.03
433.394	9593.71
433.601	10126.18
433.808	10310.5
434.016	10406.75
434.223	10765.15
434.43	11311.96
434.637	10898.27
434.844	11782.99
435.052	11995.98
435.259	11912.01
435.466	12170.05
435.673	11864.91
435.88	12757.82
436.087	13529.91
436.294	13161.27
436.501	12927.8
436.708	13460.27
436.915	13681.46
437.122	14308.13
437.329	14324.52
437.537	14514.98
437.743	14924.57
437.95	15069.98
438.157	15729.42
438.364	16184.07
438.571	16081.67
438.778	16032.52
438.985	17687.28
439.192	16902.91
439.399	17500.92
439.606	17076.99
439.813	17961.71
440.02	19239.64
440.227	18860.77
440.433	18338.54
440.64	19122.91
440.847	18889.44
441.054	19702.48
441.261	20763.33
441.467	20478.66
441.674	20961.98
441.881	21656.25
442.088	21578.42
442.294	21363.39
442.501	22209.2
442.708	22682.28
442.914	23521.95
443.121	24525.45
443.328	23569.05
443.534	25582.2
443.741	24853.12
443.948	24210.06
444.154	26155.63
444.361	25672.31
444.568	26249.84
444.774	26059.38
444.981	26249.84
445.187	27095.65
445.394	28330.58
445.6	28148.31
445.807	30521.9
446.013	29186.63
446.22	29712.95
446.426	30640.68
446.633	30941.74
446.839	32045.59
447.046	30878.25
447.252	32748.04
447.459	32346.64
447.665	32354.83
447.871	33378.82
448.078	35166.7
448.284	33274.37
448.491	34089.46
448.697	35467.75
448.903	36067.8
449.11	36463.06
449.316	35647.97
449.522	36418
449.728	36989.39
449.935	37654.98
450.141	36966.86
450.347	38408.63
450.553	36848.08
450.76	37548.48
450.966	38334.9
451.172	38289.85
451.378	39061.93
451.584	38326.71
451.791	38904.24
451.997	38719.92
452.203	39403.94
452.409	39453.09
452.615	39608.74
452.821	37761.47
453.027	37376.45
453.233	39408.04
453.44	37691.84
453.646	38324.66
453.852	38234.55
454.058	38785.46
454.264	37753.28
454.47	38537.65
454.676	37589.44
454.882	38896.05
455.088	35295.72
455.294	35977.69
455.5	36389.33
455.705	36637.14
455.911	34976.23
456.117	34456.05
456.323	33972.73
456.529	32272.92
456.735	33501.7
456.941	32915.98
457.147	31935
457.352	31244.84
457.558	31001.13
457.764	30855.72
457.97	30130.74
458.176	29504.06
458.381	29469.25
458.587	28103.25
458.793	28238.42
458.999	26792.55
459.204	28787.27
459.41	27669.08
459.616	25952.88
459.821	26362.48
460.027	26026.61
460.233	25150.08
460.438	24056.46
460.644	24375.95
460.85	23204.51
461.055	23036.58
461.261	23077.54
461.466	21332.67
461.672	20712.13
461.878	22004.4
462.083	20681.41
462.289	20126.41
462.494	19884.75
462.7	19409.62
462.905	18703.07
463.111	19479.25
463.316	19374.81
463.522	19262.17
463.727	19151.58
463.932	19063.52
464.138	18672.36
464.343	18895.58
464.549	18313.96
464.754	18715.36
464.959	18719.46
465.165	18436.84
465.37	17992.43
465.575	17369.85
465.781	18088.68
465.986	18359.02
466.191	17734.39
466.397	17208.06
466.602	16288.52
466.807	16950.01
467.012	16888.57
