Data from USB4F104151__66__10-24-02-262.txt Node

Date: Wed Mar 12 10:24:02 EDT 2025
User: louis
Spectrometer: USB4F10415
Trigger mode: 4
Integration Time (sec): 3.000000E-2
Scans to average: 1
Electric dark correction enabled: true
Nonlinearity correction enabled: false
Boxcar width: 0
XAxis mode: Wavelengths
Number of Pixels in Spectrum: 3648
>>>>>Begin Spectral Data<<<<<
178.204	-102.06
178.424	-102.06
178.644	-102.06
178.864	-97.96
179.084	-157.35
179.304	-24.23
179.524	-1.71
179.744	33.11
179.964	-5.8
180.184	-7.85
180.404	16.73
180.624	-3.75
180.844	31.06
181.064	-59.05
181.283	-5.8
181.503	6.49
181.723	20.82
181.943	-65.19
182.163	16.73
182.383	35.16
182.602	2.39
182.822	-85.67
183.042	6.49
183.262	-61.1
183.482	41.3
183.701	-95.91
183.921	-34.47
184.141	-9.9
184.361	24.92
184.58	78.16
184.8	-38.57
185.02	37.2
185.239	39.25
185.459	-28.33
185.679	-1.71
185.898	-44.71
186.118	22.87
186.338	31.06
186.557	49.49
186.777	4.44
186.997	10.58
187.216	-30.38
187.436	65.88
187.655	-7.85
187.875	-102.06
188.095	24.92
188.314	53.59
188.534	16.73
188.753	0.34
188.973	41.3
189.192	61.78
189.412	-9.9
189.631	14.68
189.851	-48.81
190.07	108.88
190.29	-5.8
190.509	41.3
190.729	35.16
190.948	37.2
191.168	131.41
191.387	-73.39
191.607	31.06
191.826	-18.09
192.045	16.73
192.265	35.16
192.484	29.01
192.704	57.68
192.923	-75.43
193.142	12.63
193.362	47.44
193.581	57.68
193.8	55.64
194.02	57.68
194.239	2.39
194.458	-1.71
194.678	-28.33
194.897	-3.75
195.116	-34.47
195.335	-52.91
195.555	20.82
195.774	-1.71
195.993	90.45
196.212	6.49
196.432	-54.95
196.651	12.63
196.87	-28.33
197.089	39.25
197.308	33.11
197.528	22.87
197.747	22.87
197.966	24.92
198.185	104.79
198.404	-3.75
198.623	59.73
198.842	55.64
199.062	39.25
199.281	43.35
199.5	-26.28
199.719	31.06
199.938	41.3
200.157	67.92
200.376	37.2
200.595	26.96
200.814	61.78
201.033	-26.28
201.252	102.74
201.471	0.34
201.69	31.06
201.909	-9.9
202.128	45.4
202.347	26.96
202.566	24.92
202.785	-18.09
203.004	-18.09
203.223	63.83
203.442	41.3
203.661	-24.23
203.879	-30.38
204.098	20.82
204.317	-67.24
204.536	8.53
204.755	-48.81
204.974	53.59
205.193	90.45
205.411	8.53
205.63	8.53
205.849	0.34
206.068	8.53
206.287	24.92
206.505	-7.85
206.724	-22.19
206.943	45.4
207.162	-20.14
207.381	-26.28
207.599	33.11
207.818	37.2
208.037	82.26
208.255	-3.75
208.474	65.88
208.693	-24.23
208.911	6.49
209.13	74.07
209.349	33.11
209.567	-34.47
209.786	4.44
210.005	24.92
210.223	43.35
210.442	-57
210.661	-42.67
210.879	29.01
211.098	57.68
211.316	-48.81
211.535	26.96
211.753	4.44
211.972	16.73
212.191	-11.95
212.409	6.49
212.628	29.01
212.846	-3.75
213.065	65.88
213.283	-7.85
213.502	20.82
213.72	-18.09
213.938	6.49
214.157	24.92
214.375	-54.95
214.594	-42.67
214.812	4.44
215.031	-40.62
215.249	22.87
215.467	53.59
215.686	-40.62
215.904	80.21
216.122	-34.47
216.341	22.87
216.559	100.69
216.778	20.82
216.996	24.92
217.214	67.92
217.432	-20.14
217.651	12.63
217.869	-24.23
218.087	59.73
218.306	-1.71
218.524	-32.43
218.742	-42.67
218.96	-7.85
219.179	-48.81
219.397	2.39
219.615	-44.71
219.833	22.87
220.051	20.82
220.27	-24.23
220.488	-3.75
220.706	31.06
220.924	-28.33
221.142	-69.29
221.36	0.34
221.578	78.16
221.796	0.34
222.015	45.4
222.233	67.92
222.451	41.3
222.669	-28.33
222.887	-18.09
223.105	-13.99
223.323	-5.8
223.541	-77.48
223.759	39.25
223.977	26.96
224.195	110.93
224.413	0.34
224.631	16.73
224.849	61.78
225.067	45.4
225.285	55.64
225.503	47.44
225.721	-24.23
225.939	-38.57
226.157	22.87
226.375	117.08
226.592	6.49
226.81	45.4
227.028	-11.95
227.246	53.59
227.464	37.2
227.682	-36.52
227.9	-13.99
228.117	-32.43
228.335	-3.75
228.553	6.49
228.771	20.82
228.989	8.53
229.206	29.01
229.424	8.53
229.642	-18.09
229.86	-36.52
230.077	16.73
230.295	-50.86
230.513	-7.85
230.731	53.59
230.948	57.68
231.166	84.31
231.384	-13.99
231.601	33.11
231.819	33.11
232.037	37.2
232.254	-9.9
232.472	33.11
232.689	-16.04
232.907	-5.8
233.125	14.68
233.342	41.3
233.56	8.53
233.777	-22.19
233.995	53.59
234.213	78.16
234.43	33.11
234.648	-7.85
234.865	39.25
235.083	47.44
235.3	20.82
235.518	55.64
235.735	20.82
235.953	6.49
236.17	-9.9
236.388	24.92
236.605	-16.04
236.822	51.54
237.04	33.11
237.257	41.3
237.475	14.68
237.692	29.01
237.909	112.98
238.127	-67.24
238.344	-13.99
238.562	45.4
238.779	-42.67
238.996	-26.28
239.214	12.63
239.431	-28.33
239.648	33.11
239.865	-1.71
240.083	33.11
240.3	12.63
240.517	-18.09
240.735	2.39
240.952	74.07
241.169	37.2
241.386	22.87
241.603	-42.67
241.821	-36.52
242.038	31.06
242.255	53.59
242.472	-5.8
242.689	10.58
242.907	102.74
243.124	8.53
243.341	2.39
243.558	59.73
243.775	4.44
243.992	-5.8
244.209	98.64
244.426	41.3
244.643	-57
244.86	-61.1
245.078	31.06
245.295	8.53
245.512	-24.23
245.729	-11.95
245.946	45.4
246.163	49.49
246.38	4.44
246.597	2.39
246.814	29.01
247.031	16.73
247.248	65.88
247.464	14.68
247.681	22.87
247.898	35.16
248.115	-5.8
248.332	-20.14
248.549	24.92
248.766	90.45
248.983	41.3
249.2	8.53
249.417	102.74
249.633	-13.99
249.85	-7.85
250.067	55.64
250.284	-28.33
250.501	-9.9
250.717	22.87
250.934	-104.11
251.151	-5.8
251.368	22.87
251.585	-7.85
251.801	51.54
252.018	-7.85
252.235	24.92
252.451	-30.38
252.668	-26.28
252.885	-46.76
253.102	18.77
253.318	55.64
253.535	33.11
253.752	-36.52
253.968	8.53
254.185	6.49
254.401	-52.91
254.618	-16.04
254.835	39.25
255.051	39.25
255.268	24.92
255.484	18.77
255.701	-69.29
255.917	-11.95
256.134	-11.95
256.351	164.18
256.567	-16.04
256.784	35.16
257	33.11
257.217	98.64
257.433	0.34
257.65	49.49
257.866	61.78
258.082	-1.71
258.299	-3.75
258.515	12.63
258.732	18.77
258.948	16.73
259.165	69.97
259.381	-42.67
259.597	22.87
259.814	-5.8
260.03	16.73
260.246	47.44
260.463	26.96
260.679	6.49
260.895	-20.14
261.112	-16.04
261.328	16.73
261.544	-85.67
261.761	96.6
261.977	49.49
262.193	-7.85
262.409	45.4
262.626	-22.19
262.842	22.87
263.058	74.07
263.274	57.68
263.49	-42.67
263.707	37.2
263.923	45.4
264.139	-48.81
264.355	0.34
264.571	37.2
264.787	12.63
265.004	20.82
265.22	14.68
265.436	53.59
265.652	-32.43
265.868	41.3
266.084	59.73
266.3	-3.75
266.516	-32.43
266.732	110.93
266.948	29.01
267.164	47.44
267.38	80.21
267.596	-40.62
267.812	72.02
268.028	-11.95
268.244	-9.9
268.46	0.34
268.676	29.01
268.892	41.3
269.108	-18.09
269.324	-11.95
269.54	33.11
269.756	0.34
269.972	-5.8
270.188	0.34
270.403	37.2
270.619	37.2
270.835	4.44
271.051	-36.52
271.267	18.77
271.483	18.77
271.698	45.4
271.914	-24.23
272.13	-1.71
272.346	-32.43
272.562	-9.9
272.777	8.53
272.993	16.73
273.209	55.64
273.425	14.68
273.64	-34.47
273.856	-18.09
274.072	18.77
274.287	-9.9
274.503	-67.24
274.719	82.26
274.934	43.35
275.15	-16.04
275.366	72.02
275.581	-36.52
275.797	0.34
276.012	-36.52
276.228	53.59
276.444	123.22
276.659	102.74
276.875	10.58
277.09	-34.47
277.306	26.96
277.521	45.4
277.737	-38.57
277.952	-42.67
278.168	-5.8
278.383	-3.75
278.599	2.39
278.814	41.3
279.03	-3.75
279.245	35.16
279.461	-13.99
279.676	88.4
279.892	37.2
280.107	-65.19
280.322	-3.75
280.538	-11.95
280.753	-16.04
280.969	-87.72
281.184	8.53
281.399	49.49
281.615	65.88
281.83	-22.19
282.045	-34.47
282.26	-20.14
282.476	-28.33
282.691	29.01
282.906	-26.28
283.122	-22.19
283.337	-1.71
283.552	14.68
283.767	6.49
283.983	8.53
284.198	-5.8
284.413	45.4
284.628	-32.43
284.843	53.59
285.058	72.02
285.274	-26.28
285.489	35.16
285.704	35.16
285.919	2.39
286.134	24.92
286.349	-9.9
286.564	88.4
286.779	31.06
286.995	29.01
287.21	-20.14
287.425	45.4
287.64	-20.14
287.855	0.34
288.07	37.2
288.285	26.96
288.5	86.36
288.715	76.12
288.93	57.68
289.145	-16.04
289.36	20.82
289.575	-26.28
289.79	33.11
290.004	84.31
290.219	45.4
290.434	16.73
290.649	33.11
290.864	-28.33
291.079	20.82
291.294	-20.14
291.509	-20.14
291.724	6.49
291.938	-75.43
292.153	-73.39
292.368	-34.47
292.583	-9.9
292.798	20.82
293.012	-46.76
293.227	67.92
293.442	35.16
293.657	53.59
293.871	49.49
294.086	72.02
294.301	106.84
294.516	4.44
294.73	22.87
294.945	-1.71
295.16	10.58
295.374	-40.62
295.589	35.16
295.804	-20.14
296.018	-1.71
296.233	-38.57
296.447	-44.71
296.662	4.44
296.877	61.78
297.091	6.49
297.306	49.49
297.52	0.34
297.735	31.06
297.949	8.53
298.164	-46.76
298.378	22.87
298.593	45.4
298.807	-5.8
299.022	-3.75
299.236	31.06
299.451	43.35
299.665	-22.19
299.88	63.83
300.094	37.2
300.309	47.44
300.523	-44.71
300.737	41.3
300.952	49.49
301.166	-1.71
301.381	39.25
301.595	45.4
301.809	69.97
302.024	-61.1
302.238	-48.81
302.452	-24.23
302.667	47.44
302.881	41.3
303.095	100.69
303.309	65.88
303.524	-42.67
303.738	53.59
303.952	22.87
304.166	22.87
304.381	-97.96
304.595	74.07
304.809	-5.8
305.023	-9.9
305.237	24.92
305.452	26.96
305.666	41.3
305.88	14.68
306.094	8.53
306.308	35.16
306.522	47.44
306.736	106.84
306.95	33.11
307.164	12.63
307.379	-9.9
307.593	35.16
307.807	57.68
308.021	-20.14
308.235	76.12
308.449	-54.95
308.663	-32.43
308.877	112.98
309.091	6.49
309.305	63.83
309.519	-28.33
309.733	65.88
309.947	-48.81
310.161	12.63
310.374	4.44
310.588	20.82
310.802	39.25
311.016	31.06
311.23	8.53
311.444	26.96
311.658	2.39
311.872	24.92
312.085	24.92
312.299	31.06
312.513	-1.71
312.727	39.25
312.941	31.06
313.154	10.58
313.368	35.16
313.582	43.35
313.796	41.3
314.009	39.25
314.223	51.54
314.437	22.87
314.651	6.49
314.864	24.92
315.078	18.77
315.292	33.11
315.505	-7.85
315.719	41.3
315.933	22.87
316.146	-7.85
316.36	108.88
316.573	65.88
316.787	121.17
317.001	47.44
317.214	-24.23
317.428	20.82
317.641	-34.47
317.855	108.88
318.068	16.73
318.282	6.49
318.495	14.68
318.709	12.63
318.922	82.26
319.136	35.16
319.349	33.11
319.563	57.68
319.776	33.11
319.99	-71.34
320.203	86.36
320.417	24.92
320.63	67.92
320.843	24.92
321.057	55.64
321.27	-11.95
321.483	55.64
321.697	8.53
321.91	-65.19
322.124	88.4
322.337	-3.75
322.55	24.92
322.763	12.63
322.977	-67.24
323.19	16.73
323.403	35.16
323.617	-36.52
323.83	35.16
324.043	22.87
324.256	41.3
324.469	-24.23
324.683	20.82
324.896	0.34
325.109	-36.52
325.322	33.11
325.535	41.3
325.748	-36.52
325.962	26.96
326.175	14.68
326.388	-42.67
326.601	100.69
326.814	-16.04
327.027	31.06
327.24	92.5
327.453	-48.81
327.666	16.73
327.879	61.78
328.092	55.64
328.305	10.58
328.518	-54.95
328.731	53.59
328.944	-48.81
329.157	-16.04
329.37	10.58
329.583	45.4
329.796	-9.9
330.009	41.3
330.222	69.97
330.435	-7.85
330.648	22.87
330.861	31.06
331.073	61.78
331.286	18.77
331.499	-3.75
331.712	65.88
331.925	45.4
332.138	12.63
332.35	-7.85
332.563	35.16
332.776	80.21
332.989	37.2
333.202	35.16
333.414	-7.85
333.627	-73.39
333.84	16.73
334.053	26.96
334.265	35.16
334.478	10.58
334.691	59.73
334.903	31.06
335.116	33.11
335.329	12.63
335.541	57.68
335.754	92.5
335.966	-9.9
336.179	10.58
336.392	33.11
336.604	74.07
336.817	35.16
337.029	51.54
337.242	37.2
337.454	8.53
337.667	-18.09
337.88	55.64
338.092	61.78
338.305	72.02
338.517	98.64
338.729	8.53
338.942	61.78
339.154	35.16
339.367	-42.67
339.579	41.3
339.792	12.63
340.004	29.01
340.217	-7.85
340.429	-24.23
340.641	16.73
340.854	-3.75
341.066	-3.75
341.278	84.31
341.491	96.6
341.703	10.58
341.915	-83.63
342.128	61.78
342.34	63.83
342.552	41.3
342.764	37.2
342.977	20.82
343.189	63.83
343.401	57.68
343.613	-16.04
343.826	-28.33
344.038	69.97
344.25	-9.9
344.462	-5.8
344.674	35.16
344.886	47.44
345.099	4.44
345.311	-3.75
345.523	41.3
345.735	-13.99
345.947	49.49
346.159	41.3
346.371	57.68
346.583	6.49
346.795	92.5
347.007	57.68
347.219	-44.71
347.431	33.11
347.643	43.35
347.855	49.49
348.067	57.68
348.279	12.63
348.491	35.16
348.703	0.34
348.915	16.73
349.127	-11.95
349.339	24.92
349.551	78.16
349.763	63.83
349.975	20.82
350.187	106.84
350.399	16.73
350.61	84.31
350.822	26.96
351.034	49.49
351.246	31.06
351.458	24.92
351.669	88.4
351.881	94.55
352.093	63.83
352.305	22.87
352.517	61.78
352.728	47.44
352.94	-52.91
353.152	-24.23
353.363	-24.23
353.575	12.63
353.787	33.11
353.999	0.34
354.21	29.01
354.422	65.88
354.633	14.68
354.845	98.64
355.057	-48.81
355.268	106.84
355.48	-3.75
355.692	-11.95
355.903	-9.9
356.115	-3.75
356.326	33.11
356.538	69.97
356.749	41.3
356.961	57.68
357.172	115.03
357.384	-7.85
357.595	82.26
357.807	-36.52
358.018	-9.9
358.23	26.96
358.441	82.26
358.653	45.4
358.864	57.68
359.075	86.36
359.287	35.16
359.498	41.3
359.709	-26.28
359.921	69.97
360.132	57.68
360.344	-13.99
360.555	63.83
360.766	-7.85
360.977	-36.52
361.189	88.4
361.4	49.49
361.611	39.25
361.823	10.58
362.034	65.88
362.245	24.92
362.456	24.92
362.667	8.53
362.879	43.35
363.09	43.35
363.301	69.97
363.512	4.44
363.723	74.07
363.935	-34.47
364.146	61.78
364.357	45.4
364.568	-1.71
364.779	-3.75
364.99	53.59
365.201	12.63
365.412	59.73
365.623	-122.54
365.834	12.63
366.045	47.44
366.256	76.12
366.467	123.22
366.678	-30.38
366.889	16.73
367.1	12.63
367.311	88.4
367.522	14.68
367.733	76.12
367.944	29.01
368.155	-7.85
368.366	35.16
368.577	69.97
368.788	45.4
368.999	-11.95
369.209	65.88
369.42	61.78
369.631	76.12
369.842	102.74
370.053	51.54
370.264	98.64
370.474	33.11
370.685	47.44
370.896	33.11
371.107	102.74
371.317	90.45
371.528	0.34
371.739	102.74
371.95	74.07
372.16	-3.75
372.371	33.11
372.582	45.4
372.792	37.2
373.003	41.3
373.214	61.78
373.424	0.34
373.635	39.25
373.846	49.49
374.056	12.63
374.267	129.36
374.477	-26.28
374.688	33.11
374.898	78.16
375.109	37.2
375.319	8.53
375.53	94.55
375.74	-32.43
375.951	-22.19
376.161	41.3
376.372	-13.99
376.582	20.82
376.793	-18.09
377.003	22.87
377.214	16.73
377.424	31.06
377.635	49.49
377.845	41.3
378.055	123.22
378.266	69.97
378.476	39.25
378.686	78.16
378.897	61.78
379.107	24.92
379.317	22.87
379.528	-1.71
379.738	-16.04
379.948	18.77
380.158	76.12
380.369	-3.75
380.579	84.31
380.789	-3.75
380.999	-42.67
381.21	47.44
381.42	57.68
381.63	47.44
381.84	74.07
382.05	43.35
382.261	55.64
382.471	41.3
382.681	12.63
382.891	69.97
383.101	92.5
383.311	14.68
383.521	-63.15
383.731	22.87
383.941	135.51
384.151	-32.43
384.361	65.88
384.571	22.87
384.781	33.11
384.991	127.32
385.201	117.08
385.411	90.45
385.621	67.92
385.831	57.68
386.041	-9.9
386.251	29.01
386.461	102.74
386.671	-9.9
386.881	14.68
387.091	24.92
387.301	69.97
387.511	24.92
387.72	31.06
387.93	78.16
388.14	31.06
388.35	14.68
388.56	106.84
388.769	26.96
388.979	90.45
389.189	-9.9
389.399	-13.99
389.609	59.73
389.818	69.97
390.028	24.92
390.238	151.89
390.447	57.68
390.657	0.34
390.867	29.01
391.076	20.82
391.286	65.88
391.496	-16.04
391.705	82.26
391.915	129.36
392.125	35.16
392.334	57.68
392.544	29.01
392.753	102.74
392.963	37.2
393.172	55.64
393.382	22.87
393.591	119.12
393.801	35.16
394.01	39.25
394.22	33.11
394.429	69.97
394.639	65.88
394.848	57.68
395.058	33.11
395.267	67.92
395.477	82.26
395.686	39.25
395.895	139.6
396.105	67.92
396.314	94.55
396.524	-42.67
396.733	88.4
396.942	102.74
397.152	72.02
397.361	102.74
397.57	133.46
397.78	129.36
397.989	45.4
398.198	129.36
398.407	98.64
398.617	110.93
398.826	55.64
399.035	37.2
399.244	96.6
399.453	131.41
399.663	41.3
399.872	59.73
400.081	10.58
400.29	119.12
400.499	117.08
400.708	115.03
400.917	115.03
401.127	96.6
401.336	57.68
401.545	147.8
401.754	125.27
401.963	74.07
402.172	76.12
402.381	72.02
402.59	135.51
402.799	121.17
403.008	170.32
403.217	35.16
403.426	127.32
403.635	69.97
403.844	57.68
404.053	104.79
404.262	53.59
404.471	86.36
404.68	145.75
404.888	229.71
405.097	82.26
405.306	178.51
405.515	153.94
405.724	88.4
405.933	180.56
406.142	192.85
406.35	203.09
406.559	239.95
406.768	205.14
406.977	198.99
407.185	221.52
407.394	207.19
407.603	133.46
407.812	252.24
408.02	209.23
408.229	170.32
408.438	229.71
408.646	201.04
408.855	186.71
409.064	162.13
409.272	184.66
409.481	176.47
409.69	233.81
409.898	270.67
410.107	330.06
410.315	270.67
410.524	278.87
410.733	237.91
410.941	221.52
411.15	276.82
411.358	405.84
411.567	416.08
411.775	348.5
411.984	422.22
412.192	403.79
412.401	383.31
412.609	403.79
412.818	493.9
413.026	405.84
413.234	508.24
413.443	467.28
413.651	500.05
413.86	549.2
414.068	543.05
414.276	561.48
414.485	530.77
414.693	588.11
414.901	663.88
415.11	686.41
415.318	661.84
415.526	694.6
415.734	637.26
415.943	696.65
416.151	760.14
416.359	717.13
416.567	819.53
416.776	872.78
416.984	825.67
417.192	930.12
417.4	850.25
417.608	862.54
417.817	903.5
418.025	1042.76
418.233	1106.24
418.441	989.51
418.649	1079.62
418.857	1175.88
419.065	1300.8
419.273	1186.12
419.481	1276.23
419.689	1421.63
419.897	1352
420.105	1308.99
420.313	1460.54
420.521	1466.69
420.729	1474.88
420.937	1622.33
421.145	1608
421.353	1722.68
421.561	1759.55
421.769	1831.23
421.977	1913.14
422.185	1841.47
422.393	1921.34
422.601	2050.36
422.809	2146.61
423.017	2083.13
423.224	2076.98
423.432	2337.07
423.64	2326.83
423.848	2527.53
424.056	2515.25
424.263	2736.43
424.471	2644.27
424.679	2769.2
424.887	2879.79
425.094	2885.93
425.302	3047.72
425.51	2982.18
425.718	3197.22
425.925	3275.04
426.133	3309.86
426.341	3330.34
426.548	3580.19
426.756	3676.45
426.964	3752.22
427.171	3795.23
427.379	3961.11
427.586	3895.58
427.794	4202.77
428.001	4448.53
428.209	4612.37
428.417	4602.13
428.624	4876.55
428.832	4856.08
429.039	4827.4
429.247	4710.67
429.454	5208.33
429.662	5523.71
429.869	5136.65
430.076	5630.21
430.284	5409.03
430.491	5708.03
430.699	6043.9
430.906	5984.51
431.114	6150.39
431.321	6306.04
431.528	6400.24
431.736	7018.73
431.943	7002.35
432.15	6889.71
432.358	6973.67
432.565	7268.58
432.772	7391.46
432.979	7823.58
433.187	7835.87
433.394	7835.87
433.601	8501.46
433.808	8446.16
434.016	8323.29
434.223	8755.41
434.43	9384.13
434.637	9167.05
434.844	9693.38
435.052	9732.29
435.259	9853.12
435.466	9904.32
435.673	9726.14
435.88	10418.36
436.087	10909.87
436.294	11038.89
436.501	10582.2
436.708	10897.58
436.915	11231.4
437.122	11776.16
437.329	11630.76
437.537	12075.17
437.743	12327.07
437.95	12085.4
438.157	12746.9
438.364	13133.96
438.571	13138.06
438.778	13158.54
438.985	14459
439.192	13824.13
439.399	14479.48
439.606	14047.36
439.813	14940.27
440.02	15712.36
440.227	15515.75
440.433	15341.68
440.64	15970.4
440.847	15804.52
441.054	16089.18
441.261	17385.55
441.467	17082.45
441.674	17420.36
441.881	17891.4
442.088	17844.29
442.294	17602.63
442.501	18102.34
442.708	18645.05
442.914	19228.72
443.121	19886.12
443.328	19675.18
443.534	20936.73
443.741	20166.69
443.948	20166.69
444.154	21811.21
444.361	21557.26
444.568	21475.34
444.774	21667.85
444.981	21561.36
445.187	22294.53
445.394	23312.37
445.6	22740.99
445.807	25276.37
446.013	24143.84
446.22	24573.92
446.426	25763.79
446.633	25386.96
446.839	26290.12
447.046	25364.43
447.252	26875.84
447.459	26685.37
447.665	26595.26
447.871	27869.1
448.078	28823.45
448.284	27752.37
448.491	28180.39
448.697	29190.04
448.903	30044.04
449.11	29892.49
449.316	29874.06
449.522	30177.16
449.728	30490.5
449.935	30852.99
450.141	31094.65
450.347	31516.53
450.553	30908.29
450.76	31068.03
450.966	31889.26
451.172	31582.07
451.378	32124.78
451.584	31917.93
451.791	32497.51
451.997	32364.39
452.203	32894.82
452.409	32843.62
452.615	32444.26
452.821	31553.4
453.027	31342.46
453.233	32909.15
453.44	31324.02
453.646	31430.52
453.852	31545.2
454.058	32329.58
454.264	31543.16
454.47	31735.67
454.676	31276.92
454.882	32094.06
455.088	29317.01
455.294	29716.37
455.5	30066.57
455.705	30334.85
455.911	29347.73
456.117	28626.85
456.323	28366.76
456.529	26675.13
456.735	27938.73
456.941	26970.04
457.147	26847.16
457.352	25745.36
457.558	25649.1
457.764	25694.16
457.97	25051.1
458.176	24725.47
458.381	24451.04
458.587	23252.98
458.793	23318.51
458.999	22179.84
459.204	23681
459.41	23052.28
459.616	21811.21
459.821	21651.47
460.027	21372.94
460.233	21162
460.438	20230.18
460.644	20287.52
460.85	19585.07
461.055	19312.69
461.261	18763.83
461.466	17723.46
461.672	17109.07
461.878	18311.23
462.083	17215.57
462.289	16752.73
462.494	16746.58
462.7	16027.74
462.905	15345.77
463.111	15949.92
463.316	16060.51
463.522	15798.37
463.727	15802.47
463.932	15528.04
464.138	15589.48
464.343	15444.07
464.549	15288.43
464.754	15835.24
464.959	15628.39
465.165	15360.11
465.37	14839.92
465.575	14383.23
465.781	14915.7
465.986	15100.01
466.191	14536.82
466.397	14121.09
466.602	13547.65
466.807	14000.26
467.012	13854.85
467.218	13940.86
467.423	13901.95
467.628	13928.58
