Data from USB4F104151__144__10-26-28-196.txt Node

Date: Wed Mar 12 10:26:28 EDT 2025
User: louis
Spectrometer: USB4F10415
Trigger mode: 4
Integration Time (sec): 3.000000E-2
Scans to average: 1
Electric dark correction enabled: true
Nonlinearity correction enabled: false
Boxcar width: 0
XAxis mode: Wavelengths
Number of Pixels in Spectrum: 3648
>>>>>Begin Spectral Data<<<<<
178.204	-167.42
178.424	-167.42
178.644	-167.42
178.864	-120.32
179.084	-146.94
179.304	-26.11
179.524	-36.35
179.744	-42.5
179.964	25.09
180.184	-26.11
180.404	6.66
180.624	2.56
180.844	80.38
181.064	6.66
181.283	12.8
181.503	-69.12
181.723	66.05
181.943	-58.88
182.163	14.85
182.383	-40.45
182.602	20.99
182.822	-38.4
183.042	-22.02
183.262	-22.02
183.482	0.51
183.701	33.28
183.921	41.47
184.141	-22.02
184.361	43.52
184.58	25.09
184.8	86.53
185.02	-67.07
185.239	14.85
185.459	0.51
185.679	27.14
185.898	-19.97
186.118	86.53
186.338	47.62
186.557	66.05
186.777	20.99
186.997	64
187.216	55.81
187.436	70.14
187.655	33.28
187.875	102.91
188.095	55.81
188.314	47.62
188.534	37.38
188.753	-34.3
188.973	33.28
189.192	102.91
189.412	-13.82
189.631	-42.5
189.851	55.81
190.07	90.62
190.29	51.71
190.509	-32.26
190.729	29.18
190.948	25.09
191.168	135.68
191.387	-28.16
191.607	2.56
191.826	66.05
192.045	-52.74
192.265	6.66
192.484	35.33
192.704	51.71
192.923	55.81
193.142	94.72
193.362	-15.87
193.581	31.23
193.8	76.29
194.02	-1.54
194.239	16.9
194.458	45.57
194.678	-24.06
194.897	25.09
195.116	76.29
195.335	-56.83
195.555	72.19
195.774	43.52
195.993	-34.3
196.212	8.7
196.432	14.85
196.651	-30.21
196.87	43.52
197.089	47.62
197.308	102.91
197.528	37.38
197.747	4.61
197.966	20.99
198.185	31.23
198.404	55.81
198.623	57.86
198.842	107.01
199.062	43.52
199.281	45.57
199.5	35.33
199.719	53.76
199.938	37.38
200.157	74.24
200.376	18.94
200.595	-15.87
200.814	74.24
201.033	35.33
201.252	158.21
201.471	-11.78
201.69	12.8
201.909	49.66
202.128	12.8
202.347	76.29
202.566	45.57
202.785	0.51
203.004	-46.59
203.223	113.15
203.442	49.66
203.661	2.56
203.879	31.23
204.098	-32.26
204.317	-17.92
204.536	90.62
204.755	8.7
204.974	-30.21
205.193	4.61
205.411	43.52
205.63	31.23
205.849	47.62
206.068	-3.58
206.287	104.96
206.505	41.47
206.724	18.94
206.943	-30.21
207.162	-44.54
207.381	-11.78
207.599	0.51
207.818	-3.58
208.037	41.47
208.255	18.94
208.474	4.61
208.693	57.86
208.911	55.81
209.13	57.86
209.349	59.9
209.567	61.95
209.786	76.29
210.005	16.9
210.223	51.71
210.442	-15.87
210.661	-71.17
210.879	-15.87
211.098	98.81
211.316	31.23
211.535	92.67
211.753	23.04
211.972	14.85
212.191	18.94
212.409	-22.02
212.628	33.28
212.846	6.66
213.065	35.33
213.283	123.39
213.502	57.86
213.72	-3.58
213.938	20.99
214.157	25.09
214.375	8.7
214.594	18.94
214.812	107.01
215.031	29.18
215.249	-19.97
215.467	37.38
215.686	68.09
215.904	-7.68
216.122	-42.5
216.341	72.19
216.559	8.7
216.778	-1.54
216.996	49.66
217.214	23.04
217.432	6.66
217.651	-17.92
217.869	49.66
218.087	-26.11
218.306	33.28
218.524	61.95
218.742	-28.16
218.96	27.14
219.179	23.04
219.397	16.9
219.615	90.62
219.833	31.23
220.051	41.47
220.27	49.66
220.488	41.47
220.706	27.14
220.924	-5.63
221.142	-11.78
221.36	-17.92
221.578	-11.78
221.796	88.57
222.015	123.39
222.233	31.23
222.451	55.81
222.669	-9.73
222.887	18.94
223.105	18.94
223.323	29.18
223.541	27.14
223.759	18.94
223.977	20.99
224.195	84.48
224.413	39.42
224.631	80.38
224.849	29.18
225.067	49.66
225.285	4.61
225.503	80.38
225.721	-5.63
225.939	37.38
226.157	20.99
226.375	135.68
226.592	8.7
226.81	18.94
227.028	80.38
227.246	61.95
227.464	41.47
227.682	51.71
227.9	53.76
228.117	6.66
228.335	33.28
228.553	-7.68
228.771	66.05
228.989	49.66
229.206	4.61
229.424	-3.58
229.642	49.66
229.86	-40.45
230.077	8.7
230.295	8.7
230.513	49.66
230.731	8.7
230.948	0.51
231.166	160.25
231.384	-32.26
231.601	43.52
231.819	82.43
232.037	96.77
232.254	14.85
232.472	10.75
232.689	-22.02
232.907	66.05
233.125	-3.58
233.342	16.9
233.56	-58.88
233.777	47.62
233.995	-11.78
234.213	88.57
234.43	47.62
234.648	23.04
234.865	16.9
235.083	-42.5
235.3	-5.63
235.518	143.87
235.735	74.24
235.953	41.47
236.17	29.18
236.388	90.62
236.605	25.09
236.822	49.66
237.04	37.38
237.257	53.76
237.475	37.38
237.692	94.72
237.909	33.28
238.127	-7.68
238.344	39.42
238.562	-9.73
238.779	8.7
238.996	27.14
239.214	37.38
239.431	45.57
239.648	4.61
239.865	20.99
240.083	104.96
240.3	-15.87
240.517	41.47
240.735	2.56
240.952	57.86
241.169	57.86
241.386	68.09
241.603	29.18
241.821	-24.06
242.038	82.43
242.255	0.51
242.472	47.62
242.689	51.71
242.907	61.95
243.124	12.8
243.341	27.14
243.558	45.57
243.775	68.09
243.992	25.09
244.209	92.67
244.426	43.52
244.643	92.67
244.86	61.95
245.078	-13.82
245.295	88.57
245.512	-48.64
245.729	-15.87
245.946	6.66
246.163	18.94
246.38	47.62
246.597	115.2
246.814	-24.06
247.031	25.09
247.248	45.57
247.464	57.86
247.681	8.7
247.898	-7.68
248.115	2.56
248.332	2.56
248.549	-17.92
248.766	104.96
248.983	68.09
249.2	27.14
249.417	49.66
249.633	23.04
249.85	86.53
250.067	41.47
250.284	98.81
250.501	37.38
250.717	31.23
250.934	37.38
251.151	-36.35
251.368	8.7
251.585	31.23
251.801	-34.3
252.018	-5.63
252.235	25.09
252.451	4.61
252.668	8.7
252.885	55.81
253.102	84.48
253.318	61.95
253.535	-15.87
253.752	35.33
253.968	33.28
254.185	-7.68
254.401	12.8
254.618	76.29
254.835	-15.87
255.051	74.24
255.268	23.04
255.484	53.76
255.701	14.85
255.917	57.86
256.134	31.23
256.351	12.8
256.567	-15.87
256.784	33.28
257	-15.87
257.217	70.14
257.433	37.38
257.65	16.9
257.866	47.62
258.082	-44.54
258.299	-30.21
258.515	45.57
258.732	-30.21
258.948	47.62
259.165	-32.26
259.381	12.8
259.597	-44.54
259.814	4.61
260.03	-1.54
260.246	25.09
260.463	94.72
260.679	14.85
260.895	29.18
261.112	35.33
261.328	53.76
261.544	37.38
261.761	92.67
261.977	4.61
262.193	-93.69
262.409	41.47
262.626	12.8
262.842	41.47
263.058	66.05
263.274	49.66
263.49	39.42
263.707	20.99
263.923	109.05
264.139	25.09
264.355	47.62
264.571	59.9
264.787	12.8
265.004	27.14
265.22	90.62
265.436	57.86
265.652	45.57
265.868	121.34
266.084	45.57
266.3	123.39
266.516	25.09
266.732	-44.54
266.948	57.86
267.164	14.85
267.38	-7.68
267.596	8.7
267.812	43.52
268.028	-1.54
268.244	41.47
268.46	41.47
268.676	-7.68
268.892	27.14
269.108	-1.54
269.324	16.9
269.54	10.75
269.756	80.38
269.972	-11.78
270.188	-32.26
270.403	10.75
270.619	76.29
270.835	64
271.051	20.99
271.267	-48.64
271.483	37.38
271.698	59.9
271.914	10.75
272.13	-3.58
272.346	90.62
272.562	12.8
272.777	39.42
272.993	92.67
273.209	-3.58
273.425	49.66
273.64	8.7
273.856	-28.16
274.072	2.56
274.287	41.47
274.503	55.81
274.719	20.99
274.934	16.9
275.15	20.99
275.366	82.43
275.581	14.85
275.797	33.28
276.012	25.09
276.228	-15.87
276.444	66.05
276.659	88.57
276.875	-24.06
277.09	78.33
277.306	86.53
277.521	-19.97
277.737	-24.06
277.952	23.04
278.168	64
278.383	33.28
278.599	23.04
278.814	-1.54
279.03	45.57
279.245	117.25
279.461	-22.02
279.676	31.23
279.892	-32.26
280.107	8.7
280.322	55.81
280.538	47.62
280.753	49.66
280.969	41.47
281.184	37.38
281.399	27.14
281.615	29.18
281.83	23.04
282.045	57.86
282.26	-17.92
282.476	-24.06
282.691	66.05
282.906	47.62
283.122	10.75
283.337	61.95
283.552	68.09
283.767	-60.93
283.983	49.66
284.198	20.99
284.413	76.29
284.628	45.57
284.843	10.75
285.058	31.23
285.274	29.18
285.489	41.47
285.704	20.99
285.919	0.51
286.134	-36.35
286.349	10.75
286.564	49.66
286.779	80.38
286.995	-7.68
287.21	31.23
287.425	27.14
287.64	20.99
287.855	33.28
288.07	96.77
288.285	86.53
288.5	94.72
288.715	47.62
288.93	68.09
289.145	98.81
289.36	76.29
289.575	94.72
289.79	127.49
290.004	39.42
290.219	33.28
290.434	6.66
290.649	20.99
290.864	31.23
291.079	-11.78
291.294	-50.69
291.509	64
291.724	27.14
291.938	14.85
292.153	84.48
292.368	-19.97
292.583	31.23
292.798	49.66
293.012	8.7
293.227	-5.63
293.442	0.51
293.657	41.47
293.871	86.53
294.086	37.38
294.301	135.68
294.516	82.43
294.73	51.71
294.945	64
295.16	-11.78
295.374	-7.68
295.589	27.14
295.804	16.9
296.018	78.33
296.233	23.04
296.447	45.57
296.662	-40.45
296.877	80.38
297.091	-1.54
297.306	-3.58
297.52	23.04
297.735	20.99
297.949	80.38
298.164	88.57
298.378	8.7
298.593	12.8
298.807	16.9
299.022	-3.58
299.236	82.43
299.451	18.94
299.665	37.38
299.88	72.19
300.094	31.23
300.309	43.52
300.523	6.66
300.737	117.25
300.952	107.01
301.166	102.91
301.381	-44.54
301.595	47.62
301.809	70.14
302.024	72.19
302.238	-11.78
302.452	82.43
302.667	14.85
302.881	115.2
303.095	35.33
303.309	102.91
303.524	-7.68
303.738	4.61
303.952	51.71
304.166	164.35
304.381	-7.68
304.595	84.48
304.809	51.71
305.023	78.33
305.237	0.51
305.452	25.09
305.666	64
305.88	53.76
306.094	111.1
306.308	78.33
306.522	-24.06
306.736	18.94
306.95	25.09
307.164	37.38
307.379	-3.58
307.593	70.14
307.807	-11.78
308.021	53.76
308.235	33.28
308.449	-7.68
308.663	45.57
308.877	92.67
309.091	41.47
309.305	37.38
309.519	-34.3
309.733	49.66
309.947	-19.97
310.161	57.86
310.374	82.43
310.588	82.43
310.802	84.48
311.016	31.23
311.23	12.8
311.444	39.42
311.658	84.48
311.872	55.81
312.085	64
312.299	20.99
312.513	41.47
312.727	45.57
312.941	16.9
313.154	27.14
313.368	0.51
313.582	16.9
313.796	70.14
314.009	51.71
314.223	23.04
314.437	100.86
314.651	135.68
314.864	-17.92
315.078	-48.64
315.292	53.76
315.505	-22.02
315.719	-7.68
315.933	68.09
316.146	49.66
316.36	14.85
316.573	49.66
316.787	78.33
317.001	49.66
317.214	39.42
317.428	109.05
317.641	12.8
317.855	20.99
318.068	49.66
318.282	117.25
318.495	145.92
318.709	84.48
318.922	37.38
319.136	90.62
319.349	78.33
319.563	49.66
319.776	70.14
319.99	8.7
320.203	64
320.417	-7.68
320.63	125.44
320.843	115.2
321.057	-9.73
321.27	66.05
321.483	53.76
321.697	115.2
321.91	20.99
322.124	107.01
322.337	82.43
322.55	96.77
322.763	2.56
322.977	66.05
323.19	-22.02
323.403	33.28
323.617	96.77
323.83	37.38
324.043	-7.68
324.256	57.86
324.469	72.19
324.683	76.29
324.896	66.05
325.109	68.09
325.322	-9.73
325.535	16.9
325.748	98.81
325.962	78.33
326.175	76.29
326.388	70.14
326.601	100.86
326.814	139.77
327.027	-13.82
327.24	125.44
327.453	25.09
327.666	41.47
327.879	43.52
328.092	55.81
328.305	53.76
328.518	59.9
328.731	10.75
328.944	-11.78
329.157	49.66
329.37	55.81
329.583	94.72
329.796	72.19
330.009	-40.45
330.222	76.29
330.435	41.47
330.648	104.96
330.861	-15.87
331.073	78.33
331.286	82.43
331.499	74.24
331.712	-3.58
331.925	6.66
332.138	14.85
332.35	141.82
332.563	47.62
332.776	113.15
332.989	41.47
333.202	6.66
333.414	0.51
333.627	25.09
333.84	96.77
334.053	86.53
334.265	4.61
334.478	84.48
334.691	31.23
334.903	107.01
335.116	57.86
335.329	-48.64
335.541	76.29
335.754	53.76
335.966	16.9
336.179	100.86
336.392	25.09
336.604	96.77
336.817	113.15
337.029	39.42
337.242	80.38
337.454	-15.87
337.667	76.29
337.88	25.09
338.092	74.24
338.305	31.23
338.517	0.51
338.729	80.38
338.942	57.86
339.154	70.14
339.367	10.75
339.579	113.15
339.792	33.28
340.004	39.42
340.217	59.9
340.429	0.51
340.641	33.28
340.854	41.47
341.066	25.09
341.278	55.81
341.491	86.53
341.703	70.14
341.915	61.95
342.128	45.57
342.34	92.67
342.552	37.38
342.764	20.99
342.977	-1.54
343.189	96.77
343.401	-7.68
343.613	-5.63
343.826	25.09
344.038	70.14
344.25	53.76
344.462	59.9
344.674	64
344.886	31.23
345.099	16.9
345.311	113.15
345.523	16.9
345.735	29.18
345.947	115.2
346.159	86.53
346.371	2.56
346.583	12.8
346.795	53.76
347.007	-11.78
347.219	12.8
347.431	-36.35
347.643	35.33
347.855	-36.35
348.067	41.47
348.279	64
348.491	20.99
348.703	68.09
348.915	49.66
349.127	-1.54
349.339	139.77
349.551	113.15
349.763	61.95
349.975	-3.58
350.187	29.18
350.399	76.29
350.61	88.57
350.822	0.51
351.034	4.61
351.246	66.05
351.458	-28.16
351.669	82.43
351.881	-54.78
352.093	20.99
352.305	150.01
352.517	88.57
352.728	162.3
352.94	23.04
353.152	74.24
353.363	49.66
353.575	70.14
353.787	41.47
353.999	49.66
354.21	31.23
354.422	72.19
354.633	-1.54
354.845	141.82
355.057	86.53
355.268	51.71
355.48	41.47
355.692	35.33
355.903	-42.5
356.115	49.66
356.326	64
356.538	104.96
356.749	156.16
356.961	76.29
357.172	70.14
357.384	45.57
357.595	172.54
357.807	31.23
358.018	18.94
358.23	55.81
358.441	102.91
358.653	16.9
358.864	123.39
359.075	53.76
359.287	47.62
359.498	47.62
359.709	12.8
359.921	-17.92
360.132	10.75
360.344	55.81
360.555	12.8
360.766	104.96
360.977	127.49
361.189	49.66
361.4	-3.58
361.611	102.91
361.823	125.44
362.034	43.52
362.245	25.09
362.456	45.57
362.667	47.62
362.879	33.28
363.09	55.81
363.301	37.38
363.512	39.42
363.723	139.77
363.935	18.94
364.146	47.62
364.357	20.99
364.568	45.57
364.779	-11.78
364.99	94.72
365.201	-11.78
365.412	57.86
365.623	-1.54
365.834	84.48
366.045	74.24
366.256	90.62
366.467	2.56
366.678	-5.63
366.889	14.85
367.1	12.8
367.311	90.62
367.522	39.42
367.733	82.43
367.944	92.67
368.155	59.9
368.366	49.66
368.577	68.09
368.788	47.62
368.999	-32.26
369.209	18.94
369.42	86.53
369.631	129.53
369.842	55.81
370.053	39.42
370.264	55.81
370.474	31.23
370.685	131.58
370.896	74.24
371.107	84.48
371.317	82.43
371.528	96.77
371.739	76.29
371.95	14.85
372.16	45.57
372.371	-44.54
372.582	16.9
372.792	51.71
373.003	10.75
373.214	102.91
373.424	96.77
373.635	-36.35
373.846	100.86
374.056	76.29
374.267	-22.02
374.477	49.66
374.688	-5.63
374.898	23.04
375.109	80.38
375.319	145.92
375.53	80.38
375.74	74.24
375.951	55.81
376.161	66.05
376.372	72.19
376.582	-1.54
376.793	143.87
377.003	39.42
377.214	8.7
377.424	27.14
377.635	16.9
377.845	59.9
378.055	90.62
378.266	-9.73
378.476	49.66
378.686	-1.54
378.897	107.01
379.107	107.01
379.317	98.81
379.528	-1.54
379.738	92.67
379.948	25.09
380.158	119.29
380.369	20.99
380.579	117.25
380.789	49.66
380.999	125.44
381.21	10.75
381.42	82.43
381.63	25.09
381.84	84.48
382.05	23.04
382.261	150.01
382.471	51.71
382.681	-40.45
382.891	64
383.101	98.81
383.311	-17.92
383.521	37.38
383.731	86.53
383.941	31.23
384.151	70.14
384.361	-60.93
384.571	84.48
384.781	156.16
384.991	82.43
385.201	96.77
385.411	147.97
385.621	111.1
385.831	25.09
386.041	113.15
386.251	98.81
386.461	90.62
386.671	96.77
386.881	20.99
387.091	109.05
387.301	35.33
387.511	39.42
387.72	51.71
387.93	35.33
388.14	35.33
388.35	64
388.56	76.29
388.769	123.39
388.979	64
389.189	-22.02
389.399	76.29
389.609	45.57
389.818	70.14
390.028	96.77
390.238	92.67
390.447	45.57
390.657	68.09
390.867	96.77
391.076	123.39
391.286	49.66
391.496	96.77
391.705	-3.58
391.915	86.53
392.125	51.71
392.334	127.49
392.544	115.2
392.753	102.91
392.963	90.62
393.172	113.15
393.382	-3.58
393.591	131.58
393.801	27.14
394.01	66.05
394.22	84.48
394.429	80.38
394.639	80.38
394.848	64
395.058	72.19
395.267	168.45
395.477	113.15
395.686	156.16
395.895	139.77
396.105	129.53
396.314	78.33
396.524	66.05
396.733	68.09
396.942	123.39
397.152	55.81
397.361	123.39
397.57	113.15
397.78	104.96
397.989	137.73
398.198	217.6
398.407	84.48
398.617	29.18
398.826	31.23
399.035	160.25
399.244	131.58
399.453	143.87
399.663	109.05
399.872	164.35
400.081	94.72
400.29	147.97
400.499	125.44
400.708	158.21
400.917	72.19
401.127	160.25
401.336	150.01
401.545	115.2
401.754	125.44
401.963	168.45
402.172	115.2
402.381	121.34
402.59	147.97
402.799	70.14
403.008	197.12
403.217	111.1
403.426	147.97
403.635	115.2
403.844	119.29
404.053	119.29
404.262	127.49
404.471	147.97
404.68	168.45
404.888	184.83
405.097	225.79
405.306	184.83
405.515	168.45
405.724	104.96
405.933	158.21
406.142	238.08
406.35	188.93
406.559	180.73
406.768	207.36
406.977	195.07
407.185	307.71
407.394	295.42
407.603	186.88
407.812	221.69
408.02	252.41
408.229	281.08
408.438	295.42
408.646	260.6
408.855	293.37
409.064	272.89
409.272	295.42
409.481	320
409.69	320
409.898	303.61
410.107	365.05
410.315	340.47
410.524	408.06
410.733	492.02
410.941	367.1
411.15	444.92
411.358	344.57
411.567	426.49
411.775	436.73
411.984	526.84
412.192	504.31
412.401	436.73
412.609	602.61
412.818	641.53
413.026	528.89
413.234	627.19
413.443	692.73
413.651	606.71
413.86	514.55
414.068	721.4
414.276	686.58
414.485	717.3
414.693	819.7
414.901	774.64
415.11	836.08
415.318	748.02
415.526	940.53
415.734	778.74
415.943	915.95
416.151	973.3
416.359	926.19
416.567	995.82
416.776	1006.06
416.984	1094.13
417.192	1182.19
417.4	1139.18
417.608	1083.89
417.817	1130.99
418.025	1343.98
418.233	1362.41
418.441	1288.68
418.649	1356.27
418.857	1432.04
419.065	1556.97
419.273	1528.3
419.481	1528.3
419.689	1612.26
419.897	1612.26
420.105	1808.87
420.313	1864.16
420.521	1755.62
420.729	1843.68
420.937	1966.56
421.145	2032.1
421.353	2122.21
421.561	2224.61
421.769	2253.28
421.977	2388.44
422.185	2384.35
422.393	2539.99
422.601	2650.58
422.809	2724.31
423.017	2701.78
423.224	2822.61
423.432	2896.34
423.64	2888.15
423.848	3013.07
424.056	3013.07
424.263	3299.79
424.471	3242.45
424.679	3512.78
424.887	3451.34
425.094	3498.44
425.302	3701.19
425.51	3801.54
425.718	3838.41
425.925	4016.58
426.133	4131.26
426.341	4399.55
426.548	4604.35
426.756	4485.56
426.964	4471.23
427.171	5028.28
427.379	5067.19
427.586	4907.45
427.794	5208.5
428.001	5337.52
428.209	5648.81
428.417	5546.41
428.624	5923.24
428.832	5972.39
429.039	6031.78
429.247	5812.65
429.454	6564.25
429.662	7043.48
429.869	6441.37
430.076	6789.53
430.284	6683.03
430.491	7129.49
430.699	7551.37
430.906	7471.5
431.114	7575.95
431.321	7752.07
431.528	7815.56
431.736	8485.25
431.943	8917.37
432.15	8446.34
432.358	8759.67
432.565	9273.71
432.772	9142.64
432.979	9746.8
433.187	9564.53
433.394	9851.24
433.601	10193.25
433.808	10424.67
434.016	10391.91
434.223	10924.38
434.43	11716.94
434.637	11344.21
434.844	11876.68
435.052	12075.34
435.259	11956.55
435.466	12386.63
435.673	12067.14
435.88	13134.14
436.087	13445.43
436.294	13605.17
436.501	13277.49
436.708	13510.96
436.915	14119.21
437.122	14696.74
437.329	14518.56
437.537	14903.58
437.743	15386.9
437.95	15304.98
438.157	15991.05
438.364	16480.52
438.571	16455.94
438.778	16539.91
438.985	17983.73
439.192	17320.18
439.399	17975.53
439.606	17428.73
439.813	18512.1
440.02	19570.9
440.227	19157.21
440.433	19042.53
440.64	19968.21
440.847	19751.12
441.054	20216.01
441.261	21262.52
441.467	21133.5
441.674	21203.13
441.881	22030.51
442.088	21901.49
442.294	22069.42
442.501	22839.46
442.708	23138.46
442.914	24017.04
443.121	24955.01
443.328	24066.19
443.534	26206.32
443.741	25211.01
443.948	25010.31
444.154	27164.77
444.361	27031.65
444.568	26841.19
444.774	26824.81
444.981	27132
445.187	27631.71
445.394	29003.85
445.6	28586.06
445.807	31567.9
446.013	30083.12
446.22	30920.74
446.426	31875.1
446.633	31768.6
446.839	32868.36
447.046	31572
447.252	33359.87
447.459	33411.07
447.665	33499.14
447.871	35305.45
448.078	35973.08
448.284	34312.18
448.491	35479.52
448.697	36915.15
448.903	37119.95
449.11	37441.48
449.316	36528.08
449.522	37523.4
449.728	38393.78
449.935	38623.15
450.141	38772.66
450.347	39372.71
450.553	38320.06
450.76	38913.97
450.966	39907.23
451.172	39479.21
451.378	40079.26
451.584	39643.04
451.791	40169.37
451.997	40232.86
452.203	40937.36
452.409	41021.33
452.615	40511.38
452.821	39221.16
453.027	38959.02
453.233	40603.54
453.44	39030.7
453.646	39387.05
453.852	39684
454.058	40363.93
454.264	38879.15
454.47	39774.11
454.676	38918.06
454.882	39888.8
455.088	36356.05
455.294	36939.72
455.5	37439.43
455.705	38107.07
455.911	36902.86
456.117	35616.74
456.323	35153.9
456.529	33343.49
456.735	34998.25
456.941	33941.5
457.147	33382.4
457.352	32286.74
457.558	32219.16
457.764	32032.79
457.97	31344.67
458.176	30582.83
458.381	30404.66
458.587	29294.66
458.793	28944.45
458.999	27586.65
459.204	29820.98
459.41	29038.66
459.616	27109.47
459.821	26968.16
460.027	26810.47
460.233	26079.35
460.438	25014.4
460.644	25274.49
460.85	24246.41
461.055	23664.79
461.261	23634.07
461.466	22120.62
461.672	21442.74
461.878	22970.53
462.083	21506.23
462.289	21080.25
462.494	20992.19
462.7	19921.1
462.905	19271.9
463.111	20248.78
463.316	20287.69
463.522	19642.58
463.727	19568.85
463.932	19796.18
464.138	19445.98
464.343	19488.98
464.549	19056.86
464.754	19568.85
464.959	19218.65
465.165	19378.39
465.37	18821.34
465.575	17881.33
465.781	18723.04
465.986	18839.78
466.191	18077.93
466.397	17887.47
466.602	16947.45
466.807	17555.7
467.012	17549.56
467.218	17359.1
467.423	17180.92
467.628	17387.77
