Data from USB4F104151__174__10-27-35-899.txt Node

Date: Wed Mar 12 10:27:35 EDT 2025
User: louis
Spectrometer: USB4F10415
Trigger mode: 4
Integration Time (sec): 3.000000E-2
Scans to average: 1
Electric dark correction enabled: true
Nonlinearity correction enabled: false
Boxcar width: 0
XAxis mode: Wavelengths
Number of Pixels in Spectrum: 3648
>>>>>Begin Spectral Data<<<<<
178.204	-132.26
178.424	-132.26
178.644	-132.26
178.864	-72.87
179.084	-113.83
179.304	4.95
179.524	-42.15
179.744	29.52
179.964	-5.29
180.184	-5.29
180.404	7
180.624	27.48
180.844	37.72
181.064	-107.69
181.283	50
181.503	-38.06
181.723	41.81
181.943	7
182.163	15.19
182.383	-27.82
182.602	68.44
182.822	21.33
183.042	72.53
183.262	39.76
183.482	-54.44
183.701	50
183.921	72.53
184.141	-13.48
184.361	13.14
184.58	64.34
184.8	74.58
185.02	84.82
185.239	19.29
185.459	-15.53
185.679	76.63
185.898	-38.06
186.118	72.53
186.338	43.86
186.557	9.05
186.777	-83.11
186.997	37.72
187.216	31.57
187.436	86.87
187.655	19.29
187.875	33.62
188.095	-31.91
188.314	60.24
188.534	86.87
188.753	4.95
188.973	4.95
189.192	50
189.412	25.43
189.631	-1.19
189.851	-19.63
190.07	52.05
190.29	2.9
190.509	23.38
190.729	13.14
190.948	50
191.168	119.64
191.387	0.85
191.607	9.05
191.826	76.63
192.045	9.05
192.265	43.86
192.484	80.72
192.704	136.02
192.923	-7.34
193.142	76.63
193.362	-21.67
193.581	56.15
193.8	27.48
194.02	43.86
194.239	62.29
194.458	-19.63
194.678	41.81
194.897	-17.58
195.116	-11.43
195.335	111.44
195.555	33.62
195.774	11.09
195.993	4.95
196.212	70.48
196.432	62.29
196.651	23.38
196.87	-15.53
197.089	27.48
197.308	33.62
197.528	97.11
197.747	-31.91
197.966	74.58
198.185	86.87
198.404	0.85
198.623	0.85
198.842	43.86
199.062	31.57
199.281	17.24
199.5	45.91
199.719	-21.67
199.938	86.87
200.157	86.87
200.376	29.52
200.595	19.29
200.814	35.67
201.033	19.29
201.252	33.62
201.471	-36.01
201.69	64.34
201.909	4.95
202.128	37.72
202.347	60.24
202.566	29.52
202.785	-5.29
203.004	37.72
203.223	41.81
203.442	72.53
203.661	90.96
203.879	33.62
204.098	47.96
204.317	-48.3
204.536	13.14
204.755	15.19
204.974	13.14
205.193	-1.19
205.411	101.2
205.63	4.95
205.849	27.48
206.068	29.52
206.287	-21.67
206.505	-3.24
206.724	-1.19
206.943	35.67
207.162	9.05
207.381	25.43
207.599	4.95
207.818	9.05
208.037	-52.39
208.255	29.52
208.474	64.34
208.693	33.62
208.911	41.81
209.13	-27.82
209.349	74.58
209.567	52.05
209.786	58.2
210.005	82.77
210.223	158.55
210.442	2.9
210.661	117.59
210.879	-19.63
211.098	60.24
211.316	62.29
211.535	97.11
211.753	23.38
211.972	86.87
212.191	2.9
212.409	21.33
212.628	-27.82
212.846	-3.24
213.065	-23.72
213.283	64.34
213.502	-9.39
213.72	50
213.938	74.58
214.157	7
214.375	29.52
214.594	-5.29
214.812	68.44
215.031	11.09
215.249	-42.15
215.467	-9.39
215.686	-7.34
215.904	50
216.122	-19.63
216.341	160.59
216.559	47.96
216.778	45.91
216.996	27.48
217.214	93.01
217.432	56.15
217.651	11.09
217.869	-23.72
218.087	9.05
218.306	74.58
218.524	62.29
218.742	33.62
218.96	-38.06
219.179	101.2
219.397	29.52
219.615	82.77
219.833	39.76
220.051	82.77
220.27	70.48
220.488	-5.29
220.706	17.24
220.924	27.48
221.142	-19.63
221.36	41.81
221.578	66.39
221.796	9.05
222.015	-3.24
222.233	-13.48
222.451	86.87
222.669	9.05
222.887	4.95
223.105	-74.92
223.323	0.85
223.541	-25.77
223.759	45.91
223.977	27.48
224.195	41.81
224.413	99.16
224.631	52.05
224.849	80.72
225.067	54.1
225.285	-7.34
225.503	35.67
225.721	-46.25
225.939	2.9
226.157	-5.29
226.375	72.53
226.592	-7.34
226.81	19.29
227.028	54.1
227.246	101.2
227.464	56.15
227.682	9.05
227.9	19.29
228.117	58.2
228.335	72.53
228.553	-9.39
228.771	13.14
228.989	23.38
229.206	50
229.424	39.76
229.642	43.86
229.86	-21.67
230.077	50
230.295	-13.48
230.513	60.24
230.731	13.14
230.948	-7.34
231.166	97.11
231.384	0.85
231.601	11.09
231.819	54.1
232.037	-17.58
232.254	21.33
232.472	19.29
232.689	54.1
232.907	95.06
233.125	37.72
233.342	37.72
233.56	-36.01
233.777	-25.77
233.995	54.1
234.213	105.3
234.43	78.68
234.648	37.72
234.865	39.76
235.083	4.95
235.3	31.57
235.518	64.34
235.735	9.05
235.953	4.95
236.17	13.14
236.388	66.39
236.605	25.43
236.822	33.62
237.04	68.44
237.257	37.72
237.475	-52.39
237.692	-15.53
237.909	21.33
238.127	76.63
238.344	25.43
238.562	56.15
238.779	-27.82
238.996	52.05
239.214	-15.53
239.431	33.62
239.648	84.82
239.865	23.38
240.083	45.91
240.3	0.85
240.517	-17.58
240.735	-3.24
240.952	11.09
241.169	41.81
241.386	72.53
241.603	60.24
241.821	15.19
242.038	-50.35
242.255	58.2
242.472	2.9
242.689	17.24
242.907	109.4
243.124	23.38
243.341	-19.63
243.558	-36.01
243.775	13.14
243.992	-3.24
244.209	37.72
244.426	-11.43
244.643	37.72
244.86	41.81
245.078	54.1
245.295	45.91
245.512	52.05
245.729	-3.24
245.946	47.96
246.163	45.91
246.38	47.96
246.597	17.24
246.814	76.63
247.031	25.43
247.248	7
247.464	-23.72
247.681	13.14
247.898	54.1
248.115	21.33
248.332	31.57
248.549	13.14
248.766	47.96
248.983	58.2
249.2	-9.39
249.417	90.96
249.633	-5.29
249.85	60.24
250.067	13.14
250.284	58.2
250.501	52.05
250.717	-27.82
250.934	-15.53
251.151	58.2
251.368	-58.54
251.585	-1.19
251.801	39.76
252.018	-9.39
252.235	127.83
252.451	-36.01
252.668	86.87
252.885	50
253.102	35.67
253.318	45.91
253.535	-38.06
253.752	60.24
253.968	17.24
254.185	17.24
254.401	-40.11
254.618	58.2
254.835	-21.67
255.051	37.72
255.268	62.29
255.484	101.2
255.701	-27.82
255.917	-3.24
256.134	23.38
256.351	52.05
256.567	-11.43
256.784	64.34
257	17.24
257.217	45.91
257.433	62.29
257.65	84.82
257.866	15.19
258.082	-17.58
258.299	-13.48
258.515	4.95
258.732	60.24
258.948	2.9
259.165	15.19
259.381	41.81
259.597	45.91
259.814	27.48
260.03	47.96
260.246	-44.2
260.463	86.87
260.679	70.48
260.895	21.33
261.112	58.2
261.328	72.53
261.544	19.29
261.761	152.4
261.977	9.05
262.193	-64.68
262.409	25.43
262.626	-50.35
262.842	62.29
263.058	-21.67
263.274	-11.43
263.49	21.33
263.707	99.16
263.923	25.43
264.139	39.76
264.355	27.48
264.571	52.05
264.787	-7.34
265.004	62.29
265.22	7
265.436	2.9
265.652	-72.87
265.868	29.52
266.084	54.1
266.3	21.33
266.516	70.48
266.732	88.92
266.948	45.91
267.164	54.1
267.38	9.05
267.596	29.52
267.812	45.91
268.028	19.29
268.244	-31.91
268.46	56.15
268.676	29.52
268.892	72.53
269.108	-38.06
269.324	4.95
269.54	-19.63
269.756	58.2
269.972	15.19
270.188	43.86
270.403	4.95
270.619	62.29
270.835	62.29
271.051	2.9
271.267	23.38
271.483	27.48
271.698	70.48
271.914	2.9
272.13	13.14
272.346	21.33
272.562	70.48
272.777	78.68
272.993	-9.39
273.209	17.24
273.425	111.44
273.64	84.82
273.856	39.76
274.072	-27.82
274.287	-44.2
274.503	43.86
274.719	41.81
274.934	-7.34
275.15	-9.39
275.366	70.48
275.581	29.52
275.797	127.83
276.012	25.43
276.228	27.48
276.444	70.48
276.659	88.92
276.875	-19.63
277.09	0.85
277.306	-23.72
277.521	2.9
277.737	-19.63
277.952	119.64
278.168	33.62
278.383	13.14
278.599	-3.24
278.814	-7.34
279.03	45.91
279.245	97.11
279.461	35.67
279.676	64.34
279.892	-5.29
280.107	60.24
280.322	37.72
280.538	99.16
280.753	74.58
280.969	29.52
281.184	52.05
281.399	95.06
281.615	2.9
281.83	33.62
282.045	-3.24
282.26	-7.34
282.476	11.09
282.691	101.2
282.906	-31.91
283.122	-3.24
283.337	-46.25
283.552	0.85
283.767	25.43
283.983	47.96
284.198	-31.91
284.413	21.33
284.628	37.72
284.843	0.85
285.058	121.68
285.274	27.48
285.489	-19.63
285.704	113.49
285.919	35.67
286.134	54.1
286.349	58.2
286.564	2.9
286.779	93.01
286.995	35.67
287.21	27.48
287.425	-5.29
287.64	13.14
287.855	50
288.07	13.14
288.285	37.72
288.5	95.06
288.715	-44.2
288.93	105.3
289.145	9.05
289.36	4.95
289.575	33.62
289.79	39.76
290.004	-7.34
290.219	84.82
290.434	7
290.649	66.39
290.864	15.19
291.079	35.67
291.294	31.57
291.509	-1.19
291.724	15.19
291.938	84.82
292.153	-21.67
292.368	78.68
292.583	33.62
292.798	29.52
293.012	88.92
293.227	84.82
293.442	82.77
293.657	23.38
293.871	-25.77
294.086	58.2
294.301	140.12
294.516	66.39
294.73	21.33
294.945	2.9
295.16	-23.72
295.374	58.2
295.589	127.83
295.804	-27.82
296.018	7
296.233	-3.24
296.447	29.52
296.662	33.62
296.877	68.44
297.091	13.14
297.306	21.33
297.52	-11.43
297.735	19.29
297.949	74.58
298.164	33.62
298.378	29.52
298.593	62.29
298.807	39.76
299.022	-11.43
299.236	70.48
299.451	0.85
299.665	45.91
299.88	27.48
300.094	21.33
300.309	-25.77
300.523	109.4
300.737	52.05
300.952	95.06
301.166	50
301.381	-21.67
301.595	-17.58
301.809	54.1
302.024	66.39
302.238	-48.3
302.452	90.96
302.667	50
302.881	58.2
303.095	-44.2
303.309	39.76
303.524	9.05
303.738	47.96
303.952	23.38
304.166	72.53
304.381	2.9
304.595	45.91
304.809	11.09
305.023	58.2
305.237	-31.91
305.452	-3.24
305.666	39.76
305.88	62.29
306.094	4.95
306.308	60.24
306.522	78.68
306.736	103.25
306.95	23.38
307.164	0.85
307.379	68.44
307.593	148.31
307.807	41.81
308.021	121.68
308.235	-31.91
308.449	-9.39
308.663	-19.63
308.877	70.48
309.091	11.09
309.305	27.48
309.519	9.05
309.733	50
309.947	-7.34
310.161	93.01
310.374	99.16
310.588	60.24
310.802	37.72
311.016	41.81
311.23	35.67
311.444	99.16
311.658	13.14
311.872	41.81
312.085	35.67
312.299	72.53
312.513	78.68
312.727	99.16
312.941	41.81
313.154	-5.29
313.368	29.52
313.582	19.29
313.796	50
314.009	-23.72
314.223	-5.29
314.437	50
314.651	33.62
314.864	-9.39
315.078	52.05
315.292	-29.87
315.505	-25.77
315.719	13.14
315.933	-21.67
316.146	-33.96
316.36	-7.34
316.573	-11.43
316.787	31.57
317.001	60.24
317.214	82.77
317.428	25.43
317.641	-54.44
317.855	80.72
318.068	4.95
318.282	13.14
318.495	37.72
318.709	66.39
318.922	-7.34
319.136	117.59
319.349	4.95
319.563	-17.58
319.776	29.52
319.99	-7.34
320.203	84.82
320.417	19.29
320.63	19.29
320.843	66.39
321.057	-3.24
321.27	-9.39
321.483	7
321.697	-7.34
321.91	-17.58
322.124	-13.48
322.337	13.14
322.55	29.52
322.763	11.09
322.977	56.15
323.19	29.52
323.403	-11.43
323.617	-19.63
323.83	33.62
324.043	-11.43
324.256	74.58
324.469	-36.01
324.683	17.24
324.896	54.1
325.109	33.62
325.322	33.62
325.535	35.67
325.748	76.63
325.962	-29.87
326.175	50
326.388	60.24
326.601	76.63
326.814	-27.82
327.027	21.33
327.24	97.11
327.453	9.05
327.666	78.68
327.879	125.78
328.092	17.24
328.305	13.14
328.518	54.1
328.731	76.63
328.944	-40.11
329.157	54.1
329.37	37.72
329.583	88.92
329.796	74.58
330.009	66.39
330.222	64.34
330.435	27.48
330.648	39.76
330.861	2.9
331.073	9.05
331.286	29.52
331.499	11.09
331.712	33.62
331.925	58.2
332.138	39.76
332.35	50
332.563	7
332.776	74.58
332.989	21.33
333.202	60.24
333.414	39.76
333.627	33.62
333.84	29.52
334.053	41.81
334.265	127.83
334.478	39.76
334.691	11.09
334.903	4.95
335.116	29.52
335.329	90.96
335.541	-1.19
335.754	95.06
335.966	78.68
336.179	25.43
336.392	50
336.604	35.67
336.817	-33.96
337.029	76.63
337.242	-3.24
337.454	-19.63
337.667	4.95
337.88	37.72
338.092	56.15
338.305	50
338.517	25.43
338.729	25.43
338.942	0.85
339.154	-21.67
339.367	29.52
339.579	90.96
339.792	43.86
340.004	70.48
340.217	58.2
340.429	76.63
340.641	62.29
340.854	11.09
341.066	41.81
341.278	68.44
341.491	78.68
341.703	25.43
341.915	0.85
342.128	62.29
342.34	60.24
342.552	-3.24
342.764	25.43
342.977	119.64
343.189	9.05
343.401	29.52
343.613	13.14
343.826	9.05
344.038	54.1
344.25	62.29
344.462	60.24
344.674	45.91
344.886	17.24
345.099	54.1
345.311	29.52
345.523	37.72
345.735	-36.01
345.947	41.81
346.159	70.48
346.371	35.67
346.583	93.01
346.795	41.81
347.007	0.85
347.219	-15.53
347.431	62.29
347.643	31.57
347.855	13.14
348.067	-5.29
348.279	39.76
348.491	39.76
348.703	31.57
348.915	-62.63
349.127	37.72
349.339	58.2
349.551	45.91
349.763	52.05
349.975	60.24
350.187	52.05
350.399	99.16
350.61	78.68
350.822	56.15
351.034	62.29
351.246	37.72
351.458	41.81
351.669	-11.43
351.881	54.1
352.093	80.72
352.305	50
352.517	-36.01
352.728	68.44
352.94	39.76
353.152	4.95
353.363	21.33
353.575	60.24
353.787	41.81
353.999	21.33
354.21	39.76
354.422	88.92
354.633	-31.91
354.845	27.48
355.057	45.91
355.268	-31.91
355.48	35.67
355.692	-13.48
355.903	58.2
356.115	127.83
356.326	2.9
356.538	84.82
356.749	58.2
356.961	160.59
357.172	88.92
357.384	-11.43
357.595	37.72
357.807	54.1
358.018	-56.49
358.23	9.05
358.441	70.48
358.653	-5.29
358.864	27.48
359.075	0.85
359.287	-38.06
359.498	29.52
359.709	13.14
359.921	-3.24
360.132	39.76
360.344	86.87
360.555	25.43
360.766	37.72
360.977	21.33
361.189	80.72
361.4	72.53
361.611	50
361.823	70.48
362.034	37.72
362.245	-64.68
362.456	-3.24
362.667	62.29
362.879	37.72
363.09	123.73
363.301	88.92
363.512	27.48
363.723	-3.24
363.935	-23.72
364.146	56.15
364.357	-62.63
364.568	7
364.779	-11.43
364.99	78.68
365.201	-54.44
365.412	56.15
365.623	54.1
365.834	-7.34
366.045	39.76
366.256	58.2
366.467	52.05
366.678	101.2
366.889	93.01
367.1	17.24
367.311	62.29
367.522	-44.2
367.733	148.31
367.944	103.25
368.155	43.86
368.366	78.68
368.577	84.82
368.788	99.16
368.999	29.52
369.209	58.2
369.42	84.82
369.631	113.49
369.842	50
370.053	21.33
370.264	50
370.474	17.24
370.685	35.67
370.896	21.33
371.107	17.24
371.317	84.82
371.528	33.62
371.739	162.64
371.95	58.2
372.16	58.2
372.371	-68.78
372.582	-27.82
372.792	66.39
373.003	19.29
373.214	-3.24
373.424	29.52
373.635	-5.29
373.846	103.25
374.056	21.33
374.267	25.43
374.477	0.85
374.688	-21.67
374.898	35.67
375.109	72.53
375.319	39.76
375.53	117.59
375.74	33.62
375.951	29.52
376.161	29.52
376.372	74.58
376.582	50
376.793	140.12
377.003	-19.63
377.214	47.96
377.424	76.63
377.635	72.53
377.845	13.14
378.055	56.15
378.266	13.14
378.476	52.05
378.686	64.34
378.897	66.39
379.107	109.4
379.317	-25.77
379.528	2.9
379.738	78.68
379.948	88.92
380.158	125.78
380.369	2.9
380.579	78.68
380.789	19.29
380.999	-15.53
381.21	50
381.42	111.44
381.63	58.2
381.84	86.87
382.05	93.01
382.261	-21.67
382.471	70.48
382.681	37.72
382.891	93.01
383.101	60.24
383.311	50
383.521	17.24
383.731	84.82
383.941	25.43
384.151	27.48
384.361	76.63
384.571	66.39
384.781	93.01
384.991	133.97
385.201	109.4
385.411	60.24
385.621	50
385.831	29.52
386.041	119.64
386.251	-5.29
386.461	54.1
386.671	45.91
386.881	29.52
387.091	117.59
387.301	72.53
387.511	99.16
387.72	45.91
387.93	119.64
388.14	-7.34
388.35	19.29
388.56	72.53
388.769	111.44
388.979	58.2
389.189	68.44
389.399	101.2
389.609	78.68
389.818	74.58
390.028	62.29
390.238	86.87
390.447	-52.39
390.657	9.05
390.867	29.52
391.076	45.91
391.286	82.77
391.496	99.16
391.705	107.35
391.915	99.16
392.125	17.24
392.334	99.16
392.544	97.11
392.753	78.68
392.963	93.01
393.172	86.87
393.382	41.81
393.591	93.01
393.801	84.82
394.01	82.77
394.22	64.34
394.429	103.25
394.639	23.38
394.848	74.58
395.058	41.81
395.267	138.07
395.477	119.64
395.686	140.12
395.895	162.64
396.105	127.83
396.314	136.02
396.524	50
396.733	21.33
396.942	78.68
397.152	86.87
397.361	115.54
397.57	82.77
397.78	66.39
397.989	111.44
398.198	142.16
398.407	43.86
398.617	52.05
398.826	70.48
399.035	43.86
399.244	250.71
399.453	41.81
399.663	101.2
399.872	90.96
400.081	138.07
400.29	164.69
400.499	52.05
400.708	70.48
400.917	113.49
401.127	152.4
401.336	101.2
401.545	136.02
401.754	105.3
401.963	138.07
402.172	90.96
402.381	119.64
402.59	117.59
402.799	148.31
403.008	111.44
403.217	97.11
403.426	107.35
403.635	176.98
403.844	148.31
404.053	62.29
404.262	127.83
404.471	162.64
404.68	142.16
404.888	93.01
405.097	217.94
405.306	183.12
405.515	234.32
405.724	154.45
405.933	168.79
406.142	217.94
406.35	170.83
406.559	82.77
406.768	201.55
406.977	217.94
407.185	217.94
407.394	248.66
407.603	222.03
407.812	183.12
408.02	281.43
408.229	297.81
408.438	258.9
408.646	277.33
408.855	306
409.064	250.71
409.272	267.09
409.481	342.86
409.69	275.28
409.898	269.14
410.107	381.78
410.315	342.86
410.524	369.49
410.733	316.24
410.941	396.11
411.15	406.35
411.358	402.26
411.567	471.89
411.775	439.12
411.984	451.41
412.192	514.89
412.401	430.93
412.609	484.17
412.818	564.04
413.026	549.71
413.234	527.18
413.443	529.23
413.651	586.57
413.86	660.3
414.068	680.78
414.276	668.49
414.485	760.65
414.693	693.07
414.901	744.27
415.11	852.81
415.318	705.35
415.526	758.6
415.734	858.95
415.943	897.86
416.151	858.95
416.359	901.96
416.567	930.63
416.776	922.44
416.984	940.87
417.192	1106.76
417.4	1098.56
417.608	1065.8
417.817	1135.43
418.025	1221.44
418.233	1270.59
418.441	1192.77
418.649	1295.17
418.857	1375.04
419.065	1317.7
419.273	1323.84
419.481	1393.47
419.689	1549.12
419.897	1542.97
420.105	1536.83
420.313	1618.75
420.521	1762.11
420.729	1692.48
420.937	1848.12
421.145	1880.89
421.353	1862.46
421.561	2087.73
421.769	2163.51
421.977	2134.84
422.185	2079.54
422.393	2288.43
422.601	2489.14
422.809	2321.2
423.017	2542.38
423.224	2523.95
423.432	2681.64
423.64	2655.02
423.848	2956.07
424.056	2822.95
424.263	2947.88
424.471	3081
424.679	3179.3
424.887	3265.32
425.094	3367.71
425.302	3386.15
425.51	3525.41
425.718	3642.14
425.925	3539.74
426.133	3879.71
426.341	4068.12
426.548	4199.19
426.756	4191
426.964	4186.9
427.171	4326.16
427.379	4426.51
427.586	4684.56
427.794	4899.59
428.001	5128.97
428.209	5253.89
428.417	5196.55
428.624	5364.48
428.832	5499.65
429.039	5362.44
429.247	5532.42
429.454	5972.73
429.662	6365.94
429.869	5985.02
430.076	6427.38
430.284	6202.1
430.491	6505.2
430.699	6912.75
430.906	6787.82
431.114	7031.53
431.321	7256.81
431.528	7447.27
431.736	7789.28
431.943	8385.24
432.15	8094.43
432.358	7981.79
432.565	8383.19
432.772	8465.11
432.979	8686.29
433.187	8962.76
433.394	9089.74
433.601	9669.31
433.808	9611.97
434.016	9513.67
434.223	10150.59
434.43	10449.59
434.637	10343.1
434.844	11133.61
435.052	11324.07
435.259	11117.23
435.466	11242.15
435.673	11143.85
435.88	11999.9
436.087	12645.01
436.294	12440.22
436.501	12280.47
436.708	12487.32
436.915	12767.89
437.122	13632.13
437.329	13396.62
437.537	13777.54
437.743	14242.43
437.95	13881.99
438.157	14842.48
438.364	15112.81
438.571	15133.29
438.778	15315.56
438.985	16521.82
439.192	15813.22
439.399	16706.13
439.606	16071.26
439.813	17160.78
440.02	18108.99
440.227	17617.48
440.433	17762.89
440.64	17943.11
440.847	18121.28
441.054	18627.13
441.261	19391.02
441.467	19354.16
441.674	19833.38
441.881	20613.66
442.088	20474.4
442.294	20292.13
442.501	20757.02
442.708	21180.95
442.914	22157.83
443.121	22647.29
443.328	22272.51
443.534	23955.94
443.741	23126.52
443.948	23052.79
444.154	24568.29
444.361	24742.36
444.568	24664.54
444.774	24512.99
444.981	25027.03
445.187	25614.8
445.394	26923.45
445.6	26261.96
445.807	28846.49
446.013	27791.79
446.22	28195.24
446.426	28946.84
446.633	29200.79
446.839	30128.52
447.046	29307.29
447.252	30775.68
447.459	30837.12
447.665	30642.56
447.871	31648.11
448.078	33212.76
448.284	31732.08
448.491	32289.13
448.697	33737.04
448.903	34195.79
449.11	34464.07
449.316	33657.17
449.522	34040.14
449.728	35109.18
449.935	35385.66
450.141	35522.87
450.347	36303.15
450.553	35060.03
450.76	35555.64
450.966	36178.22
451.172	36225.32
451.378	36954.4
451.584	36120.88
451.791	37189.92
451.997	37144.86
452.203	37136.67
452.409	37556.5
452.615	37189.92
452.821	35987.76
453.027	35479.86
453.233	37110.05
453.44	35526.97
453.646	35873.07
453.852	36337.96
454.058	36804.9
454.264	35490.1
454.47	36450.6
454.676	35600.69
454.882	36917.54
455.088	33384.79
455.294	33845.58
455.5	34496.84
455.705	34758.98
455.911	33511.77
456.117	32504.17
456.323	32209.26
456.529	30574.98
456.735	31787.38
456.941	30708.1
457.147	30321.03
457.352	29632.91
457.558	29088.15
457.764	29000.09
457.97	28619.17
458.176	28031.4
458.381	27855.28
458.587	26417.6
458.793	26573.25
458.999	25088.47
459.204	26950.07
459.41	25860.55
459.616	24433.12
459.821	24758.75
460.027	24273.38
460.233	23804.39
460.438	22944.25
460.644	22882.81
460.85	21948.93
461.055	21660.17
461.261	21766.67
461.466	19882.53
461.672	19563.05
461.878	20728.35
462.083	19272.24
462.289	19044.91
462.494	18870.84
462.7	18131.52
462.905	17541.71
463.111	18278.97
463.316	18408
463.522	17885.76
463.727	17590.86
463.932	17826.37
464.138	17334.86
464.343	17738.31
464.549	17095.25
464.754	17773.13
464.959	17367.63
465.165	17392.2
465.37	16503.39
465.575	16161.37
465.781	16912.98
465.986	17128.02
466.191	16513.63
466.397	16106.08
466.602	15397.48
466.807	16097.89
467.012	16202.33
467.218	15917.67
467.423	15635.05
467.628	15813.22
467.833	16341.6
468.038	15895.14
468.244	15166.06
468.449	15829.6
468.654	15542.89
468.859	15151.73
