Data from USB4F104151__239__10-30-36-149.txt Node

Date: Wed Mar 12 10:30:36 EDT 2025
User: louis
Spectrometer: USB4F10415
Trigger mode: 4
Integration Time (sec): 3.000000E-2
Scans to average: 1
Electric dark correction enabled: true
Nonlinearity correction enabled: false
Boxcar width: 0
XAxis mode: Wavelengths
Number of Pixels in Spectrum: 3648
>>>>>Begin Spectral Data<<<<<
178.204	-88.92
178.424	-88.92
178.644	-88.92
178.864	-101.2
179.084	-131.92
179.304	1.19
179.524	1.19
179.744	-52.05
179.964	36.01
180.184	-7
180.404	21.67
180.624	-43.86
180.844	-2.9
181.064	13.48
181.283	17.58
181.503	33.96
181.723	-19.29
181.943	-60.24
182.163	33.96
182.383	-2.9
182.602	64.68
182.822	52.39
183.042	-2.9
183.262	58.54
183.482	31.91
183.701	-4.95
183.921	-58.2
184.141	-90.96
184.361	50.35
184.58	19.63
184.8	-7
185.02	-15.19
185.239	79.02
185.459	54.44
185.679	56.49
185.898	-41.81
186.118	93.35
186.338	11.43
186.557	85.16
186.777	-37.72
186.997	3.24
187.216	13.48
187.436	-47.96
187.655	1.19
187.875	46.25
188.095	-9.05
188.314	-9.05
188.534	33.96
188.753	38.06
188.973	36.01
189.192	66.73
189.412	36.01
189.631	-29.52
189.851	-60.24
190.07	44.2
190.29	-37.72
190.509	36.01
190.729	9.39
190.948	52.39
191.168	191.66
191.387	19.63
191.607	-25.43
191.826	3.24
192.045	-15.19
192.265	66.73
192.484	76.97
192.704	-33.62
192.923	-29.52
193.142	50.35
193.362	60.59
193.581	25.77
193.8	42.15
194.02	101.55
194.239	25.77
194.458	23.72
194.678	-13.14
194.897	-4.95
195.116	50.35
195.335	36.01
195.555	62.63
195.774	5.29
195.993	52.39
196.212	7.34
196.432	-76.63
196.651	27.82
196.87	5.29
197.089	101.55
197.308	-27.48
197.528	1.19
197.747	-7
197.966	48.3
198.185	54.44
198.404	25.77
198.623	11.43
198.842	36.01
199.062	-60.24
199.281	5.29
199.5	25.77
199.719	31.91
199.938	87.21
200.157	-25.43
200.376	38.06
200.595	36.01
200.814	36.01
201.033	79.02
201.252	36.01
201.471	103.59
201.69	89.26
201.909	52.39
202.128	50.35
202.347	79.02
202.566	-2.9
202.785	-17.24
203.004	-21.33
203.223	70.83
203.442	-50
203.661	33.96
203.879	7.34
204.098	11.43
204.317	-27.48
204.536	70.83
204.755	-37.72
204.974	44.2
205.193	-13.14
205.411	109.74
205.63	56.49
205.849	-33.62
206.068	42.15
206.287	54.44
206.505	19.63
206.724	-0.85
206.943	25.77
207.162	1.19
207.381	-4.95
207.599	-21.33
207.818	-4.95
208.037	29.87
208.255	-74.58
208.474	-31.57
208.693	15.53
208.911	38.06
209.13	66.73
209.349	56.49
209.567	-23.38
209.786	11.43
210.005	54.44
210.223	-2.9
210.442	23.72
210.661	19.63
210.879	44.2
211.098	36.01
211.316	9.39
211.535	74.92
211.753	19.63
211.972	15.53
212.191	5.29
212.409	33.96
212.628	72.87
212.846	-23.38
213.065	13.48
213.283	15.53
213.502	66.73
213.72	38.06
213.938	-11.09
214.157	-62.29
214.375	3.24
214.594	46.25
214.812	76.97
215.031	-2.9
215.249	-7
215.467	46.25
215.686	21.67
215.904	119.98
216.122	-39.76
216.341	42.15
216.559	5.29
216.778	68.78
216.996	48.3
217.214	44.2
217.432	46.25
217.651	-19.29
217.869	38.06
218.087	23.72
218.306	-2.9
218.524	-7
218.742	44.2
218.96	3.24
219.179	9.39
219.397	44.2
219.615	66.73
219.833	25.77
220.051	23.72
220.27	-11.09
220.488	58.54
220.706	46.25
220.924	-27.48
221.142	9.39
221.36	17.58
221.578	15.53
221.796	38.06
222.015	33.96
222.233	36.01
222.451	107.69
222.669	29.87
222.887	1.19
223.105	-4.95
223.323	-27.48
223.541	58.54
223.759	40.11
223.977	17.58
224.195	13.48
224.413	9.39
224.631	3.24
224.849	40.11
225.067	7.34
225.285	3.24
225.503	-21.33
225.721	-78.68
225.939	9.39
226.157	42.15
226.375	52.39
226.592	-103.25
226.81	44.2
227.028	66.73
227.246	62.63
227.464	38.06
227.682	42.15
227.9	62.63
228.117	29.87
228.335	29.87
228.553	-56.15
228.771	1.19
228.989	62.63
229.206	46.25
229.424	27.82
229.642	27.82
229.86	48.3
230.077	50.35
230.295	-21.33
230.513	38.06
230.731	95.4
230.948	44.2
231.166	-35.67
231.384	17.58
231.601	44.2
231.819	38.06
232.037	74.92
232.254	38.06
232.472	33.96
232.689	-13.14
232.907	74.92
233.125	3.24
233.342	-56.15
233.56	-11.09
233.777	38.06
233.995	44.2
234.213	70.83
234.43	-56.15
234.648	-43.86
234.865	33.96
235.083	-35.67
235.3	62.63
235.518	3.24
235.735	62.63
235.953	42.15
236.17	-9.05
236.388	54.44
236.605	-13.14
236.822	-0.85
237.04	42.15
237.257	-66.39
237.475	-23.38
237.692	48.3
237.909	27.82
238.127	29.87
238.344	72.87
238.562	79.02
238.779	-54.1
238.996	29.87
239.214	15.53
239.431	72.87
239.648	-41.81
239.865	66.73
240.083	33.96
240.3	11.43
240.517	17.58
240.735	23.72
240.952	31.91
241.169	36.01
241.386	70.83
241.603	13.48
241.821	46.25
242.038	13.48
242.255	21.67
242.472	3.24
242.689	19.63
242.907	-11.09
243.124	66.73
243.341	-119.64
243.558	-27.48
243.775	-19.29
243.992	-56.15
244.209	17.58
244.426	31.91
244.643	27.82
244.86	7.34
245.078	64.68
245.295	-43.86
245.512	25.77
245.729	-19.29
245.946	1.19
246.163	27.82
246.38	36.01
246.597	21.67
246.814	124.07
247.031	-21.33
247.248	27.82
247.464	33.96
247.681	40.11
247.898	-15.19
248.115	-39.76
248.332	-35.67
248.549	66.73
248.766	68.78
248.983	46.25
249.2	103.59
249.417	-0.85
249.633	83.11
249.85	-37.72
250.067	19.63
250.284	19.63
250.501	31.91
250.717	56.49
250.934	7.34
251.151	9.39
251.368	46.25
251.585	95.4
251.801	-19.29
252.018	-25.43
252.235	27.82
252.451	13.48
252.668	29.87
252.885	5.29
253.102	85.16
253.318	101.55
253.535	42.15
253.752	23.72
253.968	-11.09
254.185	66.73
254.401	25.77
254.618	40.11
254.835	58.54
255.051	87.21
255.268	9.39
255.484	66.73
255.701	50.35
255.917	42.15
256.134	-13.14
256.351	42.15
256.567	9.39
256.784	21.67
257	42.15
257.217	11.43
257.433	42.15
257.65	-4.95
257.866	27.82
258.082	1.19
258.299	-37.72
258.515	3.24
258.732	17.58
258.948	-50
259.165	50.35
259.381	99.5
259.597	52.39
259.814	-27.48
260.03	25.77
260.246	3.24
260.463	64.68
260.679	38.06
260.895	101.55
261.112	97.45
261.328	-58.2
261.544	38.06
261.761	158.89
261.977	17.58
262.193	-11.09
262.409	17.58
262.626	-11.09
262.842	-15.19
263.058	-21.33
263.274	48.3
263.49	-13.14
263.707	117.93
263.923	83.11
264.139	-74.58
264.355	-15.19
264.571	87.21
264.787	33.96
265.004	-17.24
265.22	25.77
265.436	-31.57
265.652	74.92
265.868	19.63
266.084	-35.67
266.3	50.35
266.516	52.39
266.732	21.67
266.948	-76.63
267.164	36.01
267.38	40.11
267.596	60.59
267.812	36.01
268.028	-19.29
268.244	13.48
268.46	58.54
268.676	-23.38
268.892	-9.05
269.108	-45.91
269.324	-9.05
269.54	-2.9
269.756	79.02
269.972	29.87
270.188	52.39
270.403	-33.62
270.619	-52.05
270.835	-43.86
271.051	70.83
271.267	-11.09
271.483	68.78
271.698	70.83
271.914	-43.86
272.13	-29.52
272.346	11.43
272.562	107.69
272.777	40.11
272.993	29.87
273.209	33.96
273.425	11.43
273.64	-72.53
273.856	46.25
274.072	25.77
274.287	-60.24
274.503	-21.33
274.719	85.16
274.934	76.97
275.15	3.24
275.366	83.11
275.581	5.29
275.797	-19.29
276.012	-39.76
276.228	44.2
276.444	52.39
276.659	-19.29
276.875	-62.29
277.09	-19.29
277.306	-9.05
277.521	27.82
277.737	-25.43
277.952	46.25
278.168	23.72
278.383	79.02
278.599	13.48
278.814	60.59
279.03	54.44
279.245	150.7
279.461	-31.57
279.676	33.96
279.892	-23.38
280.107	42.15
280.322	19.63
280.538	79.02
280.753	-27.48
280.969	27.82
281.184	19.63
281.399	91.31
281.615	-4.95
281.83	72.87
282.045	13.48
282.26	38.06
282.476	5.29
282.691	25.77
282.906	15.53
283.122	1.19
283.337	115.88
283.552	38.06
283.767	-4.95
283.983	33.96
284.198	42.15
284.413	27.82
284.628	29.87
284.843	-43.86
285.058	29.87
285.274	-17.24
285.489	19.63
285.704	23.72
285.919	3.24
286.134	33.96
286.349	54.44
286.564	21.67
286.779	54.44
286.995	70.83
287.21	36.01
287.425	46.25
287.64	29.87
287.855	42.15
288.07	-7
288.285	93.35
288.5	124.07
288.715	13.48
288.93	29.87
289.145	25.77
289.36	13.48
289.575	9.39
289.79	27.82
290.004	91.31
290.219	56.49
290.434	44.2
290.649	99.5
290.864	-2.9
291.079	42.15
291.294	64.68
291.509	-27.48
291.724	-15.19
291.938	38.06
292.153	21.67
292.368	70.83
292.583	85.16
292.798	44.2
293.012	48.3
293.227	46.25
293.442	11.43
293.657	-9.05
293.871	76.97
294.086	50.35
294.301	68.78
294.516	25.77
294.73	29.87
294.945	87.21
295.16	42.15
295.374	-4.95
295.589	109.74
295.804	1.19
296.018	56.49
296.233	50.35
296.447	-17.24
296.662	48.3
296.877	76.97
297.091	33.96
297.306	11.43
297.52	5.29
297.735	-7
297.949	19.63
298.164	33.96
298.378	29.87
298.593	46.25
298.807	-2.9
299.022	-2.9
299.236	74.92
299.451	64.68
299.665	5.29
299.88	48.3
300.094	85.16
300.309	107.69
300.523	19.63
300.737	-13.14
300.952	5.29
301.166	46.25
301.381	50.35
301.595	27.82
301.809	9.39
302.024	3.24
302.238	3.24
302.452	122.02
302.667	36.01
302.881	3.24
303.095	64.68
303.309	13.48
303.524	9.39
303.738	13.48
303.952	-23.38
304.166	72.87
304.381	-4.95
304.595	46.25
304.809	21.67
305.023	19.63
305.237	85.16
305.452	62.63
305.666	58.54
305.88	66.73
306.094	38.06
306.308	36.01
306.522	81.07
306.736	76.97
306.95	74.92
307.164	58.54
307.379	5.29
307.593	85.16
307.807	54.44
308.021	3.24
308.235	-0.85
308.449	33.96
308.663	5.29
308.877	19.63
309.091	40.11
309.305	103.59
309.519	15.53
309.733	13.48
309.947	-43.86
310.161	95.4
310.374	25.77
310.588	70.83
310.802	-7
311.016	42.15
311.23	23.72
311.444	-15.19
311.658	48.3
311.872	29.87
312.085	-11.09
312.299	72.87
312.513	29.87
312.727	36.01
312.941	3.24
313.154	68.78
313.368	21.67
313.582	1.19
313.796	52.39
314.009	-29.52
314.223	54.44
314.437	15.53
314.651	115.88
314.864	-9.05
315.078	27.82
315.292	-0.85
315.505	60.59
315.719	58.54
315.933	-33.62
316.146	-11.09
316.36	76.97
316.573	29.87
316.787	46.25
317.001	79.02
317.214	5.29
317.428	68.78
317.641	9.39
317.855	64.68
318.068	97.45
318.282	54.44
318.495	72.87
318.709	89.26
318.922	-17.24
319.136	99.5
319.349	76.97
319.563	5.29
319.776	15.53
319.99	-72.53
320.203	76.97
320.417	60.59
320.63	60.59
320.843	136.36
321.057	91.31
321.27	81.07
321.483	19.63
321.697	42.15
321.91	52.39
322.124	-15.19
322.337	-33.62
322.55	19.63
322.763	74.92
322.977	3.24
323.19	7.34
323.403	46.25
323.617	66.73
323.83	70.83
324.043	13.48
324.256	23.72
324.469	13.48
324.683	-35.67
324.896	44.2
325.109	46.25
325.322	-25.43
325.535	38.06
325.748	3.24
325.962	-17.24
326.175	44.2
326.388	91.31
326.601	-13.14
326.814	-23.38
327.027	5.29
327.24	109.74
327.453	-11.09
327.666	42.15
327.879	38.06
328.092	38.06
328.305	95.4
328.518	122.02
328.731	15.53
328.944	38.06
329.157	-2.9
329.37	11.43
329.583	87.21
329.796	72.87
330.009	9.39
330.222	91.31
330.435	29.87
330.648	48.3
330.861	58.54
331.073	95.4
331.286	66.73
331.499	-2.9
331.712	36.01
331.925	68.78
332.138	66.73
332.35	42.15
332.563	-19.29
332.776	-9.05
332.989	-11.09
333.202	-37.72
333.414	-39.76
333.627	60.59
333.84	46.25
334.053	-13.14
334.265	9.39
334.478	46.25
334.691	33.96
334.903	11.43
335.116	25.77
335.329	68.78
335.541	66.73
335.754	42.15
335.966	15.53
336.179	40.11
336.392	-15.19
336.604	70.83
336.817	58.54
337.029	-2.9
337.242	46.25
337.454	72.87
337.667	27.82
337.88	52.39
338.092	9.39
338.305	29.87
338.517	-43.86
338.729	40.11
338.942	-0.85
339.154	58.54
339.367	33.96
339.579	-50
339.792	-4.95
340.004	58.54
340.217	5.29
340.429	-35.67
340.641	-2.9
340.854	-23.38
341.066	-27.48
341.278	7.34
341.491	89.26
341.703	-33.62
341.915	7.34
342.128	38.06
342.34	107.69
342.552	42.15
342.764	74.92
342.977	-25.43
343.189	-41.81
343.401	38.06
343.613	-0.85
343.826	13.48
344.038	-37.72
344.25	70.83
344.462	56.49
344.674	44.2
344.886	60.59
345.099	79.02
345.311	46.25
345.523	-2.9
345.735	29.87
345.947	144.55
346.159	23.72
346.371	17.58
346.583	46.25
346.795	66.73
347.007	46.25
347.219	42.15
347.431	17.58
347.643	40.11
347.855	13.48
348.067	68.78
348.279	17.58
348.491	54.44
348.703	91.31
348.915	7.34
349.127	-15.19
349.339	33.96
349.551	-23.38
349.763	54.44
349.975	81.07
350.187	87.21
350.399	79.02
350.61	11.43
350.822	70.83
351.034	79.02
351.246	23.72
351.458	101.55
351.669	21.67
351.881	81.07
352.093	58.54
352.305	23.72
352.517	46.25
352.728	44.2
352.94	31.91
353.152	50.35
353.363	54.44
353.575	91.31
353.787	79.02
353.999	-2.9
354.21	111.78
354.422	-7
354.633	9.39
354.845	11.43
355.057	42.15
355.268	62.63
355.48	-19.29
355.692	1.19
355.903	25.77
356.115	66.73
356.326	-23.38
356.538	66.73
356.749	140.46
356.961	103.59
357.172	-19.29
357.384	21.67
357.595	58.54
357.807	15.53
358.018	19.63
358.23	62.63
358.441	60.59
358.653	111.78
358.864	42.15
359.075	13.48
359.287	15.53
359.498	9.39
359.709	44.2
359.921	70.83
360.132	-9.05
360.344	36.01
360.555	25.77
360.766	103.59
360.977	23.72
361.189	66.73
361.4	17.58
361.611	54.44
361.823	15.53
362.034	48.3
362.245	50.35
362.456	62.63
362.667	19.63
362.879	15.53
363.09	74.92
363.301	58.54
363.512	23.72
363.723	5.29
363.935	-7
364.146	60.59
364.357	11.43
364.568	81.07
364.779	17.58
364.99	79.02
365.201	64.68
365.412	40.11
365.623	1.19
365.834	3.24
366.045	-0.85
366.256	15.53
366.467	-0.85
366.678	117.93
366.889	79.02
367.1	-2.9
367.311	58.54
367.522	48.3
367.733	15.53
367.944	66.73
368.155	1.19
368.366	70.83
368.577	97.45
368.788	79.02
368.999	38.06
369.209	76.97
369.42	101.55
369.631	46.25
369.842	64.68
370.053	83.11
370.264	156.84
370.474	54.44
370.685	54.44
370.896	-9.05
371.107	42.15
371.317	60.59
371.528	19.63
371.739	46.25
371.95	87.21
372.16	31.91
372.371	52.39
372.582	42.15
372.792	54.44
373.003	21.67
373.214	40.11
373.424	23.72
373.635	81.07
373.846	58.54
374.056	-47.96
374.267	107.69
374.477	79.02
374.688	46.25
374.898	-4.95
375.109	85.16
375.319	72.87
375.53	13.48
375.74	38.06
375.951	-21.33
376.161	99.5
376.372	93.35
376.582	-7
376.793	19.63
377.003	38.06
377.214	74.92
377.424	54.44
377.635	66.73
377.845	5.29
378.055	15.53
378.266	46.25
378.476	87.21
378.686	68.78
378.897	36.01
379.107	46.25
379.317	136.36
379.528	-13.14
379.738	17.58
379.948	46.25
380.158	76.97
380.369	70.83
380.579	15.53
380.789	54.44
380.999	-13.14
381.21	29.87
381.42	165.03
381.63	66.73
381.84	113.83
382.05	13.48
382.261	72.87
382.471	79.02
382.681	13.48
382.891	17.58
383.101	99.5
383.311	50.35
383.521	15.53
383.731	42.15
383.941	95.4
384.151	74.92
384.361	83.11
384.571	15.53
384.781	107.69
384.991	62.63
385.201	152.74
385.411	87.21
385.621	70.83
385.831	74.92
386.041	29.87
386.251	46.25
386.461	1.19
386.671	5.29
386.881	99.5
387.091	107.69
387.301	52.39
387.511	-0.85
387.72	50.35
387.93	36.01
388.14	27.82
388.35	38.06
388.56	107.69
388.769	93.35
388.979	9.39
389.189	-0.85
389.399	40.11
389.609	91.31
389.818	126.12
390.028	132.26
390.238	56.49
390.447	56.49
390.657	58.54
390.867	13.48
391.076	29.87
391.286	85.16
391.496	27.82
391.705	38.06
391.915	89.26
392.125	105.64
392.334	62.63
392.544	76.97
392.753	38.06
392.963	9.39
393.172	74.92
393.382	19.63
393.591	152.74
393.801	15.53
394.01	113.83
394.22	91.31
394.429	142.5
394.639	101.55
394.848	42.15
395.058	62.63
395.267	124.07
395.477	150.7
395.686	152.74
395.895	156.84
396.105	85.16
396.314	54.44
396.524	97.45
396.733	56.49
396.942	134.31
397.152	68.78
397.361	115.88
397.57	105.64
397.78	119.98
397.989	54.44
398.198	169.13
398.407	89.26
398.617	103.59
398.826	109.74
399.035	103.59
399.244	111.78
399.453	85.16
399.663	122.02
399.872	119.98
400.081	48.3
400.29	130.22
400.499	9.39
400.708	189.61
400.917	99.5
401.127	72.87
401.336	113.83
401.545	152.74
401.754	165.03
401.963	68.78
402.172	128.17
402.381	85.16
402.59	111.78
402.799	70.83
403.008	158.89
403.217	146.6
403.426	89.26
403.635	42.15
403.844	128.17
404.053	132.26
404.262	79.02
404.471	171.18
404.68	140.46
404.888	158.89
405.097	124.07
405.306	146.6
405.515	169.13
405.724	148.65
405.933	220.33
406.142	148.65
406.35	234.66
406.559	212.14
406.768	181.42
406.977	216.23
407.185	218.28
407.394	208.04
407.603	144.55
407.812	214.18
408.02	214.18
408.229	214.18
408.438	208.04
408.646	279.72
408.855	222.38
409.064	298.15
409.272	242.85
409.481	310.44
409.69	304.29
409.898	294.05
410.107	410.79
410.315	361.64
410.524	384.16
410.733	359.59
410.941	369.83
411.15	304.29
411.358	410.79
411.567	517.28
411.775	394.4
411.984	453.8
412.192	431.27
412.401	464.04
412.609	597.15
412.818	494.76
413.026	515.23
413.234	597.15
413.443	500.9
413.651	560.29
413.86	570.53
414.068	679.07
414.276	740.51
414.485	631.97
414.693	771.23
414.901	736.42
415.11	672.93
415.318	711.84
415.526	910.49
415.734	904.35
415.943	849.05
416.151	871.58
416.359	933.02
416.567	892.06
416.776	947.36
416.984	1090.71
417.192	1115.29
417.4	1127.58
417.608	1135.77
417.817	1150.11
418.025	1242.26
418.233	1250.46
418.441	1344.66
418.649	1238.17
418.857	1391.77
419.065	1414.29
419.273	1457.3
419.481	1522.84
419.689	1574.03
419.897	1584.27
420.105	1705.1
420.313	1698.96
420.521	1827.98
420.729	1762.45
420.937	1881.23
421.145	1909.9
421.353	2022.54
421.561	1967.24
421.769	2088.07
421.977	2217.1
422.185	2307.21
422.393	2352.26
422.601	2536.58
422.809	2534.53
423.017	2577.54
423.224	2600.07
423.432	2741.38
423.64	2763.9
423.848	3058.81
424.056	3026.04
424.263	3114.11
424.471	3263.61
424.679	3200.12
424.887	3503.22
425.094	3542.13
425.302	3624.05
425.51	3652.72
425.718	3732.59
425.925	3867.76
426.133	3882.1
426.341	4336.74
426.548	4330.6
426.756	4320.36
426.964	4525.16
427.171	4605.03
427.379	4621.41
427.586	4914.27
427.794	5090.4
428.001	5078.11
428.209	5438.55
428.417	5358.68
428.624	5844.05
428.832	5786.71
429.039	5692.5
429.247	5817.43
429.454	6288.46
429.662	6851.65
429.869	6292.55
430.076	6845.51
430.284	6526.02
430.491	6763.59
430.699	7382.07
430.906	7259.2
431.114	7271.48
431.321	7515.19
431.528	7492.66
431.736	8078.38
431.943	8631.33
432.15	8346.67
432.358	8401.96
432.565	8696.87
432.772	9073.7
432.979	9368.6
433.187	9391.13
433.394	9358.36
433.601	9970.71
433.808	10165.26
434.016	9843.73
434.223	10564.62
434.43	11154.43
434.637	10869.76
434.844	11617.27
435.052	11709.43
435.259	11703.29
435.466	11801.59
435.673	11600.89
435.88	12835.81
436.087	13067.24
436.294	13175.78
436.501	12712.94
436.708	13026.28
436.915	13636.57
437.122	14023.64
437.329	13925.33
437.537	14652.36
437.743	14937.03
437.95	14875.59
438.157	15451.07
438.364	16044.98
438.571	15788.99
438.778	16053.17
438.985	17630.11
439.192	16788.39
439.399	17298.34
439.606	16724.91
439.813	17867.67
440.02	18961.29
440.227	18488.21
440.433	18697.1
440.64	19100.55
440.847	18766.73
441.054	19313.54
441.261	20687.73
441.467	20292.47
441.674	20992.87
441.881	21592.93
442.088	21707.62
442.294	21265.25
442.501	21662.56
442.708	22459.22
442.914	23145.29
443.121	24107.83
443.328	23644.99
443.534	25051.95
443.741	24288.06
443.948	24175.42
444.154	25893.66
444.361	25697.06
444.568	26139.42
444.774	25731.87
444.981	26145.56
445.187	26966.8
445.394	27904.77
445.6	27839.23
445.807	30239.45
446.013	28820.21
446.22	29682.41
446.426	30505.69
446.633	30761.69
446.839	31818.44
447.046	30765.78
447.252	32242.37
447.459	32258.75
447.665	32152.26
447.871	33512.11
448.078	34927.25
448.284	33213.1
448.491	34175.65
448.697	35365.52
448.903	36029.06
449.11	36166.27
449.316	35330.7
449.522	36113.03
449.728	37206.64
449.935	37413.49
450.141	37159.54
450.347	38140.52
450.553	36940.41
450.76	37591.66
450.966	38431.33
451.172	37823.08
451.378	38924.89
451.584	38605.41
451.791	39174.74
451.997	38697.56
452.203	39414.35
452.409	39377.49
452.615	38857.31
452.821	37804.65
453.027	37606
453.233	39223.89
453.44	37997.16
453.646	38066.79
453.852	38265.44
454.058	38980.18
454.264	37534.32
454.47	38142.56
454.676	37194.36
454.882	38629.98
455.088	35408.53
455.294	35809.93
455.5	36074.12
455.705	36719.23
455.911	35000.98
456.117	34751.13
456.323	33895.08
456.529	32385.72
456.735	33647.27
456.941	32840.37
457.147	32144.06
457.352	31328.97
457.558	30896.85
457.764	30843.6
457.97	30325.47
458.176	29692.65
458.381	29479.66
458.587	28379.9
458.793	28152.57
458.999	27155.21
459.204	28519.16
459.41	27919.1
459.616	26110.75
459.821	26256.15
460.027	25940.77
460.233	25441.06
460.438	23987
460.644	24607.54
460.85	23253.83
461.055	22952.78
461.261	22858.57
461.466	21468
461.672	20525.94
461.878	22047.58
462.083	20575.09
462.289	20239.22
462.494	20233.08
462.7	19495.81
462.905	18686.86
463.111	19522.43
463.316	19516.29
463.522	19284.87
463.727	19094.41
463.932	19006.34
464.138	18748.3
464.343	18813.84
464.549	18189.21
464.754	19151.75
464.959	18693.01
465.165	18563.98
465.37	17802.14
465.575	17247.14
465.781	17939.35
465.986	18332.56
466.191	17666.97
466.397	17058.73
466.602	16444.34
466.807	17279.91
467.012	17206.18
467.218	16864.17
467.423	16696.24
467.628	16853.93
