Data from USB4F104151__300__11-03-21-683.txt Node

Date: Wed Mar 12 11:03:21 EDT 2025
User: louis
Spectrometer: USB4F10415
Trigger mode: 4
Integration Time (sec): 2.000000E-2
Scans to average: 1
Electric dark correction enabled: true
Nonlinearity correction enabled: false
Boxcar width: 0
XAxis mode: Wavelengths
Number of Pixels in Spectrum: 3648
>>>>>Begin Spectral Data<<<<<
178.204	-55.81
178.424	-55.81
178.644	-55.81
178.864	-47.62
179.084	-90.62
179.304	-80.38
179.524	19.97
179.744	-8.7
179.964	62.98
180.184	13.82
180.404	-33.28
180.624	34.3
180.844	-4.61
181.064	15.87
181.283	-18.94
181.503	-86.53
181.723	85.5
181.943	52.74
182.163	128.51
182.383	3.58
182.602	103.93
182.822	3.58
183.042	22.02
183.262	7.68
183.482	3.58
183.701	-6.66
183.921	52.74
184.141	-31.23
184.361	19.97
184.58	48.64
184.8	-25.09
185.02	1.54
185.239	116.22
185.459	50.69
185.679	5.63
185.898	69.12
186.118	69.12
186.338	-41.47
186.557	91.65
186.777	-31.23
186.997	26.11
187.216	38.4
187.436	26.11
187.655	69.12
187.875	69.12
188.095	65.02
188.314	54.78
188.534	42.5
188.753	-2.56
188.973	50.69
189.192	75.26
189.412	19.97
189.631	5.63
189.851	17.92
190.07	38.4
190.29	-25.09
190.509	30.21
190.729	42.5
190.948	-51.71
191.168	30.21
191.387	5.63
191.607	42.5
191.826	30.21
192.045	30.21
192.265	28.16
192.484	15.87
192.704	-10.75
192.923	-39.42
193.142	69.12
193.362	67.07
193.581	60.93
193.8	9.73
194.02	71.17
194.239	79.36
194.458	46.59
194.678	-10.75
194.897	105.98
195.116	44.54
195.335	-10.75
195.555	122.37
195.774	9.73
195.993	40.45
196.212	5.63
196.432	85.5
196.651	-8.7
196.87	24.06
197.089	124.41
197.308	30.21
197.528	36.35
197.747	-23.04
197.966	30.21
198.185	79.36
198.404	73.21
198.623	-14.85
198.842	81.41
199.062	58.88
199.281	34.3
199.5	65.02
199.719	52.74
199.938	50.69
200.157	13.82
200.376	67.07
200.595	83.45
200.814	50.69
201.033	-4.61
201.252	87.55
201.471	87.55
201.69	58.88
201.909	75.26
202.128	-27.14
202.347	56.83
202.566	42.5
202.785	62.98
203.004	24.06
203.223	32.26
203.442	62.98
203.661	1.54
203.879	9.73
204.098	75.26
204.317	5.63
204.536	46.59
204.755	3.58
204.974	30.21
205.193	-39.42
205.411	34.3
205.63	67.07
205.849	-2.56
206.068	144.89
206.287	28.16
206.505	79.36
206.724	38.4
206.943	1.54
207.162	24.06
207.381	26.11
207.599	34.3
207.818	50.69
208.037	75.26
208.255	-0.51
208.474	60.93
208.693	148.99
208.911	22.02
209.13	26.11
209.349	77.31
209.567	60.93
209.786	56.83
210.005	65.02
210.223	67.07
210.442	-4.61
210.661	36.35
210.879	87.55
211.098	-14.85
211.316	-4.61
211.535	99.84
211.753	48.64
211.972	65.02
212.191	36.35
212.409	3.58
212.628	40.45
212.846	38.4
213.065	9.73
213.283	91.65
213.502	38.4
213.72	-2.56
213.938	36.35
214.157	24.06
214.375	11.78
214.594	-47.62
214.812	56.83
215.031	67.07
215.249	-23.04
215.467	-37.38
215.686	-12.8
215.904	34.3
216.122	-18.94
216.341	9.73
216.559	9.73
216.778	38.4
216.996	13.82
217.214	42.5
217.432	22.02
217.651	36.35
217.869	26.11
218.087	101.89
218.306	46.59
218.524	95.74
218.742	3.58
218.96	44.54
219.179	11.78
219.397	105.98
219.615	34.3
219.833	40.45
220.051	54.78
220.27	50.69
220.488	19.97
220.706	62.98
220.924	83.45
221.142	7.68
221.36	65.02
221.578	26.11
221.796	-55.81
222.015	-14.85
222.233	69.12
222.451	17.92
222.669	-25.09
222.887	93.69
223.105	15.87
223.323	-23.04
223.541	34.3
223.759	38.4
223.977	36.35
224.195	67.07
224.413	-35.33
224.631	38.4
224.849	71.17
225.067	69.12
225.285	50.69
225.503	42.5
225.721	-45.57
225.939	-6.66
226.157	42.5
226.375	81.41
226.592	9.73
226.81	7.68
227.028	-4.61
227.246	65.02
227.464	-2.56
227.682	40.45
227.9	-4.61
228.117	11.78
228.335	69.12
228.553	30.21
228.771	-37.38
228.989	73.21
229.206	71.17
229.424	103.93
229.642	5.63
229.86	-23.04
230.077	132.61
230.295	1.54
230.513	50.69
230.731	65.02
230.948	114.17
231.166	87.55
231.384	48.64
231.601	85.5
231.819	32.26
232.037	67.07
232.254	19.97
232.472	9.73
232.689	7.68
232.907	85.5
233.125	-20.99
233.342	-10.75
233.56	-4.61
233.777	13.82
233.995	34.3
234.213	11.78
234.43	108.03
234.648	146.94
234.865	65.02
235.083	9.73
235.3	32.26
235.518	34.3
235.735	108.03
235.953	52.74
236.17	-6.66
236.388	30.21
236.605	65.02
236.822	79.36
237.04	15.87
237.257	65.02
237.475	3.58
237.692	42.5
237.909	67.07
238.127	26.11
238.344	28.16
238.562	38.4
238.779	-59.9
238.996	-0.51
239.214	30.21
239.431	3.58
239.648	34.3
239.865	89.6
240.083	124.41
240.3	65.02
240.517	54.78
240.735	153.09
240.952	24.06
241.169	13.82
241.386	48.64
241.603	42.5
241.821	17.92
242.038	77.31
242.255	32.26
242.472	40.45
242.689	17.92
242.907	5.63
243.124	-23.04
243.341	-2.56
243.558	60.93
243.775	-35.33
243.992	46.59
244.209	9.73
244.426	44.54
244.643	44.54
244.86	-6.66
245.078	36.35
245.295	-6.66
245.512	101.89
245.729	65.02
245.946	81.41
246.163	19.97
246.38	-14.85
246.597	46.59
246.814	5.63
247.031	69.12
247.248	32.26
247.464	56.83
247.681	1.54
247.898	62.98
248.115	17.92
248.332	-39.42
248.549	62.98
248.766	54.78
248.983	114.17
249.2	34.3
249.417	34.3
249.633	-4.61
249.85	81.41
250.067	26.11
250.284	99.84
250.501	19.97
250.717	62.98
250.934	-25.09
251.151	5.63
251.368	50.69
251.585	42.5
251.801	17.92
252.018	-20.99
252.235	112.13
252.451	15.87
252.668	54.78
252.885	75.26
253.102	79.36
253.318	13.82
253.535	36.35
253.752	24.06
253.968	13.82
254.185	-64
254.401	-12.8
254.618	13.82
254.835	-59.9
255.051	58.88
255.268	26.11
255.484	103.93
255.701	44.54
255.917	19.97
256.134	-18.94
256.351	132.61
256.567	32.26
256.784	19.97
257	-18.94
257.217	85.5
257.433	62.98
257.65	73.21
257.866	91.65
258.082	42.5
258.299	40.45
258.515	89.6
258.732	24.06
258.948	11.78
259.165	-0.51
259.381	48.64
259.597	34.3
259.814	60.93
260.03	17.92
260.246	22.02
260.463	52.74
260.679	46.59
260.895	122.37
261.112	42.5
261.328	13.82
261.544	3.58
261.761	73.21
261.977	65.02
262.193	50.69
262.409	50.69
262.626	54.78
262.842	136.7
263.058	1.54
263.274	73.21
263.49	60.93
263.707	112.13
263.923	75.26
264.139	52.74
264.355	97.79
264.571	50.69
264.787	40.45
265.004	91.65
265.22	116.22
265.436	-23.04
265.652	5.63
265.868	42.5
266.084	-25.09
266.3	65.02
266.516	-53.76
266.732	69.12
266.948	91.65
267.164	46.59
267.38	75.26
267.596	38.4
267.812	99.84
268.028	73.21
268.244	26.11
268.46	28.16
268.676	-0.51
268.892	126.46
269.108	-10.75
269.324	44.54
269.54	81.41
269.756	54.78
269.972	81.41
270.188	58.88
270.403	13.82
270.619	48.64
270.835	103.93
271.051	26.11
271.267	-12.8
271.483	81.41
271.698	42.5
271.914	28.16
272.13	75.26
272.346	19.97
272.562	56.83
272.777	42.5
272.993	-6.66
273.209	56.83
273.425	52.74
273.64	-14.85
273.856	91.65
274.072	-18.94
274.287	3.58
274.503	5.63
274.719	19.97
274.934	-23.04
275.15	26.11
275.366	-6.66
275.581	1.54
275.797	40.45
276.012	44.54
276.228	32.26
276.444	91.65
276.659	-29.18
276.875	9.73
277.09	28.16
277.306	30.21
277.521	36.35
277.737	50.69
277.952	36.35
278.168	-27.14
278.383	7.68
278.599	9.73
278.814	71.17
279.03	81.41
279.245	65.02
279.461	34.3
279.676	85.5
279.892	-8.7
280.107	79.36
280.322	-37.38
280.538	58.88
280.753	81.41
280.969	75.26
281.184	-41.47
281.399	58.88
281.615	58.88
281.83	62.98
282.045	24.06
282.26	28.16
282.476	-10.75
282.691	52.74
282.906	73.21
283.122	-29.18
283.337	38.4
283.552	71.17
283.767	-14.85
283.983	42.5
284.198	58.88
284.413	75.26
284.628	11.78
284.843	93.69
285.058	5.63
285.274	103.93
285.489	24.06
285.704	30.21
285.919	9.73
286.134	17.92
286.349	-14.85
286.564	73.21
286.779	103.93
286.995	81.41
287.21	17.92
287.425	101.89
287.64	24.06
287.855	48.64
288.07	52.74
288.285	116.22
288.5	15.87
288.715	24.06
288.93	-20.99
289.145	-18.94
289.36	48.64
289.575	58.88
289.79	50.69
290.004	32.26
290.219	108.03
290.434	-39.42
290.649	3.58
290.864	24.06
291.079	71.17
291.294	65.02
291.509	28.16
291.724	22.02
291.938	42.5
292.153	34.3
292.368	-20.99
292.583	24.06
292.798	38.4
293.012	40.45
293.227	1.54
293.442	5.63
293.657	36.35
293.871	108.03
294.086	22.02
294.301	93.69
294.516	5.63
294.73	73.21
294.945	-27.14
295.16	108.03
295.374	26.11
295.589	32.26
295.804	15.87
296.018	-18.94
296.233	99.84
296.447	28.16
296.662	26.11
296.877	65.02
297.091	-6.66
297.306	54.78
297.52	65.02
297.735	46.59
297.949	24.06
298.164	60.93
298.378	52.74
298.593	24.06
298.807	-2.56
299.022	93.69
299.236	93.69
299.451	48.64
299.665	48.64
299.88	13.82
300.094	69.12
300.309	-6.66
300.523	108.03
300.737	-16.9
300.952	11.78
301.166	75.26
301.381	24.06
301.595	99.84
301.809	42.5
302.024	13.82
302.238	24.06
302.452	67.07
302.667	26.11
302.881	5.63
303.095	7.68
303.309	62.98
303.524	81.41
303.738	136.7
303.952	11.78
304.166	50.69
304.381	-37.38
304.595	93.69
304.809	22.02
305.023	62.98
305.237	-29.18
305.452	71.17
305.666	101.89
305.88	19.97
306.094	58.88
306.308	56.83
306.522	48.64
306.736	79.36
306.95	34.3
307.164	132.61
307.379	48.64
307.593	75.26
307.807	146.94
308.021	30.21
308.235	11.78
308.449	-27.14
308.663	-0.51
308.877	77.31
309.091	30.21
309.305	93.69
309.519	34.3
309.733	-0.51
309.947	24.06
310.161	69.12
310.374	75.26
310.588	95.74
310.802	-27.14
311.016	67.07
311.23	-4.61
311.444	-8.7
311.658	32.26
311.872	22.02
312.085	-45.57
312.299	62.98
312.513	36.35
312.727	67.07
312.941	46.59
313.154	22.02
313.368	13.82
313.582	71.17
313.796	42.5
314.009	30.21
314.223	44.54
314.437	83.45
314.651	118.27
314.864	34.3
315.078	-4.61
315.292	24.06
315.505	52.74
315.719	3.58
315.933	48.64
316.146	11.78
316.36	-4.61
316.573	140.8
316.787	50.69
317.001	28.16
317.214	36.35
317.428	30.21
317.641	28.16
317.855	17.92
318.068	22.02
318.282	56.83
318.495	-2.56
318.709	19.97
318.922	-4.61
319.136	38.4
319.349	28.16
319.563	52.74
319.776	75.26
319.99	1.54
320.203	17.92
320.417	54.78
320.63	40.45
320.843	130.56
321.057	103.93
321.27	5.63
321.483	1.54
321.697	9.73
321.91	50.69
322.124	71.17
322.337	103.93
322.55	9.73
322.763	79.36
322.977	7.68
323.19	79.36
323.403	103.93
323.617	124.41
323.83	148.99
324.043	54.78
324.256	122.37
324.469	58.88
324.683	71.17
324.896	62.98
325.109	17.92
325.322	13.82
325.535	110.08
325.748	46.59
325.962	54.78
326.175	7.68
326.388	65.02
326.601	44.54
326.814	128.51
327.027	17.92
327.24	71.17
327.453	26.11
327.666	1.54
327.879	22.02
328.092	120.32
328.305	56.83
328.518	-0.51
328.731	85.5
328.944	19.97
329.157	97.79
329.37	36.35
329.583	73.21
329.796	112.13
330.009	26.11
330.222	116.22
330.435	58.88
330.648	56.83
330.861	93.69
331.073	65.02
331.286	71.17
331.499	34.3
331.712	-10.75
331.925	15.87
332.138	5.63
332.35	50.69
332.563	81.41
332.776	83.45
332.989	5.63
333.202	42.5
333.414	73.21
333.627	50.69
333.84	103.93
334.053	103.93
334.265	32.26
334.478	42.5
334.691	95.74
334.903	54.78
335.116	50.69
335.329	32.26
335.541	79.36
335.754	60.93
335.966	-2.56
336.179	34.3
336.392	81.41
336.604	89.6
336.817	87.55
337.029	75.26
337.242	67.07
337.454	93.69
337.667	69.12
337.88	75.26
338.092	24.06
338.305	157.18
338.517	120.32
338.729	60.93
338.942	103.93
339.154	91.65
339.367	17.92
339.579	48.64
339.792	22.02
340.004	17.92
340.217	-2.56
340.429	44.54
340.641	28.16
340.854	7.68
341.066	54.78
341.278	75.26
341.491	108.03
341.703	7.68
341.915	28.16
342.128	124.41
342.34	73.21
342.552	69.12
342.764	62.98
342.977	-4.61
343.189	151.04
343.401	79.36
343.613	-41.47
343.826	11.78
344.038	67.07
344.25	67.07
344.462	24.06
344.674	34.3
344.886	17.92
345.099	11.78
345.311	62.98
345.523	22.02
345.735	42.5
345.947	13.82
346.159	36.35
346.371	-12.8
346.583	24.06
346.795	99.84
347.007	30.21
347.219	54.78
347.431	13.82
347.643	79.36
347.855	56.83
348.067	54.78
348.279	-20.99
348.491	9.73
348.703	54.78
348.915	-18.94
349.127	54.78
349.339	118.27
349.551	-10.75
349.763	85.5
349.975	122.37
350.187	89.6
350.399	85.5
350.61	-12.8
350.822	81.41
351.034	22.02
351.246	48.64
351.458	54.78
351.669	36.35
351.881	-16.9
352.093	67.07
352.305	71.17
352.517	65.02
352.728	60.93
352.94	7.68
353.152	40.45
353.363	42.5
353.575	62.98
353.787	97.79
353.999	67.07
354.21	54.78
354.422	-8.7
354.633	83.45
354.845	56.83
355.057	65.02
355.268	71.17
355.48	24.06
355.692	13.82
355.903	97.79
356.115	69.12
356.326	24.06
356.538	134.65
356.749	81.41
356.961	42.5
357.172	50.69
357.384	30.21
357.595	34.3
357.807	48.64
358.018	36.35
358.23	44.54
358.441	97.79
358.653	3.58
358.864	103.93
359.075	75.26
359.287	15.87
359.498	75.26
359.709	77.31
359.921	122.37
360.132	9.73
360.344	52.74
360.555	24.06
360.766	110.08
360.977	26.11
361.189	32.26
361.4	75.26
361.611	65.02
361.823	24.06
362.034	122.37
362.245	1.54
362.456	58.88
362.667	34.3
362.879	48.64
363.09	85.5
363.301	108.03
363.512	46.59
363.723	71.17
363.935	26.11
364.146	56.83
364.357	93.69
364.568	26.11
364.779	85.5
364.99	103.93
365.201	-12.8
365.412	52.74
365.623	13.82
365.834	65.02
366.045	28.16
366.256	73.21
366.467	120.32
366.678	-2.56
366.889	95.74
367.1	62.98
367.311	93.69
367.522	32.26
367.733	48.64
367.944	77.31
368.155	112.13
368.366	112.13
368.577	30.21
368.788	95.74
368.999	87.55
369.209	19.97
369.42	114.17
369.631	130.56
369.842	60.93
370.053	54.78
370.264	32.26
370.474	83.45
370.685	79.36
370.896	28.16
371.107	81.41
371.317	52.74
371.528	52.74
371.739	50.69
371.95	48.64
372.16	103.93
372.371	97.79
372.582	-20.99
372.792	75.26
373.003	103.93
373.214	67.07
373.424	60.93
373.635	46.59
373.846	-0.51
374.056	65.02
374.267	101.89
374.477	60.93
374.688	40.45
374.898	5.63
375.109	32.26
375.319	75.26
375.53	134.65
375.74	65.02
375.951	58.88
376.161	58.88
376.372	65.02
376.582	15.87
376.793	75.26
377.003	83.45
377.214	42.5
377.424	79.36
377.635	71.17
377.845	134.65
378.055	126.46
378.266	75.26
378.476	108.03
378.686	179.71
378.897	13.82
379.107	128.51
379.317	69.12
379.528	-0.51
379.738	93.69
379.948	71.17
380.158	44.54
380.369	58.88
380.579	54.78
380.789	-6.66
380.999	81.41
381.21	101.89
381.42	77.31
381.63	-23.04
381.84	52.74
382.05	120.32
382.261	95.74
382.471	46.59
382.681	71.17
382.891	54.78
383.101	79.36
383.311	-6.66
383.521	42.5
383.731	122.37
383.941	56.83
384.151	22.02
384.361	58.88
384.571	54.78
384.781	120.32
384.991	48.64
385.201	69.12
385.411	99.84
385.621	58.88
385.831	42.5
386.041	81.41
386.251	73.21
386.461	60.93
386.671	67.07
386.881	3.58
387.091	75.26
387.301	97.79
387.511	-8.7
387.72	126.46
387.93	81.41
388.14	65.02
388.35	77.31
388.56	101.89
388.769	89.6
388.979	116.22
389.189	11.78
389.399	124.41
389.609	108.03
389.818	91.65
390.028	99.84
390.238	79.36
390.447	30.21
390.657	69.12
390.867	-2.56
391.076	24.06
391.286	105.98
391.496	79.36
391.705	15.87
391.915	50.69
392.125	75.26
392.334	112.13
392.544	112.13
392.753	95.74
392.963	38.4
393.172	60.93
393.382	60.93
393.591	81.41
393.801	122.37
394.01	200.19
394.22	17.92
394.429	103.93
394.639	75.26
394.848	79.36
395.058	132.61
395.267	142.85
395.477	103.93
395.686	183.81
395.895	124.41
396.105	62.98
396.314	79.36
396.524	136.7
396.733	19.97
396.942	132.61
397.152	75.26
397.361	91.65
397.57	54.78
397.78	153.09
397.989	81.41
398.198	181.76
398.407	79.36
398.617	58.88
398.826	179.71
399.035	50.69
399.244	140.8
399.453	151.04
399.663	189.95
399.872	157.18
400.081	159.23
400.29	122.37
400.499	148.99
400.708	146.94
400.917	99.84
401.127	120.32
401.336	103.93
401.545	173.57
401.754	114.17
401.963	116.22
402.172	153.09
402.381	77.31
402.59	105.98
402.799	163.33
403.008	114.17
403.217	126.46
403.426	97.79
403.635	89.6
403.844	95.74
404.053	142.85
404.262	196.09
404.471	177.66
404.68	142.85
404.888	116.22
405.097	136.7
405.306	181.76
405.515	146.94
405.724	194.05
405.933	151.04
406.142	257.53
406.35	177.66
406.559	177.66
406.768	165.37
406.977	173.57
407.185	243.2
407.394	235
407.603	185.85
407.812	220.67
408.02	263.68
408.229	224.76
408.438	255.48
408.646	255.48
408.855	222.72
409.064	282.11
409.272	275.96
409.481	364.03
409.69	347.64
409.898	286.2
410.107	341.5
410.315	396.79
410.524	374.27
410.733	415.23
410.941	325.12
411.15	306.68
411.358	398.84
411.567	460.28
411.775	378.36
411.984	353.79
412.192	462.33
412.401	429.56
412.609	452.09
412.818	468.47
413.026	468.47
413.234	431.61
413.443	484.86
413.651	613.88
413.86	622.07
414.068	601.59
414.276	617.97
414.485	531.96
414.693	669.17
414.901	720.37
415.11	671.22
415.318	665.08
415.526	749.04
415.734	849.4
415.943	853.49
416.151	898.55
416.359	843.25
416.567	787.96
416.776	923.12
416.984	994.8
417.192	1060.34
417.4	1058.29
417.608	998.9
417.817	1082.86
418.025	1017.33
418.233	1148.4
418.441	1160.69
418.649	1281.52
418.857	1336.81
419.065	1277.42
419.273	1392.11
419.481	1295.85
419.689	1435.11
419.897	1512.94
420.105	1541.61
420.313	1574.38
420.521	1650.15
420.729	1705.45
420.937	1744.36
421.145	1781.22
421.353	1752.55
421.561	1875.43
421.769	1910.24
421.977	2047.46
422.185	2016.74
422.393	2235.87
422.601	2225.63
422.809	2305.5
423.017	2356.7
423.224	2360.8
423.432	2549.21
423.64	2481.63
423.848	2878.93
424.056	2676.18
424.263	2794.97
424.471	2950.61
424.679	2897.36
424.887	3077.59
425.094	3196.37
425.302	3153.36
425.51	3276.24
425.718	3409.36
425.925	3476.94
426.133	3562.95
426.341	3790.28
426.548	3866.05
426.756	3954.12
426.964	3958.21
427.171	4287.93
427.379	4373.95
427.586	4513.21
427.794	4572.6
428.001	4877.75
428.209	4783.54
428.417	4847.03
428.624	5123.51
428.832	5348.78
429.039	5332.4
429.247	5455.28
429.454	5772.71
429.662	6202.79
429.869	5588.39
430.076	6188.45
430.284	5950.89
430.491	6247.84
430.699	6628.76
430.906	6596
431.114	6636.95
431.321	6958.49
431.528	6923.67
431.736	7568.78
431.943	7863.69
432.15	7509.39
432.358	7675.27
432.565	8197.51
432.772	8052.1
432.979	8717.69
433.187	8807.8
433.394	8758.65
433.601	9346.42
433.808	9416.05
434.016	9358.71
434.223	9678.19
434.43	10497.38
434.637	10177.89
434.844	10802.52
435.052	11005.27
435.259	10767.71
435.466	10876.25
435.673	10706.27
435.88	11564.37
436.087	12191.05
436.294	12342.6
436.501	11842.89
436.708	12141.89
436.915	12725.57
437.122	12999.99
437.329	13124.92
437.537	13579.57
437.743	13737.26
437.95	13464.88
438.157	14378.28
438.364	14787.87
438.571	14581.03
438.778	15002.91
438.985	16229.64
439.192	15514.9
439.399	16215.3
439.606	16014.6
439.813	16606.47
440.02	17896.69
440.227	17243.38
440.433	17057.02
440.64	17970.41
440.847	17732.85
441.054	17896.69
441.261	19530.97
441.467	18951.39
441.674	19592.41
441.881	20233.42
442.088	20184.27
442.294	20014.29
442.501	20456.65
442.708	20683.97
442.914	21849.27
443.121	22697.13
443.328	22205.61
443.534	23657.62
443.741	22901.92
443.948	22353.07
444.154	24376.46
444.361	24048.79
444.568	24167.57
444.774	24226.96
444.981	24697.99
445.187	25328.77
445.394	26252.4
445.6	26018.93
445.807	28574.8
446.013	27194.47
446.22	27524.19
446.426	28806.22
446.633	29447.23
446.839	29987.89
447.046	28902.47
447.252	30493.74
447.459	30608.43
447.665	30356.53
447.871	31706.14
448.078	32992.26
448.284	31452.19
448.491	32025.62
448.697	33537.02
448.903	34026.49
449.11	34114.55
449.316	33592.32
449.522	34010.11
449.728	34745.33
449.935	35285.99
450.141	35257.32
450.347	36105.18
450.553	35058.67
450.76	34923.5
450.966	36256.73
451.172	35900.38
451.378	36768.72
451.584	36197.34
451.791	36879.31
451.997	36651.98
452.203	37190.6
452.409	37045.19
452.615	37067.72
452.821	35429.35
453.027	35253.22
453.233	36744.14
453.44	35603.42
453.646	35939.29
453.852	36254.68
454.058	36660.18
454.264	35159.02
454.47	35750.88
454.676	34814.96
454.882	35924.96
455.088	32975.88
455.294	33674.24
455.5	33756.16
455.705	34022.39
455.911	32844.81
456.117	32261.14
456.323	31937.56
456.529	30104.63
456.735	31259.68
456.941	30071.86
457.147	29770.81
457.352	28922.95
457.558	28767.31
457.764	28499.02
457.97	27993.17
458.176	27348.06
458.381	27554.91
458.587	26367.09
458.793	26117.23
458.999	24704.14
459.204	26764.39
459.41	26025.07
459.616	24229.01
459.821	24224.91
460.027	23612.57
460.233	23391.39
460.438	22559.91
460.644	22469.8
460.85	21658.81
461.055	21435.58
461.261	21290.17
461.466	19594.45
461.672	18826.46
461.878	20460.74
462.083	18994.4
462.289	18758.88
462.494	18324.71
462.7	17657.07
462.905	17272.06
463.111	17931.5
463.316	17951.98
463.522	17452.28
463.727	17560.82
463.932	17589.49
464.138	17310.97
464.343	17227
464.549	16870.65
464.754	17433.85
464.959	17241.34
465.165	17423.61
465.37	16704.77
465.575	15838.48
465.781	16631.04
465.986	16770.3
466.191	16137.48
466.397	15852.81
466.602	15299.86
466.807	15781.14
467.012	15850.77
467.218	15897.87
467.423	15222.04
467.628	15758.61
