Data from USB4F104151__280__10-42-08-712.txt Node

Date: Wed Mar 12 10:42:08 EDT 2025
User: louis
Spectrometer: USB4F10415
Trigger mode: 4
Integration Time (sec): 3.000000E-2
Scans to average: 1
Electric dark correction enabled: true
Nonlinearity correction enabled: false
Boxcar width: 0
XAxis mode: Wavelengths
Number of Pixels in Spectrum: 3648
>>>>>Begin Spectral Data<<<<<
178.204	-72.7
178.424	-72.7
178.644	-72.7
178.864	-109.57
179.084	-136.19
179.304	-9.22
179.524	-1.02
179.744	25.6
179.964	66.56
180.184	-7.17
180.404	-1.02
180.624	7.17
180.844	-60.42
181.064	-41.98
181.283	44.03
181.503	-50.18
181.723	27.65
181.943	-76.8
182.163	37.89
182.383	58.37
182.602	76.8
182.822	56.32
183.042	60.42
183.262	25.6
183.482	-25.6
183.701	13.31
183.921	62.46
184.141	-7.17
184.361	37.89
184.58	23.55
184.8	-37.89
185.02	11.26
185.239	29.7
185.459	46.08
185.679	87.04
185.898	-17.41
186.118	113.66
186.338	-9.22
186.557	46.08
186.777	54.27
186.997	74.75
187.216	23.55
187.436	103.42
187.655	9.22
187.875	89.09
188.095	52.22
188.314	35.84
188.534	78.85
188.753	91.13
188.973	35.84
189.192	1.02
189.412	11.26
189.631	44.03
189.851	3.07
190.07	44.03
190.29	-11.26
190.509	48.13
190.729	1.02
190.948	115.71
191.168	111.61
191.387	68.61
191.607	19.46
191.826	41.98
192.045	76.8
192.265	31.74
192.484	35.84
192.704	103.42
192.923	-5.12
193.142	78.85
193.362	27.65
193.581	105.47
193.8	7.17
194.02	50.18
194.239	-19.46
194.458	27.65
194.678	52.22
194.897	64.51
195.116	-3.07
195.335	-35.84
195.555	-15.36
195.774	31.74
195.993	97.28
196.212	62.46
196.432	-31.74
196.651	-25.6
196.87	-7.17
197.089	76.8
197.308	3.07
197.528	48.13
197.747	39.94
197.966	-13.31
198.185	97.28
198.404	15.36
198.623	82.94
198.842	99.33
199.062	23.55
199.281	68.61
199.5	-7.17
199.719	13.31
199.938	15.36
200.157	87.04
200.376	119.81
200.595	52.22
200.814	11.26
201.033	-33.79
201.252	97.28
201.471	-33.79
201.69	-31.74
201.909	54.27
202.128	-72.7
202.347	84.99
202.566	-5.12
202.785	-105.47
203.004	-17.41
203.223	50.18
203.442	19.46
203.661	-37.89
203.879	7.17
204.098	84.99
204.317	11.26
204.536	70.65
204.755	21.5
204.974	48.13
205.193	31.74
205.411	103.42
205.63	52.22
205.849	56.32
206.068	39.94
206.287	39.94
206.505	68.61
206.724	37.89
206.943	-29.7
207.162	41.98
207.381	76.8
207.599	9.22
207.818	23.55
208.037	31.74
208.255	35.84
208.474	39.94
208.693	-35.84
208.911	99.33
209.13	48.13
209.349	78.85
209.567	29.7
209.786	74.75
210.005	29.7
210.223	11.26
210.442	95.23
210.661	31.74
210.879	52.22
211.098	23.55
211.316	52.22
211.535	41.98
211.753	44.03
211.972	64.51
212.191	64.51
212.409	23.55
212.628	164.86
212.846	25.6
213.065	35.84
213.283	113.66
213.502	5.12
213.72	44.03
213.938	-1.02
214.157	60.42
214.375	-5.12
214.594	-19.46
214.812	70.65
215.031	37.89
215.249	-17.41
215.467	39.94
215.686	52.22
215.904	74.75
216.122	64.51
216.341	50.18
216.559	46.08
216.778	29.7
216.996	29.7
217.214	31.74
217.432	21.5
217.651	93.18
217.869	64.51
218.087	37.89
218.306	62.46
218.524	76.8
218.742	3.07
218.96	-1.02
219.179	23.55
219.397	80.89
219.615	66.56
219.833	72.7
220.051	29.7
220.27	154.62
220.488	11.26
220.706	35.84
220.924	80.89
221.142	31.74
221.36	25.6
221.578	58.37
221.796	64.51
222.015	48.13
222.233	-21.5
222.451	99.33
222.669	23.55
222.887	9.22
223.105	-9.22
223.323	19.46
223.541	-23.55
223.759	72.7
223.977	27.65
224.195	125.95
224.413	76.8
224.631	35.84
224.849	44.03
225.067	48.13
225.285	35.84
225.503	31.74
225.721	56.32
225.939	125.95
226.157	39.94
226.375	105.47
226.592	15.36
226.81	46.08
227.028	76.8
227.246	15.36
227.464	11.26
227.682	3.07
227.9	7.17
228.117	-44.03
228.335	76.8
228.553	37.89
228.771	23.55
228.989	-9.22
229.206	9.22
229.424	13.31
229.642	-23.55
229.86	23.55
230.077	-3.07
230.295	15.36
230.513	44.03
230.731	72.7
230.948	111.61
231.166	54.27
231.384	54.27
231.601	-5.12
231.819	84.99
232.037	17.41
232.254	19.46
232.472	-1.02
232.689	-23.55
232.907	84.99
233.125	17.41
233.342	29.7
233.56	3.07
233.777	46.08
233.995	25.6
234.213	15.36
234.43	64.51
234.648	76.8
234.865	-13.31
235.083	19.46
235.3	-41.98
235.518	89.09
235.735	62.46
235.953	76.8
236.17	-41.98
236.388	64.51
236.605	19.46
236.822	107.52
237.04	60.42
237.257	23.55
237.475	15.36
237.692	119.81
237.909	56.32
238.127	80.89
238.344	37.89
238.562	46.08
238.779	-33.79
238.996	9.22
239.214	-17.41
239.431	-5.12
239.648	64.51
239.865	64.51
240.083	23.55
240.3	-7.17
240.517	-35.84
240.735	23.55
240.952	39.94
241.169	46.08
241.386	11.26
241.603	76.8
241.821	-52.22
242.038	27.65
242.255	84.99
242.472	-27.65
242.689	56.32
242.907	144.38
243.124	-23.55
243.341	80.89
243.558	-23.55
243.775	41.98
243.992	62.46
244.209	66.56
244.426	76.8
244.643	-11.26
244.86	-29.7
245.078	27.65
245.295	91.13
245.512	62.46
245.729	-21.5
245.946	23.55
246.163	52.22
246.38	7.17
246.597	70.65
246.814	78.85
247.031	46.08
247.248	21.5
247.464	78.85
247.681	-68.61
247.898	60.42
248.115	39.94
248.332	70.65
248.549	58.37
248.766	144.38
248.983	119.81
249.2	29.7
249.417	60.42
249.633	-11.26
249.85	60.42
250.067	-23.55
250.284	48.13
250.501	39.94
250.717	25.6
250.934	15.36
251.151	76.8
251.368	97.28
251.585	44.03
251.801	50.18
252.018	5.12
252.235	72.7
252.451	11.26
252.668	27.65
252.885	87.04
253.102	91.13
253.318	31.74
253.535	27.65
253.752	27.65
253.968	-17.41
254.185	5.12
254.401	9.22
254.618	-5.12
254.835	107.52
255.051	68.61
255.268	27.65
255.484	23.55
255.701	27.65
255.917	103.42
256.134	-87.04
256.351	-15.36
256.567	15.36
256.784	3.07
257	37.89
257.217	97.28
257.433	37.89
257.65	78.85
257.866	117.76
258.082	-5.12
258.299	7.17
258.515	64.51
258.732	3.07
258.948	-9.22
259.165	46.08
259.381	29.7
259.597	84.99
259.814	48.13
260.03	19.46
260.246	-1.02
260.463	60.42
260.679	58.37
260.895	76.8
261.112	76.8
261.328	27.65
261.544	70.65
261.761	150.53
261.977	15.36
262.193	17.41
262.409	60.42
262.626	27.65
262.842	48.13
263.058	-50.18
263.274	78.85
263.49	80.89
263.707	64.51
263.923	-44.03
264.139	72.7
264.355	111.61
264.571	91.13
264.787	50.18
265.004	13.31
265.22	80.89
265.436	58.37
265.652	11.26
265.868	13.31
266.084	-21.5
266.3	29.7
266.516	-54.27
266.732	-13.31
266.948	56.32
267.164	66.56
267.38	44.03
267.596	107.52
267.812	-13.31
268.028	35.84
268.244	44.03
268.46	19.46
268.676	25.6
268.892	72.7
269.108	-9.22
269.324	72.7
269.54	-23.55
269.756	72.7
269.972	72.7
270.188	-15.36
270.403	15.36
270.619	80.89
270.835	97.28
271.051	23.55
271.267	-27.65
271.483	44.03
271.698	-27.65
271.914	39.94
272.13	37.89
272.346	31.74
272.562	37.89
272.777	84.99
272.993	29.7
273.209	9.22
273.425	64.51
273.64	21.5
273.856	17.41
274.072	50.18
274.287	52.22
274.503	11.26
274.719	62.46
274.934	11.26
275.15	-27.65
275.366	21.5
275.581	107.52
275.797	84.99
276.012	39.94
276.228	-39.94
276.444	44.03
276.659	52.22
276.875	52.22
277.09	91.13
277.306	37.89
277.521	19.46
277.737	103.42
277.952	78.85
278.168	41.98
278.383	74.75
278.599	25.6
278.814	46.08
279.03	37.89
279.245	60.42
279.461	64.51
279.676	70.65
279.892	46.08
280.107	5.12
280.322	70.65
280.538	3.07
280.753	-35.84
280.969	46.08
281.184	60.42
281.399	121.85
281.615	17.41
281.83	23.55
282.045	23.55
282.26	52.22
282.476	-17.41
282.691	109.57
282.906	-1.02
283.122	33.79
283.337	39.94
283.552	105.47
283.767	-19.46
283.983	68.61
284.198	44.03
284.413	39.94
284.628	9.22
284.843	56.32
285.058	9.22
285.274	37.89
285.489	113.66
285.704	3.07
285.919	44.03
286.134	58.37
286.349	27.65
286.564	52.22
286.779	66.56
286.995	25.6
287.21	19.46
287.425	70.65
287.64	54.27
287.855	21.5
288.07	-17.41
288.285	50.18
288.5	15.36
288.715	97.28
288.93	-5.12
289.145	37.89
289.36	101.37
289.575	48.13
289.79	-58.37
290.004	29.7
290.219	74.75
290.434	62.46
290.649	21.5
290.864	64.51
291.079	33.79
291.294	80.89
291.509	21.5
291.724	-1.02
291.938	-39.94
292.153	41.98
292.368	-1.02
292.583	50.18
292.798	72.7
293.012	-31.74
293.227	62.46
293.442	33.79
293.657	29.7
293.871	-13.31
294.086	-9.22
294.301	70.65
294.516	76.8
294.73	64.51
294.945	29.7
295.16	60.42
295.374	107.52
295.589	64.51
295.804	-7.17
296.018	-23.55
296.233	48.13
296.447	19.46
296.662	11.26
296.877	107.52
297.091	23.55
297.306	60.42
297.52	37.89
297.735	121.85
297.949	60.42
298.164	44.03
298.378	31.74
298.593	31.74
298.807	-3.07
299.022	39.94
299.236	13.31
299.451	117.76
299.665	-9.22
299.88	72.7
300.094	46.08
300.309	58.37
300.523	27.65
300.737	1.02
300.952	70.65
301.166	93.18
301.381	3.07
301.595	39.94
301.809	23.55
302.024	130.05
302.238	-9.22
302.452	23.55
302.667	109.57
302.881	109.57
303.095	68.61
303.309	132.09
303.524	25.6
303.738	27.65
303.952	76.8
304.166	82.94
304.381	27.65
304.595	97.28
304.809	76.8
305.023	66.56
305.237	-29.7
305.452	78.85
305.666	-9.22
305.88	44.03
306.094	39.94
306.308	99.33
306.522	97.28
306.736	7.17
306.95	173.05
307.164	44.03
307.379	19.46
307.593	97.28
307.807	-17.41
308.021	89.09
308.235	89.09
308.449	64.51
308.663	52.22
308.877	82.94
309.091	84.99
309.305	84.99
309.519	3.07
309.733	52.22
309.947	46.08
310.161	31.74
310.374	31.74
310.588	101.37
310.802	23.55
311.016	13.31
311.23	27.65
311.444	54.27
311.658	-29.7
311.872	70.65
312.085	66.56
312.299	11.26
312.513	87.04
312.727	82.94
312.941	41.98
313.154	76.8
313.368	35.84
313.582	56.32
313.796	23.55
314.009	48.13
314.223	130.05
314.437	89.09
314.651	39.94
314.864	54.27
315.078	62.46
315.292	-35.84
315.505	15.36
315.719	72.7
315.933	60.42
316.146	58.37
316.36	-11.26
316.573	76.8
316.787	142.33
317.001	76.8
317.214	109.57
317.428	68.61
317.641	-11.26
317.855	82.94
318.068	72.7
318.282	60.42
318.495	62.46
318.709	78.85
318.922	48.13
319.136	21.5
319.349	76.8
319.563	50.18
319.776	23.55
319.99	-13.31
320.203	103.42
320.417	41.98
320.63	54.27
320.843	1.02
321.057	21.5
321.27	13.31
321.483	68.61
321.697	107.52
321.91	35.84
322.124	9.22
322.337	39.94
322.55	-33.79
322.763	91.13
322.977	17.41
323.19	15.36
323.403	68.61
323.617	-5.12
323.83	-27.65
324.043	19.46
324.256	78.85
324.469	17.41
324.683	89.09
324.896	19.46
325.109	58.37
325.322	1.02
325.535	144.38
325.748	52.22
325.962	68.61
326.175	52.22
326.388	27.65
326.601	64.51
326.814	84.99
327.027	56.32
327.24	121.85
327.453	9.22
327.666	48.13
327.879	84.99
328.092	60.42
328.305	-3.07
328.518	72.7
328.731	25.6
328.944	37.89
329.157	89.09
329.37	76.8
329.583	15.36
329.796	109.57
330.009	89.09
330.222	50.18
330.435	-9.22
330.648	27.65
330.861	35.84
331.073	52.22
331.286	89.09
331.499	60.42
331.712	89.09
331.925	52.22
332.138	11.26
332.35	37.89
332.563	-44.03
332.776	68.61
332.989	52.22
333.202	56.32
333.414	-13.31
333.627	68.61
333.84	19.46
334.053	1.02
334.265	-21.5
334.478	87.04
334.691	130.05
334.903	60.42
335.116	48.13
335.329	66.56
335.541	72.7
335.754	37.89
335.966	9.22
336.179	68.61
336.392	48.13
336.604	84.99
336.817	46.08
337.029	7.17
337.242	74.75
337.454	78.85
337.667	44.03
337.88	25.6
338.092	-11.26
338.305	35.84
338.517	21.5
338.729	64.51
338.942	95.23
339.154	17.41
339.367	-15.36
339.579	-29.7
339.792	-15.36
340.004	109.57
340.217	27.65
340.429	136.19
340.641	9.22
340.854	35.84
341.066	66.56
341.278	115.71
341.491	46.08
341.703	82.94
341.915	70.65
342.128	7.17
342.34	80.89
342.552	15.36
342.764	5.12
342.977	64.51
343.189	-46.08
343.401	48.13
343.613	-31.74
343.826	46.08
344.038	50.18
344.25	37.89
344.462	-1.02
344.674	23.55
344.886	58.37
345.099	87.04
345.311	89.09
345.523	62.46
345.735	52.22
345.947	78.85
346.159	23.55
346.371	70.65
346.583	52.22
346.795	185.34
347.007	7.17
347.219	48.13
347.431	89.09
347.643	60.42
347.855	31.74
348.067	97.28
348.279	31.74
348.491	27.65
348.703	1.02
348.915	-1.02
349.127	35.84
349.339	123.9
349.551	5.12
349.763	117.76
349.975	44.03
350.187	52.22
350.399	58.37
350.61	56.32
350.822	-23.55
351.034	74.75
351.246	109.57
351.458	50.18
351.669	111.61
351.881	72.7
352.093	111.61
352.305	35.84
352.517	105.47
352.728	78.85
352.94	64.51
353.152	17.41
353.363	-1.02
353.575	33.79
353.787	99.33
353.999	58.37
354.21	46.08
354.422	74.75
354.633	-11.26
354.845	41.98
355.057	70.65
355.268	97.28
355.48	64.51
355.692	48.13
355.903	7.17
356.115	82.94
356.326	27.65
356.538	109.57
356.749	-25.6
356.961	72.7
357.172	-9.22
357.384	-7.17
357.595	111.61
357.807	97.28
358.018	74.75
358.23	23.55
358.441	115.71
358.653	64.51
358.864	84.99
359.075	76.8
359.287	58.37
359.498	82.94
359.709	27.65
359.921	60.42
360.132	21.5
360.344	89.09
360.555	87.04
360.766	101.37
360.977	101.37
361.189	39.94
361.4	41.98
361.611	48.13
361.823	125.95
362.034	44.03
362.245	48.13
362.456	64.51
362.667	23.55
362.879	50.18
363.09	113.66
363.301	35.84
363.512	130.05
363.723	60.42
363.935	136.19
364.146	27.65
364.357	80.89
364.568	44.03
364.779	19.46
364.99	130.05
365.201	48.13
365.412	72.7
365.623	84.99
365.834	105.47
366.045	33.79
366.256	62.46
366.467	107.52
366.678	48.13
366.889	66.56
367.1	23.55
367.311	64.51
367.522	17.41
367.733	113.66
367.944	105.47
368.155	119.81
368.366	-3.07
368.577	115.71
368.788	76.8
368.999	-21.5
369.209	64.51
369.42	162.81
369.631	136.19
369.842	72.7
370.053	27.65
370.264	62.46
370.474	50.18
370.685	125.95
370.896	37.89
371.107	166.91
371.317	66.56
371.528	78.85
371.739	142.33
371.95	52.22
372.16	121.85
372.371	54.27
372.582	48.13
372.792	76.8
373.003	80.89
373.214	-7.17
373.424	64.51
373.635	39.94
373.846	84.99
374.056	105.47
374.267	11.26
374.477	60.42
374.688	52.22
374.898	46.08
375.109	44.03
375.319	72.7
375.53	46.08
375.74	89.09
375.951	21.5
376.161	60.42
376.372	89.09
376.582	97.28
376.793	64.51
377.003	125.95
377.214	60.42
377.424	72.7
377.635	21.5
377.845	68.61
378.055	15.36
378.266	-1.02
378.476	46.08
378.686	111.61
378.897	35.84
379.107	111.61
379.317	66.56
379.528	72.7
379.738	78.85
379.948	62.46
380.158	15.36
380.369	93.18
380.579	107.52
380.789	46.08
380.999	130.05
381.21	109.57
381.42	113.66
381.63	-31.74
381.84	41.98
382.05	105.47
382.261	54.27
382.471	97.28
382.681	60.42
382.891	103.42
383.101	119.81
383.311	52.22
383.521	48.13
383.731	138.24
383.941	64.51
384.151	105.47
384.361	78.85
384.571	113.66
384.781	95.23
384.991	89.09
385.201	130.05
385.411	103.42
385.621	60.42
385.831	125.95
386.041	84.99
386.251	35.84
386.461	99.33
386.671	78.85
386.881	64.51
387.091	162.81
387.301	125.95
387.511	27.65
387.72	97.28
387.93	64.51
388.14	58.37
388.35	31.74
388.56	113.66
388.769	97.28
388.979	58.37
389.189	70.65
389.399	138.24
389.609	113.66
389.818	31.74
390.028	115.71
390.238	80.89
390.447	5.12
390.657	84.99
390.867	76.8
391.076	48.13
391.286	78.85
391.496	33.79
391.705	107.52
391.915	121.85
392.125	158.72
392.334	33.79
392.544	111.61
392.753	31.74
392.963	56.32
393.172	54.27
393.382	60.42
393.591	29.7
393.801	80.89
394.01	117.76
394.22	101.37
394.429	117.76
394.639	150.53
394.848	101.37
395.058	136.19
395.267	76.8
395.477	76.8
395.686	144.38
395.895	144.38
396.105	154.62
396.314	136.19
396.524	84.99
396.733	119.81
396.942	115.71
397.152	160.77
397.361	140.29
397.57	146.43
397.78	117.76
397.989	134.14
398.198	138.24
398.407	105.47
398.617	121.85
398.826	130.05
399.035	142.33
399.244	99.33
399.453	158.72
399.663	121.85
399.872	128
400.081	187.39
400.29	232.44
400.499	64.51
400.708	146.43
400.917	158.72
401.127	121.85
401.336	109.57
401.545	222.2
401.754	162.81
401.963	166.91
402.172	109.57
402.381	195.58
402.59	121.85
402.799	72.7
403.008	125.95
403.217	138.24
403.426	199.68
403.635	144.38
403.844	138.24
404.053	181.25
404.262	164.86
404.471	269.31
404.68	216.06
404.888	222.2
405.097	201.72
405.306	175.1
405.515	150.53
405.724	156.67
405.933	250.88
406.142	195.58
406.35	248.83
406.559	177.15
406.768	218.11
406.977	205.82
407.185	244.73
407.394	257.02
407.603	250.88
407.812	277.5
408.02	234.49
408.229	191.49
408.438	238.59
408.646	216.06
408.855	308.22
409.064	312.32
409.272	279.55
409.481	316.41
409.69	320.51
409.898	246.78
410.107	367.61
410.315	400.38
410.524	420.86
410.733	472.06
410.941	361.47
411.15	449.53
411.358	422.91
411.567	576.5
411.775	467.96
411.984	492.54
412.192	498.68
412.401	484.34
412.609	601.08
412.818	590.84
413.026	648.18
413.234	596.98
413.443	717.81
413.651	689.14
413.86	660.47
414.068	744.44
414.276	760.82
414.485	793.59
414.693	715.77
414.901	801.78
415.11	875.51
415.318	871.41
415.526	838.64
415.734	963.57
415.943	959.47
416.151	984.05
416.359	1035.25
416.567	1035.25
416.776	1090.54
416.984	1104.88
417.192	1147.89
417.4	1178.61
417.608	1242.09
417.817	1203.18
418.025	1299.44
418.233	1418.22
418.441	1395.69
418.649	1403.88
418.857	1539.05
419.065	1592.3
419.273	1463.27
419.481	1584.1
419.689	1778.66
419.897	1780.71
420.105	1760.23
420.313	1829.86
420.521	1958.88
420.729	2059.23
420.937	1991.65
421.145	2135.01
421.353	2153.44
421.561	2348
421.769	2368.48
421.977	2489.31
422.185	2466.78
422.393	2647
422.601	2845.65
422.809	2759.64
423.017	2755.54
423.224	2816.98
423.432	3003.35
423.64	3066.83
423.848	3271.63
424.056	3122.13
424.263	3421.13
424.471	3494.86
424.679	3580.87
424.887	3828.68
425.094	3861.45
425.302	3724.23
425.51	3847.11
425.718	4041.67
425.925	4185.02
426.133	4271.04
426.341	4504.51
426.548	4711.35
426.756	4744.12
426.964	4660.15
427.171	5024.69
427.379	5340.08
427.586	5311.41
427.794	5481.39
428.001	5561.26
428.209	5909.41
428.417	5794.73
428.624	6364.06
428.832	6386.59
429.039	6128.55
429.247	6421.41
429.454	6773.66
429.662	7283.6
429.869	6808.47
430.076	7324.56
430.284	7054.23
430.491	7478.16
430.699	7715.72
430.906	7764.87
431.114	8024.97
431.321	8180.61
431.528	8469.37
431.736	8817.53
431.943	9233.27
432.15	9018.23
432.358	9075.57
432.565	9689.96
432.772	9694.06
432.979	9810.79
433.187	10386.27
433.394	10441.57
433.601	11139.93
433.808	11098.97
434.016	10867.55
434.223	11436.88
434.43	12211.01
434.637	11983.69
434.844	12653.37
435.052	12985.15
435.259	13009.72
435.466	12968.76
435.673	12843.84
435.88	13824.81
436.087	14570.27
436.294	14463.78
436.501	14023.47
436.708	14218.02
436.915	14881.56
437.122	15721.23
437.329	15315.73
437.537	15854.35
437.743	16392.97
437.95	16227.08
438.157	17171.19
438.364	17459.96
438.571	17335.03
438.778	17679.09
438.985	19241.69
439.192	18596.58
439.399	19116.76
439.606	18832.1
439.813	19618.52
440.02	20937.41
440.227	20366.03
440.433	20130.51
440.64	20861.63
440.847	20505.29
441.054	21414.59
441.261	22653.61
441.467	22471.34
441.674	23114.4
441.881	23812.76
442.088	23814.8
442.294	23483.03
442.501	24337.04
442.708	24771.21
442.914	25727.61
443.121	26628.71
443.328	26194.54
443.534	27648.6
443.741	26952.29
443.948	26292.85
444.154	29002.31
444.361	28592.72
444.568	28803.66
444.774	28707.4
444.981	28748.36
445.187	29686.33
445.394	31492.64
445.6	30753.32
445.807	33538.56
446.013	31998.49
446.22	32696.85
446.426	34214.39
446.633	34111.99
446.839	35260.9
447.046	34009.59
447.252	35852.76
447.459	35930.59
447.665	35258.85
447.871	36995.53
448.078	38345.14
448.284	36610.51
448.491	37706.18
448.697	39537.06
448.903	39772.58
449.11	39879.07
449.316	39035.31
449.522	40026.53
449.728	40837.52
449.935	41281.93
450.141	40794.51
450.347	41757.06
450.553	40602
450.76	40909.2
450.966	42256.76
451.172	42324.35
451.378	43065.71
451.584	42193.28
451.791	42889.59
451.997	42783.09
452.203	43280.75
452.409	43843.94
452.615	43311.47
452.821	41681.28
453.027	40749.46
453.233	43405.67
453.44	41470.34
453.646	41757.06
453.852	42273.15
454.058	42819.95
454.264	40860.05
454.47	42058.11
454.676	40911.25
454.882	42279.29
455.088	38717.87
455.294	39254.44
455.5	39397.8
455.705	40145.31
455.911	38551.99
456.117	37784
456.323	37181.9
456.529	34955.75
456.735	36751.82
456.941	35914.2
457.147	35146.22
457.352	34046.46
457.558	33280.52
457.764	33464.83
457.97	32840.2
458.176	32272.92
458.381	32455.18
458.587	30759.47
458.793	30284.34
458.999	29162.05
459.204	31210.02
459.41	30229.04
459.616	28492.37
459.821	28213.84
460.027	28136.02
460.233	27558.49
460.438	26161.78
460.644	27007.59
460.85	25338.49
461.055	25197.18
461.261	25105.02
461.466	23200.41
461.672	22342.32
461.878	23886.48
462.083	22203.05
462.289	22020.78
462.494	21643.96
462.7	21156.54
462.905	20257.48
463.111	20961.98
463.316	21019.33
463.522	20511.43
463.727	20656.84
463.932	20949.7
464.138	20472.52
464.343	20474.57
464.549	20058.83
464.754	20648.64
464.959	20546.25
465.165	20255.43
465.37	19593.94
465.575	19178.2
465.781	19575.51
465.986	20099.79
466.191	19409.62
466.397	18864.86
466.602	18027.24
466.807	18725.6
467.012	18946.78
