Data from USB4F104151__173__10-27-35-418.txt Node

Date: Wed Mar 12 10:27:35 EDT 2025
User: louis
Spectrometer: USB4F10415
Trigger mode: 4
Integration Time (sec): 3.000000E-2
Scans to average: 1
Electric dark correction enabled: true
Nonlinearity correction enabled: false
Boxcar width: 0
XAxis mode: Wavelengths
Number of Pixels in Spectrum: 3648
>>>>>Begin Spectral Data<<<<<
178.204	-112.81
178.424	-112.81
178.644	-112.81
178.864	-143.53
179.084	-112.81
179.304	12.12
179.524	40.79
179.744	-37.03
179.964	30.55
180.184	-39.08
180.404	-43.18
180.624	14.17
180.844	-69.8
181.064	-22.7
181.283	16.21
181.503	24.4
181.723	73.56
181.943	-24.75
182.163	24.4
182.383	12.12
182.602	14.17
182.822	42.84
183.042	-4.27
183.262	-2.22
183.482	18.26
183.701	53.08
183.921	-16.55
184.141	57.17
184.361	12.12
184.58	26.45
184.8	-18.6
185.02	34.64
185.239	-8.36
185.459	20.31
185.679	69.46
185.898	51.03
186.118	98.13
186.338	26.45
186.557	75.6
186.777	3.93
186.997	32.6
187.216	-16.55
187.436	-10.41
187.655	18.26
187.875	59.22
188.095	-4.27
188.314	83.8
188.534	100.18
188.753	28.5
188.973	59.22
189.192	110.42
189.412	12.12
189.631	32.6
189.851	61.27
190.07	36.69
190.29	16.21
190.509	28.5
190.729	8.02
190.948	65.36
191.168	151.38
191.387	36.69
191.607	-28.84
191.826	26.45
192.045	22.36
192.265	-6.31
192.484	18.26
192.704	59.22
192.923	-28.84
193.142	79.7
193.362	59.22
193.581	36.69
193.8	44.88
194.02	8.02
194.239	28.5
194.458	69.46
194.678	3.93
194.897	28.5
195.116	48.98
195.335	36.69
195.555	83.8
195.774	51.03
195.993	12.12
196.212	-32.94
196.432	16.21
196.651	24.4
196.87	-28.84
197.089	139.09
197.308	16.21
197.528	10.07
197.747	40.79
197.966	-26.79
198.185	108.37
198.404	-12.46
198.623	-45.23
198.842	71.51
199.062	59.22
199.281	89.94
199.5	75.6
199.719	1.88
199.938	65.36
200.157	48.98
200.376	32.6
200.595	36.69
200.814	16.21
201.033	34.64
201.252	73.56
201.471	40.79
201.69	-0.17
201.909	61.27
202.128	22.36
202.347	81.75
202.566	44.88
202.785	34.64
203.004	-28.84
203.223	130.9
203.442	34.64
203.661	24.4
203.879	5.97
204.098	1.88
204.317	40.79
204.536	112.47
204.755	51.03
204.974	26.45
205.193	26.45
205.411	110.42
205.63	32.6
205.849	51.03
206.068	63.32
206.287	89.94
206.505	75.6
206.724	59.22
206.943	-2.22
207.162	46.93
207.381	108.37
207.599	75.6
207.818	53.08
208.037	28.5
208.255	32.6
208.474	57.17
208.693	-4.27
208.911	-26.79
209.13	48.98
209.349	48.98
209.567	106.32
209.786	51.03
210.005	36.69
210.223	44.88
210.442	20.31
210.661	67.41
210.879	67.41
211.098	65.36
211.316	61.27
211.535	22.36
211.753	-30.89
211.972	20.31
212.191	32.6
212.409	-6.31
212.628	-10.41
212.846	-12.46
213.065	81.75
213.283	98.13
213.502	14.17
213.72	-37.03
213.938	32.6
214.157	57.17
214.375	-26.79
214.594	32.6
214.812	51.03
215.031	46.93
215.249	57.17
215.467	-28.84
215.686	30.55
215.904	85.84
216.122	-30.89
216.341	16.21
216.559	16.21
216.778	-8.36
216.996	81.75
217.214	3.93
217.432	20.31
217.651	42.84
217.869	5.97
218.087	30.55
218.306	32.6
218.524	-12.46
218.742	-22.7
218.96	-0.17
219.179	38.74
219.397	14.17
219.615	79.7
219.833	-4.27
220.051	32.6
220.27	91.99
220.488	12.12
220.706	26.45
220.924	69.46
221.142	55.12
221.36	20.31
221.578	30.55
221.796	75.6
222.015	77.65
222.233	59.22
222.451	51.03
222.669	22.36
222.887	26.45
223.105	-20.65
223.323	75.6
223.541	71.51
223.759	12.12
223.977	10.07
224.195	10.07
224.413	18.26
224.631	51.03
224.849	61.27
225.067	26.45
225.285	-43.18
225.503	-4.27
225.721	-73.9
225.939	20.31
226.157	-0.17
226.375	85.84
226.592	16.21
226.81	-2.22
227.028	36.69
227.246	-4.27
227.464	30.55
227.682	118.61
227.9	-12.46
228.117	51.03
228.335	75.6
228.553	51.03
228.771	102.23
228.989	67.41
229.206	18.26
229.424	61.27
229.642	22.36
229.86	36.69
230.077	36.69
230.295	51.03
230.513	87.89
230.731	53.08
230.948	135
231.166	16.21
231.384	22.36
231.601	81.75
231.819	63.32
232.037	38.74
232.254	-61.61
232.472	12.12
232.689	34.64
232.907	149.33
233.125	30.55
233.342	-10.41
233.56	-12.46
233.777	-37.03
233.995	34.64
234.213	96.08
234.43	65.36
234.648	-88.23
234.865	34.64
235.083	65.36
235.3	53.08
235.518	8.02
235.735	106.32
235.953	18.26
236.17	5.97
236.388	51.03
236.605	22.36
236.822	42.84
237.04	57.17
237.257	-14.51
237.475	-12.46
237.692	-30.89
237.909	53.08
238.127	24.4
238.344	24.4
238.562	85.84
238.779	-37.03
238.996	-45.23
239.214	-4.27
239.431	16.21
239.648	53.08
239.865	65.36
240.083	55.12
240.3	10.07
240.517	1.88
240.735	73.56
240.952	75.6
241.169	106.32
241.386	32.6
241.603	51.03
241.821	28.5
242.038	12.12
242.255	-16.55
242.472	81.75
242.689	61.27
242.907	48.98
243.124	8.02
243.341	14.17
243.558	-26.79
243.775	8.02
243.992	1.88
244.209	-32.94
244.426	61.27
244.643	24.4
244.86	73.56
245.078	71.51
245.295	24.4
245.512	46.93
245.729	-16.55
245.946	-2.22
246.163	63.32
246.38	28.5
246.597	48.98
246.814	53.08
247.031	12.12
247.248	53.08
247.464	114.52
247.681	83.8
247.898	69.46
248.115	77.65
248.332	34.64
248.549	22.36
248.766	36.69
248.983	89.94
249.2	5.97
249.417	16.21
249.633	36.69
249.85	-16.55
250.067	42.84
250.284	38.74
250.501	59.22
250.717	16.21
250.934	28.5
251.151	-8.36
251.368	65.36
251.585	32.6
251.801	42.84
252.018	20.31
252.235	44.88
252.451	-20.65
252.668	100.18
252.885	24.4
253.102	48.98
253.318	110.42
253.535	8.02
253.752	-14.51
253.968	69.46
254.185	-0.17
254.401	-20.65
254.618	18.26
254.835	12.12
255.051	85.84
255.268	89.94
255.484	36.69
255.701	14.17
255.917	-4.27
256.134	53.08
256.351	53.08
256.567	-8.36
256.784	77.65
257	-57.51
257.217	38.74
257.433	-12.46
257.65	-6.31
257.866	20.31
258.082	65.36
258.299	48.98
258.515	42.84
258.732	59.22
258.948	46.93
259.165	8.02
259.381	-18.6
259.597	3.93
259.814	-16.55
260.03	32.6
260.246	42.84
260.463	16.21
260.679	83.8
260.895	63.32
261.112	67.41
261.328	18.26
261.544	85.84
261.761	83.8
261.977	-12.46
262.193	12.12
262.409	65.36
262.626	-16.55
262.842	32.6
263.058	3.93
263.274	71.51
263.49	-8.36
263.707	57.17
263.923	-32.94
264.139	-51.37
264.355	67.41
264.571	24.4
264.787	20.31
265.004	3.93
265.22	65.36
265.436	65.36
265.652	114.52
265.868	20.31
266.084	20.31
266.3	20.31
266.516	-47.27
266.732	8.02
266.948	40.79
267.164	48.98
267.38	-0.17
267.596	51.03
267.812	16.21
268.028	38.74
268.244	20.31
268.46	44.88
268.676	53.08
268.892	36.69
269.108	42.84
269.324	5.97
269.54	40.79
269.756	69.46
269.972	12.12
270.188	42.84
270.403	42.84
270.619	46.93
270.835	53.08
271.051	-6.31
271.267	36.69
271.483	34.64
271.698	26.45
271.914	34.64
272.13	5.97
272.346	8.02
272.562	48.98
272.777	61.27
272.993	87.89
273.209	106.32
273.425	63.32
273.64	-55.47
273.856	30.55
274.072	36.69
274.287	44.88
274.503	100.18
274.719	18.26
274.934	-22.7
275.15	40.79
275.366	83.8
275.581	26.45
275.797	12.12
276.012	38.74
276.228	87.89
276.444	5.97
276.659	96.08
276.875	67.41
277.09	-2.22
277.306	63.32
277.521	-2.22
277.737	-0.17
277.952	32.6
278.168	34.64
278.383	40.79
278.599	20.31
278.814	61.27
279.03	57.17
279.245	34.64
279.461	-14.51
279.676	59.22
279.892	-0.17
280.107	-41.13
280.322	-26.79
280.538	63.32
280.753	-20.65
280.969	-20.65
281.184	53.08
281.399	55.12
281.615	-55.47
281.83	26.45
282.045	-71.85
282.26	77.65
282.476	26.45
282.691	59.22
282.906	96.08
283.122	24.4
283.337	3.93
283.552	24.4
283.767	122.71
283.983	73.56
284.198	-22.7
284.413	8.02
284.628	-14.51
284.843	-4.27
285.058	53.08
285.274	18.26
285.489	-65.71
285.704	55.12
285.919	16.21
286.134	75.6
286.349	18.26
286.564	-45.23
286.779	69.46
286.995	63.32
287.21	-41.13
287.425	57.17
287.64	-14.51
287.855	3.93
288.07	-24.75
288.285	73.56
288.5	46.93
288.715	122.71
288.93	-4.27
289.145	-4.27
289.36	87.89
289.575	61.27
289.79	139.09
290.004	32.6
290.219	81.75
290.434	51.03
290.649	67.41
290.864	-8.36
291.079	18.26
291.294	18.26
291.509	12.12
291.724	77.65
291.938	24.4
292.153	10.07
292.368	40.79
292.583	77.65
292.798	46.93
293.012	61.27
293.227	24.4
293.442	-8.36
293.657	18.26
293.871	110.42
294.086	77.65
294.301	98.13
294.516	94.04
294.73	83.8
294.945	-0.17
295.16	22.36
295.374	14.17
295.589	16.21
295.804	10.07
296.018	83.8
296.233	77.65
296.447	14.17
296.662	16.21
296.877	-41.13
297.091	85.84
297.306	22.36
297.52	24.4
297.735	10.07
297.949	59.22
298.164	65.36
298.378	10.07
298.593	28.5
298.807	34.64
299.022	71.51
299.236	46.93
299.451	30.55
299.665	5.97
299.88	69.46
300.094	42.84
300.309	-16.55
300.523	14.17
300.737	77.65
300.952	42.84
301.166	69.46
301.381	-28.84
301.595	69.46
301.809	-47.27
302.024	-8.36
302.238	24.4
302.452	69.46
302.667	69.46
302.881	32.6
303.095	85.84
303.309	5.97
303.524	10.07
303.738	1.88
303.952	67.41
304.166	57.17
304.381	-6.31
304.595	104.28
304.809	75.6
305.023	57.17
305.237	-53.42
305.452	22.36
305.666	1.88
305.88	57.17
306.094	20.31
306.308	40.79
306.522	26.45
306.736	100.18
306.95	46.93
307.164	26.45
307.379	-16.55
307.593	137.04
307.807	69.46
308.021	53.08
308.235	44.88
308.449	18.26
308.663	-30.89
308.877	42.84
309.091	51.03
309.305	-0.17
309.519	-28.84
309.733	126.8
309.947	61.27
310.161	102.23
310.374	-34.99
310.588	122.71
310.802	-57.51
311.016	32.6
311.23	12.12
311.444	3.93
311.658	71.51
311.872	77.65
312.085	22.36
312.299	42.84
312.513	110.42
312.727	16.21
312.941	-45.23
313.154	135
313.368	-6.31
313.582	34.64
313.796	-0.17
314.009	65.36
314.223	40.79
314.437	10.07
314.651	83.8
314.864	38.74
315.078	10.07
315.292	48.98
315.505	-22.7
315.719	81.75
315.933	8.02
316.146	51.03
316.36	-10.41
316.573	-12.46
316.787	40.79
317.001	55.12
317.214	22.36
317.428	-0.17
317.641	61.27
317.855	-41.13
318.068	40.79
318.282	57.17
318.495	3.93
318.709	10.07
318.922	3.93
319.136	73.56
319.349	36.69
319.563	1.88
319.776	65.36
319.99	-77.99
320.203	36.69
320.417	69.46
320.63	-2.22
320.843	87.89
321.057	44.88
321.27	-43.18
321.483	73.56
321.697	85.84
321.91	1.88
322.124	18.26
322.337	67.41
322.55	30.55
322.763	65.36
322.977	63.32
323.19	69.46
323.403	24.4
323.617	20.31
323.83	40.79
324.043	67.41
324.256	-0.17
324.469	44.88
324.683	42.84
324.896	20.31
325.109	65.36
325.322	20.31
325.535	102.23
325.748	26.45
325.962	34.64
326.175	36.69
326.388	5.97
326.601	20.31
326.814	-0.17
327.027	102.23
327.24	89.94
327.453	-10.41
327.666	30.55
327.879	85.84
328.092	48.98
328.305	73.56
328.518	-0.17
328.731	26.45
328.944	51.03
329.157	16.21
329.37	22.36
329.583	91.99
329.796	55.12
330.009	14.17
330.222	124.76
330.435	65.36
330.648	118.61
330.861	73.56
331.073	36.69
331.286	63.32
331.499	5.97
331.712	34.64
331.925	12.12
332.138	10.07
332.35	40.79
332.563	40.79
332.776	77.65
332.989	63.32
333.202	94.04
333.414	20.31
333.627	42.84
333.84	-8.36
334.053	55.12
334.265	53.08
334.478	14.17
334.691	44.88
334.903	67.41
335.116	-0.17
335.329	67.41
335.541	79.7
335.754	24.4
335.966	44.88
336.179	32.6
336.392	53.08
336.604	91.99
336.817	61.27
337.029	63.32
337.242	83.8
337.454	69.46
337.667	-20.65
337.88	40.79
338.092	61.27
338.305	32.6
338.517	-14.51
338.729	44.88
338.942	67.41
339.154	8.02
339.367	1.88
339.579	81.75
339.792	5.97
340.004	42.84
340.217	108.37
340.429	5.97
340.641	85.84
340.854	71.51
341.066	100.18
341.278	24.4
341.491	36.69
341.703	116.56
341.915	-6.31
342.128	14.17
342.34	59.22
342.552	10.07
342.764	53.08
342.977	46.93
343.189	22.36
343.401	53.08
343.613	-4.27
343.826	57.17
344.038	-30.89
344.25	114.52
344.462	24.4
344.674	169.81
344.886	-12.46
345.099	22.36
345.311	53.08
345.523	40.79
345.735	67.41
345.947	100.18
346.159	36.69
346.371	-4.27
346.583	-4.27
346.795	61.27
347.007	94.04
347.219	14.17
347.431	71.51
347.643	32.6
347.855	-32.94
348.067	85.84
348.279	-0.17
348.491	10.07
348.703	16.21
348.915	32.6
349.127	79.7
349.339	-24.75
349.551	106.32
349.763	94.04
349.975	61.27
350.187	-2.22
350.399	79.7
350.61	53.08
350.822	34.64
351.034	16.21
351.246	65.36
351.458	83.8
351.669	20.31
351.881	91.99
352.093	34.64
352.305	137.04
352.517	79.7
352.728	69.46
352.94	118.61
353.152	8.02
353.363	14.17
353.575	38.74
353.787	57.17
353.999	32.6
354.21	28.5
354.422	12.12
354.633	26.45
354.845	12.12
355.057	85.84
355.268	151.38
355.48	59.22
355.692	-80.04
355.903	34.64
356.115	59.22
356.326	5.97
356.538	30.55
356.749	-20.65
356.961	157.52
357.172	-4.27
357.384	22.36
357.595	75.6
357.807	5.97
358.018	91.99
358.23	75.6
358.441	94.04
358.653	59.22
358.864	53.08
359.075	-6.31
359.287	59.22
359.498	114.52
359.709	71.51
359.921	28.5
360.132	147.28
360.344	61.27
360.555	24.4
360.766	53.08
360.977	44.88
361.189	51.03
361.4	30.55
361.611	114.52
361.823	118.61
362.034	61.27
362.245	40.79
362.456	63.32
362.667	-8.36
362.879	26.45
363.09	69.46
363.301	67.41
363.512	73.56
363.723	63.32
363.935	34.64
364.146	36.69
364.357	46.93
364.568	61.27
364.779	-6.31
364.99	91.99
365.201	20.31
365.412	85.84
365.623	59.22
365.834	14.17
366.045	51.03
366.256	73.56
366.467	59.22
366.678	61.27
366.889	61.27
367.1	108.37
367.311	135
367.522	34.64
367.733	77.65
367.944	81.75
368.155	110.42
368.366	106.32
368.577	24.4
368.788	100.18
368.999	73.56
369.209	42.84
369.42	40.79
369.631	112.47
369.842	147.28
370.053	53.08
370.264	77.65
370.474	38.74
370.685	28.5
370.896	83.8
371.107	85.84
371.317	48.98
371.528	1.88
371.739	85.84
371.95	81.75
372.16	34.64
372.371	14.17
372.582	-8.36
372.792	71.51
373.003	77.65
373.214	34.64
373.424	139.09
373.635	32.6
373.846	16.21
374.056	28.5
374.267	28.5
374.477	28.5
374.688	124.76
374.898	85.84
375.109	-55.47
375.319	61.27
375.53	143.19
375.74	57.17
375.951	51.03
376.161	77.65
376.372	79.7
376.582	79.7
376.793	75.6
377.003	102.23
377.214	20.31
377.424	30.55
377.635	57.17
377.845	55.12
378.055	57.17
378.266	24.4
378.476	53.08
378.686	85.84
378.897	-4.27
379.107	34.64
379.317	55.12
379.528	69.46
379.738	71.51
379.948	61.27
380.158	139.09
380.369	85.84
380.579	151.38
380.789	46.93
380.999	89.94
381.21	10.07
381.42	96.08
381.63	16.21
381.84	-12.46
382.05	10.07
382.261	32.6
382.471	126.8
382.681	1.88
382.891	38.74
383.101	57.17
383.311	-8.36
383.521	34.64
383.731	42.84
383.941	114.52
384.151	155.47
384.361	36.69
384.571	81.75
384.781	46.93
384.991	102.23
385.201	65.36
385.411	71.51
385.621	36.69
385.831	42.84
386.041	108.37
386.251	57.17
386.461	114.52
386.671	59.22
386.881	85.84
387.091	-6.31
387.301	100.18
387.511	149.33
387.72	85.84
387.93	89.94
388.14	118.61
388.35	67.41
388.56	53.08
388.769	1.88
388.979	28.5
389.189	24.4
389.399	147.28
389.609	59.22
389.818	30.55
390.028	83.8
390.238	118.61
390.447	77.65
390.657	57.17
390.867	83.8
391.076	79.7
391.286	85.84
391.496	53.08
391.705	24.4
391.915	137.04
392.125	79.7
392.334	112.47
392.544	71.51
392.753	104.28
392.963	67.41
393.172	3.93
393.382	94.04
393.591	87.89
393.801	67.41
394.01	147.28
394.22	110.42
394.429	87.89
394.639	20.31
394.848	175.95
395.058	87.89
395.267	36.69
395.477	63.32
395.686	104.28
395.895	94.04
396.105	132.95
396.314	106.32
396.524	69.46
396.733	75.6
396.942	151.38
397.152	96.08
397.361	157.52
397.57	91.99
397.78	69.46
397.989	143.19
398.198	173.91
398.407	77.65
398.617	159.57
398.826	61.27
399.035	132.95
399.244	130.9
399.453	112.47
399.663	51.03
399.872	141.14
400.081	83.8
400.29	184.15
400.499	91.99
400.708	145.24
400.917	106.32
401.127	100.18
401.336	153.43
401.545	143.19
401.754	73.56
401.963	163.67
402.172	186.19
402.381	139.09
402.59	192.34
402.799	114.52
403.008	159.57
403.217	122.71
403.426	104.28
403.635	91.99
403.844	87.89
404.053	73.56
404.262	161.62
404.471	165.71
404.68	178
404.888	132.95
405.097	149.33
405.306	175.95
405.515	163.67
405.724	184.15
405.933	204.63
406.142	186.19
406.35	225.11
406.559	200.53
406.768	212.82
406.977	227.15
407.185	223.06
407.394	288.59
407.603	106.32
407.812	255.83
408.02	253.78
408.229	221.01
408.438	202.58
408.646	227.15
408.855	214.87
409.064	311.12
409.272	264.02
409.481	319.31
409.69	325.46
409.898	255.83
410.107	364.37
410.315	368.46
410.524	352.08
410.733	339.79
410.941	388.94
411.15	341.84
411.358	460.62
411.567	446.29
411.775	487.25
411.984	485.2
412.192	442.19
412.401	448.33
412.609	462.67
412.818	591.69
413.026	540.49
413.234	536.4
413.443	522.06
413.651	565.07
413.86	644.94
414.068	655.18
414.276	776.01
414.485	663.37
414.693	689.99
414.901	628.56
415.11	784.2
415.318	741.19
415.526	837.45
415.734	812.87
415.943	829.26
416.151	864.07
416.359	876.36
416.567	917.32
416.776	941.89
416.984	1001.29
417.192	1034.05
417.4	1015.62
417.608	1040.2
417.817	1115.97
418.025	1124.16
418.233	1306.43
418.441	1206.08
418.649	1265.47
418.857	1449.79
419.065	1386.3
419.273	1371.97
419.481	1513.28
419.689	1470.27
419.897	1613.63
420.105	1580.86
420.313	1617.72
420.521	1789.75
420.729	1652.54
420.937	1818.43
421.145	1851.19
421.353	1963.83
421.561	2142
421.769	2142
421.977	2230.07
422.185	2223.92
422.393	2207.54
422.601	2463.54
422.809	2424.62
423.017	2451.25
423.224	2522.93
423.432	2516.78
423.64	2834.22
423.848	2897.71
424.056	2776.87
424.263	3174.18
424.471	2993.96
424.679	3084.07
424.887	3264.29
425.094	3309.35
425.302	3358.5
425.51	3520.29
425.718	3661.6
425.925	3671.84
426.133	3860.25
426.341	4169.49
426.548	4163.35
426.756	4163.35
426.964	4271.89
427.171	4501.26
427.379	4542.22
427.586	4671.25
427.794	4929.29
428.001	5060.36
428.209	5342.98
428.417	5041.93
428.624	5519.11
428.832	5357.32
429.039	5492.48
429.247	5580.54
429.454	6100.73
429.662	6276.85
429.869	6266.61
430.076	6459.12
430.284	6123.26
430.491	6475.51
430.699	6881
430.906	6975.21
431.114	6973.16
431.321	7292.65
431.528	7444.2
431.736	7698.14
431.943	8257.24
432.15	7995.1
432.358	8081.11
432.565	8435.41
432.772	8408.79
432.979	8802
433.187	8971.98
433.394	9080.52
433.601	9647.81
433.808	9615.04
434.016	9592.51
434.223	10008.25
434.43	10579.64
434.637	10282.68
434.844	11224.75
435.052	11292.33
435.259	11273.9
435.466	11374.25
435.673	11108.01
435.88	11671.2
436.087	12527.25
436.294	12682.9
436.501	12527.25
436.708	12512.92
436.915	12906.13
437.122	13620.87
437.329	13524.61
437.537	13633.16
437.743	14276.22
437.95	14200.44
438.157	14626.42
438.364	15396.46
438.571	15351.4
438.778	15081.07
438.985	16848.47
439.192	16035.42
439.399	16461.4
439.606	16340.57
439.813	16975.44
440.02	18433.6
440.227	18038.34
440.433	17714.76
440.64	18361.92
440.847	17925.7
441.054	18490.94
441.261	19523.12
441.467	19533.36
441.674	19793.45
441.881	20301.34
442.088	20502.04
442.294	20610.59
442.501	20915.73
442.708	21364.24
442.914	22447.61
443.121	23086.58
443.328	22240.77
443.534	23903.72
443.741	23442.93
443.948	22959.61
444.154	24839.64
444.361	24561.12
444.568	24931.8
444.774	24651.23
444.981	25007.58
445.187	25621.97
445.394	27133.37
445.6	26389.95
445.807	29003.16
446.013	27942.31
446.22	28323.24
446.426	29439.38
446.633	29549.97
446.839	30420.36
447.046	29130.14
447.252	30834.05
447.459	30881.15
447.665	30647.68
447.871	32138.6
448.078	33547.61
448.284	31653.23
448.491	32662.88
448.697	34116.94
448.903	34524.49
449.11	34649.41
449.316	33858.9
449.522	34340.17
449.728	35269.95
449.935	35618.1
450.141	35661.11
450.347	35992.88
450.553	35136.83
450.76	35407.16
450.966	36474.15
451.172	36158.77
451.378	36932.9
451.584	36554.02
451.791	37129.5
451.997	37303.58
452.203	37516.57
452.409	37672.21
452.615	37289.24
452.821	36199.72
453.027	35362.11
453.233	37483.8
453.44	35890.48
453.646	36185.39
453.852	36429.1
454.058	37055.78
454.264	35444.02
454.47	36205.87
454.676	35288.38
454.882	36687.14
455.088	33709.39
455.294	33844.56
455.5	34383.18
455.705	34938.18
455.911	33484.12
456.117	32906.59
456.323	32497
456.529	30590.34
456.735	31905.13
456.941	30958.97
457.147	30395.78
457.352	29851.02
457.558	29072.79
457.764	29193.62
457.97	28677.54
458.176	27897.26
458.381	28028.33
458.587	26803.64
458.793	26635.71
458.999	25441.75
459.204	27198.9
459.41	26584.51
459.616	24597.98
459.821	24540.64
460.027	24514.02
460.233	23893.48
460.438	22824.44
460.644	23264.75
460.85	21900.81
461.055	22048.26
461.261	21644.81
461.466	20131.36
461.672	19615.27
461.878	20784.66
462.083	19357.23
462.289	19371.57
462.494	18810.42
462.7	18183.74
462.905	17710.66
463.111	18343.49
463.316	18417.21
463.522	18273.85
463.727	18075.2
463.932	17892.93
464.138	17475.15
464.343	18060.87
464.549	17651.27
464.754	17937.99
464.959	17776.2
465.165	17419.85
465.37	16815.7
465.575	16160.35
465.781	17243.73
465.986	17118.8
466.191	16590.42
466.397	16227.93
466.602	15474.28
466.807	16029.28
467.012	16016.99
467.218	15900.26
467.423	15885.92
467.628	15926.88
467.833	16764.5
