Data from USB4F104151__76__10-24-11-831.txt Node

Date: Wed Mar 12 10:24:11 EDT 2025
User: louis
Spectrometer: USB4F10415
Trigger mode: 4
Integration Time (sec): 3.000000E-2
Scans to average: 1
Electric dark correction enabled: true
Nonlinearity correction enabled: false
Boxcar width: 0
XAxis mode: Wavelengths
Number of Pixels in Spectrum: 3648
>>>>>Begin Spectral Data<<<<<
178.204	-175.1
178.424	-175.1
178.644	-175.1
178.864	-99.33
179.084	-89.09
179.304	41.98
179.524	-54.27
179.744	-60.42
179.964	56.32
180.184	48.13
180.404	82.94
180.624	9.22
180.844	-5.12
181.064	-93.18
181.283	80.89
181.503	-105.47
181.723	-1.02
181.943	-33.79
182.163	60.42
182.383	-17.41
182.602	31.74
182.822	27.65
183.042	84.99
183.262	19.46
183.482	15.36
183.701	35.84
183.921	58.37
184.141	3.07
184.361	33.79
184.58	1.02
184.8	54.27
185.02	-3.07
185.239	25.6
185.459	23.55
185.679	11.26
185.898	39.94
186.118	74.75
186.338	25.6
186.557	50.18
186.777	-48.13
186.997	15.36
187.216	7.17
187.436	91.13
187.655	9.22
187.875	-3.07
188.095	-109.57
188.314	35.84
188.534	56.32
188.753	66.56
188.973	-48.13
189.192	21.5
189.412	25.6
189.631	66.56
189.851	23.55
190.07	9.22
190.29	-1.02
190.509	33.79
190.729	-56.32
190.948	13.31
191.168	87.04
191.387	87.04
191.607	5.12
191.826	15.36
192.045	-3.07
192.265	33.79
192.484	64.51
192.704	37.89
192.923	-3.07
193.142	115.71
193.362	15.36
193.581	-1.02
193.8	54.27
194.02	39.94
194.239	39.94
194.458	1.02
194.678	31.74
194.897	66.56
195.116	11.26
195.335	11.26
195.555	39.94
195.774	87.04
195.993	17.41
196.212	33.79
196.432	-27.65
196.651	33.79
196.87	-7.17
197.089	74.75
197.308	9.22
197.528	37.89
197.747	31.74
197.966	44.03
198.185	125.95
198.404	29.7
198.623	97.28
198.842	68.61
199.062	37.89
199.281	29.7
199.5	1.02
199.719	87.04
199.938	66.56
200.157	76.8
200.376	-1.02
200.595	60.42
200.814	41.98
201.033	-3.07
201.252	54.27
201.471	39.94
201.69	89.09
201.909	1.02
202.128	74.75
202.347	27.65
202.566	115.71
202.785	1.02
203.004	-7.17
203.223	107.52
203.442	72.7
203.661	66.56
203.879	39.94
204.098	-15.36
204.317	39.94
204.536	58.37
204.755	31.74
204.974	58.37
205.193	41.98
205.411	70.65
205.63	82.94
205.849	58.37
206.068	-37.89
206.287	56.32
206.505	25.6
206.724	9.22
206.943	41.98
207.162	-9.22
207.381	7.17
207.599	54.27
207.818	-1.02
208.037	33.79
208.255	25.6
208.474	-70.65
208.693	7.17
208.911	74.75
209.13	31.74
209.349	17.41
209.567	-21.5
209.786	68.61
210.005	-52.22
210.223	3.07
210.442	29.7
210.661	95.23
210.879	78.85
211.098	-7.17
211.316	15.36
211.535	103.42
211.753	-13.31
211.972	-48.13
212.191	-27.65
212.409	21.5
212.628	33.79
212.846	-39.94
213.065	19.46
213.283	70.65
213.502	50.18
213.72	58.37
213.938	56.32
214.157	13.31
214.375	41.98
214.594	-54.27
214.812	-41.98
215.031	21.5
215.249	-5.12
215.467	37.89
215.686	13.31
215.904	64.51
216.122	103.42
216.341	15.36
216.559	66.56
216.778	91.13
216.996	58.37
217.214	-13.31
217.432	-50.18
217.651	21.5
217.869	58.37
218.087	72.7
218.306	82.94
218.524	9.22
218.742	3.07
218.96	66.56
219.179	13.31
219.397	-33.79
219.615	72.7
219.833	27.65
220.051	13.31
220.27	82.94
220.488	29.7
220.706	-5.12
220.924	-7.17
221.142	60.42
221.36	25.6
221.578	72.7
221.796	78.85
222.015	35.84
222.233	-31.74
222.451	-7.17
222.669	17.41
222.887	54.27
223.105	33.79
223.323	7.17
223.541	-33.79
223.759	128
223.977	13.31
224.195	37.89
224.413	87.04
224.631	15.36
224.849	82.94
225.067	117.76
225.285	58.37
225.503	48.13
225.721	23.55
225.939	15.36
226.157	39.94
226.375	89.09
226.592	87.04
226.81	80.89
227.028	58.37
227.246	50.18
227.464	44.03
227.682	23.55
227.9	-3.07
228.117	89.09
228.335	25.6
228.553	76.8
228.771	23.55
228.989	68.61
229.206	68.61
229.424	-9.22
229.642	17.41
229.86	-1.02
230.077	27.65
230.295	15.36
230.513	-29.7
230.731	-3.07
230.948	33.79
231.166	3.07
231.384	29.7
231.601	44.03
231.819	1.02
232.037	-7.17
232.254	-17.41
232.472	25.6
232.689	-31.74
232.907	39.94
233.125	-39.94
233.342	23.55
233.56	5.12
233.777	-66.56
233.995	9.22
234.213	-7.17
234.43	17.41
234.648	1.02
234.865	58.37
235.083	56.32
235.3	-21.5
235.518	29.7
235.735	9.22
235.953	70.65
236.17	44.03
236.388	72.7
236.605	-23.55
236.822	64.51
237.04	1.02
237.257	13.31
237.475	-39.94
237.692	23.55
237.909	5.12
238.127	9.22
238.344	64.51
238.562	58.37
238.779	-25.6
238.996	23.55
239.214	78.85
239.431	21.5
239.648	35.84
239.865	-17.41
240.083	13.31
240.3	74.75
240.517	31.74
240.735	9.22
240.952	68.61
241.169	82.94
241.386	-11.26
241.603	97.28
241.821	-17.41
242.038	82.94
242.255	84.99
242.472	-33.79
242.689	111.61
242.907	58.37
243.124	95.23
243.341	9.22
243.558	-33.79
243.775	9.22
243.992	-33.79
244.209	95.23
244.426	136.19
244.643	-29.7
244.86	-7.17
245.078	1.02
245.295	82.94
245.512	54.27
245.729	-39.94
245.946	35.84
246.163	13.31
246.38	5.12
246.597	-17.41
246.814	50.18
247.031	54.27
247.248	93.18
247.464	-9.22
247.681	54.27
247.898	5.12
248.115	50.18
248.332	25.6
248.549	70.65
248.766	146.43
248.983	5.12
249.2	9.22
249.417	41.98
249.633	-23.55
249.85	7.17
250.067	1.02
250.284	-15.36
250.501	78.85
250.717	21.5
250.934	-19.46
251.151	66.56
251.368	17.41
251.585	13.31
251.801	-7.17
252.018	23.55
252.235	60.42
252.451	33.79
252.668	11.26
252.885	48.13
253.102	-35.84
253.318	-23.55
253.535	99.33
253.752	23.55
253.968	72.7
254.185	19.46
254.401	11.26
254.618	-33.79
254.835	-60.42
255.051	27.65
255.268	3.07
255.484	27.65
255.701	48.13
255.917	72.7
256.134	-29.7
256.351	46.08
256.567	-1.02
256.784	21.5
257	-13.31
257.217	82.94
257.433	23.55
257.65	72.7
257.866	91.13
258.082	-76.8
258.299	70.65
258.515	44.03
258.732	15.36
258.948	7.17
259.165	64.51
259.381	62.46
259.597	29.7
259.814	25.6
260.03	-23.55
260.246	-48.13
260.463	95.23
260.679	21.5
260.895	31.74
261.112	52.22
261.328	5.12
261.544	13.31
261.761	115.71
261.977	5.12
262.193	-97.28
262.409	80.89
262.626	62.46
262.842	-48.13
263.058	17.41
263.274	87.04
263.49	41.98
263.707	54.27
263.923	58.37
264.139	-64.51
264.355	68.61
264.571	93.18
264.787	5.12
265.004	58.37
265.22	-3.07
265.436	25.6
265.652	-13.31
265.868	80.89
266.084	9.22
266.3	-3.07
266.516	7.17
266.732	91.13
266.948	111.61
267.164	-23.55
267.38	-5.12
267.596	46.08
267.812	62.46
268.028	-1.02
268.244	93.18
268.46	70.65
268.676	66.56
268.892	58.37
269.108	-19.46
269.324	-15.36
269.54	-9.22
269.756	76.8
269.972	-23.55
270.188	37.89
270.403	-97.28
270.619	7.17
270.835	-3.07
271.051	23.55
271.267	21.5
271.483	60.42
271.698	13.31
271.914	-21.5
272.13	33.79
272.346	39.94
272.562	23.55
272.777	17.41
272.993	-5.12
273.209	58.37
273.425	74.75
273.64	-37.89
273.856	58.37
274.072	7.17
274.287	-39.94
274.503	-41.98
274.719	44.03
274.934	-9.22
275.15	29.7
275.366	-15.36
275.581	46.08
275.797	56.32
276.012	19.46
276.228	54.27
276.444	35.84
276.659	60.42
276.875	39.94
277.09	46.08
277.306	1.02
277.521	11.26
277.737	76.8
277.952	56.32
278.168	-1.02
278.383	119.81
278.599	82.94
278.814	66.56
279.03	-13.31
279.245	46.08
279.461	-11.26
279.676	60.42
279.892	-11.26
280.107	-39.94
280.322	13.31
280.538	-1.02
280.753	64.51
280.969	58.37
281.184	89.09
281.399	82.94
281.615	11.26
281.83	52.22
282.045	-31.74
282.26	7.17
282.476	-52.22
282.691	60.42
282.906	68.61
283.122	-74.75
283.337	-7.17
283.552	13.31
283.767	-19.46
283.983	84.99
284.198	46.08
284.413	70.65
284.628	-1.02
284.843	-7.17
285.058	-9.22
285.274	46.08
285.489	68.61
285.704	60.42
285.919	-84.99
286.134	-13.31
286.349	50.18
286.564	13.31
286.779	33.79
286.995	23.55
287.21	-1.02
287.425	70.65
287.64	27.65
287.855	82.94
288.07	62.46
288.285	74.75
288.5	93.18
288.715	66.56
288.93	103.42
289.145	19.46
289.36	134.14
289.575	15.36
289.79	21.5
290.004	50.18
290.219	11.26
290.434	44.03
290.649	13.31
290.864	-1.02
291.079	56.32
291.294	76.8
291.509	-39.94
291.724	-3.07
291.938	50.18
292.153	76.8
292.368	-1.02
292.583	33.79
292.798	64.51
293.012	15.36
293.227	35.84
293.442	37.89
293.657	64.51
293.871	33.79
294.086	48.13
294.301	74.75
294.516	72.7
294.73	17.41
294.945	50.18
295.16	44.03
295.374	89.09
295.589	58.37
295.804	54.27
296.018	66.56
296.233	52.22
296.447	56.32
296.662	25.6
296.877	91.13
297.091	19.46
297.306	89.09
297.52	95.23
297.735	37.89
297.949	44.03
298.164	111.61
298.378	35.84
298.593	-27.65
298.807	5.12
299.022	76.8
299.236	64.51
299.451	80.89
299.665	66.56
299.88	48.13
300.094	11.26
300.309	31.74
300.523	33.79
300.737	-25.6
300.952	-1.02
301.166	39.94
301.381	15.36
301.595	76.8
301.809	50.18
302.024	7.17
302.238	27.65
302.452	80.89
302.667	50.18
302.881	54.27
303.095	58.37
303.309	189.44
303.524	41.98
303.738	33.79
303.952	68.61
304.166	105.47
304.381	9.22
304.595	48.13
304.809	-17.41
305.023	80.89
305.237	11.26
305.452	76.8
305.666	31.74
305.88	33.79
306.094	58.37
306.308	91.13
306.522	140.29
306.736	41.98
306.95	48.13
307.164	37.89
307.379	50.18
307.593	74.75
307.807	107.52
308.021	66.56
308.235	25.6
308.449	52.22
308.663	1.02
308.877	78.85
309.091	74.75
309.305	37.89
309.519	-68.61
309.733	39.94
309.947	3.07
310.161	134.14
310.374	95.23
310.588	97.28
310.802	-44.03
311.016	-21.5
311.23	62.46
311.444	78.85
311.658	-3.07
311.872	68.61
312.085	99.33
312.299	62.46
312.513	89.09
312.727	23.55
312.941	-17.41
313.154	-13.31
313.368	-3.07
313.582	7.17
313.796	54.27
314.009	23.55
314.223	93.18
314.437	72.7
314.651	64.51
314.864	37.89
315.078	48.13
315.292	7.17
315.505	70.65
315.719	87.04
315.933	23.55
316.146	-1.02
316.36	78.85
316.573	62.46
316.787	-66.56
317.001	39.94
317.214	-21.5
317.428	76.8
317.641	60.42
317.855	68.61
318.068	68.61
318.282	125.95
318.495	74.75
318.709	52.22
318.922	11.26
319.136	68.61
319.349	46.08
319.563	70.65
319.776	62.46
319.99	-25.6
320.203	25.6
320.417	17.41
320.63	13.31
320.843	41.98
321.057	11.26
321.27	52.22
321.483	48.13
321.697	76.8
321.91	80.89
322.124	74.75
322.337	31.74
322.55	70.65
322.763	33.79
322.977	35.84
323.19	-87.04
323.403	37.89
323.617	-7.17
323.83	37.89
324.043	-64.51
324.256	54.27
324.469	48.13
324.683	97.28
324.896	-39.94
325.109	17.41
325.322	50.18
325.535	54.27
325.748	119.81
325.962	62.46
326.175	-21.5
326.388	58.37
326.601	17.41
326.814	56.32
327.027	123.9
327.24	80.89
327.453	9.22
327.666	113.66
327.879	5.12
328.092	52.22
328.305	60.42
328.518	-19.46
328.731	52.22
328.944	41.98
329.157	46.08
329.37	62.46
329.583	66.56
329.796	74.75
330.009	56.32
330.222	70.65
330.435	31.74
330.648	78.85
330.861	33.79
331.073	44.03
331.286	103.42
331.499	84.99
331.712	64.51
331.925	91.13
332.138	-7.17
332.35	87.04
332.563	23.55
332.776	50.18
332.989	21.5
333.202	31.74
333.414	66.56
333.627	35.84
333.84	56.32
334.053	-25.6
334.265	21.5
334.478	7.17
334.691	72.7
334.903	25.6
335.116	17.41
335.329	52.22
335.541	9.22
335.754	173.05
335.966	44.03
336.179	146.43
336.392	44.03
336.604	9.22
336.817	35.84
337.029	41.98
337.242	19.46
337.454	91.13
337.667	37.89
337.88	62.46
338.092	82.94
338.305	15.36
338.517	109.57
338.729	66.56
338.942	33.79
339.154	52.22
339.367	-41.98
339.579	91.13
339.792	7.17
340.004	48.13
340.217	-11.26
340.429	50.18
340.641	15.36
340.854	-29.7
341.066	13.31
341.278	31.74
341.491	27.65
341.703	19.46
341.915	-1.02
342.128	76.8
342.34	95.23
342.552	15.36
342.764	-3.07
342.977	-17.41
343.189	44.03
343.401	80.89
343.613	25.6
343.826	78.85
344.038	13.31
344.25	5.12
344.462	21.5
344.674	54.27
344.886	-39.94
345.099	66.56
345.311	56.32
345.523	66.56
345.735	9.22
345.947	3.07
346.159	56.32
346.371	-35.84
346.583	29.7
346.795	82.94
347.007	33.79
347.219	82.94
347.431	-3.07
347.643	84.99
347.855	3.07
348.067	95.23
348.279	35.84
348.491	93.18
348.703	62.46
348.915	46.08
349.127	74.75
349.339	5.12
349.551	-1.02
349.763	70.65
349.975	23.55
350.187	46.08
350.399	76.8
350.61	146.43
350.822	5.12
351.034	66.56
351.246	-7.17
351.458	87.04
351.669	44.03
351.881	111.61
352.093	7.17
352.305	62.46
352.517	66.56
352.728	68.61
352.94	68.61
353.152	95.23
353.363	-17.41
353.575	72.7
353.787	64.51
353.999	29.7
354.21	113.66
354.422	58.37
354.633	89.09
354.845	54.27
355.057	68.61
355.268	54.27
355.48	82.94
355.692	23.55
355.903	31.74
356.115	-44.03
356.326	31.74
356.538	138.24
356.749	105.47
356.961	29.7
357.172	31.74
357.384	41.98
357.595	193.53
357.807	52.22
358.018	58.37
358.23	17.41
358.441	115.71
358.653	25.6
358.864	78.85
359.075	70.65
359.287	21.5
359.498	97.28
359.709	-15.36
359.921	54.27
360.132	82.94
360.344	70.65
360.555	-11.26
360.766	68.61
360.977	89.09
361.189	54.27
361.4	21.5
361.611	50.18
361.823	87.04
362.034	37.89
362.245	21.5
362.456	23.55
362.667	54.27
362.879	48.13
363.09	72.7
363.301	87.04
363.512	15.36
363.723	80.89
363.935	91.13
364.146	103.42
364.357	33.79
364.568	-1.02
364.779	5.12
364.99	15.36
365.201	64.51
365.412	136.19
365.623	-17.41
365.834	93.18
366.045	15.36
366.256	78.85
366.467	113.66
366.678	82.94
366.889	87.04
367.1	31.74
367.311	132.09
367.522	138.24
367.733	54.27
367.944	109.57
368.155	84.99
368.366	58.37
368.577	142.33
368.788	37.89
368.999	78.85
369.209	64.51
369.42	50.18
369.631	101.37
369.842	76.8
370.053	41.98
370.264	117.76
370.474	76.8
370.685	62.46
370.896	9.22
371.107	76.8
371.317	64.51
371.528	1.02
371.739	82.94
371.95	66.56
372.16	62.46
372.371	-7.17
372.582	35.84
372.792	91.13
373.003	-9.22
373.214	44.03
373.424	171.01
373.635	-11.26
373.846	48.13
374.056	87.04
374.267	54.27
374.477	50.18
374.688	41.98
374.898	62.46
375.109	84.99
375.319	74.75
375.53	68.61
375.74	46.08
375.951	44.03
376.161	95.23
376.372	105.47
376.582	74.75
376.793	62.46
377.003	-11.26
377.214	-1.02
377.424	121.85
377.635	-1.02
377.845	-17.41
378.055	117.76
378.266	123.9
378.476	72.7
378.686	80.89
378.897	33.79
379.107	21.5
379.317	105.47
379.528	23.55
379.738	187.39
379.948	37.89
380.158	82.94
380.369	136.19
380.579	78.85
380.789	80.89
380.999	82.94
381.21	58.37
381.42	80.89
381.63	-3.07
381.84	62.46
382.05	41.98
382.261	132.09
382.471	144.38
382.681	93.18
382.891	146.43
383.101	68.61
383.311	123.9
383.521	35.84
383.731	56.32
383.941	160.77
384.151	44.03
384.361	27.65
384.571	144.38
384.781	89.09
384.991	134.14
385.201	91.13
385.411	44.03
385.621	95.23
385.831	80.89
386.041	60.42
386.251	148.48
386.461	58.37
386.671	60.42
386.881	113.66
387.091	13.31
387.301	123.9
387.511	97.28
387.72	46.08
387.93	76.8
388.14	50.18
388.35	82.94
388.56	29.7
388.769	150.53
388.979	33.79
389.189	48.13
389.399	29.7
389.609	95.23
389.818	117.76
390.028	-27.65
390.238	56.32
390.447	74.75
390.657	54.27
390.867	80.89
391.076	99.33
391.286	33.79
391.496	21.5
391.705	25.6
391.915	78.85
392.125	31.74
392.334	-41.98
392.544	76.8
392.753	105.47
392.963	130.05
393.172	35.84
393.382	76.8
393.591	123.9
393.801	87.04
394.01	111.61
394.22	105.47
394.429	84.99
394.639	113.66
394.848	66.56
395.058	197.63
395.267	97.28
395.477	154.62
395.686	181.25
395.895	107.52
396.105	144.38
396.314	68.61
396.524	111.61
396.733	37.89
396.942	130.05
397.152	168.96
397.361	84.99
397.57	105.47
397.78	58.37
397.989	119.81
398.198	218.11
398.407	119.81
398.617	132.09
398.826	168.96
399.035	140.29
399.244	95.23
399.453	111.61
399.663	164.86
399.872	140.29
400.081	140.29
400.29	107.52
400.499	179.2
400.708	101.37
400.917	146.43
401.127	162.81
401.336	66.56
401.545	168.96
401.754	162.81
401.963	128
402.172	82.94
402.381	181.25
402.59	185.34
402.799	218.11
403.008	187.39
403.217	162.81
403.426	136.19
403.635	142.33
403.844	177.15
404.053	123.9
404.262	201.72
404.471	259.07
404.68	269.31
404.888	150.53
405.097	138.24
405.306	236.54
405.515	171.01
405.724	261.12
405.933	201.72
406.142	259.07
406.35	267.26
406.559	269.31
406.768	226.3
406.977	300.03
407.185	316.41
407.394	269.31
407.603	216.06
407.812	369.66
408.02	439.29
408.229	228.35
408.438	308.22
408.646	332.79
408.855	349.18
409.064	390.14
409.272	293.88
409.481	435.19
409.69	320.51
409.898	326.65
410.107	465.91
410.315	412.67
410.524	537.59
410.733	510.97
410.941	492.54
411.15	478.2
411.358	510.97
411.567	586.74
411.775	523.26
411.984	637.94
412.192	588.79
412.401	599.03
412.609	689.14
412.818	658.42
413.026	695.29
413.234	687.09
413.443	721.91
413.651	699.38
413.86	771.06
414.068	801.78
414.276	984.05
414.485	859.12
414.693	910.32
414.901	996.34
415.11	1047.54
415.318	908.27
415.526	1106.93
415.734	1012.72
415.943	1125.36
416.151	1215.47
416.359	1106.93
416.567	1217.52
416.776	1283.05
416.984	1369.07
417.192	1303.53
417.4	1344.49
417.608	1426.41
417.817	1399.79
418.025	1563.62
418.233	1663.97
418.441	1446.89
418.649	1674.21
418.857	1852.39
419.065	1709.03
419.273	1737.7
419.481	1836
419.689	2003.94
419.897	2008.03
420.105	2159.58
420.313	2180.06
420.521	2356.19
420.729	2249.69
420.937	2307.04
421.145	2386.91
421.353	2622.42
421.561	2669.53
421.769	2679.77
421.977	2855.89
422.185	2851.8
422.393	3050.45
422.601	3081.17
422.809	3062.74
423.017	3228.62
423.224	3308.49
423.432	3425.23
423.64	3484.62
423.848	3726.28
424.056	3765.19
424.263	3974.08
424.471	3910.6
424.679	4051.91
424.887	4244.42
425.094	4481.98
425.302	4402.11
425.51	4465.6
425.718	4690.87
425.925	4787.13
426.133	5036.98
426.341	5340.08
426.548	5518.25
426.756	5432.24
426.964	5473.2
427.171	5718.95
427.379	5966.76
427.586	6144.93
427.794	6194.08
428.001	6552.48
428.209	6919.06
428.417	6669.21
428.624	7146.39
428.832	7228.31
429.039	7119.76
429.247	7304.08
429.454	7713.67
429.662	8375.17
429.869	7938.95
430.076	8237.95
430.284	8016.77
430.491	8532.86
430.699	9018.23
430.906	9075.57
431.114	9259.89
431.321	9188.21
431.528	9634.67
431.736	10081.13
431.943	10732.38
432.15	10503.01
432.358	10556.25
432.565	11150.17
432.772	10769.24
432.979	11541.33
433.187	11801.42
433.394	11791.18
433.601	12614.46
433.808	12874.56
434.016	12546.88
434.223	13400.88
434.43	13933.36
434.637	13746.99
434.844	14666.53
435.052	14887.71
435.259	14715.68
435.466	14861.09
435.673	14666.53
435.88	15688.46
436.087	16694.02
436.294	16708.35
436.501	15928.08
436.708	16284.42
436.915	17113.85
437.122	17928.94
437.329	17767.15
437.537	17777.39
437.743	18481.89
437.95	18569.96
438.157	19360.47
438.364	19981.01
438.571	20040.4
438.778	19878.61
438.985	21891.76
439.192	20902.59
439.399	21719.73
439.606	21277.37
439.813	22444.71
440.02	23812.76
440.227	23323.29
440.433	22887.07
440.64	24072.85
440.847	23429.79
441.054	24402.57
441.261	26059.38
441.467	25475.71
441.674	26049.14
441.881	26978.92
442.088	26442.35
442.294	26671.72
442.501	27476.57
442.708	27834.97
442.914	29065.8
443.121	30016.05
443.328	29299.26
443.534	31779.36
443.741	30417.46
443.948	29882.94
444.154	32578.06
444.361	31951.38
444.568	32268.82
444.774	32619.02
444.981	32696.85
445.187	33344
445.394	34705.9
445.6	34458.1
445.807	37810.62
446.013	36176.34
446.22	36952.52
446.426	38132.15
446.633	38435.25
446.839	39946.65
447.046	38101.43
447.252	39834.02
447.459	39965.09
447.665	39803.3
447.871	41460.1
448.078	43059.57
448.284	41638.28
448.491	41988.48
448.697	44104.03
448.903	44501.34
449.11	44583.26
449.316	43911.52
449.522	44468.57
449.728	45668.68
449.935	46088.51
450.141	45723.97
450.347	46879.03
450.553	45441.35
450.76	45787.46
450.966	47253.81
451.172	46788.92
451.378	47763.75
451.584	46987.57
451.791	48089.38
451.997	47243.57
452.203	48558.36
452.409	48568.6
452.615	48535.84
452.821	46494.01
453.027	46108.99
453.233	48531.74
453.44	46145.86
453.646	46788.92
453.852	47034.67
454.058	47726.89
454.264	46115.14
454.47	47118.64
454.676	46057.79
454.882	47188.27
455.088	43325.8
455.294	44011.87
455.5	44282.2
455.705	45304.14
455.911	43420.01
456.117	42752.37
456.323	41738.63
456.529	39485.86
456.735	41228.68
456.941	39999.9
457.147	39422.37
457.352	38259.13
457.558	37915.07
457.764	37851.58
457.97	37120.46
458.176	36587.99
458.381	36334.04
458.587	34363.89
458.793	34322.93
458.999	32825.87
459.204	35049.96
459.41	34167.29
459.616	31937.05
459.821	32018.97
460.027	31672.86
460.233	31150.63
460.438	30065.21
460.644	29882.94
460.85	28627.53
461.055	28414.54
461.261	28201.55
461.466	26036.85
461.672	25434.75
461.878	26987.11
462.083	25512.57
462.289	24943.24
462.494	24677
462.7	23728.79
462.905	22799.01
463.111	23814.8
463.316	23720.6
463.522	23507.61
463.727	23263.9
463.932	23071.39
464.138	22917.79
464.343	22866.6
464.549	22571.69
464.754	23141.02
464.959	22962.85
465.165	22760.1
465.37	21768.88
465.575	21455.54
465.781	22000.3
465.986	22158
466.191	21439.16
466.397	21240.51
466.602	19983.06
466.807	20884.16
467.012	21144.25
467.218	20470.47
467.423	20230.86
