Data from USB4F104151__89__10-24-23-770.txt Node

Date: Wed Mar 12 10:24:23 EDT 2025
User: louis
Spectrometer: USB4F10415
Trigger mode: 4
Integration Time (sec): 3.000000E-2
Scans to average: 1
Electric dark correction enabled: true
Nonlinearity correction enabled: false
Boxcar width: 0
XAxis mode: Wavelengths
Number of Pixels in Spectrum: 3648
>>>>>Begin Spectral Data<<<<<
178.204	-60.76
178.424	-60.76
178.644	-60.76
178.864	-75.09
179.084	-128.34
179.304	0.68
179.524	-11.61
179.744	10.92
179.964	35.5
180.184	-44.37
180.404	-38.23
180.624	51.88
180.844	35.5
181.064	-36.18
181.283	-34.13
181.503	-1.37
181.723	31.4
181.943	-11.61
182.163	17.07
182.383	-34.13
182.602	29.35
182.822	51.88
183.042	103.08
183.262	55.98
183.482	-50.52
183.701	-30.04
183.921	4.78
184.141	-77.14
184.361	84.65
184.58	-32.08
184.8	12.97
185.02	-25.94
185.239	78.51
185.459	-58.71
185.679	88.75
185.898	-50.52
186.118	25.26
186.338	25.26
186.557	70.31
186.777	45.74
186.997	66.22
187.216	-30.04
187.436	119.46
187.655	45.74
187.875	33.45
188.095	17.07
188.314	125.61
188.534	35.5
188.753	-30.04
188.973	53.93
189.192	80.55
189.412	41.64
189.631	10.92
189.851	29.35
190.07	117.42
190.29	-27.99
190.509	64.17
190.729	92.84
190.948	103.08
191.168	109.22
191.387	51.88
191.607	-27.99
191.826	68.27
192.045	-11.61
192.265	41.64
192.484	-25.94
192.704	47.79
192.923	29.35
193.142	88.75
193.362	47.79
193.581	78.51
193.8	-17.75
194.02	96.94
194.239	31.4
194.458	98.99
194.678	-3.41
194.897	33.45
195.116	-21.85
195.335	6.83
195.555	121.51
195.774	-27.99
195.993	35.5
196.212	47.79
196.432	-42.32
196.651	-11.61
196.87	55.98
197.089	8.87
197.308	76.46
197.528	19.11
197.747	72.36
197.966	-9.56
198.185	92.84
198.404	45.74
198.623	70.31
198.842	-11.61
199.062	29.35
199.281	33.45
199.5	15.02
199.719	-34.13
199.938	-40.28
200.157	115.37
200.376	35.5
200.595	64.17
200.814	119.46
201.033	94.89
201.252	76.46
201.471	15.02
201.69	-1.37
201.909	47.79
202.128	8.87
202.347	29.35
202.566	19.11
202.785	17.07
203.004	-34.13
203.223	37.55
203.442	41.64
203.661	-25.94
203.879	49.83
204.098	43.69
204.317	53.93
204.536	39.59
204.755	6.83
204.974	64.17
205.193	41.64
205.411	51.88
205.63	58.03
205.849	103.08
206.068	39.59
206.287	4.78
206.505	60.07
206.724	15.02
206.943	-58.71
207.162	-40.28
207.381	19.11
207.599	49.83
207.818	37.55
208.037	6.83
208.255	-58.71
208.474	-7.51
208.693	17.07
208.911	-46.42
209.13	84.65
209.349	-5.46
209.567	62.12
209.786	27.31
210.005	29.35
210.223	-11.61
210.442	-36.18
210.661	86.7
210.879	111.27
211.098	-25.94
211.316	66.22
211.535	55.98
211.753	15.02
211.972	0.68
212.191	103.08
212.409	92.84
212.628	60.07
212.846	2.73
213.065	68.27
213.283	105.13
213.502	41.64
213.72	53.93
213.938	47.79
214.157	6.83
214.375	25.26
214.594	66.22
214.812	19.11
215.031	62.12
215.249	-42.32
215.467	49.83
215.686	70.31
215.904	94.89
216.122	47.79
216.341	127.66
216.559	72.36
216.778	68.27
216.996	47.79
217.214	25.26
217.432	-13.65
217.651	-13.65
217.869	-34.13
218.087	39.59
218.306	27.31
218.524	-9.56
218.742	41.64
218.96	21.16
219.179	21.16
219.397	88.75
219.615	31.4
219.833	23.21
220.051	31.4
220.27	19.11
220.488	23.21
220.706	6.83
220.924	55.98
221.142	6.83
221.36	33.45
221.578	66.22
221.796	8.87
222.015	2.73
222.233	-15.7
222.451	178.86
222.669	-54.61
222.887	62.12
223.105	21.16
223.323	103.08
223.541	-38.23
223.759	103.08
223.977	19.11
224.195	121.51
224.413	72.36
224.631	80.55
224.849	10.92
225.067	103.08
225.285	35.5
225.503	39.59
225.721	-42.32
225.939	45.74
226.157	43.69
226.375	70.31
226.592	41.64
226.81	74.41
227.028	80.55
227.246	76.46
227.464	90.79
227.682	41.64
227.9	66.22
228.117	84.65
228.335	53.93
228.553	6.83
228.771	12.97
228.989	68.27
229.206	6.83
229.424	23.21
229.642	-23.89
229.86	-5.46
230.077	74.41
230.295	29.35
230.513	60.07
230.731	27.31
230.948	78.51
231.166	43.69
231.384	4.78
231.601	-38.23
231.819	31.4
232.037	-58.71
232.254	43.69
232.472	-13.65
232.689	-50.52
232.907	150.18
233.125	47.79
233.342	-54.61
233.56	-83.28
233.777	25.26
233.995	23.21
234.213	31.4
234.43	55.98
234.648	-34.13
234.865	6.83
235.083	-15.7
235.3	2.73
235.518	41.64
235.735	96.94
235.953	23.21
236.17	27.31
236.388	-30.04
236.605	66.22
236.822	76.46
237.04	31.4
237.257	58.03
237.475	15.02
237.692	51.88
237.909	64.17
238.127	41.64
238.344	72.36
238.562	49.83
238.779	25.26
238.996	-23.89
239.214	-30.04
239.431	80.55
239.648	43.69
239.865	78.51
240.083	64.17
240.3	6.83
240.517	64.17
240.735	29.35
240.952	72.36
241.169	21.16
241.386	21.16
241.603	25.26
241.821	6.83
242.038	58.03
242.255	4.78
242.472	41.64
242.689	2.73
242.907	-17.75
243.124	55.98
243.341	4.78
243.558	-13.65
243.775	35.5
243.992	27.31
244.209	78.51
244.426	60.07
244.643	31.4
244.86	35.5
245.078	76.46
245.295	49.83
245.512	6.83
245.729	-1.37
245.946	10.92
246.163	64.17
246.38	35.5
246.597	47.79
246.814	55.98
247.031	-1.37
247.248	127.66
247.464	74.41
247.681	47.79
247.898	96.94
248.115	74.41
248.332	15.02
248.549	41.64
248.766	55.98
248.983	88.75
249.2	17.07
249.417	86.7
249.633	-3.41
249.85	8.87
250.067	-34.13
250.284	-9.56
250.501	72.36
250.717	92.84
250.934	-46.42
251.151	17.07
251.368	10.92
251.585	55.98
251.801	29.35
252.018	-27.99
252.235	39.59
252.451	49.83
252.668	47.79
252.885	72.36
253.102	35.5
253.318	-15.7
253.535	6.83
253.752	27.31
253.968	98.99
254.185	4.78
254.401	0.68
254.618	43.69
254.835	-30.04
255.051	10.92
255.268	-17.75
255.484	23.21
255.701	-7.51
255.917	12.97
256.134	12.97
256.351	19.11
256.567	-58.71
256.784	19.11
257	-9.56
257.217	39.59
257.433	62.12
257.65	31.4
257.866	47.79
258.082	-75.09
258.299	60.07
258.515	6.83
258.732	-21.85
258.948	55.98
259.165	-1.37
259.381	15.02
259.597	51.88
259.814	17.07
260.03	47.79
260.246	17.07
260.463	6.83
260.679	33.45
260.895	72.36
261.112	70.31
261.328	-17.75
261.544	15.02
261.761	47.79
261.977	72.36
262.193	19.11
262.409	80.55
262.626	23.21
262.842	60.07
263.058	62.12
263.274	111.27
263.49	-79.19
263.707	-13.65
263.923	72.36
264.139	31.4
264.355	12.97
264.571	12.97
264.787	45.74
265.004	-3.41
265.22	35.5
265.436	66.22
265.652	51.88
265.868	58.03
266.084	-23.89
266.3	49.83
266.516	84.65
266.732	25.26
266.948	84.65
267.164	37.55
267.38	109.22
267.596	94.89
267.812	39.59
268.028	-1.37
268.244	-9.56
268.46	-1.37
268.676	141.99
268.892	58.03
269.108	37.55
269.324	0.68
269.54	12.97
269.756	21.16
269.972	23.21
270.188	55.98
270.403	21.16
270.619	-5.46
270.835	39.59
271.051	-9.56
271.267	129.7
271.483	76.46
271.698	72.36
271.914	39.59
272.13	-11.61
272.346	-1.37
272.562	15.02
272.777	29.35
272.993	-1.37
273.209	2.73
273.425	127.66
273.64	82.6
273.856	15.02
274.072	-11.61
274.287	-40.28
274.503	96.94
274.719	23.21
274.934	72.36
275.15	27.31
275.366	62.12
275.581	2.73
275.797	78.51
276.012	33.45
276.228	29.35
276.444	25.26
276.659	55.98
276.875	55.98
277.09	21.16
277.306	86.7
277.521	-36.18
277.737	70.31
277.952	146.09
278.168	45.74
278.383	-11.61
278.599	70.31
278.814	31.4
279.03	64.17
279.245	27.31
279.461	33.45
279.676	47.79
279.892	-5.46
280.107	74.41
280.322	43.69
280.538	80.55
280.753	51.88
280.969	29.35
281.184	-27.99
281.399	-23.89
281.615	47.79
281.83	60.07
282.045	4.78
282.26	4.78
282.476	-13.65
282.691	60.07
282.906	-21.85
283.122	10.92
283.337	-38.23
283.552	-58.71
283.767	78.51
283.983	101.03
284.198	31.4
284.413	17.07
284.628	45.74
284.843	43.69
285.058	62.12
285.274	103.08
285.489	82.6
285.704	39.59
285.919	-42.32
286.134	88.75
286.349	4.78
286.564	47.79
286.779	58.03
286.995	23.21
287.21	21.16
287.425	-48.47
287.64	90.79
287.855	64.17
288.07	-1.37
288.285	51.88
288.5	68.27
288.715	55.98
288.93	25.26
289.145	62.12
289.36	68.27
289.575	6.83
289.79	33.45
290.004	47.79
290.219	35.5
290.434	72.36
290.649	27.31
290.864	27.31
291.079	88.75
291.294	113.32
291.509	39.59
291.724	19.11
291.938	68.27
292.153	-15.7
292.368	35.5
292.583	107.18
292.798	17.07
293.012	103.08
293.227	88.75
293.442	39.59
293.657	96.94
293.871	125.61
294.086	96.94
294.301	76.46
294.516	19.11
294.73	117.42
294.945	-25.94
295.16	45.74
295.374	103.08
295.589	53.93
295.804	31.4
296.018	23.21
296.233	33.45
296.447	47.79
296.662	6.83
296.877	64.17
297.091	25.26
297.306	64.17
297.52	41.64
297.735	62.12
297.949	27.31
298.164	4.78
298.378	31.4
298.593	82.6
298.807	-34.13
299.022	72.36
299.236	49.83
299.451	25.26
299.665	23.21
299.88	2.73
300.094	21.16
300.309	-30.04
300.523	55.98
300.737	43.69
300.952	53.93
301.166	66.22
301.381	84.65
301.595	29.35
301.809	33.45
302.024	72.36
302.238	-25.94
302.452	23.21
302.667	-17.75
302.881	88.75
303.095	111.27
303.309	-1.37
303.524	23.21
303.738	6.83
303.952	15.02
304.166	39.59
304.381	94.89
304.595	109.22
304.809	10.92
305.023	19.11
305.237	35.5
305.452	39.59
305.666	68.27
305.88	55.98
306.094	58.03
306.308	35.5
306.522	76.46
306.736	19.11
306.95	35.5
307.164	64.17
307.379	47.79
307.593	55.98
307.807	107.18
308.021	74.41
308.235	64.17
308.449	-7.51
308.663	25.26
308.877	94.89
309.091	-34.13
309.305	60.07
309.519	-32.08
309.733	53.93
309.947	33.45
310.161	43.69
310.374	58.03
310.588	39.59
310.802	29.35
311.016	6.83
311.23	31.4
311.444	-5.46
311.658	-21.85
311.872	45.74
312.085	62.12
312.299	47.79
312.513	41.64
312.727	4.78
312.941	31.4
313.154	23.21
313.368	60.07
313.582	39.59
313.796	6.83
314.009	-11.61
314.223	68.27
314.437	6.83
314.651	84.65
314.864	25.26
315.078	0.68
315.292	84.65
315.505	-3.41
315.719	123.56
315.933	47.79
316.146	39.59
316.36	-21.85
316.573	119.46
316.787	-25.94
317.001	72.36
317.214	90.79
317.428	35.5
317.641	-1.37
317.855	43.69
318.068	15.02
318.282	62.12
318.495	113.32
318.709	51.88
318.922	2.73
319.136	45.74
319.349	125.61
319.563	92.84
319.776	39.59
319.99	-1.37
320.203	58.03
320.417	84.65
320.63	47.79
320.843	146.09
321.057	64.17
321.27	-79.19
321.483	41.64
321.697	90.79
321.91	21.16
322.124	21.16
322.337	105.13
322.55	8.87
322.763	6.83
322.977	47.79
323.19	-11.61
323.403	37.55
323.617	60.07
323.83	27.31
324.043	-52.56
324.256	86.7
324.469	37.55
324.683	76.46
324.896	76.46
325.109	35.5
325.322	15.02
325.535	80.55
325.748	117.42
325.962	27.31
326.175	62.12
326.388	113.32
326.601	53.93
326.814	70.31
327.027	0.68
327.24	152.23
327.453	53.93
327.666	-7.51
327.879	70.31
328.092	86.7
328.305	23.21
328.518	4.78
328.731	21.16
328.944	64.17
329.157	23.21
329.37	-25.94
329.583	88.75
329.796	125.61
330.009	-19.8
330.222	27.31
330.435	47.79
330.648	35.5
330.861	-19.8
331.073	23.21
331.286	68.27
331.499	68.27
331.712	-5.46
331.925	78.51
332.138	-21.85
332.35	84.65
332.563	43.69
332.776	98.99
332.989	29.35
333.202	12.97
333.414	55.98
333.627	0.68
333.84	15.02
334.053	49.83
334.265	49.83
334.478	39.59
334.691	60.07
334.903	-19.8
335.116	37.55
335.329	37.55
335.541	53.93
335.754	72.36
335.966	66.22
336.179	-9.56
336.392	45.74
336.604	74.41
336.817	43.69
337.029	45.74
337.242	86.7
337.454	68.27
337.667	-5.46
337.88	111.27
338.092	37.55
338.305	76.46
338.517	21.16
338.729	72.36
338.942	125.61
339.154	27.31
339.367	31.4
339.579	33.45
339.792	60.07
340.004	49.83
340.217	-25.94
340.429	-11.61
340.641	8.87
340.854	35.5
341.066	51.88
341.278	-7.51
341.491	96.94
341.703	105.13
341.915	15.02
342.128	119.46
342.34	103.08
342.552	92.84
342.764	35.5
342.977	64.17
343.189	121.51
343.401	133.8
343.613	37.55
343.826	103.08
344.038	23.21
344.25	15.02
344.462	47.79
344.674	27.31
344.886	-5.46
345.099	39.59
345.311	144.04
345.523	66.22
345.735	25.26
345.947	68.27
346.159	70.31
346.371	-3.41
346.583	66.22
346.795	64.17
347.007	-44.37
347.219	86.7
347.431	-3.41
347.643	162.47
347.855	70.31
348.067	74.41
348.279	-7.51
348.491	0.68
348.703	117.42
348.915	68.27
349.127	-17.75
349.339	66.22
349.551	45.74
349.763	113.32
349.975	35.5
350.187	82.6
350.399	107.18
350.61	37.55
350.822	15.02
351.034	2.73
351.246	47.79
351.458	19.11
351.669	105.13
351.881	170.66
352.093	64.17
352.305	58.03
352.517	60.07
352.728	113.32
352.94	51.88
353.152	39.59
353.363	-9.56
353.575	-7.51
353.787	10.92
353.999	88.75
354.21	146.09
354.422	82.6
354.633	10.92
354.845	92.84
355.057	-44.37
355.268	62.12
355.48	137.9
355.692	19.11
355.903	55.98
356.115	27.31
356.326	-7.51
356.538	96.94
356.749	55.98
356.961	15.02
357.172	33.45
357.384	37.55
357.595	74.41
357.807	55.98
358.018	12.97
358.23	78.51
358.441	129.7
358.653	41.64
358.864	-23.89
359.075	80.55
359.287	111.27
359.498	121.51
359.709	80.55
359.921	125.61
360.132	68.27
360.344	84.65
360.555	60.07
360.766	29.35
360.977	96.94
361.189	4.78
361.4	-21.85
361.611	27.31
361.823	103.08
362.034	101.03
362.245	43.69
362.456	53.93
362.667	66.22
362.879	6.83
363.09	86.7
363.301	70.31
363.512	96.94
363.723	35.5
363.935	27.31
364.146	70.31
364.357	113.32
364.568	125.61
364.779	55.98
364.99	105.13
365.201	-17.75
365.412	43.69
365.623	27.31
365.834	27.31
366.045	88.75
366.256	96.94
366.467	144.04
366.678	-9.56
366.889	86.7
367.1	41.64
367.311	86.7
367.522	62.12
367.733	23.21
367.944	35.5
368.155	21.16
368.366	60.07
368.577	72.36
368.788	92.84
368.999	41.64
369.209	76.46
369.42	101.03
369.631	51.88
369.842	107.18
370.053	39.59
370.264	127.66
370.474	137.9
370.685	123.56
370.896	-21.85
371.107	86.7
371.317	94.89
371.528	51.88
371.739	88.75
371.95	-13.65
372.16	55.98
372.371	55.98
372.582	0.68
372.792	19.11
373.003	105.13
373.214	60.07
373.424	78.51
373.635	45.74
373.846	68.27
374.056	84.65
374.267	76.46
374.477	53.93
374.688	27.31
374.898	31.4
375.109	105.13
375.319	23.21
375.53	96.94
375.74	88.75
375.951	150.18
376.161	76.46
376.372	98.99
376.582	6.83
376.793	45.74
377.003	84.65
377.214	53.93
377.424	72.36
377.635	121.51
377.845	70.31
378.055	92.84
378.266	12.97
378.476	84.65
378.686	72.36
378.897	66.22
379.107	-7.51
379.317	103.08
379.528	78.51
379.738	31.4
379.948	53.93
380.158	70.31
380.369	113.32
380.579	-21.85
380.789	43.69
380.999	21.16
381.21	131.75
381.42	103.08
381.63	80.55
381.84	139.94
382.05	0.68
382.261	127.66
382.471	123.56
382.681	49.83
382.891	47.79
383.101	96.94
383.311	64.17
383.521	29.35
383.731	88.75
383.941	58.03
384.151	-5.46
384.361	27.31
384.571	86.7
384.781	66.22
384.991	113.32
385.201	41.64
385.411	103.08
385.621	62.12
385.831	125.61
386.041	68.27
386.251	111.27
386.461	55.98
386.671	121.51
386.881	127.66
387.091	109.22
387.301	45.74
387.511	60.07
387.72	51.88
387.93	78.51
388.14	2.73
388.35	27.31
388.56	47.79
388.769	80.55
388.979	103.08
389.189	27.31
389.399	72.36
389.609	92.84
389.818	33.45
390.028	70.31
390.238	31.4
390.447	49.83
390.657	168.62
390.867	4.78
391.076	-25.94
391.286	55.98
391.496	-1.37
391.705	113.32
391.915	121.51
392.125	55.98
392.334	70.31
392.544	125.61
392.753	115.37
392.963	37.55
393.172	88.75
393.382	117.42
393.591	129.7
393.801	111.27
394.01	176.81
394.22	74.41
394.429	135.85
394.639	58.03
394.848	127.66
395.058	92.84
395.267	62.12
395.477	162.47
395.686	121.51
395.895	127.66
396.105	154.28
396.314	107.18
396.524	58.03
396.733	113.32
396.942	178.86
397.152	205.48
397.361	117.42
397.57	135.85
397.78	170.66
397.989	107.18
398.198	182.95
398.407	94.89
398.617	80.55
398.826	51.88
399.035	117.42
399.244	119.46
399.453	154.28
399.663	146.09
399.872	195.24
400.081	144.04
400.29	174.76
400.499	119.46
400.708	166.57
400.917	139.94
401.127	172.71
401.336	113.32
401.545	154.28
401.754	119.46
401.963	127.66
402.172	162.47
402.381	70.31
402.59	111.27
402.799	117.42
403.008	131.75
403.217	78.51
403.426	135.85
403.635	72.36
403.844	195.24
404.053	187.05
404.262	176.81
404.471	195.24
404.68	170.66
404.888	170.66
405.097	187.05
405.306	113.32
405.515	232.1
405.724	178.86
405.933	266.92
406.142	209.58
406.35	223.91
406.559	182.95
406.768	154.28
406.977	236.2
407.185	195.24
407.394	324.26
407.603	264.87
407.812	228.01
408.02	236.2
408.229	244.39
408.438	223.91
408.646	228.01
408.855	328.36
409.064	320.17
409.272	309.93
409.481	361.13
409.69	332.45
409.898	361.13
410.107	334.5
410.315	404.13
410.524	344.74
410.733	285.35
410.941	432.8
411.15	424.61
411.358	529.06
411.567	404.13
411.775	475.81
411.984	506.53
412.192	457.38
412.401	547.49
412.609	580.26
412.818	690.85
413.026	576.16
413.234	610.98
413.443	694.94
413.651	621.22
413.86	727.71
414.068	692.9
414.276	797.34
414.485	787.1
414.693	783.01
414.901	828.06
415.11	920.22
415.318	848.54
415.526	801.44
415.734	1030.81
415.943	961.18
416.151	991.9
416.359	1057.43
416.567	987.8
416.776	1088.15
416.984	1178.26
417.192	1174.17
417.4	1186.46
417.608	1077.91
417.817	1266.33
418.025	1223.32
418.233	1393.3
418.441	1407.64
418.649	1370.77
418.857	1536.66
419.065	1604.24
419.273	1481.36
419.481	1647.25
419.689	1743.5
419.897	1725.07
420.105	1761.94
420.313	1944.2
420.521	2015.88
420.729	2058.89
420.937	1987.21
421.145	2083.47
421.353	2355.85
421.561	2488.96
421.769	2251.4
421.977	2554.5
422.185	2394.76
422.393	2644.61
422.601	2658.95
422.809	2818.69
423.017	2685.57
423.224	2943.61
423.432	2980.48
423.64	2978.43
423.848	3330.68
424.056	3277.43
424.263	3445.37
424.471	3373.69
424.679	3543.67
424.887	3691.12
425.094	3838.58
425.302	3926.64
425.51	4026.99
425.718	3983.98
425.925	4086.38
426.133	4436.58
426.341	4479.59
426.548	4794.98
426.756	4727.39
426.964	4909.66
427.171	5048.93
427.379	5259.87
427.586	5235.29
427.794	5311.07
428.001	5730.9
428.209	6046.29
428.417	5888.59
428.624	6476.36
428.832	6386.25
429.039	6273.61
429.247	6316.62
429.454	6900.29
429.662	7334.46
429.869	6818.37
430.076	7207.48
430.284	6994.5
430.491	7526.97
430.699	7819.83
430.906	7891.51
431.114	8002.1
431.321	8204.85
431.528	8264.24
431.736	9019.94
431.943	9333.28
432.15	8956.45
432.358	9148.96
432.565	9556.5
432.772	9613.85
432.979	10162.7
433.187	10267.15
433.394	10385.93
433.601	10746.37
433.808	11086.34
434.016	10852.87
434.223	11385.34
434.43	12069.36
434.637	11852.28
434.844	12532.2
435.052	12933.61
435.259	12792.3
435.466	12980.71
435.673	12843.49
435.88	13529.56
436.087	14352.85
436.294	14191.06
436.501	13947.35
436.708	14387.66
436.915	14873.03
437.122	15239.62
437.329	15413.7
437.537	15653.31
437.743	16046.52
437.95	16138.68
438.157	16640.43
438.364	17420.7
438.571	17375.65
438.778	17506.72
438.985	19034.5
439.192	18258.32
439.399	18993.54
439.606	18430.35
439.813	19450.24
440.02	20777.33
440.227	20296.05
440.433	20046.2
440.64	20724.08
440.847	20861.29
441.054	21201.26
441.261	22667.6
441.467	22258.01
441.674	22585.68
441.881	23376.2
442.088	23343.43
442.294	23241.03
442.501	23736.64
442.708	24326.46
442.914	25266.47
443.121	26351.9
443.328	25485.61
443.534	27412.74
443.741	26552.6
443.948	26022.17
444.154	28438.78
444.361	27658.5
444.568	28326.14
444.774	27934.98
444.981	28467.45
445.187	29288.68
445.394	30161.12
445.6	29827.3
445.807	33081.52
446.013	31367.37
446.22	32250.05
446.426	33280.17
446.633	33306.8
446.839	34261.15
447.046	33353.9
447.252	34996.37
447.459	35100.82
447.665	34789.53
447.871	36499.58
448.078	37949.54
448.284	35934.34
448.491	36939.89
448.697	38469.73
448.903	38987.86
449.11	39034.97
449.316	38561.89
449.522	38991.96
449.728	39913.55
449.935	40310.85
450.141	40380.48
450.347	41388.08
450.553	39690.32
450.76	40192.07
450.966	41416.75
451.172	41291.83
451.378	41930.79
451.584	41388.08
451.791	41938.99
451.997	41488.43
452.203	42883.1
452.409	42797.09
452.615	42162.22
452.821	41093.18
453.027	40540.22
453.233	42231.85
453.44	40642.62
453.646	40771.64
453.852	41267.25
454.058	41709.61
454.264	39868.49
454.47	41574.45
454.676	40730.69
454.882	42147.88
455.088	37802.09
455.294	38592.61
455.5	38903.9
455.705	39544.91
455.911	37654.64
456.117	37144.69
456.323	36425.85
456.529	34373.79
456.735	35831.94
456.941	35094.68
457.147	34705.56
457.352	33425.58
457.558	32932.02
457.764	33065.14
457.97	32487.61
458.176	31844.55
458.381	31781.06
458.587	29989.09
458.793	30200.03
458.999	28600.57
459.204	30882
459.41	29704.42
459.616	27869.44
459.821	27822.34
460.027	27777.28
460.233	26972.43
460.438	25772.32
460.644	26132.76
460.85	24811.82
461.055	24738.1
461.261	24451.38
461.466	22563.15
461.672	22395.22
461.878	23597.38
462.083	21963.1
462.289	21741.92
462.494	21401.96
462.7	20539.76
462.905	20054.39
463.111	20681.07
463.316	20529.52
463.522	20310.39
463.727	20400.5
463.932	20228.47
464.138	20283.77
464.343	20132.22
464.549	19708.29
464.754	20427.12
464.959	19974.52
465.165	20064.63
465.37	19272.07
465.575	18602.38
465.781	19251.59
465.986	19470.72
466.191	18846.09
466.397	18422.16
466.602	17432.99
