Data from USB4F104151__137__10-25-52-102.txt Node

Date: Wed Mar 12 10:25:52 EDT 2025
User: louis
Spectrometer: USB4F10415
Trigger mode: 4
Integration Time (sec): 3.000000E-2
Scans to average: 1
Electric dark correction enabled: true
Nonlinearity correction enabled: false
Boxcar width: 0
XAxis mode: Wavelengths
Number of Pixels in Spectrum: 3648
>>>>>Begin Spectral Data<<<<<
178.204	-92.84
178.424	-92.84
178.644	-92.84
178.864	-158.38
179.084	-33.45
179.304	-0.68
179.524	13.65
179.744	34.13
179.964	19.8
180.184	-15.02
180.404	13.65
180.624	54.61
180.844	-12.97
181.064	-41.64
181.283	-21.16
181.503	-27.31
181.723	-17.07
181.943	36.18
182.163	152.91
182.383	107.86
182.602	83.28
182.822	19.8
183.042	62.8
183.262	-27.31
183.482	-17.07
183.701	46.42
183.921	17.75
184.141	-27.31
184.361	-2.73
184.58	66.9
184.8	-29.35
185.02	-35.5
185.239	58.71
185.459	60.76
185.679	66.9
185.898	97.62
186.118	73.04
186.338	7.51
186.557	66.9
186.777	13.65
186.997	71
187.216	71
187.436	118.1
187.655	40.28
187.875	103.76
188.095	-0.68
188.314	46.42
188.534	46.42
188.753	85.33
188.973	85.33
189.192	66.9
189.412	34.13
189.631	79.19
189.851	75.09
190.07	154.96
190.29	11.61
190.509	15.7
190.729	62.8
190.948	19.8
191.168	120.15
191.387	114
191.607	3.41
191.826	-27.31
192.045	7.51
192.265	-2.73
192.484	27.99
192.704	-64.17
192.923	-12.97
193.142	101.72
193.362	46.42
193.581	75.09
193.8	-15.02
194.02	60.76
194.239	21.84
194.458	-17.07
194.678	68.95
194.897	1.37
195.116	77.14
195.335	17.75
195.555	101.72
195.774	3.41
195.993	103.76
196.212	5.46
196.432	62.8
196.651	81.24
196.87	36.18
197.089	103.76
197.308	25.94
197.528	66.9
197.747	-21.16
197.966	-19.11
198.185	58.71
198.404	34.13
198.623	54.61
198.842	81.24
199.062	75.09
199.281	91.48
199.5	7.51
199.719	-19.11
199.938	30.04
200.157	77.14
200.376	83.28
200.595	46.42
200.814	34.13
201.033	27.99
201.252	56.66
201.471	68.95
201.69	68.95
201.909	19.8
202.128	25.94
202.347	-29.35
202.566	54.61
202.785	77.14
203.004	9.56
203.223	50.52
203.442	34.13
203.661	30.04
203.879	11.61
204.098	27.99
204.317	52.56
204.536	34.13
204.755	13.65
204.974	32.08
205.193	60.76
205.411	138.58
205.63	64.85
205.849	21.84
206.068	54.61
206.287	58.71
206.505	114
206.724	71
206.943	34.13
207.162	58.71
207.381	64.85
207.599	58.71
207.818	17.75
208.037	9.56
208.255	38.23
208.474	30.04
208.693	85.33
208.911	13.65
209.13	91.48
209.349	89.43
209.567	66.9
209.786	5.46
210.005	124.24
210.223	64.85
210.442	-21.16
210.661	-19.11
210.879	21.84
211.098	-2.73
211.316	32.08
211.535	11.61
211.753	17.75
211.972	79.19
212.191	19.8
212.409	36.18
212.628	60.76
212.846	-21.16
213.065	5.46
213.283	46.42
213.502	95.57
213.72	83.28
213.938	62.8
214.157	23.89
214.375	34.13
214.594	83.28
214.812	48.47
215.031	73.04
215.249	103.76
215.467	62.8
215.686	64.85
215.904	13.65
216.122	54.61
216.341	62.8
216.559	-6.83
216.778	27.99
216.996	40.28
217.214	91.48
217.432	5.46
217.651	9.56
217.869	5.46
218.087	58.71
218.306	5.46
218.524	-15.02
218.742	52.56
218.96	73.04
219.179	25.94
219.397	-35.5
219.615	79.19
219.833	25.94
220.051	1.37
220.27	54.61
220.488	97.62
220.706	21.84
220.924	17.75
221.142	-15.02
221.36	111.96
221.578	54.61
221.796	30.04
222.015	101.72
222.233	-23.21
222.451	87.38
222.669	5.46
222.887	30.04
223.105	-15.02
223.323	-0.68
223.541	-31.4
223.759	58.71
223.977	-12.97
224.195	73.04
224.413	25.94
224.631	66.9
224.849	25.94
225.067	101.72
225.285	1.37
225.503	58.71
225.721	30.04
225.939	42.32
226.157	42.32
226.375	99.67
226.592	11.61
226.81	17.75
227.028	87.38
227.246	56.66
227.464	-55.98
227.682	79.19
227.9	-37.55
228.117	62.8
228.335	25.94
228.553	13.65
228.771	-31.4
228.989	56.66
229.206	23.89
229.424	42.32
229.642	46.42
229.86	34.13
230.077	11.61
230.295	34.13
230.513	-53.93
230.731	13.65
230.948	173.39
231.166	66.9
231.384	3.41
231.601	-8.87
231.819	111.96
232.037	34.13
232.254	-19.11
232.472	30.04
232.689	66.9
232.907	40.28
233.125	42.32
233.342	99.67
233.56	38.23
233.777	-12.97
233.995	58.71
234.213	34.13
234.43	60.76
234.648	66.9
234.865	42.32
235.083	62.8
235.3	79.19
235.518	46.42
235.735	75.09
235.953	77.14
236.17	19.8
236.388	25.94
236.605	30.04
236.822	40.28
237.04	50.52
237.257	50.52
237.475	-29.35
237.692	21.84
237.909	25.94
238.127	99.67
238.344	-4.78
238.562	91.48
238.779	95.57
238.996	-8.87
239.214	93.52
239.431	21.84
239.648	62.8
239.865	7.51
240.083	83.28
240.3	34.13
240.517	87.38
240.735	54.61
240.952	103.76
241.169	54.61
241.386	54.61
241.603	58.71
241.821	83.28
242.038	83.28
242.255	83.28
242.472	87.38
242.689	81.24
242.907	81.24
243.124	9.56
243.341	46.42
243.558	38.23
243.775	95.57
243.992	52.56
244.209	30.04
244.426	101.72
244.643	52.56
244.86	60.76
245.078	38.23
245.295	83.28
245.512	15.7
245.729	23.89
245.946	116.05
246.163	7.51
246.38	32.08
246.597	-23.21
246.814	60.76
247.031	38.23
247.248	15.7
247.464	91.48
247.681	71
247.898	91.48
248.115	32.08
248.332	46.42
248.549	-29.35
248.766	5.46
248.983	34.13
249.2	64.85
249.417	83.28
249.633	116.05
249.85	60.76
250.067	77.14
250.284	15.7
250.501	46.42
250.717	13.65
250.934	25.94
251.151	-21.16
251.368	42.32
251.585	15.7
251.801	36.18
252.018	56.66
252.235	34.13
252.451	34.13
252.668	56.66
252.885	34.13
253.102	30.04
253.318	-98.99
253.535	40.28
253.752	30.04
253.968	-35.5
254.185	-12.97
254.401	-43.69
254.618	66.9
254.835	73.04
255.051	130.39
255.268	46.42
255.484	50.52
255.701	75.09
255.917	7.51
256.134	11.61
256.351	44.37
256.567	-2.73
256.784	56.66
257	36.18
257.217	89.43
257.433	77.14
257.65	30.04
257.866	60.76
258.082	-15.02
258.299	46.42
258.515	64.85
258.732	50.52
258.948	97.62
259.165	79.19
259.381	7.51
259.597	-27.31
259.814	66.9
260.03	21.84
260.246	77.14
260.463	134.48
260.679	62.8
260.895	-60.07
261.112	44.37
261.328	1.37
261.544	-2.73
261.761	79.19
261.977	-19.11
262.193	23.89
262.409	50.52
262.626	46.42
262.842	5.46
263.058	-23.21
263.274	148.82
263.49	42.32
263.707	46.42
263.923	50.52
264.139	36.18
264.355	3.41
264.571	87.38
264.787	52.56
265.004	19.8
265.22	58.71
265.436	19.8
265.652	-31.4
265.868	54.61
266.084	13.65
266.3	46.42
266.516	27.99
266.732	42.32
266.948	83.28
267.164	42.32
267.38	40.28
267.596	-23.21
267.812	62.8
268.028	79.19
268.244	-43.69
268.46	60.76
268.676	-53.93
268.892	75.09
269.108	-10.92
269.324	1.37
269.54	50.52
269.756	62.8
269.972	9.56
270.188	62.8
270.403	1.37
270.619	54.61
270.835	30.04
271.051	75.09
271.267	-35.5
271.483	40.28
271.698	5.46
271.914	75.09
272.13	13.65
272.346	48.47
272.562	42.32
272.777	89.43
272.993	54.61
273.209	71
273.425	36.18
273.64	25.94
273.856	23.89
274.072	42.32
274.287	44.37
274.503	79.19
274.719	103.76
274.934	81.24
275.15	38.23
275.366	-2.73
275.581	27.99
275.797	71
276.012	44.37
276.228	60.76
276.444	-23.21
276.659	81.24
276.875	66.9
277.09	-6.83
277.306	36.18
277.521	91.48
277.737	21.84
277.952	-2.73
278.168	54.61
278.383	27.99
278.599	116.05
278.814	-2.73
279.03	79.19
279.245	60.76
279.461	40.28
279.676	46.42
279.892	-2.73
280.107	46.42
280.322	-45.74
280.538	32.08
280.753	46.42
280.969	46.42
281.184	91.48
281.399	73.04
281.615	62.8
281.83	21.84
282.045	-2.73
282.26	50.52
282.476	19.8
282.691	-0.68
282.906	83.28
283.122	-2.73
283.337	87.38
283.552	-17.07
283.767	54.61
283.983	21.84
284.198	-27.31
284.413	56.66
284.628	46.42
284.843	62.8
285.058	62.8
285.274	44.37
285.489	109.91
285.704	73.04
285.919	60.76
286.134	13.65
286.349	32.08
286.564	1.37
286.779	95.57
286.995	-0.68
287.21	46.42
287.425	54.61
287.64	36.18
287.855	34.13
288.07	38.23
288.285	48.47
288.5	44.37
288.715	81.24
288.93	9.56
289.145	15.7
289.36	134.48
289.575	40.28
289.79	68.95
290.004	-27.31
290.219	19.8
290.434	83.28
290.649	-8.87
290.864	93.52
291.079	46.42
291.294	50.52
291.509	73.04
291.724	21.84
291.938	48.47
292.153	19.8
292.368	62.8
292.583	66.9
292.798	44.37
293.012	81.24
293.227	1.37
293.442	52.56
293.657	114
293.871	93.52
294.086	46.42
294.301	77.14
294.516	124.24
294.73	30.04
294.945	-21.16
295.16	75.09
295.374	38.23
295.589	95.57
295.804	3.41
296.018	58.71
296.233	40.28
296.447	107.86
296.662	73.04
296.877	36.18
297.091	17.75
297.306	89.43
297.52	54.61
297.735	79.19
297.949	7.51
298.164	21.84
298.378	-19.11
298.593	21.84
298.807	38.23
299.022	27.99
299.236	66.9
299.451	32.08
299.665	-0.68
299.88	13.65
300.094	60.76
300.309	34.13
300.523	44.37
300.737	52.56
300.952	77.14
301.166	-2.73
301.381	5.46
301.595	50.52
301.809	-66.22
302.024	13.65
302.238	44.37
302.452	54.61
302.667	19.8
302.881	-17.07
303.095	3.41
303.309	103.76
303.524	62.8
303.738	-0.68
303.952	21.84
304.166	30.04
304.381	7.51
304.595	103.76
304.809	11.61
305.023	64.85
305.237	-19.11
305.452	42.32
305.666	109.91
305.88	5.46
306.094	38.23
306.308	30.04
306.522	30.04
306.736	85.33
306.95	15.7
307.164	30.04
307.379	-47.79
307.593	25.94
307.807	50.52
308.021	-4.78
308.235	148.82
308.449	-35.5
308.663	109.91
308.877	101.72
309.091	15.7
309.305	42.32
309.519	38.23
309.733	17.75
309.947	-6.83
310.161	83.28
310.374	44.37
310.588	93.52
310.802	52.56
311.016	44.37
311.23	81.24
311.444	40.28
311.658	23.89
311.872	58.71
312.085	25.94
312.299	60.76
312.513	-6.83
312.727	101.72
312.941	46.42
313.154	30.04
313.368	34.13
313.582	27.99
313.796	19.8
314.009	23.89
314.223	97.62
314.437	79.19
314.651	-45.74
314.864	46.42
315.078	-17.07
315.292	-37.55
315.505	38.23
315.719	23.89
315.933	52.56
316.146	44.37
316.36	21.84
316.573	116.05
316.787	38.23
317.001	42.32
317.214	46.42
317.428	17.75
317.641	5.46
317.855	64.85
318.068	50.52
318.282	5.46
318.495	66.9
318.709	71
318.922	21.84
319.136	60.76
319.349	81.24
319.563	21.84
319.776	87.38
319.99	52.56
320.203	93.52
320.417	52.56
320.63	32.08
320.843	-17.07
321.057	79.19
321.27	64.85
321.483	19.8
321.697	19.8
321.91	66.9
322.124	50.52
322.337	-10.92
322.55	17.75
322.763	-27.31
322.977	38.23
323.19	87.38
323.403	42.32
323.617	93.52
323.83	60.76
324.043	-29.35
324.256	56.66
324.469	60.76
324.683	-8.87
324.896	36.18
325.109	42.32
325.322	11.61
325.535	50.52
325.748	30.04
325.962	95.57
326.175	-6.83
326.388	87.38
326.601	109.91
326.814	15.7
327.027	1.37
327.24	40.28
327.453	17.75
327.666	99.67
327.879	5.46
328.092	62.8
328.305	21.84
328.518	38.23
328.731	38.23
328.944	54.61
329.157	5.46
329.37	3.41
329.583	97.62
329.796	23.89
330.009	30.04
330.222	124.24
330.435	46.42
330.648	122.2
330.861	44.37
331.073	38.23
331.286	60.76
331.499	30.04
331.712	32.08
331.925	38.23
332.138	-12.97
332.35	32.08
332.563	97.62
332.776	3.41
332.989	54.61
333.202	23.89
333.414	66.9
333.627	11.61
333.84	56.66
334.053	27.99
334.265	62.8
334.478	19.8
334.691	1.37
334.903	9.56
335.116	60.76
335.329	1.37
335.541	50.52
335.754	40.28
335.966	15.7
336.179	34.13
336.392	13.65
336.604	38.23
336.817	81.24
337.029	9.56
337.242	-4.78
337.454	83.28
337.667	50.52
337.88	91.48
338.092	19.8
338.305	40.28
338.517	79.19
338.729	-8.87
338.942	134.48
339.154	85.33
339.367	17.75
339.579	71
339.792	77.14
340.004	71
340.217	68.95
340.429	54.61
340.641	23.89
340.854	75.09
341.066	38.23
341.278	60.76
341.491	13.65
341.703	97.62
341.915	38.23
342.128	71
342.34	-25.26
342.552	89.43
342.764	-53.93
342.977	48.47
343.189	130.39
343.401	40.28
343.613	-17.07
343.826	93.52
344.038	-19.11
344.25	77.14
344.462	3.41
344.674	13.65
344.886	-6.83
345.099	-2.73
345.311	91.48
345.523	73.04
345.735	-8.87
345.947	17.75
346.159	27.99
346.371	-8.87
346.583	77.14
346.795	163.15
347.007	46.42
347.219	-12.97
347.431	87.38
347.643	116.05
347.855	79.19
348.067	38.23
348.279	19.8
348.491	48.47
348.703	50.52
348.915	34.13
349.127	30.04
349.339	21.84
349.551	60.76
349.763	107.86
349.975	91.48
350.187	120.15
350.399	17.75
350.61	66.9
350.822	103.76
351.034	-15.02
351.246	54.61
351.458	42.32
351.669	54.61
351.881	64.85
352.093	99.67
352.305	85.33
352.517	58.71
352.728	124.24
352.94	1.37
353.152	19.8
353.363	-4.78
353.575	124.24
353.787	54.61
353.999	48.47
354.21	99.67
354.422	3.41
354.633	105.81
354.845	75.09
355.057	-27.31
355.268	77.14
355.48	-27.31
355.692	21.84
355.903	97.62
356.115	122.2
356.326	-39.59
356.538	79.19
356.749	60.76
356.961	-12.97
357.172	75.09
357.384	7.51
357.595	95.57
357.807	17.75
358.018	64.85
358.23	56.66
358.441	114
358.653	34.13
358.864	75.09
359.075	48.47
359.287	-15.02
359.498	38.23
359.709	66.9
359.921	95.57
360.132	44.37
360.344	62.8
360.555	-23.21
360.766	75.09
360.977	25.94
361.189	71
361.4	30.04
361.611	101.72
361.823	-8.87
362.034	30.04
362.245	42.32
362.456	68.95
362.667	54.61
362.879	38.23
363.09	87.38
363.301	54.61
363.512	-53.93
363.723	17.75
363.935	-8.87
364.146	56.66
364.357	42.32
364.568	48.47
364.779	21.84
364.99	27.99
365.201	52.56
365.412	44.37
365.623	9.56
365.834	42.32
366.045	44.37
366.256	62.8
366.467	32.08
366.678	19.8
366.889	71
367.1	34.13
367.311	36.18
367.522	62.8
367.733	60.76
367.944	-6.83
368.155	118.1
368.366	13.65
368.577	36.18
368.788	68.95
368.999	62.8
369.209	66.9
369.42	128.34
369.631	154.96
369.842	71
370.053	73.04
370.264	62.8
370.474	27.99
370.685	23.89
370.896	62.8
371.107	103.76
371.317	40.28
371.528	7.51
371.739	11.61
371.95	17.75
372.16	-2.73
372.371	25.94
372.582	101.72
372.792	54.61
373.003	34.13
373.214	-2.73
373.424	173.39
373.635	54.61
373.846	68.95
374.056	42.32
374.267	99.67
374.477	-0.68
374.688	27.99
374.898	81.24
375.109	62.8
375.319	30.04
375.53	50.52
375.74	81.24
375.951	17.75
376.161	111.96
376.372	58.71
376.582	19.8
376.793	-4.78
377.003	7.51
377.214	54.61
377.424	138.58
377.635	-37.55
377.845	71
378.055	140.63
378.266	54.61
378.476	21.84
378.686	50.52
378.897	64.85
379.107	66.9
379.317	73.04
379.528	58.71
379.738	77.14
379.948	27.99
380.158	62.8
380.369	68.95
380.579	54.61
380.789	25.94
380.999	68.95
381.21	34.13
381.42	56.66
381.63	87.38
381.84	87.38
382.05	73.04
382.261	95.57
382.471	83.28
382.681	81.24
382.891	116.05
383.101	7.51
383.311	58.71
383.521	-8.87
383.731	36.18
383.941	56.66
384.151	9.56
384.361	62.8
384.571	64.85
384.781	130.39
384.991	89.43
385.201	134.48
385.411	71
385.621	93.52
385.831	109.91
386.041	66.9
386.251	21.84
386.461	77.14
386.671	19.8
386.881	116.05
387.091	46.42
387.301	71
387.511	46.42
387.72	111.96
387.93	25.94
388.14	3.41
388.35	93.52
388.56	40.28
388.769	91.48
388.979	71
389.189	44.37
389.399	107.86
389.609	60.76
389.818	120.15
390.028	34.13
390.238	54.61
390.447	-4.78
390.657	173.39
390.867	58.71
391.076	13.65
391.286	71
391.496	34.13
391.705	40.28
391.915	52.56
392.125	111.96
392.334	54.61
392.544	150.87
392.753	95.57
392.963	71
393.172	42.32
393.382	15.7
393.591	116.05
393.801	58.71
394.01	157.01
394.22	83.28
394.429	75.09
394.639	103.76
394.848	77.14
395.058	185.68
395.267	109.91
395.477	52.56
395.686	52.56
395.895	165.2
396.105	54.61
396.314	71
396.524	111.96
396.733	126.29
396.942	152.91
397.152	83.28
397.361	56.66
397.57	79.19
397.78	7.51
397.989	99.67
398.198	169.3
398.407	79.19
398.617	87.38
398.826	46.42
399.035	111.96
399.244	95.57
399.453	111.96
399.663	134.48
399.872	71
400.081	99.67
400.29	118.1
400.499	-51.88
400.708	111.96
400.917	54.61
401.127	111.96
401.336	169.3
401.545	290.13
401.754	206.16
401.963	95.57
402.172	66.9
402.381	93.52
402.59	107.86
402.799	109.91
403.008	161.11
403.217	118.1
403.426	124.24
403.635	56.66
403.844	132.44
404.053	1.37
404.262	62.8
404.471	212.31
404.68	128.34
404.888	116.05
405.097	62.8
405.306	120.15
405.515	122.2
405.724	204.11
405.933	138.58
406.142	230.74
406.35	138.58
406.559	79.19
406.768	79.19
406.977	240.98
407.185	230.74
407.394	247.12
407.603	177.49
407.812	181.59
408.02	269.65
408.229	214.35
408.438	306.51
408.646	177.49
408.855	208.21
409.064	312.66
409.272	212.31
409.481	271.7
409.69	177.49
409.898	230.74
410.107	234.83
410.315	273.75
410.524	267.6
410.733	251.22
410.941	228.69
411.15	337.23
411.358	306.51
411.567	324.94
411.775	324.94
411.984	296.27
412.192	413.01
412.401	335.18
412.609	363.86
412.818	468.3
413.026	357.71
413.234	435.53
413.443	443.73
413.651	402.77
413.86	503.12
414.068	546.12
414.276	542.03
414.485	552.27
414.693	533.84
414.901	714.06
415.11	652.62
415.318	574.8
415.526	609.61
415.734	562.51
415.943	687.43
416.151	673.1
416.359	707.91
416.567	744.78
416.776	767.31
416.984	781.64
417.192	841.03
417.4	828.74
417.608	757.07
417.817	765.26
418.025	898.38
418.233	949.57
418.441	890.18
418.649	957.77
418.857	1027.4
419.065	1195.33
419.273	1166.66
419.481	1131.84
419.689	1164.61
419.897	1193.28
420.105	1183.04
420.313	1373.5
420.521	1363.26
420.729	1355.07
420.937	1443.14
421.145	1443.14
421.353	1436.99
421.561	1600.83
421.769	1619.26
421.977	1633.6
422.185	1672.51
422.393	1807.67
422.601	1848.63
422.809	1828.15
423.017	1879.35
423.224	1942.84
423.432	2041.14
423.64	2080.05
423.848	2137.4
424.056	2209.08
424.263	2424.11
424.471	2393.39
424.679	2362.67
424.887	2467.12
425.094	2587.95
425.302	2655.53
425.51	2710.83
425.718	2907.43
425.925	2886.95
426.133	3036.45
426.341	3007.78
426.548	3169.57
426.756	3179.81
426.964	3194.15
427.171	3468.58
427.379	3587.36
427.586	3618.08
427.794	3671.33
428.001	3935.51
428.209	4023.58
428.417	4031.77
428.624	4363.54
428.832	4312.34
429.039	4304.15
429.247	4238.61
429.454	4658.45
429.662	4916.49
429.869	4615.44
430.076	4941.07
430.284	4898.06
430.491	5045.51
430.699	5463.3
430.906	5315.84
431.114	5481.73
431.321	5481.73
431.528	5715.2
431.736	6008.06
431.943	6331.64
432.15	6192.37
432.358	6077.69
432.565	6536.43
432.772	6587.63
432.979	6900.97
433.187	6993.13
433.394	7036.14
433.601	7292.13
433.808	7486.69
434.016	7519.46
434.223	7806.17
434.43	8156.38
434.637	7961.82
434.844	8477.91
435.052	8834.25
435.259	8787.15
435.466	8815.82
435.673	8738
435.88	9331.91
436.087	9618.63
436.294	9880.77
436.501	9503.94
436.708	9776.32
436.915	9761.98
437.122	10327.22
437.329	10339.51
437.537	10808.5
437.743	10955.95
437.95	10876.08
438.157	11431.08
438.364	11822.24
438.571	11682.98
438.778	11756.71
438.985	13196.43
439.192	12450.97
439.399	13087.89
439.606	12549.27
439.813	13259.91
440.02	13905.03
440.227	13591.69
440.433	13759.62
440.64	13986.94
440.847	14226.56
441.054	14177.41
441.261	15215.73
441.467	15154.29
441.674	15627.37
441.881	16018.53
442.088	16057.44
442.294	15680.61
442.501	16370.78
442.708	16442.46
442.914	17292.37
443.121	17867.84
443.328	17570.89
443.534	18467.9
443.741	17847.36
443.948	17947.72
444.154	19156.02
444.361	18979.89
444.568	19153.97
444.774	19166.26
444.981	19280.94
445.187	19647.53
445.394	20796.44
445.6	20542.49
445.807	22469.63
446.013	21433.36
446.22	21840.9
446.426	22676.48
446.633	22963.19
446.839	23604.21
447.046	22676.48
447.252	24019.94
447.459	23903.21
447.665	23829.48
447.871	24841.18
448.078	25787.34
448.284	24521.7
448.491	25412.56
448.697	26549.18
448.903	26698.69
449.11	27175.86
449.316	26215.37
449.522	26817.47
449.728	27773.87
449.935	27470.77
450.141	27567.02
450.347	28427.17
450.553	27331.51
450.76	27648.94
450.966	28535.71
451.172	28384.16
451.378	28707.74
451.584	28375.97
451.791	29002.65
451.997	28859.29
452.203	29414.29
452.409	29041.56
452.615	29365.14
452.821	27874.22
453.027	27804.59
453.233	29483.92
453.44	27894.7
453.646	28201.89
453.852	28400.55
454.058	29094.81
454.264	27804.59
454.47	28388.26
454.676	27941.8
454.882	28777.37
455.088	26373.06
455.294	26606.53
455.5	26952.63
455.705	27433.91
455.911	26172.36
456.117	25617.36
456.323	25437.14
456.529	23802.86
456.735	25019.35
456.941	24226.79
457.147	23942.12
457.352	23110.64
457.558	22739.96
457.764	22619.13
457.97	22590.46
458.176	21830.66
458.381	22000.65
458.587	21019.67
458.793	20915.22
458.999	19616.81
459.204	21046.29
459.41	20812.82
459.616	19428.4
459.821	19182.64
460.027	19147.83
460.233	18871.35
460.438	17833.03
460.644	18121.79
460.85	17331.28
461.055	16911.44
461.261	16938.07
461.466	15715.43
461.672	15598.7
461.878	16471.13
462.083	15447.15
462.289	14969.97
462.494	15029.36
462.7	14343.29
462.905	13831.3
463.111	14488.7
463.316	14197.88
463.522	14029.95
463.727	14150.78
463.932	14142.59
464.138	13921.41
464.343	14013.57
464.549	13427.85
464.754	14199.93
464.959	14060.67
465.165	13874.31
465.37	13300.87
465.575	12979.34
465.781	13272.2
465.986	13728.9
466.191	13044.88
466.397	12952.72
466.602	12278.94
466.807	12590.23
467.012	12530.84
467.218	12661.91
467.423	12481.69
467.628	12582.04
467.833	13079.69
468.038	12416.15
468.244	12072.09
468.449	12618.9
468.654	12203.16
468.859	12235.93
