Data from USB4F104151__125__10-25-17-164.txt Node

Date: Wed Mar 12 10:25:17 EDT 2025
User: louis
Spectrometer: USB4F10415
Trigger mode: 4
Integration Time (sec): 3.000000E-2
Scans to average: 1
Electric dark correction enabled: true
Nonlinearity correction enabled: false
Boxcar width: 0
XAxis mode: Wavelengths
Number of Pixels in Spectrum: 3648
>>>>>Begin Spectral Data<<<<<
178.204	-132.44
178.424	-132.44
178.644	-132.44
178.864	-136.53
179.084	-44.37
179.304	-11.61
179.524	12.97
179.744	-40.28
179.964	58.03
180.184	-32.08
180.404	33.45
180.624	53.93
180.844	-60.76
181.064	-101.72
181.283	8.87
181.503	33.45
181.723	45.74
181.943	0.68
182.163	76.46
182.383	29.35
182.602	6.83
182.822	68.27
183.042	33.45
183.262	49.83
183.482	51.88
183.701	39.59
183.921	6.83
184.141	35.5
184.361	6.83
184.58	-7.51
184.8	62.12
185.02	47.79
185.239	-1.37
185.459	25.26
185.679	31.4
185.898	62.12
186.118	6.83
186.338	60.07
186.557	92.84
186.777	45.74
186.997	39.59
187.216	8.87
187.436	49.83
187.655	2.73
187.875	27.31
188.095	107.18
188.314	51.88
188.534	60.07
188.753	-19.8
188.973	47.79
189.192	74.41
189.412	4.78
189.631	25.26
189.851	70.31
190.07	27.31
190.29	47.79
190.509	68.27
190.729	0.68
190.948	29.35
191.168	86.7
191.387	15.02
191.607	12.97
191.826	-23.89
192.045	98.99
192.265	76.46
192.484	37.55
192.704	21.16
192.923	-11.61
193.142	4.78
193.362	29.35
193.581	84.65
193.8	27.31
194.02	64.17
194.239	29.35
194.458	80.55
194.678	39.59
194.897	-40.28
195.116	29.35
195.335	55.98
195.555	47.79
195.774	-3.41
195.993	12.97
196.212	51.88
196.432	-54.61
196.651	23.21
196.87	47.79
197.089	-3.41
197.308	35.5
197.528	60.07
197.747	15.02
197.966	39.59
198.185	58.03
198.404	41.64
198.623	8.87
198.842	74.41
199.062	66.22
199.281	62.12
199.5	2.73
199.719	-34.13
199.938	47.79
200.157	53.93
200.376	96.94
200.595	148.14
200.814	45.74
201.033	53.93
201.252	6.83
201.471	111.27
201.69	94.89
201.909	17.07
202.128	37.55
202.347	2.73
202.566	-44.37
202.785	-7.51
203.004	-13.65
203.223	66.22
203.442	-40.28
203.661	8.87
203.879	92.84
204.098	84.65
204.317	27.31
204.536	64.17
204.755	51.88
204.974	45.74
205.193	-1.37
205.411	70.31
205.63	68.27
205.849	2.73
206.068	49.83
206.287	43.69
206.505	84.65
206.724	60.07
206.943	45.74
207.162	-11.61
207.381	86.7
207.599	-7.51
207.818	-9.56
208.037	58.03
208.255	-9.56
208.474	86.7
208.693	80.55
208.911	43.69
209.13	6.83
209.349	37.55
209.567	21.16
209.786	62.12
210.005	-21.84
210.223	80.55
210.442	-38.23
210.661	109.23
210.879	-44.37
211.098	-23.89
211.316	84.65
211.535	43.69
211.753	37.55
211.972	72.36
212.191	27.31
212.409	47.79
212.628	66.22
212.846	-7.51
213.065	-5.46
213.283	53.93
213.502	6.83
213.72	25.26
213.938	86.7
214.157	-25.94
214.375	55.98
214.594	70.31
214.812	43.69
215.031	53.93
215.249	-7.51
215.467	21.16
215.686	55.98
215.904	60.07
216.122	70.31
216.341	58.03
216.559	137.9
216.778	6.83
216.996	27.31
217.214	8.87
217.432	29.35
217.651	43.69
217.869	-13.65
218.087	70.31
218.306	-5.46
218.524	27.31
218.742	23.21
218.96	127.66
219.179	35.5
219.397	47.79
219.615	45.74
219.833	29.35
220.051	-32.08
220.27	78.51
220.488	80.55
220.706	21.16
220.924	23.21
221.142	-7.51
221.36	27.31
221.578	90.79
221.796	0.68
222.015	21.16
222.233	82.6
222.451	80.55
222.669	55.98
222.887	109.23
223.105	10.92
223.323	21.16
223.541	51.88
223.759	-7.51
223.977	43.69
224.195	31.4
224.413	96.94
224.631	72.36
224.849	-3.41
225.067	90.79
225.285	53.93
225.503	90.79
225.721	21.16
225.939	-23.89
226.157	66.22
226.375	45.74
226.592	-38.23
226.81	19.11
227.028	90.79
227.246	135.85
227.464	49.83
227.682	68.27
227.9	51.88
228.117	4.78
228.335	70.31
228.553	35.5
228.771	37.55
228.989	43.69
229.206	21.16
229.424	72.36
229.642	60.07
229.86	4.78
230.077	35.5
230.295	10.92
230.513	62.12
230.731	88.75
230.948	103.08
231.166	31.4
231.384	-7.51
231.601	12.97
231.819	94.89
232.037	43.69
232.254	-48.47
232.472	74.41
232.689	2.73
232.907	127.66
233.125	27.31
233.342	19.11
233.56	-13.65
233.777	-3.41
233.995	49.83
234.213	60.07
234.43	131.75
234.648	-17.75
234.865	53.93
235.083	94.89
235.3	33.45
235.518	0.68
235.735	152.23
235.953	74.41
236.17	39.59
236.388	-15.7
236.605	74.41
236.822	84.65
237.04	37.55
237.257	58.03
237.475	62.12
237.692	49.83
237.909	49.83
238.127	6.83
238.344	70.31
238.562	86.7
238.779	80.55
238.996	23.21
239.214	60.07
239.431	64.17
239.648	47.79
239.865	74.41
240.083	60.07
240.3	4.78
240.517	-25.94
240.735	-48.47
240.952	39.59
241.169	58.03
241.386	86.7
241.603	27.31
241.821	-13.65
242.038	92.84
242.255	70.31
242.472	-11.61
242.689	58.03
242.907	-5.46
243.124	72.36
243.341	29.35
243.558	-34.13
243.775	39.59
243.992	29.35
244.209	31.4
244.426	123.56
244.643	62.12
244.86	117.42
245.078	41.64
245.295	62.12
245.512	12.97
245.729	82.6
245.946	84.65
246.163	66.22
246.38	-60.76
246.597	8.87
246.814	4.78
247.031	10.92
247.248	-17.75
247.464	76.46
247.681	33.45
247.898	29.35
248.115	31.4
248.332	-5.46
248.549	47.79
248.766	70.31
248.983	121.51
249.2	-21.84
249.417	55.98
249.633	6.83
249.85	58.03
250.067	-7.51
250.284	31.4
250.501	-11.61
250.717	101.03
250.934	21.16
251.151	66.22
251.368	8.87
251.585	23.21
251.801	17.07
252.018	-36.18
252.235	27.31
252.451	60.07
252.668	43.69
252.885	78.51
253.102	45.74
253.318	86.7
253.535	82.6
253.752	-32.08
253.968	35.5
254.185	0.68
254.401	53.93
254.618	55.98
254.835	-30.04
255.051	74.41
255.268	-1.37
255.484	-36.18
255.701	53.93
255.917	21.16
256.134	78.51
256.351	74.41
256.567	-19.8
256.784	12.97
257	-19.8
257.217	111.27
257.433	29.35
257.65	-9.56
257.866	10.92
258.082	-1.37
258.299	4.78
258.515	78.51
258.732	15.02
258.948	39.59
259.165	0.68
259.381	31.4
259.597	43.69
259.814	21.16
260.03	0.68
260.246	35.5
260.463	19.11
260.679	66.22
260.895	29.35
261.112	-17.75
261.328	60.07
261.544	88.75
261.761	103.08
261.977	2.73
262.193	-60.76
262.409	37.55
262.626	6.83
262.842	39.59
263.058	-27.99
263.274	76.46
263.49	55.98
263.707	53.93
263.923	21.16
264.139	17.07
264.355	41.64
264.571	152.23
264.787	17.07
265.004	41.64
265.22	58.03
265.436	72.36
265.652	35.5
265.868	60.07
266.084	29.35
266.3	12.97
266.516	39.59
266.732	29.35
266.948	29.35
267.164	78.51
267.38	25.26
267.596	70.31
267.812	111.27
268.028	41.64
268.244	60.07
268.46	94.89
268.676	58.03
268.892	-17.75
269.108	74.41
269.324	2.73
269.54	68.27
269.756	84.65
269.972	-15.7
270.188	62.12
270.403	21.16
270.619	49.83
270.835	101.03
271.051	27.31
271.267	-48.47
271.483	-25.94
271.698	19.11
271.914	17.07
272.13	98.99
272.346	-1.37
272.562	15.02
272.777	35.5
272.993	43.69
273.209	15.02
273.425	70.31
273.64	43.69
273.856	101.03
274.072	-44.37
274.287	39.59
274.503	90.79
274.719	47.79
274.934	35.5
275.15	-68.95
275.366	98.99
275.581	-27.99
275.797	41.64
276.012	-1.37
276.228	33.45
276.444	84.65
276.659	125.61
276.875	-5.46
277.09	-1.37
277.306	72.36
277.521	80.55
277.737	70.31
277.952	45.74
278.168	76.46
278.383	27.31
278.599	-42.32
278.814	94.89
279.03	39.59
279.245	21.16
279.461	123.56
279.676	8.87
279.892	8.87
280.107	15.02
280.322	6.83
280.538	33.45
280.753	45.74
280.969	70.31
281.184	29.35
281.399	94.89
281.615	12.97
281.83	76.46
282.045	12.97
282.26	39.59
282.476	-36.18
282.691	37.55
282.906	72.36
283.122	84.65
283.337	-19.8
283.552	39.59
283.767	37.55
283.983	41.64
284.198	-87.38
284.413	117.42
284.628	62.12
284.843	70.31
285.058	53.93
285.274	49.83
285.489	10.92
285.704	33.45
285.919	47.79
286.134	68.27
286.349	60.07
286.564	55.98
286.779	43.69
286.995	49.83
287.21	-9.56
287.425	60.07
287.64	82.6
287.855	37.55
288.07	33.45
288.285	51.88
288.5	41.64
288.715	80.55
288.93	-23.89
289.145	8.87
289.36	82.6
289.575	84.65
289.79	21.16
290.004	66.22
290.219	45.74
290.434	45.74
290.649	47.79
290.864	-54.61
291.079	84.65
291.294	0.68
291.509	70.31
291.724	55.98
291.938	0.68
292.153	86.7
292.368	-42.32
292.583	51.88
292.798	74.41
293.012	115.37
293.227	21.16
293.442	0.68
293.657	94.89
293.871	80.55
294.086	53.93
294.301	107.18
294.516	17.07
294.73	47.79
294.945	43.69
295.16	19.11
295.374	96.94
295.589	68.27
295.804	23.21
296.018	64.17
296.233	37.55
296.447	-21.84
296.662	-11.61
296.877	37.55
297.091	51.88
297.306	33.45
297.52	105.13
297.735	15.02
297.949	-3.41
298.164	27.31
298.378	21.16
298.593	4.78
298.807	2.73
299.022	-11.61
299.236	53.93
299.451	19.11
299.665	70.31
299.88	66.22
300.094	80.55
300.309	35.5
300.523	107.18
300.737	17.07
300.952	76.46
301.166	-1.37
301.381	-30.04
301.595	4.78
301.809	72.36
302.024	37.55
302.238	12.97
302.452	39.59
302.667	2.73
302.881	84.65
303.095	45.74
303.309	0.68
303.524	90.79
303.738	37.55
303.952	2.73
304.166	41.64
304.381	-64.85
304.595	127.66
304.809	15.02
305.023	-1.37
305.237	-21.84
305.452	-36.18
305.666	66.22
305.88	58.03
306.094	113.32
306.308	88.75
306.522	29.35
306.736	53.93
306.95	43.69
307.164	60.07
307.379	33.45
307.593	103.08
307.807	45.74
308.021	35.5
308.235	68.27
308.449	39.59
308.663	-46.42
308.877	60.07
309.091	53.93
309.305	25.26
309.519	60.07
309.733	92.84
309.947	12.97
310.161	103.08
310.374	-3.41
310.588	76.46
310.802	19.11
311.016	35.5
311.23	-21.84
311.444	49.83
311.658	27.31
311.872	45.74
312.085	43.69
312.299	53.93
312.513	53.93
312.727	105.13
312.941	72.36
313.154	10.92
313.368	125.61
313.582	43.69
313.796	23.21
314.009	33.45
314.223	129.7
314.437	98.99
314.651	35.5
314.864	76.46
315.078	35.5
315.292	-13.65
315.505	62.12
315.719	98.99
315.933	27.31
316.146	-40.28
316.36	15.02
316.573	74.41
316.787	45.74
317.001	76.46
317.214	-15.7
317.428	70.31
317.641	8.87
317.855	88.75
318.068	74.41
318.282	10.92
318.495	12.97
318.709	33.45
318.922	64.17
319.136	2.73
319.349	168.62
319.563	45.74
319.776	49.83
319.99	-5.46
320.203	88.75
320.417	74.41
320.63	-68.95
320.843	21.16
321.057	64.17
321.27	35.5
321.483	66.22
321.697	133.8
321.91	33.45
322.124	105.13
322.337	29.35
322.55	35.5
322.763	37.55
322.977	41.64
323.19	94.89
323.403	107.18
323.617	-25.94
323.83	47.79
324.043	109.23
324.256	117.42
324.469	-15.7
324.683	58.03
324.896	49.83
325.109	88.75
325.322	-17.75
325.535	51.88
325.748	68.27
325.962	49.83
326.175	43.69
326.388	90.79
326.601	107.18
326.814	60.07
327.027	27.31
327.24	41.64
327.453	10.92
327.666	88.75
327.879	23.21
328.092	49.83
328.305	43.69
328.518	58.03
328.731	15.02
328.944	92.84
329.157	-21.84
329.37	117.42
329.583	43.69
329.796	94.89
330.009	-17.75
330.222	15.02
330.435	45.74
330.648	86.7
330.861	-11.61
331.073	45.74
331.286	133.8
331.499	66.22
331.712	98.99
331.925	84.65
332.138	-1.37
332.35	66.22
332.563	23.21
332.776	107.18
332.989	-19.8
333.202	12.97
333.414	4.78
333.627	45.74
333.84	-11.61
334.053	12.97
334.265	10.92
334.478	113.32
334.691	21.16
334.903	4.78
335.116	49.83
335.329	33.45
335.541	60.07
335.754	107.18
335.966	29.35
336.179	84.65
336.392	27.31
336.604	21.16
336.817	60.07
337.029	68.27
337.242	33.45
337.454	66.22
337.667	35.5
337.88	80.55
338.092	31.4
338.305	45.74
338.517	27.31
338.729	103.08
338.942	-17.75
339.154	25.26
339.367	-36.18
339.579	53.93
339.792	4.78
340.004	103.08
340.217	127.66
340.429	115.37
340.641	58.03
340.854	68.27
341.066	53.93
341.278	92.84
341.491	101.03
341.703	66.22
341.915	10.92
342.128	10.92
342.34	35.5
342.552	60.07
342.764	53.93
342.977	8.87
343.189	121.51
343.401	70.31
343.613	-5.46
343.826	66.22
344.038	-1.37
344.25	58.03
344.462	23.21
344.674	49.83
344.886	33.45
345.099	101.03
345.311	92.84
345.523	37.55
345.735	-3.41
345.947	148.14
346.159	53.93
346.371	45.74
346.583	29.35
346.795	103.08
347.007	10.92
347.219	53.93
347.431	49.83
347.643	45.74
347.855	53.93
348.067	109.23
348.279	47.79
348.491	27.31
348.703	-25.94
348.915	76.46
349.127	35.5
349.339	39.59
349.551	-23.89
349.763	29.35
349.975	4.78
350.187	35.5
350.399	29.35
350.61	111.27
350.822	41.64
351.034	49.83
351.246	33.45
351.458	-3.41
351.669	105.13
351.881	-7.51
352.093	178.86
352.305	98.99
352.517	92.84
352.728	131.75
352.94	12.97
353.152	105.13
353.363	19.11
353.575	39.59
353.787	103.08
353.999	60.07
354.21	107.18
354.422	21.16
354.633	27.31
354.845	78.51
355.057	60.07
355.268	27.31
355.48	96.94
355.692	12.97
355.903	39.59
356.115	92.84
356.326	17.07
356.538	107.18
356.749	98.99
356.961	68.27
357.172	96.94
357.384	21.16
357.595	25.26
357.807	117.42
358.018	4.78
358.23	35.5
358.441	150.18
358.653	90.79
358.864	82.6
359.075	101.03
359.287	103.08
359.498	103.08
359.709	86.7
359.921	119.46
360.132	70.31
360.344	35.5
360.555	68.27
360.766	84.65
360.977	154.28
361.189	109.23
361.4	43.69
361.611	94.89
361.823	49.83
362.034	80.55
362.245	29.35
362.456	66.22
362.667	51.88
362.879	17.07
363.09	64.17
363.301	4.78
363.512	78.51
363.723	6.83
363.935	-50.52
364.146	90.79
364.357	45.74
364.568	62.12
364.779	39.59
364.99	12.97
365.201	2.73
365.412	88.75
365.623	37.55
365.834	58.03
366.045	92.84
366.256	84.65
366.467	105.13
366.678	27.31
366.889	60.07
367.1	62.12
367.311	62.12
367.522	53.93
367.733	90.79
367.944	90.79
368.155	10.92
368.366	123.56
368.577	55.98
368.788	60.07
368.999	-3.41
369.209	41.64
369.42	129.7
369.631	94.89
369.842	82.6
370.053	-13.65
370.264	98.99
370.474	-36.18
370.685	70.31
370.896	37.55
371.107	107.18
371.317	76.46
371.528	70.31
371.739	82.6
371.95	72.36
372.16	39.59
372.371	0.68
372.582	62.12
372.792	8.87
373.003	96.94
373.214	119.46
373.424	94.89
373.635	8.87
373.846	62.12
374.056	10.92
374.267	111.27
374.477	60.07
374.688	51.88
374.898	60.07
375.109	31.4
375.319	29.35
375.53	74.41
375.74	60.07
375.951	45.74
376.161	43.69
376.372	62.12
376.582	53.93
376.793	111.27
377.003	43.69
377.214	70.31
377.424	60.07
377.635	78.51
377.845	45.74
378.055	60.07
378.266	68.27
378.476	64.17
378.686	62.12
378.897	90.79
379.107	25.26
379.317	109.23
379.528	82.6
379.738	70.31
379.948	60.07
380.158	92.84
380.369	84.65
380.579	127.66
380.789	84.65
380.999	90.79
381.21	109.23
381.42	55.98
381.63	45.74
381.84	84.65
382.05	62.12
382.261	94.89
382.471	80.55
382.681	96.94
382.891	103.08
383.101	70.31
383.311	-11.61
383.521	58.03
383.731	90.79
383.941	12.97
384.151	60.07
384.361	-11.61
384.571	-11.61
384.781	127.66
384.991	70.31
385.201	141.99
385.411	74.41
385.621	49.83
385.831	88.75
386.041	41.64
386.251	25.26
386.461	82.6
386.671	62.12
386.881	66.22
387.091	-11.61
387.301	27.31
387.511	70.31
387.72	64.17
387.93	109.23
388.14	25.26
388.35	37.55
388.56	158.38
388.769	113.32
388.979	37.55
389.189	39.59
389.399	98.99
389.609	74.41
389.818	150.18
390.028	53.93
390.238	33.45
390.447	92.84
390.657	86.7
390.867	94.89
391.076	33.45
391.286	58.03
391.496	127.66
391.705	66.22
391.915	62.12
392.125	64.17
392.334	31.4
392.544	94.89
392.753	164.52
392.963	115.37
393.172	51.88
393.382	68.27
393.591	70.31
393.801	10.92
394.01	103.08
394.22	98.99
394.429	35.5
394.639	64.17
394.848	117.42
395.058	119.46
395.267	92.84
395.477	101.03
395.686	94.89
395.895	152.23
396.105	170.66
396.314	82.6
396.524	193.19
396.733	72.36
396.942	94.89
397.152	92.84
397.361	92.84
397.57	86.7
397.78	88.75
397.989	172.71
398.198	139.94
398.407	135.85
398.617	70.31
398.826	125.61
399.035	82.6
399.244	62.12
399.453	168.62
399.663	148.14
399.872	144.04
400.081	96.94
400.29	43.69
400.499	125.61
400.708	115.37
400.917	185
401.127	182.95
401.336	103.08
401.545	150.18
401.754	72.36
401.963	164.52
402.172	47.79
402.381	131.75
402.59	113.32
402.799	92.84
403.008	133.8
403.217	146.09
403.426	113.32
403.635	96.94
403.844	176.81
404.053	82.6
404.262	152.23
404.471	201.38
404.68	162.47
404.888	225.96
405.097	127.66
405.306	117.42
405.515	189.1
405.724	148.14
405.933	139.94
406.142	176.81
406.35	209.58
406.559	189.1
406.768	205.48
406.977	185
407.185	256.68
407.394	221.86
407.603	213.67
407.812	275.11
408.02	350.89
408.229	228.01
408.438	199.34
408.646	287.4
408.855	291.49
409.064	279.21
409.272	281.25
409.481	383.65
409.69	326.31
409.898	332.45
410.107	348.84
410.315	307.88
410.524	397.99
410.733	332.45
410.941	426.66
411.15	389.8
411.358	357.03
411.567	418.47
411.775	400.04
411.984	402.08
412.192	453.28
412.401	430.76
412.609	516.77
412.818	543.39
413.026	531.11
413.234	477.86
413.443	549.54
413.651	457.38
413.86	602.79
414.068	658.08
414.276	676.51
414.485	709.28
414.693	664.22
414.901	625.31
415.11	776.86
415.318	735.9
415.526	696.99
415.734	766.62
415.943	768.67
416.151	856.73
416.359	895.65
416.567	914.08
416.776	1026.72
416.984	1045.15
417.192	1012.38
417.4	1043.1
417.608	1079.96
417.817	1184.41
418.025	1086.11
418.233	1274.52
418.441	1151.64
418.649	1225.37
418.857	1401.49
419.065	1319.57
419.273	1335.96
419.481	1485.46
419.689	1575.57
419.897	1669.78
420.105	1557.14
420.313	1626.77
420.521	1716.88
420.729	1901.2
420.937	1757.84
421.145	1761.94
421.353	2026.12
421.561	2056.84
421.769	2071.18
421.977	2099.85
422.185	2093.71
422.393	2345.61
422.601	2493.06
422.809	2300.55
423.017	2364.04
423.224	2468.49
423.432	2577.03
423.64	2744.96
423.848	2777.73
424.056	2671.23
424.263	3072.64
424.471	3142.27
424.679	3115.64
424.887	3326.58
425.094	3459.7
425.302	3357.3
425.51	3541.62
425.718	3572.34
425.925	3584.63
426.133	3768.95
426.341	4008.56
426.548	4049.52
426.756	4239.98
426.964	4133.48
427.171	4399.72
427.379	4463.21
427.586	4655.72
427.794	4792.93
428.001	4956.77
428.209	5302.87
428.417	5024.35
428.624	5313.11
428.832	5470.81
429.039	5313.11
429.247	5452.38
429.454	5861.97
429.662	6402.63
429.869	5999.18
430.076	6308.43
430.284	6220.36
430.491	6343.24
430.699	6816.32
430.906	6785.6
431.114	6865.47
431.321	7322.17
431.528	7338.55
431.736	7647.8
431.943	8155.69
432.15	7733.81
432.358	7934.51
432.565	8178.22
432.772	8229.42
432.979	8686.12
433.187	9013.79
433.394	8978.98
433.601	9630.23
433.808	9617.94
434.016	9423.39
434.223	9847.32
434.43	10426.89
434.637	10164.75
434.844	11008.51
435.052	11129.34
435.259	11039.23
435.466	11100.67
435.673	11053.57
435.88	11889.14
436.087	12548.59
436.294	12454.38
436.501	12345.84
436.708	12343.79
436.915	12698.09
437.122	13386.21
437.329	13201.89
437.537	13601.24
437.743	14043.6
437.95	13785.56
438.157	14299.6
438.364	15071.68
438.571	15090.12
438.778	15212.99
438.985	16613.81
439.192	15888.82
439.399	16523.69
439.606	15796.67
439.813	16783.79
440.02	17754.52
440.227	17541.53
440.433	17521.06
440.64	18170.26
440.847	17820.06
441.054	18602.38
441.261	19382.66
441.467	19171.72
441.674	19362.18
441.881	20259.19
442.088	20400.5
442.294	19941.75
442.501	20593.01
442.708	21262.69
442.914	22077.79
443.121	23089.48
443.328	22378.84
443.534	23589.19
443.741	23134.54
443.948	22802.77
444.154	24344.89
444.361	24045.88
444.568	24269.11
444.774	24475.96
444.981	24766.77
445.187	25575.72
445.394	26249.5
445.6	26288.41
445.807	28481.78
446.013	27343.11
446.22	27797.76
446.426	28895.47
446.633	29178.09
446.839	30066.91
447.046	28692.72
447.252	30259.42
447.459	30185.69
447.665	30142.69
447.871	31637.7
448.078	33200.3
448.284	31262.93
448.491	32311.49
448.697	33568.94
448.903	33892.52
449.11	34427.04
449.316	33458.35
449.522	34408.61
449.728	34824.34
449.935	35164.31
450.141	35135.63
450.347	36051.08
450.553	34750.62
450.76	34918.55
450.966	36360.32
451.172	35915.91
451.378	36993.14
451.584	35752.07
451.791	36964.47
451.997	36509.82
452.203	37087.35
452.409	36987
452.615	37103.73
452.821	35315.86
453.027	35231.89
453.233	36999.29
453.44	35227.79
453.646	35913.86
453.852	36010.12
454.058	36759.67
454.264	35418.25
454.47	36171.91
454.676	35063.96
454.882	36456.57
455.088	33126.58
455.294	33835.17
455.5	34273.44
455.705	34615.45
455.911	33241.26
456.117	32624.82
456.323	31781.06
456.529	30425.31
456.735	31576.26
456.941	30759.13
457.147	30255.32
457.352	29544.68
457.558	28670.2
457.764	28858.61
457.97	28643.57
458.176	27764.99
458.381	28012.8
458.587	26442.01
458.793	26425.62
458.999	25053.48
459.204	27066.64
459.41	26009.89
459.616	24262.97
459.821	24684.85
460.027	24566.07
460.233	23916.86
460.438	23161.16
460.644	23066.95
460.85	21789.02
461.055	21877.08
461.261	21330.28
461.466	20042.1
461.672	19353.99
461.878	20896.11
462.083	19802.49
462.289	19141
462.494	18704.78
462.7	18028.95
462.905	17643.93
463.111	18284.95
463.316	18262.42
463.522	17596.83
463.727	17930.65
463.932	17840.54
464.138	17535.39
464.343	17693.08
464.549	17168.8
464.754	17916.31
464.959	17613.21
465.165	17338.79
465.37	16845.23
465.575	16312.75
465.781	16974.25
465.986	17101.22
466.191	16363.95
466.397	16220.6
466.602	15446.46
466.807	16056.76
467.012	15739.32
467.218	15804.86
