Data from USB4F104151__118__10-25-03-720.txt Node

Date: Wed Mar 12 10:25:03 EDT 2025
User: louis
Spectrometer: USB4F10415
Trigger mode: 4
Integration Time (sec): 3.000000E-2
Scans to average: 1
Electric dark correction enabled: true
Nonlinearity correction enabled: false
Boxcar width: 0
XAxis mode: Wavelengths
Number of Pixels in Spectrum: 3648
>>>>>Begin Spectral Data<<<<<
178.204	-159.23
178.424	-159.23
178.644	-159.23
178.864	-194.05
179.084	-93.69
179.304	10.75
179.524	-28.16
179.744	4.61
179.964	29.18
180.184	-32.26
180.404	0.51
180.624	-5.63
180.844	-19.97
181.064	41.47
181.283	16.9
181.503	-1.54
181.723	-15.87
181.943	-97.79
182.163	27.14
182.383	-1.54
182.602	12.8
182.822	16.9
183.042	33.28
183.262	16.9
183.482	-36.35
183.701	-5.63
183.921	12.8
184.141	18.94
184.361	-50.69
184.58	72.19
184.8	53.76
185.02	-108.03
185.239	8.7
185.459	53.76
185.679	-9.73
185.898	-34.3
186.118	37.38
186.338	-5.63
186.557	-52.74
186.777	-17.92
186.997	-34.3
187.216	-26.11
187.436	47.62
187.655	-46.59
187.875	37.38
188.095	-32.26
188.314	33.28
188.534	39.42
188.753	-30.21
188.973	-13.82
189.192	29.18
189.412	-36.35
189.631	25.09
189.851	49.66
190.07	59.9
190.29	39.42
190.509	-17.92
190.729	10.75
190.948	64
191.168	123.39
191.387	51.71
191.607	18.94
191.826	-24.06
192.045	-44.54
192.265	-48.64
192.484	82.43
192.704	88.57
192.923	57.86
193.142	-3.58
193.362	14.85
193.581	33.28
193.8	-9.73
194.02	-50.69
194.239	14.85
194.458	66.05
194.678	47.62
194.897	-3.58
195.116	8.7
195.335	-75.26
195.555	53.76
195.774	6.66
195.993	18.94
196.212	10.75
196.432	-5.63
196.651	-17.92
196.87	-19.97
197.089	33.28
197.308	-79.36
197.528	41.47
197.747	10.75
197.966	-15.87
198.185	96.77
198.404	-85.5
198.623	117.25
198.842	37.38
199.062	-15.87
199.281	121.34
199.5	-56.83
199.719	53.76
199.938	72.19
200.157	74.24
200.376	51.71
200.595	10.75
200.814	-15.87
201.033	-36.35
201.252	-13.82
201.471	20.99
201.69	37.38
201.909	-17.92
202.128	76.29
202.347	18.94
202.566	12.8
202.785	-15.87
203.004	-60.93
203.223	39.42
203.442	-34.3
203.661	-13.82
203.879	51.71
204.098	33.28
204.317	0.51
204.536	6.66
204.755	-65.02
204.974	23.04
205.193	20.99
205.411	96.77
205.63	49.66
205.849	94.72
206.068	16.9
206.287	0.51
206.505	45.57
206.724	-13.82
206.943	8.7
207.162	-19.97
207.381	27.14
207.599	4.61
207.818	-3.58
208.037	10.75
208.255	20.99
208.474	29.18
208.693	6.66
208.911	-65.02
209.13	33.28
209.349	33.28
209.567	47.62
209.786	-1.54
210.005	-24.06
210.223	-91.65
210.442	-1.54
210.661	59.9
210.879	23.04
211.098	-5.63
211.316	72.19
211.535	-11.78
211.753	2.56
211.972	43.52
212.191	-65.02
212.409	-15.87
212.628	12.8
212.846	-9.73
213.065	-7.68
213.283	-3.58
213.502	41.47
213.72	33.28
213.938	10.75
214.157	-17.92
214.375	-9.73
214.594	39.42
214.812	59.9
215.031	49.66
215.249	-15.87
215.467	-91.65
215.686	-7.68
215.904	-9.73
216.122	-52.74
216.341	37.38
216.559	16.9
216.778	68.09
216.996	-9.73
217.214	-19.97
217.432	-48.64
217.651	61.95
217.869	18.94
218.087	-42.5
218.306	-34.3
218.524	-32.26
218.742	23.04
218.96	-40.45
219.179	-56.83
219.397	-9.73
219.615	82.43
219.833	31.23
220.051	45.57
220.27	61.95
220.488	-17.92
220.706	14.85
220.924	-24.06
221.142	-7.68
221.36	35.33
221.578	27.14
221.796	88.57
222.015	-30.21
222.233	55.81
222.451	-40.45
222.669	-26.11
222.887	49.66
223.105	-32.26
223.323	33.28
223.541	-65.02
223.759	10.75
223.977	-15.87
224.195	47.62
224.413	49.66
224.631	25.09
224.849	0.51
225.067	66.05
225.285	-7.68
225.503	4.61
225.721	0.51
225.939	-24.06
226.157	20.99
226.375	29.18
226.592	-17.92
226.81	-15.87
227.028	-28.16
227.246	37.38
227.464	-26.11
227.682	-15.87
227.9	-32.26
228.117	33.28
228.335	-1.54
228.553	25.09
228.771	8.7
228.989	0.51
229.206	72.19
229.424	41.47
229.642	33.28
229.86	6.66
230.077	-19.97
230.295	55.81
230.513	51.71
230.731	53.76
230.948	10.75
231.166	33.28
231.384	-24.06
231.601	0.51
231.819	82.43
232.037	-3.58
232.254	-40.45
232.472	-1.54
232.689	51.71
232.907	16.9
233.125	-58.88
233.342	53.76
233.56	29.18
233.777	-15.87
233.995	0.51
234.213	-15.87
234.43	37.38
234.648	57.86
234.865	-60.93
235.083	31.23
235.3	-32.26
235.518	90.62
235.735	4.61
235.953	-30.21
236.17	-44.54
236.388	10.75
236.605	-65.02
236.822	66.05
237.04	51.71
237.257	14.85
237.475	18.94
237.692	18.94
237.909	-26.11
238.127	-22.02
238.344	23.04
238.562	37.38
238.779	-7.68
238.996	-52.74
239.214	33.28
239.431	8.7
239.648	-65.02
239.865	-19.97
240.083	61.95
240.3	-52.74
240.517	-32.26
240.735	33.28
240.952	41.47
241.169	111.1
241.386	-19.97
241.603	-11.78
241.821	16.9
242.038	-17.92
242.255	0.51
242.472	-11.78
242.689	6.66
242.907	27.14
243.124	33.28
243.341	59.9
243.558	-101.89
243.775	4.61
243.992	-52.74
244.209	0.51
244.426	90.62
244.643	23.04
244.86	-11.78
245.078	20.99
245.295	12.8
245.512	35.33
245.729	-42.5
245.946	53.76
246.163	-15.87
246.38	39.42
246.597	8.7
246.814	-81.41
247.031	-1.54
247.248	74.24
247.464	-9.73
247.681	59.9
247.898	20.99
248.115	59.9
248.332	20.99
248.549	70.14
248.766	41.47
248.983	16.9
249.2	-19.97
249.417	-15.87
249.633	-58.88
249.85	72.19
250.067	-62.98
250.284	57.86
250.501	61.95
250.717	2.56
250.934	-50.69
251.151	57.86
251.368	-1.54
251.585	55.81
251.801	-28.16
252.018	29.18
252.235	43.52
252.451	-15.87
252.668	-1.54
252.885	39.42
253.102	31.23
253.318	2.56
253.535	-7.68
253.752	-13.82
253.968	-65.02
254.185	-13.82
254.401	-5.63
254.618	41.47
254.835	23.04
255.051	-7.68
255.268	-9.73
255.484	33.28
255.701	-9.73
255.917	-11.78
256.134	6.66
256.351	-40.45
256.567	-99.84
256.784	47.62
257	-67.07
257.217	2.56
257.433	-28.16
257.65	39.42
257.866	68.09
258.082	-50.69
258.299	-26.11
258.515	55.81
258.732	-28.16
258.948	-5.63
259.165	39.42
259.381	-34.3
259.597	31.23
259.814	-28.16
260.03	-1.54
260.246	57.86
260.463	29.18
260.679	-3.58
260.895	-28.16
261.112	-24.06
261.328	-7.68
261.544	47.62
261.761	82.43
261.977	-11.78
262.193	8.7
262.409	31.23
262.626	-3.58
262.842	31.23
263.058	41.47
263.274	76.29
263.49	0.51
263.707	-17.92
263.923	-24.06
264.139	-75.26
264.355	-15.87
264.571	0.51
264.787	8.7
265.004	20.99
265.22	41.47
265.436	8.7
265.652	-5.63
265.868	49.66
266.084	-3.58
266.3	6.66
266.516	-22.02
266.732	12.8
266.948	-19.97
267.164	-26.11
267.38	33.28
267.596	20.99
267.812	61.95
268.028	37.38
268.244	-60.93
268.46	-62.98
268.676	-56.83
268.892	14.85
269.108	-1.54
269.324	6.66
269.54	-32.26
269.756	16.9
269.972	0.51
270.188	-28.16
270.403	47.62
270.619	8.7
270.835	-15.87
271.051	45.57
271.267	-24.06
271.483	-15.87
271.698	-1.54
271.914	23.04
272.13	-7.68
272.346	2.56
272.562	-3.58
272.777	90.62
272.993	-11.78
273.209	-81.41
273.425	0.51
273.64	2.56
273.856	-44.54
274.072	14.85
274.287	80.38
274.503	64
274.719	-22.02
274.934	18.94
275.15	-19.97
275.366	-7.68
275.581	-9.73
275.797	-17.92
276.012	41.47
276.228	8.7
276.444	-15.87
276.659	-42.5
276.875	-38.4
277.09	41.47
277.306	-13.82
277.521	20.99
277.737	33.28
277.952	20.99
278.168	68.09
278.383	37.38
278.599	2.56
278.814	6.66
279.03	6.66
279.245	86.53
279.461	66.05
279.676	53.76
279.892	-44.54
280.107	-32.26
280.322	37.38
280.538	37.38
280.753	-38.4
280.969	57.86
281.184	20.99
281.399	-34.3
281.615	0.51
281.83	143.87
282.045	-44.54
282.26	55.81
282.476	47.62
282.691	61.95
282.906	47.62
283.122	-24.06
283.337	23.04
283.552	37.38
283.767	-9.73
283.983	45.57
284.198	-19.97
284.413	25.09
284.628	-26.11
284.843	41.47
285.058	-52.74
285.274	8.7
285.489	-44.54
285.704	12.8
285.919	18.94
286.134	-28.16
286.349	49.66
286.564	-50.69
286.779	96.77
286.995	29.18
287.21	-52.74
287.425	-19.97
287.64	47.62
287.855	-24.06
288.07	-17.92
288.285	35.33
288.5	47.62
288.715	78.33
288.93	37.38
289.145	25.09
289.36	10.75
289.575	-22.02
289.79	78.33
290.004	-11.78
290.219	57.86
290.434	74.24
290.649	16.9
290.864	2.56
291.079	-34.3
291.294	27.14
291.509	27.14
291.724	43.52
291.938	23.04
292.153	107.01
292.368	-60.93
292.583	57.86
292.798	43.52
293.012	25.09
293.227	59.9
293.442	10.75
293.657	-40.45
293.871	29.18
294.086	47.62
294.301	59.9
294.516	23.04
294.73	-17.92
294.945	-58.88
295.16	66.05
295.374	49.66
295.589	80.38
295.804	-1.54
296.018	41.47
296.233	-11.78
296.447	66.05
296.662	76.29
296.877	4.61
297.091	55.81
297.306	-24.06
297.52	-15.87
297.735	64
297.949	33.28
298.164	59.9
298.378	49.66
298.593	-7.68
298.807	-15.87
299.022	49.66
299.236	31.23
299.451	-1.54
299.665	35.33
299.88	27.14
300.094	-32.26
300.309	-26.11
300.523	2.56
300.737	49.66
300.952	10.75
301.166	29.18
301.381	-15.87
301.595	14.85
301.809	25.09
302.024	-13.82
302.238	-15.87
302.452	-22.02
302.667	0.51
302.881	68.09
303.095	39.42
303.309	57.86
303.524	41.47
303.738	20.99
303.952	8.7
304.166	-5.63
304.381	-30.21
304.595	37.38
304.809	23.04
305.023	61.95
305.237	-44.54
305.452	-11.78
305.666	-40.45
305.88	16.9
306.094	27.14
306.308	4.61
306.522	98.81
306.736	16.9
306.95	8.7
307.164	-60.93
307.379	45.57
307.593	12.8
307.807	16.9
308.021	8.7
308.235	107.01
308.449	-28.16
308.663	-46.59
308.877	0.51
309.091	-1.54
309.305	-32.26
309.519	45.57
309.733	53.76
309.947	0.51
310.161	-34.3
310.374	-3.58
310.588	23.04
310.802	47.62
311.016	-22.02
311.23	-26.11
311.444	25.09
311.658	-7.68
311.872	51.71
312.085	20.99
312.299	61.95
312.513	94.72
312.727	29.18
312.941	70.14
313.154	-30.21
313.368	-15.87
313.582	45.57
313.796	37.38
314.009	29.18
314.223	41.47
314.437	-32.26
314.651	-40.45
314.864	27.14
315.078	-7.68
315.292	23.04
315.505	-24.06
315.719	68.09
315.933	59.9
316.146	25.09
316.36	16.9
316.573	16.9
316.787	-5.63
317.001	23.04
317.214	-28.16
317.428	14.85
317.641	41.47
317.855	23.04
318.068	10.75
318.282	-19.97
318.495	74.24
318.709	8.7
318.922	10.75
319.136	35.33
319.349	74.24
319.563	10.75
319.776	10.75
319.99	-48.64
320.203	6.66
320.417	29.18
320.63	4.61
320.843	23.04
321.057	61.95
321.27	-44.54
321.483	33.28
321.697	49.66
321.91	64
322.124	-13.82
322.337	-9.73
322.55	0.51
322.763	-58.88
322.977	70.14
323.19	6.66
323.403	-32.26
323.617	0.51
323.83	47.62
324.043	10.75
324.256	-7.68
324.469	0.51
324.683	74.24
324.896	0.51
325.109	-48.64
325.322	-40.45
325.535	-3.58
325.748	37.38
325.962	41.47
326.175	20.99
326.388	51.71
326.601	-3.58
326.814	53.76
327.027	20.99
327.24	49.66
327.453	-48.64
327.666	-46.59
327.879	29.18
328.092	53.76
328.305	-19.97
328.518	-22.02
328.731	14.85
328.944	23.04
329.157	43.52
329.37	4.61
329.583	113.15
329.796	33.28
330.009	-36.35
330.222	14.85
330.435	41.47
330.648	-30.21
330.861	41.47
331.073	4.61
331.286	57.86
331.499	-32.26
331.712	-32.26
331.925	-65.02
332.138	35.33
332.35	72.19
332.563	-9.73
332.776	80.38
332.989	-97.79
333.202	0.51
333.414	16.9
333.627	-40.45
333.84	2.56
334.053	25.09
334.265	-22.02
334.478	-17.92
334.691	49.66
334.903	16.9
335.116	31.23
335.329	-15.87
335.541	49.66
335.754	-36.35
335.966	-67.07
336.179	-48.64
336.392	51.71
336.604	-24.06
336.817	23.04
337.029	-11.78
337.242	-75.26
337.454	8.7
337.667	-34.3
337.88	23.04
338.092	-15.87
338.305	31.23
338.517	25.09
338.729	18.94
338.942	43.52
339.154	-77.31
339.367	-32.26
339.579	68.09
339.792	31.23
340.004	-1.54
340.217	-28.16
340.429	47.62
340.641	-24.06
340.854	-32.26
341.066	6.66
341.278	-19.97
341.491	86.53
341.703	-15.87
341.915	-46.59
342.128	31.23
342.34	55.81
342.552	78.33
342.764	-17.92
342.977	-65.02
343.189	-19.97
343.401	16.9
343.613	64
343.826	4.61
344.038	16.9
344.25	45.57
344.462	-5.63
344.674	8.7
344.886	-26.11
345.099	-48.64
345.311	-24.06
345.523	55.81
345.735	-15.87
345.947	0.51
346.159	45.57
346.371	33.28
346.583	12.8
346.795	8.7
347.007	-15.87
347.219	-1.54
347.431	-22.02
347.643	86.53
347.855	57.86
348.067	76.29
348.279	-58.88
348.491	12.8
348.703	25.09
348.915	4.61
349.127	-42.5
349.339	25.09
349.551	4.61
349.763	111.1
349.975	-1.54
350.187	18.94
350.399	37.38
350.61	0.51
350.822	-65.02
351.034	68.09
351.246	-32.26
351.458	76.29
351.669	27.14
351.881	29.18
352.093	4.61
352.305	23.04
352.517	41.47
352.728	64
352.94	-30.21
353.152	20.99
353.363	-44.54
353.575	57.86
353.787	8.7
353.999	49.66
354.21	66.05
354.422	-11.78
354.633	-28.16
354.845	-65.02
355.057	14.85
355.268	25.09
355.48	35.33
355.692	-81.41
355.903	-52.74
356.115	-26.11
356.326	90.62
356.538	-24.06
356.749	-85.5
356.961	102.91
357.172	-40.45
357.384	-58.88
357.595	82.43
357.807	43.52
358.018	8.7
358.23	-9.73
358.441	14.85
358.653	-1.54
358.864	0.51
359.075	8.7
359.287	137.73
359.498	4.61
359.709	-13.82
359.921	25.09
360.132	45.57
360.344	-38.4
360.555	-40.45
360.766	29.18
360.977	-22.02
361.189	115.2
361.4	-28.16
361.611	2.56
361.823	-15.87
362.034	133.63
362.245	33.28
362.456	10.75
362.667	55.81
362.879	4.61
363.09	0.51
363.301	-13.82
363.512	14.85
363.723	-9.73
363.935	53.76
364.146	45.57
364.357	29.18
364.568	4.61
364.779	-56.83
364.99	70.14
365.201	-50.69
365.412	55.81
365.623	47.62
365.834	23.04
366.045	16.9
366.256	39.42
366.467	6.66
366.678	0.51
366.889	12.8
367.1	-11.78
367.311	16.9
367.522	-26.11
367.733	41.47
367.944	35.33
368.155	-26.11
368.366	10.75
368.577	-15.87
368.788	4.61
368.999	20.99
369.209	-1.54
369.42	109.05
369.631	59.9
369.842	-3.58
370.053	88.57
370.264	-11.78
370.474	27.14
370.685	25.09
370.896	6.66
371.107	-60.93
371.317	53.76
371.528	-9.73
371.739	82.43
371.95	96.77
372.16	59.9
372.371	10.75
372.582	27.14
372.792	20.99
373.003	64
373.214	12.8
373.424	37.38
373.635	-22.02
373.846	92.67
374.056	33.28
374.267	20.99
374.477	49.66
374.688	20.99
374.898	-28.16
375.109	72.19
375.319	-26.11
375.53	0.51
375.74	-5.63
375.951	-15.87
376.161	14.85
376.372	66.05
376.582	27.14
376.793	33.28
377.003	29.18
377.214	29.18
377.424	-13.82
377.635	41.47
377.845	-46.59
378.055	84.48
378.266	37.38
378.476	68.09
378.686	10.75
378.897	59.9
379.107	25.09
379.317	70.14
379.528	18.94
379.738	84.48
379.948	39.42
380.158	-3.58
380.369	-42.5
380.579	-5.63
380.789	20.99
380.999	16.9
381.21	-42.5
381.42	96.77
381.63	12.8
381.84	37.38
382.05	20.99
382.261	59.9
382.471	10.75
382.681	-15.87
382.891	33.28
383.101	115.2
383.311	84.48
383.521	-30.21
383.731	16.9
383.941	-3.58
384.151	86.53
384.361	80.38
384.571	-34.3
384.781	55.81
384.991	4.61
385.201	64
385.411	14.85
385.621	33.28
385.831	37.38
386.041	72.19
386.251	49.66
386.461	23.04
386.671	45.57
386.881	88.57
387.091	27.14
387.301	57.86
387.511	0.51
387.72	20.99
387.93	76.29
388.14	72.19
388.35	84.48
388.56	76.29
388.769	55.81
388.979	-32.26
389.189	43.52
389.399	53.76
389.609	113.15
389.818	12.8
390.028	51.71
390.238	59.9
390.447	-67.07
390.657	-5.63
390.867	102.91
391.076	14.85
391.286	6.66
391.496	45.57
391.705	16.9
391.915	10.75
392.125	96.77
392.334	2.56
392.544	86.53
392.753	29.18
392.963	51.71
393.172	16.9
393.382	-5.63
393.591	49.66
393.801	74.24
394.01	84.48
394.22	66.05
394.429	37.38
394.639	-58.88
394.848	33.28
395.058	72.19
395.267	31.23
395.477	84.48
395.686	74.24
395.895	12.8
396.105	90.62
396.314	49.66
396.524	121.34
396.733	39.42
396.942	94.72
397.152	4.61
397.361	92.67
397.57	20.99
397.78	94.72
397.989	35.33
398.198	74.24
398.407	137.73
398.617	135.68
398.826	55.81
399.035	86.53
399.244	23.04
399.453	55.81
399.663	119.29
399.872	39.42
400.081	-60.93
400.29	98.81
400.499	82.43
400.708	66.05
400.917	14.85
401.127	47.62
401.336	35.33
401.545	98.81
401.754	90.62
401.963	139.77
402.172	76.29
402.381	45.57
402.59	61.95
402.799	43.52
403.008	111.1
403.217	80.38
403.426	141.82
403.635	57.86
403.844	123.39
404.053	84.48
404.262	47.62
404.471	209.4
404.68	147.97
404.888	119.29
405.097	164.35
405.306	70.14
405.515	111.1
405.724	135.68
405.933	201.21
406.142	188.93
406.35	98.81
406.559	145.92
406.768	115.2
406.977	123.39
407.185	217.6
407.394	238.08
407.603	82.43
407.812	209.4
408.02	182.78
408.229	152.06
408.438	164.35
408.646	188.93
408.855	180.73
409.064	219.64
409.272	176.64
409.481	225.79
409.69	227.84
409.898	268.8
410.107	311.8
410.315	252.41
410.524	223.74
410.733	326.14
410.941	186.88
411.15	283.13
411.358	305.66
411.567	328.19
411.775	315.9
411.984	406.01
412.192	322.04
412.401	424.44
412.609	451.07
412.818	393.72
413.026	336.38
413.234	426.49
413.443	336.38
413.651	416.25
413.86	477.69
414.068	567.8
414.276	580.09
414.485	418.3
414.693	520.7
414.901	549.37
415.11	549.37
415.318	604.66
415.526	619
415.734	748.02
415.943	657.91
416.151	735.73
416.359	664.05
416.567	840.18
416.776	743.92
416.984	817.65
417.192	799.22
417.4	909.81
417.608	848.37
417.817	860.66
418.025	967.15
418.233	1008.11
418.441	999.92
418.649	1024.5
418.857	1188.33
419.065	1079.79
419.273	1143.28
419.481	1227.25
419.689	1233.39
419.897	1231.34
420.105	1364.46
420.313	1280.49
420.521	1409.51
420.729	1520.1
420.937	1442.28
421.145	1589.74
421.353	1567.21
421.561	1622.5
421.769	1749.48
421.977	1847.78
422.185	1821.16
422.393	1944.03
422.601	2011.62
422.809	1919.46
423.017	2089.44
423.224	2181.6
423.432	2288.09
423.64	2251.23
423.848	2507.23
424.056	2337.24
424.263	2564.57
424.471	2441.69
424.679	2527.71
424.887	2736.6
425.094	2843.09
425.302	2791.89
425.51	2918.87
425.718	3039.7
425.925	3004.88
426.133	3205.58
426.341	3326.41
426.548	3451.34
426.756	3353.04
426.964	3551.69
427.171	3662.28
427.379	3652.04
427.586	3807.69
427.794	4043.2
428.001	4073.92
428.209	4274.62
428.417	4321.73
428.624	4487.61
428.832	4544.95
429.039	4485.56
429.247	4436.41
429.454	5095.86
429.662	5237.17
429.869	5048.75
430.076	5200.3
430.284	5159.35
430.491	5222.83
430.699	5704.1
430.906	5718.44
431.114	5560.75
431.321	5999.01
431.528	6009.25
431.736	6369.69
431.943	6877.59
432.15	6660.51
432.358	6568.35
432.565	7033.24
432.772	6969.75
432.979	7278.99
433.187	7381.39
433.394	7561.61
433.601	8028.55
433.808	8128.9
434.016	8028.55
434.223	8518.01
434.43	8984.95
434.637	8489.34
434.844	9257.33
435.052	9367.92
435.259	9398.64
435.466	9431.41
435.673	9173.36
435.88	10137.96
436.087	10539.36
436.294	10432.86
436.501	10250.6
436.708	10436.96
436.915	10740.06
437.122	11067.74
437.329	11100.5
437.537	11549.01
437.743	11762
437.95	11796.81
438.157	12288.32
438.364	12521.79
438.571	12659.01
438.778	12675.39
438.985	13871.4
439.192	13367.6
439.399	13644.08
439.606	13447.47
439.813	13936.94
440.02	15065.37
440.227	14756.13
440.433	14401.83
440.64	15249.69
440.847	14946.59
441.054	15415.57
441.261	16560.39
441.467	16042.25
441.674	16560.39
441.881	17223.93
442.088	16787.71
442.294	17058.04
442.501	17256.7
442.708	17668.34
442.914	18424.04
443.121	19103.96
443.328	18708.71
443.534	19970.26
443.741	19493.08
443.948	18954.46
444.154	20517.06
444.361	20218.06
444.568	20529.35
444.774	20670.66
444.981	20762.82
445.187	21336.25
445.394	22012.08
445.6	21805.24
445.807	24240.27
446.013	22937.76
446.22	23392.41
446.426	24033.43
446.633	24643.72
446.839	25192.58
447.046	24017.04
447.252	25702.52
447.459	25575.55
447.665	25315.45
447.871	26673.26
448.078	27809.88
448.284	26183.79
448.491	26841.19
448.697	28041.3
448.903	28495.95
449.11	28635.21
449.316	28151.89
449.522	28565.58
449.728	29485.12
449.935	29679.68
450.141	29431.87
450.347	30191.67
450.553	29458.49
450.76	29343.81
450.966	30472.24
451.172	29911.1
451.378	30517.29
451.584	30183.48
451.791	31066.15
451.997	30586.93
452.203	31391.78
452.409	31373.35
452.615	31123.49
452.821	29892.66
453.027	29814.84
453.233	31340.58
453.44	29827.13
453.646	29997.11
453.852	30343.22
454.058	30894.12
454.264	29603.9
454.47	30462
454.676	29724.73
454.882	30638.12
455.088	27981.91
455.294	28041.3
455.5	28803.14
455.705	28844.1
455.911	27912.28
456.117	27250.78
456.323	26980.45
456.529	25489.53
456.735	26361.97
456.941	25847.93
457.147	25553.02
457.352	24887.43
457.558	24316.04
457.764	24340.62
457.97	23793.81
458.176	23369.88
458.381	23558.3
458.587	22151.34
458.793	22528.17
458.999	20883.65
459.204	22739.11
459.41	21678.26
459.616	20652.23
459.821	20646.08
460.027	20527.3
460.233	20099.28
460.438	18962.65
460.644	19259.61
460.85	18378.98
461.055	17918.19
461.261	17903.85
461.466	16685.31
461.672	16290.06
461.878	17338.62
462.083	16333.06
462.289	15960.33
462.494	15919.37
462.7	15255.83
462.905	14657.82
463.111	15358.23
463.316	15190.3
463.522	14975.26
463.727	14928.16
463.932	14893.34
464.138	14948.64
464.343	14661.92
464.549	14444.84
464.754	14895.39
464.959	14698.78
465.165	14483.75
465.37	14070.06
465.575	13832.49
465.781	14070.06
465.986	14190.89
466.191	13748.53
466.397	13445.43
466.602	12810.56
466.807	13470
467.012	13275.45
467.218	13404.47
