Data from USB4F104151__49__10-23-28-636.txt Node

Date: Wed Mar 12 10:23:28 EDT 2025
User: louis
Spectrometer: USB4F10415
Trigger mode: 4
Integration Time (sec): 3.000000E-2
Scans to average: 1
Electric dark correction enabled: true
Nonlinearity correction enabled: false
Boxcar width: 0
XAxis mode: Wavelengths
Number of Pixels in Spectrum: 3648
>>>>>Begin Spectral Data<<<<<
178.204	-82.26
178.424	-82.26
178.644	-82.26
178.864	-106.84
179.084	-88.4
179.304	7.85
179.524	18.09
179.744	3.75
179.964	24.23
180.184	32.43
180.404	46.76
180.624	1.71
180.844	-67.92
181.064	-51.54
181.283	-49.49
181.503	-4.44
181.723	38.57
181.943	-63.83
182.163	48.81
182.383	28.33
182.602	52.91
182.822	63.15
183.042	77.48
183.262	40.62
183.482	89.77
183.701	20.14
183.921	116.39
184.141	-55.64
184.361	87.72
184.58	71.34
184.8	-2.39
185.02	-20.82
185.239	118.44
185.459	-29.01
185.679	161.45
185.898	-24.92
186.118	89.77
186.338	16.04
186.557	28.33
186.777	-20.82
186.997	61.1
187.216	24.23
187.436	59.05
187.655	36.52
187.875	9.9
188.095	-43.35
188.314	69.29
188.534	-16.73
188.753	108.2
188.973	42.67
189.192	46.76
189.412	57
189.631	52.91
189.851	24.23
190.07	102.06
190.29	40.62
190.509	38.57
190.729	32.43
190.948	112.3
191.168	112.3
191.387	114.34
191.607	-18.77
191.826	67.24
192.045	7.85
192.265	36.52
192.484	30.38
192.704	83.63
192.923	42.67
193.142	140.97
193.362	61.1
193.581	67.24
193.8	-8.53
194.02	28.33
194.239	20.14
194.458	87.72
194.678	48.81
194.897	11.95
195.116	28.33
195.335	87.72
195.555	36.52
195.774	69.29
195.993	114.34
196.212	89.77
196.432	11.95
196.651	28.33
196.87	57
197.089	46.76
197.308	-0.34
197.528	36.52
197.747	-12.63
197.966	59.05
198.185	32.43
198.404	54.95
198.623	46.76
198.842	140.97
199.062	28.33
199.281	20.14
199.5	-4.44
199.719	18.09
199.938	26.28
200.157	85.67
200.376	22.19
200.595	28.33
200.814	-20.82
201.033	11.95
201.252	89.77
201.471	83.63
201.69	85.67
201.909	50.86
202.128	48.81
202.347	38.57
202.566	-8.53
202.785	42.67
203.004	22.19
203.223	112.3
203.442	87.72
203.661	3.75
203.879	61.1
204.098	108.2
204.317	-20.82
204.536	83.63
204.755	3.75
204.974	-26.96
205.193	67.24
205.411	116.39
205.63	36.52
205.849	-0.34
206.068	-0.34
206.287	36.52
206.505	100.01
206.724	73.39
206.943	-4.44
207.162	57
207.381	50.86
207.599	89.77
207.818	100.01
208.037	48.81
208.255	69.29
208.474	57
208.693	85.67
208.911	-35.16
209.13	32.43
209.349	48.81
209.567	52.91
209.786	112.3
210.005	36.52
210.223	118.44
210.442	11.95
210.661	28.33
210.879	122.54
211.098	57
211.316	59.05
211.535	26.28
211.753	71.34
211.972	36.52
212.191	73.39
212.409	9.9
212.628	93.87
212.846	16.04
213.065	57
213.283	102.06
213.502	-12.63
213.72	57
213.938	46.76
214.157	77.48
214.375	52.91
214.594	11.95
214.812	71.34
215.031	44.71
215.249	50.86
215.467	16.04
215.686	-22.87
215.904	28.33
216.122	28.33
216.341	42.67
216.559	46.76
216.778	79.53
216.996	77.48
217.214	89.77
217.432	69.29
217.651	67.24
217.869	77.48
218.087	67.24
218.306	83.63
218.524	59.05
218.742	28.33
218.96	-12.63
219.179	11.95
219.397	52.91
219.615	85.67
219.833	36.52
220.051	42.67
220.27	38.57
220.488	36.52
220.706	122.54
220.924	77.48
221.142	18.09
221.36	38.57
221.578	54.95
221.796	73.39
222.015	61.1
222.233	85.67
222.451	100.01
222.669	34.47
222.887	89.77
223.105	77.48
223.323	28.33
223.541	11.95
223.759	24.23
223.977	3.75
224.195	-20.82
224.413	34.47
224.631	93.87
224.849	50.86
225.067	24.23
225.285	81.58
225.503	67.24
225.721	-33.11
225.939	93.87
226.157	-29.01
226.375	116.39
226.592	36.52
226.81	44.71
227.028	20.14
227.246	24.23
227.464	1.71
227.682	28.33
227.9	22.19
228.117	32.43
228.335	11.95
228.553	59.05
228.771	102.06
228.989	11.95
229.206	28.33
229.424	30.38
229.642	77.48
229.86	73.39
230.077	120.49
230.295	3.75
230.513	61.1
230.731	126.63
230.948	46.76
231.166	87.72
231.384	11.95
231.601	36.52
231.819	69.29
232.037	22.19
232.254	50.86
232.472	50.86
232.689	112.3
232.907	-31.06
233.125	67.24
233.342	52.91
233.56	-12.63
233.777	65.19
233.995	-49.49
234.213	61.1
234.43	57
234.648	52.91
234.865	24.23
235.083	42.67
235.3	61.1
235.518	81.58
235.735	73.39
235.953	69.29
236.17	-8.53
236.388	79.53
236.605	50.86
236.822	40.62
237.04	81.58
237.257	7.85
237.475	61.1
237.692	44.71
237.909	52.91
238.127	22.19
238.344	7.85
238.562	52.91
238.779	16.04
238.996	7.85
239.214	59.05
239.431	95.91
239.648	11.95
239.865	83.63
240.083	-0.34
240.3	40.62
240.517	87.72
240.735	7.85
240.952	93.87
241.169	40.62
241.386	73.39
241.603	-16.73
241.821	-0.34
242.038	57
242.255	61.1
242.472	28.33
242.689	42.67
242.907	112.3
243.124	50.86
243.341	-4.44
243.558	65.19
243.775	79.53
243.992	13.99
244.209	69.29
244.426	93.87
244.643	73.39
244.86	46.76
245.078	57
245.295	120.49
245.512	-0.34
245.729	7.85
245.946	67.24
246.163	93.87
246.38	42.67
246.597	20.14
246.814	36.52
247.031	50.86
247.248	67.24
247.464	57
247.681	42.67
247.898	32.43
248.115	30.38
248.332	-61.78
248.549	18.09
248.766	65.19
248.983	54.95
249.2	52.91
249.417	20.14
249.633	38.57
249.85	97.96
250.067	-18.77
250.284	69.29
250.501	46.76
250.717	77.48
250.934	69.29
251.151	93.87
251.368	20.14
251.585	126.63
251.801	87.72
252.018	-24.92
252.235	65.19
252.451	63.15
252.668	52.91
252.885	81.58
253.102	32.43
253.318	48.81
253.535	40.62
253.752	28.33
253.968	11.95
254.185	32.43
254.401	-6.49
254.618	-29.01
254.835	42.67
255.051	93.87
255.268	67.24
255.484	28.33
255.701	138.92
255.917	57
256.134	104.11
256.351	44.71
256.567	44.71
256.784	61.1
257	46.76
257.217	-10.58
257.433	102.06
257.65	50.86
257.866	122.54
258.082	9.9
258.299	106.15
258.515	85.67
258.732	34.47
258.948	-6.49
259.165	30.38
259.381	-20.82
259.597	61.1
259.814	44.71
260.03	16.04
260.246	71.34
260.463	22.19
260.679	85.67
260.895	57
261.112	-24.92
261.328	67.24
261.544	67.24
261.761	145.06
261.977	136.87
262.193	24.23
262.409	69.29
262.626	-2.39
262.842	32.43
263.058	44.71
263.274	16.04
263.49	54.95
263.707	79.53
263.923	44.71
264.139	-24.92
264.355	40.62
264.571	130.73
264.787	3.75
265.004	143.02
265.22	26.28
265.436	16.04
265.652	-4.44
265.868	42.67
266.084	16.04
266.3	-29.01
266.516	57
266.732	44.71
266.948	81.58
267.164	104.11
267.38	3.75
267.596	65.19
267.812	83.63
268.028	63.15
268.244	52.91
268.46	28.33
268.676	1.71
268.892	44.71
269.108	61.1
269.324	44.71
269.54	28.33
269.756	38.57
269.972	28.33
270.188	44.71
270.403	38.57
270.619	36.52
270.835	69.29
271.051	26.28
271.267	-0.34
271.483	3.75
271.698	36.52
271.914	52.91
272.13	7.85
272.346	16.04
272.562	5.8
272.777	13.99
272.993	13.99
273.209	67.24
273.425	42.67
273.64	36.52
273.856	102.06
274.072	-0.34
274.287	18.09
274.503	71.34
274.719	20.14
274.934	5.8
275.15	20.14
275.366	-2.39
275.581	20.14
275.797	52.91
276.012	36.52
276.228	57
276.444	112.3
276.659	91.82
276.875	36.52
277.09	67.24
277.306	-6.49
277.521	143.02
277.737	-10.58
277.952	89.77
278.168	67.24
278.383	110.25
278.599	52.91
278.814	126.63
279.03	20.14
279.245	89.77
279.461	118.44
279.676	106.15
279.892	-4.44
280.107	63.15
280.322	50.86
280.538	16.04
280.753	-2.39
280.969	52.91
281.184	100.01
281.399	106.15
281.615	79.53
281.83	24.23
282.045	13.99
282.26	-14.68
282.476	11.95
282.691	30.38
282.906	16.04
283.122	13.99
283.337	1.71
283.552	57
283.767	9.9
283.983	157.35
284.198	3.75
284.413	48.81
284.628	20.14
284.843	5.8
285.058	93.87
285.274	97.96
285.489	44.71
285.704	61.1
285.919	-8.53
286.134	91.82
286.349	52.91
286.564	-12.63
286.779	11.95
286.995	18.09
287.21	50.86
287.425	11.95
287.64	63.15
287.855	57
288.07	20.14
288.285	44.71
288.5	1.71
288.715	112.3
288.93	44.71
289.145	54.95
289.36	126.63
289.575	38.57
289.79	57
290.004	-33.11
290.219	63.15
290.434	16.04
290.649	-24.92
290.864	11.95
291.079	89.77
291.294	-31.06
291.509	112.3
291.724	1.71
291.938	81.58
292.153	130.73
292.368	57
292.583	65.19
292.798	91.82
293.012	77.48
293.227	42.67
293.442	-31.06
293.657	34.47
293.871	28.33
294.086	52.91
294.301	38.57
294.516	95.91
294.73	13.99
294.945	81.58
295.16	44.71
295.374	122.54
295.589	130.73
295.804	-2.39
296.018	16.04
296.233	124.58
296.447	85.67
296.662	20.14
296.877	145.06
297.091	83.63
297.306	126.63
297.52	87.72
297.735	48.81
297.949	93.87
298.164	63.15
298.378	67.24
298.593	-33.11
298.807	95.91
299.022	40.62
299.236	22.19
299.451	13.99
299.665	1.71
299.88	89.77
300.094	9.9
300.309	44.71
300.523	-20.82
300.737	-29.01
300.952	106.15
301.166	75.43
301.381	20.14
301.595	63.15
301.809	16.04
302.024	28.33
302.238	-6.49
302.452	140.97
302.667	30.38
302.881	61.1
303.095	69.29
303.309	46.76
303.524	40.62
303.738	126.63
303.952	28.33
304.166	77.48
304.381	-18.77
304.595	124.58
304.809	52.91
305.023	40.62
305.237	16.04
305.452	69.29
305.666	81.58
305.88	83.63
306.094	28.33
306.308	22.19
306.522	40.62
306.736	81.58
306.95	63.15
307.164	36.52
307.379	13.99
307.593	50.86
307.807	110.25
308.021	30.38
308.235	69.29
308.449	52.91
308.663	48.81
308.877	44.71
309.091	69.29
309.305	75.43
309.519	-12.63
309.733	91.82
309.947	16.04
310.161	132.78
310.374	75.43
310.588	52.91
310.802	-37.2
311.016	-26.96
311.23	124.58
311.444	44.71
311.658	65.19
311.872	54.95
312.085	52.91
312.299	75.43
312.513	85.67
312.727	69.29
312.941	42.67
313.154	73.39
313.368	28.33
313.582	48.81
313.796	100.01
314.009	32.43
314.223	79.53
314.437	77.48
314.651	-4.44
314.864	34.47
315.078	32.43
315.292	20.14
315.505	24.23
315.719	81.58
315.933	42.67
316.146	79.53
316.36	57
316.573	1.71
316.787	97.96
317.001	22.19
317.214	48.81
317.428	97.96
317.641	57
317.855	20.14
318.068	-4.44
318.282	20.14
318.495	69.29
318.709	48.81
318.922	-8.53
319.136	63.15
319.349	89.77
319.563	42.67
319.776	130.73
319.99	24.23
320.203	44.71
320.417	50.86
320.63	-24.92
320.843	183.98
321.057	34.47
321.27	100.01
321.483	63.15
321.697	89.77
321.91	34.47
322.124	114.34
322.337	50.86
322.55	40.62
322.763	34.47
322.977	61.1
323.19	67.24
323.403	54.95
323.617	65.19
323.83	59.05
324.043	22.19
324.256	38.57
324.469	126.63
324.683	85.67
324.896	57
325.109	83.63
325.322	1.71
325.535	26.28
325.748	85.67
325.962	11.95
326.175	36.52
326.388	24.23
326.601	46.76
326.814	44.71
327.027	116.39
327.24	85.67
327.453	16.04
327.666	59.05
327.879	-2.39
328.092	83.63
328.305	59.05
328.518	59.05
328.731	52.91
328.944	-6.49
329.157	36.52
329.37	13.99
329.583	75.43
329.796	81.58
330.009	32.43
330.222	24.23
330.435	75.43
330.648	73.39
330.861	77.48
331.073	93.87
331.286	91.82
331.499	106.15
331.712	77.48
331.925	-10.58
332.138	77.48
332.35	102.06
332.563	26.28
332.776	57
332.989	32.43
333.202	81.58
333.414	34.47
333.627	44.71
333.84	-8.53
334.053	-14.68
334.265	5.8
334.478	54.95
334.691	-45.4
334.903	91.82
335.116	73.39
335.329	32.43
335.541	38.57
335.754	85.67
335.966	42.67
336.179	-8.53
336.392	61.1
336.604	100.01
336.817	71.34
337.029	46.76
337.242	48.81
337.454	36.52
337.667	36.52
337.88	100.01
338.092	52.91
338.305	110.25
338.517	-12.63
338.729	48.81
338.942	67.24
339.154	11.95
339.367	52.91
339.579	83.63
339.792	65.19
340.004	73.39
340.217	38.57
340.429	61.1
340.641	-35.16
340.854	65.19
341.066	85.67
341.278	136.87
341.491	93.87
341.703	85.67
341.915	73.39
342.128	95.91
342.34	38.57
342.552	40.62
342.764	91.82
342.977	36.52
343.189	118.44
343.401	40.62
343.613	13.99
343.826	-37.2
344.038	118.44
344.25	44.71
344.462	-24.92
344.674	-0.34
344.886	61.1
345.099	136.87
345.311	9.9
345.523	73.39
345.735	46.76
345.947	32.43
346.159	52.91
346.371	114.34
346.583	85.67
346.795	171.69
347.007	30.38
347.219	48.81
347.431	108.2
347.643	65.19
347.855	89.77
348.067	52.91
348.279	16.04
348.491	95.91
348.703	20.14
348.915	40.62
349.127	77.48
349.339	69.29
349.551	-61.78
349.763	20.14
349.975	79.53
350.187	118.44
350.399	93.87
350.61	69.29
350.822	16.04
351.034	63.15
351.246	61.1
351.458	87.72
351.669	71.34
351.881	40.62
352.093	79.53
352.305	89.77
352.517	81.58
352.728	79.53
352.94	16.04
353.152	-8.53
353.363	63.15
353.575	52.91
353.787	110.25
353.999	83.63
354.21	159.4
354.422	106.15
354.633	110.25
354.845	91.82
355.057	59.05
355.268	36.52
355.48	57
355.692	75.43
355.903	-4.44
356.115	63.15
356.326	65.19
356.538	134.82
356.749	36.52
356.961	95.91
357.172	67.24
357.384	-6.49
357.595	67.24
357.807	34.47
358.018	38.57
358.23	-35.16
358.441	61.1
358.653	112.3
358.864	11.95
359.075	118.44
359.287	65.19
359.498	59.05
359.709	57
359.921	61.1
360.132	28.33
360.344	77.48
360.555	48.81
360.766	145.06
360.977	100.01
361.189	122.54
361.4	22.19
361.611	79.53
361.823	136.87
362.034	83.63
362.245	-35.16
362.456	69.29
362.667	54.95
362.879	46.76
363.09	48.81
363.301	26.28
363.512	50.86
363.723	32.43
363.935	18.09
364.146	87.72
364.357	36.52
364.568	83.63
364.779	50.86
364.99	165.54
365.201	-4.44
365.412	48.81
365.623	28.33
365.834	71.34
366.045	-10.58
366.256	120.49
366.467	128.68
366.678	75.43
366.889	89.77
367.1	28.33
367.311	159.4
367.522	24.23
367.733	61.1
367.944	177.83
368.155	18.09
368.366	67.24
368.577	95.91
368.788	91.82
368.999	81.58
369.209	102.06
369.42	69.29
369.631	106.15
369.842	52.91
370.053	44.71
370.264	126.63
370.474	61.1
370.685	46.76
370.896	9.9
371.107	163.5
371.317	118.44
371.528	59.05
371.739	126.63
371.95	106.15
372.16	110.25
372.371	73.39
372.582	34.47
372.792	159.4
373.003	54.95
373.214	16.04
373.424	179.88
373.635	1.71
373.846	106.15
374.056	147.11
374.267	57
374.477	151.21
374.688	16.04
374.898	124.58
375.109	95.91
375.319	75.43
375.53	52.91
375.74	63.15
375.951	89.77
376.161	48.81
376.372	112.3
376.582	100.01
376.793	110.25
377.003	18.09
377.214	52.91
377.424	140.97
377.635	71.34
377.845	120.49
378.055	102.06
378.266	65.19
378.476	36.52
378.686	91.82
378.897	83.63
379.107	118.44
379.317	36.52
379.528	52.91
379.738	106.15
379.948	73.39
380.158	77.48
380.369	18.09
380.579	116.39
380.789	30.38
380.999	140.97
381.21	65.19
381.42	110.25
381.63	57
381.84	171.69
382.05	63.15
382.261	36.52
382.471	50.86
382.681	114.34
382.891	61.1
383.101	106.15
383.311	38.57
383.521	42.67
383.731	151.21
383.941	140.97
384.151	65.19
384.361	34.47
384.571	52.91
384.781	83.63
384.991	57
385.201	196.26
385.411	118.44
385.621	30.38
385.831	118.44
386.041	112.3
386.251	52.91
386.461	97.96
386.671	81.58
386.881	75.43
387.091	-4.44
387.301	18.09
387.511	89.77
387.72	20.14
387.93	81.58
388.14	71.34
388.35	81.58
388.56	104.11
388.769	116.39
388.979	114.34
389.189	75.43
389.399	73.39
389.609	75.43
389.818	155.3
390.028	79.53
390.238	102.06
390.447	22.19
390.657	83.63
390.867	44.71
391.076	52.91
391.286	48.81
391.496	136.87
391.705	42.67
391.915	106.15
392.125	102.06
392.334	89.77
392.544	108.2
392.753	81.58
392.963	83.63
393.172	36.52
393.382	40.62
393.591	57
393.801	48.81
394.01	75.43
394.22	89.77
394.429	59.05
394.639	102.06
394.848	89.77
395.058	44.71
395.267	81.58
395.477	116.39
395.686	153.26
395.895	130.73
396.105	183.98
396.314	112.3
396.524	61.1
396.733	28.33
396.942	173.74
397.152	143.02
397.361	91.82
397.57	106.15
397.78	149.16
397.989	44.71
398.198	89.77
398.407	100.01
398.617	167.59
398.826	149.16
399.035	100.01
399.244	120.49
399.453	95.91
399.663	81.58
399.872	157.35
400.081	138.92
400.29	97.96
400.499	124.58
400.708	140.97
400.917	161.45
401.127	54.95
401.336	79.53
401.545	167.59
401.754	206.5
401.963	116.39
402.172	57
402.381	212.65
402.59	122.54
402.799	151.21
403.008	167.59
403.217	106.15
403.426	188.07
403.635	175.78
403.844	188.07
404.053	192.17
404.262	155.3
404.471	272.04
404.68	239.27
404.888	173.74
405.097	202.41
405.306	216.74
405.515	181.93
405.724	177.83
405.933	231.08
406.142	249.51
406.35	214.7
406.559	173.74
406.768	167.59
406.977	253.61
407.185	175.78
407.394	173.74
407.603	255.65
407.812	241.32
408.02	237.22
408.229	313
408.438	327.33
408.646	243.37
408.855	325.29
409.064	302.76
409.272	331.43
409.481	364.2
409.69	399.01
409.898	390.82
410.107	366.25
410.315	437.92
410.524	450.21
410.733	442.02
410.941	407.2
411.15	466.6
411.358	435.88
411.567	517.79
411.775	499.36
411.984	433.83
412.192	515.75
412.401	411.3
412.609	575.14
412.818	601.76
413.026	603.81
413.234	599.71
413.443	568.99
413.651	634.53
413.86	575.14
414.068	738.98
414.276	677.54
414.485	704.16
414.693	773.79
414.901	806.56
415.11	800.41
415.318	794.27
415.526	837.28
415.734	886.43
415.943	919.2
416.151	915.1
416.359	902.81
416.567	911
416.776	1009.31
416.984	1158.81
417.192	1128.09
417.4	1197.72
417.608	1246.87
417.817	1210.01
418.025	1146.52
418.233	1306.26
418.441	1230.49
418.649	1293.97
418.857	1519.25
419.065	1451.67
419.273	1472.15
419.481	1570.45
419.689	1650.32
419.897	1699.47
420.105	1722
420.313	1740.43
420.521	1844.88
420.729	1916.56
420.937	1875.6
421.145	1986.19
421.353	2113.16
421.561	2219.66
421.769	2199.18
421.977	2375.3
422.185	2303.62
422.393	2387.59
422.601	2526.85
422.809	2563.72
423.017	2596.48
423.224	2754.18
423.432	2920.06
423.64	2840.19
423.848	3042.94
424.056	2901.63
424.263	3165.82
424.471	3264.12
424.679	3262.07
424.887	3483.25
425.094	3475.06
425.302	3587.7
425.51	3663.47
425.718	3831.41
425.925	3825.26
426.133	4001.39
426.341	4177.51
426.548	4370.02
426.756	4384.36
426.964	4456.04
427.171	4697.7
427.379	4849.25
427.586	5033.57
427.794	4863.58
428.001	5250.65
428.209	5492.31
428.417	5457.5
428.624	5762.64
428.832	5819.99
429.039	5787.22
429.247	5920.34
429.454	6372.94
429.662	6899.27
429.869	6270.54
430.076	6905.41
430.284	6487.62
430.491	6936.13
430.699	7116.35
430.906	7274.04
431.114	7347.77
431.321	7646.77
431.528	7788.08
431.736	8390.19
431.943	8629.8
432.15	8459.82
432.358	8410.67
432.565	9043.49
432.772	8906.27
432.979	9313.82
433.187	9408.03
433.394	9465.37
433.601	10141.2
433.808	10307.09
434.016	10051.09
434.223	10526.22
434.43	11396.6
434.637	11030.02
434.844	11736.57
435.052	11996.66
435.259	11929.08
435.466	12097.01
435.673	11890.17
435.88	12668.39
436.087	13180.39
436.294	13469.15
436.501	13184.48
436.708	13151.71
436.915	13651.42
437.122	14304.72
437.329	14241.23
437.537	14722.51
437.743	14917.06
437.95	14634.44
438.157	15525.31
438.364	16156.08
438.571	16059.83
438.778	16063.93
438.985	17436.06
439.192	16895.4
439.399	17477.02
439.606	16932.26
439.813	17810.84
440.02	19363.2
440.227	18883.98
440.433	18718.09
440.64	19158.41
440.847	19105.16
441.054	19729.79
441.261	20618.61
441.467	20761.97
441.674	21173.61
441.881	21943.64
442.088	21724.51
442.294	21372.26
442.501	21970.27
442.708	22467.92
442.914	23289.16
443.121	24423.73
443.328	23592.26
443.534	25361.7
443.741	24649.01
443.948	24454.45
444.154	26025.25
444.361	25763.11
444.568	25711.91
444.774	25988.38
444.981	26283.29
445.187	27182.35
445.394	28312.83
445.6	27886.85
445.807	30403.8
446.013	29326.57
446.22	29816.04
446.426	30547.16
446.633	30878.93
446.839	31843.52
447.046	30653.65
447.252	32593.08
447.459	32531.64
447.665	32552.12
447.871	33914.02
448.078	34485.4
448.284	32943.28
448.491	33959.08
448.697	35548.3
448.903	35943.56
449.11	36318.34
449.316	35335.31
449.522	36271.23
449.728	37315.7
449.935	37278.83
450.141	37295.22
450.347	38081.64
450.553	37198.96
450.76	37436.53
450.966	38511.71
451.172	38001.77
451.378	38995.03
451.584	38237.28
451.791	39027.8
451.997	38978.65
452.203	39636.05
452.409	39435.34
452.615	39283.8
452.821	37985.38
453.027	37112.95
453.233	39191.64
453.44	37475.44
453.646	37981.29
453.852	38261.86
454.058	38722.65
454.264	37565.55
454.47	38542.43
454.676	37688.43
454.882	38597.73
455.088	35310.74
455.294	35863.69
455.5	36258.95
455.705	36787.32
455.911	35662.99
456.117	34675.87
456.323	33987.75
456.529	31935.68
456.735	33412.27
456.941	32593.08
457.147	32017.6
457.352	31239.37
457.558	30694.61
457.764	30934.23
457.97	30166.24
458.176	29613.29
458.381	29603.05
458.587	28077.31
458.793	28161.28
458.999	26602.77
459.204	28474.62
459.41	27933.95
459.616	25777.44
459.821	25924.9
460.027	25754.91
460.233	25406.76
460.438	24143.16
460.644	24497.46
460.85	23250.25
461.055	22918.48
461.261	22666.58
461.466	21255.53
461.672	20460.91
461.878	21607.78
462.083	20727.15
462.289	20092.28
462.494	20141.43
462.7	19174.79
462.905	18757
463.111	19309.96
463.316	19174.79
463.522	18912.65
463.727	19047.82
463.932	18779.53
464.138	18763.15
464.343	18615.69
464.549	18353.55
464.754	18783.63
464.959	18752.91
465.165	18568.59
465.37	18042.26
465.575	17374.63
465.781	18144.66
465.986	18331.03
466.191	17479.07
466.397	17206.69
466.602	16199.09
466.807	16762.28
467.012	17206.69
467.218	17083.81
467.423	16692.65
