Data from USB4F104151__203__10-29-35-878.txt Node

Date: Wed Mar 12 10:29:35 EDT 2025
User: louis
Spectrometer: USB4F10415
Trigger mode: 4
Integration Time (sec): 3.000000E-2
Scans to average: 1
Electric dark correction enabled: true
Nonlinearity correction enabled: false
Boxcar width: 0
XAxis mode: Wavelengths
Number of Pixels in Spectrum: 3648
>>>>>Begin Spectral Data<<<<<
178.204	-136.02
178.424	-136.02
178.644	-136.02
178.864	-103.25
179.084	-172.88
179.304	11.43
179.524	-2.9
179.744	-56.15
179.964	31.91
180.184	-29.52
180.404	3.24
180.624	17.58
180.844	-13.14
181.064	9.39
181.283	29.87
181.503	5.29
181.723	-7
181.943	-43.86
182.163	132.26
182.383	27.82
182.602	48.3
182.822	-47.96
183.042	70.83
183.262	-41.81
183.482	76.97
183.701	-2.9
183.921	60.59
184.141	-19.29
184.361	-43.86
184.58	52.39
184.8	29.87
185.02	-31.57
185.239	70.83
185.459	-15.19
185.679	9.39
185.898	-45.91
186.118	54.44
186.338	38.06
186.557	46.25
186.777	-47.96
186.997	5.29
187.216	-29.52
187.436	-11.09
187.655	21.67
187.875	56.49
188.095	-31.57
188.314	29.87
188.534	79.02
188.753	-15.19
188.973	3.24
189.192	103.59
189.412	52.39
189.631	9.39
189.851	13.48
190.07	97.45
190.29	27.82
190.509	-2.9
190.729	-47.96
190.948	95.4
191.168	93.35
191.387	91.31
191.607	11.43
191.826	3.24
192.045	-29.52
192.265	50.35
192.484	54.44
192.704	-39.76
192.923	-21.33
193.142	-2.9
193.362	3.24
193.581	68.78
193.8	46.25
194.02	-72.53
194.239	29.87
194.458	27.82
194.678	-15.19
194.897	-21.33
195.116	27.82
195.335	-43.86
195.555	-45.91
195.774	-17.24
195.993	122.02
196.212	-25.43
196.432	-58.2
196.651	-17.24
196.87	-103.25
197.089	25.77
197.308	-33.62
197.528	-19.29
197.747	-11.09
197.966	-37.72
198.185	3.24
198.404	13.48
198.623	40.11
198.842	66.73
199.062	40.11
199.281	44.2
199.5	58.54
199.719	-2.9
199.938	27.82
200.157	93.35
200.376	-43.86
200.595	38.06
200.814	11.43
201.033	-86.87
201.252	68.78
201.471	21.67
201.69	1.19
201.909	21.67
202.128	-45.91
202.347	-19.29
202.566	36.01
202.785	5.29
203.004	-15.19
203.223	11.43
203.442	21.67
203.661	60.59
203.879	-15.19
204.098	-13.14
204.317	29.87
204.536	72.87
204.755	48.3
204.974	15.53
205.193	-21.33
205.411	119.98
205.63	38.06
205.849	21.67
206.068	-9.05
206.287	19.63
206.505	-21.33
206.724	-54.1
206.943	-11.09
207.162	-4.95
207.381	95.4
207.599	-7
207.818	-31.57
208.037	-29.52
208.255	29.87
208.474	13.48
208.693	11.43
208.911	83.11
209.13	60.59
209.349	-47.96
209.567	74.92
209.786	54.44
210.005	76.97
210.223	9.39
210.442	-15.19
210.661	-45.91
210.879	29.87
211.098	-25.43
211.316	-4.95
211.535	64.68
211.753	-15.19
211.972	21.67
212.191	-17.24
212.409	9.39
212.628	-19.29
212.846	46.25
213.065	-37.72
213.283	38.06
213.502	-11.09
213.72	54.44
213.938	11.43
214.157	48.3
214.375	-19.29
214.594	19.63
214.812	29.87
215.031	15.53
215.249	-9.05
215.467	36.01
215.686	19.63
215.904	62.63
216.122	23.72
216.341	-56.15
216.559	13.48
216.778	146.6
216.996	5.29
217.214	-19.29
217.432	-27.48
217.651	-29.52
217.869	27.82
218.087	29.87
218.306	58.54
218.524	29.87
218.742	-13.14
218.96	72.87
219.179	29.87
219.397	25.77
219.615	52.39
219.833	44.2
220.051	-76.63
220.27	-64.34
220.488	13.48
220.706	27.82
220.924	-0.85
221.142	-0.85
221.36	19.63
221.578	21.67
221.796	-19.29
222.015	-13.14
222.233	87.21
222.451	64.68
222.669	21.67
222.887	29.87
223.105	9.39
223.323	38.06
223.541	19.63
223.759	25.77
223.977	38.06
224.195	42.15
224.413	54.44
224.631	21.67
224.849	-15.19
225.067	62.63
225.285	44.2
225.503	29.87
225.721	-23.38
225.939	60.59
226.157	17.58
226.375	99.5
226.592	-56.15
226.81	27.82
227.028	-23.38
227.246	19.63
227.464	-27.48
227.682	-35.67
227.9	107.69
228.117	91.31
228.335	36.01
228.553	62.63
228.771	5.29
228.989	-0.85
229.206	44.2
229.424	-33.62
229.642	11.43
229.86	19.63
230.077	-0.85
230.295	19.63
230.513	113.83
230.731	113.83
230.948	25.77
231.166	58.54
231.384	21.67
231.601	85.16
231.819	15.53
232.037	-62.29
232.254	15.53
232.472	21.67
232.689	-29.52
232.907	-23.38
233.125	-2.9
233.342	68.78
233.56	15.53
233.777	-21.33
233.995	9.39
234.213	7.34
234.43	72.87
234.648	-2.9
234.865	66.73
235.083	19.63
235.3	50.35
235.518	13.48
235.735	76.97
235.953	74.92
236.17	-2.9
236.388	64.68
236.605	-41.81
236.822	103.59
237.04	68.78
237.257	13.48
237.475	70.83
237.692	54.44
237.909	17.58
238.127	44.2
238.344	21.67
238.562	-4.95
238.779	-64.34
238.996	36.01
239.214	29.87
239.431	40.11
239.648	124.07
239.865	42.15
240.083	-80.72
240.3	-7
240.517	-23.38
240.735	-52.05
240.952	85.16
241.169	46.25
241.386	-29.52
241.603	-15.19
241.821	-39.76
242.038	33.96
242.255	-60.24
242.472	11.43
242.689	128.17
242.907	13.48
243.124	70.83
243.341	33.96
243.558	85.16
243.775	7.34
243.992	-35.67
244.209	44.2
244.426	99.5
244.643	48.3
244.86	27.82
245.078	25.77
245.295	44.2
245.512	91.31
245.729	-2.9
245.946	50.35
246.163	-54.1
246.38	56.49
246.597	15.53
246.814	-0.85
247.031	70.83
247.248	-13.14
247.464	76.97
247.681	50.35
247.898	54.44
248.115	9.39
248.332	52.39
248.549	27.82
248.766	128.17
248.983	5.29
249.2	3.24
249.417	11.43
249.633	19.63
249.85	9.39
250.067	97.45
250.284	-58.2
250.501	83.11
250.717	33.96
250.934	-41.81
251.151	-25.43
251.368	-41.81
251.585	66.73
251.801	-4.95
252.018	29.87
252.235	-2.9
252.451	5.29
252.668	38.06
252.885	15.53
253.102	27.82
253.318	-27.48
253.535	-35.67
253.752	3.24
253.968	36.01
254.185	44.2
254.401	52.39
254.618	3.24
254.835	27.82
255.051	72.87
255.268	76.97
255.484	-13.14
255.701	107.69
255.917	44.2
256.134	3.24
256.351	-27.48
256.567	54.44
256.784	70.83
257	27.82
257.217	79.02
257.433	21.67
257.65	-13.14
257.866	-2.9
258.082	52.39
258.299	15.53
258.515	-43.86
258.732	-25.43
258.948	50.35
259.165	-19.29
259.381	5.29
259.597	42.15
259.814	38.06
260.03	-52.05
260.246	38.06
260.463	27.82
260.679	91.31
260.895	54.44
261.112	60.59
261.328	-29.52
261.544	-35.67
261.761	21.67
261.977	13.48
262.193	17.58
262.409	42.15
262.626	117.93
262.842	23.72
263.058	13.48
263.274	72.87
263.49	9.39
263.707	19.63
263.923	-39.76
264.139	-4.95
264.355	-13.14
264.571	66.73
264.787	5.29
265.004	44.2
265.22	38.06
265.436	-4.95
265.652	-33.62
265.868	21.67
266.084	13.48
266.3	9.39
266.516	-17.24
266.732	68.78
266.948	-15.19
267.164	-43.86
267.38	68.78
267.596	13.48
267.812	9.39
268.028	19.63
268.244	31.91
268.46	21.67
268.676	50.35
268.892	58.54
269.108	3.24
269.324	7.34
269.54	19.63
269.756	46.25
269.972	-4.95
270.188	-11.09
270.403	9.39
270.619	-19.29
270.835	9.39
271.051	-33.62
271.267	-19.29
271.483	48.3
271.698	62.63
271.914	17.58
272.13	-19.29
272.346	50.35
272.562	-15.19
272.777	122.02
272.993	33.96
273.209	-7
273.425	95.4
273.64	11.43
273.856	33.96
274.072	66.73
274.287	17.58
274.503	-13.14
274.719	-13.14
274.934	29.87
275.15	5.29
275.366	29.87
275.581	-15.19
275.797	-45.91
276.012	-23.38
276.228	66.73
276.444	-41.81
276.659	-15.19
276.875	-15.19
277.09	5.29
277.306	9.39
277.521	83.11
277.737	25.77
277.952	83.11
278.168	29.87
278.383	15.53
278.599	-19.29
278.814	5.29
279.03	44.2
279.245	62.63
279.461	-25.43
279.676	97.45
279.892	-23.38
280.107	50.35
280.322	1.19
280.538	38.06
280.753	27.82
280.969	33.96
281.184	29.87
281.399	46.25
281.615	-35.67
281.83	52.39
282.045	50.35
282.26	42.15
282.476	31.91
282.691	21.67
282.906	54.44
283.122	23.72
283.337	13.48
283.552	38.06
283.767	19.63
283.983	70.83
284.198	11.43
284.413	60.59
284.628	-23.38
284.843	58.54
285.058	-27.48
285.274	44.2
285.489	58.54
285.704	74.92
285.919	13.48
286.134	85.16
286.349	5.29
286.564	-19.29
286.779	11.43
286.995	42.15
287.21	-35.67
287.425	44.2
287.64	-15.19
287.855	27.82
288.07	9.39
288.285	109.74
288.5	-15.19
288.715	107.69
288.93	-21.33
289.145	-35.67
289.36	60.59
289.575	1.19
289.79	3.24
290.004	85.16
290.219	-50
290.434	62.63
290.649	-2.9
290.864	23.72
291.079	85.16
291.294	64.68
291.509	58.54
291.724	-4.95
291.938	15.53
292.153	72.87
292.368	72.87
292.583	-11.09
292.798	5.29
293.012	-21.33
293.227	-17.24
293.442	-4.95
293.657	-7
293.871	23.72
294.086	46.25
294.301	19.63
294.516	29.87
294.73	33.96
294.945	21.67
295.16	40.11
295.374	-31.57
295.589	70.83
295.804	-23.38
296.018	62.63
296.233	-27.48
296.447	15.53
296.662	56.49
296.877	-4.95
297.091	44.2
297.306	70.83
297.52	-2.9
297.735	74.92
297.949	-2.9
298.164	76.97
298.378	13.48
298.593	-7
298.807	-37.72
299.022	15.53
299.236	36.01
299.451	25.77
299.665	-15.19
299.88	91.31
300.094	23.72
300.309	5.29
300.523	-11.09
300.737	29.87
300.952	-4.95
301.166	19.63
301.381	50.35
301.595	-7
301.809	9.39
302.024	27.82
302.238	-19.29
302.452	31.91
302.667	81.07
302.881	76.97
303.095	111.78
303.309	87.21
303.524	21.67
303.738	36.01
303.952	-60.24
304.166	-4.95
304.381	-35.67
304.595	76.97
304.809	7.34
305.023	60.59
305.237	9.39
305.452	95.4
305.666	9.39
305.88	21.67
306.094	15.53
306.308	40.11
306.522	85.16
306.736	124.07
306.95	64.68
307.164	13.48
307.379	38.06
307.593	15.53
307.807	56.49
308.021	89.26
308.235	113.83
308.449	46.25
308.663	27.82
308.877	42.15
309.091	62.63
309.305	117.93
309.519	-7
309.733	76.97
309.947	-35.67
310.161	-7
310.374	36.01
310.588	101.55
310.802	7.34
311.016	44.2
311.23	5.29
311.444	-41.81
311.658	44.2
311.872	-23.38
312.085	44.2
312.299	64.68
312.513	29.87
312.727	13.48
312.941	33.96
313.154	9.39
313.368	50.35
313.582	91.31
313.796	1.19
314.009	85.16
314.223	21.67
314.437	44.2
314.651	44.2
314.864	7.34
315.078	-29.52
315.292	-29.52
315.505	-11.09
315.719	-7
315.933	-7
316.146	9.39
316.36	97.45
316.573	36.01
316.787	-35.67
317.001	-15.19
317.214	17.58
317.428	48.3
317.641	113.83
317.855	-27.48
318.068	68.78
318.282	13.48
318.495	87.21
318.709	46.25
318.922	27.82
319.136	87.21
319.349	132.26
319.563	42.15
319.776	9.39
319.99	9.39
320.203	42.15
320.417	29.87
320.63	31.91
320.843	83.11
321.057	-2.9
321.27	50.35
321.483	29.87
321.697	29.87
321.91	36.01
322.124	103.59
322.337	93.35
322.55	13.48
322.763	-0.85
322.977	36.01
323.19	-0.85
323.403	54.44
323.617	38.06
323.83	21.67
324.043	48.3
324.256	25.77
324.469	-47.96
324.683	87.21
324.896	40.11
325.109	91.31
325.322	29.87
325.535	66.73
325.748	5.29
325.962	79.02
326.175	38.06
326.388	66.73
326.601	17.58
326.814	13.48
327.027	33.96
327.24	-0.85
327.453	13.48
327.666	21.67
327.879	11.43
328.092	171.18
328.305	25.77
328.518	25.77
328.731	54.44
328.944	44.2
329.157	1.19
329.37	70.83
329.583	91.31
329.796	126.12
330.009	-62.29
330.222	19.63
330.435	72.87
330.648	54.44
330.861	38.06
331.073	36.01
331.286	81.07
331.499	-21.33
331.712	5.29
331.925	54.44
332.138	46.25
332.35	95.4
332.563	50.35
332.776	48.3
332.989	-7
333.202	5.29
333.414	-19.29
333.627	23.72
333.84	33.96
334.053	68.78
334.265	17.58
334.478	1.19
334.691	-35.67
334.903	46.25
335.116	97.45
335.329	-27.48
335.541	66.73
335.754	17.58
335.966	1.19
336.179	33.96
336.392	-27.48
336.604	50.35
336.817	48.3
337.029	81.07
337.242	40.11
337.454	31.91
337.667	52.39
337.88	21.67
338.092	38.06
338.305	3.24
338.517	46.25
338.729	64.68
338.942	29.87
339.154	-60.24
339.367	-4.95
339.579	76.97
339.792	-2.9
340.004	119.98
340.217	42.15
340.429	60.59
340.641	107.69
340.854	17.58
341.066	46.25
341.278	119.98
341.491	93.35
341.703	50.35
341.915	-47.96
342.128	62.63
342.34	9.39
342.552	36.01
342.764	9.39
342.977	54.44
343.189	9.39
343.401	13.48
343.613	11.43
343.826	-7
344.038	72.87
344.25	21.67
344.462	5.29
344.674	58.54
344.886	-15.19
345.099	58.54
345.311	33.96
345.523	29.87
345.735	72.87
345.947	-45.91
346.159	19.63
346.371	54.44
346.583	66.73
346.795	95.4
347.007	19.63
347.219	103.59
347.431	36.01
347.643	109.74
347.855	9.39
348.067	52.39
348.279	21.67
348.491	36.01
348.703	64.68
348.915	46.25
349.127	13.48
349.339	91.31
349.551	21.67
349.763	27.82
349.975	5.29
350.187	23.72
350.399	23.72
350.61	107.69
350.822	36.01
351.034	3.24
351.246	42.15
351.458	11.43
351.669	93.35
351.881	70.83
352.093	72.87
352.305	95.4
352.517	7.34
352.728	101.55
352.94	-31.57
353.152	58.54
353.363	15.53
353.575	48.3
353.787	27.82
353.999	142.5
354.21	101.55
354.422	29.87
354.633	25.77
354.845	60.59
355.057	38.06
355.268	15.53
355.48	38.06
355.692	81.07
355.903	72.87
356.115	48.3
356.326	19.63
356.538	60.59
356.749	38.06
356.961	40.11
357.172	27.82
357.384	62.63
357.595	70.83
357.807	5.29
358.018	42.15
358.23	38.06
358.441	38.06
358.653	29.87
358.864	21.67
359.075	48.3
359.287	5.29
359.498	105.64
359.709	76.97
359.921	74.92
360.132	-7
360.344	79.02
360.555	11.43
360.766	11.43
360.977	3.24
361.189	105.64
361.4	-27.48
361.611	66.73
361.823	83.11
362.034	13.48
362.245	5.29
362.456	70.83
362.667	40.11
362.879	81.07
363.09	66.73
363.301	54.44
363.512	62.63
363.723	19.63
363.935	111.78
364.146	36.01
364.357	-19.29
364.568	87.21
364.779	-13.14
364.99	68.78
365.201	60.59
365.412	113.83
365.623	38.06
365.834	91.31
366.045	36.01
366.256	42.15
366.467	95.4
366.678	58.54
366.889	29.87
367.1	19.63
367.311	87.21
367.522	21.67
367.733	85.16
367.944	109.74
368.155	54.44
368.366	23.72
368.577	-17.24
368.788	83.11
368.999	29.87
369.209	74.92
369.42	74.92
369.631	54.44
369.842	23.72
370.053	68.78
370.264	97.45
370.474	29.87
370.685	7.34
370.896	29.87
371.107	52.39
371.317	-4.95
371.528	81.07
371.739	115.88
371.95	-25.43
372.16	50.35
372.371	62.63
372.582	72.87
372.792	58.54
373.003	56.49
373.214	-17.24
373.424	81.07
373.635	-7
373.846	52.39
374.056	50.35
374.267	-15.19
374.477	66.73
374.688	70.83
374.898	42.15
375.109	11.43
375.319	46.25
375.53	40.11
375.74	3.24
375.951	62.63
376.161	38.06
376.372	48.3
376.582	62.63
376.793	1.19
377.003	60.59
377.214	9.39
377.424	50.35
377.635	62.63
377.845	23.72
378.055	9.39
378.266	99.5
378.476	70.83
378.686	74.92
378.897	124.07
379.107	60.59
379.317	66.73
379.528	31.91
379.738	25.77
379.948	5.29
380.158	64.68
380.369	142.5
380.579	50.35
380.789	-33.62
380.999	83.11
381.21	105.64
381.42	42.15
381.63	50.35
381.84	119.98
382.05	89.26
382.261	54.44
382.471	99.5
382.681	29.87
382.891	38.06
383.101	38.06
383.311	5.29
383.521	46.25
383.731	62.63
383.941	87.21
384.151	105.64
384.361	-23.38
384.571	97.45
384.781	64.68
384.991	46.25
385.201	128.17
385.411	70.83
385.621	87.21
385.831	48.3
386.041	33.96
386.251	21.67
386.461	9.39
386.671	50.35
386.881	95.4
387.091	64.68
387.301	38.06
387.511	56.49
387.72	119.98
387.93	138.41
388.14	48.3
388.35	33.96
388.56	93.35
388.769	156.84
388.979	68.78
389.189	60.59
389.399	87.21
389.609	29.87
389.818	68.78
390.028	58.54
390.238	38.06
390.447	-37.72
390.657	79.02
390.867	31.91
391.076	56.49
391.286	40.11
391.496	79.02
391.705	113.83
391.915	87.21
392.125	79.02
392.334	101.55
392.544	79.02
392.753	58.54
392.963	140.46
393.172	93.35
393.382	99.5
393.591	148.65
393.801	66.73
394.01	115.88
394.22	33.96
394.429	29.87
394.639	111.78
394.848	64.68
395.058	99.5
395.267	95.4
395.477	70.83
395.686	113.83
395.895	228.52
396.105	181.42
396.314	87.21
396.524	138.41
396.733	56.49
396.942	177.32
397.152	128.17
397.361	19.63
397.57	126.12
397.78	42.15
397.989	101.55
398.198	117.93
398.407	48.3
398.617	56.49
398.826	111.78
399.035	124.07
399.244	79.02
399.453	101.55
399.663	140.46
399.872	150.7
400.081	128.17
400.29	132.26
400.499	70.83
400.708	144.55
400.917	140.46
401.127	107.69
401.336	33.96
401.545	115.88
401.754	134.31
401.963	146.6
402.172	70.83
402.381	83.11
402.59	165.03
402.799	126.12
403.008	156.84
403.217	126.12
403.426	122.02
403.635	87.21
403.844	203.94
404.053	85.16
404.262	175.27
404.471	236.71
404.68	150.7
404.888	183.46
405.097	150.7
405.306	177.32
405.515	205.99
405.724	138.41
405.933	201.9
406.142	224.42
406.35	236.71
406.559	193.7
406.768	191.66
406.977	267.43
407.185	279.72
407.394	304.29
407.603	238.76
407.812	238.76
408.02	324.77
408.229	353.45
408.438	308.39
408.646	316.58
408.855	308.39
409.064	289.96
409.272	314.53
409.481	255.14
409.69	341.16
409.898	335.01
410.107	355.49
410.315	332.97
410.524	480.42
410.733	418.98
410.941	328.87
411.15	474.28
411.358	455.84
411.567	562.34
411.775	533.67
411.984	464.04
412.192	480.42
412.401	576.67
412.609	543.91
412.818	611.49
413.026	586.91
413.234	586.91
413.443	564.39
413.651	636.06
413.86	677.02
414.068	799.9
414.276	767.13
414.485	699.55
414.693	826.53
414.901	926.88
415.11	816.29
415.318	892.06
415.526	910.49
415.734	941.21
415.943	935.07
416.151	1051.8
416.359	1027.23
416.567	976.03
416.776	1115.29
416.984	1203.35
417.192	1277.08
417.4	1340.57
417.608	1139.87
417.817	1172.63
418.025	1315.99
418.233	1418.39
418.441	1348.76
418.649	1475.73
418.857	1602.71
419.065	1541.27
419.273	1559.7
419.481	1688.72
419.689	1735.82
419.897	1928.33
420.105	1844.37
420.313	1995.92
420.521	1930.38
420.729	1954.96
420.937	2122.89
421.145	2143.37
421.353	2256.01
421.561	2313.35
421.769	2460.81
421.977	2608.26
422.185	2509.96
422.393	2665.6
422.601	2856.06
422.809	2929.79
423.017	2817.15
423.224	2995.32
423.432	3083.39
423.64	3048.57
423.848	3249.27
424.056	3271.8
424.263	3544.18
424.471	3568.76
424.679	3552.37
424.887	3863.66
425.094	4013.17
425.302	4023.41
425.51	4095.08
425.718	4224.11
425.925	4269.16
426.133	4437.09
426.341	4705.38
426.548	4848.74
426.756	5022.81
426.964	4973.66
427.171	5108.83
427.379	5307.48
427.586	5397.59
427.794	5540.95
428.001	5829.71
428.209	6026.32
428.417	5983.31
428.624	6413.38
428.832	6583.37
429.039	6343.75
429.247	6454.34
429.454	7085.12
429.662	7560.25
429.869	6917.19
430.076	7558.2
430.284	7355.45
430.491	7588.92
430.699	7920.69
430.906	7963.7
431.114	8053.81
431.321	8545.32
431.528	8721.45
431.736	9296.92
431.943	9673.75
432.15	9417.75
432.358	9430.04
432.565	9786.39
432.772	9864.21
432.979	10466.31
433.187	10892.29
433.394	10660.87
433.601	11359.23
433.808	11443.2
434.016	11187.2
434.223	11803.64
434.43	12663.79
434.637	12385.26
434.844	13134.82
435.052	13415.39
435.259	13208.55
435.466	13308.9
435.673	13274.08
435.88	14144.47
436.087	15117.25
436.294	14814.15
436.501	14420.94
436.708	14760.91
436.915	15174.6
437.122	15827.9
437.329	16006.07
437.537	16104.37
437.743	16608.17
437.95	16219.06
438.157	17292.19
438.364	17947.54
438.571	17906.59
438.778	18105.24
438.985	19471.23
439.192	18756.49
439.399	19342.21
439.606	19108.74
439.813	20249.46
440.02	21261.16
440.227	21146.47
440.433	20556.66
440.64	21582.69
440.847	21459.81
441.054	22176.6
441.261	23395.14
441.467	23204.68
441.674	23747.39
441.881	24369.97
442.088	24144.7
442.294	23882.56
442.501	24744.75
442.708	25320.23
442.914	26096.41
443.121	27273.99
443.328	26714.9
443.534	28207.87
443.741	27575.05
443.948	26934.03
444.154	29291.24
444.361	28840.69
444.568	29012.72
444.774	28887.79
444.981	29389.55
445.187	30350.04
445.394	31533.77
445.6	31347.4
445.807	34192.03
446.013	32729.78
446.22	33215.15
446.426	34527.9
446.633	34718.36
446.839	35707.53
447.046	34966.17
447.252	36381.31
447.459	36575.87
447.665	36258.43
447.871	37984.87
448.078	39180.88
448.284	37405.3
448.491	38165.09
448.697	39871.05
448.903	40794.68
449.11	40262.21
449.316	40182.34
449.522	40397.38
449.728	41364.02
449.935	41728.56
450.141	41845.29
450.347	42768.93
450.553	41220.66
450.76	41871.92
450.966	43092.51
451.172	42355.24
451.378	43538.96
451.584	42869.28
451.791	43735.57
451.997	43489.81
452.203	44501.51
452.409	44274.18
452.615	44100.11
452.821	42486.31
453.027	42035.75
453.233	44284.42
453.44	42361.38
453.646	43043.35
453.852	42699.3
454.058	43745.81
454.264	42164.78
454.47	42934.81
454.676	41804.33
454.882	43366.93
455.088	39813.71
455.294	40368.71
455.5	40663.61
455.705	41785.9
455.911	39600.72
456.117	38906.46
456.323	38199.91
456.529	36342.4
456.735	37802.6
456.941	36981.37
457.147	35990.15
457.352	35203.73
457.558	34755.22
457.764	34654.87
457.97	34273.95
458.176	33764.01
458.381	33356.46
458.587	31746.76
458.793	31566.54
458.999	30317.28
459.204	32469.69
459.41	31548.11
459.616	29348.59
459.821	29186.8
460.027	29299.44
460.233	28877.55
460.438	26997.52
460.644	27669.25
460.85	26096.41
461.055	26073.88
461.261	26082.08
461.466	23933.76
461.672	23348.04
461.878	24951.6
462.083	23333.7
462.289	23026.51
462.494	22604.63
462.7	21926.75
462.905	21121.9
463.111	21947.23
463.316	21920.6
463.522	21406.56
463.727	21732.19
463.932	21396.32
464.138	21355.36
464.343	21425
464.549	20601.71
464.754	21449.57
464.959	21177.19
465.165	21076.84
465.37	20312.95
465.575	19784.57
465.781	20333.43
465.986	20552.56
466.191	19889.02
466.397	19678.08
466.602	18281.36
466.807	19266.44
467.012	19213.19
467.218	19084.17
