Data from USB4F104151__226__10-30-13-831.txt Node

Date: Wed Mar 12 10:30:13 EDT 2025
User: louis
Spectrometer: USB4F10415
Trigger mode: 4
Integration Time (sec): 3.000000E-2
Scans to average: 1
Electric dark correction enabled: true
Nonlinearity correction enabled: false
Boxcar width: 0
XAxis mode: Wavelengths
Number of Pixels in Spectrum: 3648
>>>>>Begin Spectral Data<<<<<
178.204	-114
178.424	-114
178.644	-114
178.864	-75.09
179.084	-126.29
179.304	-13.65
179.524	-66.9
179.744	39.59
179.964	43.69
180.184	12.97
180.404	12.97
180.624	29.35
180.844	43.69
181.064	-36.18
181.283	-17.75
181.503	-17.75
181.723	-30.04
181.943	60.07
182.163	88.75
182.383	41.64
182.602	64.17
182.822	35.5
183.042	74.41
183.262	-46.42
183.482	27.31
183.701	86.7
183.921	68.27
184.141	-68.95
184.361	8.87
184.58	37.55
184.8	-17.75
185.02	-7.51
185.239	47.79
185.459	43.69
185.679	53.93
185.898	-56.66
186.118	80.55
186.338	-68.95
186.557	90.79
186.777	35.5
186.997	39.59
187.216	2.73
187.436	21.16
187.655	47.79
187.875	62.12
188.095	-9.56
188.314	82.6
188.534	86.7
188.753	-30.04
188.973	4.78
189.192	139.94
189.412	-32.08
189.631	17.07
189.851	-3.41
190.07	55.98
190.29	-15.7
190.509	82.6
190.729	45.74
190.948	111.27
191.168	193.19
191.387	6.83
191.607	6.83
191.826	12.97
192.045	25.26
192.265	12.97
192.484	70.31
192.704	64.17
192.923	-1.37
193.142	117.42
193.362	29.35
193.581	31.4
193.8	4.78
194.02	60.07
194.239	19.11
194.458	-11.61
194.678	17.07
194.897	-1.37
195.116	23.21
195.335	39.59
195.555	10.92
195.774	-1.37
195.993	-11.61
196.212	39.59
196.432	17.07
196.651	-7.51
196.87	70.31
197.089	78.51
197.308	117.42
197.528	60.07
197.747	10.92
197.966	92.84
198.185	4.78
198.404	41.64
198.623	2.73
198.842	72.36
199.062	47.79
199.281	45.74
199.5	27.31
199.719	51.88
199.938	4.78
200.157	15.02
200.376	64.17
200.595	45.74
200.814	37.55
201.033	0.68
201.252	45.74
201.471	39.59
201.69	6.83
201.909	37.55
202.128	66.22
202.347	82.6
202.566	-1.37
202.785	33.45
203.004	-58.71
203.223	88.75
203.442	43.69
203.661	27.31
203.879	0.68
204.098	72.36
204.317	-60.76
204.536	88.75
204.755	86.7
204.974	47.79
205.193	-38.23
205.411	92.84
205.63	31.4
205.849	86.7
206.068	125.61
206.287	-30.04
206.505	43.69
206.724	162.47
206.943	23.21
207.162	12.97
207.381	29.35
207.599	55.98
207.818	64.17
208.037	-19.8
208.255	-1.37
208.474	53.93
208.693	23.21
208.911	39.59
209.13	41.64
209.349	-77.14
209.567	12.97
209.786	25.26
210.005	80.55
210.223	31.4
210.442	-54.61
210.661	47.79
210.879	62.12
211.098	64.17
211.316	-42.32
211.535	35.5
211.753	23.21
211.972	90.79
212.191	37.55
212.409	-25.94
212.628	68.27
212.846	21.16
213.065	105.13
213.283	55.98
213.502	29.35
213.72	-5.46
213.938	41.64
214.157	21.16
214.375	68.27
214.594	37.55
214.812	94.89
215.031	58.03
215.249	15.02
215.467	29.35
215.686	19.11
215.904	74.41
216.122	2.73
216.341	41.64
216.559	47.79
216.778	90.79
216.996	53.93
217.214	58.03
217.432	10.92
217.651	-21.85
217.869	25.26
218.087	139.94
218.306	-38.23
218.524	49.83
218.742	-23.89
218.96	113.32
219.179	31.4
219.397	88.75
219.615	21.16
219.833	19.11
220.051	62.12
220.27	98.99
220.488	68.27
220.706	25.26
220.924	-50.52
221.142	64.17
221.36	64.17
221.578	105.13
221.796	49.83
222.015	68.27
222.233	39.59
222.451	113.32
222.669	88.75
222.887	51.88
223.105	-30.04
223.323	92.84
223.541	33.45
223.759	17.07
223.977	-13.65
224.195	37.55
224.413	31.4
224.631	109.22
224.849	53.93
225.067	60.07
225.285	2.73
225.503	17.07
225.721	-36.18
225.939	45.74
226.157	29.35
226.375	72.36
226.592	15.02
226.81	-11.61
227.028	27.31
227.246	78.51
227.464	92.84
227.682	60.07
227.9	68.27
228.117	29.35
228.335	29.35
228.553	125.61
228.771	92.84
228.989	68.27
229.206	37.55
229.424	-25.94
229.642	27.31
229.86	31.4
230.077	51.88
230.295	-19.8
230.513	86.7
230.731	37.55
230.948	41.64
231.166	78.51
231.384	-11.61
231.601	45.74
231.819	86.7
232.037	-71
232.254	-23.89
232.472	60.07
232.689	19.11
232.907	53.93
233.125	25.26
233.342	45.74
233.56	-48.47
233.777	-17.75
233.995	43.69
234.213	51.88
234.43	-1.37
234.648	76.46
234.865	33.45
235.083	62.12
235.3	72.36
235.518	27.31
235.735	82.6
235.953	84.65
236.17	10.92
236.388	70.31
236.605	-25.94
236.822	39.59
237.04	23.21
237.257	29.35
237.475	80.55
237.692	31.4
237.909	86.7
238.127	43.69
238.344	39.59
238.562	98.99
238.779	-36.18
238.996	96.94
239.214	45.74
239.431	90.79
239.648	64.17
239.865	74.41
240.083	68.27
240.3	88.75
240.517	55.98
240.735	-19.8
240.952	51.88
241.169	96.94
241.386	27.31
241.603	19.11
241.821	21.16
242.038	27.31
242.255	70.31
242.472	-48.47
242.689	51.88
242.907	92.84
243.124	29.35
243.341	60.07
243.558	23.21
243.775	35.5
243.992	15.02
244.209	90.79
244.426	96.94
244.643	68.27
244.86	-11.61
245.078	2.73
245.295	31.4
245.512	92.84
245.729	119.46
245.946	68.27
246.163	12.97
246.38	78.51
246.597	43.69
246.814	80.55
247.031	51.88
247.248	-34.13
247.464	105.13
247.681	78.51
247.898	60.07
248.115	39.59
248.332	0.68
248.549	68.27
248.766	78.51
248.983	27.31
249.2	78.51
249.417	88.75
249.633	70.31
249.85	109.22
250.067	92.84
250.284	121.51
250.501	129.7
250.717	39.59
250.934	43.69
251.151	47.79
251.368	47.79
251.585	135.85
251.801	27.31
252.018	8.87
252.235	23.21
252.451	60.07
252.668	45.74
252.885	94.89
253.102	55.98
253.318	86.7
253.535	15.02
253.752	72.36
253.968	6.83
254.185	12.97
254.401	33.45
254.618	-21.85
254.835	109.22
255.051	182.95
255.268	135.85
255.484	70.31
255.701	31.4
255.917	90.79
256.134	17.07
256.351	10.92
256.567	-21.85
256.784	70.31
257	29.35
257.217	88.75
257.433	74.41
257.65	35.5
257.866	117.42
258.082	31.4
258.299	27.31
258.515	0.68
258.732	12.97
258.948	25.26
259.165	72.36
259.381	-17.75
259.597	78.51
259.814	15.02
260.03	47.79
260.246	58.03
260.463	64.17
260.679	105.13
260.895	105.13
261.112	10.92
261.328	33.45
261.544	-40.28
261.761	105.13
261.977	10.92
262.193	72.36
262.409	4.78
262.626	103.08
262.842	80.55
263.058	25.26
263.274	96.94
263.49	27.31
263.707	111.27
263.923	80.55
264.139	45.74
264.355	-19.8
264.571	53.93
264.787	68.27
265.004	64.17
265.22	15.02
265.436	15.02
265.652	4.78
265.868	0.68
266.084	-38.23
266.3	45.74
266.516	27.31
266.732	39.59
266.948	27.31
267.164	68.27
267.38	19.11
267.596	127.66
267.812	72.36
268.028	55.98
268.244	43.69
268.46	111.27
268.676	96.94
268.892	45.74
269.108	-36.18
269.324	66.22
269.54	-19.8
269.756	12.97
269.972	23.21
270.188	33.45
270.403	19.11
270.619	45.74
270.835	-52.56
271.051	31.4
271.267	23.21
271.483	39.59
271.698	55.98
271.914	125.61
272.13	47.79
272.346	68.27
272.562	-30.04
272.777	33.45
272.993	27.31
273.209	21.16
273.425	43.69
273.64	68.27
273.856	60.07
274.072	-9.56
274.287	12.97
274.503	82.6
274.719	43.69
274.934	27.31
275.15	-42.32
275.366	76.46
275.581	23.21
275.797	2.73
276.012	72.36
276.228	53.93
276.444	60.07
276.659	88.75
276.875	25.26
277.09	84.65
277.306	64.17
277.521	-3.41
277.737	39.59
277.952	74.41
278.168	80.55
278.383	55.98
278.599	96.94
278.814	55.98
279.03	29.35
279.245	125.61
279.461	78.51
279.676	62.12
279.892	10.92
280.107	-1.37
280.322	51.88
280.538	-19.8
280.753	64.17
280.969	19.11
281.184	53.93
281.399	88.75
281.615	27.31
281.83	68.27
282.045	35.5
282.26	43.69
282.476	15.02
282.691	-1.37
282.906	43.69
283.122	21.16
283.337	19.11
283.552	168.62
283.767	10.92
283.983	8.87
284.198	72.36
284.413	23.21
284.628	-3.41
284.843	-7.51
285.058	-5.46
285.274	31.4
285.489	23.21
285.704	84.65
285.919	-11.61
286.134	25.26
286.349	-13.65
286.564	0.68
286.779	121.51
286.995	-7.51
287.21	0.68
287.425	-44.37
287.64	27.31
287.855	60.07
288.07	45.74
288.285	43.69
288.5	45.74
288.715	86.7
288.93	15.02
289.145	31.4
289.36	21.16
289.575	70.31
289.79	101.03
290.004	55.98
290.219	8.87
290.434	53.93
290.649	15.02
290.864	-9.56
291.079	53.93
291.294	66.22
291.509	35.5
291.724	-15.7
291.938	72.36
292.153	92.84
292.368	49.83
292.583	80.55
292.798	15.02
293.012	117.42
293.227	4.78
293.442	66.22
293.657	84.65
293.871	96.94
294.086	55.98
294.301	133.8
294.516	21.16
294.73	-11.61
294.945	-42.32
295.16	88.75
295.374	35.5
295.589	70.31
295.804	-23.89
296.018	86.7
296.233	53.93
296.447	70.31
296.662	23.21
296.877	154.28
297.091	68.27
297.306	41.64
297.52	17.07
297.735	96.94
297.949	105.13
298.164	64.17
298.378	43.69
298.593	25.26
298.807	60.07
299.022	141.99
299.236	78.51
299.451	10.92
299.665	8.87
299.88	109.22
300.094	33.45
300.309	27.31
300.523	31.4
300.737	45.74
300.952	53.93
301.166	27.31
301.381	62.12
301.595	76.46
301.809	60.07
302.024	62.12
302.238	86.7
302.452	49.83
302.667	43.69
302.881	66.22
303.095	68.27
303.309	19.11
303.524	17.07
303.738	82.6
303.952	23.21
304.166	47.79
304.381	45.74
304.595	123.56
304.809	72.36
305.023	80.55
305.237	111.27
305.452	68.27
305.666	51.88
305.88	31.4
306.094	105.13
306.308	60.07
306.522	58.03
306.736	76.46
306.95	58.03
307.164	31.4
307.379	25.26
307.593	43.69
307.807	72.36
308.021	51.88
308.235	70.31
308.449	6.83
308.663	-9.56
308.877	70.31
309.091	92.84
309.305	0.68
309.519	23.21
309.733	121.51
309.947	39.59
310.161	12.97
310.374	45.74
310.588	76.46
310.802	19.11
311.016	55.98
311.23	31.4
311.444	84.65
311.658	68.27
311.872	96.94
312.085	35.5
312.299	19.11
312.513	64.17
312.727	49.83
312.941	70.31
313.154	55.98
313.368	39.59
313.582	19.11
313.796	90.79
314.009	39.59
314.223	113.32
314.437	-21.85
314.651	39.59
314.864	80.55
315.078	-27.99
315.292	21.16
315.505	-1.37
315.719	92.84
315.933	-21.85
316.146	17.07
316.36	4.78
316.573	137.9
316.787	51.88
317.001	-3.41
317.214	45.74
317.428	64.17
317.641	12.97
317.855	-21.85
318.068	105.13
318.282	90.79
318.495	33.45
318.709	109.22
318.922	-3.41
319.136	86.7
319.349	76.46
319.563	45.74
319.776	23.21
319.99	60.07
320.203	96.94
320.417	23.21
320.63	72.36
320.843	60.07
321.057	113.32
321.27	88.75
321.483	47.79
321.697	78.51
321.91	127.66
322.124	82.6
322.337	21.16
322.55	80.55
322.763	2.73
322.977	-15.7
323.19	35.5
323.403	4.78
323.617	86.7
323.83	72.36
324.043	43.69
324.256	10.92
324.469	-46.42
324.683	47.79
324.896	-13.65
325.109	45.74
325.322	29.35
325.535	45.74
325.748	58.03
325.962	62.12
326.175	27.31
326.388	10.92
326.601	101.03
326.814	-15.7
327.027	92.84
327.24	-3.41
327.453	-1.37
327.666	68.27
327.879	92.84
328.092	45.74
328.305	-3.41
328.518	76.46
328.731	0.68
328.944	43.69
329.157	76.46
329.37	62.12
329.583	27.31
329.796	111.27
330.009	23.21
330.222	90.79
330.435	72.36
330.648	37.55
330.861	15.02
331.073	39.59
331.286	70.31
331.499	39.59
331.712	12.97
331.925	78.51
332.138	47.79
332.35	74.41
332.563	43.69
332.776	115.37
332.989	154.28
333.202	55.98
333.414	78.51
333.627	10.92
333.84	86.7
334.053	72.36
334.265	68.27
334.478	47.79
334.691	58.03
334.903	76.46
335.116	47.79
335.329	43.69
335.541	-42.32
335.754	43.69
335.966	-27.99
336.179	23.21
336.392	23.21
336.604	-15.7
336.817	6.83
337.029	74.41
337.242	58.03
337.454	94.89
337.667	68.27
337.88	33.45
338.092	33.45
338.305	47.79
338.517	51.88
338.729	86.7
338.942	80.55
339.154	64.17
339.367	31.4
339.579	82.6
339.792	33.45
340.004	135.85
340.217	6.83
340.429	31.4
340.641	39.59
340.854	19.11
341.066	-32.08
341.278	150.18
341.491	148.14
341.703	49.83
341.915	39.59
342.128	152.23
342.34	45.74
342.552	53.93
342.764	80.55
342.977	43.69
343.189	96.94
343.401	47.79
343.613	45.74
343.826	43.69
344.038	31.4
344.25	51.88
344.462	-79.19
344.674	72.36
344.886	47.79
345.099	-19.8
345.311	45.74
345.523	101.03
345.735	8.87
345.947	-21.85
346.159	-38.23
346.371	64.17
346.583	-15.7
346.795	82.6
347.007	39.59
347.219	19.11
347.431	33.45
347.643	6.83
347.855	29.35
348.067	127.66
348.279	-27.99
348.491	68.27
348.703	98.99
348.915	15.02
349.127	29.35
349.339	60.07
349.551	66.22
349.763	98.99
349.975	55.98
350.187	-3.41
350.399	10.92
350.61	47.79
350.822	27.31
351.034	98.99
351.246	23.21
351.458	68.27
351.669	64.17
351.881	-27.99
352.093	49.83
352.305	96.94
352.517	96.94
352.728	60.07
352.94	35.5
353.152	76.46
353.363	12.97
353.575	92.84
353.787	117.42
353.999	121.51
354.21	90.79
354.422	35.5
354.633	64.17
354.845	72.36
355.057	55.98
355.268	53.93
355.48	64.17
355.692	64.17
355.903	-1.37
356.115	47.79
356.326	8.87
356.538	111.27
356.749	62.12
356.961	115.37
357.172	33.45
357.384	-5.46
357.595	168.62
357.807	68.27
358.018	115.37
358.23	29.35
358.441	139.94
358.653	72.36
358.864	76.46
359.075	29.35
359.287	35.5
359.498	35.5
359.709	47.79
359.921	33.45
360.132	74.41
360.344	12.97
360.555	90.79
360.766	55.98
360.977	39.59
361.189	58.03
361.4	37.55
361.611	72.36
361.823	86.7
362.034	27.31
362.245	72.36
362.456	-5.46
362.667	78.51
362.879	-9.56
363.09	23.21
363.301	117.42
363.512	45.74
363.723	55.98
363.935	53.93
364.146	90.79
364.357	68.27
364.568	49.83
364.779	49.83
364.99	51.88
365.201	68.27
365.412	90.79
365.623	-5.46
365.834	70.31
366.045	72.36
366.256	111.27
366.467	129.7
366.678	62.12
366.889	72.36
367.1	55.98
367.311	88.75
367.522	23.21
367.733	139.94
367.944	96.94
368.155	76.46
368.366	72.36
368.577	64.17
368.788	105.13
368.999	-27.99
369.209	107.18
369.42	133.8
369.631	148.14
369.842	-3.41
370.053	60.07
370.264	119.46
370.474	39.59
370.685	74.41
370.896	55.98
371.107	98.99
371.317	105.13
371.528	41.64
371.739	47.79
371.95	47.79
372.16	101.03
372.371	58.03
372.582	96.94
372.792	62.12
373.003	58.03
373.214	10.92
373.424	78.51
373.635	21.16
373.846	150.18
374.056	66.22
374.267	39.59
374.477	125.61
374.688	37.55
374.898	62.12
375.109	29.35
375.319	60.07
375.53	113.32
375.74	51.88
375.951	23.21
376.161	88.75
376.372	86.7
376.582	64.17
376.793	96.94
377.003	12.97
377.214	27.31
377.424	12.97
377.635	103.08
377.845	41.64
378.055	84.65
378.266	76.46
378.476	70.31
378.686	47.79
378.897	76.46
379.107	84.65
379.317	129.7
379.528	21.16
379.738	133.8
379.948	68.27
380.158	121.51
380.369	92.84
380.579	68.27
380.789	51.88
380.999	121.51
381.21	39.59
381.42	98.99
381.63	103.08
381.84	21.16
382.05	62.12
382.261	60.07
382.471	150.18
382.681	94.89
382.891	53.93
383.101	103.08
383.311	103.08
383.521	92.84
383.731	43.69
383.941	68.27
384.151	68.27
384.361	98.99
384.571	86.7
384.781	141.99
384.991	105.13
385.201	47.79
385.411	111.27
385.621	92.84
385.831	39.59
386.041	135.85
386.251	121.51
386.461	197.29
386.671	29.35
386.881	78.51
387.091	103.08
387.301	113.32
387.511	62.12
387.72	125.61
387.93	174.76
388.14	-34.13
388.35	105.13
388.56	94.89
388.769	80.55
388.979	113.32
389.189	84.65
389.399	178.86
389.609	84.65
389.818	121.51
390.028	111.27
390.238	35.5
390.447	70.31
390.657	31.4
390.867	55.98
391.076	10.92
391.286	137.9
391.496	129.7
391.705	78.51
391.915	78.51
392.125	111.27
392.334	70.31
392.544	70.31
392.753	158.38
392.963	49.83
393.172	129.7
393.382	19.11
393.591	107.18
393.801	68.27
394.01	182.95
394.22	80.55
394.429	84.65
394.639	39.59
394.848	131.75
395.058	101.03
395.267	88.75
395.477	117.42
395.686	129.7
395.895	103.08
396.105	215.72
396.314	86.7
396.524	248.49
396.733	72.36
396.942	119.46
397.152	107.18
397.361	131.75
397.57	105.13
397.78	39.59
397.989	154.28
398.198	131.75
398.407	96.94
398.617	86.7
398.826	113.32
399.035	141.99
399.244	70.31
399.453	199.34
399.663	182.95
399.872	148.14
400.081	84.65
400.29	170.66
400.499	78.51
400.708	139.94
400.917	60.07
401.127	80.55
401.336	219.82
401.545	187.05
401.754	182.95
401.963	127.66
402.172	146.09
402.381	166.57
402.59	170.66
402.799	123.56
403.008	185
403.217	156.33
403.426	121.51
403.635	154.28
403.844	125.61
404.053	185
404.262	144.04
404.471	187.05
404.68	225.96
404.888	180.9
405.097	170.66
405.306	203.43
405.515	176.81
405.724	195.24
405.933	170.66
406.142	219.82
406.35	260.77
406.559	123.56
406.768	240.29
406.977	307.88
407.185	268.97
407.394	189.1
407.603	211.62
407.812	211.62
408.02	266.92
408.229	162.47
408.438	277.16
408.646	234.15
408.855	301.73
409.064	316.07
409.272	215.72
409.481	346.79
409.69	318.12
409.898	293.54
410.107	379.56
410.315	334.5
410.524	340.65
410.733	434.85
410.941	385.7
411.15	418.47
411.358	436.9
411.567	539.3
411.775	508.58
411.984	455.33
412.192	563.87
412.401	531.11
412.609	606.88
412.818	610.98
413.026	594.59
413.234	629.41
413.443	719.52
413.651	637.6
413.86	653.98
414.068	647.84
414.276	770.72
414.485	707.23
414.693	752.29
414.901	815.77
415.11	866.97
415.318	740
415.526	860.83
415.734	860.83
415.943	932.51
416.151	940.7
416.359	969.37
416.567	991.9
416.776	998.04
416.984	1125.02
417.192	1249.94
417.4	1145.5
417.608	1190.55
417.817	1211.03
418.025	1288.85
418.233	1317.53
418.441	1272.47
418.649	1411.73
418.857	1419.92
419.065	1538.71
419.273	1464.98
419.481	1702.54
419.689	1573.52
419.897	1743.5
420.105	1718.93
420.313	1725.07
420.521	1813.13
420.729	1925.77
420.937	1981.07
421.145	2015.88
421.353	2103.95
421.561	2241.16
421.769	2253.45
421.977	2347.65
422.185	2386.57
422.393	2564.74
422.601	2552.45
422.809	2566.79
423.017	2734.72
423.224	2785.92
423.432	2837.12
423.64	2857.6
423.848	3050.11
424.056	3000.96
424.263	3287.67
424.471	3283.58
424.679	3463.8
424.887	3547.76
425.094	3637.88
425.302	3646.07
425.51	3752.56
425.718	3869.3
425.925	3979.89
426.133	4008.56
426.341	4287.08
426.548	4397.67
426.756	4469.35
426.964	4577.89
427.171	4782.69
427.379	4878.94
427.586	4983.39
427.794	5163.61
428.001	5290.59
428.209	5530.2
428.417	5567.06
428.624	5954.13
428.832	5968.46
429.039	5892.69
429.247	5812.82
429.454	6552.13
429.662	7023.17
429.869	6435.4
430.076	6908.48
430.284	6765.12
430.491	6980.16
430.699	7211.58
430.906	7297.6
431.114	7494.2
431.321	7701.05
431.528	7778.87
431.736	8577.58
431.943	8798.76
432.15	8526.38
432.358	8598.06
432.565	9157.15
432.772	9095.71
432.979	9407
433.187	9781.78
433.394	9875.99
433.601	10351.12
433.808	10463.75
434.016	10428.94
434.223	10738.18
434.43	11475.45
434.637	11076.1
434.844	11831.8
435.052	12239.34
435.259	12034.55
435.466	12016.12
435.673	11995.64
435.88	12745.19
436.087	13378.01
436.294	13543.9
436.501	13036
436.708	13416.93
436.915	13853.14
437.122	14725.58
437.329	14449.1
437.537	14723.53
437.743	15221.19
437.95	14989.77
438.157	15737.27
438.364	16275.89
438.571	16206.26
438.778	16445.87
438.985	18131.35
439.192	17293.73
439.399	17777.05
439.606	17115.56
439.813	18477.46
440.02	19335.56
440.227	19083.66
440.433	18882.95
440.64	19605.89
440.847	19282.31
441.054	19753.34
441.261	21340.52
441.467	20896.11
441.674	21127.53
441.881	21903.71
442.088	22143.32
442.294	21729.63
442.501	22583.63
442.708	23118.15
442.914	23654.72
443.121	24418.61
443.328	24506.68
443.534	25723.17
443.741	25137.45
443.948	24658.23
444.154	26659.09
444.361	26267.93
444.568	26415.38
444.774	26376.47
444.981	26829.07
445.187	27638.02
445.394	28774.64
445.6	28221.69
445.807	31113.42
446.013	29501.67
446.22	30179.55
446.426	31193.29
446.633	31576.26
446.839	32590.01
447.046	31168.72
447.252	33007.79
447.459	33112.24
447.665	32962.74
447.871	34009.25
448.078	35678.35
448.284	34205.86
448.491	34914.45
448.697	36356.22
448.903	36978.81
449.11	36866.17
449.316	36077.7
449.522	36712.57
449.728	37847.15
449.935	38031.46
450.141	38404.19
450.347	39053.4
450.553	37589.1
450.76	38447.2
450.966	39151.7
451.172	38719.58
451.378	39960.65
451.584	39100.5
451.791	40017.99
451.997	39841.87
452.203	40411.2
452.409	40437.83
452.615	40181.83
452.821	38928.47
453.027	38070.37
453.233	40403.01
453.44	38207.59
453.646	38979.67
453.852	39067.73
454.058	39653.45
454.264	38131.81
454.47	39723.08
454.676	38510.69
454.882	39647.31
455.088	36006.02
455.294	36573.31
455.5	37144.69
455.705	37576.81
455.911	36237.44
456.117	35317.9
456.323	35045.52
456.529	32610.49
456.735	34310.3
456.941	33423.53
457.147	33329.33
457.352	32057.54
457.558	31420.62
457.764	31500.49
457.97	30857.43
458.176	30181.6
458.381	30288.09
458.587	29065.46
458.793	28655.86
458.999	27164.94
459.204	29415.66
459.41	28403.96
459.616	26837.27
459.821	26767.63
460.027	26200.35
460.233	25702.69
460.438	24625.46
460.644	25022.76
460.85	23920.96
461.055	23441.73
461.261	23464.26
461.466	21846.37
461.672	21401.96
461.878	22688.08
462.083	21242.21
462.289	20873.58
462.494	20509.04
462.7	19612.03
462.905	19184.01
463.111	19800.44
463.316	20021.63
463.522	19544.45
463.727	19560.83
463.932	19650.94
464.138	19239.3
464.343	19347.84
464.549	18450.83
464.754	19184.01
464.959	19345.8
465.165	19210.63
465.37	18119.06
465.575	17899.93
465.781	18403.73
465.986	18723.21
466.191	17836.44
466.397	17922.46
466.602	16904.62
466.807	17471.9
467.012	17400.23
