Data from USB4F104151__136__10-25-51-600.txt Node

Date: Wed Mar 12 10:25:51 EDT 2025
User: louis
Spectrometer: USB4F10415
Trigger mode: 4
Integration Time (sec): 3.000000E-2
Scans to average: 1
Electric dark correction enabled: true
Nonlinearity correction enabled: false
Boxcar width: 0
XAxis mode: Wavelengths
Number of Pixels in Spectrum: 3648
>>>>>Begin Spectral Data<<<<<
178.204	-105.81
178.424	-105.81
178.644	-105.81
178.864	-128.34
179.084	-79.19
179.304	-25.94
179.524	-23.89
179.744	8.87
179.964	10.92
180.184	55.98
180.404	-7.51
180.624	-27.99
180.844	33.45
181.064	-52.56
181.283	49.83
181.503	-75.09
181.723	53.93
181.943	-85.33
182.163	64.17
182.383	68.27
182.602	-27.99
182.822	68.27
183.042	29.35
183.262	-5.46
183.482	-17.75
183.701	8.87
183.921	70.31
184.141	-1.37
184.361	84.65
184.58	33.45
184.8	-77.14
185.02	27.31
185.239	23.21
185.459	51.88
185.679	15.02
185.898	-11.61
186.118	72.36
186.338	25.26
186.557	53.93
186.777	6.83
186.997	88.75
187.216	-5.46
187.436	68.27
187.655	25.26
187.875	107.18
188.095	-23.89
188.314	78.51
188.534	70.31
188.753	58.03
188.973	78.51
189.192	103.08
189.412	35.5
189.631	23.21
189.851	33.45
190.07	0.68
190.29	8.87
190.509	23.21
190.729	43.69
190.948	33.45
191.168	45.74
191.387	-13.65
191.607	0.68
191.826	29.35
192.045	-27.99
192.265	15.02
192.484	-25.94
192.704	4.78
192.923	-1.37
193.142	98.99
193.362	35.5
193.581	19.11
193.8	-5.46
194.02	101.03
194.239	96.94
194.458	-17.75
194.678	-15.7
194.897	25.26
195.116	80.55
195.335	29.35
195.555	39.59
195.774	6.83
195.993	74.41
196.212	-23.89
196.432	31.4
196.651	4.78
196.87	15.02
197.089	35.5
197.308	17.07
197.528	60.07
197.747	35.5
197.966	8.87
198.185	31.4
198.404	39.59
198.623	8.87
198.842	37.55
199.062	82.6
199.281	47.79
199.5	8.87
199.719	94.89
199.938	92.84
200.157	115.37
200.376	49.83
200.595	113.32
200.814	60.07
201.033	55.98
201.252	49.83
201.471	-5.46
201.69	4.78
201.909	21.16
202.128	66.22
202.347	53.93
202.566	37.55
202.785	15.02
203.004	-7.51
203.223	90.79
203.442	62.12
203.661	-13.65
203.879	49.83
204.098	55.98
204.317	-71
204.536	98.99
204.755	74.41
204.974	-3.41
205.193	88.75
205.411	58.03
205.63	55.98
205.849	72.36
206.068	39.59
206.287	43.69
206.505	-19.8
206.724	2.73
206.943	-5.46
207.162	-40.28
207.381	-7.51
207.599	47.79
207.818	47.79
208.037	0.68
208.255	21.16
208.474	70.31
208.693	-11.61
208.911	31.4
209.13	-48.47
209.349	35.5
209.567	6.83
209.786	70.31
210.005	86.7
210.223	45.74
210.442	-25.94
210.661	49.83
210.879	-1.37
211.098	62.12
211.316	17.07
211.535	37.55
211.753	-1.37
211.972	10.92
212.191	33.45
212.409	19.11
212.628	121.51
212.846	10.92
213.065	0.68
213.283	64.17
213.502	31.4
213.72	12.97
213.938	12.97
214.157	29.35
214.375	4.78
214.594	62.12
214.812	70.31
215.031	74.41
215.249	58.03
215.467	70.31
215.686	41.64
215.904	113.32
216.122	19.11
216.341	55.98
216.559	-9.56
216.778	25.26
216.996	53.93
217.214	35.5
217.432	4.78
217.651	-13.65
217.869	53.93
218.087	49.83
218.306	10.92
218.524	17.07
218.742	49.83
218.96	45.74
219.179	-15.7
219.397	-25.94
219.615	58.03
219.833	41.64
220.051	4.78
220.27	66.22
220.488	92.84
220.706	41.64
220.924	-40.28
221.142	-17.75
221.36	0.68
221.578	86.7
221.796	41.64
222.015	98.99
222.233	-1.37
222.451	68.27
222.669	43.69
222.887	55.98
223.105	-5.46
223.323	78.51
223.541	35.5
223.759	41.64
223.977	-7.51
224.195	109.23
224.413	119.46
224.631	90.79
224.849	17.07
225.067	105.13
225.285	-32.08
225.503	86.7
225.721	-21.85
225.939	17.07
226.157	53.93
226.375	152.23
226.592	55.98
226.81	35.5
227.028	62.12
227.246	58.03
227.464	90.79
227.682	72.36
227.9	0.68
228.117	35.5
228.335	-5.46
228.553	-38.23
228.771	21.16
228.989	58.03
229.206	64.17
229.424	35.5
229.642	80.55
229.86	33.45
230.077	-32.08
230.295	21.16
230.513	6.83
230.731	80.55
230.948	39.59
231.166	23.21
231.384	103.08
231.601	29.35
231.819	105.13
232.037	45.74
232.254	8.87
232.472	25.26
232.689	29.35
232.907	-7.51
233.125	33.45
233.342	55.98
233.56	41.64
233.777	129.7
233.995	74.41
234.213	51.88
234.43	129.7
234.648	35.5
234.865	39.59
235.083	113.32
235.3	-11.61
235.518	10.92
235.735	12.97
235.953	80.55
236.17	31.4
236.388	94.89
236.605	49.83
236.822	58.03
237.04	43.69
237.257	17.07
237.475	49.83
237.692	76.46
237.909	84.65
238.127	-17.75
238.344	107.18
238.562	41.64
238.779	37.55
238.996	-46.42
239.214	92.84
239.431	62.12
239.648	23.21
239.865	25.26
240.083	23.21
240.3	2.73
240.517	70.31
240.735	111.27
240.952	47.79
241.169	23.21
241.386	41.64
241.603	64.17
241.821	-77.14
242.038	60.07
242.255	27.31
242.472	-21.85
242.689	6.83
242.907	58.03
243.124	39.59
243.341	41.64
243.558	-11.61
243.775	115.37
243.992	6.83
244.209	15.02
244.426	107.18
244.643	86.7
244.86	68.27
245.078	49.83
245.295	111.27
245.512	39.59
245.729	-5.46
245.946	62.12
246.163	72.36
246.38	39.59
246.597	70.31
246.814	-19.8
247.031	45.74
247.248	-9.56
247.464	94.89
247.681	96.94
247.898	0.68
248.115	49.83
248.332	37.55
248.549	64.17
248.766	90.79
248.983	51.88
249.2	10.92
249.417	51.88
249.633	-5.46
249.85	31.4
250.067	37.55
250.284	86.7
250.501	-15.7
250.717	51.88
250.934	15.02
251.151	64.17
251.368	74.41
251.585	103.08
251.801	62.12
252.018	45.74
252.235	58.03
252.451	-50.52
252.668	4.78
252.885	72.36
253.102	37.55
253.318	90.79
253.535	10.92
253.752	66.22
253.968	15.02
254.185	17.07
254.401	66.22
254.618	15.02
254.835	-71
255.051	96.94
255.268	21.16
255.484	37.55
255.701	74.41
255.917	115.37
256.134	25.26
256.351	76.46
256.567	15.02
256.784	-1.37
257	-46.42
257.217	55.98
257.433	25.26
257.65	117.42
257.866	62.12
258.082	25.26
258.299	4.78
258.515	105.13
258.732	-11.61
258.948	144.04
259.165	-7.51
259.381	31.4
259.597	0.68
259.814	35.5
260.03	64.17
260.246	64.17
260.463	43.69
260.679	84.65
260.895	-11.61
261.112	74.41
261.328	31.4
261.544	41.64
261.761	113.32
261.977	12.97
262.193	8.87
262.409	98.99
262.626	29.35
262.842	66.22
263.058	-15.7
263.274	141.99
263.49	103.08
263.707	58.03
263.923	53.93
264.139	70.31
264.355	15.02
264.571	33.45
264.787	103.08
265.004	58.03
265.22	94.89
265.436	82.6
265.652	-11.61
265.868	29.35
266.084	-11.61
266.3	35.5
266.516	6.83
266.732	15.02
266.948	105.13
267.164	41.64
267.38	49.83
267.596	78.51
267.812	98.99
268.028	41.64
268.244	-13.65
268.46	27.31
268.676	45.74
268.892	-15.7
269.108	43.69
269.324	17.07
269.54	-21.85
269.756	35.5
269.972	-58.71
270.188	-19.8
270.403	-9.56
270.619	94.89
270.835	29.35
271.051	103.08
271.267	45.74
271.483	41.64
271.698	23.21
271.914	70.31
272.13	39.59
272.346	35.5
272.562	-23.89
272.777	-9.56
272.993	-7.51
273.209	53.93
273.425	88.75
273.64	19.11
273.856	39.59
274.072	74.41
274.287	15.02
274.503	164.52
274.719	74.41
274.934	135.85
275.15	39.59
275.366	12.97
275.581	-13.65
275.797	60.07
276.012	31.4
276.228	23.21
276.444	-17.75
276.659	109.23
276.875	37.55
277.09	15.02
277.306	49.83
277.521	41.64
277.737	90.79
277.952	84.65
278.168	-13.65
278.383	78.51
278.599	19.11
278.814	68.27
279.03	-23.89
279.245	90.79
279.461	-21.85
279.676	60.07
279.892	19.11
280.107	-19.8
280.322	6.83
280.538	82.6
280.753	66.22
280.969	64.17
281.184	72.36
281.399	82.6
281.615	47.79
281.83	41.64
282.045	74.41
282.26	19.11
282.476	51.88
282.691	53.93
282.906	37.55
283.122	17.07
283.337	31.4
283.552	88.75
283.767	43.69
283.983	70.31
284.198	64.17
284.413	39.59
284.628	37.55
284.843	53.93
285.058	-7.51
285.274	0.68
285.489	-34.13
285.704	62.12
285.919	35.5
286.134	123.56
286.349	21.16
286.564	-3.41
286.779	66.22
286.995	41.64
287.21	58.03
287.425	49.83
287.64	-50.52
287.855	60.07
288.07	10.92
288.285	35.5
288.5	84.65
288.715	45.74
288.93	-32.08
289.145	21.16
289.36	2.73
289.575	-17.75
289.79	84.65
290.004	21.16
290.219	15.02
290.434	101.03
290.649	15.02
290.864	78.51
291.079	29.35
291.294	70.31
291.509	37.55
291.724	-3.41
291.938	47.79
292.153	74.41
292.368	-36.18
292.583	51.88
292.798	82.6
293.012	86.7
293.227	27.31
293.442	103.08
293.657	29.35
293.871	96.94
294.086	90.79
294.301	49.83
294.516	64.17
294.73	90.79
294.945	-52.56
295.16	31.4
295.374	90.79
295.589	72.36
295.804	25.26
296.018	51.88
296.233	29.35
296.447	-40.28
296.662	-17.75
296.877	39.59
297.091	58.03
297.306	47.79
297.52	107.18
297.735	70.31
297.949	70.31
298.164	103.08
298.378	-27.99
298.593	-17.75
298.807	55.98
299.022	70.31
299.236	115.37
299.451	51.88
299.665	55.98
299.88	33.45
300.094	123.56
300.309	47.79
300.523	111.27
300.737	-64.85
300.952	146.09
301.166	90.79
301.381	70.31
301.595	10.92
301.809	-11.61
302.024	43.69
302.238	-7.51
302.452	-5.46
302.667	47.79
302.881	47.79
303.095	-15.7
303.309	98.99
303.524	119.46
303.738	-15.7
303.952	41.64
304.166	62.12
304.381	-23.89
304.595	53.93
304.809	8.87
305.023	68.27
305.237	15.02
305.452	29.35
305.666	131.75
305.88	33.45
306.094	0.68
306.308	103.08
306.522	127.66
306.736	78.51
306.95	64.17
307.164	47.79
307.379	53.93
307.593	105.13
307.807	21.16
308.021	53.93
308.235	27.31
308.449	-5.46
308.663	74.41
308.877	158.38
309.091	45.74
309.305	45.74
309.519	-9.56
309.733	80.55
309.947	74.41
310.161	68.27
310.374	74.41
310.588	117.42
310.802	-1.37
311.016	6.83
311.23	17.07
311.444	-7.51
311.658	86.7
311.872	66.22
312.085	49.83
312.299	135.85
312.513	115.37
312.727	74.41
312.941	17.07
313.154	17.07
313.368	66.22
313.582	-7.51
313.796	115.37
314.009	4.78
314.223	25.26
314.437	74.41
314.651	37.55
314.864	70.31
315.078	8.87
315.292	-13.65
315.505	12.97
315.719	29.35
315.933	37.55
316.146	111.27
316.36	37.55
316.573	70.31
316.787	6.83
317.001	-7.51
317.214	-1.37
317.428	49.83
317.641	21.16
317.855	-15.7
318.068	6.83
318.282	111.27
318.495	98.99
318.709	72.36
318.922	51.88
319.136	47.79
319.349	4.78
319.563	-19.8
319.776	49.83
319.99	31.4
320.203	82.6
320.417	84.65
320.63	55.98
320.843	88.75
321.057	-17.75
321.27	58.03
321.483	68.27
321.697	58.03
321.91	10.92
322.124	68.27
322.337	55.98
322.55	17.07
322.763	6.83
322.977	-1.37
323.19	58.03
323.403	49.83
323.617	-19.8
323.83	33.45
324.043	12.97
324.256	-44.37
324.469	-9.56
324.683	92.84
324.896	33.45
325.109	-5.46
325.322	12.97
325.535	80.55
325.748	43.69
325.962	-11.61
326.175	49.83
326.388	90.79
326.601	90.79
326.814	49.83
327.027	98.99
327.24	53.93
327.453	17.07
327.666	82.6
327.879	-23.89
328.092	41.64
328.305	27.31
328.518	31.4
328.731	-11.61
328.944	29.35
329.157	86.7
329.37	35.5
329.583	137.9
329.796	78.51
330.009	119.46
330.222	43.69
330.435	49.83
330.648	21.16
330.861	-3.41
331.073	-23.89
331.286	80.55
331.499	66.22
331.712	21.16
331.925	45.74
332.138	98.99
332.35	74.41
332.563	55.98
332.776	107.18
332.989	45.74
333.202	39.59
333.414	64.17
333.627	-7.51
333.84	70.31
334.053	72.36
334.265	35.5
334.478	39.59
334.691	82.6
334.903	94.89
335.116	27.31
335.329	45.74
335.541	37.55
335.754	103.08
335.966	-44.37
336.179	45.74
336.392	23.21
336.604	64.17
336.817	74.41
337.029	45.74
337.242	-25.94
337.454	53.93
337.667	39.59
337.88	84.65
338.092	66.22
338.305	58.03
338.517	31.4
338.729	78.51
338.942	154.28
339.154	53.93
339.367	10.92
339.579	19.11
339.792	-52.56
340.004	53.93
340.217	0.68
340.429	80.55
340.641	19.11
340.854	80.55
341.066	33.45
341.278	51.88
341.491	62.12
341.703	58.03
341.915	45.74
342.128	103.08
342.34	82.6
342.552	64.17
342.764	12.97
342.977	27.31
343.189	96.94
343.401	60.07
343.613	-27.99
343.826	115.37
344.038	4.78
344.25	45.74
344.462	27.31
344.674	49.83
344.886	107.18
345.099	127.66
345.311	35.5
345.523	15.02
345.735	25.26
345.947	103.08
346.159	10.92
346.371	2.73
346.583	66.22
346.795	148.14
347.007	33.45
347.219	45.74
347.431	-7.51
347.643	162.47
347.855	35.5
348.067	76.46
348.279	15.02
348.491	33.45
348.703	113.32
348.915	39.59
349.127	35.5
349.339	64.17
349.551	58.03
349.763	82.6
349.975	98.99
350.187	174.76
350.399	29.35
350.61	21.16
350.822	-17.75
351.034	103.08
351.246	68.27
351.458	29.35
351.669	80.55
351.881	154.28
352.093	37.55
352.305	64.17
352.517	66.22
352.728	45.74
352.94	94.89
353.152	51.88
353.363	33.45
353.575	2.73
353.787	111.27
353.999	6.83
354.21	103.08
354.422	70.31
354.633	82.6
354.845	-23.89
355.057	60.07
355.268	76.46
355.48	86.7
355.692	-21.85
355.903	-5.46
356.115	88.75
356.326	41.64
356.538	86.7
356.749	82.6
356.961	154.28
357.172	90.79
357.384	51.88
357.595	150.18
357.807	25.26
358.018	41.64
358.23	90.79
358.441	66.22
358.653	82.6
358.864	78.51
359.075	62.12
359.287	-1.37
359.498	84.65
359.709	47.79
359.921	35.5
360.132	39.59
360.344	58.03
360.555	55.98
360.766	41.64
360.977	41.64
361.189	47.79
361.4	53.93
361.611	76.46
361.823	41.64
362.034	123.56
362.245	84.65
362.456	21.16
362.667	80.55
362.879	55.98
363.09	39.59
363.301	8.87
363.512	43.69
363.723	94.89
363.935	98.99
364.146	55.98
364.357	23.21
364.568	78.51
364.779	27.31
364.99	107.18
365.201	-7.51
365.412	21.16
365.623	-17.75
365.834	68.27
366.045	-7.51
366.256	123.56
366.467	74.41
366.678	-30.04
366.889	82.6
367.1	21.16
367.311	53.93
367.522	86.7
367.733	58.03
367.944	113.32
368.155	41.64
368.366	25.26
368.577	72.36
368.788	70.31
368.999	10.92
369.209	80.55
369.42	80.55
369.631	144.04
369.842	15.02
370.053	82.6
370.264	17.07
370.474	21.16
370.685	94.89
370.896	49.83
371.107	96.94
371.317	-48.47
371.528	25.26
371.739	76.46
371.95	33.45
372.16	64.17
372.371	72.36
372.582	127.66
372.792	12.97
373.003	-11.61
373.214	98.99
373.424	103.08
373.635	107.18
373.846	25.26
374.056	60.07
374.267	45.74
374.477	74.41
374.688	88.75
374.898	127.66
375.109	45.74
375.319	23.21
375.53	103.08
375.74	62.12
375.951	21.16
376.161	8.87
376.372	-17.75
376.582	49.83
376.793	47.79
377.003	49.83
377.214	47.79
377.424	96.94
377.635	41.64
377.845	51.88
378.055	78.51
378.266	103.08
378.476	37.55
378.686	58.03
378.897	74.41
379.107	39.59
379.317	33.45
379.528	35.5
379.738	92.84
379.948	33.45
380.158	78.51
380.369	49.83
380.579	49.83
380.789	-15.7
380.999	-13.65
381.21	146.09
381.42	86.7
381.63	66.22
381.84	41.64
382.05	84.65
382.261	96.94
382.471	72.36
382.681	35.5
382.891	45.74
383.101	86.7
383.311	70.31
383.521	62.12
383.731	78.51
383.941	82.6
384.151	86.7
384.361	15.02
384.571	74.41
384.781	86.7
384.991	86.7
385.201	115.37
385.411	31.4
385.621	78.51
385.831	150.18
386.041	123.56
386.251	25.26
386.461	58.03
386.671	49.83
386.881	107.18
387.091	119.46
387.301	115.37
387.511	39.59
387.72	-9.56
387.93	33.45
388.14	98.99
388.35	10.92
388.56	68.27
388.769	129.7
388.979	43.69
389.189	55.98
389.399	82.6
389.609	129.7
389.818	70.31
390.028	109.23
390.238	62.12
390.447	-21.85
390.657	25.26
390.867	51.88
391.076	58.03
391.286	125.61
391.496	101.03
391.705	64.17
391.915	146.09
392.125	156.33
392.334	119.46
392.544	37.55
392.753	76.46
392.963	90.79
393.172	58.03
393.382	139.94
393.591	103.08
393.801	103.08
394.01	105.13
394.22	72.36
394.429	49.83
394.639	82.6
394.848	96.94
395.058	58.03
395.267	86.7
395.477	51.88
395.686	152.23
395.895	58.03
396.105	125.61
396.314	115.37
396.524	144.04
396.733	70.31
396.942	80.55
397.152	88.75
397.361	123.56
397.57	76.46
397.78	146.09
397.989	135.85
398.198	76.46
398.407	127.66
398.617	98.99
398.826	115.37
399.035	35.5
399.244	139.94
399.453	49.83
399.663	107.18
399.872	160.42
400.081	8.87
400.29	78.51
400.499	103.08
400.708	162.47
400.917	70.31
401.127	119.46
401.336	86.7
401.545	135.85
401.754	96.94
401.963	144.04
402.172	135.85
402.381	148.14
402.59	76.46
402.799	72.36
403.008	156.33
403.217	135.85
403.426	82.6
403.635	146.09
403.844	105.13
404.053	98.99
404.262	123.56
404.471	121.51
404.68	162.47
404.888	139.94
405.097	150.18
405.306	123.56
405.515	148.14
405.724	191.14
405.933	213.67
406.142	230.06
406.35	139.94
406.559	154.28
406.768	150.18
406.977	201.38
407.185	182.95
407.394	160.42
407.603	82.6
407.812	199.34
408.02	252.58
408.229	213.67
408.438	205.48
408.646	248.49
408.855	158.38
409.064	287.4
409.272	295.59
409.481	316.07
409.69	176.81
409.898	260.77
410.107	305.83
410.315	287.4
410.524	234.15
410.733	332.45
410.941	311.97
411.15	406.18
411.358	326.31
411.567	357.03
411.775	361.13
411.984	328.36
412.192	408.23
412.401	361.13
412.609	369.32
412.818	459.43
413.026	393.89
413.234	449.19
413.443	389.8
413.651	486.05
413.86	430.76
414.068	477.86
414.276	606.88
414.485	623.27
414.693	510.63
414.901	608.93
415.11	615.07
415.318	598.69
415.526	639.65
415.734	725.66
415.943	721.57
416.151	742.05
416.359	660.13
416.567	760.48
416.776	801.44
416.984	807.58
417.192	811.68
417.4	891.55
417.608	791.2
417.817	869.02
418.025	993.95
418.233	1041.05
418.441	1051.29
418.649	922.27
418.857	1098.39
419.065	1096.35
419.273	1067.67
419.481	1102.49
419.689	1184.41
419.897	1290.9
420.105	1237.66
420.313	1383.06
420.521	1315.48
420.729	1446.55
420.937	1381.01
421.145	1493.65
421.353	1571.47
421.561	1563.28
421.769	1610.39
421.977	1821.33
422.185	1753.74
422.393	1747.6
422.601	1899.15
422.809	1927.82
423.017	1909.39
423.224	1991.31
423.432	2146.95
423.64	2153.1
423.848	2222.73
424.056	2212.49
424.263	2417.29
424.471	2394.76
424.679	2450.05
424.887	2626.18
425.094	2632.32
425.302	2626.18
425.51	2935.42
425.718	2857.6
425.925	2845.31
426.133	3121.79
426.341	3215.99
426.548	3308.15
426.756	3252.86
426.964	3181.18
427.171	3525.24
427.379	3596.92
427.586	3588.72
427.794	3705.46
428.001	4024.94
428.209	4207.21
428.417	4018.8
428.624	4260.46
428.832	4295.27
429.039	4350.57
429.247	4395.62
429.454	4823.65
429.662	5136.99
429.869	4731.49
430.076	5130.84
430.284	4903.52
430.491	5223
430.699	5411.42
430.906	5452.38
431.114	5442.14
431.321	5716.56
431.528	5780.05
431.736	6279.75
431.943	6341.19
432.15	6308.43
432.358	6337.1
432.565	6679.11
432.772	6464.07
432.979	7053.89
433.187	7135.81
433.394	7027.26
433.601	7660.09
433.808	7653.94
434.016	7551.54
434.223	7807.54
434.43	8340.01
434.637	8065.58
434.844	8741.41
435.052	8960.55
435.259	8942.11
435.466	9015.84
435.673	8731.17
435.88	9220.64
436.087	9806.36
436.294	9937.43
436.501	9732.63
436.708	9802.26
436.915	10191.38
437.122	10598.92
437.329	10480.14
437.537	10834.44
437.743	11237.89
437.95	11028.99
438.157	11592.19
438.364	11907.57
438.571	11932.15
438.778	11860.47
438.985	13205.99
439.192	12587.5
439.399	13052.39
439.606	12685.8
439.813	13369.82
440.02	14121.43
440.227	13892.05
440.433	13980.12
440.64	14180.82
440.847	14068.18
441.054	14377.42
441.261	15622.59
441.467	15157.7
441.674	15630.78
441.881	16122.29
442.088	16564.65
442.294	15956.41
442.501	16669.1
442.708	16820.65
442.914	17344.93
443.121	18043.29
443.328	17863.07
443.534	19104.14
443.741	18542.99
443.948	18166.17
444.154	19386.75
444.361	19757.44
444.568	19374.47
444.774	19464.58
444.981	19835.26
445.187	20373.88
445.394	21219.69
445.6	20828.52
445.807	22673.74
446.013	21571.94
446.22	21883.23
446.426	23247.18
446.633	23179.59
446.839	24011.07
447.046	23124.3
447.252	24541.49
447.459	24330.55
447.665	24125.75
447.871	25286.95
448.078	26200.35
448.284	25188.65
448.491	25563.43
448.697	26829.07
448.903	27068.69
449.11	27222.28
449.316	26417.43
449.522	27138.32
449.728	27975.94
449.935	28252.41
450.141	28211.45
450.347	28725.49
450.553	27711.75
450.76	28119.29
450.966	28995.82
451.172	28301.56
451.378	29311.21
451.584	28803.32
451.791	29350.12
451.997	29247.72
452.203	30105.82
452.409	29843.68
452.615	29956.32
452.821	28625.14
453.027	28217.6
453.233	29567.21
453.44	28500.22
453.646	28688.63
453.852	28997.87
454.058	29219.05
454.264	28494.07
454.47	28842.23
454.676	28369.15
454.882	29305.07
455.088	26618.13
455.294	26896.66
455.5	27191.56
455.705	28059.9
455.911	26691.86
456.117	25997.6
456.323	25817.38
456.529	24195.39
456.735	25329.96
456.941	24566.07
457.147	24074.56
457.352	23454.02
457.558	23224.65
457.764	23451.97
457.97	22618.45
458.176	22045.02
458.381	22423.89
458.587	21260.65
458.793	21238.12
458.999	20015.48
459.204	21637.47
459.41	20937.07
459.616	19579.26
459.821	19732.86
460.027	19423.62
460.233	18809.23
460.438	18076.05
460.644	18442.64
460.85	17594.78
461.055	17355.17
461.261	17240.48
461.466	16146.87
461.672	15573.44
461.878	16785.83
462.083	15485.37
462.289	15292.87
462.494	15088.07
462.7	14651.85
462.905	14016.98
463.111	14485.97
463.316	14547.4
463.522	14260.69
463.727	14344.66
463.932	14139.86
464.138	13969.88
464.343	14164.43
464.549	14002.64
464.754	14438.86
464.959	13982.17
465.165	13976.02
465.37	13644.25
465.575	12978.66
465.781	13601.24
465.986	13679.07
466.191	13079.01
466.397	12956.13
466.602	12302.83
466.807	12702.18
467.012	12966.37
467.218	12835.3
