Data from USB4F104151__25__10-21-37-228.txt Node

Date: Wed Mar 12 10:21:37 EDT 2025
User: louis
Spectrometer: USB4F10415
Trigger mode: 4
Integration Time (sec): 3.000000E-2
Scans to average: 1
Electric dark correction enabled: true
Nonlinearity correction enabled: false
Boxcar width: 0
XAxis mode: Wavelengths
Number of Pixels in Spectrum: 3648
>>>>>Begin Spectral Data<<<<<
178.204	-56.49
178.424	-56.49
178.644	-56.49
178.864	-117.93
179.084	-87.21
179.304	7
179.524	-48.3
179.744	-17.58
179.964	-50.35
180.184	80.72
180.404	2.9
180.624	-3.24
180.844	21.33
181.064	-1.19
181.283	39.76
181.503	23.38
181.723	-54.44
181.943	11.09
182.163	9.05
182.383	33.62
182.602	50
182.822	70.48
183.042	84.82
183.262	11.09
183.482	50
183.701	19.29
183.921	115.54
184.141	-13.48
184.361	64.34
184.58	25.43
184.8	35.67
185.02	52.05
185.239	23.38
185.459	45.91
185.679	121.68
185.898	45.91
186.118	72.53
186.338	41.81
186.557	62.29
186.777	45.91
186.997	2.9
187.216	-7.34
187.436	23.38
187.655	21.33
187.875	62.29
188.095	45.91
188.314	133.97
188.534	109.4
188.753	7
188.973	13.14
189.192	47.96
189.412	-5.29
189.631	7
189.851	52.05
190.07	88.92
190.29	19.29
190.509	35.67
190.729	33.62
190.948	54.1
191.168	131.92
191.387	52.05
191.607	2.9
191.826	54.1
192.045	19.29
192.265	45.91
192.484	-5.29
192.704	113.49
192.923	15.19
193.142	113.49
193.362	39.76
193.581	64.34
193.8	37.72
194.02	58.2
194.239	23.38
194.458	62.29
194.678	-25.77
194.897	29.52
195.116	54.1
195.335	90.96
195.555	101.2
195.774	37.72
195.993	58.2
196.212	31.57
196.432	93.01
196.651	31.57
196.87	-13.48
197.089	101.2
197.308	-3.24
197.528	97.11
197.747	-1.19
197.966	80.72
198.185	72.53
198.404	0.85
198.623	45.91
198.842	80.72
199.062	47.96
199.281	35.67
199.5	99.16
199.719	78.68
199.938	58.2
200.157	166.74
200.376	35.67
200.595	41.81
200.814	109.4
201.033	25.43
201.252	68.44
201.471	54.1
201.69	101.2
201.909	39.76
202.128	56.15
202.347	76.63
202.566	72.53
202.785	21.33
203.004	-50.35
203.223	86.87
203.442	27.48
203.661	125.78
203.879	23.38
204.098	60.24
204.317	56.15
204.536	17.24
204.755	31.57
204.974	56.15
205.193	105.3
205.411	64.34
205.63	78.68
205.849	-11.43
206.068	66.39
206.287	86.87
206.505	56.15
206.724	-31.91
206.943	64.34
207.162	68.44
207.381	37.72
207.599	105.3
207.818	-68.78
208.037	-29.87
208.255	68.44
208.474	52.05
208.693	39.76
208.911	70.48
209.13	23.38
209.349	19.29
209.567	52.05
209.786	64.34
210.005	4.95
210.223	105.3
210.442	-11.43
210.661	66.39
210.879	123.73
211.098	-31.91
211.316	68.44
211.535	-38.06
211.753	50
211.972	78.68
212.191	15.19
212.409	-13.48
212.628	31.57
212.846	17.24
213.065	33.62
213.283	52.05
213.502	47.96
213.72	97.11
213.938	76.63
214.157	54.1
214.375	58.2
214.594	11.09
214.812	23.38
215.031	86.87
215.249	-33.96
215.467	99.16
215.686	47.96
215.904	150.36
216.122	62.29
216.341	54.1
216.559	117.59
216.778	78.68
216.996	56.15
217.214	62.29
217.432	-13.48
217.651	4.95
217.869	-38.06
218.087	-38.06
218.306	7
218.524	148.31
218.742	-7.34
218.96	58.2
219.179	60.24
219.397	72.53
219.615	47.96
219.833	7
220.051	58.2
220.27	29.52
220.488	21.33
220.706	95.06
220.924	50
221.142	54.1
221.36	-36.01
221.578	52.05
221.796	33.62
222.015	43.86
222.233	43.86
222.451	72.53
222.669	9.05
222.887	25.43
223.105	43.86
223.323	0.85
223.541	-31.91
223.759	-9.39
223.977	70.48
224.195	52.05
224.413	90.96
224.631	64.34
224.849	84.82
225.067	105.3
225.285	-7.34
225.503	72.53
225.721	93.01
225.939	103.25
226.157	-25.77
226.375	90.96
226.592	56.15
226.81	31.57
227.028	45.91
227.246	23.38
227.464	39.76
227.682	37.72
227.9	64.34
228.117	37.72
228.335	56.15
228.553	82.77
228.771	45.91
228.989	72.53
229.206	72.53
229.424	37.72
229.642	27.48
229.86	37.72
230.077	133.97
230.295	41.81
230.513	54.1
230.731	76.63
230.948	70.48
231.166	95.06
231.384	90.96
231.601	11.09
231.819	-23.72
232.037	-25.77
232.254	97.11
232.472	37.72
232.689	2.9
232.907	117.59
233.125	52.05
233.342	-31.91
233.56	29.52
233.777	31.57
233.995	33.62
234.213	43.86
234.43	-29.87
234.648	66.39
234.865	80.72
235.083	13.14
235.3	70.48
235.518	56.15
235.735	86.87
235.953	52.05
236.17	23.38
236.388	-9.39
236.605	-11.43
236.822	39.76
237.04	43.86
237.257	58.2
237.475	33.62
237.692	29.52
237.909	103.25
238.127	62.29
238.344	23.38
238.562	78.68
238.779	11.09
238.996	23.38
239.214	35.67
239.431	58.2
239.648	-13.48
239.865	84.82
240.083	62.29
240.3	101.2
240.517	41.81
240.735	-9.39
240.952	93.01
241.169	50
241.386	84.82
241.603	4.95
241.821	35.67
242.038	68.44
242.255	56.15
242.472	-17.58
242.689	39.76
242.907	7
243.124	-13.48
243.341	0.85
243.558	-62.63
243.775	66.39
243.992	29.52
244.209	31.57
244.426	97.11
244.643	113.49
244.86	7
245.078	47.96
245.295	117.59
245.512	80.72
245.729	29.52
245.946	103.25
246.163	2.9
246.38	68.44
246.597	45.91
246.814	-7.34
247.031	31.57
247.248	70.48
247.464	76.63
247.681	43.86
247.898	56.15
248.115	72.53
248.332	52.05
248.549	21.33
248.766	113.49
248.983	72.53
249.2	58.2
249.417	86.87
249.633	-52.39
249.85	33.62
250.067	47.96
250.284	33.62
250.501	93.01
250.717	101.2
250.934	39.76
251.151	78.68
251.368	60.24
251.585	60.24
251.801	35.67
252.018	103.25
252.235	107.35
252.451	39.76
252.668	43.86
252.885	23.38
253.102	23.38
253.318	-21.67
253.535	41.81
253.752	39.76
253.968	31.57
254.185	-48.3
254.401	37.72
254.618	23.38
254.835	47.96
255.051	70.48
255.268	-1.19
255.484	76.63
255.701	56.15
255.917	56.15
256.134	23.38
256.351	37.72
256.567	11.09
256.784	37.72
257	-42.15
257.217	103.25
257.433	25.43
257.65	39.76
257.866	56.15
258.082	37.72
258.299	33.62
258.515	23.38
258.732	41.81
258.948	60.24
259.165	70.48
259.381	90.96
259.597	58.2
259.814	82.77
260.03	84.82
260.246	19.29
260.463	56.15
260.679	39.76
260.895	29.52
261.112	99.16
261.328	43.86
261.544	29.52
261.761	103.25
261.977	90.96
262.193	-5.29
262.409	50
262.626	29.52
262.842	88.92
263.058	4.95
263.274	150.36
263.49	64.34
263.707	54.1
263.923	58.2
264.139	-1.19
264.355	50
264.571	78.68
264.787	86.87
265.004	113.49
265.22	74.58
265.436	58.2
265.652	64.34
265.868	35.67
266.084	4.95
266.3	31.57
266.516	-38.06
266.732	125.78
266.948	90.96
267.164	54.1
267.38	47.96
267.596	56.15
267.812	43.86
268.028	105.3
268.244	54.1
268.46	80.72
268.676	21.33
268.892	43.86
269.108	97.11
269.324	35.67
269.54	80.72
269.756	68.44
269.972	54.1
270.188	52.05
270.403	66.39
270.619	35.67
270.835	45.91
271.051	58.2
271.267	56.15
271.483	54.1
271.698	15.19
271.914	68.44
272.13	58.2
272.346	86.87
272.562	68.44
272.777	74.58
272.993	58.2
273.209	56.15
273.425	31.57
273.64	7
273.856	80.72
274.072	64.34
274.287	15.19
274.503	43.86
274.719	9.05
274.934	13.14
275.15	33.62
275.366	35.67
275.581	11.09
275.797	-15.53
276.012	27.48
276.228	17.24
276.444	95.06
276.659	66.39
276.875	58.2
277.09	35.67
277.306	21.33
277.521	43.86
277.737	-1.19
277.952	25.43
278.168	47.96
278.383	80.72
278.599	4.95
278.814	56.15
279.03	15.19
279.245	72.53
279.461	62.29
279.676	84.82
279.892	25.43
280.107	2.9
280.322	23.38
280.538	43.86
280.753	50
280.969	78.68
281.184	2.9
281.399	115.54
281.615	17.24
281.83	66.39
282.045	113.49
282.26	23.38
282.476	129.88
282.691	-13.48
282.906	162.64
283.122	95.06
283.337	19.29
283.552	68.44
283.767	80.72
283.983	27.48
284.198	-17.58
284.413	60.24
284.628	95.06
284.843	31.57
285.058	54.1
285.274	-5.29
285.489	19.29
285.704	162.64
285.919	33.62
286.134	70.48
286.349	19.29
286.564	80.72
286.779	62.29
286.995	-17.58
287.21	-9.39
287.425	13.14
287.64	95.06
287.855	4.95
288.07	47.96
288.285	146.26
288.5	97.11
288.715	70.48
288.93	31.57
289.145	15.19
289.36	29.52
289.575	-17.58
289.79	78.68
290.004	-13.48
290.219	117.59
290.434	7
290.649	41.81
290.864	64.34
291.079	52.05
291.294	4.95
291.509	86.87
291.724	84.82
291.938	72.53
292.153	60.24
292.368	37.72
292.583	66.39
292.798	47.96
293.012	39.76
293.227	15.19
293.442	0.85
293.657	19.29
293.871	88.92
294.086	107.35
294.301	107.35
294.516	99.16
294.73	68.44
294.945	54.1
295.16	41.81
295.374	47.96
295.589	88.92
295.804	35.67
296.018	84.82
296.233	109.4
296.447	74.58
296.662	39.76
296.877	29.52
297.091	60.24
297.306	117.59
297.52	-5.29
297.735	68.44
297.949	47.96
298.164	41.81
298.378	35.67
298.593	56.15
298.807	54.1
299.022	-56.49
299.236	78.68
299.451	43.86
299.665	41.81
299.88	7
300.094	72.53
300.309	50
300.523	23.38
300.737	72.53
300.952	105.3
301.166	43.86
301.381	-13.48
301.595	27.48
301.809	74.58
302.024	50
302.238	47.96
302.452	158.55
302.667	56.15
302.881	90.96
303.095	74.58
303.309	9.05
303.524	31.57
303.738	45.91
303.952	-15.53
304.166	88.92
304.381	-19.63
304.595	95.06
304.809	13.14
305.023	72.53
305.237	74.58
305.452	52.05
305.666	31.57
305.88	90.96
306.094	-25.77
306.308	31.57
306.522	41.81
306.736	35.67
306.95	80.72
307.164	68.44
307.379	21.33
307.593	103.25
307.807	93.01
308.021	95.06
308.235	90.96
308.449	47.96
308.663	52.05
308.877	131.92
309.091	-11.43
309.305	50
309.519	-38.06
309.733	103.25
309.947	31.57
310.161	33.62
310.374	60.24
310.588	154.45
310.802	56.15
311.016	52.05
311.23	121.68
311.444	33.62
311.658	-7.34
311.872	68.44
312.085	121.68
312.299	54.1
312.513	72.53
312.727	52.05
312.941	0.85
313.154	37.72
313.368	95.06
313.582	25.43
313.796	21.33
314.009	29.52
314.223	129.88
314.437	-1.19
314.651	76.63
314.864	105.3
315.078	35.67
315.292	23.38
315.505	64.34
315.719	76.63
315.933	56.15
316.146	25.43
316.36	-38.06
316.573	45.91
316.787	109.4
317.001	64.34
317.214	31.57
317.428	41.81
317.641	-21.67
317.855	115.54
318.068	50
318.282	78.68
318.495	136.02
318.709	7
318.922	31.57
319.136	80.72
319.349	23.38
319.563	29.52
319.776	64.34
319.99	-1.19
320.203	27.48
320.417	-27.82
320.63	68.44
320.843	80.72
321.057	56.15
321.27	45.91
321.483	2.9
321.697	138.07
321.91	-23.72
322.124	74.58
322.337	129.88
322.55	56.15
322.763	105.3
322.977	64.34
323.19	39.76
323.403	-5.29
323.617	93.01
323.83	82.77
324.043	7
324.256	97.11
324.469	103.25
324.683	64.34
324.896	64.34
325.109	43.86
325.322	76.63
325.535	93.01
325.748	60.24
325.962	80.72
326.175	7
326.388	111.44
326.601	43.86
326.814	72.53
327.027	72.53
327.24	82.77
327.453	31.57
327.666	72.53
327.879	47.96
328.092	97.11
328.305	125.78
328.518	-1.19
328.731	45.91
328.944	74.58
329.157	72.53
329.37	88.92
329.583	45.91
329.796	103.25
330.009	19.29
330.222	121.68
330.435	129.88
330.648	88.92
330.861	58.2
331.073	41.81
331.286	39.76
331.499	60.24
331.712	64.34
331.925	76.63
332.138	23.38
332.35	41.81
332.563	-21.67
332.776	121.68
332.989	64.34
333.202	129.88
333.414	82.77
333.627	82.77
333.84	17.24
334.053	119.64
334.265	17.24
334.478	-33.96
334.691	54.1
334.903	47.96
335.116	47.96
335.329	15.19
335.541	138.07
335.754	121.68
335.966	45.91
336.179	125.78
336.392	66.39
336.604	140.12
336.817	45.91
337.029	90.96
337.242	41.81
337.454	78.68
337.667	23.38
337.88	115.54
338.092	72.53
338.305	15.19
338.517	25.43
338.729	43.86
338.942	56.15
339.154	39.76
339.367	68.44
339.579	93.01
339.792	64.34
340.004	31.57
340.217	58.2
340.429	50
340.641	21.33
340.854	103.25
341.066	95.06
341.278	93.01
341.491	105.3
341.703	105.3
341.915	-21.67
342.128	70.48
342.34	9.05
342.552	43.86
342.764	47.96
342.977	64.34
343.189	39.76
343.401	97.11
343.613	23.38
343.826	64.34
344.038	68.44
344.25	74.58
344.462	43.86
344.674	78.68
344.886	119.64
345.099	43.86
345.311	52.05
345.523	45.91
345.735	56.15
345.947	129.88
346.159	-31.91
346.371	66.39
346.583	127.83
346.795	97.11
347.007	-25.77
347.219	84.82
347.431	88.92
347.643	39.76
347.855	35.67
348.067	99.16
348.279	-33.96
348.491	35.67
348.703	25.43
348.915	68.44
349.127	43.86
349.339	80.72
349.551	43.86
349.763	86.87
349.975	-5.29
350.187	160.59
350.399	84.82
350.61	58.2
350.822	84.82
351.034	84.82
351.246	80.72
351.458	54.1
351.669	21.33
351.881	117.59
352.093	150.36
352.305	76.63
352.517	74.58
352.728	78.68
352.94	105.3
353.152	88.92
353.363	70.48
353.575	70.48
353.787	45.91
353.999	31.57
354.21	93.01
354.422	74.58
354.633	93.01
354.845	19.29
355.057	68.44
355.268	47.96
355.48	45.91
355.692	119.64
355.903	93.01
356.115	72.53
356.326	35.67
356.538	45.91
356.749	27.48
356.961	117.59
357.172	-5.29
357.384	90.96
357.595	54.1
357.807	54.1
358.018	86.87
358.23	21.33
358.441	150.36
358.653	82.77
358.864	35.67
359.075	58.2
359.287	111.44
359.498	15.19
359.709	56.15
359.921	101.2
360.132	60.24
360.344	43.86
360.555	62.29
360.766	78.68
360.977	64.34
361.189	121.68
361.4	17.24
361.611	88.92
361.823	95.06
362.034	41.81
362.245	56.15
362.456	70.48
362.667	70.48
362.879	21.33
363.09	19.29
363.301	35.67
363.512	117.59
363.723	72.53
363.935	0.85
364.146	45.91
364.357	76.63
364.568	64.34
364.779	52.05
364.99	97.11
365.201	72.53
365.412	125.78
365.623	-15.53
365.834	95.06
366.045	121.68
366.256	33.62
366.467	70.48
366.678	35.67
366.889	101.2
367.1	101.2
367.311	148.31
367.522	9.05
367.733	107.35
367.944	21.33
368.155	117.59
368.366	97.11
368.577	97.11
368.788	47.96
368.999	15.19
369.209	21.33
369.42	80.72
369.631	84.82
369.842	88.92
370.053	68.44
370.264	88.92
370.474	27.48
370.685	39.76
370.896	27.48
371.107	99.16
371.317	142.16
371.528	70.48
371.739	80.72
371.95	97.11
372.16	43.86
372.371	19.29
372.582	35.67
372.792	146.26
373.003	80.72
373.214	113.49
373.424	107.35
373.635	62.29
373.846	66.39
374.056	43.86
374.267	25.43
374.477	74.58
374.688	45.91
374.898	97.11
375.109	78.68
375.319	109.4
375.53	88.92
375.74	45.91
375.951	47.96
376.161	121.68
376.372	103.25
376.582	60.24
376.793	129.88
377.003	60.24
377.214	62.29
377.424	109.4
377.635	78.68
377.845	54.1
378.055	101.2
378.266	2.9
378.476	56.15
378.686	82.77
378.897	19.29
379.107	66.39
379.317	74.58
379.528	15.19
379.738	47.96
379.948	0.85
380.158	88.92
380.369	103.25
380.579	25.43
380.789	39.76
380.999	60.24
381.21	97.11
381.42	136.02
381.63	64.34
381.84	50
382.05	43.86
382.261	4.95
382.471	88.92
382.681	150.36
382.891	90.96
383.101	78.68
383.311	-1.19
383.521	13.14
383.731	109.4
383.941	37.72
384.151	60.24
384.361	27.48
384.571	93.01
384.781	97.11
384.991	113.49
385.201	103.25
385.411	47.96
385.621	129.88
385.831	74.58
386.041	131.92
386.251	68.44
386.461	158.55
386.671	84.82
386.881	86.87
387.091	35.67
387.301	76.63
387.511	86.87
387.72	78.68
387.93	86.87
388.14	64.34
388.35	11.09
388.56	76.63
388.769	117.59
388.979	113.49
389.189	27.48
389.399	93.01
389.609	111.44
389.818	56.15
390.028	56.15
390.238	76.63
390.447	93.01
390.657	84.82
390.867	90.96
391.076	88.92
391.286	105.3
391.496	109.4
391.705	56.15
391.915	111.44
392.125	101.2
392.334	13.14
392.544	117.59
392.753	105.3
392.963	21.33
393.172	68.44
393.382	50
393.591	56.15
393.801	66.39
394.01	138.07
394.22	133.97
394.429	68.44
394.639	95.06
394.848	142.16
395.058	101.2
395.267	146.26
395.477	164.69
395.686	117.59
395.895	127.83
396.105	183.12
396.314	109.4
396.524	101.2
396.733	64.34
396.942	121.68
397.152	41.81
397.361	113.49
397.57	95.06
397.78	109.4
397.989	11.09
398.198	166.74
398.407	117.59
398.617	88.92
398.826	113.49
399.035	152.4
399.244	125.78
399.453	146.26
399.663	133.97
399.872	66.39
400.081	170.83
400.29	133.97
400.499	152.4
400.708	144.21
400.917	76.63
401.127	170.83
401.336	95.06
401.545	174.93
401.754	109.4
401.963	236.37
402.172	111.44
402.381	148.31
402.59	84.82
402.799	127.83
403.008	240.47
403.217	113.49
403.426	183.12
403.635	125.78
403.844	160.59
404.053	148.31
404.262	156.5
404.471	117.59
404.68	129.88
404.888	211.79
405.097	154.45
405.306	211.79
405.515	166.74
405.724	166.74
405.933	154.45
406.142	152.4
406.35	193.36
406.559	232.27
406.768	181.07
406.977	275.28
407.185	176.98
407.394	308.05
407.603	168.79
407.812	289.62
408.02	328.53
408.229	187.22
408.438	193.36
408.646	240.47
408.855	248.66
409.064	316.24
409.272	338.77
409.481	283.47
409.69	281.43
409.898	252.75
410.107	353.1
410.315	297.81
410.524	281.43
410.733	336.72
410.941	363.34
411.15	363.34
411.358	381.78
411.567	414.54
411.775	428.88
411.984	412.5
412.192	471.89
412.401	443.21
412.609	457.55
412.818	541.52
413.026	533.33
413.234	605
413.443	496.46
413.651	555.85
413.86	549.71
414.068	570.19
414.276	686.92
414.485	533.33
414.693	564.04
414.901	744.27
415.11	682.83
415.318	768.84
415.526	848.71
415.734	744.27
415.943	879.43
416.151	854.86
416.359	883.53
416.567	873.29
416.776	994.12
416.984	975.69
417.192	1012.55
417.4	983.88
417.608	1002.31
417.817	1047.37
418.025	1153.86
418.233	1178.44
418.441	1117
418.649	1268.55
418.857	1219.39
419.065	1311.55
419.273	1334.08
419.481	1360.7
419.689	1473.34
419.897	1487.68
420.105	1624.89
420.313	1604.41
420.521	1694.52
420.729	1657.66
420.937	1688.38
421.145	1743.67
421.353	1874.74
421.561	1913.66
421.769	2026.29
421.977	2083.64
422.185	1989.43
422.393	2233.14
422.601	2339.63
422.809	2267.95
423.017	2353.97
423.224	2509.62
423.432	2550.57
423.64	2497.33
423.848	2849.58
424.056	2773.8
424.263	2810.67
424.471	2929.45
424.679	2892.59
424.887	3121.96
425.094	3277.6
425.302	3226.4
425.51	3386.15
425.718	3343.14
425.925	3504.93
426.133	3590.94
426.341	3846.94
426.548	3937.05
426.756	3875.61
426.964	3982.1
427.171	4168.47
427.379	4328.21
427.586	4414.23
427.794	4541.2
428.001	4780.81
428.209	5053.19
428.417	4737.81
428.624	5380.87
428.832	5176.07
429.039	5157.64
429.247	5124.87
429.454	5776.13
429.662	6159.1
429.869	5692.16
430.076	6054.65
430.284	5935.87
430.491	6173.43
430.699	6548.21
430.906	6621.94
431.114	6759.15
431.321	6902.51
431.528	7058.15
431.736	7357.16
431.943	7879.39
432.15	7568.1
432.358	7680.74
432.565	8137.43
432.772	8133.34
432.979	8669.91
433.187	8858.32
433.394	8778.45
433.601	9136.84
433.808	9241.29
434.016	9329.35
434.223	9489.09
434.43	10185.4
434.637	9968.32
434.844	10726.07
435.052	10642.1
435.259	10756.79
435.466	10762.93
435.673	10488.5
435.88	11623.08
436.087	11838.11
436.294	11985.57
436.501	11506.34
436.708	12010.14
436.915	12438.17
437.122	12989.07
437.329	12696.21
437.537	13271.69
437.743	13685.38
437.95	13306.51
438.157	14080.64
438.364	14580.34
438.571	14439.03
438.778	14580.34
438.985	15786.6
439.192	15155.82
439.399	15811.17
439.606	15403.63
439.813	16630.36
440.02	17209.93
440.227	16915.03
440.433	17087.06
440.64	17601.1
440.847	17148.5
441.054	17615.43
441.261	18891.32
441.467	18659.9
441.674	18952.76
441.881	19700.26
442.088	19511.85
442.294	19485.23
442.501	20073
442.708	20206.11
442.914	20943.38
443.121	21643.79
443.328	21453.33
443.534	23157.24
443.741	22297.09
443.948	21950.98
444.154	23857.64
444.361	23503.34
444.568	23665.13
444.774	23702
444.981	23679.47
445.187	24611.29
445.394	25463.25
445.6	25309.65
445.807	27564.46
446.013	26300.87
446.22	27075
446.426	27705.77
446.633	28248.49
446.839	29088.15
447.046	27468.21
447.252	29419.92
447.459	29139.35
447.665	29168.02
447.871	30310.79
448.078	31496.56
448.284	30267.78
448.491	31152.51
448.697	31854.96
448.903	32866.66
449.11	32948.57
449.316	32014.7
449.522	32547.17
449.728	33487.19
449.935	34013.52
450.141	34130.25
450.347	34634.05
450.553	33235.29
450.76	33829.2
450.966	34765.12
451.172	34822.47
451.378	35340.6
451.584	34791.75
451.791	35438.9
451.997	34980.16
452.203	35815.73
452.409	35887.41
452.615	35719.48
452.821	34160.97
453.027	33784.15
453.233	35189.05
453.44	33624.4
453.646	34652.48
453.852	34261.32
454.058	35068.22
454.264	33665.36
454.47	34398.54
454.676	33839.44
454.882	34775.36
455.088	31232.38
455.294	32194.92
455.5	32620.9
455.705	32809.31
455.911	31555.96
456.117	31060.35
456.323	30480.77
456.529	29024.67
456.735	30294.41
456.941	29512.08
457.147	29008.28
457.352	28193.19
457.558	27445.68
457.764	27883.95
457.97	27109.82
458.176	26673.6
458.381	26337.73
458.587	25283.03
458.793	25278.93
458.999	23867.88
459.204	25614.8
459.41	24852.95
459.616	23349.75
459.821	23341.55
460.027	23085.56
460.233	22641.15
460.438	21594.64
460.644	22006.28
460.85	21041.68
461.055	20730.39
461.261	20445.73
461.466	18838.07
461.672	18248.25
461.878	19692.07
462.083	18326.08
462.289	18240.06
462.494	18086.47
462.7	17089.1
462.905	16923.22
463.111	17455.69
463.316	17164.88
463.522	16849.49
463.727	17058.39
463.932	16982.61
464.138	16740.95
464.343	16859.73
464.549	16570.97
464.754	16990.8
464.959	16917.08
465.165	16489.05
465.37	15975.01
465.575	15446.63
465.781	16106.08
465.986	16304.73
466.191	15643.24
466.397	15465.07
466.602	14551.67
466.807	15282.8
467.012	15286.89
467.218	15030.9
467.423	15051.38
467.628	15041.14
467.833	15489.64
468.038	15237.74
