Data from USB4F104151__256__10-39-45-749.txt Node

Date: Wed Mar 12 10:39:45 EDT 2025
User: louis
Spectrometer: USB4F10415
Trigger mode: 4
Integration Time (sec): 3.000000E-2
Scans to average: 1
Electric dark correction enabled: true
Nonlinearity correction enabled: false
Boxcar width: 0
XAxis mode: Wavelengths
Number of Pixels in Spectrum: 3648
>>>>>Begin Spectral Data<<<<<
178.204	-109.57
178.424	-109.57
178.644	-109.57
178.864	-103.42
179.084	-109.57
179.304	7.17
179.524	-46.08
179.744	54.27
179.964	31.74
180.184	-31.74
180.404	13.31
180.624	3.07
180.844	-1.02
181.064	1.02
181.283	-11.26
181.503	-41.98
181.723	21.5
181.943	-50.18
182.163	46.08
182.383	-9.22
182.602	66.56
182.822	46.08
183.042	13.31
183.262	23.55
183.482	72.7
183.701	58.37
183.921	95.23
184.141	1.02
184.361	23.55
184.58	15.36
184.8	97.28
185.02	60.42
185.239	13.31
185.459	93.18
185.679	80.89
185.898	-29.7
186.118	76.8
186.338	64.51
186.557	19.46
186.777	31.74
186.997	93.18
187.216	64.51
187.436	152.57
187.655	31.74
187.875	-5.12
188.095	15.36
188.314	44.03
188.534	48.13
188.753	31.74
188.973	60.42
189.192	-19.46
189.412	60.42
189.631	15.36
189.851	48.13
190.07	7.17
190.29	48.13
190.509	56.32
190.729	31.74
190.948	117.76
191.168	109.57
191.387	68.61
191.607	27.65
191.826	89.09
192.045	-13.31
192.265	-33.79
192.484	84.99
192.704	23.55
192.923	-46.08
193.142	82.94
193.362	117.76
193.581	68.61
193.8	7.17
194.02	56.32
194.239	48.13
194.458	39.94
194.678	80.89
194.897	-9.22
195.116	-3.07
195.335	-41.98
195.555	48.13
195.774	29.7
195.993	52.22
196.212	-9.22
196.432	76.8
196.651	82.94
196.87	27.65
197.089	80.89
197.308	84.99
197.528	5.12
197.747	-29.7
197.966	146.43
198.185	84.99
198.404	23.55
198.623	-15.36
198.842	39.94
199.062	56.32
199.281	97.28
199.5	-17.41
199.719	44.03
199.938	91.13
200.157	74.75
200.376	89.09
200.595	44.03
200.814	35.84
201.033	7.17
201.252	119.81
201.471	76.8
201.69	66.56
201.909	-5.12
202.128	72.7
202.347	76.8
202.566	-1.02
202.785	-11.26
203.004	44.03
203.223	148.48
203.442	23.55
203.661	9.22
203.879	35.84
204.098	37.89
204.317	31.74
204.536	-7.17
204.755	-15.36
204.974	107.52
205.193	39.94
205.411	142.33
205.63	56.32
205.849	37.89
206.068	84.99
206.287	44.03
206.505	29.7
206.724	-62.46
206.943	1.02
207.162	33.79
207.381	64.51
207.599	93.18
207.818	64.51
208.037	68.61
208.255	-23.55
208.474	72.7
208.693	52.22
208.911	-27.65
209.13	68.61
209.349	5.12
209.567	93.18
209.786	84.99
210.005	23.55
210.223	56.32
210.442	58.37
210.661	80.89
210.879	17.41
211.098	50.18
211.316	-5.12
211.535	48.13
211.753	58.37
211.972	37.89
212.191	39.94
212.409	68.61
212.628	27.65
212.846	33.79
213.065	-31.74
213.283	27.65
213.502	-52.22
213.72	-23.55
213.938	93.18
214.157	99.33
214.375	3.07
214.594	58.37
214.812	37.89
215.031	121.85
215.249	-62.46
215.467	21.5
215.686	105.47
215.904	25.6
216.122	48.13
216.341	103.42
216.559	44.03
216.778	21.5
216.996	50.18
217.214	15.36
217.432	80.89
217.651	23.55
217.869	-3.07
218.087	68.61
218.306	74.75
218.524	7.17
218.742	80.89
218.96	52.22
219.179	23.55
219.397	-29.7
219.615	50.18
219.833	111.61
220.051	23.55
220.27	74.75
220.488	64.51
220.706	23.55
220.924	50.18
221.142	-39.94
221.36	23.55
221.578	-25.6
221.796	74.75
222.015	13.31
222.233	-15.36
222.451	105.47
222.669	-5.12
222.887	68.61
223.105	76.8
223.323	54.27
223.541	-9.22
223.759	60.42
223.977	52.22
224.195	91.13
224.413	82.94
224.631	142.33
224.849	3.07
225.067	113.66
225.285	-5.12
225.503	72.7
225.721	-13.31
225.939	80.89
226.157	25.6
226.375	97.28
226.592	-5.12
226.81	35.84
227.028	125.95
227.246	117.76
227.464	-13.31
227.682	29.7
227.9	50.18
228.117	70.65
228.335	74.75
228.553	105.47
228.771	72.7
228.989	54.27
229.206	52.22
229.424	17.41
229.642	52.22
229.86	19.46
230.077	128
230.295	25.6
230.513	15.36
230.731	125.95
230.948	109.57
231.166	39.94
231.384	35.84
231.601	50.18
231.819	48.13
232.037	35.84
232.254	64.51
232.472	56.32
232.689	9.22
232.907	91.13
233.125	-17.41
233.342	11.26
233.56	29.7
233.777	33.79
233.995	-37.89
234.213	50.18
234.43	66.56
234.648	17.41
234.865	48.13
235.083	-13.31
235.3	119.81
235.518	58.37
235.735	185.34
235.953	99.33
236.17	29.7
236.388	54.27
236.605	7.17
236.822	115.71
237.04	-41.98
237.257	93.18
237.475	15.36
237.692	-1.02
237.909	52.22
238.127	-15.36
238.344	21.5
238.562	41.98
238.779	58.37
238.996	-23.55
239.214	27.65
239.431	87.04
239.648	89.09
239.865	3.07
240.083	107.52
240.3	64.51
240.517	50.18
240.735	44.03
240.952	72.7
241.169	46.08
241.386	13.31
241.603	-3.07
241.821	60.42
242.038	121.85
242.255	-52.22
242.472	15.36
242.689	-9.22
242.907	46.08
243.124	72.7
243.341	80.89
243.558	21.5
243.775	9.22
243.992	89.09
244.209	91.13
244.426	70.65
244.643	68.61
244.86	-37.89
245.078	41.98
245.295	91.13
245.512	9.22
245.729	1.02
245.946	15.36
246.163	27.65
246.38	3.07
246.597	64.51
246.814	50.18
247.031	48.13
247.248	-1.02
247.464	21.5
247.681	50.18
247.898	70.65
248.115	87.04
248.332	1.02
248.549	21.5
248.766	95.23
248.983	70.65
249.2	3.07
249.417	64.51
249.633	35.84
249.85	27.65
250.067	39.94
250.284	56.32
250.501	117.76
250.717	3.07
250.934	52.22
251.151	80.89
251.368	31.74
251.585	68.61
251.801	5.12
252.018	64.51
252.235	-9.22
252.451	13.31
252.668	-13.31
252.885	72.7
253.102	58.37
253.318	35.84
253.535	125.95
253.752	27.65
253.968	19.46
254.185	-7.17
254.401	7.17
254.618	52.22
254.835	46.08
255.051	76.8
255.268	95.23
255.484	97.28
255.701	15.36
255.917	76.8
256.134	84.99
256.351	-21.5
256.567	-35.84
256.784	125.95
257	1.02
257.217	95.23
257.433	89.09
257.65	39.94
257.866	31.74
258.082	35.84
258.299	5.12
258.515	46.08
258.732	97.28
258.948	27.65
259.165	25.6
259.381	41.98
259.597	35.84
259.814	48.13
260.03	89.09
260.246	115.71
260.463	52.22
260.679	70.65
260.895	5.12
261.112	37.89
261.328	48.13
261.544	44.03
261.761	89.09
261.977	33.79
262.193	-7.17
262.409	52.22
262.626	-17.41
262.842	23.55
263.058	-7.17
263.274	1.02
263.49	5.12
263.707	70.65
263.923	33.79
264.139	37.89
264.355	-1.02
264.571	93.18
264.787	64.51
265.004	39.94
265.22	-1.02
265.436	19.46
265.652	-15.36
265.868	1.02
266.084	76.8
266.3	-9.22
266.516	-23.55
266.732	50.18
266.948	76.8
267.164	84.99
267.38	84.99
267.596	62.46
267.812	84.99
268.028	64.51
268.244	35.84
268.46	121.85
268.676	9.22
268.892	95.23
269.108	19.46
269.324	7.17
269.54	3.07
269.756	60.42
269.972	15.36
270.188	31.74
270.403	31.74
270.619	93.18
270.835	117.76
271.051	41.98
271.267	-21.5
271.483	9.22
271.698	15.36
271.914	87.04
272.13	-17.41
272.346	-5.12
272.562	52.22
272.777	58.37
272.993	9.22
273.209	-46.08
273.425	82.94
273.64	-9.22
273.856	44.03
274.072	58.37
274.287	21.5
274.503	97.28
274.719	52.22
274.934	-15.36
275.15	91.13
275.366	7.17
275.581	-25.6
275.797	56.32
276.012	132.09
276.228	56.32
276.444	-35.84
276.659	44.03
276.875	-23.55
277.09	23.55
277.306	62.46
277.521	80.89
277.737	72.7
277.952	95.23
278.168	84.99
278.383	74.75
278.599	44.03
278.814	93.18
279.03	11.26
279.245	-5.12
279.461	-7.17
279.676	146.43
279.892	46.08
280.107	-39.94
280.322	44.03
280.538	68.61
280.753	70.65
280.969	111.61
281.184	11.26
281.399	62.46
281.615	44.03
281.83	27.65
282.045	-1.02
282.26	-72.7
282.476	50.18
282.691	97.28
282.906	29.7
283.122	46.08
283.337	23.55
283.552	109.57
283.767	80.89
283.983	15.36
284.198	84.99
284.413	101.37
284.628	-29.7
284.843	58.37
285.058	50.18
285.274	1.02
285.489	-9.22
285.704	103.42
285.919	52.22
286.134	-7.17
286.349	-13.31
286.564	70.65
286.779	107.52
286.995	1.02
287.21	-50.18
287.425	-9.22
287.64	-48.13
287.855	52.22
288.07	54.27
288.285	134.14
288.5	19.46
288.715	101.37
288.93	76.8
289.145	46.08
289.36	15.36
289.575	72.7
289.79	48.13
290.004	93.18
290.219	76.8
290.434	3.07
290.649	9.22
290.864	27.65
291.079	89.09
291.294	48.13
291.509	-39.94
291.724	17.41
291.938	60.42
292.153	27.65
292.368	37.89
292.583	50.18
292.798	87.04
293.012	44.03
293.227	3.07
293.442	5.12
293.657	87.04
293.871	87.04
294.086	39.94
294.301	89.09
294.516	21.5
294.73	52.22
294.945	13.31
295.16	33.79
295.374	125.95
295.589	41.98
295.804	62.46
296.018	58.37
296.233	87.04
296.447	97.28
296.662	68.61
296.877	39.94
297.091	66.56
297.306	44.03
297.52	132.09
297.735	93.18
297.949	123.9
298.164	-5.12
298.378	19.46
298.593	78.85
298.807	50.18
299.022	109.57
299.236	44.03
299.451	72.7
299.665	68.61
299.88	-5.12
300.094	111.61
300.309	60.42
300.523	64.51
300.737	54.27
300.952	171.01
301.166	84.99
301.381	19.46
301.595	64.51
301.809	1.02
302.024	76.8
302.238	1.02
302.452	48.13
302.667	58.37
302.881	103.42
303.095	60.42
303.309	62.46
303.524	11.26
303.738	103.42
303.952	23.55
304.166	39.94
304.381	13.31
304.595	138.24
304.809	84.99
305.023	76.8
305.237	11.26
305.452	5.12
305.666	78.85
305.88	64.51
306.094	21.5
306.308	62.46
306.522	50.18
306.736	115.71
306.95	39.94
307.164	41.98
307.379	39.94
307.593	93.18
307.807	91.13
308.021	54.27
308.235	48.13
308.449	29.7
308.663	5.12
308.877	87.04
309.091	7.17
309.305	64.51
309.519	11.26
309.733	27.65
309.947	-39.94
310.161	39.94
310.374	23.55
310.588	35.84
310.802	62.46
311.016	25.6
311.23	87.04
311.444	35.84
311.658	54.27
311.872	48.13
312.085	121.85
312.299	134.14
312.513	74.75
312.727	107.52
312.941	48.13
313.154	144.38
313.368	56.32
313.582	70.65
313.796	27.65
314.009	93.18
314.223	87.04
314.437	72.7
314.651	39.94
314.864	-15.36
315.078	29.7
315.292	-5.12
315.505	-27.65
315.719	103.42
315.933	-15.36
316.146	-9.22
316.36	9.22
316.573	72.7
316.787	103.42
317.001	91.13
317.214	3.07
317.428	103.42
317.641	76.8
317.855	39.94
318.068	117.76
318.282	27.65
318.495	117.76
318.709	72.7
318.922	-13.31
319.136	15.36
319.349	99.33
319.563	31.74
319.776	48.13
319.99	56.32
320.203	66.56
320.417	48.13
320.63	80.89
320.843	111.61
321.057	119.81
321.27	68.61
321.483	-15.36
321.697	74.75
321.91	99.33
322.124	27.65
322.337	41.98
322.55	-15.36
322.763	29.7
322.977	35.84
323.19	58.37
323.403	25.6
323.617	52.22
323.83	101.37
324.043	-29.7
324.256	72.7
324.469	48.13
324.683	84.99
324.896	3.07
325.109	119.81
325.322	52.22
325.535	35.84
325.748	-7.17
325.962	5.12
326.175	11.26
326.388	125.95
326.601	84.99
326.814	50.18
327.027	54.27
327.24	140.29
327.453	68.61
327.666	62.46
327.879	-15.36
328.092	-37.89
328.305	25.6
328.518	91.13
328.731	27.65
328.944	54.27
329.157	50.18
329.37	52.22
329.583	97.28
329.796	136.19
330.009	23.55
330.222	76.8
330.435	27.65
330.648	50.18
330.861	41.98
331.073	68.61
331.286	60.42
331.499	95.23
331.712	21.5
331.925	64.51
332.138	54.27
332.35	3.07
332.563	19.46
332.776	84.99
332.989	37.89
333.202	48.13
333.414	68.61
333.627	68.61
333.84	109.57
334.053	105.47
334.265	72.7
334.478	80.89
334.691	7.17
334.903	105.47
335.116	62.46
335.329	-21.5
335.541	91.13
335.754	140.29
335.966	11.26
336.179	19.46
336.392	70.65
336.604	136.19
336.817	50.18
337.029	84.99
337.242	95.23
337.454	52.22
337.667	72.7
337.88	125.95
338.092	50.18
338.305	58.37
338.517	58.37
338.729	66.56
338.942	37.89
339.154	23.55
339.367	33.79
339.579	35.84
339.792	-23.55
340.004	68.61
340.217	41.98
340.429	64.51
340.641	19.46
340.854	101.37
341.066	56.32
341.278	136.19
341.491	82.94
341.703	54.27
341.915	66.56
342.128	62.46
342.34	78.85
342.552	44.03
342.764	31.74
342.977	84.99
343.189	68.61
343.401	89.09
343.613	84.99
343.826	97.28
344.038	33.79
344.25	60.42
344.462	121.85
344.674	179.2
344.886	87.04
345.099	72.7
345.311	39.94
345.523	50.18
345.735	52.22
345.947	95.23
346.159	21.5
346.371	62.46
346.583	109.57
346.795	78.85
347.007	93.18
347.219	50.18
347.431	3.07
347.643	164.86
347.855	-15.36
348.067	74.75
348.279	19.46
348.491	48.13
348.703	68.61
348.915	-7.17
349.127	41.98
349.339	87.04
349.551	-31.74
349.763	87.04
349.975	17.41
350.187	66.56
350.399	115.71
350.61	15.36
350.822	52.22
351.034	56.32
351.246	113.66
351.458	72.7
351.669	60.42
351.881	-1.02
352.093	87.04
352.305	52.22
352.517	48.13
352.728	84.99
352.94	82.94
353.152	31.74
353.363	56.32
353.575	84.99
353.787	64.51
353.999	87.04
354.21	84.99
354.422	39.94
354.633	41.98
354.845	132.09
355.057	50.18
355.268	15.36
355.48	105.47
355.692	27.65
355.903	80.89
356.115	-23.55
356.326	72.7
356.538	97.28
356.749	74.75
356.961	136.19
357.172	54.27
357.384	23.55
357.595	48.13
357.807	23.55
358.018	44.03
358.23	82.94
358.441	29.7
358.653	62.46
358.864	87.04
359.075	11.26
359.287	27.65
359.498	56.32
359.709	52.22
359.921	31.74
360.132	31.74
360.344	33.79
360.555	52.22
360.766	62.46
360.977	41.98
361.189	99.33
361.4	15.36
361.611	52.22
361.823	33.79
362.034	27.65
362.245	25.6
362.456	74.75
362.667	74.75
362.879	48.13
363.09	87.04
363.301	62.46
363.512	-7.17
363.723	23.55
363.935	82.94
364.146	68.61
364.357	74.75
364.568	103.42
364.779	-41.98
364.99	97.28
365.201	68.61
365.412	103.42
365.623	58.37
365.834	175.1
366.045	136.19
366.256	35.84
366.467	125.95
366.678	107.52
366.889	60.42
367.1	13.31
367.311	136.19
367.522	27.65
367.733	44.03
367.944	115.71
368.155	46.08
368.366	21.5
368.577	105.47
368.788	93.18
368.999	64.51
369.209	72.7
369.42	105.47
369.631	125.95
369.842	44.03
370.053	60.42
370.264	105.47
370.474	-3.07
370.685	80.89
370.896	97.28
371.107	46.08
371.317	58.37
371.528	58.37
371.739	15.36
371.95	89.09
372.16	64.51
372.371	44.03
372.582	58.37
372.792	54.27
373.003	105.47
373.214	175.1
373.424	58.37
373.635	60.42
373.846	173.05
374.056	19.46
374.267	66.56
374.477	62.46
374.688	72.7
374.898	68.61
375.109	54.27
375.319	58.37
375.53	214.01
375.74	99.33
375.951	56.32
376.161	44.03
376.372	72.7
376.582	105.47
376.793	87.04
377.003	-1.02
377.214	-17.41
377.424	109.57
377.635	54.27
377.845	91.13
378.055	54.27
378.266	82.94
378.476	56.32
378.686	115.71
378.897	78.85
379.107	-9.22
379.317	82.94
379.528	35.84
379.738	82.94
379.948	62.46
380.158	15.36
380.369	101.37
380.579	60.42
380.789	56.32
380.999	84.99
381.21	37.89
381.42	68.61
381.63	52.22
381.84	115.71
382.05	113.66
382.261	117.76
382.471	93.18
382.681	144.38
382.891	52.22
383.101	50.18
383.311	72.7
383.521	64.51
383.731	31.74
383.941	130.05
384.151	84.99
384.361	37.89
384.571	64.51
384.781	70.65
384.991	130.05
385.201	150.53
385.411	64.51
385.621	132.09
385.831	99.33
386.041	107.52
386.251	125.95
386.461	107.52
386.671	52.22
386.881	93.18
387.091	111.61
387.301	113.66
387.511	142.33
387.72	138.24
387.93	107.52
388.14	39.94
388.35	29.7
388.56	171.01
388.769	175.1
388.979	56.32
389.189	72.7
389.399	91.13
389.609	175.1
389.818	164.86
390.028	123.9
390.238	60.42
390.447	33.79
390.657	109.57
390.867	84.99
391.076	101.37
391.286	82.94
391.496	76.8
391.705	76.8
391.915	132.09
392.125	56.32
392.334	101.37
392.544	128
392.753	117.76
392.963	3.07
393.172	97.28
393.382	39.94
393.591	150.53
393.801	128
394.01	115.71
394.22	105.47
394.429	52.22
394.639	132.09
394.848	197.63
395.058	146.43
395.267	56.32
395.477	152.57
395.686	132.09
395.895	109.57
396.105	246.78
396.314	125.95
396.524	125.95
396.733	160.77
396.942	138.24
397.152	171.01
397.361	125.95
397.57	142.33
397.78	95.23
397.989	111.61
398.198	173.05
398.407	211.96
398.617	95.23
398.826	101.37
399.035	91.13
399.244	195.58
399.453	189.44
399.663	142.33
399.872	171.01
400.081	76.8
400.29	150.53
400.499	156.67
400.708	162.81
400.917	84.99
401.127	197.63
401.336	134.14
401.545	158.72
401.754	183.29
401.963	101.37
402.172	146.43
402.381	185.34
402.59	87.04
402.799	144.38
403.008	252.92
403.217	144.38
403.426	269.31
403.635	166.91
403.844	158.72
404.053	244.73
404.262	105.47
404.471	216.06
404.68	195.58
404.888	201.72
405.097	142.33
405.306	287.74
405.515	244.73
405.724	207.87
405.933	205.82
406.142	250.88
406.35	318.46
406.559	244.73
406.768	267.26
406.977	277.5
407.185	310.27
407.394	314.36
407.603	257.02
407.812	320.51
408.02	300.03
408.229	306.17
408.438	250.88
408.646	254.97
408.855	263.16
409.064	326.65
409.272	386.04
409.481	435.19
409.69	383.99
409.898	375.8
410.107	451.58
410.315	531.45
410.524	406.52
410.733	445.43
410.941	392.19
411.15	420.86
411.358	513.02
411.567	613.37
411.775	551.93
411.984	590.84
412.192	562.17
412.401	687.09
412.609	703.48
412.818	633.85
413.026	623.61
413.234	703.48
413.443	791.54
413.651	752.63
413.86	723.96
414.068	824.31
414.276	850.93
414.485	689.14
414.693	922.61
414.901	930.8
415.11	965.62
415.318	973.81
415.526	1059.82
415.734	1047.54
415.943	1104.88
416.151	1143.79
416.359	1131.5
416.567	1082.35
416.776	1317.87
416.984	1244.14
417.192	1301.48
417.4	1299.44
417.608	1311.72
417.817	1422.31
418.025	1491.95
418.233	1518.57
418.441	1522.66
418.649	1612.78
418.857	1823.72
419.065	1768.42
419.273	1780.71
419.481	1938.4
419.689	1965.03
419.897	2108.38
420.105	2073.57
420.313	2188.25
420.521	2169.82
420.729	2372.57
420.937	2261.98
421.145	2309.08
421.353	2517.98
421.561	2593.75
421.769	2657.24
421.977	2847.7
422.185	2800.6
422.393	2919.38
422.601	3191.76
422.809	3158.99
423.017	3144.66
423.224	3199.95
423.432	3484.62
423.64	3359.69
423.848	3701.7
424.056	3728.33
424.263	4008.9
424.471	4019.14
424.679	4000.71
424.887	4225.98
425.094	4344.77
425.302	4203.46
425.51	4506.56
425.718	4694.97
425.925	4651.96
426.133	4926.39
426.341	5079.99
426.548	5348.27
426.756	5299.12
426.964	5555.12
427.171	5766.06
427.379	5954.47
427.586	5942.18
427.794	6214.56
428.001	6663.07
428.209	6652.83
428.417	6575
428.624	7160.72
428.832	7256.98
429.039	7080.85
429.247	7242.64
429.454	7854.98
429.662	8444.8
429.869	7791.5
430.076	8446.85
430.284	8264.58
430.491	8610.68
430.699	9116.53
430.906	9087.86
431.114	9200.5
431.321	9800.55
431.528	9706.35
431.736	10152.81
431.943	10761.05
432.15	10566.49
432.358	10462.05
432.565	11232.08
432.772	11279.19
432.979	11701.07
433.187	11746.12
433.394	12022.6
433.601	12794.68
433.808	12612.42
434.016	12663.61
434.223	13386.55
434.43	14177.06
434.637	13808.43
434.844	14615.33
435.052	15039.26
435.259	14895.9
435.466	14928.67
435.673	14668.58
435.88	15874.83
436.087	16694.02
436.294	16714.5
436.501	16343.81
436.708	16624.39
436.915	17072.89
437.122	17873.65
437.329	17824.5
437.537	18553.57
437.743	18954.97
437.95	18494.18
438.157	19688.15
438.364	20437.7
438.571	20220.62
438.778	20581.06
438.985	22571.69
439.192	21588.66
439.399	21959.34
439.606	21760.69
439.813	22940.32
440.02	24472.2
440.227	23816.85
440.433	23442.07
440.64	24472.2
440.847	24445.58
441.054	25105.02
441.261	26739.3
441.467	25975.41
441.674	26624.62
441.881	27359.84
442.088	27630.17
442.294	27736.66
442.501	28222.03
442.708	28615.24
442.914	29524.54
443.121	31113.77
443.328	30210.61
443.534	32373.27
443.741	31552.03
443.948	31207.97
444.154	33563.14
444.361	32899.59
444.568	33393.15
444.774	33223.17
444.981	33546.75
445.187	34845.16
445.394	36354.52
445.6	35703.26
445.807	38904.24
446.013	37267.91
446.22	38119.87
446.426	39215.53
446.633	39463.33
446.839	40753.55
447.046	39371.18
447.252	41523.59
447.459	41601.41
447.665	41146.76
447.871	43626.85
448.078	45113.68
448.284	42776.95
448.491	44095.84
448.697	45601.1
448.903	46711.1
449.11	46510.39
449.316	45498.7
449.522	46223.68
449.728	47706.41
449.935	48185.63
450.141	47966.5
450.347	49045.78
450.553	47212.85
450.76	47489.32
450.966	49506.57
451.172	48787.74
451.378	49598.73
451.584	48668.95
451.791	50155.78
451.997	49819.91
452.203	50452.73
452.409	50211.07
452.615	50010.37
452.821	48402.72
453.027	47927.59
453.233	50002.18
453.44	48259.36
453.646	48943.38
453.852	48861.46
454.058	49207.57
454.264	47724.84
454.47	48519.45
454.676	47194.42
454.882	49031.44
455.088	44607.83
455.294	45498.7
455.5	45572.42
455.705	46508.35
455.911	44396.89
456.117	43759.97
456.323	42709.36
456.529	40954.26
456.735	42348.92
456.941	41320.84
457.147	40315.29
457.352	39506.34
457.558	38724.02
457.764	38861.23
457.97	37929.41
458.176	37403.08
458.381	37206.47
458.587	35406.31
458.793	35568.1
458.999	33675.77
459.204	36336.09
459.41	34922.99
459.616	32340.5
459.821	32608.78
460.027	32021.02
460.233	31697.44
460.438	30239.28
460.644	30515.76
460.85	28944.97
461.055	28850.76
461.261	28428.88
461.466	26536.56
461.672	25633.4
461.878	27619.93
462.083	26071.67
462.289	25612.92
462.494	25010.82
462.7	24275.6
462.905	23261.85
463.111	24304.27
463.316	23972.5
463.522	23569.05
463.727	23786.13
463.932	23753.37
464.138	23470.75
464.343	23706.26
464.549	23061.15
464.754	23646.87
464.959	23454.36
465.165	23401.11
465.37	22203.05
465.575	21930.67
465.781	22657.7
465.986	23005.86
466.191	22010.54
466.397	21512.89
466.602	20705.99
