Data from USB4F104151__236__10-30-27-150.txt Node

Date: Wed Mar 12 10:30:27 EDT 2025
User: louis
Spectrometer: USB4F10415
Trigger mode: 4
Integration Time (sec): 3.000000E-2
Scans to average: 1
Electric dark correction enabled: true
Nonlinearity correction enabled: false
Boxcar width: 0
XAxis mode: Wavelengths
Number of Pixels in Spectrum: 3648
>>>>>Begin Spectral Data<<<<<
178.204	-104.11
178.424	-104.11
178.644	-104.11
178.864	-116.39
179.084	-100.01
179.304	4.44
179.524	106.84
179.744	-40.62
179.964	31.06
180.184	18.77
180.404	-13.99
180.624	-46.76
180.844	4.44
181.064	-79.53
181.283	59.73
181.503	-36.52
181.723	-7.85
181.943	-120.49
182.163	96.6
182.383	12.63
182.602	4.44
182.822	61.78
183.042	98.64
183.262	-1.71
183.482	24.92
183.701	2.39
183.921	-48.81
184.141	-28.33
184.361	12.63
184.58	-1.71
184.8	-9.9
185.02	41.3
185.239	16.73
185.459	45.4
185.679	24.92
185.898	41.3
186.118	-13.99
186.338	20.82
186.557	69.97
186.777	18.77
186.997	24.92
187.216	-3.75
187.436	-9.9
187.655	29.01
187.875	53.59
188.095	2.39
188.314	84.31
188.534	102.74
188.753	16.73
188.973	53.59
189.192	6.49
189.412	37.2
189.631	76.12
189.851	26.96
190.07	33.11
190.29	10.58
190.509	10.58
190.729	2.39
190.948	20.82
191.168	102.74
191.387	51.54
191.607	-11.95
191.826	14.68
192.045	4.44
192.265	39.25
192.484	63.83
192.704	-5.8
192.923	45.4
193.142	61.78
193.362	6.49
193.581	-9.9
193.8	-28.33
194.02	12.63
194.239	-9.9
194.458	57.68
194.678	22.87
194.897	0.34
195.116	63.83
195.335	20.82
195.555	55.64
195.774	43.35
195.993	2.39
196.212	51.54
196.432	-34.47
196.651	84.31
196.87	29.01
197.089	92.5
197.308	8.53
197.528	53.59
197.747	-26.28
197.966	47.44
198.185	45.4
198.404	41.3
198.623	51.54
198.842	45.4
199.062	24.92
199.281	158.03
199.5	76.12
199.719	22.87
199.938	61.78
200.157	72.02
200.376	4.44
200.595	33.11
200.814	-59.05
201.033	53.59
201.252	61.78
201.471	22.87
201.69	45.4
201.909	31.06
202.128	43.35
202.347	14.68
202.566	-3.75
202.785	-5.8
203.004	16.73
203.223	55.64
203.442	4.44
203.661	4.44
203.879	-9.9
204.098	82.26
204.317	72.02
204.536	67.92
204.755	53.59
204.974	-7.85
205.193	35.16
205.411	67.92
205.63	69.97
205.849	2.39
206.068	22.87
206.287	67.92
206.505	45.4
206.724	35.16
206.943	26.96
207.162	39.25
207.381	-7.85
207.599	20.82
207.818	-22.19
208.037	18.77
208.255	-26.28
208.474	20.82
208.693	80.21
208.911	59.73
209.13	39.25
209.349	65.88
209.567	72.02
209.786	63.83
210.005	4.44
210.223	-11.95
210.442	-57
210.661	33.11
210.879	67.92
211.098	47.44
211.316	16.73
211.535	31.06
211.753	53.59
211.972	10.58
212.191	-11.95
212.409	98.64
212.628	51.54
212.846	-24.23
213.065	6.49
213.283	96.6
213.502	49.49
213.72	26.96
213.938	-11.95
214.157	-13.99
214.375	-112.3
214.594	-46.76
214.812	53.59
215.031	59.73
215.249	-79.53
215.467	51.54
215.686	29.01
215.904	33.11
216.122	-67.24
216.341	37.2
216.559	-71.34
216.778	104.79
216.996	6.49
217.214	121.17
217.432	112.98
217.651	-20.14
217.869	47.44
218.087	45.4
218.306	26.96
218.524	110.93
218.742	51.54
218.96	69.97
219.179	20.82
219.397	-63.15
219.615	53.59
219.833	84.31
220.051	-24.23
220.27	69.97
220.488	39.25
220.706	-9.9
220.924	16.73
221.142	88.4
221.36	37.2
221.578	69.97
221.796	59.73
222.015	2.39
222.233	-44.71
222.451	41.3
222.669	33.11
222.887	74.07
223.105	-67.24
223.323	35.16
223.541	14.68
223.759	18.77
223.977	10.58
224.195	84.31
224.413	51.54
224.631	72.02
224.849	69.97
225.067	76.12
225.285	35.16
225.503	2.39
225.721	-34.47
225.939	31.06
226.157	26.96
226.375	110.93
226.592	31.06
226.81	96.6
227.028	55.64
227.246	65.88
227.464	6.49
227.682	63.83
227.9	-7.85
228.117	-16.04
228.335	47.44
228.553	24.92
228.771	18.77
228.989	-28.33
229.206	53.59
229.424	112.98
229.642	-30.38
229.86	-5.8
230.077	31.06
230.295	65.88
230.513	65.88
230.731	41.3
230.948	100.69
231.166	92.5
231.384	12.63
231.601	-5.8
231.819	10.58
232.037	49.49
232.254	6.49
232.472	2.39
232.689	47.44
232.907	37.2
233.125	67.92
233.342	-20.14
233.56	39.25
233.777	43.35
233.995	45.4
234.213	24.92
234.43	-16.04
234.648	51.54
234.865	14.68
235.083	57.68
235.3	12.63
235.518	45.4
235.735	96.6
235.953	61.78
236.17	2.39
236.388	41.3
236.605	47.44
236.822	67.92
237.04	37.2
237.257	35.16
237.475	-28.33
237.692	57.68
237.909	29.01
238.127	6.49
238.344	16.73
238.562	0.34
238.779	-11.95
238.996	0.34
239.214	47.44
239.431	-61.1
239.648	4.44
239.865	29.01
240.083	78.16
240.3	41.3
240.517	-7.85
240.735	-1.71
240.952	33.11
241.169	80.21
241.386	-38.57
241.603	55.64
241.821	86.36
242.038	72.02
242.255	31.06
242.472	4.44
242.689	110.93
242.907	31.06
243.124	14.68
243.341	47.44
243.558	-1.71
243.775	39.25
243.992	6.49
244.209	43.35
244.426	168.27
244.643	88.4
244.86	39.25
245.078	4.44
245.295	-36.52
245.512	-1.71
245.729	31.06
245.946	49.49
246.163	31.06
246.38	88.4
246.597	-1.71
246.814	-1.71
247.031	39.25
247.248	12.63
247.464	18.77
247.681	43.35
247.898	74.07
248.115	16.73
248.332	6.49
248.549	0.34
248.766	63.83
248.983	53.59
249.2	14.68
249.417	92.5
249.633	33.11
249.85	72.02
250.067	35.16
250.284	16.73
250.501	98.64
250.717	86.36
250.934	18.77
251.151	-5.8
251.368	18.77
251.585	96.6
251.801	29.01
252.018	12.63
252.235	24.92
252.451	31.06
252.668	37.2
252.885	63.83
253.102	6.49
253.318	22.87
253.535	-36.52
253.752	31.06
253.968	-11.95
254.185	-13.99
254.401	10.58
254.618	14.68
254.835	55.64
255.051	117.08
255.268	6.49
255.484	59.73
255.701	22.87
255.917	51.54
256.134	-7.85
256.351	63.83
256.567	-11.95
256.784	-13.99
257	29.01
257.217	92.5
257.433	31.06
257.65	35.16
257.866	14.68
258.082	29.01
258.299	-1.71
258.515	10.58
258.732	14.68
258.948	0.34
259.165	10.58
259.381	-40.62
259.597	43.35
259.814	67.92
260.03	4.44
260.246	100.69
260.463	96.6
260.679	2.39
260.895	-34.47
261.112	78.16
261.328	-1.71
261.544	-18.09
261.761	110.93
261.977	20.82
262.193	-50.86
262.409	37.2
262.626	22.87
262.842	80.21
263.058	14.68
263.274	22.87
263.49	41.3
263.707	84.31
263.923	-34.47
264.139	61.78
264.355	51.54
264.571	45.4
264.787	59.73
265.004	18.77
265.22	108.88
265.436	18.77
265.652	-50.86
265.868	55.64
266.084	121.17
266.3	90.45
266.516	-40.62
266.732	80.21
266.948	31.06
267.164	51.54
267.38	-9.9
267.596	-18.09
267.812	115.03
268.028	31.06
268.244	-48.81
268.46	43.35
268.676	90.45
268.892	88.4
269.108	-106.15
269.324	-34.47
269.54	22.87
269.756	-11.95
269.972	35.16
270.188	18.77
270.403	55.64
270.619	16.73
270.835	39.25
271.051	-20.14
271.267	45.4
271.483	45.4
271.698	14.68
271.914	37.2
272.13	35.16
272.346	-16.04
272.562	47.44
272.777	39.25
272.993	39.25
273.209	-42.67
273.425	8.53
273.64	-67.24
273.856	33.11
274.072	-26.28
274.287	-11.95
274.503	61.78
274.719	37.2
274.934	-28.33
275.15	-24.23
275.366	39.25
275.581	-22.19
275.797	-16.04
276.012	72.02
276.228	18.77
276.444	53.59
276.659	29.01
276.875	18.77
277.09	20.82
277.306	53.59
277.521	80.21
277.737	98.64
277.952	47.44
278.168	22.87
278.383	55.64
278.599	31.06
278.814	67.92
279.03	-44.71
279.245	106.84
279.461	-38.57
279.676	24.92
279.892	-26.28
280.107	14.68
280.322	-34.47
280.538	147.8
280.753	-44.71
280.969	33.11
281.184	0.34
281.399	39.25
281.615	31.06
281.83	16.73
282.045	14.68
282.26	14.68
282.476	69.97
282.691	4.44
282.906	80.21
283.122	31.06
283.337	-3.75
283.552	45.4
283.767	-13.99
283.983	158.03
284.198	26.96
284.413	45.4
284.628	24.92
284.843	74.07
285.058	26.96
285.274	45.4
285.489	26.96
285.704	22.87
285.919	65.88
286.134	39.25
286.349	4.44
286.564	43.35
286.779	-13.99
286.995	45.4
287.21	-11.95
287.425	33.11
287.64	57.68
287.855	26.96
288.07	-22.19
288.285	72.02
288.5	86.36
288.715	131.41
288.93	31.06
289.145	45.4
289.36	-5.8
289.575	10.58
289.79	35.16
290.004	20.82
290.219	53.59
290.434	0.34
290.649	67.92
290.864	-18.09
291.079	63.83
291.294	37.2
291.509	67.92
291.724	33.11
291.938	14.68
292.153	55.64
292.368	6.49
292.583	-9.9
292.798	61.78
293.012	-30.38
293.227	-18.09
293.442	-32.43
293.657	20.82
293.871	55.64
294.086	41.3
294.301	67.92
294.516	-13.99
294.73	31.06
294.945	82.26
295.16	43.35
295.374	76.12
295.589	37.2
295.804	39.25
296.018	69.97
296.233	47.44
296.447	51.54
296.662	26.96
296.877	53.59
297.091	104.79
297.306	29.01
297.52	29.01
297.735	14.68
297.949	74.07
298.164	-40.62
298.378	84.31
298.593	31.06
298.807	72.02
299.022	10.58
299.236	55.64
299.451	24.92
299.665	53.59
299.88	39.25
300.094	33.11
300.309	49.49
300.523	35.16
300.737	61.78
300.952	-1.71
301.166	29.01
301.381	39.25
301.595	4.44
301.809	-9.9
302.024	6.49
302.238	20.82
302.452	14.68
302.667	78.16
302.881	47.44
303.095	29.01
303.309	29.01
303.524	31.06
303.738	35.16
303.952	0.34
304.166	22.87
304.381	-24.23
304.595	88.4
304.809	29.01
305.023	61.78
305.237	61.78
305.452	51.54
305.666	49.49
305.88	-24.23
306.094	108.88
306.308	-54.95
306.522	80.21
306.736	51.54
306.95	6.49
307.164	88.4
307.379	14.68
307.593	72.02
307.807	80.21
308.021	47.44
308.235	31.06
308.449	49.49
308.663	51.54
308.877	-7.85
309.091	12.63
309.305	53.59
309.519	6.49
309.733	55.64
309.947	0.34
310.161	-9.9
310.374	45.4
310.588	92.5
310.802	94.55
311.016	-40.62
311.23	35.16
311.444	-7.85
311.658	72.02
311.872	92.5
312.085	98.64
312.299	47.44
312.513	14.68
312.727	88.4
312.941	45.4
313.154	35.16
313.368	100.69
313.582	88.4
313.796	47.44
314.009	45.4
314.223	67.92
314.437	24.92
314.651	10.58
314.864	4.44
315.078	39.25
315.292	10.58
315.505	65.88
315.719	31.06
315.933	67.92
316.146	37.2
316.36	4.44
316.573	84.31
316.787	139.6
317.001	88.4
317.214	-13.99
317.428	47.44
317.641	2.39
317.855	-38.57
318.068	37.2
318.282	12.63
318.495	78.16
318.709	131.41
318.922	47.44
319.136	20.82
319.349	43.35
319.563	-59.05
319.776	88.4
319.99	10.58
320.203	69.97
320.417	4.44
320.63	2.39
320.843	57.68
321.057	61.78
321.27	10.58
321.483	72.02
321.697	72.02
321.91	96.6
322.124	45.4
322.337	22.87
322.55	-28.33
322.763	72.02
322.977	78.16
323.19	24.92
323.403	51.54
323.617	-9.9
323.83	51.54
324.043	57.68
324.256	20.82
324.469	-11.95
324.683	31.06
324.896	55.64
325.109	49.49
325.322	29.01
325.535	61.78
325.748	12.63
325.962	43.35
326.175	-48.81
326.388	14.68
326.601	121.17
326.814	129.36
327.027	76.12
327.24	10.58
327.453	6.49
327.666	29.01
327.879	18.77
328.092	82.26
328.305	24.92
328.518	20.82
328.731	-34.47
328.944	22.87
329.157	88.4
329.37	51.54
329.583	96.6
329.796	31.06
330.009	20.82
330.222	49.49
330.435	63.83
330.648	65.88
330.861	86.36
331.073	39.25
331.286	88.4
331.499	112.98
331.712	6.49
331.925	61.78
332.138	67.92
332.35	102.74
332.563	-83.63
332.776	106.84
332.989	-18.09
333.202	43.35
333.414	20.82
333.627	0.34
333.84	67.92
334.053	37.2
334.265	6.49
334.478	51.54
334.691	72.02
334.903	14.68
335.116	-44.71
335.329	84.31
335.541	76.12
335.754	74.07
335.966	-13.99
336.179	100.69
336.392	31.06
336.604	78.16
336.817	135.51
337.029	22.87
337.242	6.49
337.454	4.44
337.667	10.58
337.88	61.78
338.092	112.98
338.305	112.98
338.517	8.53
338.729	88.4
338.942	6.49
339.154	-11.95
339.367	-36.52
339.579	0.34
339.792	10.58
340.004	61.78
340.217	51.54
340.429	74.07
340.641	80.21
340.854	43.35
341.066	-30.38
341.278	65.88
341.491	43.35
341.703	12.63
341.915	84.31
342.128	76.12
342.34	2.39
342.552	22.87
342.764	106.84
342.977	37.2
343.189	37.2
343.401	57.68
343.613	6.49
343.826	39.25
344.038	55.64
344.25	59.73
344.462	-48.81
344.674	-13.99
344.886	86.36
345.099	55.64
345.311	-3.75
345.523	-18.09
345.735	22.87
345.947	108.88
346.159	63.83
346.371	94.55
346.583	41.3
346.795	31.06
347.007	47.44
347.219	76.12
347.431	-3.75
347.643	61.78
347.855	82.26
348.067	104.79
348.279	0.34
348.491	24.92
348.703	65.88
348.915	-28.33
349.127	31.06
349.339	96.6
349.551	-32.43
349.763	29.01
349.975	106.84
350.187	39.25
350.399	20.82
350.61	51.54
350.822	37.2
351.034	12.63
351.246	76.12
351.458	31.06
351.669	59.73
351.881	94.55
352.093	53.59
352.305	98.64
352.517	6.49
352.728	53.59
352.94	63.83
353.152	72.02
353.363	61.78
353.575	35.16
353.787	41.3
353.999	39.25
354.21	26.96
354.422	10.58
354.633	59.73
354.845	35.16
355.057	76.12
355.268	63.83
355.48	67.92
355.692	53.59
355.903	53.59
356.115	47.44
356.326	-59.05
356.538	84.31
356.749	26.96
356.961	59.73
357.172	67.92
357.384	2.39
357.595	108.88
357.807	88.4
358.018	31.06
358.23	-30.38
358.441	29.01
358.653	92.5
358.864	22.87
359.075	29.01
359.287	-3.75
359.498	35.16
359.709	55.64
359.921	92.5
360.132	39.25
360.344	39.25
360.555	-3.75
360.766	39.25
360.977	43.35
361.189	100.69
361.4	-26.28
361.611	106.84
361.823	96.6
362.034	45.4
362.245	-16.04
362.456	74.07
362.667	90.45
362.879	10.58
363.09	51.54
363.301	51.54
363.512	55.64
363.723	33.11
363.935	61.78
364.146	59.73
364.357	-5.8
364.568	41.3
364.779	-1.71
364.99	74.07
365.201	96.6
365.412	55.64
365.623	-3.75
365.834	2.39
366.045	35.16
366.256	86.36
366.467	90.45
366.678	98.64
366.889	45.4
367.1	88.4
367.311	61.78
367.522	20.82
367.733	80.21
367.944	69.97
368.155	39.25
368.366	-26.28
368.577	61.78
368.788	94.55
368.999	-22.19
369.209	12.63
369.42	100.69
369.631	31.06
369.842	41.3
370.053	26.96
370.264	121.17
370.474	131.41
370.685	47.44
370.896	115.03
371.107	94.55
371.317	102.74
371.528	104.79
371.739	117.08
371.95	135.51
372.16	22.87
372.371	63.83
372.582	49.49
372.792	35.16
373.003	39.25
373.214	72.02
373.424	35.16
373.635	20.82
373.846	141.65
374.056	104.79
374.267	-13.99
374.477	135.51
374.688	61.78
374.898	61.78
375.109	26.96
375.319	29.01
375.53	31.06
375.74	31.06
375.951	-20.14
376.161	43.35
376.372	137.56
376.582	76.12
376.793	92.5
377.003	67.92
377.214	-38.57
377.424	45.4
377.635	76.12
377.845	94.55
378.055	43.35
378.266	35.16
378.476	49.49
378.686	6.49
378.897	84.31
379.107	78.16
379.317	82.26
379.528	45.4
379.738	61.78
379.948	67.92
380.158	45.4
380.369	55.64
380.579	108.88
380.789	-22.19
380.999	100.69
381.21	112.98
381.42	112.98
381.63	-54.95
381.84	94.55
382.05	96.6
382.261	88.4
382.471	41.3
382.681	53.59
382.891	182.61
383.101	72.02
383.311	26.96
383.521	65.88
383.731	117.08
383.941	145.75
384.151	125.27
384.361	117.08
384.571	18.77
384.781	-1.71
384.991	137.56
385.201	55.64
385.411	31.06
385.621	69.97
385.831	76.12
386.041	86.36
386.251	35.16
386.461	80.21
386.671	88.4
386.881	65.88
387.091	26.96
387.301	110.93
387.511	-30.38
387.72	39.25
387.93	121.17
388.14	0.34
388.35	37.2
388.56	104.79
388.769	67.92
388.979	158.03
389.189	4.44
389.399	41.3
389.609	37.2
389.818	162.13
390.028	39.25
390.238	67.92
390.447	59.73
390.657	39.25
390.867	-26.28
391.076	53.59
391.286	45.4
391.496	125.27
391.705	76.12
391.915	84.31
392.125	119.12
392.334	-28.33
392.544	82.26
392.753	121.17
392.963	37.2
393.172	96.6
393.382	108.88
393.591	61.78
393.801	35.16
394.01	115.03
394.22	63.83
394.429	61.78
394.639	39.25
394.848	121.17
395.058	133.46
395.267	55.64
395.477	131.41
395.686	137.56
395.895	186.71
396.105	104.79
396.314	119.12
396.524	49.49
396.733	53.59
396.942	151.89
397.152	88.4
397.361	170.32
397.57	102.74
397.78	45.4
397.989	153.94
398.198	90.45
398.407	22.87
398.617	139.6
398.826	61.78
399.035	63.83
399.244	155.99
399.453	121.17
399.663	145.75
399.872	98.64
400.081	94.55
400.29	96.6
400.499	41.3
400.708	149.84
400.917	61.78
401.127	78.16
401.336	180.56
401.545	135.51
401.754	133.46
401.963	141.65
402.172	168.27
402.381	84.31
402.59	110.93
402.799	131.41
403.008	145.75
403.217	117.08
403.426	172.37
403.635	133.46
403.844	192.85
404.053	153.94
404.262	180.56
404.471	198.99
404.68	143.7
404.888	147.8
405.097	194.9
405.306	153.94
405.515	190.8
405.724	239.95
405.933	203.09
406.142	211.28
406.35	242
406.559	176.47
406.768	207.19
406.977	229.71
407.185	182.61
407.394	237.91
407.603	129.36
407.812	285.01
408.02	221.52
408.229	258.39
408.438	252.24
408.646	340.3
408.855	356.69
409.064	289.1
409.272	301.39
409.481	346.45
409.69	285.01
409.898	242
410.107	348.5
410.315	356.69
410.524	371.02
410.733	348.5
410.941	440.65
411.15	438.61
411.358	448.85
411.567	446.8
411.775	469.33
411.984	414.03
412.192	495.95
412.401	416.08
412.609	526.67
412.818	483.66
413.026	553.29
413.234	573.77
413.443	559.44
413.651	518.48
413.86	661.84
414.068	706.89
414.276	735.56
414.485	618.83
414.693	743.75
414.901	772.43
415.11	866.63
415.318	764.23
415.526	829.77
415.734	782.67
415.943	815.43
416.151	979.27
416.359	985.41
416.567	969.03
416.776	952.65
416.984	1071.43
417.192	1079.62
417.4	1122.63
417.608	1055.05
417.817	1186.12
418.025	1169.73
418.233	1331.52
418.441	1257.79
418.649	1288.51
418.857	1384.77
419.065	1405.25
419.273	1315.14
419.481	1450.3
419.689	1575.23
419.897	1642.81
420.105	1667.39
420.313	1757.5
420.521	1747.26
420.729	1831.23
420.937	1907
421.145	2019.64
421.353	2095.41
421.561	2150.71
421.769	2165.04
421.977	2312.5
422.185	2257.2
422.393	2378.03
422.601	2498.86
422.809	2601.26
423.017	2517.29
423.224	2732.33
423.432	2756.91
423.64	2648.36
423.848	3033.38
424.056	2930.98
424.263	3139.88
424.471	3127.59
424.679	3293.48
424.887	3440.93
425.094	3344.67
425.302	3516.7
425.51	3586.33
425.718	3764.51
425.925	3797.28
426.133	4026.65
426.341	4059.42
426.548	4378.9
426.756	4387.09
426.964	4286.74
427.171	4544.78
427.379	4768.01
427.586	4794.64
427.794	4827.4
428.001	5128.46
428.209	5507.33
428.417	5284.1
428.624	5828.86
428.832	5771.52
429.039	5679.36
429.247	5722.37
429.454	6177.02
429.662	6654.19
429.869	6244.6
430.076	6521.07
430.284	6484.21
430.491	6813.93
430.699	7104.74
430.906	7215.34
431.114	7084.27
431.321	7428.32
431.528	7811.29
431.736	8149.21
431.943	8536.28
432.15	8093.91
432.358	8347.86
432.565	8902.86
432.772	8655.06
432.979	9169.1
433.187	9353.41
433.394	9457.86
433.601	9918.65
433.808	10049.72
434.016	9902.27
434.223	10483.89
434.43	10928.3
434.637	10688.69
434.844	11440.29
435.052	11620.52
435.259	11544.74
435.466	11796.64
435.673	11604.13
435.88	12341.4
436.087	12974.22
436.294	12970.13
436.501	12605.59
436.708	13111.44
436.915	13486.22
437.122	13994.11
437.329	13838.47
437.537	14469.24
437.743	14866.55
437.95	14588.02
438.157	15292.52
438.364	15765.6
438.571	15657.06
438.778	15777.89
438.985	17199.18
439.192	16746.58
439.399	17172.56
439.606	16826.45
439.813	17961.03
440.02	19048.5
440.227	18505.79
440.433	18311.23
440.64	18907.19
440.847	18745.4
441.054	19064.88
441.261	20525.08
441.467	20252.7
441.674	20717.59
441.881	21323.79
442.088	21198.87
442.294	20918.29
442.501	21760.01
442.708	21970.95
442.914	23119.86
443.121	23848.94
443.328	23162.87
443.534	25077.72
443.741	23934.95
443.948	24137.7
444.154	25458.64
444.361	25290.71
444.568	25907.15
444.774	25698.25
444.981	25771.98
445.187	26539.97
445.394	27727.79
445.6	27078.58
445.807	29878.16
446.013	28725.15
446.22	29562.77
446.426	29945.74
446.633	30660.48
446.839	31360.89
447.046	30039.95
447.252	32051.05
447.459	32087.92
447.665	31995.76
447.871	33181.53
448.078	34385.74
448.284	32833.38
448.491	33773.39
448.697	35002.18
448.903	35407.67
449.11	35540.79
449.316	35131.2
449.522	35444.54
449.728	36880.16
449.935	36736.8
450.141	36755.24
450.347	37623.58
450.553	36179.76
450.76	36949.79
450.966	38027.03
451.172	37654.29
451.378	38233.87
451.584	37527.32
451.791	38682.38
451.997	38457.1
452.203	39188.22
452.409	38979.33
452.615	38960.9
452.821	37195.55
453.027	37054.24
453.233	39132.93
453.44	37259.04
453.646	37482.27
453.852	38084.37
454.058	38186.77
454.264	37345.05
454.47	38125.33
454.676	37177.12
454.882	38203.15
455.088	34719.56
455.294	35254.08
455.5	35657.53
455.705	35901.23
455.911	34828.1
456.117	34150.22
456.323	33337.18
456.529	31577.97
456.735	33077.08
456.941	32212.84
457.147	31446.9
457.352	30824.32
457.558	30539.65
457.764	30478.21
457.97	30056.33
458.176	29552.53
458.381	29251.48
458.587	27840.43
458.793	27885.48
458.999	26298.31
459.204	28303.27
459.41	27516.85
459.616	25638.86
459.821	25518.03
460.027	25450.45
460.233	25327.57
460.438	23664.62
460.644	24324.07
460.85	22992.89
461.055	22822.91
461.261	22708.22
461.466	20783.13
461.672	20162.59
461.878	21843.98
462.083	20228.13
462.289	20140.07
462.494	19845.16
462.7	19099.7
462.905	18419.77
463.111	19130.42
463.316	18810.93
463.522	18591.8
463.727	18890.81
463.932	18765.88
464.138	18618.43
464.343	18536.51
464.549	18118.72
464.754	18714.68
464.959	18544.7
465.165	18217.02
465.37	17465.42
465.575	17236.05
465.781	17969.22
465.986	18038.85
466.191	17174.61
466.397	17002.58
466.602	16453.72
466.807	16738.39
467.012	16803.92
467.218	16857.17
467.423	16617.56
467.628	16541.78
467.833	17135.7
