Data from USB4F104151__147__10-26-38-424.txt Node

Date: Wed Mar 12 10:26:38 EDT 2025
User: louis
Spectrometer: USB4F10415
Trigger mode: 4
Integration Time (sec): 3.000000E-2
Scans to average: 1
Electric dark correction enabled: true
Nonlinearity correction enabled: false
Boxcar width: 0
XAxis mode: Wavelengths
Number of Pixels in Spectrum: 3648
>>>>>Begin Spectral Data<<<<<
178.204	-104.11
178.424	-104.11
178.644	-104.11
178.864	-132.78
179.084	-91.82
179.304	-13.99
179.524	-9.9
179.744	24.92
179.964	47.44
180.184	-40.62
180.404	31.06
180.624	-54.95
180.844	-9.9
181.064	-1.71
181.283	-50.86
181.503	110.93
181.723	-32.43
181.943	-34.47
182.163	59.73
182.383	43.35
182.602	141.65
182.822	47.44
183.042	-26.28
183.262	53.59
183.482	37.2
183.701	86.36
183.921	39.25
184.141	-11.95
184.361	39.25
184.58	-20.14
184.8	53.59
185.02	51.54
185.239	88.4
185.459	82.26
185.679	24.92
185.898	4.44
186.118	100.69
186.338	35.16
186.557	135.51
186.777	14.68
186.997	14.68
187.216	135.51
187.436	57.68
187.655	61.78
187.875	82.26
188.095	18.77
188.314	76.12
188.534	125.27
188.753	55.64
188.973	67.92
189.192	59.73
189.412	57.68
189.631	61.78
189.851	31.06
190.07	8.53
190.29	80.21
190.509	49.49
190.729	18.77
190.948	82.26
191.168	190.8
191.387	6.49
191.607	-71.34
191.826	31.06
192.045	-16.04
192.265	-83.63
192.484	8.53
192.704	-9.9
192.923	6.49
193.142	96.6
193.362	72.02
193.581	39.25
193.8	43.35
194.02	51.54
194.239	26.96
194.458	-42.67
194.678	110.93
194.897	-11.95
195.116	39.25
195.335	33.11
195.555	86.36
195.774	80.21
195.993	29.01
196.212	4.44
196.432	4.44
196.651	59.73
196.87	12.63
197.089	55.64
197.308	14.68
197.528	39.25
197.747	-18.09
197.966	31.06
198.185	31.06
198.404	35.16
198.623	-5.8
198.842	-42.67
199.062	37.2
199.281	31.06
199.5	74.07
199.719	-30.38
199.938	-3.75
200.157	49.49
200.376	78.16
200.595	55.64
200.814	-20.14
201.033	-24.23
201.252	-9.9
201.471	6.49
201.69	74.07
201.909	41.3
202.128	31.06
202.347	-5.8
202.566	31.06
202.785	-5.8
203.004	-26.28
203.223	102.74
203.442	-11.95
203.661	8.53
203.879	10.58
204.098	88.4
204.317	-9.9
204.536	137.56
204.755	-3.75
204.974	53.59
205.193	18.77
205.411	90.45
205.63	26.96
205.849	98.64
206.068	-3.75
206.287	-22.19
206.505	-5.8
206.724	72.02
206.943	-9.9
207.162	29.01
207.381	55.64
207.599	-5.8
207.818	69.97
208.037	-40.62
208.255	51.54
208.474	20.82
208.693	-3.75
208.911	92.5
209.13	-20.14
209.349	90.45
209.567	-3.75
209.786	90.45
210.005	121.17
210.223	63.83
210.442	-59.05
210.661	12.63
210.879	4.44
211.098	35.16
211.316	49.49
211.535	76.12
211.753	47.44
211.972	10.58
212.191	67.92
212.409	-28.33
212.628	29.01
212.846	2.39
213.065	92.5
213.283	80.21
213.502	18.77
213.72	2.39
213.938	49.49
214.157	0.34
214.375	-9.9
214.594	-48.81
214.812	53.59
215.031	31.06
215.249	-46.76
215.467	12.63
215.686	-52.91
215.904	108.88
216.122	-38.57
216.341	55.64
216.559	57.68
216.778	6.49
216.996	-63.15
217.214	26.96
217.432	14.68
217.651	-13.99
217.869	112.98
218.087	39.25
218.306	-9.9
218.524	53.59
218.742	39.25
218.96	67.92
219.179	-9.9
219.397	37.2
219.615	108.88
219.833	112.98
220.051	-1.71
220.27	112.98
220.488	43.35
220.706	39.25
220.924	35.16
221.142	8.53
221.36	-1.71
221.578	55.64
221.796	26.96
222.015	72.02
222.233	84.31
222.451	96.6
222.669	-30.38
222.887	47.44
223.105	53.59
223.323	31.06
223.541	4.44
223.759	61.78
223.977	20.82
224.195	16.73
224.413	16.73
224.631	63.83
224.849	45.4
225.067	108.88
225.285	63.83
225.503	76.12
225.721	-13.99
225.939	86.36
226.157	37.2
226.375	53.59
226.592	47.44
226.81	33.11
227.028	39.25
227.246	80.21
227.464	10.58
227.682	74.07
227.9	26.96
228.117	59.73
228.335	61.78
228.553	12.63
228.771	-13.99
228.989	-22.19
229.206	8.53
229.424	24.92
229.642	31.06
229.86	22.87
230.077	16.73
230.295	117.08
230.513	16.73
230.731	76.12
230.948	22.87
231.166	67.92
231.384	-65.19
231.601	-38.57
231.819	90.45
232.037	45.4
232.254	37.2
232.472	43.35
232.689	43.35
232.907	41.3
233.125	35.16
233.342	14.68
233.56	-5.8
233.777	82.26
233.995	29.01
234.213	26.96
234.43	24.92
234.648	12.63
234.865	29.01
235.083	33.11
235.3	55.64
235.518	41.3
235.735	53.59
235.953	72.02
236.17	59.73
236.388	12.63
236.605	59.73
236.822	55.64
237.04	6.49
237.257	57.68
237.475	45.4
237.692	12.63
237.909	61.78
238.127	16.73
238.344	26.96
238.562	41.3
238.779	-1.71
238.996	53.59
239.214	24.92
239.431	115.03
239.648	-38.57
239.865	45.4
240.083	45.4
240.3	24.92
240.517	45.4
240.735	-26.28
240.952	59.73
241.169	117.08
241.386	20.82
241.603	74.07
241.821	-57
242.038	43.35
242.255	31.06
242.472	-9.9
242.689	86.36
242.907	35.16
243.124	31.06
243.341	-18.09
243.558	-11.95
243.775	-57
243.992	47.44
244.209	100.69
244.426	12.63
244.643	26.96
244.86	29.01
245.078	45.4
245.295	31.06
245.512	72.02
245.729	-1.71
245.946	-20.14
246.163	72.02
246.38	29.01
246.597	35.16
246.814	18.77
247.031	-1.71
247.248	59.73
247.464	96.6
247.681	31.06
247.898	31.06
248.115	31.06
248.332	37.2
248.549	4.44
248.766	39.25
248.983	90.45
249.2	92.5
249.417	18.77
249.633	-13.99
249.85	80.21
250.067	43.35
250.284	-1.71
250.501	39.25
250.717	57.68
250.934	57.68
251.151	-5.8
251.368	112.98
251.585	92.5
251.801	29.01
252.018	-3.75
252.235	86.36
252.451	-48.81
252.668	88.4
252.885	117.08
253.102	100.69
253.318	-5.8
253.535	76.12
253.752	47.44
253.968	31.06
254.185	29.01
254.401	-1.71
254.618	57.68
254.835	78.16
255.051	76.12
255.268	-22.19
255.484	72.02
255.701	-13.99
255.917	80.21
256.134	10.58
256.351	24.92
256.567	-59.05
256.784	37.2
257	-11.95
257.217	65.88
257.433	53.59
257.65	110.93
257.866	141.65
258.082	8.53
258.299	37.2
258.515	-1.71
258.732	63.83
258.948	35.16
259.165	29.01
259.381	78.16
259.597	-11.95
259.814	-13.99
260.03	98.64
260.246	39.25
260.463	16.73
260.679	29.01
260.895	55.64
261.112	65.88
261.328	51.54
261.544	61.78
261.761	121.17
261.977	47.44
262.193	-46.76
262.409	72.02
262.626	63.83
262.842	26.96
263.058	31.06
263.274	74.07
263.49	84.31
263.707	-3.75
263.923	92.5
264.139	22.87
264.355	65.88
264.571	51.54
264.787	-1.71
265.004	-18.09
265.22	43.35
265.436	33.11
265.652	4.44
265.868	90.45
266.084	-3.75
266.3	63.83
266.516	-20.14
266.732	6.49
266.948	10.58
267.164	74.07
267.38	94.55
267.596	55.64
267.812	168.27
268.028	76.12
268.244	-5.8
268.46	33.11
268.676	22.87
268.892	39.25
269.108	-9.9
269.324	0.34
269.54	6.49
269.756	86.36
269.972	-20.14
270.188	65.88
270.403	47.44
270.619	35.16
270.835	53.59
271.051	-61.1
271.267	-34.47
271.483	47.44
271.698	-5.8
271.914	-52.91
272.13	20.82
272.346	35.16
272.562	45.4
272.777	78.16
272.993	45.4
273.209	-26.28
273.425	37.2
273.64	67.92
273.856	61.78
274.072	82.26
274.287	41.3
274.503	39.25
274.719	55.64
274.934	76.12
275.15	29.01
275.366	49.49
275.581	14.68
275.797	-34.47
276.012	43.35
276.228	104.79
276.444	4.44
276.659	49.49
276.875	31.06
277.09	31.06
277.306	29.01
277.521	47.44
277.737	24.92
277.952	57.68
278.168	47.44
278.383	26.96
278.599	67.92
278.814	57.68
279.03	98.64
279.245	37.2
279.461	22.87
279.676	35.16
279.892	26.96
280.107	12.63
280.322	-26.28
280.538	31.06
280.753	-26.28
280.969	45.4
281.184	53.59
281.399	33.11
281.615	-9.9
281.83	92.5
282.045	14.68
282.26	47.44
282.476	4.44
282.691	-1.71
282.906	55.64
283.122	-50.86
283.337	39.25
283.552	51.54
283.767	12.63
283.983	2.39
284.198	14.68
284.413	-9.9
284.628	10.58
284.843	-9.9
285.058	76.12
285.274	16.73
285.489	35.16
285.704	98.64
285.919	18.77
286.134	67.92
286.349	26.96
286.564	-18.09
286.779	-9.9
286.995	-13.99
287.21	-32.43
287.425	-9.9
287.64	-3.75
287.855	26.96
288.07	-36.52
288.285	133.46
288.5	29.01
288.715	35.16
288.93	63.83
289.145	33.11
289.36	35.16
289.575	61.78
289.79	49.49
290.004	110.93
290.219	65.88
290.434	45.4
290.649	39.25
290.864	-54.95
291.079	-67.24
291.294	-20.14
291.509	35.16
291.724	45.4
291.938	-5.8
292.153	90.45
292.368	12.63
292.583	20.82
292.798	92.5
293.012	45.4
293.227	-42.67
293.442	12.63
293.657	88.4
293.871	20.82
294.086	-9.9
294.301	84.31
294.516	8.53
294.73	20.82
294.945	51.54
295.16	67.92
295.374	31.06
295.589	117.08
295.804	14.68
296.018	59.73
296.233	47.44
296.447	80.21
296.662	16.73
296.877	119.12
297.091	26.96
297.306	57.68
297.52	10.58
297.735	53.59
297.949	49.49
298.164	35.16
298.378	-22.19
298.593	10.58
298.807	57.68
299.022	35.16
299.236	47.44
299.451	4.44
299.665	35.16
299.88	6.49
300.094	31.06
300.309	125.27
300.523	129.36
300.737	88.4
300.952	61.78
301.166	92.5
301.381	72.02
301.595	35.16
301.809	49.49
302.024	39.25
302.238	41.3
302.452	92.5
302.667	31.06
302.881	92.5
303.095	80.21
303.309	84.31
303.524	22.87
303.738	121.17
303.952	24.92
304.166	123.22
304.381	47.44
304.595	69.97
304.809	51.54
305.023	-5.8
305.237	35.16
305.452	51.54
305.666	49.49
305.88	33.11
306.094	31.06
306.308	94.55
306.522	96.6
306.736	55.64
306.95	47.44
307.164	45.4
307.379	37.2
307.593	147.8
307.807	72.02
308.021	76.12
308.235	-7.85
308.449	-5.8
308.663	0.34
308.877	63.83
309.091	59.73
309.305	41.3
309.519	-69.29
309.733	31.06
309.947	16.73
310.161	98.64
310.374	20.82
310.588	24.92
310.802	2.39
311.016	61.78
311.23	102.74
311.444	35.16
311.658	57.68
311.872	51.54
312.085	20.82
312.299	45.4
312.513	162.13
312.727	112.98
312.941	39.25
313.154	59.73
313.368	84.31
313.582	29.01
313.796	59.73
314.009	86.36
314.223	69.97
314.437	35.16
314.651	-11.95
314.864	55.64
315.078	-16.04
315.292	41.3
315.505	96.6
315.719	72.02
315.933	-16.04
316.146	35.16
316.36	53.59
316.573	78.16
316.787	39.25
317.001	74.07
317.214	-3.75
317.428	65.88
317.641	49.49
317.855	43.35
318.068	61.78
318.282	20.82
318.495	72.02
318.709	47.44
318.922	51.54
319.136	121.17
319.349	-5.8
319.563	88.4
319.776	-22.19
319.99	10.58
320.203	74.07
320.417	26.96
320.63	72.02
320.843	63.83
321.057	82.26
321.27	14.68
321.483	41.3
321.697	59.73
321.91	102.74
322.124	98.64
322.337	-26.28
322.55	22.87
322.763	-1.71
322.977	35.16
323.19	18.77
323.403	84.31
323.617	-7.85
323.83	49.49
324.043	-26.28
324.256	88.4
324.469	69.97
324.683	67.92
324.896	49.49
325.109	33.11
325.322	43.35
325.535	72.02
325.748	72.02
325.962	24.92
326.175	49.49
326.388	0.34
326.601	149.84
326.814	51.54
327.027	47.44
327.24	117.08
327.453	0.34
327.666	-38.57
327.879	92.5
328.092	37.2
328.305	102.74
328.518	-5.8
328.731	24.92
328.944	24.92
329.157	86.36
329.37	-9.9
329.583	74.07
329.796	-24.23
330.009	-22.19
330.222	-7.85
330.435	41.3
330.648	125.27
330.861	29.01
331.073	26.96
331.286	61.78
331.499	37.2
331.712	-5.8
331.925	31.06
332.138	76.12
332.35	51.54
332.563	76.12
332.776	119.12
332.989	-28.33
333.202	33.11
333.414	61.78
333.627	53.59
333.84	-5.8
334.053	57.68
334.265	47.44
334.478	20.82
334.691	14.68
334.903	78.16
335.116	45.4
335.329	45.4
335.541	119.12
335.754	22.87
335.966	10.58
336.179	72.02
336.392	-9.9
336.604	16.73
336.817	76.12
337.029	20.82
337.242	65.88
337.454	53.59
337.667	125.27
337.88	31.06
338.092	80.21
338.305	78.16
338.517	2.39
338.729	-3.75
338.942	10.58
339.154	37.2
339.367	29.01
339.579	84.31
339.792	6.49
340.004	43.35
340.217	-30.38
340.429	86.36
340.641	8.53
340.854	88.4
341.066	80.21
341.278	59.73
341.491	26.96
341.703	24.92
341.915	67.92
342.128	47.44
342.34	53.59
342.552	24.92
342.764	33.11
342.977	49.49
343.189	80.21
343.401	67.92
343.613	69.97
343.826	47.44
344.038	57.68
344.25	74.07
344.462	18.77
344.674	33.11
344.886	43.35
345.099	80.21
345.311	61.78
345.523	43.35
345.735	26.96
345.947	76.12
346.159	61.78
346.371	112.98
346.583	20.82
346.795	78.16
347.007	45.4
347.219	69.97
347.431	-34.47
347.643	43.35
347.855	35.16
348.067	88.4
348.279	31.06
348.491	41.3
348.703	39.25
348.915	59.73
349.127	-7.85
349.339	49.49
349.551	53.59
349.763	108.88
349.975	112.98
350.187	86.36
350.399	88.4
350.61	18.77
350.822	14.68
351.034	94.55
351.246	37.2
351.458	16.73
351.669	4.44
351.881	33.11
352.093	108.88
352.305	55.64
352.517	74.07
352.728	-13.99
352.94	14.68
353.152	4.44
353.363	59.73
353.575	76.12
353.787	88.4
353.999	31.06
354.21	133.46
354.422	65.88
354.633	53.59
354.845	26.96
355.057	80.21
355.268	-18.09
355.48	67.92
355.692	104.79
355.903	-11.95
356.115	37.2
356.326	39.25
356.538	162.13
356.749	112.98
356.961	94.55
357.172	22.87
357.384	39.25
357.595	112.98
357.807	43.35
358.018	59.73
358.23	129.36
358.441	72.02
358.653	-11.95
358.864	31.06
359.075	102.74
359.287	12.63
359.498	26.96
359.709	63.83
359.921	72.02
360.132	94.55
360.344	8.53
360.555	20.82
360.766	61.78
360.977	18.77
361.189	129.36
361.4	88.4
361.611	92.5
361.823	96.6
362.034	78.16
362.245	-5.8
362.456	26.96
362.667	90.45
362.879	72.02
363.09	96.6
363.301	45.4
363.512	26.96
363.723	-22.19
363.935	10.58
364.146	57.68
364.357	20.82
364.568	51.54
364.779	18.77
364.99	43.35
365.201	88.4
365.412	92.5
365.623	-1.71
365.834	117.08
366.045	-24.23
366.256	31.06
366.467	22.87
366.678	61.78
366.889	29.01
367.1	26.96
367.311	16.73
367.522	10.58
367.733	39.25
367.944	100.69
368.155	53.59
368.366	63.83
368.577	88.4
368.788	22.87
368.999	2.39
369.209	92.5
369.42	76.12
369.631	67.92
369.842	102.74
370.053	88.4
370.264	61.78
370.474	26.96
370.685	59.73
370.896	82.26
371.107	53.59
371.317	43.35
371.528	31.06
371.739	14.68
371.95	90.45
372.16	80.21
372.371	24.92
372.582	55.64
372.792	57.68
373.003	119.12
373.214	57.68
373.424	86.36
373.635	26.96
373.846	106.84
374.056	86.36
374.267	43.35
374.477	39.25
374.688	14.68
374.898	47.44
375.109	63.83
375.319	-32.43
375.53	55.64
375.74	29.01
375.951	92.5
376.161	108.88
376.372	100.69
376.582	90.45
376.793	59.73
377.003	14.68
377.214	88.4
377.424	117.08
377.635	125.27
377.845	106.84
378.055	92.5
378.266	37.2
378.476	104.79
378.686	76.12
378.897	61.78
379.107	10.58
379.317	26.96
379.528	57.68
379.738	31.06
379.948	6.49
380.158	106.84
380.369	16.73
380.579	37.2
380.789	53.59
380.999	41.3
381.21	59.73
381.42	125.27
381.63	-26.28
381.84	53.59
382.05	90.45
382.261	90.45
382.471	129.36
382.681	6.49
382.891	104.79
383.101	112.98
383.311	39.25
383.521	69.97
383.731	47.44
383.941	63.83
384.151	72.02
384.361	39.25
384.571	41.3
384.781	-20.14
384.991	108.88
385.201	72.02
385.411	88.4
385.621	47.44
385.831	49.49
386.041	57.68
386.251	74.07
386.461	72.02
386.671	18.77
386.881	78.16
387.091	61.78
387.301	49.49
387.511	104.79
387.72	129.36
387.93	135.51
388.14	26.96
388.35	59.73
388.56	47.44
388.769	67.92
388.979	80.21
389.189	2.39
389.399	47.44
389.609	88.4
389.818	80.21
390.028	78.16
390.238	137.56
390.447	26.96
390.657	80.21
390.867	84.31
391.076	10.58
391.286	55.64
391.496	174.42
391.705	108.88
391.915	76.12
392.125	78.16
392.334	74.07
392.544	84.31
392.753	92.5
392.963	47.44
393.172	65.88
393.382	155.99
393.591	84.31
393.801	86.36
394.01	69.97
394.22	63.83
394.429	39.25
394.639	135.51
394.848	115.03
395.058	141.65
395.267	37.2
395.477	145.75
395.686	14.68
395.895	155.99
396.105	141.65
396.314	110.93
396.524	155.99
396.733	100.69
396.942	129.36
397.152	96.6
397.361	135.51
397.57	112.98
397.78	86.36
397.989	86.36
398.198	129.36
398.407	86.36
398.617	135.51
398.826	112.98
399.035	119.12
399.244	172.37
399.453	100.69
399.663	133.46
399.872	147.8
400.081	139.6
400.29	137.56
400.499	123.22
400.708	149.84
400.917	192.85
401.127	112.98
401.336	39.25
401.545	190.8
401.754	213.33
401.963	174.42
402.172	145.75
402.381	96.6
402.59	211.28
402.799	104.79
403.008	112.98
403.217	96.6
403.426	104.79
403.635	139.6
403.844	158.03
404.053	129.36
404.262	170.32
404.471	196.95
404.68	194.9
404.888	158.03
405.097	174.42
405.306	233.81
405.515	153.94
405.724	174.42
405.933	190.8
406.142	194.9
406.35	235.86
406.559	223.57
406.768	186.71
406.977	186.71
407.185	180.56
407.394	147.8
407.603	201.04
407.812	289.1
408.02	250.19
408.229	231.76
408.438	270.67
408.646	221.52
408.855	289.1
409.064	258.39
409.272	256.34
409.481	309.58
409.69	301.39
409.898	305.49
410.107	272.72
410.315	350.54
410.524	330.06
410.733	395.6
410.941	434.51
411.15	418.13
411.358	395.6
411.567	446.8
411.775	428.37
411.984	504.14
412.192	483.66
412.401	485.71
412.609	547.15
412.818	518.48
413.026	508.24
413.234	645.45
413.443	575.82
413.651	588.11
413.86	610.64
414.068	563.53
414.276	651.6
414.485	774.47
414.693	792.91
414.901	815.43
415.11	692.55
415.318	866.63
415.526	868.68
415.734	811.34
415.943	885.06
416.151	983.37
416.359	1016.13
416.567	977.22
416.776	1061.19
416.984	1075.52
417.192	1036.61
417.4	1030.47
417.608	1136.96
417.817	1141.06
418.025	1147.2
418.233	1306.95
418.441	1225.03
418.649	1337.66
418.857	1358.14
419.065	1405.25
419.273	1370.43
419.481	1454.4
419.689	1620.28
419.897	1640.76
420.105	1673.53
420.313	1702.2
420.521	1671.48
420.729	1833.27
420.937	1767.74
421.145	1978.68
421.353	1988.92
421.561	2183.48
421.769	2232.63
421.977	2281.78
422.185	2163
422.393	2457.9
422.601	2580.78
422.809	2582.83
423.017	2552.11
423.224	2568.49
423.432	2744.62
423.64	2736.43
423.848	3057.96
424.056	2871.59
424.263	3088.68
424.471	3037.48
424.679	3197.22
424.887	3477.79
425.094	3389.73
425.302	3510.56
425.51	3602.72
425.718	3825.95
425.925	3842.33
426.133	3916.06
426.341	4040.98
426.548	4151.57
426.756	4243.73
426.964	4342.04
427.171	4616.46
427.379	4817.16
427.586	4741.39
427.794	4870.41
428.001	5099.78
428.209	5349.64
428.417	5292.29
428.624	5646.59
428.832	5722.37
429.039	5538.05
429.247	5445.89
429.454	6299.89
429.662	6652.14
429.869	6224.12
430.076	6793.45
430.284	6430.96
430.491	6713.58
430.699	7018.73
430.906	7131.37
431.114	7160.04
431.321	7387.36
431.528	7598.31
431.736	8046.81
431.943	8341.72
432.15	8186.07
432.358	8292.57
432.565	8603.86
432.772	8718.54
432.979	9263.3
433.187	9277.64
433.394	9279.69
433.601	10045.63
433.808	10041.53
434.016	9904.32
434.223	10262.71
434.43	11055.28
434.637	10748.08
434.844	11376.81
435.052	11688.1
435.259	11282.6
435.466	11798.69
435.673	11487.4
435.88	12220.57
436.087	12898.45
436.294	12894.35
436.501	12671.12
436.708	12812.43
436.915	13416.58
437.122	13836.42
437.329	13598.85
437.537	14424.19
437.743	14536.82
437.95	14538.87
438.157	15261.8
438.364	16009.31
438.571	15814.76
438.778	15749.22
438.985	17107.02
439.192	16275.55
439.399	17010.77
439.606	16695.38
439.813	17365.07
440.02	18569.27
440.227	18040.9
440.433	18083.91
440.64	18665.53
440.847	18520.12
441.054	18913.33
441.261	20359.2
441.467	19900.45
441.674	20449.31
441.881	21266.45
442.088	21110.8
442.294	20635.67
442.501	21536.78
442.708	22036.49
442.914	22722.55
443.121	23570.41
443.328	22951.93
443.534	24637.41
443.741	24172.52
443.948	23865.32
444.154	25395.15
444.361	25106.39
444.568	25634.77
444.774	25372.63
444.981	25778.12
445.187	26304.45
445.394	27137.98
445.6	27115.45
445.807	29724.56
446.013	28409.76
446.22	28991.39
446.426	29886.35
446.633	30177.16
446.839	30807.94
447.046	29908.88
447.252	31592.31
447.459	31561.59
447.665	31539.06
447.871	33140.57
448.078	34025.29
448.284	32350.06
448.491	33345.37
448.697	34586.44
448.903	35219.26
449.11	35487.54
449.316	34719.56
449.522	35430.2
449.728	36384.55
449.935	36663.08
450.141	36568.87
450.347	37097.25
450.553	35946.29
450.76	36620.07
450.966	37416.73
451.172	37183.26
451.378	38031.12
451.584	37625.62
451.791	38670.09
451.997	38014.74
452.203	38844.16
452.409	38467.34
452.615	38678.28
452.821	36859.68
453.027	36468.52
453.233	38661.9
453.44	36407.08
453.646	37371.68
453.852	37283.61
454.058	37953.3
454.264	37201.69
454.47	37465.88
454.676	36859.68
454.882	37742.36
455.088	34332.49
455.294	34907.97
455.5	35186.49
455.705	35903.28
455.911	34365.26
456.117	33752.91
456.323	33298.27
456.529	31207.29
456.735	32796.51
456.941	32038.76
457.147	31680.37
457.352	30517.12
457.558	30105.48
457.764	30031.76
457.97	29441.94
458.176	29116.31
458.381	28716.96
458.587	27561.9
458.793	27426.74
458.999	25620.43
459.204	27936.68
459.41	27137.98
459.616	25059.29
459.821	25427.92
460.027	25366.48
460.233	24704.99
460.438	23504.88
460.644	23912.42
460.85	22573.05
461.055	22599.68
461.261	22605.82
461.466	20666.39
461.672	20002.85
461.878	21563.4
462.083	20086.82
462.289	19783.72
462.494	19374.13
462.7	18679.86
462.905	18057.28
463.111	18704.44
463.316	18882.61
463.522	18581.56
463.727	18468.92
463.932	18391.1
464.138	18403.39
464.343	18237.5
464.549	17872.96
464.754	18442.3
464.959	18587.71
465.165	17956.93
465.37	17340.49
465.575	17086.54
465.781	17674.31
465.986	17457.23
466.191	17033.3
466.397	16912.47
466.602	16017.5
466.807	16560.22
467.012	16459.87
467.218	16513.11
467.423	16351.32
467.628	16556.12
