Data from USB4F104151__292__10-42-28-782.txt Node

Date: Wed Mar 12 10:42:28 EDT 2025
User: louis
Spectrometer: USB4F10415
Trigger mode: 4
Integration Time (sec): 3.000000E-2
Scans to average: 1
Electric dark correction enabled: true
Nonlinearity correction enabled: false
Boxcar width: 0
XAxis mode: Wavelengths
Number of Pixels in Spectrum: 3648
>>>>>Begin Spectral Data<<<<<
178.204	-125.61
178.424	-125.61
178.644	-125.61
178.864	-148.14
179.084	-98.99
179.304	-17.07
179.524	-8.87
179.744	-25.26
179.964	40.28
180.184	27.99
180.404	19.8
180.624	17.75
180.844	71
181.064	-74.41
181.283	-45.74
181.503	19.8
181.723	-25.26
181.943	-82.6
182.163	120.15
182.383	-78.51
182.602	21.84
182.822	19.8
183.042	66.9
183.262	-88.75
183.482	62.8
183.701	13.65
183.921	3.41
184.141	-37.55
184.361	9.56
184.58	9.56
184.8	-6.83
185.02	-19.11
185.239	38.23
185.459	-0.68
185.679	85.33
185.898	-23.21
186.118	34.13
186.338	27.99
186.557	27.99
186.777	-10.92
186.997	-0.68
187.216	52.56
187.436	19.8
187.655	56.66
187.875	32.08
188.095	-4.78
188.314	25.94
188.534	-49.83
188.753	-45.74
188.973	-6.83
189.192	40.28
189.412	58.71
189.631	-4.78
189.851	7.51
190.07	60.76
190.29	-23.21
190.509	36.18
190.729	30.04
190.948	-4.78
191.168	128.34
191.387	19.8
191.607	-45.74
191.826	52.56
192.045	32.08
192.265	36.18
192.484	27.99
192.704	-2.73
192.923	-17.07
193.142	58.71
193.362	36.18
193.581	46.42
193.8	-6.83
194.02	99.67
194.239	-37.55
194.458	68.95
194.678	27.99
194.897	19.8
195.116	60.76
195.335	71
195.555	19.8
195.774	46.42
195.993	75.09
196.212	-25.26
196.432	13.65
196.651	3.41
196.87	73.04
197.089	85.33
197.308	42.32
197.528	-23.21
197.747	75.09
197.966	5.46
198.185	66.9
198.404	25.94
198.623	25.94
198.842	38.23
199.062	44.37
199.281	52.56
199.5	34.13
199.719	19.8
199.938	42.32
200.157	19.8
200.376	-47.79
200.595	-6.83
200.814	15.7
201.033	32.08
201.252	79.19
201.471	54.61
201.69	89.43
201.909	27.99
202.128	-8.87
202.347	-15.02
202.566	15.7
202.785	9.56
203.004	77.14
203.223	93.52
203.442	58.71
203.661	58.71
203.879	36.18
204.098	54.61
204.317	-43.69
204.536	-21.16
204.755	13.65
204.974	52.56
205.193	56.66
205.411	99.67
205.63	46.42
205.849	11.61
206.068	-47.79
206.287	32.08
206.505	34.13
206.724	34.13
206.943	3.41
207.162	13.65
207.381	-39.59
207.599	60.76
207.818	15.7
208.037	15.7
208.255	27.99
208.474	52.56
208.693	3.41
208.911	64.85
209.13	-35.5
209.349	48.47
209.567	52.56
209.786	-39.59
210.005	91.48
210.223	34.13
210.442	-82.6
210.661	50.52
210.879	34.13
211.098	9.56
211.316	44.37
211.535	36.18
211.753	9.56
211.972	13.65
212.191	52.56
212.409	21.84
212.628	25.94
212.846	-12.97
213.065	58.71
213.283	60.76
213.502	19.8
213.72	40.28
213.938	19.8
214.157	68.95
214.375	1.37
214.594	27.99
214.812	89.43
215.031	25.94
215.249	17.75
215.467	-15.02
215.686	44.37
215.904	44.37
216.122	-4.78
216.341	-10.92
216.559	25.94
216.778	-17.07
216.996	9.56
217.214	52.56
217.432	7.51
217.651	-8.87
217.869	-21.16
218.087	11.61
218.306	-2.73
218.524	36.18
218.742	54.61
218.96	32.08
219.179	-0.68
219.397	32.08
219.615	40.28
219.833	-12.97
220.051	3.41
220.27	15.7
220.488	-33.45
220.706	19.8
220.924	-0.68
221.142	-17.07
221.36	-17.07
221.578	32.08
221.796	-27.31
222.015	-25.26
222.233	-6.83
222.451	99.67
222.669	-17.07
222.887	75.09
223.105	-31.4
223.323	9.56
223.541	58.71
223.759	27.99
223.977	66.9
224.195	52.56
224.413	71
224.631	79.19
224.849	46.42
225.067	36.18
225.285	-15.02
225.503	44.37
225.721	-21.16
225.939	-0.68
226.157	27.99
226.375	71
226.592	-25.26
226.81	58.71
227.028	77.14
227.246	42.32
227.464	11.61
227.682	71
227.9	101.72
228.117	48.47
228.335	46.42
228.553	-0.68
228.771	91.48
228.989	27.99
229.206	52.56
229.424	-92.84
229.642	-21.16
229.86	19.8
230.077	68.95
230.295	30.04
230.513	128.34
230.731	30.04
230.948	64.85
231.166	30.04
231.384	-4.78
231.601	-2.73
231.819	27.99
232.037	91.48
232.254	-8.87
232.472	-33.45
232.689	68.95
232.907	50.52
233.125	-0.68
233.342	13.65
233.56	-49.83
233.777	-29.35
233.995	27.99
234.213	71
234.43	64.85
234.648	3.41
234.865	-21.16
235.083	3.41
235.3	-41.64
235.518	27.99
235.735	-33.45
235.953	58.71
236.17	66.9
236.388	62.8
236.605	-49.83
236.822	83.28
237.04	42.32
237.257	40.28
237.475	15.7
237.692	1.37
237.909	25.94
238.127	-31.4
238.344	23.89
238.562	11.61
238.779	-37.55
238.996	40.28
239.214	15.7
239.431	62.8
239.648	-10.92
239.865	27.99
240.083	1.37
240.3	-17.07
240.517	52.56
240.735	46.42
240.952	3.41
241.169	-27.31
241.386	34.13
241.603	15.7
241.821	19.8
242.038	7.51
242.255	17.75
242.472	36.18
242.689	46.42
242.907	48.47
243.124	-4.78
243.341	-68.27
243.558	-39.59
243.775	11.61
243.992	21.84
244.209	-8.87
244.426	52.56
244.643	32.08
244.86	-98.99
245.078	-8.87
245.295	-23.21
245.512	3.41
245.729	56.66
245.946	68.95
246.163	-2.73
246.38	3.41
246.597	109.91
246.814	50.52
247.031	32.08
247.248	38.23
247.464	34.13
247.681	40.28
247.898	-0.68
248.115	48.47
248.332	66.9
248.549	126.29
248.766	87.38
248.983	122.2
249.2	48.47
249.417	97.62
249.633	13.65
249.85	42.32
250.067	3.41
250.284	54.61
250.501	60.76
250.717	114
250.934	89.43
251.151	75.09
251.368	34.13
251.585	19.8
251.801	-8.87
252.018	68.95
252.235	-19.11
252.451	101.72
252.668	-23.21
252.885	15.7
253.102	-43.69
253.318	-58.03
253.535	-4.78
253.752	-55.98
253.968	-29.35
254.185	5.46
254.401	-8.87
254.618	-23.21
254.835	19.8
255.051	130.39
255.268	17.75
255.484	17.75
255.701	-25.26
255.917	44.37
256.134	-76.46
256.351	71
256.567	-25.26
256.784	46.42
257	107.86
257.217	-55.98
257.433	42.32
257.65	85.33
257.866	95.57
258.082	-0.68
258.299	66.9
258.515	34.13
258.732	-0.68
258.948	25.94
259.165	44.37
259.381	68.95
259.597	66.9
259.814	42.32
260.03	34.13
260.246	38.23
260.463	50.52
260.679	7.51
260.895	42.32
261.112	-6.83
261.328	-12.97
261.544	36.18
261.761	64.85
261.977	1.37
262.193	11.61
262.409	13.65
262.626	-4.78
262.842	38.23
263.058	68.95
263.274	36.18
263.49	46.42
263.707	68.95
263.923	3.41
264.139	-29.35
264.355	-4.78
264.571	64.85
264.787	-17.07
265.004	-29.35
265.22	9.56
265.436	21.84
265.652	-0.68
265.868	21.84
266.084	-43.69
266.3	62.8
266.516	-47.79
266.732	68.95
266.948	34.13
267.164	40.28
267.38	9.56
267.596	60.76
267.812	89.43
268.028	42.32
268.244	50.52
268.46	15.7
268.676	15.7
268.892	-2.73
269.108	27.99
269.324	-47.79
269.54	-4.78
269.756	87.38
269.972	27.99
270.188	34.13
270.403	-23.21
270.619	64.85
270.835	-4.78
271.051	-2.73
271.267	-37.55
271.483	15.7
271.698	27.99
271.914	-0.68
272.13	-15.02
272.346	42.32
272.562	34.13
272.777	97.62
272.993	11.61
273.209	27.99
273.425	52.56
273.64	-17.07
273.856	-15.02
274.072	13.65
274.287	66.9
274.503	60.76
274.719	48.47
274.934	-10.92
275.15	-117.42
275.366	-62.12
275.581	13.65
275.797	19.8
276.012	23.89
276.228	36.18
276.444	58.71
276.659	40.28
276.875	27.99
277.09	66.9
277.306	-19.11
277.521	52.56
277.737	75.09
277.952	48.47
278.168	-2.73
278.383	21.84
278.599	1.37
278.814	3.41
279.03	81.24
279.245	23.89
279.461	-19.11
279.676	23.89
279.892	48.47
280.107	58.71
280.322	-23.21
280.538	36.18
280.753	-27.31
280.969	136.53
281.184	64.85
281.399	79.19
281.615	50.52
281.83	-41.64
282.045	54.61
282.26	-133.8
282.476	-8.87
282.691	3.41
282.906	1.37
283.122	-31.4
283.337	34.13
283.552	136.53
283.767	9.56
283.983	1.37
284.198	-8.87
284.413	118.1
284.628	15.7
284.843	-0.68
285.058	34.13
285.274	-8.87
285.489	21.84
285.704	21.84
285.919	34.13
286.134	75.09
286.349	52.56
286.564	77.14
286.779	68.95
286.995	1.37
287.21	-6.83
287.425	-19.11
287.64	19.8
287.855	3.41
288.07	19.8
288.285	27.99
288.5	54.61
288.715	19.8
288.93	27.99
289.145	40.28
289.36	62.8
289.575	1.37
289.79	9.56
290.004	-51.88
290.219	46.42
290.434	-4.78
290.649	-4.78
290.864	-2.73
291.079	85.33
291.294	105.81
291.509	30.04
291.724	75.09
291.938	-15.02
292.153	38.23
292.368	5.46
292.583	19.8
292.798	36.18
293.012	15.7
293.227	-19.11
293.442	48.47
293.657	34.13
293.871	25.94
294.086	64.85
294.301	38.23
294.516	-12.97
294.73	13.65
294.945	19.8
295.16	-35.5
295.374	95.57
295.589	85.33
295.804	3.41
296.018	60.76
296.233	89.43
296.447	11.61
296.662	-15.02
296.877	105.81
297.091	50.52
297.306	23.89
297.52	15.7
297.735	91.48
297.949	9.56
298.164	46.42
298.378	17.75
298.593	-17.07
298.807	99.67
299.022	58.71
299.236	83.28
299.451	-2.73
299.665	9.56
299.88	77.14
300.094	46.42
300.309	54.61
300.523	3.41
300.737	91.48
300.952	56.66
301.166	85.33
301.381	3.41
301.595	13.65
301.809	-23.21
302.024	85.33
302.238	-33.45
302.452	126.29
302.667	40.28
302.881	60.76
303.095	32.08
303.309	1.37
303.524	-45.74
303.738	11.61
303.952	3.41
304.166	-47.79
304.381	34.13
304.595	118.1
304.809	-10.92
305.023	66.9
305.237	60.76
305.452	-12.97
305.666	71
305.88	27.99
306.094	56.66
306.308	73.04
306.522	56.66
306.736	-0.68
306.95	97.62
307.164	58.71
307.379	34.13
307.593	56.66
307.807	52.56
308.021	64.85
308.235	101.72
308.449	21.84
308.663	13.65
308.877	68.95
309.091	40.28
309.305	58.71
309.519	11.61
309.733	62.8
309.947	-76.46
310.161	5.46
310.374	56.66
310.588	-17.07
310.802	52.56
311.016	-6.83
311.23	54.61
311.444	44.37
311.658	-2.73
311.872	71
312.085	17.75
312.299	48.47
312.513	5.46
312.727	36.18
312.941	73.04
313.154	17.75
313.368	42.32
313.582	13.65
313.796	5.46
314.009	5.46
314.223	71
314.437	-15.02
314.651	44.37
314.864	62.8
315.078	-4.78
315.292	38.23
315.505	-60.07
315.719	77.14
315.933	17.75
316.146	25.94
316.36	-4.78
316.573	46.42
316.787	73.04
317.001	81.24
317.214	56.66
317.428	52.56
317.641	34.13
317.855	44.37
318.068	-21.16
318.282	89.43
318.495	23.89
318.709	81.24
318.922	27.99
319.136	48.47
319.349	48.47
319.563	17.75
319.776	44.37
319.99	58.71
320.203	-17.07
320.417	34.13
320.63	52.56
320.843	91.48
321.057	93.52
321.27	17.75
321.483	25.94
321.697	89.43
321.91	54.61
322.124	9.56
322.337	34.13
322.55	15.7
322.763	-39.59
322.977	-27.31
323.19	-6.83
323.403	56.66
323.617	167.25
323.83	79.19
324.043	19.8
324.256	11.61
324.469	19.8
324.683	114
324.896	9.56
325.109	-4.78
325.322	42.32
325.535	81.24
325.748	40.28
325.962	-8.87
326.175	48.47
326.388	-15.02
326.601	46.42
326.814	30.04
327.027	77.14
327.24	114
327.453	89.43
327.666	142.68
327.879	-47.79
328.092	-33.45
328.305	89.43
328.518	-6.83
328.731	75.09
328.944	-19.11
329.157	17.75
329.37	48.47
329.583	50.52
329.796	87.38
330.009	5.46
330.222	81.24
330.435	15.7
330.648	44.37
330.861	60.76
331.073	32.08
331.286	60.76
331.499	52.56
331.712	5.46
331.925	1.37
332.138	13.65
332.35	15.7
332.563	21.84
332.776	75.09
332.989	-2.73
333.202	30.04
333.414	36.18
333.627	36.18
333.84	52.56
334.053	68.95
334.265	-47.79
334.478	87.38
334.691	60.76
334.903	89.43
335.116	-25.26
335.329	46.42
335.541	75.09
335.754	52.56
335.966	-0.68
336.179	42.32
336.392	-0.68
336.604	105.81
336.817	40.28
337.029	58.71
337.242	68.95
337.454	3.41
337.667	25.94
337.88	130.39
338.092	46.42
338.305	13.65
338.517	7.51
338.729	64.85
338.942	66.9
339.154	36.18
339.367	-8.87
339.579	36.18
339.792	23.89
340.004	-47.79
340.217	38.23
340.429	11.61
340.641	11.61
340.854	44.37
341.066	40.28
341.278	105.81
341.491	130.39
341.703	-10.92
341.915	19.8
342.128	107.86
342.34	21.84
342.552	15.7
342.764	36.18
342.977	32.08
343.189	30.04
343.401	38.23
343.613	32.08
343.826	36.18
344.038	-19.11
344.25	99.67
344.462	-39.59
344.674	-74.41
344.886	85.33
345.099	81.24
345.311	7.51
345.523	3.41
345.735	-41.64
345.947	54.61
346.159	134.48
346.371	54.61
346.583	9.56
346.795	71
347.007	44.37
347.219	56.66
347.431	25.94
347.643	52.56
347.855	56.66
348.067	95.57
348.279	54.61
348.491	32.08
348.703	111.96
348.915	5.46
349.127	-39.59
349.339	75.09
349.551	-39.59
349.763	40.28
349.975	7.51
350.187	46.42
350.399	103.76
350.61	-2.73
350.822	-2.73
351.034	79.19
351.246	27.99
351.458	3.41
351.669	36.18
351.881	97.62
352.093	101.72
352.305	118.1
352.517	60.76
352.728	95.57
352.94	9.56
353.152	48.47
353.363	13.65
353.575	-8.87
353.787	56.66
353.999	50.52
354.21	134.48
354.422	66.9
354.633	95.57
354.845	58.71
355.057	48.47
355.268	56.66
355.48	9.56
355.692	44.37
355.903	62.8
356.115	95.57
356.326	25.94
356.538	25.94
356.749	44.37
356.961	73.04
357.172	27.99
357.384	-25.26
357.595	73.04
357.807	25.94
358.018	-45.74
358.23	42.32
358.441	54.61
358.653	60.76
358.864	56.66
359.075	11.61
359.287	-2.73
359.498	42.32
359.709	25.94
359.921	60.76
360.132	-17.07
360.344	7.51
360.555	75.09
360.766	9.56
360.977	56.66
361.189	83.28
361.4	44.37
361.611	9.56
361.823	62.8
362.034	103.76
362.245	-39.59
362.456	56.66
362.667	48.47
362.879	54.61
363.09	11.61
363.301	30.04
363.512	85.33
363.723	44.37
363.935	77.14
364.146	11.61
364.357	-25.26
364.568	56.66
364.779	-37.55
364.99	38.23
365.201	64.85
365.412	79.19
365.623	3.41
365.834	83.28
366.045	103.76
366.256	46.42
366.467	54.61
366.678	7.51
366.889	60.76
367.1	-15.02
367.311	32.08
367.522	-8.87
367.733	32.08
367.944	68.95
368.155	79.19
368.366	99.67
368.577	27.99
368.788	101.72
368.999	114
369.209	58.71
369.42	177.49
369.631	161.11
369.842	-4.78
370.053	-55.98
370.264	68.95
370.474	-19.11
370.685	-6.83
370.896	30.04
371.107	103.76
371.317	83.28
371.528	32.08
371.739	-6.83
371.95	60.76
372.16	5.46
372.371	64.85
372.582	3.41
372.792	95.57
373.003	60.76
373.214	25.94
373.424	15.7
373.635	-27.31
373.846	83.28
374.056	-8.87
374.267	116.05
374.477	54.61
374.688	36.18
374.898	56.66
375.109	95.57
375.319	30.04
375.53	89.43
375.74	77.14
375.951	42.32
376.161	25.94
376.372	79.19
376.582	62.8
376.793	52.56
377.003	32.08
377.214	36.18
377.424	75.09
377.635	68.95
377.845	-0.68
378.055	81.24
378.266	60.76
378.476	105.81
378.686	-17.07
378.897	56.66
379.107	68.95
379.317	30.04
379.528	81.24
379.738	5.46
379.948	5.46
380.158	46.42
380.369	140.63
380.579	50.52
380.789	11.61
380.999	87.38
381.21	60.76
381.42	87.38
381.63	-4.78
381.84	46.42
382.05	71
382.261	64.85
382.471	120.15
382.681	-51.88
382.891	109.91
383.101	5.46
383.311	9.56
383.521	23.89
383.731	62.8
383.941	46.42
384.151	85.33
384.361	56.66
384.571	52.56
384.781	48.47
384.991	140.63
385.201	132.44
385.411	38.23
385.621	64.85
385.831	40.28
386.041	124.24
386.251	13.65
386.461	134.48
386.671	97.62
386.881	13.65
387.091	42.32
387.301	109.91
387.511	71
387.72	85.33
387.93	118.1
388.14	71
388.35	23.89
388.56	79.19
388.769	36.18
388.979	-17.07
389.189	83.28
389.399	83.28
389.609	116.05
389.818	50.52
390.028	93.52
390.238	44.37
390.447	38.23
390.657	64.85
390.867	11.61
391.076	77.14
391.286	32.08
391.496	107.86
391.705	40.28
391.915	122.2
392.125	138.58
392.334	52.56
392.544	109.91
392.753	85.33
392.963	34.13
393.172	64.85
393.382	83.28
393.591	118.1
393.801	5.46
394.01	146.77
394.22	97.62
394.429	32.08
394.639	-15.02
394.848	40.28
395.058	114
395.267	50.52
395.477	107.86
395.686	97.62
395.895	107.86
396.105	97.62
396.314	95.57
396.524	101.72
396.733	150.87
396.942	157.01
397.152	130.39
397.361	146.77
397.57	68.95
397.78	111.96
397.989	95.57
398.198	111.96
398.407	95.57
398.617	91.48
398.826	187.73
399.035	157.01
399.244	89.43
399.453	107.86
399.663	157.01
399.872	148.82
400.081	87.38
400.29	191.83
400.499	126.29
400.708	152.91
400.917	27.99
401.127	167.25
401.336	83.28
401.545	204.11
401.754	150.87
401.963	79.19
402.172	138.58
402.381	73.04
402.59	161.11
402.799	175.44
403.008	179.54
403.217	234.83
403.426	138.58
403.635	101.72
403.844	95.57
404.053	118.1
404.262	130.39
404.471	187.73
404.68	157.01
404.888	128.34
405.097	165.2
405.306	208.21
405.515	144.72
405.724	111.96
405.933	195.92
406.142	189.78
406.35	257.36
406.559	197.97
406.768	226.64
406.977	261.46
407.185	283.98
407.394	216.4
407.603	243.03
407.812	204.11
408.02	300.37
408.229	224.59
408.438	240.98
408.646	300.37
408.855	261.46
409.064	290.13
409.272	286.03
409.481	322.9
409.69	277.84
409.898	329.04
410.107	388.43
410.315	376.14
410.524	372.05
410.733	453.97
410.941	359.76
411.15	404.82
411.358	441.68
411.567	406.86
411.775	513.36
411.984	484.69
412.192	523.6
412.401	476.49
412.609	552.27
412.818	519.5
413.026	572.75
413.234	521.55
413.443	562.51
413.651	523.6
413.86	552.27
414.068	669
414.276	730.44
414.485	718.15
414.693	675.15
414.901	798.03
415.11	810.31
415.318	824.65
415.526	881.99
415.734	888.14
415.943	841.03
416.151	851.27
416.359	910.66
416.567	951.62
416.776	1029.45
416.984	1051.97
417.192	1154.37
417.4	986.44
417.608	1217.86
417.817	1174.85
418.025	1264.96
418.233	1295.68
418.441	1318.21
418.649	1375.55
418.857	1424.7
419.065	1490.24
419.273	1492.29
419.481	1606.97
419.689	1690.94
419.897	1649.98
420.105	1625.4
420.313	1805.63
420.521	1862.97
420.729	1809.72
420.937	1852.73
421.145	1965.37
421.353	2141.49
421.561	2245.94
421.769	2258.23
421.977	2393.39
422.185	2223.41
422.393	2477.36
422.601	2565.42
422.809	2637.1
423.017	2616.62
423.224	2602.29
423.432	2696.49
423.64	3001.64
423.848	3052.84
424.056	3040.55
424.263	3298.59
424.471	3200.29
424.679	3394.85
424.887	3321.12
425.094	3595.55
425.302	3708.19
425.51	3755.29
425.718	3886.36
425.925	3974.42
426.133	4007.19
426.341	4306.2
426.548	4402.45
426.756	4375.83
426.964	4527.38
427.171	4810
427.379	4865.29
427.586	4932.87
427.794	5270.79
428.001	5446.91
428.209	5504.26
428.417	5565.7
428.624	5874.94
428.832	5874.94
429.039	5919.99
429.247	5965.05
429.454	6319.35
429.662	7068.91
429.869	6440.18
430.076	6712.56
430.284	6464.75
430.491	7019.75
430.699	7357.67
430.906	7296.23
431.114	7505.12
431.321	7861.47
431.528	8099.03
431.736	8387.8
431.943	8729.81
432.15	8455.38
432.358	8645.84
432.565	9278.66
432.772	9004.24
432.979	9538.76
433.187	9628.87
433.394	9628.87
433.601	10423.48
433.808	10392.76
434.016	10382.52
434.223	10689.71
434.43	11359.4
434.637	11238.57
434.844	11885.73
435.052	12133.53
435.259	12111
435.466	12123.29
435.673	11881.63
435.88	13012.11
436.087	13694.08
436.294	13769.86
436.501	13122.7
436.708	13491.34
436.915	14050.43
437.122	14857.33
437.329	14517.37
437.537	14959.73
437.743	15223.92
437.95	15166.57
438.157	15795.3
438.364	16315.48
438.571	16231.52
438.778	16376.92
438.985	17990.72
439.192	17585.22
439.399	17787.97
439.606	17388.62
439.813	18691.13
440.02	19477.55
440.227	19080.24
440.433	19199.02
440.64	19985.44
440.847	19356.72
441.054	19964.96
441.261	21357.58
441.467	21222.42
441.674	21437.45
441.881	22197.25
442.088	22090.76
442.294	21951.49
442.501	22840.31
442.708	22840.31
442.914	23868.39
443.121	25338.83
443.328	24521.7
443.534	26170.31
443.741	25441.23
443.948	24759.26
444.154	26692.54
444.361	26616.77
444.568	26737.6
444.774	27139
444.981	27020.22
445.187	27386.8
445.394	28988.31
445.6	28949.4
445.807	31632.24
446.013	30096.27
446.22	30651.27
446.426	32062.32
446.633	32195.43
446.839	33405.78
447.046	31691.63
447.252	33440.6
447.459	33411.93
447.665	33401.69
447.871	34564.93
448.078	36029.23
448.284	34558.79
448.491	35556.15
448.697	36754.21
448.903	37796.63
449.11	37552.92
449.316	36662.05
449.522	37284.64
449.728	38148.88
449.935	38880
450.141	38671.11
450.347	39740.15
450.553	38040.34
450.76	38675.21
450.966	39568.12
451.172	39779.06
451.378	40157.94
451.584	40000.24
451.791	40612.59
451.997	40166.13
452.203	40884.97
452.409	41038.56
452.615	40841.96
452.821	39275.26
453.027	38843.14
453.233	40942.31
453.44	38763.27
453.646	39684.86
453.852	39727.86
454.058	40309.49
454.264	38820.61
454.47	39903.99
454.676	38531.85
454.882	40178.42
455.088	36614.95
455.294	37333.79
455.5	37767.96
455.705	38142.74
455.911	36336.43
456.117	35742.52
456.323	35214.14
456.529	33512.28
456.735	34822.98
456.941	33932.11
457.147	33469.27
457.352	32338.79
457.558	31964.01
457.764	32285.54
457.97	31603.57
458.176	30657.41
458.381	30571.39
458.587	29406.1
458.793	29139.86
458.999	27620.27
459.204	29926.28
459.41	29072.28
459.616	26907.58
459.821	26962.87
460.027	26983.35
460.233	26190.79
460.438	24820.7
460.644	25580.49
460.85	24099.81
461.055	23663.6
461.261	23682.03
461.466	22191.11
461.672	21115.92
461.878	23131.12
462.083	21359.63
462.289	21048.34
462.494	21132.31
462.7	19846.18
462.905	19227.7
463.111	19870.76
463.316	20128.8
463.522	19536.94
463.727	19567.66
463.932	19438.64
464.138	19164.21
464.343	19459.12
464.549	18934.84
464.754	19481.64
464.959	19524.65
465.165	19043.38
465.37	18426.94
465.575	18082.88
465.781	18541.63
465.986	18910.26
466.191	17996.87
466.397	17826.89
466.602	16870.48
466.807	17538.12
467.012	17445.96
467.218	17527.88
467.423	17204.3
467.628	17470.54
467.833	17992.77
