Data from USB4F104151__103__10-24-44-767.txt Node

Date: Wed Mar 12 10:24:44 EDT 2025
User: louis
Spectrometer: USB4F10415
Trigger mode: 4
Integration Time (sec): 3.000000E-2
Scans to average: 1
Electric dark correction enabled: true
Nonlinearity correction enabled: false
Boxcar width: 0
XAxis mode: Wavelengths
Number of Pixels in Spectrum: 3648
>>>>>Begin Spectral Data<<<<<
178.204	-56.83
178.424	-56.83
178.644	-56.83
178.864	-83.45
179.084	-95.74
179.304	-52.74
179.524	-9.73
179.744	51.71
179.964	55.81
180.184	-89.6
180.404	-15.87
180.624	-9.73
180.844	47.62
181.064	-54.78
181.283	-3.58
181.503	10.75
181.723	70.14
181.943	-58.88
182.163	82.43
182.383	57.86
182.602	8.7
182.822	84.48
183.042	-28.16
183.262	-79.36
183.482	31.23
183.701	-5.63
183.921	33.28
184.141	-83.45
184.361	64
184.58	-24.06
184.8	84.48
185.02	-48.64
185.239	14.85
185.459	135.68
185.679	-85.5
185.898	-15.87
186.118	51.71
186.338	37.38
186.557	6.66
186.777	-24.06
186.997	-26.11
187.216	-9.73
187.436	102.91
187.655	-13.82
187.875	53.76
188.095	57.86
188.314	39.42
188.534	51.71
188.753	-13.82
188.973	14.85
189.192	23.04
189.412	55.81
189.631	14.85
189.851	25.09
190.07	59.9
190.29	12.8
190.509	-13.82
190.729	20.99
190.948	98.81
191.168	162.3
191.387	23.04
191.607	37.38
191.826	2.56
192.045	2.56
192.265	-28.16
192.484	6.66
192.704	14.85
192.923	-34.3
193.142	35.33
193.362	43.52
193.581	23.04
193.8	23.04
194.02	-11.78
194.239	-9.73
194.458	8.7
194.678	31.23
194.897	86.53
195.116	25.09
195.335	0.51
195.555	94.72
195.774	-5.63
195.993	43.52
196.212	37.38
196.432	-38.4
196.651	88.57
196.87	18.94
197.089	70.14
197.308	-42.5
197.528	16.9
197.747	-15.87
197.966	23.04
198.185	111.1
198.404	53.76
198.623	-3.58
198.842	88.57
199.062	78.33
199.281	14.85
199.5	-22.02
199.719	2.56
199.938	-56.83
200.157	59.9
200.376	-5.63
200.595	-15.87
200.814	-5.63
201.033	-42.5
201.252	37.38
201.471	41.47
201.69	37.38
201.909	80.38
202.128	-48.64
202.347	109.05
202.566	14.85
202.785	-24.06
203.004	51.71
203.223	82.43
203.442	-17.92
203.661	-15.87
203.879	18.94
204.098	49.66
204.317	41.47
204.536	4.61
204.755	59.9
204.974	20.99
205.193	-22.02
205.411	55.81
205.63	33.28
205.849	33.28
206.068	102.91
206.287	-13.82
206.505	55.81
206.724	0.51
206.943	33.28
207.162	25.09
207.381	-11.78
207.599	16.9
207.818	14.85
208.037	33.28
208.255	45.57
208.474	12.8
208.693	64
208.911	76.29
209.13	35.33
209.349	72.19
209.567	49.66
209.786	8.7
210.005	14.85
210.223	39.42
210.442	-15.87
210.661	88.57
210.879	14.85
211.098	29.18
211.316	61.95
211.535	100.86
211.753	-28.16
211.972	59.9
212.191	35.33
212.409	33.28
212.628	-3.58
212.846	43.52
213.065	47.62
213.283	72.19
213.502	-42.5
213.72	37.38
213.938	39.42
214.157	8.7
214.375	41.47
214.594	27.14
214.812	-1.54
215.031	27.14
215.249	33.28
215.467	43.52
215.686	39.42
215.904	94.72
216.122	43.52
216.341	51.71
216.559	16.9
216.778	51.71
216.996	35.33
217.214	107.01
217.432	10.75
217.651	76.29
217.869	59.9
218.087	-38.4
218.306	-17.92
218.524	37.38
218.742	-24.06
218.96	6.66
219.179	-19.97
219.397	64
219.615	74.24
219.833	41.47
220.051	-32.26
220.27	45.57
220.488	29.18
220.706	35.33
220.924	-19.97
221.142	37.38
221.36	96.77
221.578	72.19
221.796	31.23
222.015	-81.41
222.233	33.28
222.451	59.9
222.669	43.52
222.887	-19.97
223.105	-26.11
223.323	29.18
223.541	51.71
223.759	23.04
223.977	12.8
224.195	68.09
224.413	94.72
224.631	33.28
224.849	31.23
225.067	-3.58
225.285	10.75
225.503	14.85
225.721	31.23
225.939	12.8
226.157	14.85
226.375	86.53
226.592	16.9
226.81	-24.06
227.028	70.14
227.246	37.38
227.464	-40.45
227.682	-38.4
227.9	121.34
228.117	2.56
228.335	-9.73
228.553	-60.93
228.771	47.62
228.989	88.57
229.206	64
229.424	43.52
229.642	-38.4
229.86	14.85
230.077	109.05
230.295	-71.17
230.513	141.82
230.731	16.9
230.948	88.57
231.166	70.14
231.384	-7.68
231.601	-5.63
231.819	76.29
232.037	39.42
232.254	-44.54
232.472	31.23
232.689	39.42
232.907	43.52
233.125	-11.78
233.342	-5.63
233.56	43.52
233.777	-9.73
233.995	66.05
234.213	55.81
234.43	-40.45
234.648	-19.97
234.865	10.75
235.083	4.61
235.3	25.09
235.518	27.14
235.735	55.81
235.953	88.57
236.17	82.43
236.388	25.09
236.605	78.33
236.822	-5.63
237.04	90.62
237.257	88.57
237.475	35.33
237.692	-11.78
237.909	0.51
238.127	-11.78
238.344	18.94
238.562	57.86
238.779	-71.17
238.996	-67.07
239.214	37.38
239.431	76.29
239.648	12.8
239.865	27.14
240.083	47.62
240.3	-40.45
240.517	-30.21
240.735	61.95
240.952	68.09
241.169	64
241.386	-5.63
241.603	-30.21
241.821	-103.93
242.038	59.9
242.255	-7.68
242.472	94.72
242.689	68.09
242.907	2.56
243.124	-17.92
243.341	8.7
243.558	-24.06
243.775	-44.54
243.992	66.05
244.209	10.75
244.426	59.9
244.643	27.14
244.86	-22.02
245.078	64
245.295	82.43
245.512	-9.73
245.729	43.52
245.946	39.42
246.163	-7.68
246.38	96.77
246.597	12.8
246.814	72.19
247.031	8.7
247.248	10.75
247.464	0.51
247.681	-22.02
247.898	39.42
248.115	37.38
248.332	51.71
248.549	31.23
248.766	74.24
248.983	31.23
249.2	0.51
249.417	43.52
249.633	76.29
249.85	4.61
250.067	25.09
250.284	41.47
250.501	18.94
250.717	10.75
250.934	-11.78
251.151	8.7
251.368	0.51
251.585	88.57
251.801	10.75
252.018	-38.4
252.235	68.09
252.451	-52.74
252.668	-26.11
252.885	47.62
253.102	25.09
253.318	23.04
253.535	37.38
253.752	6.66
253.968	-13.82
254.185	12.8
254.401	-67.07
254.618	4.61
254.835	14.85
255.051	27.14
255.268	43.52
255.484	27.14
255.701	6.66
255.917	29.18
256.134	-22.02
256.351	39.42
256.567	23.04
256.784	29.18
257	45.57
257.217	0.51
257.433	55.81
257.65	10.75
257.866	84.48
258.082	10.75
258.299	14.85
258.515	16.9
258.732	31.23
258.948	18.94
259.165	-26.11
259.381	18.94
259.597	-7.68
259.814	33.28
260.03	14.85
260.246	64
260.463	59.9
260.679	39.42
260.895	57.86
261.112	43.52
261.328	-50.69
261.544	-11.78
261.761	47.62
261.977	51.71
262.193	14.85
262.409	39.42
262.626	31.23
262.842	39.42
263.058	-7.68
263.274	80.38
263.49	29.18
263.707	94.72
263.923	-5.63
264.139	10.75
264.355	35.33
264.571	51.71
264.787	6.66
265.004	25.09
265.22	35.33
265.436	10.75
265.652	-42.5
265.868	35.33
266.084	-26.11
266.3	25.09
266.516	-28.16
266.732	102.91
266.948	20.99
267.164	33.28
267.38	66.05
267.596	31.23
267.812	80.38
268.028	16.9
268.244	61.95
268.46	29.18
268.676	-5.63
268.892	41.47
269.108	59.9
269.324	39.42
269.54	23.04
269.756	61.95
269.972	8.7
270.188	51.71
270.403	-52.74
270.619	-17.92
270.835	-26.11
271.051	10.75
271.267	6.66
271.483	-5.63
271.698	12.8
271.914	6.66
272.13	59.9
272.346	6.66
272.562	-1.54
272.777	88.57
272.993	-32.26
273.209	8.7
273.425	66.05
273.64	45.57
273.856	43.52
274.072	4.61
274.287	51.71
274.503	57.86
274.719	41.47
274.934	72.19
275.15	-28.16
275.366	27.14
275.581	-87.55
275.797	43.52
276.012	43.52
276.228	12.8
276.444	25.09
276.659	104.96
276.875	14.85
277.09	-44.54
277.306	10.75
277.521	29.18
277.737	-26.11
277.952	-1.54
278.168	-9.73
278.383	-7.68
278.599	0.51
278.814	31.23
279.03	-28.16
279.245	55.81
279.461	-1.54
279.676	18.94
279.892	-19.97
280.107	-22.02
280.322	31.23
280.538	92.67
280.753	-42.5
280.969	90.62
281.184	-24.06
281.399	-5.63
281.615	66.05
281.83	107.01
282.045	8.7
282.26	-52.74
282.476	12.8
282.691	27.14
282.906	-5.63
283.122	-1.54
283.337	14.85
283.552	84.48
283.767	0.51
283.983	35.33
284.198	-22.02
284.413	111.1
284.628	18.94
284.843	41.47
285.058	-1.54
285.274	51.71
285.489	-3.58
285.704	68.09
285.919	-36.35
286.134	8.7
286.349	55.81
286.564	27.14
286.779	121.34
286.995	-19.97
287.21	-44.54
287.425	6.66
287.64	51.71
287.855	-22.02
288.07	10.75
288.285	53.76
288.5	121.34
288.715	53.76
288.93	55.81
289.145	16.9
289.36	59.9
289.575	0.51
289.79	53.76
290.004	-40.45
290.219	141.82
290.434	31.23
290.649	-22.02
290.864	72.19
291.079	39.42
291.294	39.42
291.509	6.66
291.724	-3.58
291.938	59.9
292.153	33.28
292.368	18.94
292.583	35.33
292.798	68.09
293.012	55.81
293.227	-15.87
293.442	10.75
293.657	39.42
293.871	39.42
294.086	45.57
294.301	94.72
294.516	76.29
294.73	39.42
294.945	45.57
295.16	96.77
295.374	31.23
295.589	55.81
295.804	29.18
296.018	35.33
296.233	55.81
296.447	96.77
296.662	-9.73
296.877	84.48
297.091	59.9
297.306	-1.54
297.52	-13.82
297.735	-42.5
297.949	-5.63
298.164	37.38
298.378	76.29
298.593	-15.87
298.807	-26.11
299.022	27.14
299.236	84.48
299.451	55.81
299.665	-17.92
299.88	107.01
300.094	-11.78
300.309	20.99
300.523	18.94
300.737	-5.63
300.952	51.71
301.166	37.38
301.381	-22.02
301.595	12.8
301.809	74.24
302.024	10.75
302.238	18.94
302.452	88.57
302.667	-114.17
302.881	72.19
303.095	25.09
303.309	14.85
303.524	51.71
303.738	8.7
303.952	80.38
304.166	59.9
304.381	-28.16
304.595	16.9
304.809	-101.89
305.023	39.42
305.237	-40.45
305.452	0.51
305.666	33.28
305.88	59.9
306.094	10.75
306.308	37.38
306.522	94.72
306.736	74.24
306.95	68.09
307.164	23.04
307.379	-5.63
307.593	72.19
307.807	113.15
308.021	23.04
308.235	35.33
308.449	43.52
308.663	66.05
308.877	150.01
309.091	43.52
309.305	74.24
309.519	-19.97
309.733	2.56
309.947	18.94
310.161	-32.26
310.374	82.43
310.588	86.53
310.802	10.75
311.016	-3.58
311.23	29.18
311.444	86.53
311.658	25.09
311.872	25.09
312.085	53.76
312.299	14.85
312.513	51.71
312.727	-48.64
312.941	-17.92
313.154	-3.58
313.368	-7.68
313.582	72.19
313.796	-9.73
314.009	12.8
314.223	-28.16
314.437	70.14
314.651	-7.68
314.864	72.19
315.078	31.23
315.292	8.7
315.505	27.14
315.719	29.18
315.933	20.99
316.146	8.7
316.36	25.09
316.573	51.71
316.787	-15.87
317.001	-13.82
317.214	-60.93
317.428	0.51
317.641	-13.82
317.855	45.57
318.068	27.14
318.282	45.57
318.495	150.01
318.709	23.04
318.922	-60.93
319.136	20.99
319.349	123.39
319.563	-15.87
319.776	57.86
319.99	35.33
320.203	72.19
320.417	8.7
320.63	10.75
320.843	80.38
321.057	47.62
321.27	25.09
321.483	86.53
321.697	57.86
321.91	-1.54
322.124	80.38
322.337	2.56
322.55	43.52
322.763	66.05
322.977	113.15
323.19	33.28
323.403	35.33
323.617	78.33
323.83	125.44
324.043	23.04
324.256	-40.45
324.469	47.62
324.683	23.04
324.896	-30.21
325.109	6.66
325.322	31.23
325.535	64
325.748	-3.58
325.962	33.28
326.175	70.14
326.388	88.57
326.601	0.51
326.814	-42.5
327.027	2.56
327.24	100.86
327.453	-3.58
327.666	88.57
327.879	90.62
328.092	59.9
328.305	37.38
328.518	61.95
328.731	-5.63
328.944	45.57
329.157	-46.59
329.37	20.99
329.583	47.62
329.796	53.76
330.009	8.7
330.222	119.29
330.435	-38.4
330.648	115.2
330.861	51.71
331.073	0.51
331.286	29.18
331.499	47.62
331.712	39.42
331.925	27.14
332.138	4.61
332.35	41.47
332.563	94.72
332.776	16.9
332.989	29.18
333.202	64
333.414	-36.35
333.627	51.71
333.84	-9.73
334.053	41.47
334.265	59.9
334.478	2.56
334.691	74.24
334.903	6.66
335.116	61.95
335.329	-87.55
335.541	70.14
335.754	49.66
335.966	10.75
336.179	96.77
336.392	76.29
336.604	-7.68
336.817	31.23
337.029	90.62
337.242	-1.54
337.454	29.18
337.667	-40.45
337.88	84.48
338.092	8.7
338.305	-7.68
338.517	31.23
338.729	-50.69
338.942	2.56
339.154	16.9
339.367	0.51
339.579	53.76
339.792	76.29
340.004	20.99
340.217	-79.36
340.429	18.94
340.641	2.56
340.854	45.57
341.066	-36.35
341.278	20.99
341.491	125.44
341.703	72.19
341.915	20.99
342.128	96.77
342.34	-3.58
342.552	76.29
342.764	18.94
342.977	-38.4
343.189	119.29
343.401	66.05
343.613	2.56
343.826	45.57
344.038	2.56
344.25	72.19
344.462	59.9
344.674	100.86
344.886	-7.68
345.099	23.04
345.311	4.61
345.523	2.56
345.735	39.42
345.947	16.9
346.159	59.9
346.371	27.14
346.583	49.66
346.795	43.52
347.007	8.7
347.219	35.33
347.431	-38.4
347.643	84.48
347.855	31.23
348.067	8.7
348.279	-9.73
348.491	18.94
348.703	98.81
348.915	74.24
349.127	31.23
349.339	82.43
349.551	82.43
349.763	64
349.975	37.38
350.187	123.39
350.399	68.09
350.61	47.62
350.822	14.85
351.034	76.29
351.246	66.05
351.458	6.66
351.669	64
351.881	-13.82
352.093	59.9
352.305	39.42
352.517	84.48
352.728	64
352.94	39.42
353.152	10.75
353.363	0.51
353.575	33.28
353.787	70.14
353.999	37.38
354.21	80.38
354.422	-15.87
354.633	47.62
354.845	76.29
355.057	84.48
355.268	-62.98
355.48	39.42
355.692	18.94
355.903	70.14
356.115	31.23
356.326	23.04
356.538	92.67
356.749	66.05
356.961	119.29
357.172	-24.06
357.384	23.04
357.595	178.69
357.807	55.81
358.018	14.85
358.23	-38.4
358.441	125.44
358.653	37.38
358.864	-24.06
359.075	14.85
359.287	57.86
359.498	25.09
359.709	18.94
359.921	6.66
360.132	90.62
360.344	47.62
360.555	51.71
360.766	35.33
360.977	104.96
361.189	80.38
361.4	10.75
361.611	107.01
361.823	31.23
362.034	20.99
362.245	18.94
362.456	76.29
362.667	-1.54
362.879	-1.54
363.09	43.52
363.301	102.91
363.512	20.99
363.723	29.18
363.935	41.47
364.146	49.66
364.357	90.62
364.568	84.48
364.779	4.61
364.99	64
365.201	68.09
365.412	78.33
365.623	41.47
365.834	51.71
366.045	27.14
366.256	49.66
366.467	2.56
366.678	37.38
366.889	-5.63
367.1	49.66
367.311	92.67
367.522	80.38
367.733	59.9
367.944	107.01
368.155	27.14
368.366	64
368.577	61.95
368.788	35.33
368.999	-34.3
369.209	10.75
369.42	113.15
369.631	68.09
369.842	53.76
370.053	-34.3
370.264	49.66
370.474	37.38
370.685	23.04
370.896	57.86
371.107	123.39
371.317	31.23
371.528	-26.11
371.739	100.86
371.95	51.71
372.16	-54.78
372.371	25.09
372.582	61.95
372.792	25.09
373.003	88.57
373.214	47.62
373.424	16.9
373.635	-30.21
373.846	66.05
374.056	68.09
374.267	33.28
374.477	109.05
374.688	51.71
374.898	-46.59
375.109	53.76
375.319	29.18
375.53	0.51
375.74	-9.73
375.951	29.18
376.161	12.8
376.372	80.38
376.582	55.81
376.793	20.99
377.003	12.8
377.214	51.71
377.424	8.7
377.635	43.52
377.845	57.86
378.055	70.14
378.266	76.29
378.476	16.9
378.686	20.99
378.897	78.33
379.107	76.29
379.317	57.86
379.528	39.42
379.738	25.09
379.948	-24.06
380.158	104.96
380.369	25.09
380.579	43.52
380.789	115.2
380.999	10.75
381.21	2.56
381.42	43.52
381.63	23.04
381.84	107.01
382.05	57.86
382.261	100.86
382.471	68.09
382.681	47.62
382.891	41.47
383.101	16.9
383.311	-17.92
383.521	35.33
383.731	-34.3
383.941	92.67
384.151	43.52
384.361	64
384.571	68.09
384.781	51.71
384.991	80.38
385.201	68.09
385.411	121.34
385.621	111.1
385.831	96.77
386.041	61.95
386.251	51.71
386.461	111.1
386.671	27.14
386.881	20.99
387.091	76.29
387.301	49.66
387.511	76.29
387.72	6.66
387.93	104.96
388.14	8.7
388.35	84.48
388.56	27.14
388.769	68.09
388.979	109.05
389.189	100.86
389.399	18.94
389.609	51.71
389.818	109.05
390.028	61.95
390.238	88.57
390.447	59.9
390.657	162.3
390.867	16.9
391.076	70.14
391.286	76.29
391.496	6.66
391.705	66.05
391.915	8.7
392.125	27.14
392.334	82.43
392.544	100.86
392.753	117.25
392.963	31.23
393.172	80.38
393.382	39.42
393.591	55.81
393.801	35.33
394.01	18.94
394.22	47.62
394.429	68.09
394.639	51.71
394.848	96.77
395.058	39.42
395.267	86.53
395.477	51.71
395.686	92.67
395.895	133.63
396.105	170.49
396.314	66.05
396.524	98.81
396.733	137.73
396.942	86.53
397.152	102.91
397.361	12.8
397.57	102.91
397.78	111.1
397.989	154.11
398.198	150.01
398.407	76.29
398.617	49.66
398.826	64
399.035	45.57
399.244	98.81
399.453	92.67
399.663	74.24
399.872	135.68
400.081	121.34
400.29	80.38
400.499	102.91
400.708	72.19
400.917	68.09
401.127	100.86
401.336	100.86
401.545	195.07
401.754	78.33
401.963	166.4
402.172	86.53
402.381	88.57
402.59	113.15
402.799	133.63
403.008	123.39
403.217	147.97
403.426	74.24
403.635	61.95
403.844	109.05
404.053	195.07
404.262	98.81
404.471	238.08
404.68	109.05
404.888	176.64
405.097	154.11
405.306	109.05
405.515	229.88
405.724	64
405.933	127.49
406.142	102.91
406.35	180.73
406.559	166.4
406.768	190.97
406.977	223.74
407.185	51.71
407.394	137.73
407.603	78.33
407.812	242.17
408.02	240.12
408.229	221.69
408.438	158.21
408.646	129.53
408.855	98.81
409.064	193.02
409.272	111.1
409.481	309.76
409.69	307.71
409.898	272.89
410.107	285.18
410.315	299.52
410.524	276.99
410.733	328.19
410.941	330.23
411.15	350.71
411.358	330.23
411.567	293.37
411.775	360.95
411.984	418.3
412.192	344.57
412.401	395.77
412.609	451.07
412.818	410.11
413.026	391.67
413.234	416.25
413.443	403.96
413.651	395.77
413.86	469.5
414.068	522.74
414.276	588.28
414.485	526.84
414.693	600.57
414.901	598.52
415.11	563.7
415.318	590.33
415.526	557.56
415.734	723.44
415.943	700.92
416.151	707.06
416.359	649.72
416.567	692.73
416.776	762.36
416.984	895.47
417.192	793.08
417.4	874.99
417.608	791.03
417.817	936.43
418.025	924.15
418.233	1024.5
418.441	1008.11
418.649	1042.93
418.857	1092.08
419.065	1085.94
419.273	1053.17
419.481	1247.72
419.689	1278.44
419.897	1296.88
420.105	1317.36
420.313	1368.56
420.521	1425.9
420.729	1438.19
420.937	1444.33
421.145	1518.06
421.353	1602.02
421.561	1702.37
421.769	1724.9
421.977	1769.96
422.185	1851.88
422.393	1956.32
422.601	1962.47
422.809	2058.72
423.017	2128.35
423.224	2077.15
423.432	2195.93
423.64	2281.95
423.848	2384.35
424.056	2316.76
424.263	2482.65
424.471	2556.38
424.679	2580.95
424.887	2757.08
425.094	2857.43
425.302	2828.76
425.51	2892.24
425.718	3062.23
425.925	3045.84
426.133	3178.96
426.341	3307.98
426.548	3453.39
426.756	3590.6
426.964	3451.34
427.171	3645.9
427.379	3785.16
427.586	3899.84
427.794	4073.92
428.001	4069.83
428.209	4415.93
428.417	4334.01
428.624	4483.52
428.832	4581.82
429.039	4465.08
429.247	4587.96
429.454	4983.22
429.662	5398.96
429.869	4927.92
430.076	5220.78
430.284	5106.1
430.491	5331.37
430.699	5642.67
430.906	5736.87
431.114	5783.98
431.321	6007.2
431.528	5941.67
431.736	6599.07
431.943	6922.65
432.15	6465.95
432.358	6717.85
432.565	7061.91
432.772	6969.75
432.979	7219.6
433.187	7485.84
433.394	7510.41
433.601	8018.31
433.808	8018.31
434.016	8022.41
434.223	8292.74
434.43	8853.88
434.637	8399.23
434.844	9212.28
435.052	9156.98
435.259	9337.2
435.466	9415.02
435.673	9206.13
435.88	9980.26
436.087	10281.32
436.294	10352.99
436.501	9957.74
436.708	10344.8
436.915	10789.21
437.122	11155.8
437.329	11213.14
437.537	11526.48
437.743	11794.76
437.95	11749.71
438.157	12161.35
438.364	12527.94
438.571	12659.01
438.778	12724.54
438.985	13705.52
439.192	13605.17
439.399	13656.37
439.606	13308.21
439.813	14127.4
440.02	14936.35
440.227	14924.06
440.433	14541.09
440.64	15100.19
440.847	14926.11
441.054	15466.77
441.261	16234.76
441.467	15968.52
441.674	16345.35
441.881	16904.45
442.088	16740.61
442.294	16926.97
442.501	17412.34
442.708	17621.24
442.914	18370.79
443.121	18956.51
443.328	18346.22
443.534	19816.66
443.741	19142.88
443.948	18888.93
444.154	20148.43
444.361	20252.87
444.568	20224.2
444.774	20316.36
444.981	20555.97
445.187	21330.11
445.394	22137.01
445.6	21766.32
445.807	23871.64
446.013	23003.3
446.22	23285.92
446.426	24328.33
446.633	24576.14
446.839	25100.42
447.046	24148.11
447.252	25464.96
447.459	25679.99
447.665	25114.75
447.871	26554.47
448.078	27160.67
448.284	26185.84
448.491	27127.91
448.697	27943
448.903	28373.07
449.11	28530.76
449.316	28061.78
449.522	28454.99
449.728	29528.13
449.935	29618.24
450.141	29511.74
450.347	30040.12
450.553	28883.02
450.76	29433.92
450.966	30427.18
451.172	29882.42
451.378	30552.11
451.584	30150.71
451.791	30681.13
451.997	30863.4
452.203	31029.29
452.409	31064.1
452.615	31354.91
452.821	29626.43
453.027	29882.42
453.233	31203.36
453.44	29753.4
453.646	30351.41
453.852	30228.53
454.058	30429.23
454.264	29671.48
454.47	30576.69
454.676	29376.58
454.882	30285.87
455.088	28024.92
455.294	28330.06
455.5	28731.47
455.705	28819.53
455.911	27893.85
456.117	27054.18
456.323	26697.83
456.529	25241.73
456.735	26820.71
456.941	25755.77
457.147	25360.51
457.352	24469.64
457.558	24180.88
457.764	24279.18
457.97	23820.44
458.176	23341.21
458.381	23249.05
458.587	22196.4
458.793	22247.6
458.999	20975.81
459.204	22698.15
459.41	21694.64
459.616	20437.19
459.821	20766.92
460.027	20580.55
460.233	20213.96
460.438	19251.42
460.644	19343.58
460.85	18321.64
461.055	18024.68
461.261	18378.98
461.466	16804.1
461.672	16371.97
461.878	17492.21
462.083	16392.45
462.289	16089.35
462.494	15972.62
462.7	15014.17
462.905	14428.45
463.111	15149.34
463.316	15221.02
463.522	15020.31
463.727	14987.55
463.932	14874.91
464.138	15022.36
464.343	14620.96
464.549	14387.49
464.754	14962.97
464.959	14956.83
465.165	14580
465.37	14192.94
465.575	13447.47
465.781	14336.29
465.986	14057.77
466.191	13832.49
466.397	13504.82
466.602	13037.88
466.807	13388.08
467.012	13328.69
467.218	13379.89
467.423	12982.59
467.628	13203.77
467.833	13662.51
468.038	13300.02
468.244	13011.26
