Data from USB4F104151__63__10-23-58-633.txt Node

Date: Wed Mar 12 10:23:58 EDT 2025
User: louis
Spectrometer: USB4F10415
Trigger mode: 4
Integration Time (sec): 3.000000E-2
Scans to average: 1
Electric dark correction enabled: true
Nonlinearity correction enabled: false
Boxcar width: 0
XAxis mode: Wavelengths
Number of Pixels in Spectrum: 3648
>>>>>Begin Spectral Data<<<<<
178.204	-129.19
178.424	-129.19
178.644	-129.19
178.864	-77.99
179.084	-153.77
179.304	-61.61
179.524	59.22
179.744	8.02
179.964	-12.46
180.184	1.88
180.404	-8.36
180.624	26.45
180.844	1.88
181.064	-39.08
181.283	-6.31
181.503	-16.55
181.723	46.93
181.943	-67.75
182.163	32.6
182.383	26.45
182.602	57.17
182.822	28.5
183.042	-10.41
183.262	-8.36
183.482	-59.56
183.701	-18.6
183.921	-8.36
184.141	-37.03
184.361	-4.27
184.58	61.27
184.8	42.84
185.02	55.12
185.239	63.32
185.459	1.88
185.679	-39.08
185.898	14.17
186.118	-6.31
186.338	-43.18
186.557	67.41
186.777	57.17
186.997	71.51
187.216	16.21
187.436	46.93
187.655	18.26
187.875	83.8
188.095	-20.65
188.314	5.97
188.534	34.64
188.753	-22.7
188.973	1.88
189.192	-2.22
189.412	8.02
189.631	-47.27
189.851	22.36
190.07	3.93
190.29	18.26
190.509	-39.08
190.729	-14.51
190.948	67.41
191.168	94.04
191.387	30.55
191.607	10.07
191.826	-22.7
192.045	28.5
192.265	-30.89
192.484	-34.99
192.704	34.64
192.923	-41.13
193.142	18.26
193.362	55.12
193.581	-24.75
193.8	-4.27
194.02	22.36
194.239	-55.47
194.458	-6.31
194.678	3.93
194.897	20.31
195.116	-51.37
195.335	-14.51
195.555	18.26
195.774	51.03
195.993	-14.51
196.212	81.75
196.432	48.98
196.651	-32.94
196.87	53.08
197.089	59.22
197.308	5.97
197.528	26.45
197.747	-51.37
197.966	10.07
198.185	87.89
198.404	-37.03
198.623	77.65
198.842	24.4
199.062	-24.75
199.281	32.6
199.5	-2.22
199.719	-32.94
199.938	-0.17
200.157	57.17
200.376	-32.94
200.595	51.03
200.814	42.84
201.033	87.89
201.252	44.88
201.471	-0.17
201.69	87.89
201.909	51.03
202.128	106.32
202.347	89.94
202.566	65.36
202.785	-30.89
203.004	-8.36
203.223	83.8
203.442	59.22
203.661	-34.99
203.879	65.36
204.098	83.8
204.317	-32.94
204.536	87.89
204.755	24.4
204.974	67.41
205.193	22.36
205.411	34.64
205.63	14.17
205.849	75.6
206.068	-4.27
206.287	14.17
206.505	-39.08
206.724	34.64
206.943	26.45
207.162	14.17
207.381	-20.65
207.599	12.12
207.818	26.45
208.037	22.36
208.255	18.26
208.474	38.74
208.693	3.93
208.911	-6.31
209.13	14.17
209.349	65.36
209.567	85.84
209.786	24.4
210.005	3.93
210.223	40.79
210.442	-14.51
210.661	67.41
210.879	-10.41
211.098	-2.22
211.316	38.74
211.535	24.4
211.753	48.98
211.972	63.32
212.191	34.64
212.409	48.98
212.628	57.17
212.846	108.37
213.065	-14.51
213.283	-8.36
213.502	-0.17
213.72	3.93
213.938	-14.51
214.157	-47.27
214.375	18.26
214.594	28.5
214.812	16.21
215.031	65.36
215.249	83.8
215.467	-18.6
215.686	5.97
215.904	-26.79
216.122	-59.56
216.341	46.93
216.559	-24.75
216.778	24.4
216.996	57.17
217.214	20.31
217.432	-45.23
217.651	1.88
217.869	42.84
218.087	85.84
218.306	1.88
218.524	108.37
218.742	-14.51
218.96	59.22
219.179	-22.7
219.397	8.02
219.615	73.56
219.833	73.56
220.051	-30.89
220.27	94.04
220.488	83.8
220.706	46.93
220.924	34.64
221.142	-24.75
221.36	65.36
221.578	40.79
221.796	26.45
222.015	42.84
222.233	20.31
222.451	83.8
222.669	42.84
222.887	85.84
223.105	65.36
223.323	-20.65
223.541	-4.27
223.759	75.6
223.977	12.12
224.195	22.36
224.413	5.97
224.631	24.4
224.849	91.99
225.067	59.22
225.285	57.17
225.503	-16.55
225.721	-30.89
225.939	-10.41
226.157	-59.56
226.375	81.75
226.592	36.69
226.81	-16.55
227.028	34.64
227.246	10.07
227.464	-12.46
227.682	65.36
227.9	-14.51
228.117	-6.31
228.335	42.84
228.553	67.41
228.771	1.88
228.989	-8.36
229.206	42.84
229.424	-16.55
229.642	-41.13
229.86	-10.41
230.077	57.17
230.295	1.88
230.513	32.6
230.731	34.64
230.948	40.79
231.166	85.84
231.384	10.07
231.601	-63.66
231.819	89.94
232.037	-39.08
232.254	18.26
232.472	79.7
232.689	36.69
232.907	30.55
233.125	-18.6
233.342	46.93
233.56	-26.79
233.777	-34.99
233.995	38.74
234.213	5.97
234.43	42.84
234.648	-6.31
234.865	-10.41
235.083	89.94
235.3	26.45
235.518	26.45
235.735	34.64
235.953	51.03
236.17	-0.17
236.388	-0.17
236.605	-16.55
236.822	79.7
237.04	48.98
237.257	22.36
237.475	-20.65
237.692	69.46
237.909	28.5
238.127	-34.99
238.344	40.79
238.562	67.41
238.779	-14.51
238.996	-14.51
239.214	22.36
239.431	1.88
239.648	12.12
239.865	-6.31
240.083	79.7
240.3	44.88
240.517	-4.27
240.735	32.6
240.952	89.94
241.169	51.03
241.386	1.88
241.603	22.36
241.821	51.03
242.038	71.51
242.255	5.97
242.472	5.97
242.689	10.07
242.907	51.03
243.124	5.97
243.341	8.02
243.558	3.93
243.775	38.74
243.992	-0.17
244.209	81.75
244.426	77.65
244.643	112.47
244.86	-30.89
245.078	12.12
245.295	38.74
245.512	-28.84
245.729	67.41
245.946	5.97
246.163	20.31
246.38	-10.41
246.597	-14.51
246.814	-6.31
247.031	26.45
247.248	73.56
247.464	48.98
247.681	28.5
247.898	38.74
248.115	81.75
248.332	18.26
248.549	51.03
248.766	63.32
248.983	130.9
249.2	18.26
249.417	48.98
249.633	-57.51
249.85	48.98
250.067	8.02
250.284	59.22
250.501	48.98
250.717	24.4
250.934	-26.79
251.151	65.36
251.368	40.79
251.585	28.5
251.801	42.84
252.018	61.27
252.235	89.94
252.451	-8.36
252.668	-30.89
252.885	65.36
253.102	24.4
253.318	26.45
253.535	51.03
253.752	22.36
253.968	1.88
254.185	-0.17
254.401	14.17
254.618	40.79
254.835	22.36
255.051	102.23
255.268	77.65
255.484	-59.56
255.701	26.45
255.917	18.26
256.134	77.65
256.351	8.02
256.567	-41.13
256.784	14.17
257	-65.71
257.217	22.36
257.433	32.6
257.65	-0.17
257.866	79.7
258.082	-41.13
258.299	14.17
258.515	77.65
258.732	26.45
258.948	10.07
259.165	-4.27
259.381	-26.79
259.597	8.02
259.814	63.32
260.03	-6.31
260.246	32.6
260.463	67.41
260.679	38.74
260.895	1.88
261.112	53.08
261.328	85.84
261.544	-8.36
261.761	83.8
261.977	12.12
262.193	-2.22
262.409	-14.51
262.626	102.23
262.842	-51.37
263.058	26.45
263.274	98.13
263.49	26.45
263.707	28.5
263.923	-8.36
264.139	-30.89
264.355	1.88
264.571	77.65
264.787	16.21
265.004	85.84
265.22	18.26
265.436	-16.55
265.652	-6.31
265.868	38.74
266.084	-28.84
266.3	40.79
266.516	-20.65
266.732	81.75
266.948	30.55
267.164	1.88
267.38	30.55
267.596	32.6
267.812	67.41
268.028	63.32
268.244	-45.23
268.46	22.36
268.676	26.45
268.892	-0.17
269.108	40.79
269.324	-22.7
269.54	-49.32
269.756	32.6
269.972	-4.27
270.188	65.36
270.403	-55.47
270.619	34.64
270.835	-26.79
271.051	-32.94
271.267	30.55
271.483	-8.36
271.698	-0.17
271.914	1.88
272.13	83.8
272.346	48.98
272.562	-18.6
272.777	48.98
272.993	73.56
273.209	-8.36
273.425	26.45
273.64	-39.08
273.856	67.41
274.072	3.93
274.287	22.36
274.503	-18.6
274.719	-22.7
274.934	26.45
275.15	-16.55
275.366	18.26
275.581	10.07
275.797	36.69
276.012	-0.17
276.228	26.45
276.444	5.97
276.659	73.56
276.875	26.45
277.09	26.45
277.306	-34.99
277.521	8.02
277.737	1.88
277.952	42.84
278.168	-32.94
278.383	38.74
278.599	-14.51
278.814	48.98
279.03	79.7
279.245	91.99
279.461	104.28
279.676	22.36
279.892	18.26
280.107	-26.79
280.322	18.26
280.538	-63.66
280.753	-8.36
280.969	42.84
281.184	-37.03
281.399	53.08
281.615	-45.23
281.83	3.93
282.045	-24.75
282.26	46.93
282.476	94.04
282.691	22.36
282.906	91.99
283.122	18.26
283.337	-39.08
283.552	126.8
283.767	48.98
283.983	59.22
284.198	-77.99
284.413	46.93
284.628	24.4
284.843	38.74
285.058	30.55
285.274	40.79
285.489	28.5
285.704	-20.65
285.919	36.69
286.134	48.98
286.349	22.36
286.564	5.97
286.779	51.03
286.995	1.88
287.21	-22.7
287.425	30.55
287.64	-24.75
287.855	83.8
288.07	-63.66
288.285	124.76
288.5	-0.17
288.715	-30.89
288.93	40.79
289.145	79.7
289.36	-71.85
289.575	18.26
289.79	-14.51
290.004	61.27
290.219	34.64
290.434	5.97
290.649	14.17
290.864	30.55
291.079	-39.08
291.294	63.32
291.509	-10.41
291.724	55.12
291.938	34.64
292.153	79.7
292.368	-0.17
292.583	59.22
292.798	-24.75
293.012	1.88
293.227	75.6
293.442	-6.31
293.657	59.22
293.871	28.5
294.086	3.93
294.301	79.7
294.516	73.56
294.73	85.84
294.945	-49.32
295.16	106.32
295.374	106.32
295.589	-14.51
295.804	10.07
296.018	16.21
296.233	53.08
296.447	30.55
296.662	10.07
296.877	34.64
297.091	1.88
297.306	91.99
297.52	46.93
297.735	38.74
297.949	-10.41
298.164	1.88
298.378	14.17
298.593	-6.31
298.807	3.93
299.022	14.17
299.236	145.24
299.451	57.17
299.665	32.6
299.88	42.84
300.094	-22.7
300.309	40.79
300.523	120.66
300.737	16.21
300.952	-0.17
301.166	10.07
301.381	3.93
301.595	73.56
301.809	28.5
302.024	40.79
302.238	-16.55
302.452	91.99
302.667	34.64
302.881	89.94
303.095	81.75
303.309	3.93
303.524	59.22
303.738	38.74
303.952	-22.7
304.166	-14.51
304.381	14.17
304.595	57.17
304.809	38.74
305.023	81.75
305.237	28.5
305.452	46.93
305.666	55.12
305.88	-10.41
306.094	75.6
306.308	69.46
306.522	124.76
306.736	14.17
306.95	22.36
307.164	-22.7
307.379	-6.31
307.593	94.04
307.807	53.08
308.021	34.64
308.235	69.46
308.449	-14.51
308.663	20.31
308.877	89.94
309.091	-16.55
309.305	73.56
309.519	67.41
309.733	75.6
309.947	-28.84
310.161	10.07
310.374	24.4
310.588	81.75
310.802	42.84
311.016	1.88
311.23	79.7
311.444	-45.23
311.658	34.64
311.872	-10.41
312.085	108.37
312.299	87.89
312.513	46.93
312.727	30.55
312.941	34.64
313.154	18.26
313.368	61.27
313.582	20.31
313.796	-4.27
314.009	91.99
314.223	10.07
314.437	1.88
314.651	34.64
314.864	5.97
315.078	12.12
315.292	-2.22
315.505	83.8
315.719	40.79
315.933	10.07
316.146	-30.89
316.36	12.12
316.573	75.6
316.787	59.22
317.001	28.5
317.214	26.45
317.428	75.6
317.641	22.36
317.855	18.26
318.068	51.03
318.282	61.27
318.495	10.07
318.709	59.22
318.922	12.12
319.136	108.37
319.349	36.69
319.563	-39.08
319.776	34.64
319.99	1.88
320.203	1.88
320.417	32.6
320.63	10.07
320.843	26.45
321.057	18.26
321.27	83.8
321.483	20.31
321.697	63.32
321.91	104.28
322.124	83.8
322.337	30.55
322.55	10.07
322.763	22.36
322.977	26.45
323.19	8.02
323.403	34.64
323.617	-18.6
323.83	38.74
324.043	34.64
324.256	104.28
324.469	-30.89
324.683	55.12
324.896	10.07
325.109	83.8
325.322	98.13
325.535	10.07
325.748	69.46
325.962	34.64
326.175	38.74
326.388	-8.36
326.601	55.12
326.814	81.75
327.027	42.84
327.24	-16.55
327.453	-22.7
327.666	55.12
327.879	22.36
328.092	44.88
328.305	59.22
328.518	46.93
328.731	-16.55
328.944	18.26
329.157	16.21
329.37	24.4
329.583	104.28
329.796	89.94
330.009	22.36
330.222	98.13
330.435	40.79
330.648	53.08
330.861	10.07
331.073	28.5
331.286	42.84
331.499	46.93
331.712	-47.27
331.925	-0.17
332.138	-34.99
332.35	59.22
332.563	36.69
332.776	12.12
332.989	-22.7
333.202	112.47
333.414	8.02
333.627	-6.31
333.84	28.5
334.053	3.93
334.265	42.84
334.478	-6.31
334.691	-6.31
334.903	3.93
335.116	-26.79
335.329	40.79
335.541	-30.89
335.754	42.84
335.966	55.12
336.179	83.8
336.392	-18.6
336.604	120.66
336.817	24.4
337.029	48.98
337.242	34.64
337.454	-8.36
337.667	12.12
337.88	59.22
338.092	59.22
338.305	42.84
338.517	-8.36
338.729	-28.84
338.942	87.89
339.154	30.55
339.367	51.03
339.579	55.12
339.792	20.31
340.004	55.12
340.217	77.65
340.429	32.6
340.641	32.6
340.854	28.5
341.066	10.07
341.278	77.65
341.491	118.61
341.703	5.97
341.915	-8.36
342.128	59.22
342.34	1.88
342.552	26.45
342.764	8.02
342.977	51.03
343.189	32.6
343.401	69.46
343.613	18.26
343.826	89.94
344.038	32.6
344.25	75.6
344.462	-0.17
344.674	14.17
344.886	38.74
345.099	85.84
345.311	42.84
345.523	1.88
345.735	-24.75
345.947	100.18
346.159	8.02
346.371	91.99
346.583	26.45
346.795	94.04
347.007	73.56
347.219	-2.22
347.431	-0.17
347.643	24.4
347.855	26.45
348.067	-10.41
348.279	22.36
348.491	-24.75
348.703	10.07
348.915	135
349.127	69.46
349.339	89.94
349.551	57.17
349.763	75.6
349.975	-14.51
350.187	96.08
350.399	14.17
350.61	57.17
350.822	12.12
351.034	-8.36
351.246	1.88
351.458	-34.99
351.669	24.4
351.881	112.47
352.093	147.28
352.305	-2.22
352.517	-14.51
352.728	55.12
352.94	-2.22
353.152	-4.27
353.363	3.93
353.575	102.23
353.787	73.56
353.999	57.17
354.21	116.56
354.422	-14.51
354.633	75.6
354.845	10.07
355.057	51.03
355.268	96.08
355.48	36.69
355.692	8.02
355.903	1.88
356.115	34.64
356.326	46.93
356.538	34.64
356.749	16.21
356.961	81.75
357.172	44.88
357.384	-4.27
357.595	81.75
357.807	44.88
358.018	8.02
358.23	12.12
358.441	22.36
358.653	-4.27
358.864	65.36
359.075	34.64
359.287	59.22
359.498	79.7
359.709	-22.7
359.921	59.22
360.132	112.47
360.344	108.37
360.555	28.5
360.766	89.94
360.977	40.79
361.189	71.51
361.4	34.64
361.611	-0.17
361.823	-41.13
362.034	36.69
362.245	42.84
362.456	18.26
362.667	67.41
362.879	87.89
363.09	8.02
363.301	104.28
363.512	40.79
363.723	89.94
363.935	-12.46
364.146	100.18
364.357	46.93
364.568	40.79
364.779	-10.41
364.99	75.6
365.201	28.5
365.412	114.52
365.623	8.02
365.834	-14.51
366.045	67.41
366.256	128.85
366.467	91.99
366.678	-0.17
366.889	18.26
367.1	75.6
367.311	69.46
367.522	24.4
367.733	-39.08
367.944	59.22
368.155	71.51
368.366	12.12
368.577	14.17
368.788	65.36
368.999	1.88
369.209	96.08
369.42	57.17
369.631	106.32
369.842	46.93
370.053	61.27
370.264	73.56
370.474	10.07
370.685	40.79
370.896	120.66
371.107	147.28
371.317	57.17
371.528	26.45
371.739	32.6
371.95	79.7
372.16	61.27
372.371	71.51
372.582	71.51
372.792	75.6
373.003	20.31
373.214	22.36
373.424	120.66
373.635	67.41
373.846	100.18
374.056	30.55
374.267	36.69
374.477	-47.27
374.688	48.98
374.898	44.88
375.109	-6.31
375.319	14.17
375.53	28.5
375.74	10.07
375.951	48.98
376.161	24.4
376.372	85.84
376.582	-16.55
376.793	67.41
377.003	38.74
377.214	-6.31
377.424	-14.51
377.635	83.8
377.845	26.45
378.055	20.31
378.266	-2.22
378.476	26.45
378.686	40.79
378.897	75.6
379.107	44.88
379.317	65.36
379.528	-18.6
379.738	34.64
379.948	18.26
380.158	130.9
380.369	-10.41
380.579	69.46
380.789	48.98
380.999	87.89
381.21	-12.46
381.42	106.32
381.63	8.02
381.84	18.26
382.05	98.13
382.261	137.04
382.471	91.99
382.681	46.93
382.891	96.08
383.101	18.26
383.311	-24.75
383.521	51.03
383.731	83.8
383.941	73.56
384.151	30.55
384.361	100.18
384.571	114.52
384.781	91.99
384.991	83.8
385.201	98.13
385.411	75.6
385.621	24.4
385.831	65.36
386.041	22.36
386.251	32.6
386.461	75.6
386.671	18.26
386.881	-28.84
387.091	77.65
387.301	75.6
387.511	100.18
387.72	126.8
387.93	94.04
388.14	48.98
388.35	67.41
388.56	48.98
388.769	57.17
388.979	61.27
389.189	59.22
389.399	20.31
389.609	75.6
389.818	91.99
390.028	89.94
390.238	-6.31
390.447	40.79
390.657	67.41
390.867	34.64
391.076	1.88
391.286	53.08
391.496	16.21
391.705	79.7
391.915	30.55
392.125	67.41
392.334	22.36
392.544	122.71
392.753	3.93
392.963	100.18
393.172	81.75
393.382	51.03
393.591	104.28
393.801	30.55
394.01	36.69
394.22	63.32
394.429	77.65
394.639	42.84
394.848	126.8
395.058	85.84
395.267	44.88
395.477	126.8
395.686	100.18
395.895	137.04
396.105	178
396.314	65.36
396.524	83.8
396.733	30.55
396.942	53.08
397.152	89.94
397.361	122.71
397.57	67.41
397.78	79.7
397.989	71.51
398.198	102.23
398.407	32.6
398.617	110.42
398.826	79.7
399.035	14.17
399.244	94.04
399.453	63.32
399.663	100.18
399.872	71.51
400.081	91.99
400.29	200.53
400.499	98.13
400.708	75.6
400.917	118.61
401.127	169.81
401.336	51.03
401.545	100.18
401.754	40.79
401.963	171.86
402.172	38.74
402.381	110.42
402.59	89.94
402.799	126.8
403.008	87.89
403.217	116.56
403.426	48.98
403.635	104.28
403.844	223.06
404.053	192.34
404.262	112.47
404.471	188.24
404.68	167.76
404.888	155.47
405.097	118.61
405.306	137.04
405.515	100.18
405.724	223.06
405.933	190.29
406.142	196.43
406.35	218.96
406.559	206.67
406.768	124.76
406.977	214.87
407.185	227.15
407.394	204.63
407.603	270.16
407.812	202.58
408.02	290.64
408.229	196.43
408.438	235.35
408.646	223.06
408.855	249.68
409.064	292.69
409.272	194.39
409.481	304.98
409.69	233.3
409.898	165.71
410.107	393.04
410.315	321.36
410.524	278.35
410.733	282.45
410.941	397.14
411.15	440.14
411.358	347.98
411.567	393.04
411.775	374.61
411.984	440.14
412.192	360.27
412.401	427.85
412.609	474.96
412.818	507.73
413.026	454.48
413.234	579.4
413.443	444.24
413.651	558.92
413.86	513.87
414.068	642.89
414.276	622.41
414.485	677.71
414.693	741.19
414.901	681.8
415.11	669.52
415.318	708.43
415.526	812.87
415.734	778.06
415.943	806.73
416.151	747.34
416.359	794.44
416.567	890.7
416.776	900.94
416.984	1007.43
417.192	1044.29
417.4	1023.81
417.608	968.52
417.817	1107.78
418.025	1081.16
418.233	1181.51
418.441	1204.03
418.649	1216.32
418.857	1351.49
419.065	1267.52
419.273	1222.47
419.481	1310.53
419.689	1509.18
419.897	1490.75
420.105	1500.99
420.313	1582.91
420.521	1603.39
420.729	1621.82
420.937	1732.41
421.145	1826.62
421.353	1773.37
421.561	1902.39
421.769	1996.6
421.977	2123.57
422.185	1920.82
422.393	2121.52
422.601	2221.88
422.809	2223.92
423.017	2336.56
423.224	2506.54
423.432	2586.41
423.64	2494.26
423.848	2762.54
424.056	2709.29
424.263	2940.71
424.471	2877.23
424.679	2778.92
424.887	3065.64
425.094	3174.18
425.302	3266.34
425.51	3292.96
425.718	3383.07
425.925	3421.99
426.133	3503.9
426.341	3770.14
426.548	4011.8
426.756	3944.22
426.964	4042.52
427.171	4224.79
427.379	4437.78
427.586	4376.34
427.794	4456.21
428.001	4833.04
428.209	4904.71
428.417	4802.32
428.624	5197.57
428.832	5209.86
429.039	5191.43
429.247	5123.85
429.454	5793.53
429.662	6053.62
429.869	5689.09
430.076	5973.75
430.284	6051.58
430.491	6141.69
430.699	6565.62
430.906	6545.14
431.114	6479.6
431.321	6842.09
431.528	7003.88
431.736	7446.24
431.943	7745.25
432.15	7501.54
432.358	7718.62
432.565	8068.83
432.772	8048.35
432.979	8345.3
433.187	8519.38
433.394	8406.74
433.601	9150.15
433.808	9037.52
434.016	9156.3
434.223	9557.7
434.43	10086.08
434.637	9797.31
434.844	10446.52
435.052	10589.88
435.259	10518.2
435.466	10581.68
435.673	10362.55
435.88	11048.62
436.087	11802.27
436.294	11955.87
436.501	11669.16
436.708	11761.31
436.915	12256.92
437.122	12607.12
437.329	12666.52
437.537	13086.35
437.743	13473.42
437.95	12873.36
438.157	13723.27
438.364	14503.54
438.571	14315.13
438.778	14483.06
438.985	15783.52
439.192	15048.3
439.399	15517.29
439.606	15169.13
439.813	16113.25
440.02	17426
440.227	16881.24
440.433	16604.76
440.64	17354.32
440.847	16698.97
441.054	17561.16
441.261	18488.89
441.467	18353.73
441.674	18947.64
441.881	19287.6
442.088	19095.09
442.294	19201.58
442.501	19830.31
442.708	20086.31
442.914	20813.34
443.121	21636.62
443.328	21169.68
443.534	22654.46
443.741	22048.26
443.948	21487.12
444.154	23256.56
444.361	23021.05
444.568	23416.3
444.774	23174.64
444.981	23549.42
445.187	24311.27
445.394	25247.19
445.6	25064.92
445.807	27284.92
446.013	25918.92
446.22	26736.06
446.426	27461.04
446.633	27731.37
446.839	28675.49
447.046	27319.73
447.252	28919.2
447.459	28888.48
447.665	29138.33
447.871	30080.39
448.078	31087.99
448.284	30092.68
448.491	31004.03
448.697	31874.41
448.903	32402.79
449.11	32281.96
449.316	32091.5
449.522	32433.51
449.728	33332.57
449.935	33389.91
450.141	33410.39
450.347	33877.33
450.553	33424.73
450.76	33371.48
450.966	34487.62
451.172	34448.71
451.378	35122.49
451.584	34221.39
451.791	34919.74
451.997	34620.74
452.203	35446.07
452.409	35460.41
452.615	35155.26
452.821	33813.84
453.027	33473.88
453.233	35296.57
453.44	33678.68
453.646	34368.84
453.852	34151.76
454.058	35153.21
454.264	33563.99
454.47	34356.55
454.676	33316.18
454.882	34921.79
455.088	31300.98
455.294	32064.88
455.5	32550.24
455.705	32965.98
455.911	31616.37
456.117	31278.46
456.323	30592.39
456.529	28747.17
456.735	29967.76
456.941	29089.18
457.147	29072.79
457.352	27938.22
457.558	27737.52
457.764	27719.09
457.97	27211.19
458.176	26441.15
458.381	26758.59
458.587	25126.36
458.793	25290.2
458.999	23987.69
459.204	25451.98
459.41	25079.25
459.616	23197.17
459.821	23191.03
460.027	23182.84
460.233	22699.51
460.438	21552.65
460.644	21960.2
460.85	20749.85
461.055	20669.98
461.261	20479.52
461.466	18959.92
461.672	18359.87
461.878	19611.18
462.083	18538.04
462.289	18163.26
462.494	17786.44
462.7	17034.83
462.905	16746.07
463.111	16977.49
463.316	17323.6
463.522	17059.41
463.727	17178.19
463.932	16881.24
464.138	16590.42
464.343	16950.87
464.549	16404.06
464.754	16807.51
464.959	16623.19
465.165	16692.82
465.37	16090.72
465.575	15488.62
465.781	16293.47
465.986	16225.89
466.191	15545.96
466.397	15222.38
466.602	14431.87
466.807	15191.66
467.012	14968.43
467.218	15005.3
467.423	15216.24
467.628	14988.91
