Data from USB4F104151__5__10-20-08-466.txt Node

Date: Wed Mar 12 10:20:08 EDT 2025
User: louis
Spectrometer: USB4F10415
Trigger mode: 4
Integration Time (sec): 3.000000E-2
Scans to average: 1
Electric dark correction enabled: true
Nonlinearity correction enabled: false
Boxcar width: 0
XAxis mode: Wavelengths
Number of Pixels in Spectrum: 3648
>>>>>Begin Spectral Data<<<<<
178.204	-83.8
178.424	-83.8
178.644	-83.8
178.864	-89.94
179.084	-67.41
179.304	8.36
179.524	-3.93
179.744	8.36
179.964	30.89
180.184	-20.31
180.404	-30.55
180.624	-38.74
180.844	55.47
181.064	-32.6
181.283	30.89
181.503	-40.79
181.723	32.94
181.943	-89.94
182.163	121
182.383	-44.88
182.602	-14.17
182.822	0.17
183.042	82.09
183.262	20.65
183.482	18.6
183.701	59.56
183.921	16.55
184.141	18.6
184.361	32.94
184.58	8.36
184.8	-28.5
185.02	6.31
185.239	34.99
185.459	10.41
185.679	41.13
185.898	-42.84
186.118	84.14
186.338	16.55
186.557	39.08
186.777	-26.45
186.997	-32.6
187.216	49.32
187.436	30.89
187.655	28.84
187.875	10.41
188.095	-24.4
188.314	131.24
188.534	51.37
188.753	-26.45
188.973	57.51
189.192	8.36
189.412	82.09
189.631	-57.17
189.851	-69.46
190.07	84.14
190.29	-3.93
190.509	47.27
190.729	-8.02
190.948	41.13
191.168	102.57
191.387	12.46
191.607	-71.51
191.826	-16.21
192.045	45.23
192.265	-28.5
192.484	34.99
192.704	47.27
192.923	-8.02
193.142	145.58
193.362	2.22
193.581	80.04
193.8	-16.21
194.02	67.75
194.239	-3.93
194.458	49.32
194.678	-12.12
194.897	34.99
195.116	96.43
195.335	20.65
195.555	6.31
195.774	37.03
195.993	112.81
196.212	110.76
196.432	24.75
196.651	-32.6
196.87	51.37
197.089	90.28
197.308	32.94
197.528	63.66
197.747	77.99
197.966	-28.5
198.185	18.6
198.404	32.94
198.623	8.36
198.842	16.55
199.062	32.94
199.281	96.43
199.5	41.13
199.719	-8.02
199.938	71.85
200.157	6.31
200.376	32.94
200.595	32.94
200.814	30.89
201.033	10.41
201.252	114.86
201.471	61.61
201.69	18.6
201.909	12.46
202.128	116.9
202.347	30.89
202.566	10.41
202.785	0.17
203.004	16.55
203.223	114.86
203.442	77.99
203.661	55.47
203.879	57.51
204.098	71.85
204.317	-34.64
204.536	63.66
204.755	-28.5
204.974	41.13
205.193	61.61
205.411	12.46
205.63	20.65
205.849	-32.6
206.068	32.94
206.287	86.19
206.505	102.57
206.724	-34.64
206.943	-10.07
207.162	6.31
207.381	8.36
207.599	-12.12
207.818	14.51
208.037	73.9
208.255	-24.4
208.474	6.31
208.693	4.27
208.911	47.27
209.13	41.13
209.349	12.46
209.567	-77.65
209.786	8.36
210.005	24.75
210.223	-24.4
210.442	-48.98
210.661	32.94
210.879	-12.12
211.098	73.9
211.316	30.89
211.535	41.13
211.753	10.41
211.972	-1.88
212.191	0.17
212.409	41.13
212.628	-8.02
212.846	-28.5
213.065	37.03
213.283	20.65
213.502	-30.55
213.72	-42.84
213.938	32.94
214.157	53.42
214.375	-30.55
214.594	77.99
214.812	45.23
215.031	24.75
215.249	-67.41
215.467	80.04
215.686	47.27
215.904	61.61
216.122	32.94
216.341	61.61
216.559	24.75
216.778	51.37
216.996	-3.93
217.214	71.85
217.432	-73.56
217.651	32.94
217.869	-14.17
218.087	22.7
218.306	-8.02
218.524	-10.07
218.742	69.8
218.96	53.42
219.179	16.55
219.397	65.71
219.615	43.18
219.833	55.47
220.051	2.22
220.27	10.41
220.488	73.9
220.706	-8.02
220.924	30.89
221.142	-14.17
221.36	32.94
221.578	-12.12
221.796	32.94
222.015	4.27
222.233	20.65
222.451	24.75
222.669	51.37
222.887	39.08
223.105	30.89
223.323	-5.97
223.541	59.56
223.759	61.61
223.977	-5.97
224.195	57.51
224.413	6.31
224.631	-28.5
224.849	34.99
225.067	59.56
225.285	22.7
225.503	-36.69
225.721	-65.36
225.939	-12.12
226.157	28.84
226.375	108.71
226.592	-16.21
226.81	-8.02
227.028	55.47
227.246	127.14
227.464	47.27
227.682	59.56
227.9	8.36
228.117	24.75
228.335	51.37
228.553	65.71
228.771	-40.79
228.989	20.65
229.206	86.19
229.424	82.09
229.642	41.13
229.86	-14.17
230.077	116.9
230.295	14.51
230.513	41.13
230.731	-1.88
230.948	20.65
231.166	28.84
231.384	71.85
231.601	65.71
231.819	43.18
232.037	69.8
232.254	14.51
232.472	24.75
232.689	-20.31
232.907	22.7
233.125	14.51
233.342	69.8
233.56	-65.36
233.777	-20.31
233.995	55.47
234.213	28.84
234.43	0.17
234.648	6.31
234.865	26.79
235.083	6.31
235.3	73.9
235.518	28.84
235.735	34.99
235.953	20.65
236.17	39.08
236.388	16.55
236.605	30.89
236.822	73.9
237.04	37.03
237.257	4.27
237.475	6.31
237.692	41.13
237.909	22.7
238.127	-1.88
238.344	20.65
238.562	55.47
238.779	47.27
238.996	-5.97
239.214	24.75
239.431	61.61
239.648	-46.93
239.865	24.75
240.083	34.99
240.3	47.27
240.517	0.17
240.735	-24.4
240.952	6.31
241.169	69.8
241.386	20.65
241.603	57.51
241.821	30.89
242.038	41.13
242.255	39.08
242.472	6.31
242.689	2.22
242.907	86.19
243.124	43.18
243.341	47.27
243.558	41.13
243.775	55.47
243.992	69.8
244.209	49.32
244.426	65.71
244.643	37.03
244.86	16.55
245.078	73.9
245.295	61.61
245.512	12.46
245.729	75.95
245.946	77.99
246.163	39.08
246.38	39.08
246.597	41.13
246.814	34.99
247.031	71.85
247.248	96.43
247.464	69.8
247.681	-69.46
247.898	-3.93
248.115	84.14
248.332	14.51
248.549	88.23
248.766	106.67
248.983	32.94
249.2	55.47
249.417	69.8
249.633	118.95
249.85	45.23
250.067	43.18
250.284	39.08
250.501	65.71
250.717	57.51
250.934	80.04
251.151	-24.4
251.368	-24.4
251.585	51.37
251.801	90.28
252.018	47.27
252.235	43.18
252.451	6.31
252.668	65.71
252.885	-1.88
253.102	45.23
253.318	-30.55
253.535	-1.88
253.752	20.65
253.968	86.19
254.185	4.27
254.401	71.85
254.618	59.56
254.835	-26.45
255.051	110.76
255.268	39.08
255.484	10.41
255.701	37.03
255.917	37.03
256.134	47.27
256.351	104.62
256.567	-20.31
256.784	30.89
257	30.89
257.217	20.65
257.433	82.09
257.65	55.47
257.866	67.75
258.082	-10.07
258.299	-26.45
258.515	55.47
258.732	-69.46
258.948	20.65
259.165	-38.74
259.381	-16.21
259.597	16.55
259.814	20.65
260.03	45.23
260.246	18.6
260.463	-48.98
260.679	49.32
260.895	32.94
261.112	123.05
261.328	-18.26
261.544	34.99
261.761	84.14
261.977	61.61
262.193	-87.89
262.409	22.7
262.626	0.17
262.842	69.8
263.058	8.36
263.274	55.47
263.49	61.61
263.707	30.89
263.923	51.37
264.139	-8.02
264.355	34.99
264.571	129.19
264.787	34.99
265.004	20.65
265.22	67.75
265.436	10.41
265.652	18.6
265.868	77.99
266.084	28.84
266.3	98.47
266.516	32.94
266.732	45.23
266.948	20.65
267.164	43.18
267.38	32.94
267.596	51.37
267.812	61.61
268.028	71.85
268.244	6.31
268.46	69.8
268.676	24.75
268.892	8.36
269.108	32.94
269.324	43.18
269.54	-16.21
269.756	32.94
269.972	18.6
270.188	75.95
270.403	45.23
270.619	28.84
270.835	57.51
271.051	47.27
271.267	32.94
271.483	-102.23
271.698	12.46
271.914	43.18
272.13	57.51
272.346	30.89
272.562	100.52
272.777	32.94
272.993	14.51
273.209	4.27
273.425	20.65
273.64	4.27
273.856	51.37
274.072	112.81
274.287	49.32
274.503	-16.21
274.719	-85.84
274.934	-32.6
275.15	-36.69
275.366	94.38
275.581	-24.4
275.797	4.27
276.012	45.23
276.228	55.47
276.444	49.32
276.659	12.46
276.875	-3.93
277.09	61.61
277.306	12.46
277.521	16.55
277.737	55.47
277.952	12.46
278.168	73.9
278.383	61.61
278.599	-24.4
278.814	30.89
279.03	22.7
279.245	112.81
279.461	-28.5
279.676	20.65
279.892	41.13
280.107	-12.12
280.322	-75.6
280.538	-12.12
280.753	-3.93
280.969	61.61
281.184	82.09
281.399	84.14
281.615	-65.36
281.83	102.57
282.045	-65.36
282.26	22.7
282.476	71.85
282.691	61.61
282.906	-48.98
283.122	8.36
283.337	2.22
283.552	82.09
283.767	8.36
283.983	22.7
284.198	4.27
284.413	18.6
284.628	12.46
284.843	110.76
285.058	12.46
285.274	80.04
285.489	22.7
285.704	16.55
285.919	-40.79
286.134	108.71
286.349	8.36
286.564	24.75
286.779	43.18
286.995	4.27
287.21	6.31
287.425	16.55
287.64	51.37
287.855	28.84
288.07	-8.02
288.285	73.9
288.5	51.37
288.715	77.99
288.93	-18.26
289.145	-3.93
289.36	45.23
289.575	88.23
289.79	12.46
290.004	28.84
290.219	16.55
290.434	-48.98
290.649	14.51
290.864	-3.93
291.079	73.9
291.294	30.89
291.509	-3.93
291.724	30.89
291.938	20.65
292.153	106.67
292.368	39.08
292.583	51.37
292.798	96.43
293.012	82.09
293.227	18.6
293.442	-42.84
293.657	49.32
293.871	63.66
294.086	45.23
294.301	57.51
294.516	49.32
294.73	6.31
294.945	30.89
295.16	-20.31
295.374	71.85
295.589	4.27
295.804	43.18
296.018	14.51
296.233	24.75
296.447	84.14
296.662	20.65
296.877	77.99
297.091	104.62
297.306	30.89
297.52	41.13
297.735	41.13
297.949	20.65
298.164	22.7
298.378	-20.31
298.593	57.51
298.807	-34.64
299.022	14.51
299.236	94.38
299.451	49.32
299.665	26.79
299.88	-24.4
300.094	82.09
300.309	-24.4
300.523	65.71
300.737	30.89
300.952	0.17
301.166	16.55
301.381	2.22
301.595	20.65
301.809	6.31
302.024	-30.55
302.238	8.36
302.452	47.27
302.667	28.84
302.881	49.32
303.095	24.75
303.309	45.23
303.524	67.75
303.738	-14.17
303.952	-38.74
304.166	59.56
304.381	28.84
304.595	67.75
304.809	2.22
305.023	14.51
305.237	-57.17
305.452	37.03
305.666	6.31
305.88	53.42
306.094	20.65
306.308	47.27
306.522	75.95
306.736	24.75
306.95	59.56
307.164	2.22
307.379	-24.4
307.593	73.9
307.807	14.51
308.021	18.6
308.235	32.94
308.449	-22.36
308.663	41.13
308.877	82.09
309.091	12.46
309.305	84.14
309.519	-61.27
309.733	18.6
309.947	96.43
310.161	77.99
310.374	63.66
310.588	71.85
310.802	49.32
311.016	14.51
311.23	16.55
311.444	4.27
311.658	24.75
311.872	53.42
312.085	82.09
312.299	-8.02
312.513	39.08
312.727	55.47
312.941	16.55
313.154	24.75
313.368	-18.26
313.582	-32.6
313.796	55.47
314.009	20.65
314.223	37.03
314.437	-20.31
314.651	57.51
314.864	-32.6
315.078	14.51
315.292	32.94
315.505	26.79
315.719	67.75
315.933	49.32
316.146	14.51
316.36	90.28
316.573	0.17
316.787	47.27
317.001	28.84
317.214	-14.17
317.428	6.31
317.641	8.36
317.855	-10.07
318.068	22.7
318.282	59.56
318.495	45.23
318.709	45.23
318.922	10.41
319.136	94.38
319.349	102.57
319.563	39.08
319.776	86.19
319.99	-20.31
320.203	22.7
320.417	4.27
320.63	8.36
320.843	49.32
321.057	59.56
321.27	106.67
321.483	8.36
321.697	51.37
321.91	69.8
322.124	118.95
322.337	65.71
322.55	39.08
322.763	-16.21
322.977	75.95
323.19	-12.12
323.403	55.47
323.617	51.37
323.83	45.23
324.043	53.42
324.256	6.31
324.469	4.27
324.683	127.14
324.896	82.09
325.109	-1.88
325.322	-59.22
325.535	63.66
325.748	37.03
325.962	-26.45
326.175	69.8
326.388	45.23
326.601	49.32
326.814	-1.88
327.027	45.23
327.24	104.62
327.453	10.41
327.666	75.95
327.879	24.75
328.092	77.99
328.305	-10.07
328.518	10.41
328.731	45.23
328.944	53.42
329.157	65.71
329.37	16.55
329.583	55.47
329.796	145.58
330.009	14.51
330.222	14.51
330.435	-20.31
330.648	20.65
330.861	30.89
331.073	37.03
331.286	32.94
331.499	49.32
331.712	8.36
331.925	4.27
332.138	-1.88
332.35	100.52
332.563	118.95
332.776	75.95
332.989	96.43
333.202	100.52
333.414	41.13
333.627	28.84
333.84	63.66
334.053	84.14
334.265	10.41
334.478	39.08
334.691	41.13
334.903	-30.55
335.116	67.75
335.329	20.65
335.541	8.36
335.754	34.99
335.966	-3.93
336.179	-8.02
336.392	41.13
336.604	4.27
336.817	71.85
337.029	20.65
337.242	28.84
337.454	55.47
337.667	-3.93
337.88	73.9
338.092	20.65
338.305	57.51
338.517	16.55
338.729	108.71
338.942	61.61
339.154	-28.5
339.367	-30.55
339.579	16.55
339.792	41.13
340.004	94.38
340.217	0.17
340.429	41.13
340.641	-12.12
340.854	28.84
341.066	114.86
341.278	102.57
341.491	57.51
341.703	18.6
341.915	16.55
342.128	20.65
342.34	37.03
342.552	63.66
342.764	2.22
342.977	20.65
343.189	69.8
343.401	71.85
343.613	0.17
343.826	-14.17
344.038	24.75
344.25	73.9
344.462	-20.31
344.674	80.04
344.886	84.14
345.099	16.55
345.311	57.51
345.523	8.36
345.735	-85.84
345.947	-1.88
346.159	80.04
346.371	39.08
346.583	20.65
346.795	82.09
347.007	22.7
347.219	63.66
347.431	61.61
347.643	92.33
347.855	-26.45
348.067	30.89
348.279	16.55
348.491	16.55
348.703	-69.46
348.915	-12.12
349.127	28.84
349.339	90.28
349.551	8.36
349.763	12.46
349.975	20.65
350.187	75.95
350.399	106.67
350.61	80.04
350.822	8.36
351.034	-5.97
351.246	41.13
351.458	4.27
351.669	75.95
351.881	45.23
352.093	102.57
352.305	30.89
352.517	12.46
352.728	106.67
352.94	92.33
353.152	57.51
353.363	-1.88
353.575	98.47
353.787	92.33
353.999	71.85
354.21	80.04
354.422	-3.93
354.633	12.46
354.845	65.71
355.057	71.85
355.268	49.32
355.48	98.47
355.692	41.13
355.903	-24.4
356.115	49.32
356.326	47.27
356.538	65.71
356.749	67.75
356.961	116.9
357.172	20.65
357.384	6.31
357.595	147.62
357.807	49.32
358.018	2.22
358.23	75.95
358.441	147.62
358.653	8.36
358.864	82.09
359.075	37.03
359.287	-10.07
359.498	100.52
359.709	84.14
359.921	116.9
360.132	20.65
360.344	131.24
360.555	14.51
360.766	37.03
360.977	20.65
361.189	22.7
361.4	63.66
361.611	0.17
361.823	98.47
362.034	24.75
362.245	57.51
362.456	49.32
362.667	12.46
362.879	77.99
363.09	28.84
363.301	92.33
363.512	51.37
363.723	41.13
363.935	63.66
364.146	32.94
364.357	73.9
364.568	-30.55
364.779	-65.36
364.99	143.53
365.201	49.32
365.412	49.32
365.623	24.75
365.834	28.84
366.045	28.84
366.256	86.19
366.467	106.67
366.678	57.51
366.889	24.75
367.1	71.85
367.311	123.05
367.522	-8.02
367.733	51.37
367.944	41.13
368.155	20.65
368.366	71.85
368.577	90.28
368.788	98.47
368.999	63.66
369.209	-8.02
369.42	106.67
369.631	88.23
369.842	61.61
370.053	-48.98
370.264	147.62
370.474	-3.93
370.685	6.31
370.896	47.27
371.107	67.75
371.317	73.9
371.528	10.41
371.739	86.19
371.95	108.71
372.16	137.38
372.371	84.14
372.582	4.27
372.792	18.6
373.003	114.86
373.214	73.9
373.424	49.32
373.635	-16.21
373.846	100.52
374.056	34.99
374.267	41.13
374.477	24.75
374.688	0.17
374.898	51.37
375.109	41.13
375.319	88.23
375.53	88.23
375.74	20.65
375.951	24.75
376.161	45.23
376.372	63.66
376.582	-5.97
376.793	172.2
377.003	80.04
377.214	86.19
377.424	45.23
377.635	22.7
377.845	14.51
378.055	118.95
378.266	63.66
378.476	-8.02
378.686	71.85
378.897	59.56
379.107	77.99
379.317	82.09
379.528	69.8
379.738	32.94
379.948	61.61
380.158	28.84
380.369	63.66
380.579	59.56
380.789	61.61
380.999	137.38
381.21	61.61
381.42	137.38
381.63	49.32
381.84	90.28
382.05	98.47
382.261	73.9
382.471	100.52
382.681	26.79
382.891	139.43
383.101	135.34
383.311	24.75
383.521	88.23
383.731	69.8
383.941	69.8
384.151	24.75
384.361	51.37
384.571	96.43
384.781	65.71
384.991	137.38
385.201	98.47
385.411	164.01
385.621	49.32
385.831	61.61
386.041	67.75
386.251	82.09
386.461	90.28
386.671	114.86
386.881	80.04
387.091	63.66
387.301	88.23
387.511	-8.02
387.72	45.23
387.93	6.31
388.14	71.85
388.35	41.13
388.56	137.38
388.769	51.37
388.979	88.23
389.189	88.23
389.399	127.14
389.609	104.62
389.818	28.84
390.028	34.99
390.238	88.23
390.447	10.41
390.657	133.29
390.867	49.32
391.076	-8.02
391.286	102.57
391.496	92.33
391.705	73.9
391.915	82.09
392.125	92.33
392.334	141.48
392.544	20.65
392.753	104.62
392.963	32.94
393.172	41.13
393.382	39.08
393.591	194.73
393.801	32.94
394.01	145.58
394.22	121
394.429	49.32
394.639	12.46
394.848	61.61
395.058	49.32
395.267	59.56
395.477	84.14
395.686	88.23
395.895	77.99
396.105	190.63
396.314	71.85
396.524	96.43
396.733	98.47
396.942	135.34
397.152	139.43
397.361	98.47
397.57	28.84
397.78	67.75
397.989	75.95
398.198	155.82
398.407	110.76
398.617	90.28
398.826	147.62
399.035	135.34
399.244	69.8
399.453	53.42
399.663	123.05
399.872	123.05
400.081	151.72
400.29	125.1
400.499	133.29
400.708	118.95
400.917	110.76
401.127	125.1
401.336	141.48
401.545	153.77
401.754	186.54
401.963	143.53
402.172	100.52
402.381	73.9
402.59	151.72
402.799	153.77
403.008	151.72
403.217	161.96
403.426	88.23
403.635	209.06
403.844	137.38
404.053	127.14
404.262	123.05
404.471	174.25
404.68	194.73
404.888	106.67
405.097	157.86
405.306	161.96
405.515	174.25
405.724	98.47
405.933	155.82
406.142	219.3
406.35	207.02
406.559	106.67
406.768	204.97
406.977	186.54
407.185	106.67
407.394	282.79
407.603	204.97
407.812	313.51
408.02	235.69
408.229	333.99
408.438	243.88
408.646	235.69
408.855	204.97
409.064	299.17
409.272	346.28
409.481	258.21
409.69	270.5
409.898	254.12
410.107	315.56
410.315	327.85
410.524	377
410.733	360.61
410.941	473.25
411.15	415.91
411.358	389.28
411.567	434.34
411.775	389.28
411.984	420
412.192	469.16
412.401	411.81
412.609	551.07
412.818	534.69
413.026	532.64
413.234	499.88
413.443	524.45
413.651	510.11
413.86	579.75
414.068	694.43
414.276	712.86
414.485	669.86
414.693	696.48
414.901	753.82
415.11	733.34
415.318	700.58
415.526	741.54
415.734	817.31
415.943	897.18
416.151	960.67
416.359	938.14
416.567	915.61
416.776	1001.63
416.984	962.72
417.192	1089.69
417.4	1130.65
417.608	1089.69
417.817	1122.46
418.025	1243.29
418.233	1321.11
418.441	1376.41
418.649	1329.3
418.857	1321.11
419.065	1366.17
419.273	1466.52
419.481	1560.72
419.689	1546.39
419.897	1704.08
420.105	1601.68
420.313	1712.27
420.521	1808.53
420.729	1716.37
420.937	1816.72
421.145	1966.22
421.353	1994.89
421.561	2107.53
421.769	2103.43
421.977	2259.08
422.185	2341
422.393	2408.58
422.601	2566.28
422.809	2543.75
423.017	2472.07
423.224	2660.48
423.432	2744.45
423.64	2797.7
423.848	2869.37
424.056	2936.96
424.263	3203.19
424.471	2930.81
424.679	3276.92
424.887	3299.45
425.094	3387.51
425.302	3563.64
425.51	3588.21
425.718	3627.12
425.925	3627.12
426.133	3883.12
426.341	3924.08
426.548	4286.57
426.756	4300.91
426.964	4307.05
427.171	4628.58
427.379	4778.08
427.586	4706.4
427.794	4915.3
428.001	5148.76
428.209	5304.41
428.417	5300.31
428.624	5562.45
428.832	5791.83
429.039	5648.47
429.247	5654.61
429.454	6168.65
429.662	6588.49
429.869	6029.39
430.076	6586.44
430.284	6434.89
430.491	6674.5
430.699	6993.98
430.906	7190.59
431.114	7106.62
431.321	7458.87
431.528	7530.55
431.736	7864.37
431.943	8718.37
432.15	8001.58
432.358	8333.36
432.565	8699.94
432.772	8693.8
432.979	9164.83
433.187	9300
433.394	9269.28
433.601	9746.45
433.808	9648.15
434.016	9951.25
434.223	10375.18
434.43	10842.12
434.637	10629.13
434.844	11186.18
435.052	11530.23
435.259	11290.62
435.466	11464.7
435.673	11472.89
435.88	12423.15
436.087	12763.11
436.294	13152.23
436.501	12437.48
436.708	12916.71
436.915	13314.02
437.122	13696.99
437.329	13727.71
437.537	14141.39
437.743	14489.55
437.95	14286.8
438.157	15028.17
438.364	15488.96
438.571	15845.3
438.778	15699.9
438.985	17246.12
439.192	16514.99
439.399	16813.99
439.606	16361.39
439.813	17799.07
440.02	18642.83
440.227	18343.83
440.433	18075.54
440.64	18669.45
440.847	18761.61
441.054	19281.8
441.261	20184.95
441.467	20359.03
441.674	20518.77
441.881	21122.92
442.088	20887.4
442.294	20711.28
442.501	21606.24
442.708	21923.68
442.914	22740.82
443.121	23832.38
443.328	23273.29
443.534	24799.02
443.741	23975.74
443.948	23775.04
444.154	25272.11
444.361	25159.47
444.568	25347.88
444.774	25292.58
444.981	25696.03
445.187	26224.41
445.394	27449.1
445.6	27221.77
445.807	29546.22
446.013	28223.23
446.22	29093.61
446.426	29943.52
446.633	30369.5
446.839	31026.9
447.046	30101.22
447.252	31862.47
447.459	31342.28
447.665	31377.1
447.871	33042.1
448.078	34191.01
448.284	32605.88
448.491	33441.45
448.697	34373.28
448.903	35118.74
449.11	35458.7
449.316	34780.82
449.522	35419.79
449.728	36005.51
449.935	36818.55
450.141	36220.55
450.347	37504.62
450.553	36114.05
450.76	36562.56
450.966	37377.65
451.172	37197.43
451.378	38110.82
451.584	37060.21
451.791	38336.1
451.997	37731.95
452.203	38817.37
452.409	38360.67
452.615	38583.9
452.821	36777.59
453.027	36507.26
453.233	38692.44
453.44	36845.18
453.646	37103.22
453.852	37422.7
454.058	37906.02
454.264	36357.76
454.47	37205.62
454.676	36511.36
454.882	37738.09
455.088	34674.33
455.294	34995.86
455.5	35192.47
455.705	35858.06
455.911	34014.88
456.117	33412.78
456.323	33283.76
456.529	31516.36
456.735	32794.29
456.941	31938.24
457.147	31067.86
457.352	30404.31
457.558	30144.22
457.764	29923.04
457.97	29308.65
458.176	28858.1
458.381	28735.22
458.587	27461.38
458.793	27412.23
458.999	26054.43
459.204	27633.41
459.41	26996.49
459.616	25155.37
459.821	25233.19
460.027	25321.26
460.233	24710.96
460.438	23365.45
460.644	23471.94
460.85	22458.2
461.055	22163.29
461.261	22181.72
461.466	20402.04
461.672	20176.76
461.878	21305.19
462.083	20170.61
462.289	19511.17
462.494	19378.05
462.7	18489.23
462.905	18046.87
463.111	18694.03
463.316	18599.82
463.522	18513.81
463.727	18499.47
463.932	18399.12
464.138	18227.09
464.343	18294.68
464.549	17792.92
464.754	18468.75
464.959	18241.43
465.165	18196.37
465.37	17512.35
465.575	16797.61
465.781	17592.22
465.986	17778.59
466.191	17153.96
466.397	16560.05
466.602	15978.42
466.807	16471.98
467.012	16547.76
467.218	16678.83
467.423	16248.75
467.628	16347.06
