Data from USB4F104151__53__10-23-42-824.txt Node

Date: Wed Mar 12 10:23:42 EDT 2025
User: louis
Spectrometer: USB4F10415
Trigger mode: 4
Integration Time (sec): 3.000000E-2
Scans to average: 1
Electric dark correction enabled: true
Nonlinearity correction enabled: false
Boxcar width: 0
XAxis mode: Wavelengths
Number of Pixels in Spectrum: 3648
>>>>>Begin Spectral Data<<<<<
178.204	-42.5
178.424	-42.5
178.644	-42.5
178.864	-65.02
179.084	-93.69
179.304	29.18
179.524	-19.97
179.744	37.38
179.964	-36.35
180.184	-19.97
180.404	64
180.624	29.18
180.844	57.86
181.064	-65.02
181.283	-17.92
181.503	-36.35
181.723	-22.02
181.943	0.51
182.163	80.38
182.383	-71.17
182.602	88.57
182.822	141.82
183.042	68.09
183.262	29.18
183.482	16.9
183.701	-11.78
183.921	37.38
184.141	-3.58
184.361	18.94
184.58	104.96
184.8	-34.3
185.02	8.7
185.239	8.7
185.459	84.48
185.679	-5.63
185.898	59.9
186.118	92.67
186.338	100.86
186.557	37.38
186.777	-3.58
186.997	68.09
187.216	43.52
187.436	27.14
187.655	49.66
187.875	47.62
188.095	45.57
188.314	139.77
188.534	27.14
188.753	-28.16
188.973	-54.78
189.192	78.33
189.412	-9.73
189.631	0.51
189.851	29.18
190.07	123.39
190.29	27.14
190.509	8.7
190.729	57.86
190.948	86.53
191.168	131.58
191.387	37.38
191.607	68.09
191.826	57.86
192.045	0.51
192.265	49.66
192.484	16.9
192.704	57.86
192.923	12.8
193.142	39.42
193.362	-3.58
193.581	53.76
193.8	27.14
194.02	121.34
194.239	8.7
194.458	-9.73
194.678	43.52
194.897	4.61
195.116	45.57
195.335	94.72
195.555	-13.82
195.774	94.72
195.993	41.47
196.212	18.94
196.432	94.72
196.651	27.14
196.87	-24.06
197.089	137.73
197.308	20.99
197.528	-9.73
197.747	-19.97
197.966	27.14
198.185	59.9
198.404	4.61
198.623	82.43
198.842	61.95
199.062	53.76
199.281	49.66
199.5	68.09
199.719	70.14
199.938	82.43
200.157	94.72
200.376	29.18
200.595	41.47
200.814	74.24
201.033	29.18
201.252	90.62
201.471	59.9
201.69	84.48
201.909	25.09
202.128	14.85
202.347	66.05
202.566	12.8
202.785	-38.4
203.004	37.38
203.223	0.51
203.442	47.62
203.661	37.38
203.879	-1.54
204.098	43.52
204.317	-17.92
204.536	133.63
204.755	-9.73
204.974	33.28
205.193	16.9
205.411	139.77
205.63	90.62
205.849	72.19
206.068	4.61
206.287	0.51
206.505	78.33
206.724	53.76
206.943	20.99
207.162	10.75
207.381	80.38
207.599	41.47
207.818	45.57
208.037	86.53
208.255	4.61
208.474	74.24
208.693	61.95
208.911	39.42
209.13	68.09
209.349	4.61
209.567	4.61
209.786	84.48
210.005	25.09
210.223	-7.68
210.442	12.8
210.661	45.57
210.879	14.85
211.098	27.14
211.316	43.52
211.535	76.29
211.753	70.14
211.972	2.56
212.191	10.75
212.409	37.38
212.628	27.14
212.846	4.61
213.065	98.81
213.283	68.09
213.502	27.14
213.72	27.14
213.938	25.09
214.157	6.66
214.375	59.9
214.594	-1.54
214.812	8.7
215.031	61.95
215.249	43.52
215.467	12.8
215.686	49.66
215.904	51.71
216.122	-3.58
216.341	78.33
216.559	37.38
216.778	86.53
216.996	86.53
217.214	68.09
217.432	2.56
217.651	0.51
217.869	74.24
218.087	-24.06
218.306	4.61
218.524	39.42
218.742	78.33
218.96	18.94
219.179	45.57
219.397	25.09
219.615	53.76
219.833	12.8
220.051	6.66
220.27	66.05
220.488	4.61
220.706	-5.63
220.924	-3.58
221.142	-11.78
221.36	49.66
221.578	47.62
221.796	43.52
222.015	70.14
222.233	41.47
222.451	16.9
222.669	4.61
222.887	94.72
223.105	12.8
223.323	23.04
223.541	35.33
223.759	45.57
223.977	33.28
224.195	8.7
224.413	68.09
224.631	41.47
224.849	20.99
225.067	150.01
225.285	-3.58
225.503	66.05
225.721	-24.06
225.939	-32.26
226.157	-9.73
226.375	49.66
226.592	53.76
226.81	-9.73
227.028	45.57
227.246	59.9
227.464	10.75
227.682	72.19
227.9	27.14
228.117	57.86
228.335	2.56
228.553	35.33
228.771	33.28
228.989	82.43
229.206	98.81
229.424	47.62
229.642	78.33
229.86	86.53
230.077	90.62
230.295	-44.54
230.513	20.99
230.731	4.61
230.948	94.72
231.166	47.62
231.384	20.99
231.601	31.23
231.819	37.38
232.037	68.09
232.254	37.38
232.472	-17.92
232.689	-7.68
232.907	37.38
233.125	61.95
233.342	31.23
233.56	-56.83
233.777	20.99
233.995	-40.45
234.213	6.66
234.43	43.52
234.648	-11.78
234.865	0.51
235.083	6.66
235.3	45.57
235.518	72.19
235.735	10.75
235.953	68.09
236.17	51.71
236.388	37.38
236.605	90.62
236.822	33.28
237.04	33.28
237.257	2.56
237.475	-15.87
237.692	49.66
237.909	107.01
238.127	-46.59
238.344	129.53
238.562	43.52
238.779	-11.78
238.996	6.66
239.214	16.9
239.431	0.51
239.648	57.86
239.865	27.14
240.083	59.9
240.3	53.76
240.517	18.94
240.735	53.76
240.952	86.53
241.169	37.38
241.386	33.28
241.603	33.28
241.821	2.56
242.038	86.53
242.255	8.7
242.472	14.85
242.689	51.71
242.907	8.7
243.124	55.81
243.341	78.33
243.558	-1.54
243.775	-22.02
243.992	-15.87
244.209	29.18
244.426	47.62
244.643	61.95
244.86	20.99
245.078	70.14
245.295	20.99
245.512	2.56
245.729	8.7
245.946	37.38
246.163	12.8
246.38	66.05
246.597	37.38
246.814	16.9
247.031	29.18
247.248	-34.3
247.464	80.38
247.681	0.51
247.898	33.28
248.115	12.8
248.332	-15.87
248.549	16.9
248.766	61.95
248.983	96.77
249.2	20.99
249.417	10.75
249.633	-38.4
249.85	64
250.067	55.81
250.284	80.38
250.501	41.47
250.717	109.05
250.934	-32.26
251.151	2.56
251.368	-3.58
251.585	121.34
251.801	-19.97
252.018	-3.58
252.235	115.2
252.451	10.75
252.668	-15.87
252.885	94.72
253.102	29.18
253.318	53.76
253.535	-30.21
253.752	61.95
253.968	-40.45
254.185	43.52
254.401	-9.73
254.618	41.47
254.835	27.14
255.051	61.95
255.268	59.9
255.484	39.42
255.701	-7.68
255.917	2.56
256.134	12.8
256.351	-32.26
256.567	14.85
256.784	76.29
257	49.66
257.217	51.71
257.433	47.62
257.65	31.23
257.866	117.25
258.082	10.75
258.299	20.99
258.515	43.52
258.732	-52.74
258.948	37.38
259.165	23.04
259.381	35.33
259.597	35.33
259.814	59.9
260.03	-28.16
260.246	39.42
260.463	82.43
260.679	33.28
260.895	20.99
261.112	53.76
261.328	12.8
261.544	76.29
261.761	96.77
261.977	49.66
262.193	23.04
262.409	4.61
262.626	0.51
262.842	20.99
263.058	88.57
263.274	47.62
263.49	90.62
263.707	23.04
263.923	119.29
264.139	-19.97
264.355	43.52
264.571	64
264.787	90.62
265.004	121.34
265.22	-36.35
265.436	-1.54
265.652	45.57
265.868	53.76
266.084	29.18
266.3	12.8
266.516	-13.82
266.732	78.33
266.948	2.56
267.164	78.33
267.38	-24.06
267.596	82.43
267.812	92.67
268.028	4.61
268.244	76.29
268.46	55.81
268.676	41.47
268.892	33.28
269.108	-15.87
269.324	45.57
269.54	18.94
269.756	37.38
269.972	20.99
270.188	49.66
270.403	-17.92
270.619	-5.63
270.835	25.09
271.051	-15.87
271.267	-13.82
271.483	41.47
271.698	98.81
271.914	76.29
272.13	-22.02
272.346	31.23
272.562	6.66
272.777	94.72
272.993	78.33
273.209	-36.35
273.425	49.66
273.64	27.14
273.856	-1.54
274.072	37.38
274.287	14.85
274.503	88.57
274.719	92.67
274.934	10.75
275.15	107.01
275.366	27.14
275.581	29.18
275.797	31.23
276.012	98.81
276.228	-7.68
276.444	70.14
276.659	92.67
276.875	31.23
277.09	84.48
277.306	82.43
277.521	33.28
277.737	20.99
277.952	10.75
278.168	12.8
278.383	25.09
278.599	92.67
278.814	86.53
279.03	111.1
279.245	12.8
279.461	37.38
279.676	111.1
279.892	-30.21
280.107	39.42
280.322	-38.4
280.538	45.57
280.753	6.66
280.969	14.85
281.184	66.05
281.399	61.95
281.615	78.33
281.83	25.09
282.045	16.9
282.26	29.18
282.476	33.28
282.691	53.76
282.906	104.96
283.122	47.62
283.337	0.51
283.552	33.28
283.767	12.8
283.983	51.71
284.198	47.62
284.413	88.57
284.628	0.51
284.843	27.14
285.058	84.48
285.274	61.95
285.489	6.66
285.704	4.61
285.919	-3.58
286.134	-3.58
286.349	-44.54
286.564	6.66
286.779	70.14
286.995	55.81
287.21	-65.02
287.425	59.9
287.64	-26.11
287.855	78.33
288.07	20.99
288.285	41.47
288.5	23.04
288.715	23.04
288.93	90.62
289.145	10.75
289.36	23.04
289.575	100.86
289.79	78.33
290.004	10.75
290.219	4.61
290.434	-42.5
290.649	29.18
290.864	94.72
291.079	41.47
291.294	-9.73
291.509	29.18
291.724	78.33
291.938	98.81
292.153	55.81
292.368	41.47
292.583	59.9
292.798	94.72
293.012	23.04
293.227	41.47
293.442	47.62
293.657	51.71
293.871	133.63
294.086	51.71
294.301	123.39
294.516	68.09
294.73	84.48
294.945	8.7
295.16	100.86
295.374	68.09
295.589	53.76
295.804	12.8
296.018	57.86
296.233	25.09
296.447	53.76
296.662	41.47
296.877	86.53
297.091	100.86
297.306	14.85
297.52	37.38
297.735	74.24
297.949	-24.06
298.164	-38.4
298.378	0.51
298.593	33.28
298.807	4.61
299.022	80.38
299.236	45.57
299.451	0.51
299.665	-19.97
299.88	29.18
300.094	88.57
300.309	115.2
300.523	29.18
300.737	39.42
300.952	-13.82
301.166	29.18
301.381	25.09
301.595	47.62
301.809	8.7
302.024	90.62
302.238	-54.78
302.452	154.11
302.667	12.8
302.881	74.24
303.095	45.57
303.309	70.14
303.524	61.95
303.738	-3.58
303.952	4.61
304.166	41.47
304.381	53.76
304.595	72.19
304.809	-1.54
305.023	20.99
305.237	57.86
305.452	61.95
305.666	90.62
305.88	49.66
306.094	115.2
306.308	66.05
306.522	29.18
306.736	127.49
306.95	55.81
307.164	76.29
307.379	66.05
307.593	33.28
307.807	123.39
308.021	23.04
308.235	47.62
308.449	57.86
308.663	20.99
308.877	107.01
309.091	27.14
309.305	66.05
309.519	39.42
309.733	6.66
309.947	12.8
310.161	33.28
310.374	49.66
310.588	61.95
310.802	57.86
311.016	41.47
311.23	61.95
311.444	41.47
311.658	-24.06
311.872	23.04
312.085	102.91
312.299	37.38
312.513	37.38
312.727	64
312.941	-5.63
313.154	-3.58
313.368	78.33
313.582	66.05
313.796	41.47
314.009	6.66
314.223	113.15
314.437	70.14
314.651	70.14
314.864	57.86
315.078	61.95
315.292	-11.78
315.505	53.76
315.719	4.61
315.933	47.62
316.146	27.14
316.36	4.61
316.573	86.53
316.787	49.66
317.001	27.14
317.214	76.29
317.428	53.76
317.641	8.7
317.855	88.57
318.068	59.9
318.282	4.61
318.495	37.38
318.709	20.99
318.922	23.04
319.136	47.62
319.349	131.58
319.563	59.9
319.776	27.14
319.99	-19.97
320.203	-11.78
320.417	27.14
320.63	57.86
320.843	166.4
321.057	59.9
321.27	61.95
321.483	100.86
321.697	127.49
321.91	23.04
322.124	43.52
322.337	-17.92
322.55	25.09
322.763	43.52
322.977	39.42
323.19	55.81
323.403	109.05
323.617	29.18
323.83	78.33
324.043	20.99
324.256	80.38
324.469	78.33
324.683	98.81
324.896	18.94
325.109	61.95
325.322	0.51
325.535	92.67
325.748	12.8
325.962	10.75
326.175	127.49
326.388	45.57
326.601	102.91
326.814	76.29
327.027	57.86
327.24	23.04
327.453	27.14
327.666	98.81
327.879	41.47
328.092	102.91
328.305	70.14
328.518	27.14
328.731	53.76
328.944	74.24
329.157	-24.06
329.37	-22.02
329.583	14.85
329.796	25.09
330.009	8.7
330.222	125.44
330.435	18.94
330.648	27.14
330.861	47.62
331.073	37.38
331.286	43.52
331.499	51.71
331.712	2.56
331.925	-17.92
332.138	-19.97
332.35	76.29
332.563	78.33
332.776	113.15
332.989	66.05
333.202	-28.16
333.414	37.38
333.627	-11.78
333.84	70.14
334.053	82.43
334.265	33.28
334.478	88.57
334.691	53.76
334.903	74.24
335.116	29.18
335.329	115.2
335.541	31.23
335.754	74.24
335.966	61.95
336.179	76.29
336.392	53.76
336.604	35.33
336.817	82.43
337.029	37.38
337.242	-7.68
337.454	104.96
337.667	64
337.88	76.29
338.092	53.76
338.305	29.18
338.517	43.52
338.729	96.77
338.942	61.95
339.154	80.38
339.367	41.47
339.579	70.14
339.792	137.73
340.004	129.53
340.217	29.18
340.429	43.52
340.641	33.28
340.854	49.66
341.066	98.81
341.278	-15.87
341.491	164.35
341.703	82.43
341.915	70.14
342.128	70.14
342.34	20.99
342.552	51.71
342.764	78.33
342.977	72.19
343.189	47.62
343.401	123.39
343.613	72.19
343.826	66.05
344.038	74.24
344.25	80.38
344.462	16.9
344.674	141.82
344.886	70.14
345.099	6.66
345.311	57.86
345.523	78.33
345.735	-11.78
345.947	80.38
346.159	4.61
346.371	78.33
346.583	135.68
346.795	121.34
347.007	23.04
347.219	88.57
347.431	37.38
347.643	49.66
347.855	43.52
348.067	102.91
348.279	51.71
348.491	47.62
348.703	51.71
348.915	92.67
349.127	61.95
349.339	68.09
349.551	-5.63
349.763	113.15
349.975	68.09
350.187	59.9
350.399	78.33
350.61	70.14
350.822	37.38
351.034	94.72
351.246	82.43
351.458	84.48
351.669	29.18
351.881	80.38
352.093	45.57
352.305	121.34
352.517	74.24
352.728	86.53
352.94	45.57
353.152	61.95
353.363	-58.88
353.575	88.57
353.787	102.91
353.999	72.19
354.21	70.14
354.422	29.18
354.633	43.52
354.845	70.14
355.057	76.29
355.268	41.47
355.48	76.29
355.692	78.33
355.903	12.8
356.115	14.85
356.326	45.57
356.538	102.91
356.749	68.09
356.961	96.77
357.172	135.68
357.384	49.66
357.595	94.72
357.807	-22.02
358.018	-9.73
358.23	33.28
358.441	78.33
358.653	96.77
358.864	12.8
359.075	92.67
359.287	70.14
359.498	96.77
359.709	49.66
359.921	127.49
360.132	92.67
360.344	98.81
360.555	107.01
360.766	20.99
360.977	88.57
361.189	61.95
361.4	-3.58
361.611	61.95
361.823	115.2
362.034	45.57
362.245	55.81
362.456	29.18
362.667	64
362.879	35.33
363.09	84.48
363.301	78.33
363.512	49.66
363.723	86.53
363.935	37.38
364.146	64
364.357	74.24
364.568	127.49
364.779	76.29
364.99	102.91
365.201	27.14
365.412	12.8
365.623	61.95
365.834	94.72
366.045	35.33
366.256	20.99
366.467	74.24
366.678	27.14
366.889	45.57
367.1	100.86
367.311	53.76
367.522	70.14
367.733	143.87
367.944	107.01
368.155	41.47
368.366	45.57
368.577	117.25
368.788	98.81
368.999	14.85
369.209	57.86
369.42	82.43
369.631	127.49
369.842	80.38
370.053	47.62
370.264	117.25
370.474	98.81
370.685	127.49
370.896	66.05
371.107	107.01
371.317	100.86
371.528	55.81
371.739	107.01
371.95	102.91
372.16	43.52
372.371	49.66
372.582	-1.54
372.792	82.43
373.003	109.05
373.214	70.14
373.424	10.75
373.635	-15.87
373.846	96.77
374.056	78.33
374.267	27.14
374.477	-5.63
374.688	119.29
374.898	94.72
375.109	10.75
375.319	33.28
375.53	31.23
375.74	16.9
375.951	147.97
376.161	111.1
376.372	74.24
376.582	-3.58
376.793	94.72
377.003	55.81
377.214	0.51
377.424	107.01
377.635	90.62
377.845	53.76
378.055	64
378.266	39.42
378.476	33.28
378.686	80.38
378.897	49.66
379.107	123.39
379.317	121.34
379.528	29.18
379.738	190.97
379.948	45.57
380.158	113.15
380.369	68.09
380.579	111.1
380.789	-1.54
380.999	84.48
381.21	125.44
381.42	135.68
381.63	29.18
381.84	133.63
382.05	76.29
382.261	47.62
382.471	61.95
382.681	113.15
382.891	131.58
383.101	61.95
383.311	20.99
383.521	84.48
383.731	49.66
383.941	70.14
384.151	102.91
384.361	109.05
384.571	90.62
384.781	88.57
384.991	76.29
385.201	102.91
385.411	74.24
385.621	68.09
385.831	145.92
386.041	74.24
386.251	86.53
386.461	59.9
386.671	66.05
386.881	109.05
387.091	-5.63
387.301	66.05
387.511	92.67
387.72	68.09
387.93	76.29
388.14	6.66
388.35	117.25
388.56	125.44
388.769	41.47
388.979	143.87
389.189	37.38
389.399	82.43
389.609	25.09
389.818	41.47
390.028	10.75
390.238	137.73
390.447	12.8
390.657	41.47
390.867	119.29
391.076	84.48
391.286	-3.58
391.496	115.2
391.705	33.28
391.915	125.44
392.125	61.95
392.334	55.81
392.544	158.21
392.753	25.09
392.963	49.66
393.172	100.86
393.382	164.35
393.591	168.45
393.801	78.33
394.01	102.91
394.22	86.53
394.429	125.44
394.639	66.05
394.848	131.58
395.058	41.47
395.267	166.4
395.477	154.11
395.686	74.24
395.895	139.77
396.105	113.15
396.314	109.05
396.524	123.39
396.733	111.1
396.942	154.11
397.152	170.49
397.361	76.29
397.57	139.77
397.78	152.06
397.989	135.68
398.198	109.05
398.407	39.42
398.617	193.02
398.826	131.58
399.035	66.05
399.244	184.83
399.453	49.66
399.663	156.16
399.872	135.68
400.081	117.25
400.29	223.74
400.499	51.71
400.708	150.01
400.917	104.96
401.127	158.21
401.336	84.48
401.545	186.88
401.754	201.21
401.963	195.07
402.172	162.3
402.381	129.53
402.59	176.64
402.799	182.78
403.008	139.77
403.217	209.4
403.426	139.77
403.635	178.69
403.844	98.81
404.053	100.86
404.262	182.78
404.471	131.58
404.68	188.93
404.888	184.83
405.097	250.36
405.306	180.73
405.515	274.94
405.724	225.79
405.933	272.89
406.142	231.93
406.35	274.94
406.559	152.06
406.768	268.8
406.977	260.6
407.185	295.42
407.394	309.76
407.603	180.73
407.812	209.4
408.02	229.88
408.229	244.22
408.438	233.98
408.646	385.53
408.855	272.89
409.064	272.89
409.272	283.13
409.481	430.59
409.69	348.67
409.898	371.19
410.107	371.19
410.315	399.87
410.524	326.14
410.733	401.91
410.941	385.53
411.15	436.73
411.358	492.02
411.567	453.11
411.775	461.3
411.984	473.59
412.192	565.75
412.401	473.59
412.609	555.51
412.818	596.47
413.026	563.7
413.234	586.23
413.443	604.66
413.651	631.29
413.86	700.92
414.068	666.1
414.276	764.4
414.485	795.12
414.693	901.62
414.901	885.23
415.11	809.46
415.318	831.99
415.526	889.33
415.734	911.86
415.943	995.82
416.151	1018.35
416.359	938.48
416.567	999.92
416.776	1016.3
416.984	1143.28
417.192	1221.1
417.4	1145.33
417.608	1225.2
417.817	1262.06
418.025	1354.22
418.233	1442.28
418.441	1395.18
418.649	1436.14
418.857	1485.29
419.065	1587.69
419.273	1661.41
419.481	1540.58
419.689	1583.59
419.897	1862.12
420.105	1925.6
420.313	1876.45
420.521	1870.31
420.729	1845.73
420.937	2060.77
421.145	2062.82
421.353	2253.28
421.561	2308.57
421.769	2429.4
421.977	2365.92
422.185	2517.47
422.393	2611.67
422.601	2800.09
422.809	2703.83
423.017	2896.34
423.224	2703.83
423.432	3074.51
423.64	3006.93
423.848	3207.63
424.056	3238.35
424.263	3394
424.471	3408.33
424.679	3371.47
424.887	3697.1
425.094	3891.65
425.302	3772.87
425.51	3875.27
425.718	4092.35
425.925	4221.38
426.133	4141.5
426.341	4624.83
426.548	4669.88
426.756	4733.37
426.964	4848.05
427.171	5120.43
427.379	5116.34
427.586	5300.66
427.794	5355.95
428.001	5749.16
428.209	5935.53
428.417	5890.47
428.624	6238.62
428.832	6291.87
429.039	6087.08
429.247	6244.77
429.454	6869.4
429.662	7176.59
429.869	6803.86
430.076	7311.76
430.284	6932.89
430.491	7285.14
430.699	7825.8
430.906	7694.73
431.114	7922.06
431.321	8229.25
431.528	8399.23
431.736	8774.01
431.943	9177.46
432.15	9023.86
432.358	8962.42
432.565	9505.13
432.772	9427.31
432.979	10385.76
433.187	10101.09
433.394	9904.49
433.601	10965.34
433.808	10924.38
434.016	10971.48
434.223	11479.38
434.43	12079.43
434.637	11880.78
434.844	12448.07
435.052	12724.54
435.259	12548.42
435.466	12847.42
435.673	12552.51
435.88	13482.29
436.087	14006.57
436.294	14184.74
436.501	13738.29
436.708	14410.02
436.915	14424.36
437.122	15251.74
437.329	15225.11
437.537	15743.25
437.743	16089.35
437.95	15804.69
438.157	16695.55
438.364	17293.56
438.571	17056
438.778	16969.98
438.985	18659.56
439.192	18155.75
439.399	18649.32
439.606	18317.54
439.813	19200.22
440.02	20420.81
440.227	20050.13
440.433	19728.59
440.64	20828.35
440.847	20297.93
441.054	20867.27
441.261	22241.45
441.467	21995.7
441.674	22362.28
441.881	23349.4
442.088	22849.7
442.294	22923.43
442.501	23632.02
442.708	24060.05
442.914	25053.31
443.121	25741.43
443.328	24916.1
443.534	27068.51
443.741	26243.18
443.948	25917.56
444.154	27906.13
444.361	27605.08
444.568	27992.15
444.774	27848.79
444.981	28227.67
445.187	29167.68
445.394	30341.17
445.6	29710.39
445.807	32475.15
446.013	30978.09
446.22	31823.9
446.426	32786.44
446.633	33081.35
446.839	34342.9
447.046	32796.68
447.252	34779.12
447.459	34846.7
447.665	34469.87
447.871	36055
448.078	37289.93
448.284	35850.2
448.491	36632.53
448.697	38010.81
448.903	38481.84
449.11	38647.73
449.316	37885.89
449.522	38692.79
449.728	39806.88
449.935	40077.21
450.141	40236.95
450.347	40992.65
450.553	39536.55
450.76	40290.2
450.966	41080.72
451.172	40474.52
451.378	41953.15
451.584	40982.41
451.791	41916.29
451.997	41791.36
452.203	42624.89
452.409	42260.35
452.615	42391.42
452.821	40685.46
453.027	40294.3
453.233	42239.87
453.44	40607.64
453.646	40722.32
453.852	40970.13
454.058	41504.65
454.264	40322.97
454.47	41428.87
454.676	40177.56
454.882	40949.65
455.088	37785.54
455.294	38537.14
455.5	38950.83
455.705	39184.3
455.911	37713.86
456.117	37271.5
456.323	36302.81
456.529	34242.55
456.735	36227.03
456.941	35299.3
457.147	34602.99
457.352	33847.29
457.558	33460.23
457.764	33237
457.97	32522.26
458.176	31512.61
458.381	31811.61
458.587	30433.33
458.793	30543.92
458.999	28756.04
459.204	30562.35
459.41	30119.99
459.616	28135.51
459.821	28082.26
460.027	27797.59
460.233	27420.77
460.438	25917.56
460.644	26140.79
460.85	24957.06
461.055	24588.42
461.261	24952.96
461.466	22816.93
461.672	21858.48
461.878	23847.06
462.083	22325.42
462.289	21825.71
462.494	21508.28
462.7	20459.72
462.905	19941.58
463.111	20652.23
463.316	20928.7
463.522	20203.72
463.727	20519.11
463.932	20377.8
464.138	20324.55
464.343	20236.49
464.549	19448.02
464.754	20320.46
464.959	20101.33
465.165	20142.28
465.37	19251.42
465.575	18604.26
465.781	19275.99
465.986	19581.14
466.191	18645.22
466.397	18303.21
466.602	17422.58
466.807	18204.91
467.012	18252.01
467.218	18215.15
467.423	18311.4
467.628	18211.05
