Data from USB4F104151__253__10-39-44-309.txt Node

Date: Wed Mar 12 10:39:44 EDT 2025
User: louis
Spectrometer: USB4F10415
Trigger mode: 4
Integration Time (sec): 3.000000E-2
Scans to average: 1
Electric dark correction enabled: true
Nonlinearity correction enabled: false
Boxcar width: 0
XAxis mode: Wavelengths
Number of Pixels in Spectrum: 3648
>>>>>Begin Spectral Data<<<<<
178.204	-89.77
178.424	-89.77
178.644	-89.77
178.864	-93.87
179.084	-75.43
179.304	-50.86
179.524	-3.75
179.744	8.53
179.964	8.53
180.184	29.01
180.404	20.82
180.624	-5.8
180.844	-32.43
181.064	-48.81
181.283	26.96
181.503	20.82
181.723	26.96
181.943	-16.04
182.163	47.44
182.383	14.68
182.602	84.31
182.822	72.02
183.042	22.87
183.262	80.21
183.482	35.16
183.701	84.31
183.921	24.92
184.141	88.4
184.361	51.54
184.58	51.54
184.8	-9.9
185.02	-7.85
185.239	78.16
185.459	12.63
185.679	90.45
185.898	12.63
186.118	41.3
186.338	-13.99
186.557	29.01
186.777	45.4
186.997	4.44
187.216	26.96
187.436	139.6
187.655	10.58
187.875	16.73
188.095	-18.09
188.314	100.69
188.534	61.78
188.753	18.77
188.973	-9.9
189.192	135.51
189.412	112.98
189.631	12.63
189.851	65.88
190.07	102.74
190.29	-26.28
190.509	33.11
190.729	22.87
190.948	41.3
191.168	106.84
191.387	76.12
191.607	-42.67
191.826	22.87
192.045	35.16
192.265	63.83
192.484	2.39
192.704	49.49
192.923	16.73
193.142	168.27
193.362	94.55
193.581	102.74
193.8	94.55
194.02	31.06
194.239	31.06
194.458	8.53
194.678	37.2
194.897	67.92
195.116	-1.71
195.335	35.16
195.555	-18.09
195.774	94.55
195.993	39.25
196.212	-13.99
196.432	24.92
196.651	29.01
196.87	55.64
197.089	158.03
197.308	119.12
197.528	43.35
197.747	43.35
197.966	45.4
198.185	106.84
198.404	121.17
198.623	49.49
198.842	69.97
199.062	6.49
199.281	67.92
199.5	78.16
199.719	47.44
199.938	96.6
200.157	57.68
200.376	4.44
200.595	112.98
200.814	-50.86
201.033	37.2
201.252	129.36
201.471	-1.71
201.69	80.21
201.909	16.73
202.128	65.88
202.347	80.21
202.566	-50.86
202.785	-11.95
203.004	55.64
203.223	129.36
203.442	31.06
203.661	35.16
203.879	-24.23
204.098	37.2
204.317	14.68
204.536	51.54
204.755	127.32
204.974	16.73
205.193	20.82
205.411	102.74
205.63	-11.95
205.849	-22.19
206.068	129.36
206.287	16.73
206.505	45.4
206.724	104.79
206.943	-32.43
207.162	55.64
207.381	31.06
207.599	26.96
207.818	100.69
208.037	20.82
208.255	108.88
208.474	104.79
208.693	-20.14
208.911	-5.8
209.13	47.44
209.349	72.02
209.567	39.25
209.786	168.27
210.005	100.69
210.223	69.97
210.442	65.88
210.661	18.77
210.879	45.4
211.098	-24.23
211.316	49.49
211.535	123.22
211.753	-9.9
211.972	-9.9
212.191	35.16
212.409	153.94
212.628	37.2
212.846	-18.09
213.065	35.16
213.283	106.84
213.502	29.01
213.72	55.64
213.938	72.02
214.157	51.54
214.375	53.59
214.594	-20.14
214.812	78.16
215.031	104.79
215.249	31.06
215.467	-3.75
215.686	86.36
215.904	61.78
216.122	20.82
216.341	51.54
216.559	80.21
216.778	29.01
216.996	31.06
217.214	57.68
217.432	78.16
217.651	22.87
217.869	100.69
218.087	100.69
218.306	49.49
218.524	119.12
218.742	-3.75
218.96	84.31
219.179	72.02
219.397	51.54
219.615	35.16
219.833	74.07
220.051	-30.38
220.27	115.03
220.488	129.36
220.706	-46.76
220.924	53.59
221.142	-28.33
221.36	4.44
221.578	22.87
221.796	-32.43
222.015	49.49
222.233	29.01
222.451	80.21
222.669	61.78
222.887	94.55
223.105	53.59
223.323	51.54
223.541	24.92
223.759	55.64
223.977	84.31
224.195	80.21
224.413	102.74
224.631	57.68
224.849	35.16
225.067	178.51
225.285	53.59
225.503	53.59
225.721	22.87
225.939	96.6
226.157	55.64
226.375	188.75
226.592	55.64
226.81	35.16
227.028	24.92
227.246	59.73
227.464	51.54
227.682	-1.71
227.9	53.59
228.117	88.4
228.335	33.11
228.553	125.27
228.771	104.79
228.989	37.2
229.206	88.4
229.424	69.97
229.642	12.63
229.86	37.2
230.077	88.4
230.295	29.01
230.513	-30.38
230.731	55.64
230.948	88.4
231.166	110.93
231.384	-34.47
231.601	41.3
231.819	63.83
232.037	69.97
232.254	37.2
232.472	84.31
232.689	31.06
232.907	0.34
233.125	20.82
233.342	14.68
233.56	-32.43
233.777	51.54
233.995	-3.75
234.213	110.93
234.43	24.92
234.648	84.31
234.865	-34.47
235.083	80.21
235.3	45.4
235.518	90.45
235.735	86.36
235.953	-24.23
236.17	94.55
236.388	78.16
236.605	63.83
236.822	115.03
237.04	88.4
237.257	86.36
237.475	74.07
237.692	92.5
237.909	51.54
238.127	88.4
238.344	74.07
238.562	86.36
238.779	115.03
238.996	63.83
239.214	10.58
239.431	63.83
239.648	-97.96
239.865	88.4
240.083	10.58
240.3	2.39
240.517	-38.57
240.735	12.63
240.952	80.21
241.169	94.55
241.386	117.08
241.603	45.4
241.821	-7.85
242.038	147.8
242.255	10.58
242.472	-5.8
242.689	43.35
242.907	108.88
243.124	69.97
243.341	88.4
243.558	12.63
243.775	35.16
243.992	12.63
244.209	29.01
244.426	78.16
244.643	74.07
244.86	84.31
245.078	4.44
245.295	86.36
245.512	35.16
245.729	-20.14
245.946	35.16
246.163	4.44
246.38	-18.09
246.597	41.3
246.814	20.82
247.031	110.93
247.248	31.06
247.464	59.73
247.681	86.36
247.898	2.39
248.115	55.64
248.332	35.16
248.549	43.35
248.766	94.55
248.983	37.2
249.2	-16.04
249.417	110.93
249.633	29.01
249.85	90.45
250.067	61.78
250.284	22.87
250.501	45.4
250.717	53.59
250.934	-24.23
251.151	82.26
251.368	39.25
251.585	61.78
251.801	80.21
252.018	67.92
252.235	61.78
252.451	-9.9
252.668	94.55
252.885	137.56
253.102	39.25
253.318	49.49
253.535	10.58
253.752	24.92
253.968	55.64
254.185	-22.19
254.401	31.06
254.618	22.87
254.835	-13.99
255.051	88.4
255.268	8.53
255.484	61.78
255.701	69.97
255.917	106.84
256.134	8.53
256.351	51.54
256.567	43.35
256.784	59.73
257	82.26
257.217	94.55
257.433	94.55
257.65	6.49
257.866	39.25
258.082	-20.14
258.299	24.92
258.515	49.49
258.732	61.78
258.948	2.39
259.165	100.69
259.381	31.06
259.597	35.16
259.814	63.83
260.03	20.82
260.246	86.36
260.463	-3.75
260.679	14.68
260.895	45.4
261.112	35.16
261.328	41.3
261.544	22.87
261.761	82.26
261.977	43.35
262.193	88.4
262.409	119.12
262.626	43.35
262.842	67.92
263.058	-5.8
263.274	145.75
263.49	100.69
263.707	43.35
263.923	0.34
264.139	2.39
264.355	61.78
264.571	104.79
264.787	29.01
265.004	115.03
265.22	63.83
265.436	35.16
265.652	33.11
265.868	22.87
266.084	16.73
266.3	22.87
266.516	92.5
266.732	74.07
266.948	69.97
267.164	37.2
267.38	12.63
267.596	139.6
267.812	145.75
268.028	55.64
268.244	92.5
268.46	-24.23
268.676	53.59
268.892	84.31
269.108	-36.52
269.324	20.82
269.54	4.44
269.756	55.64
269.972	22.87
270.188	45.4
270.403	16.73
270.619	112.98
270.835	78.16
271.051	35.16
271.267	72.02
271.483	-3.75
271.698	-20.14
271.914	67.92
272.13	78.16
272.346	-5.8
272.562	63.83
272.777	45.4
272.993	88.4
273.209	35.16
273.425	67.92
273.64	2.39
273.856	104.79
274.072	55.64
274.287	37.2
274.503	145.75
274.719	16.73
274.934	51.54
275.15	-9.9
275.366	45.4
275.581	14.68
275.797	4.44
276.012	31.06
276.228	-26.28
276.444	26.96
276.659	67.92
276.875	-16.04
277.09	63.83
277.306	61.78
277.521	94.55
277.737	31.06
277.952	80.21
278.168	96.6
278.383	72.02
278.599	65.88
278.814	76.12
279.03	78.16
279.245	127.32
279.461	45.4
279.676	88.4
279.892	26.96
280.107	55.64
280.322	88.4
280.538	37.2
280.753	35.16
280.969	65.88
281.184	78.16
281.399	96.6
281.615	110.93
281.83	94.55
282.045	-9.9
282.26	8.53
282.476	14.68
282.691	100.69
282.906	-3.75
283.122	43.35
283.337	-9.9
283.552	88.4
283.767	92.5
283.983	67.92
284.198	137.56
284.413	78.16
284.628	0.34
284.843	47.44
285.058	94.55
285.274	43.35
285.489	24.92
285.704	78.16
285.919	31.06
286.134	16.73
286.349	14.68
286.564	26.96
286.779	18.77
286.995	45.4
287.21	24.92
287.425	51.54
287.64	24.92
287.855	-3.75
288.07	-26.28
288.285	88.4
288.5	55.64
288.715	53.59
288.93	74.07
289.145	6.49
289.36	110.93
289.575	69.97
289.79	31.06
290.004	-13.99
290.219	123.22
290.434	59.73
290.649	104.79
290.864	31.06
291.079	37.2
291.294	59.73
291.509	139.6
291.724	100.69
291.938	-5.8
292.153	117.08
292.368	-3.75
292.583	84.31
292.798	74.07
293.012	47.44
293.227	47.44
293.442	98.64
293.657	53.59
293.871	69.97
294.086	117.08
294.301	90.45
294.516	86.36
294.73	31.06
294.945	57.68
295.16	6.49
295.374	51.54
295.589	29.01
295.804	39.25
296.018	65.88
296.233	61.78
296.447	43.35
296.662	47.44
296.877	84.31
297.091	39.25
297.306	84.31
297.52	39.25
297.735	20.82
297.949	41.3
298.164	162.13
298.378	125.27
298.593	41.3
298.807	24.92
299.022	55.64
299.236	76.12
299.451	84.31
299.665	43.35
299.88	92.5
300.094	76.12
300.309	74.07
300.523	80.21
300.737	12.63
300.952	69.97
301.166	67.92
301.381	82.26
301.595	84.31
301.809	63.83
302.024	14.68
302.238	35.16
302.452	78.16
302.667	20.82
302.881	76.12
303.095	121.17
303.309	29.01
303.524	0.34
303.738	82.26
303.952	2.39
304.166	112.98
304.381	78.16
304.595	125.27
304.809	53.59
305.023	129.36
305.237	22.87
305.452	121.17
305.666	84.31
305.88	72.02
306.094	-34.47
306.308	41.3
306.522	12.63
306.736	63.83
306.95	110.93
307.164	22.87
307.379	110.93
307.593	80.21
307.807	43.35
308.021	158.03
308.235	-20.14
308.449	110.93
308.663	59.73
308.877	92.5
309.091	-5.8
309.305	59.73
309.519	57.68
309.733	82.26
309.947	31.06
310.161	92.5
310.374	47.44
310.588	100.69
310.802	29.01
311.016	37.2
311.23	74.07
311.444	76.12
311.658	20.82
311.872	67.92
312.085	92.5
312.299	108.88
312.513	29.01
312.727	61.78
312.941	96.6
313.154	65.88
313.368	-18.09
313.582	69.97
313.796	-3.75
314.009	67.92
314.223	125.27
314.437	55.64
314.651	41.3
314.864	39.25
315.078	100.69
315.292	-16.04
315.505	14.68
315.719	72.02
315.933	10.58
316.146	63.83
316.36	-1.71
316.573	63.83
316.787	47.44
317.001	84.31
317.214	37.2
317.428	12.63
317.641	72.02
317.855	108.88
318.068	78.16
318.282	47.44
318.495	69.97
318.709	86.36
318.922	33.11
319.136	53.59
319.349	84.31
319.563	-5.8
319.776	20.82
319.99	16.73
320.203	33.11
320.417	141.65
320.63	2.39
320.843	125.27
321.057	45.4
321.27	16.73
321.483	92.5
321.697	51.54
321.91	55.64
322.124	65.88
322.337	39.25
322.55	53.59
322.763	61.78
322.977	16.73
323.19	35.16
323.403	35.16
323.617	76.12
323.83	61.78
324.043	76.12
324.256	67.92
324.469	57.68
324.683	104.79
324.896	-16.04
325.109	26.96
325.322	29.01
325.535	108.88
325.748	63.83
325.962	65.88
326.175	35.16
326.388	117.08
326.601	43.35
326.814	37.2
327.027	47.44
327.24	168.27
327.453	-18.09
327.666	53.59
327.879	160.08
328.092	112.98
328.305	61.78
328.518	-9.9
328.731	-13.99
328.944	90.45
329.157	100.69
329.37	100.69
329.583	84.31
329.796	12.63
330.009	2.39
330.222	63.83
330.435	80.21
330.648	55.64
330.861	80.21
331.073	29.01
331.286	100.69
331.499	63.83
331.712	-30.38
331.925	88.4
332.138	67.92
332.35	121.17
332.563	61.78
332.776	110.93
332.989	57.68
333.202	96.6
333.414	119.12
333.627	115.03
333.84	35.16
334.053	45.4
334.265	-7.85
334.478	10.58
334.691	59.73
334.903	47.44
335.116	10.58
335.329	43.35
335.541	-13.99
335.754	37.2
335.966	102.74
336.179	123.22
336.392	53.59
336.604	110.93
336.817	119.12
337.029	63.83
337.242	74.07
337.454	67.92
337.667	72.02
337.88	129.36
338.092	117.08
338.305	39.25
338.517	10.58
338.729	88.4
338.942	147.8
339.154	-30.38
339.367	88.4
339.579	88.4
339.792	55.64
340.004	39.25
340.217	112.98
340.429	59.73
340.641	-42.67
340.854	-34.47
341.066	39.25
341.278	115.03
341.491	26.96
341.703	-18.09
341.915	51.54
342.128	14.68
342.34	-18.09
342.552	-18.09
342.764	61.78
342.977	33.11
343.189	117.08
343.401	57.68
343.613	37.2
343.826	135.51
344.038	45.4
344.25	35.16
344.462	72.02
344.674	88.4
344.886	104.79
345.099	104.79
345.311	-13.99
345.523	98.64
345.735	53.59
345.947	41.3
346.159	29.01
346.371	67.92
346.583	133.46
346.795	110.93
347.007	94.55
347.219	43.35
347.431	74.07
347.643	94.55
347.855	94.55
348.067	2.39
348.279	65.88
348.491	55.64
348.703	53.59
348.915	96.6
349.127	45.4
349.339	67.92
349.551	-22.19
349.763	92.5
349.975	-1.71
350.187	100.69
350.399	61.78
350.61	22.87
350.822	67.92
351.034	119.12
351.246	45.4
351.458	117.08
351.669	96.6
351.881	72.02
352.093	67.92
352.305	72.02
352.517	80.21
352.728	100.69
352.94	35.16
353.152	78.16
353.363	26.96
353.575	82.26
353.787	55.64
353.999	63.83
354.21	121.17
354.422	57.68
354.633	67.92
354.845	37.2
355.057	47.44
355.268	127.32
355.48	-18.09
355.692	84.31
355.903	-9.9
356.115	88.4
356.326	29.01
356.538	100.69
356.749	102.74
356.961	139.6
357.172	22.87
357.384	86.36
357.595	61.78
357.807	45.4
358.018	69.97
358.23	33.11
358.441	117.08
358.653	96.6
358.864	65.88
359.075	29.01
359.287	37.2
359.498	108.88
359.709	69.97
359.921	61.78
360.132	67.92
360.344	59.73
360.555	35.16
360.766	53.59
360.977	67.92
361.189	102.74
361.4	22.87
361.611	137.56
361.823	92.5
362.034	84.31
362.245	67.92
362.456	74.07
362.667	143.7
362.879	100.69
363.09	47.44
363.301	96.6
363.512	76.12
363.723	-5.8
363.935	47.44
364.146	92.5
364.357	47.44
364.568	82.26
364.779	69.97
364.99	47.44
365.201	84.31
365.412	84.31
365.623	39.25
365.834	59.73
366.045	61.78
366.256	-18.09
366.467	43.35
366.678	121.17
366.889	119.12
367.1	24.92
367.311	69.97
367.522	100.69
367.733	143.7
367.944	86.36
368.155	123.22
368.366	72.02
368.577	24.92
368.788	104.79
368.999	59.73
369.209	59.73
369.42	82.26
369.631	80.21
369.842	110.93
370.053	69.97
370.264	47.44
370.474	29.01
370.685	63.83
370.896	61.78
371.107	115.03
371.317	80.21
371.528	39.25
371.739	135.51
371.95	63.83
372.16	82.26
372.371	33.11
372.582	63.83
372.792	55.64
373.003	14.68
373.214	78.16
373.424	110.93
373.635	29.01
373.846	108.88
374.056	51.54
374.267	72.02
374.477	57.68
374.688	59.73
374.898	92.5
375.109	110.93
375.319	67.92
375.53	86.36
375.74	88.4
375.951	22.87
376.161	94.55
376.372	6.49
376.582	115.03
376.793	86.36
377.003	147.8
377.214	110.93
377.424	55.64
377.635	69.97
377.845	49.49
378.055	125.27
378.266	43.35
378.476	53.59
378.686	102.74
378.897	39.25
379.107	59.73
379.317	98.64
379.528	41.3
379.738	92.5
379.948	53.59
380.158	141.65
380.369	153.94
380.579	133.46
380.789	96.6
380.999	86.36
381.21	141.65
381.42	104.79
381.63	12.63
381.84	8.53
382.05	31.06
382.261	104.79
382.471	80.21
382.681	80.21
382.891	160.08
383.101	86.36
383.311	94.55
383.521	43.35
383.731	57.68
383.941	84.31
384.151	96.6
384.361	94.55
384.571	139.6
384.781	10.58
384.991	86.36
385.201	76.12
385.411	61.78
385.621	80.21
385.831	102.74
386.041	74.07
386.251	90.45
386.461	86.36
386.671	2.39
386.881	8.53
387.091	61.78
387.301	104.79
387.511	117.08
387.72	96.6
387.93	76.12
388.14	18.77
388.35	137.56
388.56	78.16
388.769	141.65
388.979	22.87
389.189	88.4
389.399	121.17
389.609	115.03
389.818	117.08
390.028	80.21
390.238	184.66
390.447	43.35
390.657	133.46
390.867	88.4
391.076	57.68
391.286	119.12
391.496	69.97
391.705	143.7
391.915	123.22
392.125	149.84
392.334	131.41
392.544	162.13
392.753	37.2
392.963	143.7
393.172	108.88
393.382	69.97
393.591	162.13
393.801	119.12
394.01	80.21
394.22	207.19
394.429	94.55
394.639	67.92
394.848	186.71
395.058	108.88
395.267	55.64
395.477	170.32
395.686	203.09
395.895	172.37
396.105	139.6
396.314	137.56
396.524	176.47
396.733	125.27
396.942	139.6
397.152	139.6
397.361	125.27
397.57	143.7
397.78	106.84
397.989	143.7
398.198	108.88
398.407	67.92
398.617	151.89
398.826	172.37
399.035	168.27
399.244	190.8
399.453	162.13
399.663	158.03
399.872	166.23
400.081	104.79
400.29	160.08
400.499	225.62
400.708	135.51
400.917	106.84
401.127	98.64
401.336	143.7
401.545	168.27
401.754	151.89
401.963	201.04
402.172	147.8
402.381	151.89
402.59	176.47
402.799	223.57
403.008	198.99
403.217	174.42
403.426	205.14
403.635	141.65
403.844	151.89
404.053	137.56
404.262	145.75
404.471	244.05
404.68	178.51
404.888	233.81
405.097	209.23
405.306	168.27
405.515	231.76
405.724	209.23
405.933	176.47
406.142	242
406.35	272.72
406.559	248.15
406.768	203.09
406.977	325.97
407.185	252.24
407.394	287.06
407.603	239.95
407.812	330.06
408.02	309.58
408.229	291.15
408.438	342.35
408.646	334.16
408.855	348.5
409.064	465.23
409.272	325.97
409.481	383.31
409.69	387.41
409.898	401.74
410.107	432.46
410.315	487.76
410.524	416.08
410.733	508.24
410.941	416.08
411.15	579.92
411.358	510.29
411.567	569.68
411.775	563.53
411.984	584.01
412.192	641.36
412.401	489.81
412.609	643.4
412.818	743.75
413.026	647.5
413.234	731.47
413.443	661.84
413.651	723.27
413.86	739.66
414.068	704.84
414.276	825.67
414.485	837.96
414.693	831.82
414.901	909.64
415.11	981.32
415.318	911.69
415.526	1005.89
415.734	1028.42
415.943	1093.96
416.151	1126.72
416.359	1149.25
416.567	1192.26
416.776	1169.73
416.984	1231.17
417.192	1274.18
417.4	1349.95
417.608	1370.43
417.817	1442.11
418.025	1446.21
418.233	1648.96
418.441	1464.64
418.649	1608
418.857	1683.77
419.065	1804.6
419.273	1720.64
419.481	1825.08
419.689	1900.86
419.897	2031.93
420.105	2005.3
420.313	2191.67
420.521	2048.31
420.729	2195.76
420.937	2298.16
421.145	2406.7
421.353	2584.88
421.561	2529.58
421.769	2646.32
421.977	2871.59
422.185	2820.39
422.393	2904.36
422.601	3125.54
422.809	3256.61
423.017	3146.02
423.224	3287.33
423.432	3408.16
423.64	3455.26
423.848	3711.26
424.056	3531.04
424.263	3836.19
424.471	3891.48
424.679	4110.61
424.887	4124.95
425.094	4370.71
425.302	4423.95
425.51	4618.51
425.718	4720.91
425.925	4864.27
426.133	4915.47
426.341	5206.28
426.548	5339.4
426.756	5298.44
426.964	5404.93
427.171	5859.58
427.379	5941.5
427.586	6134.01
427.794	6252.79
428.001	6666.48
428.209	6803.69
428.417	6662.38
428.624	7071.98
428.832	7198.95
429.039	7213.29
429.247	7071.98
429.454	7831.77
429.662	8337.62
429.869	7712.99
430.076	8235.22
430.284	8022.23
430.491	8583.38
430.699	8988.88
430.906	9044.17
431.114	9066.7
431.321	9312.46
431.528	9574.6
431.736	10125.5
431.943	10596.53
432.15	10418.36
432.358	10483.89
432.565	11049.13
432.772	10807.47
432.979	11739.3
433.187	11901.09
433.394	11868.32
433.601	12595.35
433.808	13011.09
434.016	12605.59
434.223	13279.37
434.43	13846.66
434.637	13678.72
434.844	14506.1
435.052	14854.26
435.259	14635.13
435.466	14852.21
435.673	14690.42
435.88	15980.64
436.087	16697.43
436.294	16498.78
436.501	16062.56
436.708	16425.05
436.915	17260.62
437.122	17735.75
437.329	17778.76
437.537	18264.13
437.743	18913.33
437.95	18800.69
438.157	19652.65
438.364	20406.3
438.571	20197.41
438.778	20258.85
438.985	22149.12
439.192	21420.05
439.399	22138.88
439.606	21497.87
439.813	22728.7
440.02	24334.31
440.227	23607.28
440.433	23255.03
440.64	24377.31
440.847	24096.74
441.054	24748
441.261	26247.11
441.467	26081.22
441.674	26515.39
441.881	27377.59
442.088	27307.96
442.294	27310
442.501	27758.51
442.708	28573.6
442.914	29470.61
443.121	30900.09
443.328	30322.57
443.534	32321.38
443.741	31117.18
443.948	30885.76
444.154	33267.55
444.361	32986.97
444.568	33255.26
444.774	33509.21
444.981	33611.6
445.187	34465.61
445.394	35909.43
445.6	36079.41
445.807	38999.81
446.013	37400.35
446.22	37857.04
446.426	39364.35
446.633	39530.23
446.839	41133.79
447.046	39214.85
447.252	41557.72
447.459	41342.69
447.665	41273.06
447.871	43058.88
448.078	44924.58
448.284	42663.63
448.491	43941.56
448.697	45213.35
448.903	46206.61
449.11	46472.85
449.316	45692.57
449.522	46323.35
449.728	47169.16
449.935	47711.87
450.141	47683.2
450.347	48690.8
450.553	47230.6
450.76	47574.66
450.966	49167.98
451.172	48156.28
451.378	49284.71
451.584	48780.91
451.791	49391.2
451.997	49540.71
452.203	50202.2
452.409	49915.48
452.615	50114.14
452.821	47894.14
453.027	47296.13
453.233	49528.42
453.44	47668.86
453.646	48299.64
453.852	48395.89
454.058	49231.46
454.264	47357.57
454.47	48199.29
454.676	47228.55
454.882	48631.41
455.088	44371.63
455.294	45313.7
455.5	45768.35
455.705	46325.39
455.911	44181.17
456.117	43290.3
456.323	42675.91
456.529	40115.95
456.735	42319.57
456.941	40849.13
457.147	40513.26
457.352	39010.05
457.558	38653.7
457.764	38508.3
457.97	37971.73
458.176	37035.81
458.381	36783.91
458.587	35227.45
458.793	35032.89
458.999	33095.52
459.204	35483.45
459.41	34699.08
459.616	32386.92
459.821	32341.86
460.027	32493.41
460.233	31313.78
460.438	30082.95
460.644	30599.04
460.85	28735.39
461.055	28587.94
461.261	28520.35
461.466	26181.57
461.672	25558.99
461.878	27594.67
462.083	25397.2
462.289	25331.67
462.494	24780.76
462.7	23805.93
462.905	23341.04
463.111	23908.33
463.316	24147.94
463.522	23672.81
463.727	23635.95
463.932	23427.06
464.138	23195.64
464.343	23529.45
464.549	22724.6
464.754	23773.16
464.959	23209.97
465.165	23341.04
465.37	22415.36
465.575	21809.16
465.781	22716.41
465.986	22763.51
466.191	21878.79
466.397	21676.04
466.602	20439.07
