Data from USB4F104151__245__10-30-57-446.txt Node

Date: Wed Mar 12 10:30:57 EDT 2025
User: louis
Spectrometer: USB4F10415
Trigger mode: 4
Integration Time (sec): 3.000000E-2
Scans to average: 1
Electric dark correction enabled: true
Nonlinearity correction enabled: false
Boxcar width: 0
XAxis mode: Wavelengths
Number of Pixels in Spectrum: 3648
>>>>>Begin Spectral Data<<<<<
178.204	24.58
178.424	24.58
178.644	24.58
178.864	-143.36
179.084	-96.25
179.304	4.1
179.524	28.67
179.744	-22.53
179.964	20.48
180.184	-4.1
180.404	24.58
180.624	-28.67
180.844	18.43
181.064	-16.38
181.283	-32.77
181.503	4.1
181.723	4.1
181.943	-77.82
182.163	36.86
182.383	49.15
182.602	-10.24
182.822	32.77
183.042	45.06
183.262	-40.96
183.482	36.86
183.701	-49.15
183.921	-8.19
184.141	-104.45
184.361	28.67
184.58	32.77
184.8	30.72
185.02	0
185.239	28.67
185.459	12.29
185.679	-2.05
185.898	-4.1
186.118	36.86
186.338	-8.19
186.557	4.1
186.777	36.86
186.997	49.15
187.216	81.92
187.436	88.06
187.655	32.77
187.875	28.67
188.095	12.29
188.314	-32.77
188.534	73.73
188.753	-2.05
188.973	18.43
189.192	106.49
189.412	24.58
189.631	-38.91
189.851	14.34
190.07	26.62
190.29	4.1
190.509	30.72
190.729	86.01
190.948	8.19
191.168	114.69
191.387	18.43
191.607	-2.05
191.826	4.1
192.045	-26.62
192.265	36.86
192.484	38.91
192.704	86.01
192.923	-49.15
193.142	53.25
193.362	0
193.581	71.68
193.8	6.14
194.02	-8.19
194.239	79.87
194.458	0
194.678	-8.19
194.897	2.05
195.116	69.63
195.335	-12.29
195.555	-8.19
195.774	40.96
195.993	-8.19
196.212	28.67
196.432	28.67
196.651	-24.58
196.87	47.1
197.089	36.86
197.308	-36.86
197.528	24.58
197.747	-20.48
197.966	59.39
198.185	110.59
198.404	-30.72
198.623	-8.19
198.842	-16.38
199.062	-67.58
199.281	32.77
199.5	24.58
199.719	32.77
199.938	38.91
200.157	4.1
200.376	65.54
200.595	12.29
200.814	77.82
201.033	8.19
201.252	32.77
201.471	22.53
201.69	16.38
201.909	57.34
202.128	30.72
202.347	-32.77
202.566	45.06
202.785	-71.68
203.004	92.16
203.223	81.92
203.442	8.19
203.661	-28.67
203.879	38.91
204.098	49.15
204.317	18.43
204.536	92.16
204.755	-2.05
204.974	-24.58
205.193	30.72
205.411	73.73
205.63	98.3
205.849	71.68
206.068	16.38
206.287	90.11
206.505	49.15
206.724	24.58
206.943	10.24
207.162	4.1
207.381	6.14
207.599	40.96
207.818	38.91
208.037	30.72
208.255	47.1
208.474	75.77
208.693	55.3
208.911	49.15
209.13	32.77
209.349	18.43
209.567	38.91
209.786	86.01
210.005	-26.62
210.223	-16.38
210.442	24.58
210.661	-12.29
210.879	14.34
211.098	16.38
211.316	28.67
211.535	-24.58
211.753	55.3
211.972	24.58
212.191	-32.77
212.409	90.11
212.628	12.29
212.846	40.96
213.065	81.92
213.283	45.06
213.502	-8.19
213.72	40.96
213.938	16.38
214.157	63.49
214.375	6.14
214.594	-65.53
214.812	-12.29
215.031	12.29
215.249	-6.14
215.467	16.38
215.686	67.58
215.904	51.2
216.122	40.96
216.341	57.34
216.559	40.96
216.778	22.53
216.996	8.19
217.214	-73.73
217.432	55.3
217.651	0
217.869	65.54
218.087	18.43
218.306	-4.1
218.524	73.73
218.742	-2.05
218.96	-4.1
219.179	22.53
219.397	57.34
219.615	8.19
219.833	96.25
220.051	-4.1
220.27	55.3
220.488	22.53
220.706	51.2
220.924	45.06
221.142	34.82
221.36	55.3
221.578	16.38
221.796	32.77
222.015	40.96
222.233	20.48
222.451	-16.38
222.669	-24.58
222.887	26.62
223.105	2.05
223.323	69.63
223.541	22.53
223.759	77.82
223.977	-22.53
224.195	47.1
224.413	12.29
224.631	49.15
224.849	36.86
225.067	106.49
225.285	-34.82
225.503	34.82
225.721	-36.86
225.939	53.25
226.157	2.05
226.375	55.3
226.592	-16.38
226.81	20.48
227.028	65.54
227.246	57.34
227.464	57.34
227.682	55.3
227.9	30.72
228.117	49.15
228.335	-16.38
228.553	90.11
228.771	88.06
228.989	43.01
229.206	24.58
229.424	-12.29
229.642	-8.19
229.86	75.77
230.077	59.39
230.295	24.58
230.513	40.96
230.731	28.67
230.948	90.11
231.166	16.38
231.384	-10.24
231.601	0
231.819	53.25
232.037	124.93
232.254	-8.19
232.472	12.29
232.689	24.58
232.907	51.2
233.125	73.73
233.342	-24.58
233.56	-38.91
233.777	2.05
233.995	-8.19
234.213	65.54
234.43	79.87
234.648	14.34
234.865	57.34
235.083	4.1
235.3	-4.1
235.518	71.68
235.735	22.53
235.953	4.1
236.17	-26.62
236.388	-18.43
236.605	-32.77
236.822	55.3
237.04	24.58
237.257	6.14
237.475	24.58
237.692	-36.86
237.909	90.11
238.127	79.87
238.344	77.82
238.562	30.72
238.779	-36.86
238.996	12.29
239.214	51.2
239.431	90.11
239.648	32.77
239.865	-24.58
240.083	40.96
240.3	14.34
240.517	8.19
240.735	30.72
240.952	90.11
241.169	40.96
241.386	18.43
241.603	38.91
241.821	12.29
242.038	38.91
242.255	59.39
242.472	-38.91
242.689	47.1
242.907	67.58
243.124	22.53
243.341	-22.53
243.558	4.1
243.775	6.14
243.992	2.05
244.209	88.06
244.426	81.92
244.643	110.59
244.86	-26.62
245.078	-26.62
245.295	28.67
245.512	143.36
245.729	-18.43
245.946	-10.24
246.163	57.34
246.38	-12.29
246.597	-4.1
246.814	-12.29
247.031	-47.1
247.248	26.62
247.464	55.3
247.681	49.15
247.898	-24.58
248.115	59.39
248.332	10.24
248.549	2.05
248.766	94.21
248.983	30.72
249.2	47.1
249.417	8.19
249.633	-16.38
249.85	61.44
250.067	32.77
250.284	0
250.501	0
250.717	20.48
250.934	83.97
251.151	90.11
251.368	98.3
251.585	45.06
251.801	45.06
252.018	4.1
252.235	-34.82
252.451	8.19
252.668	-28.67
252.885	65.54
253.102	75.77
253.318	36.86
253.535	4.1
253.752	24.58
253.968	12.29
254.185	16.38
254.401	24.58
254.618	18.43
254.835	49.15
255.051	55.3
255.268	73.73
255.484	79.87
255.701	81.92
255.917	26.62
256.134	12.29
256.351	38.91
256.567	30.72
256.784	63.49
257	34.82
257.217	-10.24
257.433	71.68
257.65	61.44
257.866	88.06
258.082	32.77
258.299	-24.58
258.515	28.67
258.732	12.29
258.948	4.1
259.165	53.25
259.381	34.82
259.597	88.06
259.814	36.86
260.03	-59.39
260.246	-16.38
260.463	94.21
260.679	26.62
260.895	96.25
261.112	102.4
261.328	-30.72
261.544	45.06
261.761	116.73
261.977	12.29
262.193	16.38
262.409	67.58
262.626	75.77
262.842	118.78
263.058	45.06
263.274	81.92
263.49	57.34
263.707	32.77
263.923	51.2
264.139	38.91
264.355	16.38
264.571	96.25
264.787	8.19
265.004	28.67
265.22	-12.29
265.436	14.34
265.652	8.19
265.868	61.44
266.084	-4.1
266.3	59.39
266.516	-57.34
266.732	57.34
266.948	22.53
267.164	90.11
267.38	57.34
267.596	6.14
267.812	45.06
268.028	79.87
268.244	90.11
268.46	45.06
268.676	34.82
268.892	55.3
269.108	22.53
269.324	65.54
269.54	18.43
269.756	69.63
269.972	-49.15
270.188	43.01
270.403	-45.06
270.619	-14.34
270.835	-16.38
271.051	34.82
271.267	53.25
271.483	63.49
271.698	-61.44
271.914	0
272.13	47.1
272.346	6.14
272.562	43.01
272.777	110.59
272.993	-8.19
273.209	-20.48
273.425	14.34
273.64	22.53
273.856	73.73
274.072	40.96
274.287	-34.82
274.503	38.91
274.719	79.87
274.934	40.96
275.15	51.2
275.366	57.34
275.581	28.67
275.797	16.38
276.012	71.68
276.228	67.58
276.444	40.96
276.659	-6.14
276.875	-40.96
277.09	45.06
277.306	67.58
277.521	81.92
277.737	71.68
277.952	2.05
278.168	63.49
278.383	59.39
278.599	-6.14
278.814	67.58
279.03	73.73
279.245	110.59
279.461	49.15
279.676	92.16
279.892	-20.48
280.107	-79.87
280.322	51.2
280.538	61.44
280.753	12.29
280.969	45.06
281.184	18.43
281.399	100.35
281.615	30.72
281.83	30.72
282.045	10.24
282.26	59.39
282.476	4.1
282.691	-8.19
282.906	28.67
283.122	81.92
283.337	-34.82
283.552	57.34
283.767	73.73
283.983	67.58
284.198	-18.43
284.413	53.25
284.628	-73.73
284.843	6.14
285.058	69.63
285.274	-10.24
285.489	69.63
285.704	120.83
285.919	-53.25
286.134	22.53
286.349	71.68
286.564	6.14
286.779	16.38
286.995	98.3
287.21	6.14
287.425	45.06
287.64	-12.29
287.855	49.15
288.07	-8.19
288.285	139.26
288.5	12.29
288.715	63.49
288.93	16.38
289.145	63.49
289.36	118.78
289.575	28.67
289.79	133.12
290.004	63.49
290.219	51.2
290.434	-24.58
290.649	47.1
290.864	0
291.079	-40.96
291.294	-63.49
291.509	38.91
291.724	77.82
291.938	30.72
292.153	59.39
292.368	-22.53
292.583	92.16
292.798	71.68
293.012	90.11
293.227	-8.19
293.442	73.73
293.657	-53.25
293.871	47.1
294.086	38.91
294.301	6.14
294.516	30.72
294.73	43.01
294.945	-24.58
295.16	71.68
295.374	92.16
295.589	34.82
295.804	38.91
296.018	16.38
296.233	104.45
296.447	8.19
296.662	57.34
296.877	63.49
297.091	32.77
297.306	45.06
297.52	81.92
297.735	102.4
297.949	16.38
298.164	18.43
298.378	49.15
298.593	-43.01
298.807	77.82
299.022	-2.05
299.236	-30.72
299.451	108.54
299.665	16.38
299.88	104.45
300.094	45.06
300.309	18.43
300.523	-32.77
300.737	-8.19
300.952	73.73
301.166	32.77
301.381	30.72
301.595	34.82
301.809	-16.38
302.024	55.3
302.238	36.86
302.452	61.44
302.667	28.67
302.881	-2.05
303.095	53.25
303.309	49.15
303.524	-2.05
303.738	94.21
303.952	71.68
304.166	16.38
304.381	20.48
304.595	77.82
304.809	40.96
305.023	55.3
305.237	-2.05
305.452	83.97
305.666	40.96
305.88	63.49
306.094	47.1
306.308	-18.43
306.522	24.58
306.736	47.1
306.95	32.77
307.164	53.25
307.379	18.43
307.593	32.77
307.807	43.01
308.021	6.14
308.235	-18.43
308.449	6.14
308.663	69.63
308.877	49.15
309.091	-32.77
309.305	12.29
309.519	-43.01
309.733	120.83
309.947	-40.96
310.161	57.34
310.374	71.68
310.588	77.82
310.802	6.14
311.016	22.53
311.23	18.43
311.444	16.38
311.658	51.2
311.872	79.87
312.085	24.58
312.299	108.54
312.513	83.97
312.727	75.77
312.941	-47.1
313.154	47.1
313.368	-4.1
313.582	81.92
313.796	81.92
314.009	61.44
314.223	77.82
314.437	40.96
314.651	16.38
314.864	51.2
315.078	63.49
315.292	6.14
315.505	83.97
315.719	81.92
315.933	0
316.146	-18.43
316.36	51.2
316.573	94.21
316.787	73.73
317.001	-18.43
317.214	24.58
317.428	49.15
317.641	-36.86
317.855	36.86
318.068	30.72
318.282	24.58
318.495	53.25
318.709	71.68
318.922	-4.1
319.136	61.44
319.349	90.11
319.563	8.19
319.776	67.58
319.99	4.1
320.203	65.54
320.417	12.29
320.63	18.43
320.843	94.21
321.057	22.53
321.27	114.69
321.483	-20.48
321.697	106.49
321.91	45.06
322.124	6.14
322.337	90.11
322.55	-12.29
322.763	24.58
322.977	4.1
323.19	24.58
323.403	-8.19
323.617	57.34
323.83	45.06
324.043	22.53
324.256	20.48
324.469	4.1
324.683	75.77
324.896	55.3
325.109	12.29
325.322	-10.24
325.535	20.48
325.748	88.06
325.962	53.25
326.175	22.53
326.388	10.24
326.601	61.44
326.814	30.72
327.027	20.48
327.24	73.73
327.453	30.72
327.666	51.2
327.879	73.73
328.092	100.35
328.305	34.82
328.518	40.96
328.731	49.15
328.944	57.34
329.157	61.44
329.37	100.35
329.583	67.58
329.796	167.93
330.009	30.72
330.222	73.73
330.435	139.26
330.648	34.82
330.861	77.82
331.073	61.44
331.286	118.78
331.499	96.25
331.712	34.82
331.925	57.34
332.138	18.43
332.35	73.73
332.563	-24.58
332.776	81.92
332.989	-32.77
333.202	26.62
333.414	32.77
333.627	112.64
333.84	12.29
334.053	38.91
334.265	40.96
334.478	36.86
334.691	88.06
334.903	96.25
335.116	40.96
335.329	45.06
335.541	61.44
335.754	81.92
335.966	30.72
336.179	77.82
336.392	112.64
336.604	51.2
336.817	122.88
337.029	67.58
337.242	20.48
337.454	63.49
337.667	22.53
337.88	98.3
338.092	34.82
338.305	118.78
338.517	73.73
338.729	18.43
338.942	22.53
339.154	-2.05
339.367	55.3
339.579	81.92
339.792	61.44
340.004	71.68
340.217	79.87
340.429	79.87
340.641	-81.92
340.854	116.73
341.066	94.21
341.278	26.62
341.491	43.01
341.703	45.06
341.915	-12.29
342.128	61.44
342.34	4.1
342.552	-12.29
342.764	22.53
342.977	40.96
343.189	94.21
343.401	65.54
343.613	8.19
343.826	73.73
344.038	-8.19
344.25	65.54
344.462	10.24
344.674	118.78
344.886	57.34
345.099	73.73
345.311	30.72
345.523	45.06
345.735	61.44
345.947	86.01
346.159	43.01
346.371	67.58
346.583	86.01
346.795	139.26
347.007	12.29
347.219	38.91
347.431	6.14
347.643	106.49
347.855	61.44
348.067	133.12
348.279	24.58
348.491	40.96
348.703	112.64
348.915	47.1
349.127	55.3
349.339	116.73
349.551	88.06
349.763	61.44
349.975	28.67
350.187	79.87
350.399	20.48
350.61	71.68
350.822	20.48
351.034	28.67
351.246	28.67
351.458	104.45
351.669	65.54
351.881	59.39
352.093	104.45
352.305	124.93
352.517	36.86
352.728	63.49
352.94	24.58
353.152	98.3
353.363	-16.38
353.575	86.01
353.787	57.34
353.999	20.48
354.21	104.45
354.422	-24.58
354.633	30.72
354.845	10.24
355.057	-6.14
355.268	83.97
355.48	43.01
355.692	26.62
355.903	40.96
356.115	30.72
356.326	-12.29
356.538	45.06
356.749	47.1
356.961	61.44
357.172	12.29
357.384	73.73
357.595	143.36
357.807	-8.19
358.018	61.44
358.23	65.54
358.441	96.25
358.653	79.87
358.864	36.86
359.075	53.25
359.287	12.29
359.498	120.83
359.709	28.67
359.921	-20.48
360.132	96.25
360.344	53.25
360.555	0
360.766	18.43
360.977	28.67
361.189	88.06
361.4	40.96
361.611	61.44
361.823	71.68
362.034	24.58
362.245	106.49
362.456	77.82
362.667	106.49
362.879	88.06
363.09	49.15
363.301	40.96
363.512	77.82
363.723	67.58
363.935	61.44
364.146	69.63
364.357	-24.58
364.568	118.78
364.779	90.11
364.99	69.63
365.201	49.15
365.412	96.25
365.623	32.77
365.834	83.97
366.045	77.82
366.256	92.16
366.467	88.06
366.678	59.39
366.889	55.3
367.1	20.48
367.311	57.34
367.522	55.3
367.733	65.54
367.944	32.77
368.155	59.39
368.366	45.06
368.577	83.97
368.788	114.69
368.999	49.15
369.209	38.91
369.42	98.3
369.631	98.3
369.842	30.72
370.053	22.53
370.264	59.39
370.474	94.21
370.685	18.43
370.896	51.2
371.107	18.43
371.317	61.44
371.528	24.58
371.739	129.02
371.95	57.34
372.16	28.67
372.371	32.77
372.582	63.49
372.792	16.38
373.003	14.34
373.214	69.63
373.424	90.11
373.635	6.14
373.846	110.59
374.056	122.88
374.267	102.4
374.477	83.97
374.688	32.77
374.898	18.43
375.109	110.59
375.319	-12.29
375.53	100.35
375.74	14.34
375.951	-26.62
376.161	36.86
376.372	57.34
376.582	40.96
376.793	40.96
377.003	79.87
377.214	-18.43
377.424	104.45
377.635	10.24
377.845	63.49
378.055	73.73
378.266	16.38
378.476	90.11
378.686	63.49
378.897	61.44
379.107	124.93
379.317	116.73
379.528	40.96
379.738	100.35
379.948	43.01
380.158	110.59
380.369	108.54
380.579	90.11
380.789	88.06
380.999	90.11
381.21	118.78
381.42	77.82
381.63	63.49
381.84	59.39
382.05	10.24
382.261	102.4
382.471	34.82
382.681	0
382.891	137.21
383.101	18.43
383.311	65.54
383.521	108.54
383.731	40.96
383.941	137.21
384.151	90.11
384.361	30.72
384.571	77.82
384.781	65.54
384.991	16.38
385.201	67.58
385.411	118.78
385.621	73.73
385.831	53.25
386.041	139.26
386.251	73.73
386.461	57.34
386.671	57.34
386.881	59.39
387.091	55.3
387.301	114.69
387.511	96.25
387.72	110.59
387.93	79.87
388.14	116.73
388.35	73.73
388.56	98.3
388.769	122.88
388.979	-14.34
389.189	86.01
389.399	47.1
389.609	59.39
389.818	71.68
390.028	49.15
390.238	106.49
390.447	53.25
390.657	110.59
390.867	90.11
391.076	40.96
391.286	100.35
391.496	57.34
391.705	30.72
391.915	36.86
392.125	98.3
392.334	79.87
392.544	98.3
392.753	94.21
392.963	129.02
393.172	106.49
393.382	102.4
393.591	135.17
393.801	55.3
394.01	188.41
394.22	118.78
394.429	100.35
394.639	100.35
394.848	131.07
395.058	131.07
395.267	159.74
395.477	139.26
395.686	122.88
395.895	139.26
396.105	163.84
396.314	118.78
396.524	157.69
396.733	114.69
396.942	186.37
397.152	45.06
397.361	83.97
397.57	71.68
397.78	124.93
397.989	131.07
398.198	225.28
398.407	65.54
398.617	137.21
398.826	169.98
399.035	100.35
399.244	141.31
399.453	159.74
399.663	120.83
399.872	225.28
400.081	88.06
400.29	210.94
400.499	98.3
400.708	194.56
400.917	118.78
401.127	102.4
401.336	184.32
401.545	268.28
401.754	184.32
401.963	124.93
402.172	143.36
402.381	71.68
402.59	139.26
402.799	172.03
403.008	192.51
403.217	200.7
403.426	122.88
403.635	200.7
403.844	225.28
404.053	204.8
404.262	188.41
404.471	270.33
404.68	180.22
404.888	215.04
405.097	204.8
405.306	268.28
405.515	241.66
405.724	219.13
405.933	229.37
406.142	286.72
406.35	239.61
406.559	339.96
406.768	276.48
406.977	260.09
407.185	303.1
407.394	296.96
407.603	258.04
407.812	247.8
408.02	350.2
408.229	276.48
408.438	352.25
408.646	327.68
408.855	415.74
409.064	354.3
409.272	393.21
409.481	380.92
409.69	460.79
409.898	362.49
410.107	532.47
410.315	393.21
410.524	448.51
410.733	507.9
410.941	567.29
411.15	503.8
411.358	593.91
411.567	653.3
411.775	544.76
411.984	612.34
412.192	622.58
412.401	610.29
412.609	684.02
412.818	694.26
413.026	702.45
413.234	710.65
413.443	774.13
413.651	849.91
413.86	825.33
414.068	821.24
414.276	845.81
414.485	878.58
414.693	956.4
414.901	970.74
415.11	964.59
415.318	962.55
415.526	1069.04
415.734	1126.38
415.943	1105.9
416.151	1212.4
416.359	1210.35
416.567	1212.4
416.776	1359.85
416.984	1462.25
417.192	1474.54
417.4	1433.58
417.608	1417.19
417.817	1523.69
418.025	1574.89
418.233	1630.18
418.441	1679.33
418.649	1759.21
418.857	1888.23
419.065	1867.75
419.273	1888.23
419.481	1869.8
419.689	2054.11
419.897	2220
420.105	2250.72
420.313	2263.01
420.521	2439.13
420.729	2471.9
420.937	2504.67
421.145	2613.21
421.353	2641.88
421.561	2772.95
421.769	2887.64
421.977	3194.83
422.185	3012.56
422.393	3141.58
422.601	3348.43
422.809	3289.04
423.017	3305.42
423.224	3452.88
423.432	3602.38
423.64	3676.1
423.848	3901.38
424.056	3911.62
424.263	4138.94
424.471	4167.62
424.679	4126.66
424.887	4435.9
425.094	4558.78
425.302	4685.75
425.51	4777.91
425.718	4982.71
425.925	4992.95
426.133	5275.57
426.341	5590.95
426.548	5699.5
426.756	5703.59
426.964	5799.85
427.171	6121.38
427.379	6240.16
427.586	6365.09
427.794	6567.84
428.001	7135.12
428.209	7235.47
428.417	7145.36
428.624	7741.32
428.832	7501.71
429.039	7380.88
429.247	7561.1
429.454	8402.82
429.662	8908.66
429.869	8216.45
430.076	8712.06
430.284	8454.01
430.491	9025.4
430.699	9623.41
430.906	9449.33
431.114	9852.78
431.321	9838.44
431.528	10084.2
431.736	10571.61
431.943	11128.66
432.15	10919.77
432.358	11198.29
432.565	11673.42
432.772	11611.98
432.979	12191.56
433.187	12320.58
433.394	12603.2
433.601	13442.87
433.808	13502.26
434.016	13242.17
434.223	14065.45
434.43	14698.27
434.637	14319.4
434.844	15322.9
435.052	15462.16
435.259	15451.92
435.466	15732.5
435.673	15478.55
435.88	16510.72
436.087	17293.05
436.294	17194.75
436.501	16707.33
436.708	17190.65
436.915	17846
437.122	18657
437.329	18671.33
437.537	19347.16
437.743	19386.07
437.95	19394.26
438.157	20106.96
438.364	20950.72
438.571	21034.69
438.778	21001.92
438.985	23166.62
439.192	22111.92
439.399	22781.6
439.606	22550.18
439.813	23656.09
440.02	25028.23
440.227	24671.88
440.433	24313.49
440.64	25278.08
440.847	25077.38
441.054	25669.24
441.261	27373.15
441.467	26906.21
441.674	27547.23
441.881	28231.25
442.088	28460.62
442.294	28042.84
442.501	28825.16
442.708	29359.68
442.914	30764.59
443.121	31841.82
443.328	30697
443.534	33144.33
443.741	32048.66
443.948	31673.88
444.154	33748.48
444.361	33768.96
444.568	33998.33
444.774	34350.58
444.981	34256.37
445.187	35194.34
445.394	36943.31
445.6	35804.64
445.807	39536.04
446.013	38299.06
446.22	38657.46
446.426	39855.52
446.633	40537.49
446.839	41725.32
447.046	39996.83
447.252	42216.83
447.459	42210.68
447.665	42009.98
447.871	43570.54
448.078	45622.6
448.284	43222.38
448.491	44729.69
448.697	46644.54
448.903	46736.69
449.11	47285.55
449.316	46540.09
449.522	46945.59
449.728	48094.5
449.935	48786.71
450.141	48543
450.347	49734.92
450.553	48325.92
450.76	48751.9
450.966	50160.9
451.172	49595.66
451.378	50806.01
451.584	49730.83
451.791	50754.81
451.997	50857.21
452.203	51717.35
452.409	51533.04
452.615	51217.65
452.821	49229.07
453.027	48858.39
453.233	51551.47
453.44	49214.74
453.646	50156.8
453.852	50324.74
454.058	51135.73
454.264	49276.18
454.47	50308.35
454.676	49077.52
454.882	50496.77
455.088	46320.96
455.294	47195.44
455.5	47516.97
455.705	47848.74
455.911	45960.51
456.117	45233.49
456.323	44590.42
456.529	42364.28
456.735	43894.11
456.941	42730.87
457.147	42472.82
457.352	40752.53
457.558	40619.41
457.764	40705.43
457.97	39873.95
458.176	38989.23
458.381	39073.2
458.587	36935.12
458.793	37160.39
458.999	35579.36
459.204	37868.99
459.41	36890.06
459.616	34516.47
459.821	34125.3
460.027	34659.82
460.233	33338.88
460.438	32210.45
460.644	32544.27
460.85	30651.95
461.055	30185.01
461.261	30201.4
461.466	28104.28
461.672	27410.01
461.878	29294.15
462.083	27412.06
462.289	27039.33
462.494	26484.33
462.7	25169.54
462.905	24614.54
463.111	25652.86
463.316	25693.82
463.522	25198.21
463.727	25484.92
463.932	25063.04
464.138	24866.44
464.343	24796.81
464.549	23944.85
464.754	25081.47
464.959	24733.32
465.165	24692.36
465.37	23488.15
465.575	23129.76
465.781	23793.3
465.986	24147.6
466.191	23250.59
466.397	22662.82
466.602	21243.58
466.807	22533.8
467.012	22433.45
467.218	22329
467.423	22021.81
467.628	22259.37
