Data from USB4F104151__34__10-22-11-124.txt Node

Date: Wed Mar 12 10:22:11 EDT 2025
User: louis
Spectrometer: USB4F10415
Trigger mode: 4
Integration Time (sec): 3.000000E-2
Scans to average: 1
Electric dark correction enabled: true
Nonlinearity correction enabled: false
Boxcar width: 0
XAxis mode: Wavelengths
Number of Pixels in Spectrum: 3648
>>>>>Begin Spectral Data<<<<<
178.204	-143.53
178.424	-143.53
178.644	-143.53
178.864	-137.38
179.084	-145.58
179.304	42.84
179.524	59.22
179.744	-6.31
179.964	-6.31
180.184	-24.75
180.404	-24.75
180.624	1.88
180.844	100.18
181.064	-63.66
181.283	-30.89
181.503	-98.47
181.723	51.03
181.943	-0.17
182.163	75.6
182.383	26.45
182.602	57.17
182.822	59.22
183.042	22.36
183.262	-0.17
183.482	8.02
183.701	24.4
183.921	-4.27
184.141	-39.08
184.361	22.36
184.58	5.97
184.8	118.61
185.02	1.88
185.239	22.36
185.459	-12.46
185.679	40.79
185.898	-26.79
186.118	-6.31
186.338	-55.47
186.557	30.55
186.777	-8.36
186.997	-8.36
187.216	16.21
187.436	85.84
187.655	-0.17
187.875	34.64
188.095	-32.94
188.314	-22.7
188.534	26.45
188.753	12.12
188.973	8.02
189.192	65.36
189.412	46.93
189.631	34.64
189.851	3.93
190.07	65.36
190.29	-28.84
190.509	18.26
190.729	16.21
190.948	83.8
191.168	110.42
191.387	130.9
191.607	-10.41
191.826	89.94
192.045	-12.46
192.265	53.08
192.484	20.31
192.704	-4.27
192.923	-20.65
193.142	106.32
193.362	63.32
193.581	79.7
193.8	46.93
194.02	22.36
194.239	-16.55
194.458	-2.22
194.678	-30.89
194.897	8.02
195.116	57.17
195.335	14.17
195.555	55.12
195.774	98.13
195.993	36.69
196.212	-18.6
196.432	8.02
196.651	55.12
196.87	32.6
197.089	108.37
197.308	139.09
197.528	32.6
197.747	5.97
197.966	14.17
198.185	28.5
198.404	40.79
198.623	-51.37
198.842	46.93
199.062	44.88
199.281	55.12
199.5	22.36
199.719	34.64
199.938	34.64
200.157	44.88
200.376	18.26
200.595	48.98
200.814	38.74
201.033	-2.22
201.252	48.98
201.471	42.84
201.69	63.32
201.909	-43.18
202.128	48.98
202.347	22.36
202.566	-30.89
202.785	-32.94
203.004	26.45
203.223	67.41
203.442	-32.94
203.661	-8.36
203.879	-4.27
204.098	24.4
204.317	1.88
204.536	-16.55
204.755	14.17
204.974	128.85
205.193	42.84
205.411	40.79
205.63	48.98
205.849	75.6
206.068	20.31
206.287	28.5
206.505	16.21
206.724	73.56
206.943	-16.55
207.162	10.07
207.381	-32.94
207.599	55.12
207.818	67.41
208.037	-2.22
208.255	16.21
208.474	40.79
208.693	-34.99
208.911	12.12
209.13	-8.36
209.349	55.12
209.567	57.17
209.786	3.93
210.005	24.4
210.223	18.26
210.442	-4.27
210.661	67.41
210.879	26.45
211.098	32.6
211.316	63.32
211.535	10.07
211.753	-10.41
211.972	65.36
212.191	32.6
212.409	-6.31
212.628	14.17
212.846	16.21
213.065	96.08
213.283	-39.08
213.502	46.93
213.72	-22.7
213.938	1.88
214.157	16.21
214.375	67.41
214.594	89.94
214.812	-8.36
215.031	44.88
215.249	32.6
215.467	10.07
215.686	-55.47
215.904	42.84
216.122	104.28
216.341	-20.65
216.559	34.64
216.778	55.12
216.996	83.8
217.214	38.74
217.432	18.26
217.651	-14.51
217.869	-61.61
218.087	63.32
218.306	40.79
218.524	91.99
218.742	42.84
218.96	53.08
219.179	14.17
219.397	71.51
219.615	-0.17
219.833	3.93
220.051	-14.51
220.27	26.45
220.488	81.75
220.706	12.12
220.924	-24.75
221.142	40.79
221.36	10.07
221.578	48.98
221.796	40.79
222.015	34.64
222.233	22.36
222.451	51.03
222.669	-43.18
222.887	44.88
223.105	-16.55
223.323	-8.36
223.541	67.41
223.759	73.56
223.977	-18.6
224.195	14.17
224.413	26.45
224.631	59.22
224.849	130.9
225.067	137.04
225.285	42.84
225.503	-59.56
225.721	-57.51
225.939	-12.46
226.157	-71.85
226.375	96.08
226.592	1.88
226.81	30.55
227.028	42.84
227.246	77.65
227.464	100.18
227.682	10.07
227.9	5.97
228.117	53.08
228.335	65.36
228.553	1.88
228.771	-10.41
228.989	20.31
229.206	-39.08
229.424	24.4
229.642	-49.32
229.86	-8.36
230.077	-24.75
230.295	16.21
230.513	81.75
230.731	14.17
230.948	18.26
231.166	147.28
231.384	10.07
231.601	8.02
231.819	51.03
232.037	22.36
232.254	16.21
232.472	22.36
232.689	18.26
232.907	65.36
233.125	-34.99
233.342	22.36
233.56	28.5
233.777	42.84
233.995	28.5
234.213	32.6
234.43	18.26
234.648	18.26
234.865	32.6
235.083	18.26
235.3	8.02
235.518	79.7
235.735	63.32
235.953	65.36
236.17	42.84
236.388	87.89
236.605	16.21
236.822	42.84
237.04	57.17
237.257	22.36
237.475	-18.6
237.692	36.69
237.909	36.69
238.127	69.46
238.344	112.47
238.562	42.84
238.779	-14.51
238.996	53.08
239.214	8.02
239.431	57.17
239.648	-16.55
239.865	139.09
240.083	18.26
240.3	100.18
240.517	3.93
240.735	-14.51
240.952	75.6
241.169	75.6
241.386	-43.18
241.603	42.84
241.821	-0.17
242.038	26.45
242.255	75.6
242.472	24.4
242.689	87.89
242.907	96.08
243.124	51.03
243.341	1.88
243.558	-47.27
243.775	-16.55
243.992	-6.31
244.209	20.31
244.426	102.23
244.643	57.17
244.86	40.79
245.078	-41.13
245.295	34.64
245.512	69.46
245.729	5.97
245.946	26.45
246.163	-8.36
246.38	77.65
246.597	65.36
246.814	12.12
247.031	22.36
247.248	18.26
247.464	-4.27
247.681	-6.31
247.898	83.8
248.115	96.08
248.332	-20.65
248.549	24.4
248.766	122.71
248.983	67.41
249.2	3.93
249.417	63.32
249.633	57.17
249.85	38.74
250.067	38.74
250.284	30.55
250.501	75.6
250.717	22.36
250.934	-22.7
251.151	77.65
251.368	12.12
251.585	63.32
251.801	42.84
252.018	46.93
252.235	87.89
252.451	-63.66
252.668	10.07
252.885	24.4
253.102	14.17
253.318	75.6
253.535	-26.79
253.752	-16.55
253.968	42.84
254.185	14.17
254.401	-30.89
254.618	3.93
254.835	59.22
255.051	16.21
255.268	-10.41
255.484	48.98
255.701	89.94
255.917	65.36
256.134	-6.31
256.351	36.69
256.567	32.6
256.784	18.26
257	-37.03
257.217	24.4
257.433	46.93
257.65	153.43
257.866	63.32
258.082	46.93
258.299	10.07
258.515	102.23
258.732	98.13
258.948	-14.51
259.165	-47.27
259.381	59.22
259.597	20.31
259.814	5.97
260.03	12.12
260.246	36.69
260.463	34.64
260.679	65.36
260.895	-32.94
261.112	28.5
261.328	51.03
261.544	46.93
261.761	73.56
261.977	-12.46
262.193	-53.42
262.409	83.8
262.626	34.64
262.842	-14.51
263.058	-43.18
263.274	75.6
263.49	67.41
263.707	81.75
263.923	-26.79
264.139	1.88
264.355	30.55
264.571	32.6
264.787	44.88
265.004	-14.51
265.22	30.55
265.436	-22.7
265.652	32.6
265.868	12.12
266.084	26.45
266.3	14.17
266.516	1.88
266.732	10.07
266.948	16.21
267.164	14.17
267.38	-8.36
267.596	-14.51
267.812	53.08
268.028	100.18
268.244	-6.31
268.46	91.99
268.676	10.07
268.892	104.28
269.108	-6.31
269.324	22.36
269.54	30.55
269.756	36.69
269.972	-45.23
270.188	38.74
270.403	3.93
270.619	69.46
270.835	61.27
271.051	42.84
271.267	48.98
271.483	51.03
271.698	71.51
271.914	77.65
272.13	83.8
272.346	67.41
272.562	-16.55
272.777	61.27
272.993	40.79
273.209	71.51
273.425	65.36
273.64	-28.84
273.856	16.21
274.072	18.26
274.287	-34.99
274.503	-8.36
274.719	38.74
274.934	-14.51
275.15	34.64
275.366	34.64
275.581	-59.56
275.797	85.84
276.012	-57.51
276.228	40.79
276.444	85.84
276.659	48.98
276.875	73.56
277.09	-45.23
277.306	18.26
277.521	12.12
277.737	61.27
277.952	100.18
278.168	87.89
278.383	-26.79
278.599	53.08
278.814	-41.13
279.03	-26.79
279.245	100.18
279.461	1.88
279.676	124.76
279.892	69.46
280.107	-51.37
280.322	46.93
280.538	3.93
280.753	-2.22
280.969	44.88
281.184	-10.41
281.399	8.02
281.615	114.52
281.83	73.56
282.045	-4.27
282.26	14.17
282.476	96.08
282.691	112.47
282.906	85.84
283.122	-2.22
283.337	-32.94
283.552	30.55
283.767	44.88
283.983	83.8
284.198	36.69
284.413	87.89
284.628	-26.79
284.843	48.98
285.058	30.55
285.274	16.21
285.489	10.07
285.704	79.7
285.919	137.04
286.134	-10.41
286.349	-41.13
286.564	42.84
286.779	34.64
286.995	55.12
287.21	40.79
287.425	20.31
287.64	67.41
287.855	59.22
288.07	38.74
288.285	20.31
288.5	71.51
288.715	38.74
288.93	-30.89
289.145	-24.75
289.36	14.17
289.575	71.51
289.79	-14.51
290.004	-14.51
290.219	30.55
290.434	8.02
290.649	-43.18
290.864	59.22
291.079	67.41
291.294	79.7
291.509	34.64
291.724	32.6
291.938	57.17
292.153	40.79
292.368	22.36
292.583	40.79
292.798	55.12
293.012	63.32
293.227	-18.6
293.442	38.74
293.657	71.51
293.871	124.76
294.086	57.17
294.301	34.64
294.516	46.93
294.73	44.88
294.945	5.97
295.16	55.12
295.374	81.75
295.589	16.21
295.804	42.84
296.018	51.03
296.233	112.47
296.447	57.17
296.662	-14.51
296.877	57.17
297.091	46.93
297.306	89.94
297.52	44.88
297.735	89.94
297.949	8.02
298.164	89.94
298.378	75.6
298.593	10.07
298.807	-18.6
299.022	36.69
299.236	91.99
299.451	30.55
299.665	42.84
299.88	10.07
300.094	61.27
300.309	59.22
300.523	65.36
300.737	53.08
300.952	57.17
301.166	81.75
301.381	16.21
301.595	28.5
301.809	30.55
302.024	-22.7
302.238	-2.22
302.452	69.46
302.667	-24.75
302.881	85.84
303.095	77.65
303.309	22.36
303.524	46.93
303.738	18.26
303.952	42.84
304.166	67.41
304.381	14.17
304.595	135
304.809	22.36
305.023	14.17
305.237	-24.75
305.452	-28.84
305.666	79.7
305.88	63.32
306.094	48.98
306.308	30.55
306.522	141.14
306.736	22.36
306.95	53.08
307.164	-43.18
307.379	98.13
307.593	65.36
307.807	28.5
308.021	36.69
308.235	40.79
308.449	16.21
308.663	75.6
308.877	94.04
309.091	106.32
309.305	-47.27
309.519	-12.46
309.733	65.36
309.947	-20.65
310.161	128.85
310.374	59.22
310.588	59.22
310.802	71.51
311.016	57.17
311.23	77.65
311.444	8.02
311.658	48.98
311.872	53.08
312.085	69.46
312.299	100.18
312.513	22.36
312.727	22.36
312.941	-18.6
313.154	40.79
313.368	63.32
313.582	69.46
313.796	61.27
314.009	34.64
314.223	87.89
314.437	79.7
314.651	8.02
314.864	112.47
315.078	18.26
315.292	26.45
315.505	124.76
315.719	-10.41
315.933	-6.31
316.146	-2.22
316.36	57.17
316.573	40.79
316.787	5.97
317.001	53.08
317.214	-18.6
317.428	-0.17
317.641	36.69
317.855	14.17
318.068	10.07
318.282	12.12
318.495	71.51
318.709	91.99
318.922	57.17
319.136	91.99
319.349	83.8
319.563	63.32
319.776	10.07
319.99	-20.65
320.203	108.37
320.417	-8.36
320.63	24.4
320.843	116.56
321.057	34.64
321.27	-30.89
321.483	71.51
321.697	-2.22
321.91	18.26
322.124	61.27
322.337	34.64
322.55	55.12
322.763	42.84
322.977	-26.79
323.19	46.93
323.403	1.88
323.617	14.17
323.83	63.32
324.043	81.75
324.256	71.51
324.469	-10.41
324.683	34.64
324.896	-0.17
325.109	30.55
325.322	-14.51
325.535	-0.17
325.748	81.75
325.962	34.64
326.175	55.12
326.388	-6.31
326.601	22.36
326.814	51.03
327.027	12.12
327.24	46.93
327.453	-47.27
327.666	18.26
327.879	77.65
328.092	114.52
328.305	42.84
328.518	-2.22
328.731	30.55
328.944	51.03
329.157	51.03
329.37	26.45
329.583	91.99
329.796	34.64
330.009	-4.27
330.222	94.04
330.435	5.97
330.648	46.93
330.861	16.21
331.073	61.27
331.286	-6.31
331.499	40.79
331.712	63.32
331.925	-14.51
332.138	32.6
332.35	51.03
332.563	75.6
332.776	42.84
332.989	22.36
333.202	48.98
333.414	28.5
333.627	51.03
333.84	-6.31
334.053	83.8
334.265	10.07
334.478	91.99
334.691	-26.79
334.903	34.64
335.116	38.74
335.329	12.12
335.541	51.03
335.754	81.75
335.966	38.74
336.179	55.12
336.392	40.79
336.604	46.93
336.817	75.6
337.029	8.02
337.242	63.32
337.454	22.36
337.667	34.64
337.88	36.69
338.092	14.17
338.305	79.7
338.517	-30.89
338.729	63.32
338.942	44.88
339.154	10.07
339.367	-20.65
339.579	98.13
339.792	-77.99
340.004	20.31
340.217	42.84
340.429	100.18
340.641	-10.41
340.854	-8.36
341.066	8.02
341.278	153.43
341.491	83.8
341.703	67.41
341.915	59.22
342.128	36.69
342.34	104.28
342.552	-2.22
342.764	79.7
342.977	55.12
343.189	55.12
343.401	40.79
343.613	42.84
343.826	116.56
344.038	16.21
344.25	1.88
344.462	24.4
344.674	24.4
344.886	-10.41
345.099	16.21
345.311	116.56
345.523	67.41
345.735	71.51
345.947	20.31
346.159	22.36
346.371	3.93
346.583	-6.31
346.795	71.51
347.007	51.03
347.219	40.79
347.431	1.88
347.643	159.57
347.855	1.88
348.067	81.75
348.279	-18.6
348.491	55.12
348.703	46.93
348.915	118.61
349.127	-10.41
349.339	55.12
349.551	12.12
349.763	51.03
349.975	81.75
350.187	34.64
350.399	122.71
350.61	79.7
350.822	18.26
351.034	75.6
351.246	16.21
351.458	53.08
351.669	59.22
351.881	89.94
352.093	46.93
352.305	63.32
352.517	51.03
352.728	69.46
352.94	26.45
353.152	28.5
353.363	-6.31
353.575	63.32
353.787	108.37
353.999	67.41
354.21	67.41
354.422	-37.03
354.633	-2.22
354.845	22.36
355.057	34.64
355.268	59.22
355.48	24.4
355.692	87.89
355.903	-63.66
356.115	30.55
356.326	10.07
356.538	118.61
356.749	26.45
356.961	48.98
357.172	91.99
357.384	10.07
357.595	155.47
357.807	42.84
358.018	141.14
358.23	65.36
358.441	83.8
358.653	116.56
358.864	67.41
359.075	10.07
359.287	-6.31
359.498	79.7
359.709	46.93
359.921	79.7
360.132	48.98
360.344	71.51
360.555	59.22
360.766	51.03
360.977	42.84
361.189	57.17
361.4	-0.17
361.611	38.74
361.823	36.69
362.034	79.7
362.245	14.17
362.456	32.6
362.667	67.41
362.879	96.08
363.09	38.74
363.301	38.74
363.512	75.6
363.723	100.18
363.935	75.6
364.146	51.03
364.357	77.65
364.568	53.08
364.779	32.6
364.99	126.8
365.201	34.64
365.412	63.32
365.623	-2.22
365.834	32.6
366.045	28.5
366.256	42.84
366.467	77.65
366.678	20.31
366.889	20.31
367.1	-14.51
367.311	81.75
367.522	67.41
367.733	87.89
367.944	85.84
368.155	-47.27
368.366	71.51
368.577	-10.41
368.788	79.7
368.999	26.45
369.209	42.84
369.42	165.71
369.631	120.66
369.842	71.51
370.053	-2.22
370.264	85.84
370.474	59.22
370.685	30.55
370.896	96.08
371.107	26.45
371.317	59.22
371.528	71.51
371.739	42.84
371.95	28.5
372.16	44.88
372.371	67.41
372.582	71.51
372.792	139.09
373.003	87.89
373.214	112.47
373.424	32.6
373.635	71.51
373.846	16.21
374.056	106.32
374.267	120.66
374.477	26.45
374.688	98.13
374.898	44.88
375.109	94.04
375.319	83.8
375.53	34.64
375.74	83.8
375.951	51.03
376.161	83.8
376.372	96.08
376.582	55.12
376.793	83.8
377.003	53.08
377.214	40.79
377.424	108.37
377.635	53.08
377.845	46.93
378.055	106.32
378.266	-26.79
378.476	40.79
378.686	-6.31
378.897	51.03
379.107	132.95
379.317	108.37
379.528	40.79
379.738	106.32
379.948	28.5
380.158	42.84
380.369	34.64
380.579	77.65
380.789	98.13
380.999	22.36
381.21	102.23
381.42	180.05
381.63	73.56
381.84	102.23
382.05	42.84
382.261	57.17
382.471	14.17
382.681	34.64
382.891	71.51
383.101	130.9
383.311	16.21
383.521	12.12
383.731	-4.27
383.941	75.6
384.151	3.93
384.361	114.52
384.571	145.24
384.781	55.12
384.991	106.32
385.201	71.51
385.411	79.7
385.621	57.17
385.831	77.65
386.041	69.46
386.251	44.88
386.461	10.07
386.671	96.08
386.881	96.08
387.091	83.8
387.301	114.52
387.511	46.93
387.72	116.56
387.93	46.93
388.14	-10.41
388.35	122.71
388.56	53.08
388.769	32.6
388.979	124.76
389.189	18.26
389.399	132.95
389.609	100.18
389.818	22.36
390.028	28.5
390.238	42.84
390.447	67.41
390.657	63.32
390.867	22.36
391.076	24.4
391.286	71.51
391.496	94.04
391.705	22.36
391.915	145.24
392.125	73.56
392.334	38.74
392.544	69.46
392.753	178
392.963	104.28
393.172	96.08
393.382	155.47
393.591	89.94
393.801	53.08
394.01	122.71
394.22	55.12
394.429	102.23
394.639	116.56
394.848	161.62
395.058	153.43
395.267	112.47
395.477	91.99
395.686	145.24
395.895	96.08
396.105	186.19
396.314	102.23
396.524	75.6
396.733	94.04
396.942	110.42
397.152	120.66
397.361	118.61
397.57	124.76
397.78	104.28
397.989	79.7
398.198	155.47
398.407	98.13
398.617	145.24
398.826	69.46
399.035	94.04
399.244	139.09
399.453	118.61
399.663	149.33
399.872	96.08
400.081	87.89
400.29	180.05
400.499	94.04
400.708	143.19
400.917	141.14
401.127	167.76
401.336	102.23
401.545	235.35
401.754	100.18
401.963	161.62
402.172	108.37
402.381	89.94
402.59	196.43
402.799	198.48
403.008	153.43
403.217	214.87
403.426	128.85
403.635	91.99
403.844	206.67
404.053	165.71
404.262	161.62
404.471	214.87
404.68	100.18
404.888	153.43
405.097	128.85
405.306	171.86
405.515	198.48
405.724	200.53
405.933	210.77
406.142	231.25
406.35	284.5
406.559	225.11
406.768	196.43
406.977	251.73
407.185	327.5
407.394	251.73
407.603	165.71
407.812	313.17
408.02	280.4
408.229	329.55
408.438	286.54
408.646	196.43
408.855	321.36
409.064	264.02
409.272	278.35
409.481	280.4
409.69	345.94
409.898	376.66
410.107	354.13
410.315	421.71
410.524	325.46
410.733	515.92
410.941	419.66
411.15	470.86
411.358	409.42
411.567	452.43
411.775	524.11
411.984	483.15
412.192	522.06
412.401	606.03
412.609	640.84
412.818	671.56
413.026	608.08
413.234	657.23
413.443	675.66
413.651	673.61
413.86	702.28
414.068	835.4
414.276	853.83
414.485	859.98
414.693	853.83
414.901	909.13
415.11	870.22
415.318	894.79
415.526	984.9
415.734	931.66
415.943	935.75
416.151	1075.01
416.359	1023.81
416.567	1072.96
416.776	1068.87
416.984	1201.99
417.192	1259.33
417.4	1283.91
417.608	1281.86
417.817	1335.1
418.025	1460.03
418.233	1449.79
418.441	1482.56
418.649	1406.78
418.857	1703.74
419.065	1679.16
419.273	1642.3
419.481	1750.84
419.689	1849.15
419.897	1836.86
420.105	2084.66
420.313	2025.27
420.521	2092.85
420.729	2166.58
420.937	2119.48
421.145	2248.5
421.353	2309.94
421.561	2524.97
421.769	2572.08
421.977	2787.11
422.185	2549.55
422.393	2846.51
422.601	2871.08
422.809	2877.23
423.017	2875.18
423.224	3020.58
423.432	3024.68
423.64	3184.42
423.848	3434.27
424.056	3333.92
424.263	3579.68
424.471	3663.65
424.679	3710.75
424.887	4001.56
425.094	4081.43
425.302	4050.71
425.51	4138.77
425.718	4376.34
425.925	4345.62
426.133	4607.76
426.341	4734.73
426.548	5064.46
426.756	5150.47
426.964	5160.71
427.171	5367.56
427.379	5730.05
427.586	5594.88
427.794	5742.33
428.001	6096.63
428.209	6178.55
428.417	6133.5
428.624	6659.82
428.832	6823.66
429.039	6471.41
429.247	6579.95
429.454	7167.72
429.662	7546.59
429.869	7255.78
430.076	7782.11
430.284	7489.25
430.491	7925.47
430.699	8206.04
430.906	8328.92
431.114	8408.79
431.321	8668.88
431.528	8949.45
431.736	9463.49
431.943	9920.19
432.15	9494.21
432.358	9688.77
432.565	10235.58
432.772	10118.84
432.979	10751.67
433.187	10954.41
433.394	10899.12
433.601	11734.69
433.808	11865.76
434.016	11804.32
434.223	12342.94
434.43	12725.91
434.637	12635.8
434.844	13358.73
435.052	13692.55
435.259	13659.78
435.466	13844.1
435.673	13536.9
435.88	14433.91
436.087	15271.53
436.294	15083.12
436.501	14995.06
436.708	15111.79
436.915	15566.44
437.122	16371.29
437.329	16264.8
437.537	16643.67
437.743	17282.64
437.95	16854.61
438.157	17737.29
438.364	18638.39
438.571	18247.23
438.778	18320.96
438.985	20168.23
439.192	19559.98
439.399	20182.56
439.606	19699.24
439.813	20729.37
440.02	22265.35
440.227	21640.72
440.433	21491.21
440.64	22109.7
440.847	21923.33
441.054	22681.08
441.261	24063.46
441.467	23829.99
441.674	24026.6
441.881	25079.25
442.088	24960.47
442.294	24638.94
442.501	25451.98
442.708	25877.96
442.914	26899.9
443.121	28188.07
443.328	27616.69
443.534	29171.1
443.741	28509.6
443.948	28149.16
444.154	30201.22
444.361	29611.41
444.568	30256.52
444.774	30037.39
444.981	30199.18
445.187	31124.86
445.394	32951.65
445.6	31925.61
445.807	35196.22
446.013	33707.35
446.22	34411.85
446.426	35384.63
446.633	36130.09
446.839	36764.96
447.046	35519.8
447.252	37559.58
447.459	37451.03
447.665	37203.23
447.871	39331.07
448.078	40461.55
448.284	38262.03
448.491	39742.71
448.697	41170.15
448.903	41931.99
449.11	42224.85
449.316	41426.14
449.522	41647.32
449.728	42650.83
449.935	43080.9
450.141	43306.18
450.347	44453.04
450.553	42513.61
450.76	43064.52
450.966	44160.18
451.172	43947.19
451.378	45079.72
451.584	44274.87
451.791	45214.88
451.997	44919.98
452.203	45829.27
452.409	45685.92
452.615	45440.16
452.821	44020.92
453.027	44082.36
453.233	45657.24
453.44	43855.03
453.646	44321.97
453.852	44240.05
454.058	45184.16
454.264	43254.98
454.47	44489.9
454.676	43515.07
454.882	45067.43
455.088	40848.61
455.294	41565.4
455.5	42153.17
455.705	42654.92
455.911	40795.37
456.117	40205.55
456.323	39439.61
456.529	37557.53
456.735	39365.88
456.941	37809.43
457.147	37168.41
457.352	36285.74
457.558	35851.57
457.764	35609.91
457.97	35337.53
458.176	34852.16
458.381	34622.79
458.587	32736.61
458.793	33017.18
458.999	31128.95
459.204	33402.2
459.41	32607.59
459.616	30172.55
459.821	30064.01
460.027	29994.38
460.233	29502.87
460.438	28104.1
460.644	28214.69
460.85	27067.83
461.055	26703.29
461.261	26742.21
461.466	24741.34
461.672	23817.71
461.878	25707.98
462.083	24190.44
462.289	23703.02
462.494	23178.74
462.7	22091.27
462.905	21892.62
463.111	22681.08
463.316	22568.44
463.522	22105.6
463.727	22076.93
463.932	22287.87
464.138	21925.38
464.343	21792.26
464.549	21126.67
464.754	22257.15
464.959	21818.89
465.165	21759.5
465.37	20833.82
465.575	20479.52
465.781	21188.11
465.986	21323.28
466.191	20545.05
466.397	19750.44
466.602	19052.08
