Data from USB4F104151__197__10-29-31-086.txt Node

Date: Wed Mar 12 10:29:31 EDT 2025
User: louis
Spectrometer: USB4F10415
Trigger mode: 4
Integration Time (sec): 3.000000E-2
Scans to average: 1
Electric dark correction enabled: true
Nonlinearity correction enabled: false
Boxcar width: 0
XAxis mode: Wavelengths
Number of Pixels in Spectrum: 3648
>>>>>Begin Spectral Data<<<<<
178.204	-69.12
178.424	-69.12
178.644	-69.12
178.864	-44.54
179.084	-118.27
179.304	37.38
179.524	-56.83
179.744	-9.73
179.964	41.47
180.184	27.14
180.404	16.9
180.624	25.09
180.844	20.99
181.064	-79.36
181.283	8.7
181.503	-19.97
181.723	-11.78
181.943	-67.07
182.163	14.85
182.383	70.14
182.602	18.94
182.822	55.81
183.042	41.47
183.262	41.47
183.482	-26.11
183.701	-26.11
183.921	55.81
184.141	-17.92
184.361	57.86
184.58	12.8
184.8	-3.58
185.02	37.38
185.239	86.53
185.459	-22.02
185.679	49.66
185.898	-11.78
186.118	61.95
186.338	-15.87
186.557	84.48
186.777	12.8
186.997	-114.17
187.216	33.28
187.436	66.05
187.655	88.57
187.875	94.72
188.095	-15.87
188.314	76.29
188.534	82.43
188.753	-56.83
188.973	107.01
189.192	23.04
189.412	16.9
189.631	-22.02
189.851	23.04
190.07	14.85
190.29	29.18
190.509	80.38
190.729	135.68
190.948	102.91
191.168	139.77
191.387	41.47
191.607	-26.11
191.826	35.33
192.045	16.9
192.265	-17.92
192.484	-15.87
192.704	6.66
192.923	12.8
193.142	143.87
193.362	57.86
193.581	20.99
193.8	14.85
194.02	92.67
194.239	-42.5
194.458	12.8
194.678	-34.3
194.897	41.47
195.116	33.28
195.335	35.33
195.555	-5.63
195.774	61.95
195.993	61.95
196.212	4.61
196.432	2.56
196.651	6.66
196.87	0.51
197.089	66.05
197.308	86.53
197.528	107.01
197.747	-32.26
197.966	-13.82
198.185	82.43
198.404	55.81
198.623	45.57
198.842	20.99
199.062	55.81
199.281	12.8
199.5	4.61
199.719	86.53
199.938	-69.12
200.157	61.95
200.376	86.53
200.595	61.95
200.814	29.18
201.033	-50.69
201.252	33.28
201.471	-22.02
201.69	-9.73
201.909	12.8
202.128	37.38
202.347	45.57
202.566	31.23
202.785	18.94
203.004	-36.35
203.223	168.45
203.442	4.61
203.661	-3.58
203.879	37.38
204.098	76.29
204.317	45.57
204.536	27.14
204.755	8.7
204.974	53.76
205.193	84.48
205.411	131.58
205.63	72.19
205.849	51.71
206.068	33.28
206.287	-13.82
206.505	57.86
206.724	43.52
206.943	43.52
207.162	0.51
207.381	39.42
207.599	78.33
207.818	-34.3
208.037	0.51
208.255	90.62
208.474	51.71
208.693	41.47
208.911	29.18
209.13	-5.63
209.349	55.81
209.567	-26.11
209.786	131.58
210.005	18.94
210.223	-56.83
210.442	4.61
210.661	129.53
210.879	-15.87
211.098	6.66
211.316	27.14
211.535	16.9
211.753	43.52
211.972	-11.78
212.191	12.8
212.409	-19.97
212.628	94.72
212.846	-28.16
213.065	117.25
213.283	8.7
213.502	25.09
213.72	51.71
213.938	66.05
214.157	53.76
214.375	4.61
214.594	41.47
214.812	12.8
215.031	84.48
215.249	20.99
215.467	12.8
215.686	74.24
215.904	68.09
216.122	37.38
216.341	20.99
216.559	-42.5
216.778	66.05
216.996	53.76
217.214	4.61
217.432	72.19
217.651	4.61
217.869	25.09
218.087	76.29
218.306	29.18
218.524	84.48
218.742	4.61
218.96	33.28
219.179	-24.06
219.397	35.33
219.615	82.43
219.833	64
220.051	43.52
220.27	86.53
220.488	82.43
220.706	2.56
220.924	0.51
221.142	18.94
221.36	41.47
221.578	78.33
221.796	4.61
222.015	33.28
222.233	12.8
222.451	82.43
222.669	6.66
222.887	98.81
223.105	-5.63
223.323	-5.63
223.541	53.76
223.759	18.94
223.977	37.38
224.195	92.67
224.413	2.56
224.631	35.33
224.849	12.8
225.067	35.33
225.285	20.99
225.503	107.01
225.721	25.09
225.939	-3.58
226.157	61.95
226.375	127.49
226.592	-48.64
226.81	70.14
227.028	61.95
227.246	51.71
227.464	-9.73
227.682	20.99
227.9	80.38
228.117	53.76
228.335	10.75
228.553	84.48
228.771	6.66
228.989	57.86
229.206	70.14
229.424	6.66
229.642	-1.54
229.86	12.8
230.077	96.77
230.295	41.47
230.513	45.57
230.731	94.72
230.948	4.61
231.166	100.86
231.384	23.04
231.601	16.9
231.819	66.05
232.037	86.53
232.254	10.75
232.472	45.57
232.689	-3.58
232.907	47.62
233.125	2.56
233.342	-40.45
233.56	-44.54
233.777	-1.54
233.995	-24.06
234.213	57.86
234.43	33.28
234.648	96.77
234.865	12.8
235.083	12.8
235.3	12.8
235.518	64
235.735	51.71
235.953	33.28
236.17	27.14
236.388	-7.68
236.605	-17.92
236.822	61.95
237.04	102.91
237.257	20.99
237.475	-40.45
237.692	123.39
237.909	102.91
238.127	-24.06
238.344	16.9
238.562	20.99
238.779	33.28
238.996	-36.35
239.214	74.24
239.431	39.42
239.648	57.86
239.865	45.57
240.083	61.95
240.3	2.56
240.517	12.8
240.735	27.14
240.952	20.99
241.169	16.9
241.386	43.52
241.603	-46.59
241.821	-7.68
242.038	47.62
242.255	61.95
242.472	31.23
242.689	4.61
242.907	55.81
243.124	-19.97
243.341	37.38
243.558	-30.21
243.775	12.8
243.992	31.23
244.209	18.94
244.426	57.86
244.643	16.9
244.86	41.47
245.078	82.43
245.295	4.61
245.512	6.66
245.729	29.18
245.946	109.05
246.163	35.33
246.38	16.9
246.597	102.91
246.814	94.72
247.031	27.14
247.248	-7.68
247.464	37.38
247.681	37.38
247.898	39.42
248.115	-1.54
248.332	20.99
248.549	51.71
248.766	53.76
248.983	2.56
249.2	35.33
249.417	12.8
249.633	31.23
249.85	96.77
250.067	6.66
250.284	35.33
250.501	96.77
250.717	45.57
250.934	20.99
251.151	-36.35
251.368	107.01
251.585	107.01
251.801	55.81
252.018	23.04
252.235	35.33
252.451	-13.82
252.668	25.09
252.885	-17.92
253.102	23.04
253.318	109.05
253.535	20.99
253.752	16.9
253.968	-67.07
254.185	-13.82
254.401	45.57
254.618	27.14
254.835	37.38
255.051	82.43
255.268	76.29
255.484	-3.58
255.701	8.7
255.917	109.05
256.134	39.42
256.351	88.57
256.567	47.62
256.784	76.29
257	-19.97
257.217	16.9
257.433	23.04
257.65	53.76
257.866	16.9
258.082	2.56
258.299	-28.16
258.515	55.81
258.732	29.18
258.948	-46.59
259.165	59.9
259.381	6.66
259.597	43.52
259.814	27.14
260.03	-11.78
260.246	49.66
260.463	43.52
260.679	-13.82
260.895	37.38
261.112	55.81
261.328	12.8
261.544	0.51
261.761	39.42
261.977	61.95
262.193	6.66
262.409	-17.92
262.626	70.14
262.842	55.81
263.058	45.57
263.274	-3.58
263.49	92.67
263.707	64
263.923	39.42
264.139	72.19
264.355	55.81
264.571	43.52
264.787	20.99
265.004	41.47
265.22	45.57
265.436	35.33
265.652	23.04
265.868	70.14
266.084	-38.4
266.3	109.05
266.516	-38.4
266.732	119.29
266.948	-17.92
267.164	57.86
267.38	16.9
267.596	82.43
267.812	82.43
268.028	25.09
268.244	29.18
268.46	82.43
268.676	86.53
268.892	76.29
269.108	33.28
269.324	74.24
269.54	29.18
269.756	-3.58
269.972	27.14
270.188	-24.06
270.403	25.09
270.619	92.67
270.835	107.01
271.051	49.66
271.267	16.9
271.483	12.8
271.698	14.85
271.914	27.14
272.13	82.43
272.346	49.66
272.562	4.61
272.777	4.61
272.993	2.56
273.209	0.51
273.425	31.23
273.64	109.05
273.856	59.9
274.072	-42.5
274.287	84.48
274.503	121.34
274.719	82.43
274.934	143.87
275.15	-7.68
275.366	0.51
275.581	20.99
275.797	53.76
276.012	12.8
276.228	57.86
276.444	20.99
276.659	135.68
276.875	27.14
277.09	-28.16
277.306	82.43
277.521	0.51
277.737	55.81
277.952	74.24
278.168	35.33
278.383	14.85
278.599	66.05
278.814	53.76
279.03	59.9
279.245	137.73
279.461	59.9
279.676	59.9
279.892	68.09
280.107	2.56
280.322	16.9
280.538	18.94
280.753	16.9
280.969	88.57
281.184	-46.59
281.399	78.33
281.615	-28.16
281.83	29.18
282.045	-30.21
282.26	27.14
282.476	82.43
282.691	102.91
282.906	49.66
283.122	-19.97
283.337	-22.02
283.552	18.94
283.767	-26.11
283.983	86.53
284.198	23.04
284.413	70.14
284.628	18.94
284.843	35.33
285.058	102.91
285.274	14.85
285.489	39.42
285.704	84.48
285.919	4.61
286.134	119.29
286.349	74.24
286.564	12.8
286.779	51.71
286.995	53.76
287.21	74.24
287.425	6.66
287.64	51.71
287.855	72.19
288.07	-19.97
288.285	80.38
288.5	107.01
288.715	45.57
288.93	41.47
289.145	2.56
289.36	74.24
289.575	33.28
289.79	-11.78
290.004	10.75
290.219	14.85
290.434	70.14
290.649	49.66
290.864	88.57
291.079	57.86
291.294	-28.16
291.509	25.09
291.724	41.47
291.938	4.61
292.153	41.47
292.368	2.56
292.583	68.09
292.798	31.23
293.012	61.95
293.227	35.33
293.442	72.19
293.657	10.75
293.871	57.86
294.086	70.14
294.301	92.67
294.516	33.28
294.73	100.86
294.945	4.61
295.16	59.9
295.374	86.53
295.589	61.95
295.804	59.9
296.018	-1.54
296.233	16.9
296.447	47.62
296.662	-15.87
296.877	43.52
297.091	74.24
297.306	84.48
297.52	4.61
297.735	115.2
297.949	51.71
298.164	-30.21
298.378	4.61
298.593	82.43
298.807	-15.87
299.022	33.28
299.236	35.33
299.451	96.77
299.665	20.99
299.88	35.33
300.094	76.29
300.309	109.05
300.523	-9.73
300.737	72.19
300.952	37.38
301.166	-19.97
301.381	4.61
301.595	8.7
301.809	31.23
302.024	-3.58
302.238	16.9
302.452	107.01
302.667	-3.58
302.881	4.61
303.095	20.99
303.309	31.23
303.524	-36.35
303.738	31.23
303.952	4.61
304.166	29.18
304.381	-9.73
304.595	68.09
304.809	53.76
305.023	53.76
305.237	86.53
305.452	64
305.666	66.05
305.88	49.66
306.094	4.61
306.308	64
306.522	29.18
306.736	61.95
306.95	55.81
307.164	-19.97
307.379	4.61
307.593	90.62
307.807	14.85
308.021	-60.93
308.235	64
308.449	29.18
308.663	70.14
308.877	57.86
309.091	-22.02
309.305	74.24
309.519	27.14
309.733	61.95
309.947	74.24
310.161	-1.54
310.374	86.53
310.588	80.38
310.802	61.95
311.016	37.38
311.23	18.94
311.444	94.72
311.658	45.57
311.872	70.14
312.085	-5.63
312.299	96.77
312.513	76.29
312.727	33.28
312.941	31.23
313.154	10.75
313.368	-26.11
313.582	57.86
313.796	23.04
314.009	135.68
314.223	39.42
314.437	68.09
314.651	-1.54
314.864	84.48
315.078	86.53
315.292	33.28
315.505	139.77
315.719	18.94
315.933	129.53
316.146	-22.02
316.36	92.67
316.573	119.29
316.787	55.81
317.001	74.24
317.214	18.94
317.428	68.09
317.641	25.09
317.855	66.05
318.068	-7.68
318.282	29.18
318.495	39.42
318.709	45.57
318.922	16.9
319.136	98.81
319.349	127.49
319.563	2.56
319.776	-17.92
319.99	49.66
320.203	53.76
320.417	66.05
320.63	25.09
320.843	104.96
321.057	37.38
321.27	10.75
321.483	27.14
321.697	113.15
321.91	4.61
322.124	90.62
322.337	18.94
322.55	66.05
322.763	-46.59
322.977	51.71
323.19	47.62
323.403	55.81
323.617	37.38
323.83	78.33
324.043	53.76
324.256	47.62
324.469	92.67
324.683	137.73
324.896	29.18
325.109	111.1
325.322	-3.58
325.535	98.81
325.748	66.05
325.962	59.9
326.175	131.58
326.388	45.57
326.601	-9.73
326.814	0.51
327.027	57.86
327.24	33.28
327.453	104.96
327.666	59.9
327.879	100.86
328.092	57.86
328.305	23.04
328.518	45.57
328.731	20.99
328.944	27.14
329.157	49.66
329.37	57.86
329.583	100.86
329.796	76.29
330.009	35.33
330.222	92.67
330.435	78.33
330.648	16.9
330.861	35.33
331.073	29.18
331.286	57.86
331.499	43.52
331.712	55.81
331.925	78.33
332.138	55.81
332.35	84.48
332.563	16.9
332.776	49.66
332.989	29.18
333.202	53.76
333.414	78.33
333.627	6.66
333.84	43.52
334.053	109.05
334.265	-24.06
334.478	55.81
334.691	8.7
334.903	92.67
335.116	8.7
335.329	-5.63
335.541	66.05
335.754	98.81
335.966	12.8
336.179	74.24
336.392	-7.68
336.604	107.01
336.817	74.24
337.029	8.7
337.242	55.81
337.454	78.33
337.667	20.99
337.88	96.77
338.092	86.53
338.305	23.04
338.517	-19.97
338.729	55.81
338.942	-11.78
339.154	37.38
339.367	33.28
339.579	72.19
339.792	41.47
340.004	18.94
340.217	-1.54
340.429	121.34
340.641	27.14
340.854	35.33
341.066	-3.58
341.278	53.76
341.491	66.05
341.703	74.24
341.915	12.8
342.128	61.95
342.34	20.99
342.552	43.52
342.764	78.33
342.977	55.81
343.189	64
343.401	20.99
343.613	4.61
343.826	61.95
344.038	25.09
344.25	49.66
344.462	-22.02
344.674	39.42
344.886	80.38
345.099	72.19
345.311	72.19
345.523	-15.87
345.735	8.7
345.947	84.48
346.159	61.95
346.371	-11.78
346.583	76.29
346.795	25.09
347.007	90.62
347.219	57.86
347.431	45.57
347.643	86.53
347.855	57.86
348.067	29.18
348.279	66.05
348.491	23.04
348.703	47.62
348.915	59.9
349.127	25.09
349.339	51.71
349.551	27.14
349.763	92.67
349.975	51.71
350.187	27.14
350.399	59.9
350.61	88.57
350.822	70.14
351.034	94.72
351.246	35.33
351.458	39.42
351.669	109.05
351.881	43.52
352.093	92.67
352.305	-13.82
352.517	20.99
352.728	88.57
352.94	4.61
353.152	55.81
353.363	-3.58
353.575	111.1
353.787	86.53
353.999	152.06
354.21	92.67
354.422	51.71
354.633	29.18
354.845	98.81
355.057	82.43
355.268	33.28
355.48	-13.82
355.692	23.04
355.903	33.28
356.115	16.9
356.326	-62.98
356.538	84.48
356.749	90.62
356.961	57.86
357.172	84.48
357.384	-13.82
357.595	90.62
357.807	100.86
358.018	104.96
358.23	57.86
358.441	94.72
358.653	188.93
358.864	0.51
359.075	41.47
359.287	125.44
359.498	74.24
359.709	-26.11
359.921	31.23
360.132	70.14
360.344	45.57
360.555	49.66
360.766	25.09
360.977	35.33
361.189	35.33
361.4	55.81
361.611	107.01
361.823	94.72
362.034	129.53
362.245	20.99
362.456	25.09
362.667	37.38
362.879	117.25
363.09	70.14
363.301	2.56
363.512	14.85
363.723	80.38
363.935	-19.97
364.146	49.66
364.357	41.47
364.568	82.43
364.779	10.75
364.99	78.33
365.201	0.51
365.412	43.52
365.623	-36.35
365.834	51.71
366.045	74.24
366.256	53.76
366.467	27.14
366.678	47.62
366.889	74.24
367.1	-19.97
367.311	100.86
367.522	37.38
367.733	74.24
367.944	123.39
368.155	29.18
368.366	4.61
368.577	82.43
368.788	70.14
368.999	-5.63
369.209	92.67
369.42	94.72
369.631	109.05
369.842	51.71
370.053	-7.68
370.264	78.33
370.474	-32.26
370.685	6.66
370.896	61.95
371.107	86.53
371.317	94.72
371.528	0.51
371.739	61.95
371.95	37.38
372.16	74.24
372.371	64
372.582	49.66
372.792	45.57
373.003	51.71
373.214	70.14
373.424	74.24
373.635	-11.78
373.846	152.06
374.056	70.14
374.267	111.1
374.477	37.38
374.688	55.81
374.898	111.1
375.109	98.81
375.319	104.96
375.53	123.39
375.74	45.57
375.951	66.05
376.161	23.04
376.372	86.53
376.582	33.28
376.793	29.18
377.003	61.95
377.214	78.33
377.424	64
377.635	10.75
377.845	131.58
378.055	94.72
378.266	23.04
378.476	51.71
378.686	2.56
378.897	51.71
379.107	137.73
379.317	180.73
379.528	64
379.738	121.34
379.948	25.09
380.158	31.23
380.369	8.7
380.579	125.44
380.789	92.67
380.999	51.71
381.21	43.52
381.42	59.9
381.63	51.71
381.84	127.49
382.05	33.28
382.261	84.48
382.471	156.16
382.681	-7.68
382.891	61.95
383.101	59.9
383.311	6.66
383.521	78.33
383.731	117.25
383.941	113.15
384.151	61.95
384.361	66.05
384.571	72.19
384.781	27.14
384.991	45.57
385.201	188.93
385.411	72.19
385.621	102.91
385.831	-50.69
386.041	59.9
386.251	53.76
386.461	100.86
386.671	135.68
386.881	107.01
387.091	37.38
387.301	51.71
387.511	55.81
387.72	66.05
387.93	164.35
388.14	94.72
388.35	80.38
388.56	162.3
388.769	80.38
388.979	37.38
389.189	33.28
389.399	117.25
389.609	102.91
389.818	141.82
390.028	41.47
390.238	37.38
390.447	45.57
390.657	55.81
390.867	39.42
391.076	53.76
391.286	49.66
391.496	66.05
391.705	47.62
391.915	160.25
392.125	107.01
392.334	145.92
392.544	78.33
392.753	96.77
392.963	61.95
393.172	35.33
393.382	39.42
393.591	211.45
393.801	84.48
394.01	88.57
394.22	115.2
394.429	74.24
394.639	107.01
394.848	66.05
395.058	94.72
395.267	141.82
395.477	94.72
395.686	82.43
395.895	139.77
396.105	100.86
396.314	129.53
396.524	131.58
396.733	113.15
396.942	152.06
397.152	150.01
397.361	166.4
397.57	102.91
397.78	154.11
397.989	82.43
398.198	193.02
398.407	102.91
398.617	121.34
398.826	92.67
399.035	125.44
399.244	186.88
399.453	150.01
399.663	201.21
399.872	90.62
400.081	104.96
400.29	102.91
400.499	119.29
400.708	102.91
400.917	125.44
401.127	111.1
401.336	115.2
401.545	135.68
401.754	205.31
401.963	170.49
402.172	86.53
402.381	162.3
402.59	229.88
402.799	2.56
403.008	100.86
403.217	147.97
403.426	143.87
403.635	100.86
403.844	135.68
404.053	176.64
404.262	143.87
404.471	240.12
404.68	186.88
404.888	117.25
405.097	227.84
405.306	170.49
405.515	129.53
405.724	213.5
405.933	152.06
406.142	256.51
406.35	190.97
406.559	244.22
406.768	217.6
406.977	262.65
407.185	233.98
407.394	229.88
407.603	254.46
407.812	272.89
408.02	303.61
408.229	217.6
408.438	272.89
408.646	199.16
408.855	299.52
409.064	264.7
409.272	233.98
409.481	401.91
409.69	352.76
409.898	332.28
410.107	344.57
410.315	356.86
410.524	332.28
410.733	379.39
410.941	373.24
411.15	426.49
411.358	367.1
411.567	444.92
411.775	520.7
411.984	442.87
412.192	512.5
412.401	459.26
412.609	604.66
412.818	545.27
413.026	483.83
413.234	610.81
413.443	674.29
413.651	619
413.86	705.01
414.068	608.76
414.276	756.21
414.485	688.63
414.693	750.07
414.901	850.42
415.11	870.9
415.318	797.17
415.526	926.19
415.734	834.04
415.943	920.05
416.151	1020.4
416.359	911.86
416.567	1079.79
416.776	1020.4
416.984	1174
417.192	1137.13
417.4	1098.22
417.608	1180.14
417.817	1096.18
418.025	1321.45
418.233	1348.08
418.441	1286.64
418.649	1354.22
418.857	1409.51
419.065	1544.68
419.273	1610.22
419.481	1518.06
419.689	1653.22
419.897	1694.18
420.105	1634.79
420.313	1708.52
420.521	1913.31
420.729	1952.23
420.937	2025.95
421.145	1905.12
421.353	2042.34
421.561	2118.11
421.769	2302.43
421.977	2433.5
422.185	2320.86
422.393	2529.75
422.601	2566.62
422.809	2556.38
423.017	2613.72
423.224	2685.4
423.432	2816.47
423.64	2824.66
423.848	3162.58
424.056	3013.07
424.263	3203.54
424.471	3332.56
424.679	3262.93
424.887	3473.87
425.094	3705.29
425.302	3596.75
425.51	3629.51
425.718	3940.8
425.925	3938.76
426.133	4065.73
426.341	4272.57
426.548	4405.69
426.756	4452.8
426.964	4520.38
427.171	4759.99
427.379	4934.07
427.586	4891.06
427.794	5220.78
428.001	5448.11
428.209	5677.48
428.417	5534.12
428.624	5966.24
428.832	5796.26
429.039	5738.92
429.247	5876.13
429.454	6547.87
429.662	7063.96
429.869	6455.71
430.076	6867.35
430.284	6513.05
430.491	7008.66
430.699	7270.8
430.906	7270.8
431.114	7367.06
431.321	7797.13
431.528	7924.1
431.736	8522.11
431.943	8907.13
432.15	8339.84
432.358	8702.33
432.565	9204.08
432.772	9099.64
432.979	9560.43
433.187	9689.45
433.394	9531.76
433.601	10389.86
433.808	10305.89
434.016	10445.15
434.223	10971.48
434.43	11589.97
434.637	11329.88
434.844	11977.03
435.052	11981.13
435.259	12015.94
435.466	12079.43
435.673	12061
435.88	12857.66
436.087	13715.76
436.294	13369.65
436.501	13140.28
436.708	13525.3
436.915	13844.78
437.122	14618.91
437.329	14639.39
437.537	15040.79
437.743	14950.68
437.95	15300.89
438.157	15923.47
438.364	16455.94
438.571	16255.24
438.778	16337.16
438.985	18065.64
439.192	17254.65
439.399	17811.7
439.606	17254.65
439.813	18411.75
440.02	19755.22
440.227	19052.77
440.433	18798.82
440.64	19630.29
440.847	19335.38
441.054	20244.68
441.261	21414.07
441.467	21020.86
441.674	21530.81
441.881	22149.29
442.088	22249.64
442.294	21846.19
442.501	22696.1
442.708	23031.97
442.914	23916.69
443.121	24830.09
443.328	24363.15
443.534	25915.51
443.741	24965.25
443.948	24969.35
444.154	27005.03
444.361	26538.09
444.568	26851.43
444.774	26843.24
444.981	26800.23
445.187	27834.46
445.394	28827.72
445.6	28831.82
445.807	31625.25
446.013	29753.4
446.22	30580.78
446.426	31379.49
446.633	31791.13
446.839	32960.52
447.046	31797.27
447.252	32927.75
447.459	33159.17
447.665	33159.17
447.871	34557.94
448.078	35710.94
448.284	34254.84
448.491	35432.42
448.697	36505.55
448.903	36947.92
449.11	37722.05
449.316	36859.85
449.522	37109.71
449.728	38164.41
449.935	38508.47
450.141	37922.75
450.347	39428.01
450.553	38047.68
450.76	38746.03
450.966	39368.62
451.172	38987.69
451.378	40032.16
451.584	39493.54
451.791	40150.94
451.997	40312.73
452.203	40718.23
452.409	40503.19
452.615	40445.85
452.821	38651.83
453.027	38666.16
453.233	40179.61
453.44	39063.47
453.646	39483.3
453.852	39815.07
454.058	40089.5
454.264	38932.4
454.47	39972.77
454.676	38729.65
454.882	39940
455.088	36313.05
455.294	36902.86
455.5	37455.81
455.705	37894.08
455.911	36452.31
456.117	35592.16
456.323	34932.71
456.529	32993.29
456.735	34678.77
456.941	33593.34
457.147	33323.01
457.352	32290.84
457.558	31866.91
457.764	32225.3
457.97	31457.31
458.176	30914.6
458.381	30640.17
458.587	29085.76
458.793	29001.8
458.999	27654.23
459.204	29618.24
459.41	28772.42
459.616	27035.75
459.821	27058.28
460.027	27185.25
460.233	26339.44
460.438	25008.26
460.644	25507.96
460.85	23761.05
461.055	23910.55
461.261	23566.49
461.466	21995.7
461.672	21360.83
461.878	23019.68
462.083	21532.86
462.289	20908.22
462.494	20674.76
462.7	20105.42
462.905	19251.42
463.111	20078.8
463.316	20152.52
463.522	19906.77
463.727	19536.09
463.932	19388.63
464.138	19271.9
464.343	19198.17
464.549	19030.24
464.754	19519.7
464.959	19425.5
465.165	19194.08
465.37	18589.92
465.575	17924.33
465.781	18677.99
465.986	18917.6
466.191	17946.86
466.397	17754.35
466.602	16926.97
466.807	17740.02
467.012	17426.68
467.218	17324.28
467.423	17033.47
467.628	17246.46
