Data from USB4F104151__218__10-30-08-731.txt Node

Date: Wed Mar 12 10:30:08 EDT 2025
User: louis
Spectrometer: USB4F10415
Trigger mode: 4
Integration Time (sec): 3.000000E-2
Scans to average: 1
Electric dark correction enabled: true
Nonlinearity correction enabled: false
Boxcar width: 0
XAxis mode: Wavelengths
Number of Pixels in Spectrum: 3648
>>>>>Begin Spectral Data<<<<<
178.204	-71.34
178.424	-71.34
178.644	-71.34
178.864	-140.97
179.084	-91.82
179.304	-13.99
179.524	-40.62
179.744	-38.57
179.964	39.25
180.184	0.34
180.404	-44.71
180.624	-18.09
180.844	16.73
181.064	-7.85
181.283	59.73
181.503	26.96
181.723	20.82
181.943	-16.04
182.163	76.12
182.383	31.06
182.602	98.64
182.822	29.01
183.042	2.39
183.262	-20.14
183.482	-20.14
183.701	37.2
183.921	24.92
184.141	-18.09
184.361	8.53
184.58	94.55
184.8	12.63
185.02	-16.04
185.239	63.83
185.459	90.45
185.679	78.16
185.898	-5.8
186.118	16.73
186.338	82.26
186.557	76.12
186.777	12.63
186.997	41.3
187.216	12.63
187.436	51.54
187.655	45.4
187.875	37.2
188.095	-7.85
188.314	-22.19
188.534	20.82
188.753	16.73
188.973	18.77
189.192	26.96
189.412	8.53
189.631	63.83
189.851	16.73
190.07	55.64
190.29	12.63
190.509	63.83
190.729	-11.95
190.948	55.64
191.168	102.74
191.387	110.93
191.607	-65.19
191.826	98.64
192.045	22.87
192.265	49.49
192.484	31.06
192.704	-3.75
192.923	12.63
193.142	45.4
193.362	65.88
193.581	53.59
193.8	39.25
194.02	39.25
194.239	39.25
194.458	-7.85
194.678	43.35
194.897	16.73
195.116	14.68
195.335	53.59
195.555	14.68
195.774	57.68
195.993	53.59
196.212	53.59
196.432	33.11
196.651	43.35
196.87	12.63
197.089	78.16
197.308	65.88
197.528	55.64
197.747	6.49
197.966	49.49
198.185	39.25
198.404	31.06
198.623	59.73
198.842	78.16
199.062	-7.85
199.281	90.45
199.5	14.68
199.719	69.97
199.938	82.26
200.157	4.44
200.376	123.22
200.595	49.49
200.814	72.02
201.033	4.44
201.252	43.35
201.471	104.79
201.69	55.64
201.909	98.64
202.128	39.25
202.347	41.3
202.566	-5.8
202.785	-7.85
203.004	-11.95
203.223	82.26
203.442	102.74
203.661	10.58
203.879	39.25
204.098	31.06
204.317	-32.43
204.536	61.78
204.755	94.55
204.974	90.45
205.193	20.82
205.411	129.36
205.63	65.88
205.849	20.82
206.068	-3.75
206.287	10.58
206.505	6.49
206.724	14.68
206.943	35.16
207.162	-40.62
207.381	16.73
207.599	4.44
207.818	14.68
208.037	-5.8
208.255	57.68
208.474	33.11
208.693	49.49
208.911	18.77
209.13	6.49
209.349	26.96
209.567	4.44
209.786	104.79
210.005	49.49
210.223	94.55
210.442	-32.43
210.661	39.25
210.879	31.06
211.098	26.96
211.316	74.07
211.535	92.5
211.753	-36.52
211.972	49.49
212.191	29.01
212.409	65.88
212.628	57.68
212.846	39.25
213.065	63.83
213.283	69.97
213.502	26.96
213.72	61.78
213.938	24.92
214.157	92.5
214.375	8.53
214.594	31.06
214.812	29.01
215.031	43.35
215.249	14.68
215.467	20.82
215.686	31.06
215.904	100.69
216.122	20.82
216.341	-7.85
216.559	61.78
216.778	47.44
216.996	45.4
217.214	-13.99
217.432	57.68
217.651	16.73
217.869	47.44
218.087	61.78
218.306	6.49
218.524	59.73
218.742	18.77
218.96	88.4
219.179	31.06
219.397	16.73
219.615	102.74
219.833	-40.62
220.051	35.16
220.27	45.4
220.488	76.12
220.706	69.97
220.924	102.74
221.142	-42.67
221.36	63.83
221.578	-3.75
221.796	8.53
222.015	98.64
222.233	80.21
222.451	16.73
222.669	-32.43
222.887	2.39
223.105	-30.38
223.323	24.92
223.541	14.68
223.759	29.01
223.977	16.73
224.195	117.08
224.413	4.44
224.631	39.25
224.849	-28.33
225.067	135.51
225.285	-5.8
225.503	24.92
225.721	-30.38
225.939	57.68
226.157	49.49
226.375	98.64
226.592	76.12
226.81	82.26
227.028	16.73
227.246	80.21
227.464	-7.85
227.682	0.34
227.9	63.83
228.117	115.03
228.335	-16.04
228.553	41.3
228.771	55.64
228.989	57.68
229.206	12.63
229.424	-13.99
229.642	63.83
229.86	51.54
230.077	-28.33
230.295	106.84
230.513	29.01
230.731	65.88
230.948	20.82
231.166	55.64
231.384	-13.99
231.601	39.25
231.819	-7.85
232.037	0.34
232.254	-11.95
232.472	57.68
232.689	22.87
232.907	8.53
233.125	-3.75
233.342	69.97
233.56	-20.14
233.777	49.49
233.995	51.54
234.213	65.88
234.43	-3.75
234.648	10.58
234.865	-3.75
235.083	41.3
235.3	72.02
235.518	35.16
235.735	92.5
235.953	16.73
236.17	39.25
236.388	-26.28
236.605	-3.75
236.822	0.34
237.04	119.12
237.257	12.63
237.475	74.07
237.692	29.01
237.909	49.49
238.127	2.39
238.344	33.11
238.562	8.53
238.779	6.49
238.996	22.87
239.214	45.4
239.431	145.75
239.648	67.92
239.865	72.02
240.083	61.78
240.3	39.25
240.517	37.2
240.735	35.16
240.952	49.49
241.169	20.82
241.386	47.44
241.603	43.35
241.821	35.16
242.038	96.6
242.255	63.83
242.472	-32.43
242.689	53.59
242.907	-9.9
243.124	119.12
243.341	43.35
243.558	110.93
243.775	22.87
243.992	-11.95
244.209	69.97
244.426	33.11
244.643	43.35
244.86	41.3
245.078	43.35
245.295	20.82
245.512	45.4
245.729	-44.71
245.946	98.64
246.163	45.4
246.38	76.12
246.597	14.68
246.814	20.82
247.031	2.39
247.248	4.44
247.464	29.01
247.681	37.2
247.898	8.53
248.115	41.3
248.332	-24.23
248.549	69.97
248.766	80.21
248.983	-13.99
249.2	100.69
249.417	51.54
249.633	33.11
249.85	121.17
250.067	-7.85
250.284	57.68
250.501	24.92
250.717	61.78
250.934	31.06
251.151	37.2
251.368	26.96
251.585	45.4
251.801	24.92
252.018	2.39
252.235	98.64
252.451	-3.75
252.668	61.78
252.885	12.63
253.102	39.25
253.318	78.16
253.535	-20.14
253.752	61.78
253.968	98.64
254.185	6.49
254.401	59.73
254.618	0.34
254.835	90.45
255.051	33.11
255.268	45.4
255.484	82.26
255.701	14.68
255.917	86.36
256.134	8.53
256.351	0.34
256.567	33.11
256.784	92.5
257	33.11
257.217	53.59
257.433	69.97
257.65	59.73
257.866	-5.8
258.082	0.34
258.299	0.34
258.515	129.36
258.732	63.83
258.948	16.73
259.165	86.36
259.381	90.45
259.597	45.4
259.814	8.53
260.03	53.59
260.246	8.53
260.463	18.77
260.679	33.11
260.895	76.12
261.112	53.59
261.328	-46.76
261.544	41.3
261.761	88.4
261.977	0.34
262.193	0.34
262.409	29.01
262.626	96.6
262.842	-7.85
263.058	33.11
263.274	147.8
263.49	67.92
263.707	29.01
263.923	6.49
264.139	22.87
264.355	61.78
264.571	49.49
264.787	53.59
265.004	94.55
265.22	41.3
265.436	65.88
265.652	-40.62
265.868	37.2
266.084	59.73
266.3	16.73
266.516	39.25
266.732	98.64
266.948	61.78
267.164	-24.23
267.38	49.49
267.596	61.78
267.812	51.54
268.028	-1.71
268.244	69.97
268.46	88.4
268.676	45.4
268.892	37.2
269.108	59.73
269.324	-20.14
269.54	-7.85
269.756	67.92
269.972	43.35
270.188	72.02
270.403	35.16
270.619	41.3
270.835	63.83
271.051	37.2
271.267	-3.75
271.483	55.64
271.698	37.2
271.914	65.88
272.13	80.21
272.346	22.87
272.562	45.4
272.777	12.63
272.993	16.73
273.209	78.16
273.425	45.4
273.64	55.64
273.856	16.73
274.072	8.53
274.287	39.25
274.503	26.96
274.719	90.45
274.934	16.73
275.15	29.01
275.366	31.06
275.581	-3.75
275.797	-40.62
276.012	-20.14
276.228	82.26
276.444	37.2
276.659	35.16
276.875	61.78
277.09	41.3
277.306	57.68
277.521	24.92
277.737	41.3
277.952	94.55
278.168	14.68
278.383	63.83
278.599	55.64
278.814	69.97
279.03	24.92
279.245	98.64
279.461	39.25
279.676	119.12
279.892	16.73
280.107	41.3
280.322	33.11
280.538	20.82
280.753	29.01
280.969	22.87
281.184	18.77
281.399	90.45
281.615	61.78
281.83	-16.04
282.045	33.11
282.26	88.4
282.476	12.63
282.691	98.64
282.906	-3.75
283.122	47.44
283.337	33.11
283.552	80.21
283.767	-20.14
283.983	141.65
284.198	92.5
284.413	12.63
284.628	47.44
284.843	57.68
285.058	67.92
285.274	-40.62
285.489	16.73
285.704	10.58
285.919	86.36
286.134	82.26
286.349	33.11
286.564	29.01
286.779	74.07
286.995	59.73
287.21	33.11
287.425	-40.62
287.64	-24.23
287.855	63.83
288.07	4.44
288.285	12.63
288.5	16.73
288.715	61.78
288.93	94.55
289.145	49.49
289.36	35.16
289.575	98.64
289.79	123.22
290.004	31.06
290.219	121.17
290.434	88.4
290.649	-1.71
290.864	-36.52
291.079	51.54
291.294	129.36
291.509	39.25
291.724	106.84
291.938	33.11
292.153	20.82
292.368	8.53
292.583	45.4
292.798	41.3
293.012	24.92
293.227	49.49
293.442	72.02
293.657	110.93
293.871	112.98
294.086	41.3
294.301	47.44
294.516	39.25
294.73	-36.52
294.945	33.11
295.16	63.83
295.374	82.26
295.589	14.68
295.804	57.68
296.018	74.07
296.233	88.4
296.447	16.73
296.662	74.07
296.877	18.77
297.091	37.2
297.306	90.45
297.52	29.01
297.735	94.55
297.949	47.44
298.164	78.16
298.378	29.01
298.593	53.59
298.807	33.11
299.022	-34.47
299.236	145.75
299.451	10.58
299.665	47.44
299.88	80.21
300.094	63.83
300.309	45.4
300.523	39.25
300.737	37.2
300.952	20.82
301.166	57.68
301.381	-32.43
301.595	-9.9
301.809	59.73
302.024	0.34
302.238	-32.43
302.452	57.68
302.667	4.44
302.881	115.03
303.095	57.68
303.309	49.49
303.524	80.21
303.738	4.44
303.952	74.07
304.166	106.84
304.381	10.58
304.595	47.44
304.809	51.54
305.023	41.3
305.237	26.96
305.452	61.78
305.666	53.59
305.88	100.69
306.094	90.45
306.308	43.35
306.522	53.59
306.736	37.2
306.95	90.45
307.164	47.44
307.379	63.83
307.593	74.07
307.807	67.92
308.021	4.44
308.235	82.26
308.449	96.6
308.663	47.44
308.877	135.51
309.091	100.69
309.305	102.74
309.519	-1.71
309.733	43.35
309.947	-18.09
310.161	51.54
310.374	16.73
310.588	47.44
310.802	-11.95
311.016	-1.71
311.23	112.98
311.444	74.07
311.658	61.78
311.872	131.41
312.085	57.68
312.299	59.73
312.513	63.83
312.727	74.07
312.941	-26.28
313.154	74.07
313.368	45.4
313.582	63.83
313.796	69.97
314.009	94.55
314.223	74.07
314.437	49.49
314.651	100.69
314.864	59.73
315.078	16.73
315.292	41.3
315.505	6.49
315.719	49.49
315.933	39.25
316.146	51.54
316.36	53.59
316.573	8.53
316.787	143.7
317.001	41.3
317.214	-5.8
317.428	59.73
317.641	51.54
317.855	29.01
318.068	90.45
318.282	72.02
318.495	86.36
318.709	8.53
318.922	98.64
319.136	78.16
319.349	104.79
319.563	24.92
319.776	24.92
319.99	-18.09
320.203	139.6
320.417	31.06
320.63	65.88
320.843	57.68
321.057	69.97
321.27	80.21
321.483	43.35
321.697	24.92
321.91	-3.75
322.124	88.4
322.337	110.93
322.55	14.68
322.763	-26.28
322.977	104.79
323.19	8.53
323.403	-73.39
323.617	80.21
323.83	37.2
324.043	22.87
324.256	151.89
324.469	61.78
324.683	90.45
324.896	57.68
325.109	55.64
325.322	-50.86
325.535	51.54
325.748	33.11
325.962	115.03
326.175	35.16
326.388	49.49
326.601	84.31
326.814	74.07
327.027	55.64
327.24	147.8
327.453	-16.04
327.666	106.84
327.879	47.44
328.092	-44.71
328.305	65.88
328.518	-7.85
328.731	0.34
328.944	35.16
329.157	67.92
329.37	43.35
329.583	78.16
329.796	29.01
330.009	37.2
330.222	117.08
330.435	-3.75
330.648	65.88
330.861	72.02
331.073	24.92
331.286	139.6
331.499	63.83
331.712	39.25
331.925	47.44
332.138	59.73
332.35	78.16
332.563	22.87
332.776	94.55
332.989	20.82
333.202	14.68
333.414	8.53
333.627	78.16
333.84	-3.75
334.053	63.83
334.265	20.82
334.478	67.92
334.691	18.77
334.903	94.55
335.116	49.49
335.329	94.55
335.541	-54.95
335.754	80.21
335.966	80.21
336.179	86.36
336.392	80.21
336.604	14.68
336.817	-32.43
337.029	35.16
337.242	74.07
337.454	104.79
337.667	37.2
337.88	139.6
338.092	20.82
338.305	-18.09
338.517	43.35
338.729	-1.71
338.942	117.08
339.154	6.49
339.367	55.64
339.579	74.07
339.792	22.87
340.004	47.44
340.217	33.11
340.429	74.07
340.641	8.53
340.854	35.16
341.066	-5.8
341.278	80.21
341.491	127.32
341.703	115.03
341.915	72.02
342.128	6.49
342.34	33.11
342.552	0.34
342.764	76.12
342.977	82.26
343.189	94.55
343.401	84.31
343.613	-30.38
343.826	108.88
344.038	-9.9
344.25	65.88
344.462	8.53
344.674	47.44
344.886	-40.62
345.099	100.69
345.311	8.53
345.523	39.25
345.735	-30.38
345.947	20.82
346.159	145.75
346.371	39.25
346.583	-1.71
346.795	84.31
347.007	94.55
347.219	80.21
347.431	49.49
347.643	92.5
347.855	63.83
348.067	131.41
348.279	61.78
348.491	76.12
348.703	20.82
348.915	104.79
349.127	8.53
349.339	63.83
349.551	6.49
349.763	39.25
349.975	129.36
350.187	82.26
350.399	117.08
350.61	47.44
350.822	104.79
351.034	178.51
351.246	39.25
351.458	55.64
351.669	61.78
351.881	47.44
352.093	76.12
352.305	88.4
352.517	72.02
352.728	63.83
352.94	51.54
353.152	63.83
353.363	47.44
353.575	125.27
353.787	110.93
353.999	86.36
354.21	127.32
354.422	14.68
354.633	18.77
354.845	98.64
355.057	86.36
355.268	39.25
355.48	37.2
355.692	-1.71
355.903	31.06
356.115	-36.52
356.326	-38.57
356.538	143.7
356.749	4.44
356.961	63.83
357.172	45.4
357.384	31.06
357.595	94.55
357.807	18.77
358.018	41.3
358.23	88.4
358.441	82.26
358.653	37.2
358.864	57.68
359.075	115.03
359.287	24.92
359.498	57.68
359.709	55.64
359.921	43.35
360.132	18.77
360.344	31.06
360.555	-46.76
360.766	6.49
360.977	86.36
361.189	76.12
361.4	74.07
361.611	49.49
361.823	51.54
362.034	61.78
362.245	16.73
362.456	37.2
362.667	16.73
362.879	41.3
363.09	63.83
363.301	18.77
363.512	94.55
363.723	61.78
363.935	12.63
364.146	0.34
364.357	8.53
364.568	78.16
364.779	37.2
364.99	92.5
365.201	24.92
365.412	57.68
365.623	63.83
365.834	33.11
366.045	43.35
366.256	47.44
366.467	72.02
366.678	45.4
366.889	39.25
367.1	35.16
367.311	164.18
367.522	74.07
367.733	33.11
367.944	119.12
368.155	45.4
368.366	47.44
368.577	98.64
368.788	117.08
368.999	-7.85
369.209	82.26
369.42	112.98
369.631	119.12
369.842	4.44
370.053	22.87
370.264	74.07
370.474	51.54
370.685	102.74
370.896	65.88
371.107	-13.99
371.317	160.08
371.528	74.07
371.739	86.36
371.95	51.54
372.16	61.78
372.371	45.4
372.582	47.44
372.792	39.25
373.003	131.41
373.214	67.92
373.424	37.2
373.635	-3.75
373.846	112.98
374.056	29.01
374.267	65.88
374.477	2.39
374.688	0.34
374.898	108.88
375.109	127.32
375.319	29.01
375.53	43.35
375.74	24.92
375.951	65.88
376.161	123.22
376.372	125.27
376.582	57.68
376.793	86.36
377.003	74.07
377.214	43.35
377.424	63.83
377.635	80.21
377.845	53.59
378.055	49.49
378.266	39.25
378.476	72.02
378.686	10.58
378.897	131.41
379.107	72.02
379.317	24.92
379.528	121.17
379.738	37.2
379.948	-16.04
380.158	98.64
380.369	-20.14
380.579	72.02
380.789	26.96
380.999	47.44
381.21	12.63
381.42	137.56
381.63	37.2
381.84	80.21
382.05	98.64
382.261	137.56
382.471	16.73
382.681	76.12
382.891	90.45
383.101	-38.57
383.311	82.26
383.521	72.02
383.731	61.78
383.941	98.64
384.151	67.92
384.361	4.44
384.571	108.88
384.781	69.97
384.991	112.98
385.201	76.12
385.411	92.5
385.621	96.6
385.831	63.83
386.041	37.2
386.251	102.74
386.461	88.4
386.671	57.68
386.881	102.74
387.091	24.92
387.301	123.22
387.511	67.92
387.72	92.5
387.93	72.02
388.14	33.11
388.35	74.07
388.56	61.78
388.769	125.27
388.979	45.4
389.189	57.68
389.399	121.17
389.609	88.4
389.818	69.97
390.028	45.4
390.238	74.07
390.447	69.97
390.657	104.79
390.867	63.83
391.076	61.78
391.286	74.07
391.496	6.49
391.705	76.12
391.915	180.56
392.125	51.54
392.334	72.02
392.544	121.17
392.753	166.23
392.963	160.08
393.172	65.88
393.382	63.83
393.591	106.84
393.801	72.02
394.01	121.17
394.22	96.6
394.429	110.93
394.639	86.36
394.848	80.21
395.058	186.71
395.267	121.17
395.477	57.68
395.686	139.6
395.895	139.6
396.105	149.84
396.314	98.64
396.524	123.22
396.733	121.17
396.942	98.64
397.152	172.37
397.361	110.93
397.57	162.13
397.78	76.12
397.989	172.37
398.198	115.03
398.407	96.6
398.617	102.74
398.826	153.94
399.035	104.79
399.244	151.89
399.453	123.22
399.663	53.59
399.872	123.22
400.081	65.88
400.29	207.19
400.499	90.45
400.708	190.8
400.917	145.75
401.127	115.03
401.336	117.08
401.545	139.6
401.754	123.22
401.963	121.17
402.172	74.07
402.381	188.75
402.59	145.75
402.799	153.94
403.008	147.8
403.217	110.93
403.426	119.12
403.635	192.85
403.844	149.84
404.053	182.61
404.262	86.36
404.471	227.67
404.68	196.95
404.888	209.23
405.097	196.95
405.306	221.52
405.515	182.61
405.724	141.65
405.933	180.56
406.142	139.6
406.35	205.14
406.559	201.04
406.768	260.43
406.977	233.81
407.185	256.34
407.394	201.04
407.603	239.95
407.812	213.33
408.02	299.34
408.229	235.86
408.438	250.19
408.646	182.61
408.855	299.34
409.064	278.87
409.272	317.78
409.481	299.34
409.69	293.2
409.898	319.82
410.107	350.54
410.315	364.88
410.524	436.56
410.733	364.88
410.941	336.21
411.15	428.37
411.358	432.46
411.567	436.56
411.775	500.05
411.984	430.41
412.192	465.23
412.401	528.72
412.609	538.96
412.818	541.01
413.026	551.24
413.234	528.72
413.443	606.54
413.651	616.78
413.86	573.77
414.068	674.12
414.276	700.75
414.485	596.3
414.693	762.19
414.901	792.91
415.11	831.82
415.318	776.52
415.526	801.1
415.734	956.74
415.943	766.28
416.151	917.83
416.359	878.92
416.567	975.17
416.776	1014.09
416.984	1030.47
417.192	1026.37
417.4	1200.45
417.608	1036.61
417.817	1083.72
418.025	1194.31
418.233	1255.75
418.441	1200.45
418.649	1278.27
418.857	1409.34
419.065	1489.21
419.273	1366.34
419.481	1515.84
419.689	1456.45
419.897	1571.13
420.105	1620.28
420.313	1683.77
420.521	1745.21
420.729	1720.64
420.937	1749.31
421.145	1823.03
421.353	1960.25
421.561	2062.65
421.769	2142.52
421.977	2294.07
422.185	2187.57
422.393	2271.54
422.601	2605.36
422.809	2464.05
423.017	2459.95
423.224	2496.82
423.432	2654.51
423.64	2666.8
423.848	2939.18
424.056	2830.63
424.263	3135.78
424.471	3166.5
424.679	3109.16
424.887	3367.2
425.094	3359.01
425.302	3322.15
425.51	3346.72
425.718	3465.5
425.925	3594.53
426.133	3801.37
426.341	3879.19
426.548	4129.05
426.756	4153.62
426.964	4313.36
427.171	4509.97
427.379	4612.37
427.586	4575.5
427.794	4661.52
428.001	5044.49
428.209	5114.12
428.417	5241.09
428.624	5523.71
428.832	5624.06
429.039	5476.61
429.247	5523.71
429.454	6088.95
429.662	6240.5
429.869	6029.56
430.076	6394.1
430.284	6154.49
430.491	6447.35
430.699	6865.13
430.906	6961.39
431.114	6924.52
431.321	7151.85
431.528	7391.46
431.736	7803.1
431.943	8251.61
432.15	7848.16
432.358	8083.67
432.565	8444.12
432.772	8523.99
432.979	9015.5
433.187	8779.98
433.394	9128.14
433.601	9586.88
433.808	9576.64
434.016	9660.61
434.223	10027.2
434.43	10531
434.637	10385.59
434.844	11153.58
435.052	11419.82
435.259	11249.83
435.466	11352.23
435.673	11235.5
435.88	11980.96
436.087	12667.03
436.294	12445.85
436.501	12109.98
436.708	12472.47
436.915	12646.55
437.122	13295.75
437.329	13246.6
437.537	13893.76
437.743	13901.95
437.95	14080.13
438.157	14755.96
438.364	15075.44
438.571	15224.94
438.778	15253.61
438.985	16615.51
439.192	16003.17
439.399	16513.11
439.606	16203.87
439.813	16826.45
440.02	18061.38
440.227	17805.38
440.433	17741.89
440.64	18393.15
440.847	18065.47
441.054	18536.51
441.261	19746.86
441.467	19636.27
441.674	19482.67
441.881	20822.04
442.088	20373.53
442.294	20355.1
442.501	21075.99
442.708	21241.87
442.914	22183.94
443.121	22976.5
443.328	22321.15
443.534	23887.85
443.741	23347.19
443.948	22747.13
444.154	24537.05
444.361	24448.99
444.568	24704.99
444.774	24690.65
444.981	24911.83
445.187	25810.89
445.394	26507.2
445.6	26177.48
445.807	28678.05
446.013	27658.16
446.22	27879.34
446.426	29128.6
446.633	29003.67
446.839	30304.13
447.046	28999.58
447.252	30543.75
447.459	30623.62
447.665	30750.59
447.871	31870.83
448.078	33165.15
448.284	31659.89
448.491	32614.24
448.697	33435.48
448.903	34168.65
449.11	34174.8
449.316	33703.76
449.522	34203.47
449.728	35161.92
449.935	35643.19
450.141	35659.57
450.347	36271.92
450.553	35039.04
450.76	35710.77
450.966	36439.85
451.172	36149.04
451.378	36855.59
451.584	36325.16
451.791	37037.86
451.997	36992.8
452.203	37578.52
452.409	37349.15
452.615	37300
452.821	35977.01
453.027	35637.05
453.233	37334.81
453.44	35966.77
453.646	36251.44
453.852	36562.73
454.058	36693.8
454.264	36038.45
454.47	36941.6
454.676	35786.55
454.882	36775.72
455.088	33441.62
455.294	33990.48
455.5	34395.98
455.705	34936.64
455.911	33769.3
456.117	32794.46
456.323	32597.86
456.529	30533.51
456.735	32094.06
456.941	31016.83
457.147	30574.47
457.352	29732.75
457.558	29319.06
457.764	29415.32
457.97	28917.66
458.176	28014.51
458.381	28336.04
458.587	26879.93
458.793	26560.45
458.999	25075.67
459.204	27023.29
459.41	26535.87
459.616	24799.19
459.821	24770.52
460.027	24737.76
460.233	24266.72
460.438	22962.17
460.644	23365.62
460.85	21850.12
461.055	21948.42
461.261	21778.44
461.466	19857.45
461.672	19546.16
461.878	21155.86
462.083	19896.36
462.289	19314.73
462.494	19050.55
462.7	18305.09
462.905	17827.91
463.111	18204.74
463.316	18468.92
463.522	17829.96
463.727	18217.02
463.932	17924.16
464.138	17887.3
464.343	18014.27
464.549	17395.79
464.754	17803.33
464.959	17913.92
465.165	17727.56
465.37	17012.82
465.575	16429.15
465.781	17170.51
465.986	17373.26
466.191	16560.22
466.397	16480.35
466.602	15540.33
466.807	16050.27
467.012	16220.25
467.218	15960.16
467.423	15816.8
467.628	16189.53
