Data from USB4F104151__93__10-24-30-249.txt Node

Date: Wed Mar 12 10:24:30 EDT 2025
User: louis
Spectrometer: USB4F10415
Trigger mode: 4
Integration Time (sec): 3.000000E-2
Scans to average: 1
Electric dark correction enabled: true
Nonlinearity correction enabled: false
Boxcar width: 0
XAxis mode: Wavelengths
Number of Pixels in Spectrum: 3648
>>>>>Begin Spectral Data<<<<<
178.204	-78.85
178.424	-78.85
178.644	-78.85
178.864	-115.71
179.084	-25.6
179.304	-25.6
179.524	-15.36
179.744	-7.17
179.964	21.5
180.184	25.6
180.404	9.22
180.624	50.18
180.844	-23.55
181.064	-7.17
181.283	-33.79
181.503	-1.02
181.723	7.17
181.943	31.74
182.163	48.13
182.383	17.41
182.602	41.98
182.822	72.7
183.042	3.07
183.262	-15.36
183.482	-15.36
183.701	54.27
183.921	44.03
184.141	48.13
184.361	-19.46
184.58	1.02
184.8	5.12
185.02	29.7
185.239	29.7
185.459	41.98
185.679	21.5
185.898	-64.51
186.118	56.32
186.338	74.75
186.557	99.33
186.777	-44.03
186.997	-9.22
187.216	1.02
187.436	82.94
187.655	58.37
187.875	25.6
188.095	41.98
188.314	89.09
188.534	-25.6
188.753	-35.84
188.973	74.75
189.192	93.18
189.412	21.5
189.631	52.22
189.851	58.37
190.07	84.99
190.29	15.36
190.509	19.46
190.729	-19.46
190.948	19.46
191.168	132.09
191.387	82.94
191.607	33.79
191.826	91.13
192.045	31.74
192.265	74.75
192.484	97.28
192.704	39.94
192.923	-31.74
193.142	164.86
193.362	66.56
193.581	125.95
193.8	74.75
194.02	13.31
194.239	21.5
194.458	68.61
194.678	15.36
194.897	52.22
195.116	48.13
195.335	-9.22
195.555	76.8
195.774	1.02
195.993	56.32
196.212	-50.18
196.432	29.7
196.651	33.79
196.87	-7.17
197.089	78.85
197.308	-11.26
197.528	27.65
197.747	25.6
197.966	11.26
198.185	82.94
198.404	-7.17
198.623	7.17
198.842	-23.55
199.062	7.17
199.281	64.51
199.5	46.08
199.719	1.02
199.938	64.51
200.157	-29.7
200.376	-29.7
200.595	128
200.814	15.36
201.033	29.7
201.252	-1.02
201.471	-1.02
201.69	58.37
201.909	-9.22
202.128	64.51
202.347	78.85
202.566	52.22
202.785	29.7
203.004	9.22
203.223	54.27
203.442	41.98
203.661	17.41
203.879	91.13
204.098	113.66
204.317	31.74
204.536	44.03
204.755	66.56
204.974	25.6
205.193	64.51
205.411	82.94
205.63	74.75
205.849	54.27
206.068	3.07
206.287	11.26
206.505	41.98
206.724	-23.55
206.943	95.23
207.162	64.51
207.381	89.09
207.599	1.02
207.818	50.18
208.037	-31.74
208.255	5.12
208.474	80.89
208.693	-27.65
208.911	80.89
209.13	19.46
209.349	17.41
209.567	62.46
209.786	48.13
210.005	103.42
210.223	37.89
210.442	39.94
210.661	3.07
210.879	80.89
211.098	72.7
211.316	111.61
211.535	58.37
211.753	-31.74
211.972	56.32
212.191	37.89
212.409	50.18
212.628	54.27
212.846	19.46
213.065	17.41
213.283	80.89
213.502	-25.6
213.72	-5.12
213.938	25.6
214.157	37.89
214.375	9.22
214.594	23.55
214.812	5.12
215.031	74.75
215.249	7.17
215.467	-15.36
215.686	-9.22
215.904	50.18
216.122	17.41
216.341	156.67
216.559	7.17
216.778	25.6
216.996	27.65
217.214	48.13
217.432	50.18
217.651	-1.02
217.869	89.09
218.087	134.14
218.306	29.7
218.524	68.61
218.742	27.65
218.96	115.71
219.179	66.56
219.397	31.74
219.615	111.61
219.833	25.6
220.051	-11.26
220.27	31.74
220.488	-17.41
220.706	19.46
220.924	-33.79
221.142	5.12
221.36	58.37
221.578	113.66
221.796	58.37
222.015	23.55
222.233	50.18
222.451	87.04
222.669	25.6
222.887	56.32
223.105	9.22
223.323	17.41
223.541	-19.46
223.759	60.42
223.977	46.08
224.195	7.17
224.413	136.19
224.631	46.08
224.849	17.41
225.067	125.95
225.285	41.98
225.503	-17.41
225.721	-19.46
225.939	97.28
226.157	62.46
226.375	78.85
226.592	-19.46
226.81	46.08
227.028	89.09
227.246	123.9
227.464	111.61
227.682	58.37
227.9	109.57
228.117	39.94
228.335	44.03
228.553	13.31
228.771	132.09
228.989	58.37
229.206	27.65
229.424	17.41
229.642	-31.74
229.86	58.37
230.077	87.04
230.295	64.51
230.513	41.98
230.731	70.65
230.948	66.56
231.166	9.22
231.384	-7.17
231.601	70.65
231.819	64.51
232.037	23.55
232.254	11.26
232.472	74.75
232.689	25.6
232.907	-7.17
233.125	9.22
233.342	-46.08
233.56	97.28
233.777	-64.51
233.995	60.42
234.213	56.32
234.43	46.08
234.648	-7.17
234.865	82.94
235.083	58.37
235.3	-3.07
235.518	68.61
235.735	78.85
235.953	58.37
236.17	25.6
236.388	136.19
236.605	13.31
236.822	87.04
237.04	64.51
237.257	3.07
237.475	31.74
237.692	56.32
237.909	66.56
238.127	-9.22
238.344	72.7
238.562	-29.7
238.779	-109.57
238.996	-3.07
239.214	35.84
239.431	82.94
239.648	11.26
239.865	25.6
240.083	89.09
240.3	64.51
240.517	46.08
240.735	58.37
240.952	72.7
241.169	91.13
241.386	44.03
241.603	5.12
241.821	50.18
242.038	78.85
242.255	56.32
242.472	41.98
242.689	91.13
242.907	74.75
243.124	13.31
243.341	39.94
243.558	41.98
243.775	25.6
243.992	19.46
244.209	35.84
244.426	74.75
244.643	46.08
244.86	46.08
245.078	95.23
245.295	11.26
245.512	17.41
245.729	46.08
245.946	48.13
246.163	39.94
246.38	27.65
246.597	27.65
246.814	82.94
247.031	64.51
247.248	19.46
247.464	50.18
247.681	39.94
247.898	-1.02
248.115	15.36
248.332	7.17
248.549	-25.6
248.766	62.46
248.983	-3.07
249.2	-25.6
249.417	103.42
249.633	62.46
249.85	66.56
250.067	21.5
250.284	50.18
250.501	91.13
250.717	37.89
250.934	72.7
251.151	23.55
251.368	74.75
251.585	11.26
251.801	-48.13
252.018	19.46
252.235	50.18
252.451	72.7
252.668	35.84
252.885	56.32
253.102	99.33
253.318	7.17
253.535	50.18
253.752	41.98
253.968	15.36
254.185	74.75
254.401	-7.17
254.618	68.61
254.835	68.61
255.051	107.52
255.268	17.41
255.484	25.6
255.701	-7.17
255.917	17.41
256.134	13.31
256.351	29.7
256.567	13.31
256.784	5.12
257	33.79
257.217	72.7
257.433	119.81
257.65	-1.02
257.866	7.17
258.082	9.22
258.299	37.89
258.515	107.52
258.732	41.98
258.948	64.51
259.165	84.99
259.381	13.31
259.597	1.02
259.814	25.6
260.03	50.18
260.246	-11.26
260.463	52.22
260.679	109.57
260.895	58.37
261.112	52.22
261.328	-7.17
261.544	13.31
261.761	99.33
261.977	80.89
262.193	-33.79
262.409	70.65
262.626	-19.46
262.842	56.32
263.058	-46.08
263.274	54.27
263.49	37.89
263.707	74.75
263.923	78.85
264.139	-27.65
264.355	68.61
264.571	66.56
264.787	33.79
265.004	29.7
265.22	1.02
265.436	60.42
265.652	27.65
265.868	46.08
266.084	-21.5
266.3	91.13
266.516	5.12
266.732	-11.26
266.948	44.03
267.164	9.22
267.38	17.41
267.596	1.02
267.812	115.71
268.028	82.94
268.244	1.02
268.46	44.03
268.676	-15.36
268.892	62.46
269.108	7.17
269.324	66.56
269.54	-29.7
269.756	125.95
269.972	9.22
270.188	33.79
270.403	25.6
270.619	27.65
270.835	46.08
271.051	46.08
271.267	19.46
271.483	-7.17
271.698	33.79
271.914	72.7
272.13	-5.12
272.346	82.94
272.562	7.17
272.777	132.09
272.993	58.37
273.209	5.12
273.425	-9.22
273.64	-7.17
273.856	91.13
274.072	27.65
274.287	23.55
274.503	58.37
274.719	41.98
274.934	9.22
275.15	74.75
275.366	23.55
275.581	52.22
275.797	25.6
276.012	-17.41
276.228	19.46
276.444	58.37
276.659	84.99
276.875	-5.12
277.09	19.46
277.306	68.61
277.521	50.18
277.737	95.23
277.952	11.26
278.168	33.79
278.383	78.85
278.599	52.22
278.814	82.94
279.03	-23.55
279.245	33.79
279.461	66.56
279.676	105.47
279.892	-1.02
280.107	-7.17
280.322	25.6
280.538	70.65
280.753	46.08
280.969	41.98
281.184	62.46
281.399	115.71
281.615	-3.07
281.83	29.7
282.045	-9.22
282.26	-9.22
282.476	68.61
282.691	9.22
282.906	21.5
283.122	46.08
283.337	107.52
283.552	23.55
283.767	31.74
283.983	25.6
284.198	-17.41
284.413	56.32
284.628	17.41
284.843	58.37
285.058	97.28
285.274	23.55
285.489	1.02
285.704	46.08
285.919	56.32
286.134	1.02
286.349	56.32
286.564	31.74
286.779	91.13
286.995	37.89
287.21	33.79
287.425	95.23
287.64	-19.46
287.855	33.79
288.07	58.37
288.285	82.94
288.5	44.03
288.715	93.18
288.93	9.22
289.145	39.94
289.36	25.6
289.575	66.56
289.79	70.65
290.004	29.7
290.219	74.75
290.434	7.17
290.649	-1.02
290.864	15.36
291.079	62.46
291.294	113.66
291.509	17.41
291.724	58.37
291.938	23.55
292.153	87.04
292.368	68.61
292.583	148.48
292.798	25.6
293.012	76.8
293.227	136.19
293.442	70.65
293.657	56.32
293.871	23.55
294.086	15.36
294.301	115.71
294.516	103.42
294.73	125.95
294.945	3.07
295.16	27.65
295.374	111.61
295.589	9.22
295.804	1.02
296.018	64.51
296.233	76.8
296.447	23.55
296.662	48.13
296.877	82.94
297.091	29.7
297.306	82.94
297.52	39.94
297.735	21.5
297.949	21.5
298.164	17.41
298.378	78.85
298.593	23.55
298.807	-25.6
299.022	-3.07
299.236	125.95
299.451	-29.7
299.665	-7.17
299.88	50.18
300.094	-17.41
300.309	62.46
300.523	21.5
300.737	1.02
300.952	109.57
301.166	-9.22
301.381	-13.31
301.595	93.18
301.809	13.31
302.024	39.94
302.238	39.94
302.452	82.94
302.667	64.51
302.881	44.03
303.095	52.22
303.309	46.08
303.524	29.7
303.738	50.18
303.952	93.18
304.166	54.27
304.381	-9.22
304.595	95.23
304.809	-3.07
305.023	35.84
305.237	13.31
305.452	-19.46
305.666	13.31
305.88	27.65
306.094	17.41
306.308	62.46
306.522	68.61
306.736	72.7
306.95	99.33
307.164	5.12
307.379	115.71
307.593	62.46
307.807	33.79
308.021	39.94
308.235	62.46
308.449	35.84
308.663	115.71
308.877	140.29
309.091	25.6
309.305	70.65
309.519	23.55
309.733	74.75
309.947	-37.89
310.161	109.57
310.374	117.76
310.588	66.56
310.802	95.23
311.016	33.79
311.23	15.36
311.444	25.6
311.658	31.74
311.872	66.56
312.085	-25.6
312.299	56.32
312.513	37.89
312.727	46.08
312.941	58.37
313.154	39.94
313.368	78.85
313.582	105.47
313.796	72.7
314.009	68.61
314.223	91.13
314.437	78.85
314.651	-19.46
314.864	23.55
315.078	56.32
315.292	35.84
315.505	37.89
315.719	113.66
315.933	146.43
316.146	39.94
316.36	-78.85
316.573	25.6
316.787	35.84
317.001	44.03
317.214	21.5
317.428	103.42
317.641	27.65
317.855	-13.31
318.068	17.41
318.282	29.7
318.495	23.55
318.709	-3.07
318.922	-7.17
319.136	70.65
319.349	33.79
319.563	56.32
319.776	29.7
319.99	33.79
320.203	68.61
320.417	70.65
320.63	58.37
320.843	44.03
321.057	103.42
321.27	54.27
321.483	27.65
321.697	166.91
321.91	5.12
322.124	70.65
322.337	74.75
322.55	-15.36
322.763	35.84
322.977	11.26
323.19	46.08
323.403	39.94
323.617	39.94
323.83	93.18
324.043	17.41
324.256	29.7
324.469	-33.79
324.683	76.8
324.896	9.22
325.109	25.6
325.322	29.7
325.535	91.13
325.748	56.32
325.962	39.94
326.175	72.7
326.388	78.85
326.601	27.65
326.814	25.6
327.027	82.94
327.24	78.85
327.453	54.27
327.666	70.65
327.879	66.56
328.092	58.37
328.305	72.7
328.518	1.02
328.731	33.79
328.944	13.31
329.157	27.65
329.37	-56.32
329.583	66.56
329.796	58.37
330.009	-5.12
330.222	27.65
330.435	58.37
330.648	52.22
330.861	76.8
331.073	17.41
331.286	41.98
331.499	-7.17
331.712	7.17
331.925	23.55
332.138	111.61
332.35	146.43
332.563	-17.41
332.776	52.22
332.989	58.37
333.202	35.84
333.414	21.5
333.627	48.13
333.84	66.56
334.053	156.67
334.265	105.47
334.478	44.03
334.691	91.13
334.903	37.89
335.116	50.18
335.329	-39.94
335.541	41.98
335.754	46.08
335.966	58.37
336.179	23.55
336.392	95.23
336.604	25.6
336.817	89.09
337.029	17.41
337.242	70.65
337.454	62.46
337.667	13.31
337.88	142.33
338.092	72.7
338.305	11.26
338.517	60.42
338.729	50.18
338.942	17.41
339.154	62.46
339.367	31.74
339.579	93.18
339.792	17.41
340.004	113.66
340.217	52.22
340.429	72.7
340.641	66.56
340.854	7.17
341.066	74.75
341.278	91.13
341.491	103.42
341.703	48.13
341.915	17.41
342.128	58.37
342.34	95.23
342.552	21.5
342.764	31.74
342.977	35.84
343.189	-5.12
343.401	74.75
343.613	-68.61
343.826	119.81
344.038	58.37
344.25	44.03
344.462	-33.79
344.674	70.65
344.886	74.75
345.099	70.65
345.311	105.47
345.523	41.98
345.735	93.18
345.947	7.17
346.159	70.65
346.371	115.71
346.583	54.27
346.795	154.62
347.007	46.08
347.219	80.89
347.431	31.74
347.643	156.67
347.855	25.6
348.067	134.14
348.279	-19.46
348.491	72.7
348.703	62.46
348.915	76.8
349.127	3.07
349.339	25.6
349.551	132.09
349.763	84.99
349.975	62.46
350.187	52.22
350.399	89.09
350.61	109.57
350.822	76.8
351.034	113.66
351.246	33.79
351.458	23.55
351.669	70.65
351.881	113.66
352.093	115.71
352.305	95.23
352.517	58.37
352.728	128
352.94	41.98
353.152	68.61
353.363	13.31
353.575	39.94
353.787	62.46
353.999	35.84
354.21	17.41
354.422	44.03
354.633	50.18
354.845	7.17
355.057	3.07
355.268	17.41
355.48	87.04
355.692	48.13
355.903	3.07
356.115	80.89
356.326	19.46
356.538	37.89
356.749	68.61
356.961	39.94
357.172	68.61
357.384	25.6
357.595	111.61
357.807	144.38
358.018	35.84
358.23	7.17
358.441	107.52
358.653	84.99
358.864	50.18
359.075	101.37
359.287	105.47
359.498	64.51
359.709	117.76
359.921	25.6
360.132	48.13
360.344	111.61
360.555	41.98
360.766	68.61
360.977	21.5
361.189	113.66
361.4	62.46
361.611	70.65
361.823	39.94
362.034	48.13
362.245	46.08
362.456	48.13
362.667	60.42
362.879	46.08
363.09	58.37
363.301	91.13
363.512	70.65
363.723	35.84
363.935	87.04
364.146	37.89
364.357	101.37
364.568	80.89
364.779	41.98
364.99	7.17
365.201	9.22
365.412	80.89
365.623	-11.26
365.834	117.76
366.045	33.79
366.256	7.17
366.467	87.04
366.678	25.6
366.889	-19.46
367.1	70.65
367.311	70.65
367.522	39.94
367.733	9.22
367.944	82.94
368.155	-1.02
368.366	121.85
368.577	56.32
368.788	76.8
368.999	19.46
369.209	64.51
369.42	80.89
369.631	91.13
369.842	37.89
370.053	91.13
370.264	103.42
370.474	76.8
370.685	23.55
370.896	82.94
371.107	82.94
371.317	64.51
371.528	121.85
371.739	128
371.95	99.33
372.16	82.94
372.371	46.08
372.582	11.26
372.792	107.52
373.003	99.33
373.214	19.46
373.424	13.31
373.635	35.84
373.846	95.23
374.056	7.17
374.267	89.09
374.477	82.94
374.688	68.61
374.898	-25.6
375.109	101.37
375.319	128
375.53	156.67
375.74	128
375.951	64.51
376.161	29.7
376.372	56.32
376.582	15.36
376.793	80.89
377.003	84.99
377.214	62.46
377.424	15.36
377.635	101.37
377.845	99.33
378.055	107.52
378.266	82.94
378.476	70.65
378.686	54.27
378.897	91.13
379.107	111.61
379.317	158.72
379.528	9.22
379.738	74.75
379.948	33.79
380.158	193.53
380.369	62.46
380.579	72.7
380.789	29.7
380.999	115.71
381.21	91.13
381.42	66.56
381.63	78.85
381.84	132.09
382.05	46.08
382.261	107.52
382.471	123.9
382.681	80.89
382.891	128
383.101	56.32
383.311	125.95
383.521	56.32
383.731	80.89
383.941	78.85
384.151	109.57
384.361	76.8
384.571	15.36
384.781	7.17
384.991	13.31
385.201	128
385.411	50.18
385.621	46.08
385.831	97.28
386.041	44.03
386.251	125.95
386.461	78.85
386.671	56.32
386.881	205.82
387.091	19.46
387.301	132.09
387.511	62.46
387.72	58.37
387.93	78.85
388.14	68.61
388.35	56.32
388.56	109.57
388.769	58.37
388.979	97.28
389.189	29.7
389.399	50.18
389.609	64.51
389.818	44.03
390.028	35.84
390.238	82.94
390.447	72.7
390.657	50.18
390.867	70.65
391.076	74.75
391.286	89.09
391.496	70.65
391.705	58.37
391.915	103.42
392.125	175.1
392.334	31.74
392.544	144.38
392.753	62.46
392.963	70.65
393.172	97.28
393.382	39.94
393.591	187.39
393.801	97.28
394.01	78.85
394.22	162.81
394.429	78.85
394.639	46.08
394.848	130.05
395.058	58.37
395.267	99.33
395.477	95.23
395.686	115.71
395.895	193.53
396.105	138.24
396.314	152.57
396.524	78.85
396.733	99.33
396.942	183.29
397.152	87.04
397.361	136.19
397.57	66.56
397.78	130.05
397.989	89.09
398.198	185.34
398.407	99.33
398.617	13.31
398.826	115.71
399.035	103.42
399.244	117.76
399.453	134.14
399.663	125.95
399.872	72.7
400.081	115.71
400.29	160.77
400.499	70.65
400.708	148.48
400.917	46.08
401.127	148.48
401.336	123.9
401.545	103.42
401.754	146.43
401.963	107.52
402.172	107.52
402.381	80.89
402.59	173.05
402.799	187.39
403.008	187.39
403.217	130.05
403.426	197.63
403.635	144.38
403.844	117.76
404.053	171.01
404.262	134.14
404.471	232.44
404.68	238.59
404.888	205.82
405.097	230.4
405.306	177.15
405.515	252.92
405.724	283.64
405.933	193.53
406.142	156.67
406.35	187.39
406.559	252.92
406.768	230.4
406.977	332.79
407.185	242.68
407.394	195.58
407.603	205.82
407.812	351.23
408.02	345.08
408.229	277.5
408.438	242.68
408.646	273.4
408.855	300.03
409.064	353.27
409.272	361.47
409.481	355.32
409.69	308.22
409.898	402.43
410.107	410.62
410.315	496.63
410.524	488.44
410.733	474.1
410.941	398.33
411.15	463.86
411.358	533.5
411.567	427
411.775	390.14
411.984	484.34
412.192	537.59
412.401	508.92
412.609	613.37
412.818	568.31
413.026	584.7
413.234	545.78
413.443	576.5
413.651	691.19
413.86	631.8
414.068	746.48
414.276	752.63
414.485	750.58
414.693	756.72
414.901	848.88
415.11	871.41
415.318	875.51
415.526	805.88
415.734	963.57
415.943	852.98
416.151	971.76
416.359	1004.53
416.567	1045.49
416.776	1121.26
416.984	1180.65
417.192	1188.85
417.4	1186.8
417.608	1129.45
417.817	1188.85
418.025	1242.09
418.233	1465.32
418.441	1379.31
418.649	1424.36
418.857	1518.57
419.065	1641.45
419.273	1539.05
419.481	1631.21
419.689	1680.36
419.897	1768.42
420.105	1819.62
420.313	1852.39
420.521	1938.4
420.729	1960.93
420.937	1989.6
421.145	2132.96
421.353	2116.58
421.561	2440.15
421.769	2280.41
421.977	2415.58
422.185	2425.82
422.393	2579.42
422.601	2882.52
422.809	2694.1
423.017	2767.83
423.224	2841.56
423.432	3044.31
423.64	3052.5
423.848	3191.76
424.056	3124.18
424.263	3367.88
424.471	3378.12
424.679	3490.76
424.887	3677.13
425.094	3771.33
425.302	3793.86
425.51	3986.37
425.718	4160.45
425.925	3974.08
426.133	4266.94
426.341	4522.94
426.548	4656.06
426.756	4754.36
426.964	4565.95
427.171	5094.32
427.379	5217.2
427.586	5305.26
427.794	5381.04
428.001	5567.4
428.209	5917.61
428.417	5690.28
428.624	6319.01
428.832	6249.38
429.039	6273.95
429.247	6194.08
429.454	6818.71
429.662	7261.07
429.869	6785.94
430.076	7148.43
430.284	7154.58
430.491	7312.27
430.699	7852.94
430.906	7654.28
431.114	7857.03
431.321	8119.17
431.528	8532.86
431.736	8596.35
431.943	9327.47
432.15	8862.58
432.358	8897.4
432.565	9618.29
432.772	9372.53
432.979	10150.76
433.187	10179.43
433.394	10199.91
433.601	10765.15
433.808	10793.82
434.016	10765.15
434.223	11232.08
434.43	11850.57
434.637	11688.78
434.844	12450.63
435.052	12866.36
435.259	12553.02
435.466	12667.71
435.673	12643.14
435.88	13513.52
436.087	14054.19
436.294	13935.4
436.501	13656.88
436.708	14238.5
436.915	14609.19
437.122	15313.69
437.329	15172.38
437.537	15325.97
437.743	15747.86
437.95	15844.11
438.157	16677.63
438.364	17210.11
438.571	17228.54
438.778	17169.15
438.985	18985.69
439.192	18148.08
439.399	18428.65
439.606	18215.66
439.813	19301.08
440.02	20112.08
440.227	20167.37
440.433	19849.94
440.64	20703.94
440.847	20404.94
441.054	20937.41
441.261	22168.24
441.467	21992.11
441.674	22438.57
441.881	23110.3
442.088	23009.95
442.294	22954.66
442.501	23909.01
442.708	23878.29
442.914	24879.75
443.121	25864.82
443.328	25125.5
443.534	27497.05
443.741	26221.17
443.948	25999.99
444.154	27953.75
444.361	27288.16
444.568	27652.7
444.774	27894.36
444.981	27923.03
445.187	28842.57
445.394	30014.01
445.6	29665.85
445.807	32326.16
446.013	31310.37
446.22	31613.47
446.426	33051.14
446.633	33124.87
446.839	34126.33
447.046	32492.05
447.252	34470.39
447.459	34691.57
447.665	34589.17
447.871	36157.91
448.078	37372.36
448.284	35430.88
448.491	36573.65
448.697	37784
448.903	38652.34
449.11	38615.47
449.316	38150.59
449.522	38582.71
449.728	39799.2
449.935	40012.19
450.141	39897.5
450.347	40620.44
450.553	39385.51
450.76	40038.81
450.966	41310.6
451.172	40716.69
451.378	41466.25
451.584	40827.28
451.791	41630.08
451.997	41554.31
452.203	42353.02
452.409	42297.72
452.615	41836.93
452.821	40475.03
453.027	39983.52
453.233	41996.67
453.44	40110.49
453.646	40864.14
453.852	40685.97
454.058	41415.05
454.264	40307.1
454.47	40843.66
454.676	39594.4
454.882	40956.3
455.088	37812.67
455.294	38197.69
455.5	38490.55
455.705	38971.82
455.911	37462.47
456.117	36727.25
456.323	36276.69
456.529	34435.57
456.735	35715.55
456.941	35019.24
457.147	34191.86
457.352	33012.23
457.558	32721.42
457.764	32721.42
457.97	32328.21
458.176	31529.5
458.381	31306.27
458.587	30032.44
458.793	29715
458.999	28490.32
459.204	30444.08
459.41	29887.03
459.616	27697.75
459.821	27548.25
460.027	27404.89
460.233	26761.83
460.438	25678.46
460.644	26247.79
460.85	24642.18
461.055	24414.86
461.261	24175.25
461.466	22487.72
461.672	22018.74
461.878	23476.89
462.083	21684.92
462.289	21484.22
462.494	21533.37
462.7	20581.06
462.905	19673.81
463.111	20234.96
463.316	20445.9
463.522	20253.39
463.727	20357.83
463.932	20228.81
464.138	19890.9
464.343	20122.32
464.549	19317.47
464.754	20292.3
464.959	20001.49
465.165	19733.2
465.37	18961.12
465.575	18516.71
465.781	19264.22
465.986	19337.94
466.191	18361.06
466.397	18270.95
466.602	17187.58
466.807	18092.78
467.012	18201.32
467.218	17736.43
467.423	17750.77
467.628	17744.63
467.833	18572
