Data from USB4F104151__185__10-27-55-816.txt Node

Date: Wed Mar 12 10:27:55 EDT 2025
User: louis
Spectrometer: USB4F10415
Trigger mode: 4
Integration Time (sec): 3.000000E-2
Scans to average: 1
Electric dark correction enabled: true
Nonlinearity correction enabled: false
Boxcar width: 0
XAxis mode: Wavelengths
Number of Pixels in Spectrum: 3648
>>>>>Begin Spectral Data<<<<<
178.204	-75.09
178.424	-75.09
178.644	-75.09
178.864	-99.67
179.084	-120.15
179.304	55.98
179.524	29.35
179.744	-7.51
179.964	-30.04
180.184	-5.46
180.404	0.68
180.624	-46.42
180.844	53.93
181.064	-23.89
181.283	23.21
181.503	-34.13
181.723	-15.7
181.943	-64.85
182.163	82.6
182.383	-73.04
182.602	-27.99
182.822	127.66
183.042	101.03
183.262	6.83
183.482	86.7
183.701	-13.65
183.921	55.98
184.141	-1.37
184.361	6.83
184.58	35.5
184.8	12.97
185.02	62.12
185.239	55.98
185.459	98.99
185.679	109.22
185.898	-21.85
186.118	-3.41
186.338	39.59
186.557	31.4
186.777	15.02
186.997	-25.94
187.216	-17.75
187.436	123.56
187.655	43.69
187.875	72.36
188.095	12.97
188.314	68.27
188.534	101.03
188.753	51.88
188.973	23.21
189.192	129.7
189.412	66.22
189.631	29.35
189.851	82.6
190.07	133.8
190.29	27.31
190.509	53.93
190.729	-34.13
190.948	98.99
191.168	137.9
191.387	31.4
191.607	76.46
191.826	74.41
192.045	-9.56
192.265	10.92
192.484	45.74
192.704	47.79
192.923	58.03
193.142	101.03
193.362	88.75
193.581	109.22
193.8	55.98
194.02	-21.85
194.239	-75.09
194.458	-3.41
194.678	2.73
194.897	19.11
195.116	74.41
195.335	53.93
195.555	37.55
195.774	21.16
195.993	62.12
196.212	45.74
196.432	12.97
196.651	-25.94
196.87	10.92
197.089	105.13
197.308	105.13
197.528	129.7
197.747	-58.71
197.966	62.12
198.185	94.89
198.404	49.83
198.623	17.07
198.842	10.92
199.062	127.66
199.281	90.79
199.5	43.69
199.719	76.46
199.938	33.45
200.157	62.12
200.376	43.69
200.595	0.68
200.814	29.35
201.033	-9.56
201.252	123.56
201.471	8.87
201.69	74.41
201.909	27.31
202.128	55.98
202.347	121.51
202.566	92.84
202.785	-5.46
203.004	29.35
203.223	88.75
203.442	12.97
203.661	37.55
203.879	37.55
204.098	70.31
204.317	53.93
204.536	82.6
204.755	-17.75
204.974	43.69
205.193	68.27
205.411	115.37
205.63	64.17
205.849	60.07
206.068	-19.8
206.287	2.73
206.505	60.07
206.724	31.4
206.943	60.07
207.162	25.26
207.381	4.78
207.599	-1.37
207.818	15.02
208.037	35.5
208.255	21.16
208.474	19.11
208.693	-11.61
208.911	55.98
209.13	62.12
209.349	111.27
209.567	80.55
209.786	70.31
210.005	78.51
210.223	58.03
210.442	10.92
210.661	21.16
210.879	72.36
211.098	51.88
211.316	35.5
211.535	78.51
211.753	70.31
211.972	-7.51
212.191	10.92
212.409	35.5
212.628	76.46
212.846	35.5
213.065	78.51
213.283	101.03
213.502	-3.41
213.72	92.84
213.938	123.56
214.157	70.31
214.375	82.6
214.594	39.59
214.812	43.69
215.031	80.55
215.249	27.31
215.467	133.8
215.686	23.21
215.904	45.74
216.122	45.74
216.341	103.08
216.559	49.83
216.778	70.31
216.996	98.99
217.214	35.5
217.432	-23.89
217.651	72.36
217.869	39.59
218.087	45.74
218.306	19.11
218.524	15.02
218.742	58.03
218.96	45.74
219.179	6.83
219.397	37.55
219.615	53.93
219.833	37.55
220.051	41.64
220.27	68.27
220.488	45.74
220.706	80.55
220.924	53.93
221.142	72.36
221.36	96.94
221.578	53.93
221.796	19.11
222.015	92.84
222.233	62.12
222.451	64.17
222.669	-13.65
222.887	39.59
223.105	-19.8
223.323	60.07
223.541	2.73
223.759	60.07
223.977	21.16
224.195	64.17
224.413	55.98
224.631	60.07
224.849	62.12
225.067	121.51
225.285	-56.66
225.503	62.12
225.721	45.74
225.939	37.55
226.157	35.5
226.375	131.75
226.592	-34.13
226.81	33.45
227.028	64.17
227.246	72.36
227.464	39.59
227.682	47.79
227.9	90.79
228.117	-3.41
228.335	80.55
228.553	-5.46
228.771	19.11
228.989	35.5
229.206	43.69
229.424	64.17
229.642	37.55
229.86	-13.65
230.077	55.98
230.295	37.55
230.513	182.95
230.731	78.51
230.948	58.03
231.166	78.51
231.384	43.69
231.601	-9.56
231.819	64.17
232.037	39.59
232.254	41.64
232.472	-7.51
232.689	10.92
232.907	150.18
233.125	43.69
233.342	21.16
233.56	-38.23
233.777	-11.61
233.995	10.92
234.213	55.98
234.43	37.55
234.648	49.83
234.865	33.45
235.083	8.87
235.3	51.88
235.518	119.46
235.735	51.88
235.953	80.55
236.17	-13.65
236.388	31.4
236.605	17.07
236.822	111.27
237.04	37.55
237.257	72.36
237.475	19.11
237.692	33.45
237.909	15.02
238.127	84.65
238.344	-1.37
238.562	60.07
238.779	82.6
238.996	15.02
239.214	0.68
239.431	70.31
239.648	-3.41
239.865	105.13
240.083	62.12
240.3	-38.23
240.517	96.94
240.735	37.55
240.952	62.12
241.169	94.89
241.386	35.5
241.603	-1.37
241.821	41.64
242.038	121.51
242.255	37.55
242.472	39.59
242.689	103.08
242.907	29.35
243.124	31.4
243.341	15.02
243.558	70.31
243.775	-13.65
243.992	31.4
244.209	12.97
244.426	92.84
244.643	72.36
244.86	-13.65
245.078	66.22
245.295	35.5
245.512	62.12
245.729	43.69
245.946	53.93
246.163	107.18
246.38	-7.51
246.597	113.32
246.814	2.73
247.031	68.27
247.248	-15.7
247.464	37.55
247.681	23.21
247.898	68.27
248.115	19.11
248.332	0.68
248.549	41.64
248.766	105.13
248.983	53.93
249.2	-11.61
249.417	55.98
249.633	-36.18
249.85	15.02
250.067	49.83
250.284	119.46
250.501	21.16
250.717	129.7
250.934	-25.94
251.151	55.98
251.368	125.61
251.585	49.83
251.801	25.26
252.018	66.22
252.235	8.87
252.451	-21.85
252.668	35.5
252.885	41.64
253.102	27.31
253.318	31.4
253.535	29.35
253.752	35.5
253.968	-44.37
254.185	-9.56
254.401	55.98
254.618	-52.56
254.835	27.31
255.051	29.35
255.268	55.98
255.484	-32.08
255.701	58.03
255.917	33.45
256.134	55.98
256.351	74.41
256.567	33.45
256.784	64.17
257	15.02
257.217	72.36
257.433	2.73
257.65	72.36
257.866	121.51
258.082	19.11
258.299	15.02
258.515	66.22
258.732	101.03
258.948	45.74
259.165	23.21
259.381	-19.8
259.597	45.74
259.814	119.46
260.03	105.13
260.246	76.46
260.463	152.23
260.679	74.41
260.895	78.51
261.112	86.7
261.328	86.7
261.544	-19.8
261.761	29.35
261.977	60.07
262.193	39.59
262.409	98.99
262.626	45.74
262.842	68.27
263.058	74.41
263.274	37.55
263.49	74.41
263.707	25.26
263.923	119.46
264.139	21.16
264.355	39.59
264.571	43.69
264.787	6.83
265.004	113.32
265.22	68.27
265.436	-13.65
265.652	60.07
265.868	60.07
266.084	-38.23
266.3	10.92
266.516	-13.65
266.732	2.73
266.948	84.65
267.164	58.03
267.38	109.22
267.596	68.27
267.812	105.13
268.028	17.07
268.244	43.69
268.46	66.22
268.676	25.26
268.892	23.21
269.108	98.99
269.324	15.02
269.54	6.83
269.756	58.03
269.972	-17.75
270.188	86.7
270.403	47.79
270.619	66.22
270.835	55.98
271.051	78.51
271.267	-13.65
271.483	2.73
271.698	64.17
271.914	103.08
272.13	51.88
272.346	10.92
272.562	15.02
272.777	-25.94
272.993	43.69
273.209	72.36
273.425	23.21
273.64	27.31
273.856	78.51
274.072	12.97
274.287	35.5
274.503	39.59
274.719	80.55
274.934	43.69
275.15	27.31
275.366	51.88
275.581	-19.8
275.797	64.17
276.012	8.87
276.228	-19.8
276.444	15.02
276.659	113.32
276.875	29.35
277.09	86.7
277.306	23.21
277.521	72.36
277.737	90.79
277.952	41.64
278.168	78.51
278.383	76.46
278.599	12.97
278.814	98.99
279.03	55.98
279.245	141.99
279.461	58.03
279.676	45.74
279.892	-3.41
280.107	-75.09
280.322	2.73
280.538	15.02
280.753	43.69
280.969	-9.56
281.184	29.35
281.399	41.64
281.615	43.69
281.83	47.79
282.045	31.4
282.26	88.75
282.476	68.27
282.691	33.45
282.906	-17.75
283.122	72.36
283.337	27.31
283.552	-17.75
283.767	-48.47
283.983	86.7
284.198	51.88
284.413	60.07
284.628	-46.42
284.843	49.83
285.058	98.99
285.274	84.65
285.489	2.73
285.704	94.89
285.919	-7.51
286.134	90.79
286.349	-30.04
286.564	70.31
286.779	90.79
286.995	60.07
287.21	-1.37
287.425	43.69
287.64	19.11
287.855	15.02
288.07	33.45
288.285	12.97
288.5	76.46
288.715	47.79
288.93	-30.04
289.145	37.55
289.36	51.88
289.575	33.45
289.79	94.89
290.004	-11.61
290.219	19.11
290.434	62.12
290.649	0.68
290.864	43.69
291.079	51.88
291.294	2.73
291.509	33.45
291.724	31.4
291.938	43.69
292.153	84.65
292.368	45.74
292.583	23.21
292.798	21.16
293.012	19.11
293.227	-7.51
293.442	64.17
293.657	119.46
293.871	55.98
294.086	55.98
294.301	94.89
294.516	88.75
294.73	55.98
294.945	72.36
295.16	70.31
295.374	21.16
295.589	84.65
295.804	45.74
296.018	45.74
296.233	111.27
296.447	66.22
296.662	27.31
296.877	58.03
297.091	39.59
297.306	29.35
297.52	-30.04
297.735	-1.37
297.949	72.36
298.164	60.07
298.378	64.17
298.593	-9.56
298.807	-9.56
299.022	80.55
299.236	82.6
299.451	68.27
299.665	64.17
299.88	70.31
300.094	92.84
300.309	70.31
300.523	55.98
300.737	27.31
300.952	31.4
301.166	45.74
301.381	43.69
301.595	43.69
301.809	6.83
302.024	68.27
302.238	62.12
302.452	37.55
302.667	109.22
302.881	117.42
303.095	62.12
303.309	53.93
303.524	76.46
303.738	68.27
303.952	68.27
304.166	60.07
304.381	31.4
304.595	107.18
304.809	78.51
305.023	2.73
305.237	31.4
305.452	35.5
305.666	43.69
305.88	107.18
306.094	15.02
306.308	125.61
306.522	41.64
306.736	53.93
306.95	96.94
307.164	60.07
307.379	15.02
307.593	10.92
307.807	66.22
308.021	80.55
308.235	72.36
308.449	27.31
308.663	23.21
308.877	113.32
309.091	-27.99
309.305	111.27
309.519	-46.42
309.733	72.36
309.947	-25.94
310.161	111.27
310.374	86.7
310.588	70.31
310.802	37.55
311.016	55.98
311.23	-9.56
311.444	33.45
311.658	15.02
311.872	23.21
312.085	74.41
312.299	82.6
312.513	117.42
312.727	58.03
312.941	47.79
313.154	78.51
313.368	23.21
313.582	4.78
313.796	41.64
314.009	31.4
314.223	66.22
314.437	80.55
314.651	68.27
314.864	-1.37
315.078	62.12
315.292	31.4
315.505	92.84
315.719	6.83
315.933	39.59
316.146	84.65
316.36	4.78
316.573	29.35
316.787	66.22
317.001	111.27
317.214	49.83
317.428	127.66
317.641	-25.94
317.855	39.59
318.068	-19.8
318.282	55.98
318.495	105.13
318.709	74.41
318.922	19.11
319.136	193.19
319.349	119.46
319.563	15.02
319.776	64.17
319.99	-19.8
320.203	58.03
320.417	45.74
320.63	53.93
320.843	29.35
321.057	-3.41
321.27	111.27
321.483	23.21
321.697	64.17
321.91	84.65
322.124	29.35
322.337	39.59
322.55	27.31
322.763	47.79
322.977	51.88
323.19	51.88
323.403	62.12
323.617	21.16
323.83	121.51
324.043	55.98
324.256	49.83
324.469	-3.41
324.683	62.12
324.896	-56.66
325.109	70.31
325.322	-5.46
325.535	72.36
325.748	10.92
325.962	33.45
326.175	35.5
326.388	39.59
326.601	-1.37
326.814	125.61
327.027	53.93
327.24	109.22
327.453	70.31
327.666	49.83
327.879	113.32
328.092	-3.41
328.305	25.26
328.518	17.07
328.731	25.26
328.944	76.46
329.157	62.12
329.37	21.16
329.583	86.7
329.796	88.75
330.009	72.36
330.222	29.35
330.435	86.7
330.648	76.46
330.861	39.59
331.073	15.02
331.286	37.55
331.499	58.03
331.712	2.73
331.925	-27.99
332.138	96.94
332.35	111.27
332.563	137.9
332.776	25.26
332.989	62.12
333.202	62.12
333.414	-1.37
333.627	66.22
333.84	-25.94
334.053	92.84
334.265	39.59
334.478	27.31
334.691	27.31
334.903	39.59
335.116	6.83
335.329	-1.37
335.541	62.12
335.754	115.37
335.966	-9.56
336.179	49.83
336.392	33.45
336.604	115.37
336.817	103.08
337.029	27.31
337.242	121.51
337.454	-9.56
337.667	68.27
337.88	117.42
338.092	43.69
338.305	123.56
338.517	45.74
338.729	21.16
338.942	105.13
339.154	45.74
339.367	17.07
339.579	117.42
339.792	-27.99
340.004	121.51
340.217	55.98
340.429	21.16
340.641	96.94
340.854	51.88
341.066	29.35
341.278	55.98
341.491	133.8
341.703	27.31
341.915	-9.56
342.128	31.4
342.34	31.4
342.552	98.99
342.764	39.59
342.977	70.31
343.189	27.31
343.401	35.5
343.613	-42.32
343.826	80.55
344.038	37.55
344.25	72.36
344.462	23.21
344.674	25.26
344.886	90.79
345.099	111.27
345.311	68.27
345.523	35.5
345.735	-42.32
345.947	25.26
346.159	45.74
346.371	64.17
346.583	31.4
346.795	84.65
347.007	94.89
347.219	-13.65
347.431	31.4
347.643	111.27
347.855	15.02
348.067	80.55
348.279	35.5
348.491	43.69
348.703	51.88
348.915	86.7
349.127	12.97
349.339	133.8
349.551	86.7
349.763	66.22
349.975	25.26
350.187	23.21
350.399	96.94
350.61	62.12
350.822	4.78
351.034	43.69
351.246	31.4
351.458	58.03
351.669	21.16
351.881	86.7
352.093	86.7
352.305	90.79
352.517	117.42
352.728	82.6
352.94	94.89
353.152	8.87
353.363	-34.13
353.575	4.78
353.787	49.83
353.999	101.03
354.21	49.83
354.422	45.74
354.633	107.18
354.845	141.99
355.057	17.07
355.268	12.97
355.48	31.4
355.692	80.55
355.903	-23.89
356.115	68.27
356.326	55.98
356.538	37.55
356.749	39.59
356.961	121.51
357.172	131.75
357.384	27.31
357.595	137.9
357.807	88.75
358.018	45.74
358.23	66.22
358.441	105.13
358.653	47.79
358.864	88.75
359.075	131.75
359.287	17.07
359.498	113.32
359.709	47.79
359.921	62.12
360.132	33.45
360.344	39.59
360.555	-25.94
360.766	39.59
360.977	119.46
361.189	51.88
361.4	-25.94
361.611	10.92
361.823	148.14
362.034	66.22
362.245	-30.04
362.456	29.35
362.667	47.79
362.879	70.31
363.09	45.74
363.301	62.12
363.512	-25.94
363.723	12.97
363.935	29.35
364.146	90.79
364.357	90.79
364.568	146.09
364.779	-1.37
364.99	103.08
365.201	25.26
365.412	82.6
365.623	19.11
365.834	35.5
366.045	60.07
366.256	107.18
366.467	111.27
366.678	35.5
366.889	86.7
367.1	127.66
367.311	58.03
367.522	-5.46
367.733	78.51
367.944	39.59
368.155	43.69
368.366	80.55
368.577	92.84
368.788	27.31
368.999	62.12
369.209	80.55
369.42	41.64
369.631	199.34
369.842	43.69
370.053	39.59
370.264	139.94
370.474	-7.51
370.685	39.59
370.896	41.64
371.107	60.07
371.317	53.93
371.528	111.27
371.739	64.17
371.95	82.6
372.16	96.94
372.371	80.55
372.582	43.69
372.792	10.92
373.003	115.37
373.214	72.36
373.424	117.42
373.635	23.21
373.846	170.66
374.056	2.73
374.267	43.69
374.477	78.51
374.688	-17.75
374.898	78.51
375.109	60.07
375.319	92.84
375.53	25.26
375.74	33.45
375.951	19.11
376.161	-1.37
376.372	72.36
376.582	43.69
376.793	101.03
377.003	72.36
377.214	53.93
377.424	27.31
377.635	35.5
377.845	96.94
378.055	68.27
378.266	-25.94
378.476	2.73
378.686	137.9
378.897	45.74
379.107	64.17
379.317	23.21
379.528	90.79
379.738	33.45
379.948	51.88
380.158	107.18
380.369	72.36
380.579	96.94
380.789	137.9
380.999	160.42
381.21	150.18
381.42	84.65
381.63	21.16
381.84	76.46
382.05	70.31
382.261	98.99
382.471	84.65
382.681	96.94
382.891	154.28
383.101	47.79
383.311	37.55
383.521	84.65
383.731	123.56
383.941	68.27
384.151	70.31
384.361	103.08
384.571	80.55
384.781	78.51
384.991	78.51
385.201	129.7
385.411	105.13
385.621	137.9
385.831	39.59
386.041	105.13
386.251	2.73
386.461	88.75
386.671	92.84
386.881	74.41
387.091	47.79
387.301	119.46
387.511	101.03
387.72	70.31
387.93	82.6
388.14	43.69
388.35	103.08
388.56	127.66
388.769	113.32
388.979	68.27
389.189	115.37
389.399	74.41
389.609	125.61
389.818	64.17
390.028	152.23
390.238	105.13
390.447	98.99
390.657	107.18
390.867	191.14
391.076	-1.37
391.286	88.75
391.496	68.27
391.705	58.03
391.915	144.04
392.125	96.94
392.334	51.88
392.544	43.69
392.753	76.46
392.963	72.36
393.172	105.13
393.382	51.88
393.591	207.53
393.801	105.13
394.01	78.51
394.22	80.55
394.429	82.6
394.639	90.79
394.848	131.75
395.058	43.69
395.267	60.07
395.477	105.13
395.686	137.9
395.895	105.13
396.105	82.6
396.314	23.21
396.524	121.51
396.733	78.51
396.942	146.09
397.152	109.22
397.361	103.08
397.57	45.74
397.78	76.46
397.989	144.04
398.198	53.93
398.407	88.75
398.617	94.89
398.826	62.12
399.035	86.7
399.244	195.24
399.453	162.47
399.663	125.61
399.872	197.29
400.081	66.22
400.29	137.9
400.499	119.46
400.708	96.94
400.917	43.69
401.127	105.13
401.336	47.79
401.545	199.34
401.754	172.71
401.963	113.32
402.172	135.85
402.381	105.13
402.59	101.03
402.799	148.14
403.008	125.61
403.217	123.56
403.426	115.37
403.635	98.99
403.844	105.13
404.053	107.18
404.262	96.94
404.471	178.86
404.68	94.89
404.888	88.75
405.097	176.81
405.306	176.81
405.515	166.57
405.724	168.62
405.933	123.56
406.142	191.14
406.35	201.38
406.559	105.13
406.768	213.67
406.977	246.44
407.185	217.77
407.394	309.93
407.603	137.9
407.812	127.66
408.02	234.15
408.229	199.34
408.438	225.96
408.646	254.63
408.855	187.05
409.064	328.36
409.272	225.96
409.481	240.29
409.69	252.58
409.898	254.63
410.107	268.97
410.315	320.17
410.524	297.64
410.733	434.85
410.941	326.31
411.15	408.23
411.358	365.22
411.567	391.84
411.775	389.8
411.984	375.46
412.192	389.8
412.401	514.72
412.609	473.76
412.818	477.86
413.026	455.33
413.234	553.63
413.443	490.15
413.651	502.43
413.86	553.63
414.068	574.11
414.276	539.3
414.485	637.6
414.693	594.59
414.901	649.89
415.11	707.23
415.318	686.75
415.526	737.95
415.734	770.72
415.943	783.01
416.151	813.73
416.359	678.56
416.567	871.07
416.776	838.3
416.984	971.42
417.192	1004.19
417.4	993.95
417.608	975.52
417.817	961.18
418.025	924.32
418.233	1012.38
418.441	1063.58
418.649	1178.26
418.857	1174.17
419.065	1290.9
419.273	1084.06
419.481	1178.26
419.689	1448.6
419.897	1360.53
420.105	1448.6
420.313	1448.6
420.521	1571.47
420.729	1608.34
420.937	1620.63
421.145	1571.47
421.353	1821.33
421.561	1780.37
421.769	1841.81
421.977	1923.73
422.185	1847.95
422.393	2052.75
422.601	2237.06
422.809	2136.71
423.017	2292.36
423.224	2226.82
423.432	2335.37
423.64	2286.22
423.848	2685.57
424.056	2402.95
424.263	2658.95
424.471	2658.95
424.679	2693.76
424.887	2853.5
425.094	2992.76
425.302	2972.29
425.51	3007.1
425.718	3115.64
425.925	3322.49
426.133	3338.87
426.341	3469.94
426.548	3656.31
426.756	3754.61
426.964	3697.27
427.171	3895.92
427.379	4033.13
427.586	4135.53
427.794	4258.41
428.001	4412.01
428.209	4631.14
428.417	4502.12
428.624	4891.23
428.832	4782.69
429.039	4813.41
429.247	4938.34
429.454	5290.59
429.662	5806.67
429.869	5319.26
430.076	5573.21
430.284	5593.69
430.491	5823.06
430.699	5978.7
430.906	6050.38
431.114	5933.65
431.321	6113.87
431.528	6242.89
431.736	6795.84
431.943	7146.05
432.15	6949.44
432.358	7017.02
432.565	7561.78
432.772	7504.44
432.979	7752.24
433.187	7729.72
433.394	8102.45
433.601	8395.31
433.808	8454.7
434.016	8550.95
434.223	8911.39
434.43	9157.15
434.637	9177.63
434.844	9570.84
435.052	9869.84
435.259	9919
435.466	9955.86
435.673	9697.81
435.88	10494.47
436.087	11059.71
436.294	11125.25
436.501	10623.5
436.708	10973.7
436.915	11311.61
437.122	11856.37
437.329	11778.55
437.537	12067.31
437.743	12216.82
437.95	12120.56
438.157	13025.76
438.364	13339.1
438.571	13179.36
438.778	13253.09
438.985	14737.87
439.192	13943.25
439.399	14887.37
439.606	14143.95
439.813	15083.97
440.02	15923.64
440.227	15573.44
440.433	15501.76
440.64	16163.25
440.847	15923.64
441.054	16298.42
441.261	17465.76
441.467	17158.56
441.674	17232.29
441.881	18131.35
442.088	17932.7
442.294	17818.01
442.501	18256.28
442.708	18530.7
442.914	19478.91
443.121	19939.71
443.328	19509.63
443.534	21070.19
443.741	20568.43
443.948	19876.22
444.154	22028.63
444.361	21463.4
444.568	21645.66
444.774	21631.33
444.981	21887.32
445.187	22577.49
445.394	23464.26
445.6	22878.54
445.807	25444.65
446.013	24219.96
446.22	24801.58
446.426	25780.51
446.633	25891.1
446.839	26726.67
447.046	25645.35
447.252	27103.5
447.459	27226.38
447.665	26849.55
447.871	27973.89
448.078	29118.7
448.284	27957.5
448.491	28698.87
448.697	29759.72
448.903	30273.76
449.11	29991.14
449.316	29174
449.522	30470.36
449.728	30910.67
449.935	31070.42
450.141	31250.64
450.347	31779.01
450.553	30728.41
450.76	31293.65
450.966	31891.65
451.172	31887.56
451.378	32458.94
451.584	31949
451.791	32803
451.997	32567.48
452.203	33089.71
452.409	32880.82
452.615	32735.42
452.821	31676.62
453.027	31342.8
453.233	32946.36
453.44	31490.25
453.646	31848.64
453.852	32041.15
454.058	32262.33
454.264	31383.76
454.47	32139.46
454.676	31156.43
454.882	32243.9
455.088	29577.45
455.294	30243.04
455.5	30413.02
455.705	30660.82
455.911	29260.01
456.117	28958.96
456.323	28496.12
456.529	26876.18
456.735	28139.77
456.941	27277.58
457.147	26833.17
457.352	25913.63
457.558	25647.4
457.764	25649.44
457.97	25321.77
458.176	24738.1
458.381	24744.24
458.587	23238.98
458.793	23327.05
458.999	21940.57
459.204	23867.71
459.41	23120.2
459.616	21731.68
459.821	21455.2
460.027	21424.48
460.233	21059.95
460.438	19872.12
460.644	20461.94
460.85	19384.71
461.055	19231.11
461.261	19132.81
461.466	17717.66
461.672	17209.76
461.878	18680.21
462.083	17301.92
462.289	16966.06
462.494	16705.96
462.7	15858.1
462.905	15538.62
463.111	16062.9
463.316	15829.43
463.522	15839.67
463.727	15901.11
463.932	15755.71
464.138	15477.18
464.343	15649.21
464.549	15032.77
464.754	15612.35
464.959	15528.38
465.165	15665.6
465.37	14995.91
465.575	14385.62
465.781	14938.57
465.986	15040.97
466.191	14541.26
466.397	14295.5
466.602	13722.07
466.807	13994.45
467.012	14197.2
