Data from USB4F104151__18__10-21-16-140.txt Node

Date: Wed Mar 12 10:21:16 EDT 2025
User: louis
Spectrometer: USB4F10415
Trigger mode: 4
Integration Time (sec): 3.000000E-2
Scans to average: 1
Electric dark correction enabled: true
Nonlinearity correction enabled: false
Boxcar width: 0
XAxis mode: Wavelengths
Number of Pixels in Spectrum: 3648
>>>>>Begin Spectral Data<<<<<
178.204	-51.03
178.424	-51.03
178.644	-51.03
178.864	-116.56
179.084	-30.55
179.304	-55.12
179.524	-5.97
179.744	12.46
179.964	43.18
180.184	45.23
180.404	57.51
180.624	-3.93
180.844	30.89
181.064	-34.64
181.283	-48.98
181.503	-71.51
181.723	30.89
181.943	-55.12
182.163	26.79
182.383	4.27
182.602	24.75
182.822	-16.21
183.042	28.84
183.262	-3.93
183.482	51.37
183.701	59.56
183.921	14.51
184.141	-20.31
184.361	45.23
184.58	73.9
184.8	22.7
185.02	10.41
185.239	39.08
185.459	53.42
185.679	67.75
185.898	-44.88
186.118	47.27
186.338	65.71
186.557	116.9
186.777	18.6
186.997	114.86
187.216	-10.07
187.436	26.79
187.655	24.75
187.875	37.03
188.095	127.14
188.314	30.89
188.534	-14.17
188.753	18.6
188.973	4.27
189.192	108.71
189.412	34.99
189.631	51.37
189.851	51.37
190.07	4.27
190.29	-55.12
190.509	-18.26
190.729	37.03
190.948	80.04
191.168	151.72
191.387	63.66
191.607	-77.65
191.826	55.47
192.045	10.41
192.265	24.75
192.484	41.13
192.704	43.18
192.923	34.99
193.142	14.51
193.362	131.24
193.581	71.85
193.8	108.71
194.02	71.85
194.239	4.27
194.458	147.62
194.678	30.89
194.897	75.95
195.116	57.51
195.335	6.31
195.555	45.23
195.774	-18.26
195.993	71.85
196.212	47.27
196.432	43.18
196.651	-38.74
196.87	47.27
197.089	75.95
197.308	77.99
197.528	49.32
197.747	6.31
197.966	-12.12
198.185	61.61
198.404	57.51
198.623	108.71
198.842	-20.31
199.062	39.08
199.281	94.38
199.5	112.81
199.719	43.18
199.938	59.56
200.157	80.04
200.376	96.43
200.595	51.37
200.814	67.75
201.033	49.32
201.252	69.8
201.471	47.27
201.69	71.85
201.909	63.66
202.128	84.14
202.347	90.28
202.566	-18.26
202.785	45.23
203.004	-1.88
203.223	108.71
203.442	61.61
203.661	69.8
203.879	51.37
204.098	16.55
204.317	34.99
204.536	88.23
204.755	-18.26
204.974	32.94
205.193	51.37
205.411	147.62
205.63	22.7
205.849	-24.4
206.068	90.28
206.287	14.51
206.505	63.66
206.724	-20.31
206.943	22.7
207.162	4.27
207.381	22.7
207.599	16.55
207.818	47.27
208.037	-36.69
208.255	37.03
208.474	82.09
208.693	71.85
208.911	39.08
209.13	-10.07
209.349	51.37
209.567	73.9
209.786	-5.97
210.005	127.14
210.223	18.6
210.442	-5.97
210.661	86.19
210.879	45.23
211.098	-3.93
211.316	53.42
211.535	53.42
211.753	28.84
211.972	20.65
212.191	30.89
212.409	-3.93
212.628	-34.64
212.846	75.95
213.065	30.89
213.283	67.75
213.502	45.23
213.72	90.28
213.938	10.41
214.157	-14.17
214.375	69.8
214.594	12.46
214.812	71.85
215.031	37.03
215.249	-30.55
215.467	18.6
215.686	2.22
215.904	22.7
216.122	16.55
216.341	65.71
216.559	-26.45
216.778	-38.74
216.996	77.99
217.214	63.66
217.432	32.94
217.651	84.14
217.869	59.56
218.087	80.04
218.306	18.6
218.524	55.47
218.742	6.31
218.96	43.18
219.179	6.31
219.397	69.8
219.615	90.28
219.833	-28.5
220.051	26.79
220.27	45.23
220.488	92.33
220.706	69.8
220.924	77.99
221.142	20.65
221.36	47.27
221.578	65.71
221.796	47.27
222.015	39.08
222.233	32.94
222.451	112.81
222.669	-12.12
222.887	63.66
223.105	20.65
223.323	6.31
223.541	22.7
223.759	69.8
223.977	-20.31
224.195	18.6
224.413	59.56
224.631	110.76
224.849	82.09
225.067	59.56
225.285	43.18
225.503	24.75
225.721	6.31
225.939	14.51
226.157	59.56
226.375	121
226.592	45.23
226.81	22.7
227.028	-61.27
227.246	26.79
227.464	69.8
227.682	90.28
227.9	84.14
228.117	49.32
228.335	8.36
228.553	47.27
228.771	57.51
228.989	-22.36
229.206	4.27
229.424	63.66
229.642	30.89
229.86	26.79
230.077	10.41
230.295	98.47
230.513	67.75
230.731	90.28
230.948	131.24
231.166	110.76
231.384	-22.36
231.601	32.94
231.819	82.09
232.037	26.79
232.254	4.27
232.472	71.85
232.689	47.27
232.907	22.7
233.125	26.79
233.342	16.55
233.56	61.61
233.777	39.08
233.995	61.61
234.213	84.14
234.43	67.75
234.648	-69.46
234.865	39.08
235.083	30.89
235.3	57.51
235.518	-44.88
235.735	118.95
235.953	141.48
236.17	53.42
236.388	-10.07
236.605	80.04
236.822	59.56
237.04	135.34
237.257	67.75
237.475	20.65
237.692	14.51
237.909	18.6
238.127	4.27
238.344	47.27
238.562	51.37
238.779	32.94
238.996	32.94
239.214	37.03
239.431	45.23
239.648	-34.64
239.865	4.27
240.083	57.51
240.3	2.22
240.517	-10.07
240.735	8.36
240.952	39.08
241.169	84.14
241.386	24.75
241.603	59.56
241.821	102.57
242.038	47.27
242.255	24.75
242.472	-14.17
242.689	6.31
242.907	88.23
243.124	-32.6
243.341	84.14
243.558	6.31
243.775	28.84
243.992	43.18
244.209	30.89
244.426	37.03
244.643	86.19
244.86	73.9
245.078	45.23
245.295	47.27
245.512	86.19
245.729	45.23
245.946	37.03
246.163	92.33
246.38	10.41
246.597	-3.93
246.814	67.75
247.031	6.31
247.248	39.08
247.464	90.28
247.681	39.08
247.898	73.9
248.115	77.99
248.332	71.85
248.549	43.18
248.766	80.04
248.983	80.04
249.2	43.18
249.417	104.62
249.633	8.36
249.85	57.51
250.067	37.03
250.284	51.37
250.501	82.09
250.717	8.36
250.934	-61.27
251.151	37.03
251.368	49.32
251.585	8.36
251.801	14.51
252.018	43.18
252.235	14.51
252.451	10.41
252.668	53.42
252.885	118.95
253.102	80.04
253.318	59.56
253.535	22.7
253.752	-3.93
253.968	57.51
254.185	12.46
254.401	57.51
254.618	-5.97
254.835	-3.93
255.051	34.99
255.268	0.17
255.484	37.03
255.701	-20.31
255.917	47.27
256.134	61.61
256.351	51.37
256.567	51.37
256.784	37.03
257	-8.02
257.217	-3.93
257.433	20.65
257.65	104.62
257.866	96.43
258.082	14.51
258.299	-38.74
258.515	69.8
258.732	-5.97
258.948	63.66
259.165	-3.93
259.381	34.99
259.597	2.22
259.814	-36.69
260.03	28.84
260.246	80.04
260.463	63.66
260.679	39.08
260.895	71.85
261.112	-20.31
261.328	18.6
261.544	53.42
261.761	77.99
261.977	-1.88
262.193	12.46
262.409	43.18
262.626	43.18
262.842	67.75
263.058	-53.08
263.274	94.38
263.49	26.79
263.707	157.86
263.923	106.67
264.139	26.79
264.355	-8.02
264.571	61.61
264.787	-46.93
265.004	65.71
265.22	6.31
265.436	80.04
265.652	39.08
265.868	135.34
266.084	28.84
266.3	34.99
266.516	39.08
266.732	45.23
266.948	28.84
267.164	80.04
267.38	6.31
267.596	69.8
267.812	75.95
268.028	110.76
268.244	102.57
268.46	151.72
268.676	61.61
268.892	-10.07
269.108	30.89
269.324	-10.07
269.54	30.89
269.756	71.85
269.972	-1.88
270.188	30.89
270.403	18.6
270.619	26.79
270.835	18.6
271.051	22.7
271.267	43.18
271.483	28.84
271.698	34.99
271.914	80.04
272.13	80.04
272.346	14.51
272.562	45.23
272.777	65.71
272.993	24.75
273.209	-40.79
273.425	32.94
273.64	10.41
273.856	80.04
274.072	26.79
274.287	30.89
274.503	84.14
274.719	-1.88
274.934	69.8
275.15	2.22
275.366	28.84
275.581	26.79
275.797	-3.93
276.012	20.65
276.228	2.22
276.444	67.75
276.659	71.85
276.875	-79.7
277.09	-16.21
277.306	39.08
277.521	129.19
277.737	24.75
277.952	28.84
278.168	141.48
278.383	39.08
278.599	84.14
278.814	47.27
279.03	84.14
279.245	106.67
279.461	26.79
279.676	80.04
279.892	34.99
280.107	30.89
280.322	34.99
280.538	86.19
280.753	30.89
280.969	34.99
281.184	80.04
281.399	-10.07
281.615	45.23
281.83	92.33
282.045	10.41
282.26	63.66
282.476	88.23
282.691	75.95
282.906	49.32
283.122	118.95
283.337	39.08
283.552	-44.88
283.767	65.71
283.983	121
284.198	39.08
284.413	61.61
284.628	-38.74
284.843	67.75
285.058	39.08
285.274	20.65
285.489	12.46
285.704	32.94
285.919	24.75
286.134	-10.07
286.349	43.18
286.564	86.19
286.779	75.95
286.995	32.94
287.21	41.13
287.425	37.03
287.64	59.56
287.855	30.89
288.07	43.18
288.285	75.95
288.5	84.14
288.715	-5.97
288.93	-30.55
289.145	94.38
289.36	65.71
289.575	14.51
289.79	104.62
290.004	-61.27
290.219	37.03
290.434	88.23
290.649	41.13
290.864	125.1
291.079	45.23
291.294	39.08
291.509	69.8
291.724	108.71
291.938	86.19
292.153	43.18
292.368	-8.02
292.583	61.61
292.798	14.51
293.012	20.65
293.227	67.75
293.442	57.51
293.657	67.75
293.871	100.52
294.086	28.84
294.301	45.23
294.516	77.99
294.73	98.47
294.945	43.18
295.16	57.51
295.374	98.47
295.589	47.27
295.804	41.13
296.018	51.37
296.233	39.08
296.447	43.18
296.662	92.33
296.877	90.28
297.091	14.51
297.306	37.03
297.52	-3.93
297.735	71.85
297.949	14.51
298.164	69.8
298.378	-8.02
298.593	59.56
298.807	153.77
299.022	65.71
299.236	20.65
299.451	28.84
299.665	47.27
299.88	43.18
300.094	43.18
300.309	133.29
300.523	73.9
300.737	82.09
300.952	153.77
301.166	-28.5
301.381	47.27
301.595	84.14
301.809	-1.88
302.024	55.47
302.238	51.37
302.452	43.18
302.667	-28.5
302.881	98.47
303.095	67.75
303.309	51.37
303.524	30.89
303.738	63.66
303.952	24.75
304.166	45.23
304.381	-57.17
304.595	147.62
304.809	55.47
305.023	125.1
305.237	34.99
305.452	39.08
305.666	84.14
305.88	104.62
306.094	39.08
306.308	118.95
306.522	34.99
306.736	12.46
306.95	28.84
307.164	20.65
307.379	6.31
307.593	180.39
307.807	-14.17
308.021	45.23
308.235	82.09
308.449	41.13
308.663	-1.88
308.877	80.04
309.091	6.31
309.305	39.08
309.519	57.51
309.733	86.19
309.947	51.37
310.161	92.33
310.374	96.43
310.588	106.67
310.802	-26.45
311.016	82.09
311.23	84.14
311.444	4.27
311.658	80.04
311.872	61.61
312.085	43.18
312.299	22.7
312.513	-22.36
312.727	69.8
312.941	6.31
313.154	10.41
313.368	75.95
313.582	98.47
313.796	39.08
314.009	2.22
314.223	73.9
314.437	80.04
314.651	80.04
314.864	59.56
315.078	51.37
315.292	47.27
315.505	-1.88
315.719	20.65
315.933	39.08
316.146	12.46
316.36	63.66
316.573	77.99
316.787	47.27
317.001	43.18
317.214	26.79
317.428	121
317.641	-48.98
317.855	39.08
318.068	18.6
318.282	18.6
318.495	94.38
318.709	63.66
318.922	73.9
319.136	96.43
319.349	112.81
319.563	-1.88
319.776	80.04
319.99	8.36
320.203	104.62
320.417	164.01
320.63	49.32
320.843	45.23
321.057	39.08
321.27	47.27
321.483	53.42
321.697	110.76
321.91	77.99
322.124	39.08
322.337	73.9
322.55	57.51
322.763	-18.26
322.977	71.85
323.19	45.23
323.403	94.38
323.617	-3.93
323.83	80.04
324.043	26.79
324.256	26.79
324.469	45.23
324.683	55.47
324.896	18.6
325.109	80.04
325.322	16.55
325.535	121
325.748	86.19
325.962	65.71
326.175	37.03
326.388	71.85
326.601	84.14
326.814	47.27
327.027	100.52
327.24	53.42
327.453	-51.03
327.666	51.37
327.879	129.19
328.092	69.8
328.305	71.85
328.518	16.55
328.731	43.18
328.944	98.47
329.157	73.9
329.37	71.85
329.583	-18.26
329.796	96.43
330.009	71.85
330.222	2.22
330.435	-18.26
330.648	94.38
330.861	69.8
331.073	121
331.286	59.56
331.499	92.33
331.712	43.18
331.925	57.51
332.138	71.85
332.35	65.71
332.563	-1.88
332.776	53.42
332.989	0.17
333.202	71.85
333.414	100.52
333.627	30.89
333.84	34.99
334.053	71.85
334.265	71.85
334.478	22.7
334.691	51.37
334.903	26.79
335.116	4.27
335.329	43.18
335.541	71.85
335.754	43.18
335.966	-1.88
336.179	-3.93
336.392	30.89
336.604	14.51
336.817	18.6
337.029	104.62
337.242	6.31
337.454	51.37
337.667	6.31
337.88	80.04
338.092	88.23
338.305	92.33
338.517	43.18
338.729	77.99
338.942	-10.07
339.154	75.95
339.367	-16.21
339.579	75.95
339.792	47.27
340.004	84.14
340.217	39.08
340.429	100.52
340.641	-46.93
340.854	26.79
341.066	51.37
341.278	59.56
341.491	6.31
341.703	-3.93
341.915	6.31
342.128	108.71
342.34	104.62
342.552	104.62
342.764	26.79
342.977	102.57
343.189	-30.55
343.401	22.7
343.613	28.84
343.826	45.23
344.038	69.8
344.25	32.94
344.462	86.19
344.674	104.62
344.886	39.08
345.099	51.37
345.311	69.8
345.523	-1.88
345.735	-10.07
345.947	-20.31
346.159	24.75
346.371	125.1
346.583	84.14
346.795	110.76
347.007	-12.12
347.219	65.71
347.431	6.31
347.643	186.54
347.855	28.84
348.067	-10.07
348.279	-24.4
348.491	102.57
348.703	28.84
348.915	16.55
349.127	34.99
349.339	104.62
349.551	67.75
349.763	127.14
349.975	30.89
350.187	110.76
350.399	65.71
350.61	110.76
350.822	57.51
351.034	67.75
351.246	108.71
351.458	65.71
351.669	41.13
351.881	92.33
352.093	-3.93
352.305	47.27
352.517	41.13
352.728	-22.36
352.94	55.47
353.152	84.14
353.363	92.33
353.575	96.43
353.787	110.76
353.999	41.13
354.21	80.04
354.422	10.41
354.633	71.85
354.845	86.19
355.057	100.52
355.268	135.34
355.48	84.14
355.692	88.23
355.903	6.31
356.115	20.65
356.326	39.08
356.538	88.23
356.749	71.85
356.961	71.85
357.172	84.14
357.384	80.04
357.595	80.04
357.807	73.9
358.018	34.99
358.23	59.56
358.441	67.75
358.653	84.14
358.864	-1.88
359.075	18.6
359.287	90.28
359.498	80.04
359.709	30.89
359.921	-14.17
360.132	98.47
360.344	32.94
360.555	104.62
360.766	28.84
360.977	24.75
361.189	75.95
361.4	43.18
361.611	77.99
361.823	82.09
362.034	129.19
362.245	-10.07
362.456	-20.31
362.667	28.84
362.879	96.43
363.09	28.84
363.301	43.18
363.512	59.56
363.723	22.7
363.935	43.18
364.146	135.34
364.357	49.32
364.568	26.79
364.779	43.18
364.99	186.54
365.201	59.56
365.412	141.48
365.623	47.27
365.834	-5.97
366.045	32.94
366.256	43.18
366.467	55.47
366.678	65.71
366.889	65.71
367.1	102.57
367.311	71.85
367.522	65.71
367.733	30.89
367.944	88.23
368.155	61.61
368.366	18.6
368.577	63.66
368.788	82.09
368.999	10.41
369.209	92.33
369.42	145.58
369.631	147.62
369.842	43.18
370.053	69.8
370.264	20.65
370.474	-14.17
370.685	71.85
370.896	63.66
371.107	96.43
371.317	41.13
371.528	47.27
371.739	94.38
371.95	59.56
372.16	39.08
372.371	30.89
372.582	63.66
372.792	121
373.003	53.42
373.214	61.61
373.424	73.9
373.635	34.99
373.846	59.56
374.056	90.28
374.267	92.33
374.477	118.95
374.688	47.27
374.898	104.62
375.109	51.37
375.319	6.31
375.53	67.75
375.74	80.04
375.951	-42.84
376.161	14.51
376.372	80.04
376.582	-3.93
376.793	63.66
377.003	26.79
377.214	45.23
377.424	108.71
377.635	100.52
377.845	2.22
378.055	96.43
378.266	43.18
378.476	69.8
378.686	20.65
378.897	45.23
379.107	84.14
379.317	55.47
379.528	71.85
379.738	116.9
379.948	49.32
380.158	59.56
380.369	61.61
380.579	71.85
380.789	61.61
380.999	143.53
381.21	88.23
381.42	116.9
381.63	37.03
381.84	106.67
382.05	63.66
382.261	37.03
382.471	84.14
382.681	94.38
382.891	75.95
383.101	80.04
383.311	-14.17
383.521	86.19
383.731	49.32
383.941	53.42
384.151	22.7
384.361	55.47
384.571	61.61
384.781	98.47
384.991	47.27
385.201	75.95
385.411	145.58
385.621	92.33
385.831	63.66
386.041	106.67
386.251	71.85
386.461	100.52
386.671	118.95
386.881	96.43
387.091	43.18
387.301	77.99
387.511	75.95
387.72	71.85
387.93	45.23
388.14	39.08
388.35	45.23
388.56	-8.02
388.769	145.58
388.979	20.65
389.189	22.7
389.399	118.95
389.609	22.7
389.818	159.91
390.028	43.18
390.238	141.48
390.447	100.52
390.657	100.52
390.867	90.28
391.076	39.08
391.286	92.33
391.496	77.99
391.705	121
391.915	135.34
392.125	71.85
392.334	94.38
392.544	110.76
392.753	45.23
392.963	80.04
393.172	80.04
393.382	71.85
393.591	121
393.801	108.71
394.01	182.44
394.22	61.61
394.429	80.04
394.639	123.05
394.848	80.04
395.058	106.67
395.267	53.42
395.477	75.95
395.686	34.99
395.895	151.72
396.105	127.14
396.314	100.52
396.524	145.58
396.733	80.04
396.942	39.08
397.152	104.62
397.361	174.25
397.57	149.67
397.78	114.86
397.989	82.09
398.198	166.06
398.407	116.9
398.617	157.86
398.826	80.04
399.035	110.76
399.244	145.58
399.453	182.44
399.663	86.19
399.872	88.23
400.081	104.62
400.29	125.1
400.499	129.19
400.708	164.01
400.917	51.37
401.127	92.33
401.336	112.81
401.545	219.3
401.754	143.53
401.963	155.82
402.172	129.19
402.381	98.47
402.59	88.23
402.799	108.71
403.008	153.77
403.217	112.81
403.426	127.14
403.635	145.58
403.844	190.63
404.053	133.29
404.262	129.19
404.471	237.74
404.68	237.74
404.888	110.76
405.097	125.1
405.306	151.72
405.515	180.39
405.724	194.73
405.933	200.87
406.142	168.1
406.35	196.78
406.559	200.87
406.768	211.11
406.977	268.45
407.185	239.78
407.394	309.41
407.603	202.92
407.812	254.12
408.02	327.85
408.229	231.59
408.438	264.36
408.646	278.69
408.855	284.84
409.064	340.13
409.272	250.02
409.481	338.09
409.69	325.8
409.898	299.17
410.107	329.89
410.315	336.04
410.524	362.66
410.733	387.24
410.941	424.1
411.15	370.85
411.358	397.48
411.567	385.19
411.775	483.49
411.984	506.02
412.192	487.59
412.401	399.52
412.609	641.18
412.818	546.98
413.026	641.18
413.234	561.31
413.443	555.17
413.651	600.23
413.86	624.8
414.068	686.24
414.276	630.95
414.485	661.66
414.693	774.3
414.901	837.79
415.11	745.63
415.318	731.3
415.526	899.23
415.734	829.6
415.943	927.9
416.151	878.75
416.359	948.38
416.567	989.34
416.776	1032.35
416.984	997.53
417.192	1089.69
417.4	1063.07
417.608	1085.59
417.817	1132.7
418.025	1173.66
418.233	1271.96
418.441	1249.43
418.649	1208.47
418.857	1276.06
419.065	1466.52
419.273	1394.84
419.481	1450.13
419.689	1587.35
419.897	1546.39
420.105	1587.35
420.313	1790.1
420.521	1773.71
420.729	1765.52
420.937	1751.18
421.145	2019.47
421.353	2062.48
421.561	2168.97
421.769	2142.35
421.977	2214.02
422.185	2257.03
422.393	2357.38
422.601	2541.7
422.809	2447.49
423.017	2316.42
423.224	2652.29
423.432	2838.66
423.64	2660.48
423.848	2924.67
424.056	2795.65
424.263	3068.03
424.471	3211.39
424.679	3111.04
424.887	3391.61
425.094	3420.28
425.302	3467.38
425.51	3575.92
425.718	3793.01
425.925	3762.29
426.133	4067.44
426.341	4157.55
426.548	4178.03
426.756	4270.19
426.964	4339.82
427.171	4581.48
427.379	4743.27
427.586	4747.36
427.794	4878.43
428.001	5245.02
428.209	5349.47
428.417	5240.92
428.624	5793.87
428.832	5881.94
429.039	5689.43
429.247	5738.58
429.454	6254.67
429.662	6543.43
429.869	6172.75
430.076	6617.16
430.284	6412.36
430.491	6701.12
430.699	7012.42
430.906	6926.4
431.114	7166.01
431.321	7198.78
431.528	7682.1
431.736	8087.6
431.943	8378.41
432.15	8146.99
432.358	8235.05
432.565	8632.36
432.772	8710.18
432.979	9027.62
433.187	9310.24
433.394	9429.02
433.601	9990.16
433.808	10174.48
434.016	10000.4
434.223	10317.84
434.43	10848.26
434.637	10885.12
434.844	11526.14
435.052	11692.02
435.259	11474.94
435.466	11620.35
435.673	11597.82
435.88	12287.98
436.087	12832.74
436.294	13019.11
436.501	12691.43
436.708	13058.02
436.915	13228
437.122	13899.73
437.329	13875.16
437.537	14245.84
437.743	14616.52
437.95	14718.92
438.157	15431.62
438.364	15796.15
438.571	15671.23
438.778	15871.93
438.985	17233.83
439.192	16420.78
439.399	17348.51
439.606	16613.29
439.813	17442.72
440.02	18677.65
440.227	18306.96
440.433	18343.83
440.64	18986.89
440.847	18655.12
441.054	19132.29
441.261	20395.89
441.467	20051.83
441.674	20436.85
441.881	21139.3
442.088	21020.52
442.294	20961.13
442.501	21671.78
442.708	22064.99
442.914	22781.78
443.121	23443.27
443.328	23273.29
443.534	24987.44
443.741	24139.58
443.948	23603.01
444.154	25501.48
444.361	24915.76
444.568	25530.15
444.774	25679.65
444.981	25659.17
445.187	26408.73
445.394	27563.78
445.6	27164.43
445.807	30019.3
446.013	28182.27
446.22	29011.7
446.426	30133.98
446.633	30351.07
446.839	31401.68
447.046	30138.08
447.252	31944.39
447.459	31655.62
447.665	31942.34
447.871	32923.32
448.078	34152.1
448.284	32657.08
448.491	33906.34
448.697	34678.43
448.903	35563.15
449.11	35507.85
449.316	34444.96
449.522	35411.6
449.728	35999.37
449.935	36349.57
450.141	36378.24
450.347	37285.49
450.553	35974.79
450.76	36556.41
450.966	37719.66
451.172	36873.85
451.378	38211.17
451.584	36859.51
451.791	38358.63
451.997	38002.28
452.203	38329.95
452.409	38579.81
452.615	38190.69
452.821	36916.86
453.027	36521.6
453.233	38272.61
453.44	36710.01
453.646	37322.35
453.852	37265.01
454.058	37985.9
454.264	36890.23
454.47	37283.44
454.676	36390.53
454.882	37680.75
455.088	34455.2
455.294	34975.38
455.5	35208.85
455.705	35692.17
455.911	34154.15
456.117	33742.5
456.323	33085.11
456.529	31567.56
456.735	32501.43
456.941	31645.38
457.147	31530.7
457.352	30088.93
457.558	29871.84
457.764	29990.63
457.97	29552.36
458.176	28641.01
458.381	28567.29
458.587	27498.25
458.793	27039.5
458.999	25898.78
459.204	27830.02
459.41	26957.58
459.616	25155.37
459.821	25284.39
460.027	25206.57
460.233	24315.7
460.438	23430.98
460.644	24049.47
460.85	22552.4
461.055	22384.47
461.261	22409.04
461.466	20602.74
461.672	19928.95
461.878	21202.79
462.083	19797.88
462.289	19656.57
462.494	19376
462.7	18364.31
462.905	17919.9
463.111	18804.62
463.316	18775.95
463.522	18610.06
463.727	18276.24
463.932	18276.24
464.138	18116.5
464.343	18245.52
464.549	17571.74
464.754	18302.87
464.959	18141.08
465.165	17934.23
465.37	17440.67
465.575	16834.47
465.781	17383.33
465.986	17530.78
466.191	16981.93
466.397	16705.45
466.602	15941.56
466.807	16451.5
467.012	16517.04
467.218	16375.73
