Data from USB4F104151__171__10-27-34-399.txt Node

Date: Wed Mar 12 10:27:34 EDT 2025
User: louis
Spectrometer: USB4F10415
Trigger mode: 4
Integration Time (sec): 3.000000E-2
Scans to average: 1
Electric dark correction enabled: true
Nonlinearity correction enabled: false
Boxcar width: 0
XAxis mode: Wavelengths
Number of Pixels in Spectrum: 3648
>>>>>Begin Spectral Data<<<<<
178.204	-132.09
178.424	-132.09
178.644	-132.09
178.864	-152.57
179.084	-87.04
179.304	-15.36
179.524	3.07
179.744	31.74
179.964	-1.02
180.184	-52.22
180.404	-1.02
180.624	39.94
180.844	3.07
181.064	-35.84
181.283	-9.22
181.503	-19.46
181.723	56.32
181.943	-21.5
182.163	48.13
182.383	44.03
182.602	-25.6
182.822	1.02
183.042	48.13
183.262	-41.98
183.482	52.22
183.701	-9.22
183.921	-23.55
184.141	35.84
184.361	9.22
184.58	3.07
184.8	-9.22
185.02	-3.07
185.239	111.61
185.459	1.02
185.679	68.61
185.898	-54.27
186.118	17.41
186.338	-15.36
186.557	-5.12
186.777	-41.98
186.997	-7.17
187.216	-13.31
187.436	44.03
187.655	44.03
187.875	87.04
188.095	1.02
188.314	84.99
188.534	66.56
188.753	97.28
188.973	76.8
189.192	46.08
189.412	48.13
189.631	46.08
189.851	-37.89
190.07	125.95
190.29	39.94
190.509	-37.89
190.729	-7.17
190.948	7.17
191.168	84.99
191.387	1.02
191.607	-35.84
191.826	60.42
192.045	9.22
192.265	35.84
192.484	54.27
192.704	27.65
192.923	-41.98
193.142	27.65
193.362	-54.27
193.581	50.18
193.8	-21.5
194.02	56.32
194.239	15.36
194.458	-54.27
194.678	-17.41
194.897	19.46
195.116	29.7
195.335	52.22
195.555	62.46
195.774	33.79
195.993	115.71
196.212	-25.6
196.432	78.85
196.651	3.07
196.87	121.85
197.089	95.23
197.308	19.46
197.528	74.75
197.747	-1.02
197.966	76.8
198.185	41.98
198.404	-21.5
198.623	29.7
198.842	31.74
199.062	68.61
199.281	11.26
199.5	31.74
199.719	115.71
199.938	41.98
200.157	21.5
200.376	70.65
200.595	21.5
200.814	76.8
201.033	1.02
201.252	1.02
201.471	27.65
201.69	31.74
201.909	21.5
202.128	11.26
202.347	48.13
202.566	-11.26
202.785	-11.26
203.004	3.07
203.223	117.76
203.442	54.27
203.661	3.07
203.879	60.42
204.098	27.65
204.317	-1.02
204.536	46.08
204.755	56.32
204.974	-11.26
205.193	41.98
205.411	105.47
205.63	80.89
205.849	68.61
206.068	82.94
206.287	23.55
206.505	60.42
206.724	11.26
206.943	31.74
207.162	-41.98
207.381	58.37
207.599	48.13
207.818	11.26
208.037	25.6
208.255	11.26
208.474	70.65
208.693	62.46
208.911	-52.22
209.13	27.65
209.349	58.37
209.567	84.99
209.786	91.13
210.005	37.89
210.223	72.7
210.442	5.12
210.661	25.6
210.879	46.08
211.098	-37.89
211.316	25.6
211.535	-5.12
211.753	-41.98
211.972	101.37
212.191	-15.36
212.409	-9.22
212.628	97.28
212.846	11.26
213.065	56.32
213.283	70.65
213.502	-21.5
213.72	-19.46
213.938	37.89
214.157	50.18
214.375	52.22
214.594	68.61
214.812	-5.12
215.031	-33.79
215.249	78.85
215.467	44.03
215.686	44.03
215.904	60.42
216.122	62.46
216.341	11.26
216.559	44.03
216.778	25.6
216.996	39.94
217.214	19.46
217.432	15.36
217.651	35.84
217.869	113.66
218.087	54.27
218.306	-13.31
218.524	62.46
218.742	9.22
218.96	48.13
219.179	54.27
219.397	76.8
219.615	62.46
219.833	58.37
220.051	58.37
220.27	60.42
220.488	44.03
220.706	-11.26
220.924	7.17
221.142	-1.02
221.36	70.65
221.578	7.17
221.796	27.65
222.015	-5.12
222.233	7.17
222.451	115.71
222.669	-25.6
222.887	-9.22
223.105	-1.02
223.323	-7.17
223.541	27.65
223.759	-19.46
223.977	-62.46
224.195	48.13
224.413	74.75
224.631	44.03
224.849	3.07
225.067	80.89
225.285	-39.94
225.503	-25.6
225.721	-3.07
225.939	-41.98
226.157	78.85
226.375	64.51
226.592	1.02
226.81	72.7
227.028	1.02
227.246	23.55
227.464	84.99
227.682	54.27
227.9	19.46
228.117	37.89
228.335	-25.6
228.553	72.7
228.771	111.61
228.989	68.61
229.206	27.65
229.424	-9.22
229.642	-46.08
229.86	-1.02
230.077	23.55
230.295	-5.12
230.513	56.32
230.731	41.98
230.948	80.89
231.166	117.76
231.384	35.84
231.601	44.03
231.819	27.65
232.037	93.18
232.254	11.26
232.472	-15.36
232.689	56.32
232.907	-13.31
233.125	58.37
233.342	37.89
233.56	-1.02
233.777	-48.13
233.995	-9.22
234.213	21.5
234.43	27.65
234.648	80.89
234.865	60.42
235.083	17.41
235.3	64.51
235.518	15.36
235.735	125.95
235.953	41.98
236.17	56.32
236.388	-19.46
236.605	58.37
236.822	58.37
237.04	7.17
237.257	50.18
237.475	9.22
237.692	23.55
237.909	-11.26
238.127	-58.37
238.344	97.28
238.562	31.74
238.779	44.03
238.996	-13.31
239.214	25.6
239.431	78.85
239.648	25.6
239.865	1.02
240.083	91.13
240.3	-19.46
240.517	17.41
240.735	-11.26
240.952	62.46
241.169	58.37
241.386	48.13
241.603	5.12
241.821	66.56
242.038	23.55
242.255	74.75
242.472	19.46
242.689	80.89
242.907	33.79
243.124	72.7
243.341	-46.08
243.558	44.03
243.775	-5.12
243.992	-19.46
244.209	105.47
244.426	54.27
244.643	35.84
244.86	78.85
245.078	-3.07
245.295	70.65
245.512	23.55
245.729	27.65
245.946	101.37
246.163	41.98
246.38	1.02
246.597	82.94
246.814	23.55
247.031	15.36
247.248	15.36
247.464	64.51
247.681	54.27
247.898	-35.84
248.115	-19.46
248.332	-31.74
248.549	33.79
248.766	29.7
248.983	115.71
249.2	-87.04
249.417	19.46
249.633	31.74
249.85	7.17
250.067	-5.12
250.284	9.22
250.501	-15.36
250.717	44.03
250.934	-39.94
251.151	5.12
251.368	33.79
251.585	41.98
251.801	3.07
252.018	76.8
252.235	31.74
252.451	-41.98
252.668	23.55
252.885	80.89
253.102	21.5
253.318	87.04
253.535	25.6
253.752	33.79
253.968	27.65
254.185	31.74
254.401	7.17
254.618	-3.07
254.835	-7.17
255.051	93.18
255.268	72.7
255.484	-37.89
255.701	11.26
255.917	93.18
256.134	-3.07
256.351	52.22
256.567	-46.08
256.784	-37.89
257	-5.12
257.217	93.18
257.433	54.27
257.65	27.65
257.866	33.79
258.082	39.94
258.299	3.07
258.515	23.55
258.732	11.26
258.948	29.7
259.165	3.07
259.381	97.28
259.597	17.41
259.814	35.84
260.03	-9.22
260.246	44.03
260.463	78.85
260.679	56.32
260.895	-5.12
261.112	-11.26
261.328	23.55
261.544	-70.65
261.761	80.89
261.977	29.7
262.193	-19.46
262.409	19.46
262.626	-1.02
262.842	46.08
263.058	15.36
263.274	3.07
263.49	123.9
263.707	9.22
263.923	-35.84
264.139	46.08
264.355	27.65
264.571	84.99
264.787	3.07
265.004	87.04
265.22	-11.26
265.436	-31.74
265.652	-9.22
265.868	82.94
266.084	-37.89
266.3	-25.6
266.516	-9.22
266.732	60.42
266.948	19.46
267.164	33.79
267.38	-7.17
267.596	46.08
267.812	68.61
268.028	60.42
268.244	19.46
268.46	44.03
268.676	25.6
268.892	64.51
269.108	72.7
269.324	3.07
269.54	-62.46
269.756	78.85
269.972	19.46
270.188	-7.17
270.403	-5.12
270.619	1.02
270.835	-11.26
271.051	23.55
271.267	-23.55
271.483	3.07
271.698	39.94
271.914	5.12
272.13	-41.98
272.346	89.09
272.562	9.22
272.777	56.32
272.993	48.13
273.209	50.18
273.425	39.94
273.64	-25.6
273.856	50.18
274.072	37.89
274.287	35.84
274.503	109.57
274.719	48.13
274.934	-21.5
275.15	19.46
275.366	15.36
275.581	52.22
275.797	-17.41
276.012	27.65
276.228	58.37
276.444	17.41
276.659	66.56
276.875	72.7
277.09	-21.5
277.306	15.36
277.521	68.61
277.737	37.89
277.952	13.31
278.168	56.32
278.383	48.13
278.599	-29.7
278.814	-7.17
279.03	29.7
279.245	39.94
279.461	41.98
279.676	125.95
279.892	1.02
280.107	31.74
280.322	-25.6
280.538	74.75
280.753	21.5
280.969	27.65
281.184	74.75
281.399	23.55
281.615	25.6
281.83	-21.5
282.045	21.5
282.26	27.65
282.476	101.37
282.691	68.61
282.906	3.07
283.122	-11.26
283.337	-19.46
283.552	25.6
283.767	37.89
283.983	13.31
284.198	44.03
284.413	-39.94
284.628	54.27
284.843	89.09
285.058	31.74
285.274	52.22
285.489	19.46
285.704	37.89
285.919	7.17
286.134	29.7
286.349	115.71
286.564	-25.6
286.779	76.8
286.995	27.65
287.21	23.55
287.425	19.46
287.64	-39.94
287.855	48.13
288.07	46.08
288.285	3.07
288.5	115.71
288.715	103.42
288.93	27.65
289.145	-5.12
289.36	134.14
289.575	5.12
289.79	41.98
290.004	60.42
290.219	17.41
290.434	13.31
290.649	50.18
290.864	48.13
291.079	82.94
291.294	1.02
291.509	15.36
291.724	46.08
291.938	50.18
292.153	-21.5
292.368	41.98
292.583	132.09
292.798	72.7
293.012	-19.46
293.227	44.03
293.442	37.89
293.657	97.28
293.871	3.07
294.086	39.94
294.301	107.52
294.516	68.61
294.73	31.74
294.945	37.89
295.16	21.5
295.374	46.08
295.589	62.46
295.804	-1.02
296.018	21.5
296.233	128
296.447	48.13
296.662	7.17
296.877	82.94
297.091	5.12
297.306	60.42
297.52	35.84
297.735	62.46
297.949	50.18
298.164	-72.7
298.378	60.42
298.593	25.6
298.807	-11.26
299.022	50.18
299.236	11.26
299.451	39.94
299.665	-35.84
299.88	35.84
300.094	41.98
300.309	60.42
300.523	21.5
300.737	-5.12
300.952	39.94
301.166	72.7
301.381	-1.02
301.595	52.22
301.809	17.41
302.024	11.26
302.238	52.22
302.452	82.94
302.667	95.23
302.881	109.57
303.095	33.79
303.309	64.51
303.524	35.84
303.738	-33.79
303.952	29.7
304.166	27.65
304.381	27.65
304.595	70.65
304.809	66.56
305.023	-1.02
305.237	29.7
305.452	50.18
305.666	39.94
305.88	72.7
306.094	68.61
306.308	48.13
306.522	31.74
306.736	134.14
306.95	-13.31
307.164	-54.27
307.379	66.56
307.593	7.17
307.807	23.55
308.021	107.52
308.235	29.7
308.449	-7.17
308.663	44.03
308.877	103.42
309.091	1.02
309.305	111.61
309.519	-25.6
309.733	35.84
309.947	-5.12
310.161	13.31
310.374	76.8
310.588	39.94
310.802	-33.79
311.016	62.46
311.23	48.13
311.444	-19.46
311.658	76.8
311.872	84.99
312.085	84.99
312.299	29.7
312.513	5.12
312.727	41.98
312.941	3.07
313.154	70.65
313.368	72.7
313.582	52.22
313.796	52.22
314.009	-11.26
314.223	44.03
314.437	33.79
314.651	31.74
314.864	-5.12
315.078	93.18
315.292	50.18
315.505	64.51
315.719	82.94
315.933	68.61
316.146	68.61
316.36	-7.17
316.573	89.09
316.787	-29.7
317.001	72.7
317.214	46.08
317.428	37.89
317.641	3.07
317.855	33.79
318.068	-7.17
318.282	11.26
318.495	64.51
318.709	62.46
318.922	35.84
319.136	80.89
319.349	68.61
319.563	-13.31
319.776	68.61
319.99	70.65
320.203	76.8
320.417	-33.79
320.63	52.22
320.843	95.23
321.057	87.04
321.27	62.46
321.483	41.98
321.697	17.41
321.91	-25.6
322.124	33.79
322.337	44.03
322.55	-1.02
322.763	13.31
322.977	35.84
323.19	15.36
323.403	60.42
323.617	44.03
323.83	125.95
324.043	-37.89
324.256	-9.22
324.469	56.32
324.683	119.81
324.896	23.55
325.109	68.61
325.322	44.03
325.535	1.02
325.748	99.33
325.962	3.07
326.175	44.03
326.388	31.74
326.601	7.17
326.814	60.42
327.027	93.18
327.24	138.24
327.453	7.17
327.666	72.7
327.879	37.89
328.092	39.94
328.305	33.79
328.518	21.5
328.731	48.13
328.944	99.33
329.157	93.18
329.37	-5.12
329.583	105.47
329.796	150.53
330.009	3.07
330.222	15.36
330.435	101.37
330.648	27.65
330.861	84.99
331.073	13.31
331.286	19.46
331.499	76.8
331.712	76.8
331.925	66.56
332.138	44.03
332.35	121.85
332.563	35.84
332.776	60.42
332.989	31.74
333.202	56.32
333.414	23.55
333.627	52.22
333.84	9.22
334.053	54.27
334.265	3.07
334.478	-3.07
334.691	15.36
334.903	17.41
335.116	-37.89
335.329	48.13
335.541	93.18
335.754	66.56
335.966	33.79
336.179	52.22
336.392	-76.8
336.604	33.79
336.817	31.74
337.029	87.04
337.242	33.79
337.454	62.46
337.667	50.18
337.88	107.52
338.092	-9.22
338.305	76.8
338.517	21.5
338.729	109.57
338.942	97.28
339.154	48.13
339.367	9.22
339.579	93.18
339.792	-9.22
340.004	84.99
340.217	27.65
340.429	5.12
340.641	-29.7
340.854	111.61
341.066	29.7
341.278	117.76
341.491	136.19
341.703	-17.41
341.915	-29.7
342.128	48.13
342.34	80.89
342.552	37.89
342.764	-29.7
342.977	-19.46
343.189	56.32
343.401	89.09
343.613	44.03
343.826	-15.36
344.038	72.7
344.25	56.32
344.462	17.41
344.674	-25.6
344.886	21.5
345.099	48.13
345.311	50.18
345.523	78.85
345.735	35.84
345.947	52.22
346.159	64.51
346.371	-9.22
346.583	5.12
346.795	80.89
347.007	56.32
347.219	52.22
347.431	-41.98
347.643	99.33
347.855	9.22
348.067	97.28
348.279	37.89
348.491	27.65
348.703	52.22
348.915	50.18
349.127	35.84
349.339	64.51
349.551	52.22
349.763	3.07
349.975	72.7
350.187	19.46
350.399	105.47
350.61	9.22
350.822	35.84
351.034	9.22
351.246	84.99
351.458	52.22
351.669	95.23
351.881	93.18
352.093	109.57
352.305	93.18
352.517	109.57
352.728	44.03
352.94	91.13
353.152	72.7
353.363	-25.6
353.575	11.26
353.787	27.65
353.999	109.57
354.21	91.13
354.422	1.02
354.633	21.5
354.845	76.8
355.057	31.74
355.268	107.52
355.48	29.7
355.692	-5.12
355.903	17.41
356.115	19.46
356.326	-5.12
356.538	70.65
356.749	-1.02
356.961	123.9
357.172	-52.22
357.384	41.98
357.595	93.18
357.807	39.94
358.018	-21.5
358.23	-5.12
358.441	35.84
358.653	15.36
358.864	84.99
359.075	-35.84
359.287	37.89
359.498	23.55
359.709	93.18
359.921	5.12
360.132	76.8
360.344	68.61
360.555	35.84
360.766	62.46
360.977	-19.46
361.189	95.23
361.4	25.6
361.611	17.41
361.823	11.26
362.034	52.22
362.245	1.02
362.456	62.46
362.667	62.46
362.879	31.74
363.09	-44.03
363.301	76.8
363.512	9.22
363.723	25.6
363.935	11.26
364.146	97.28
364.357	35.84
364.568	-41.98
364.779	31.74
364.99	64.51
365.201	60.42
365.412	44.03
365.623	-9.22
365.834	152.57
366.045	78.85
366.256	175.1
366.467	44.03
366.678	64.51
366.889	-29.7
367.1	74.75
367.311	39.94
367.522	160.77
367.733	72.7
367.944	74.75
368.155	82.94
368.366	23.55
368.577	-21.5
368.788	95.23
368.999	91.13
369.209	60.42
369.42	111.61
369.631	-17.41
369.842	41.98
370.053	25.6
370.264	97.28
370.474	76.8
370.685	80.89
370.896	-13.31
371.107	99.33
371.317	-29.7
371.528	72.7
371.739	66.56
371.95	-29.7
372.16	89.09
372.371	23.55
372.582	39.94
372.792	66.56
373.003	48.13
373.214	84.99
373.424	136.19
373.635	37.89
373.846	156.67
374.056	-13.31
374.267	60.42
374.477	89.09
374.688	29.7
374.898	78.85
375.109	46.08
375.319	19.46
375.53	78.85
375.74	33.79
375.951	93.18
376.161	76.8
376.372	64.51
376.582	-35.84
376.793	80.89
377.003	-33.79
377.214	44.03
377.424	48.13
377.635	41.98
377.845	-1.02
378.055	119.81
378.266	3.07
378.476	11.26
378.686	19.46
378.897	72.7
379.107	29.7
379.317	109.57
379.528	74.75
379.738	148.48
379.948	35.84
380.158	58.37
380.369	41.98
380.579	113.66
380.789	78.85
380.999	128
381.21	109.57
381.42	95.23
381.63	125.95
381.84	1.02
382.05	33.79
382.261	103.42
382.471	95.23
382.681	29.7
382.891	52.22
383.101	95.23
383.311	11.26
383.521	62.46
383.731	74.75
383.941	60.42
384.151	29.7
384.361	68.61
384.571	78.85
384.781	58.37
384.991	74.75
385.201	87.04
385.411	148.48
385.621	82.94
385.831	41.98
386.041	15.36
386.251	27.65
386.461	175.1
386.671	50.18
386.881	41.98
387.091	152.57
387.301	175.1
387.511	31.74
387.72	121.85
387.93	58.37
388.14	60.42
388.35	74.75
388.56	44.03
388.769	58.37
388.979	89.09
389.189	82.94
389.399	87.04
389.609	74.75
389.818	35.84
390.028	-17.41
390.238	111.61
390.447	-1.02
390.657	44.03
390.867	15.36
391.076	33.79
391.286	58.37
391.496	68.61
391.705	74.75
391.915	125.95
392.125	84.99
392.334	80.89
392.544	48.13
392.753	76.8
392.963	82.94
393.172	123.9
393.382	87.04
393.591	130.05
393.801	44.03
394.01	168.96
394.22	89.09
394.429	166.91
394.639	66.56
394.848	95.23
395.058	54.27
395.267	142.33
395.477	111.61
395.686	50.18
395.895	48.13
396.105	130.05
396.314	93.18
396.524	105.47
396.733	111.61
396.942	107.52
397.152	113.66
397.361	185.34
397.57	80.89
397.78	136.19
397.989	171.01
398.198	101.37
398.407	97.28
398.617	87.04
398.826	107.52
399.035	105.47
399.244	134.14
399.453	144.38
399.663	89.09
399.872	177.15
400.081	148.48
400.29	128
400.499	111.61
400.708	138.24
400.917	154.62
401.127	76.8
401.336	84.99
401.545	134.14
401.754	130.05
401.963	80.89
402.172	150.53
402.381	66.56
402.59	136.19
402.799	134.14
403.008	193.53
403.217	74.75
403.426	175.1
403.635	87.04
403.844	160.77
404.053	134.14
404.262	132.09
404.471	140.29
404.68	197.63
404.888	211.96
405.097	166.91
405.306	195.58
405.515	130.05
405.724	142.33
405.933	156.67
406.142	246.78
406.35	226.3
406.559	154.62
406.768	214.01
406.977	254.97
407.185	228.35
407.394	205.82
407.603	238.59
407.812	238.59
408.02	283.64
408.229	226.3
408.438	207.87
408.646	209.92
408.855	228.35
409.064	345.08
409.272	257.02
409.481	252.92
409.69	293.88
409.898	320.51
410.107	306.17
410.315	369.66
410.524	343.03
410.733	338.94
410.941	367.61
411.15	330.75
411.358	424.95
411.567	470.01
411.775	476.15
411.984	439.29
412.192	494.58
412.401	500.73
412.609	449.53
412.818	560.12
413.026	517.11
413.234	513.02
413.443	500.73
413.651	525.3
413.86	564.22
414.068	633.85
414.276	588.79
414.485	646.13
414.693	707.57
414.901	732.15
415.11	730.1
415.318	709.62
415.526	846.84
415.734	826.36
415.943	824.31
416.151	879.6
416.359	928.75
416.567	859.12
416.776	979.95
416.984	1010.67
417.192	928.75
417.4	1074.16
417.608	1139.69
417.817	1180.65
418.025	1127.41
418.233	1321.96
418.441	1188.85
418.649	1324.01
418.857	1414.12
419.065	1377.26
419.273	1405.93
419.481	1403.88
419.689	1485.8
419.897	1649.64
420.105	1684.45
420.313	1680.36
420.521	1672.17
420.729	1729.51
420.937	1813.48
421.145	1903.59
421.353	2003.94
421.561	2108.38
421.769	2079.71
421.977	2206.69
422.185	2247.65
422.393	2335.71
422.601	2413.53
422.809	2372.57
423.017	2376.67
423.224	2591.7
423.432	2726.87
423.64	2632.66
423.848	2948.05
424.056	2941.91
424.263	3005.39
424.471	2972.63
424.679	3025.87
424.887	3265.49
425.094	3406.8
425.302	3484.62
425.51	3486.67
425.718	3630.02
425.925	3697.61
426.133	3818.44
426.341	4086.72
426.548	4238.27
426.756	4238.27
426.964	4277.18
427.171	4406.2
427.379	4611
427.586	4721.59
427.794	4823.99
428.001	5030.84
428.209	5309.36
428.417	5268.4
428.624	5553.07
428.832	5647.27
429.039	5516.2
429.247	5526.44
429.454	6032.29
429.662	6366.11
429.869	6036.39
430.076	6499.23
430.284	6230.94
430.491	6650.78
430.699	6857.62
430.906	6857.62
431.114	6921.11
431.321	7373.71
431.528	7398.29
431.736	7685
431.943	8387.46
432.15	7977.86
432.358	7906.18
432.565	8465.28
432.772	8319.87
432.979	9022.33
433.187	9036.66
433.394	9130.87
433.601	9655.15
433.808	9612.14
434.016	9565.04
434.223	10011.5
434.43	10568.54
434.637	10660.7
434.844	11109.21
435.052	11438.93
435.259	11418.45
435.466	11469.65
435.673	11129.69
435.88	12077.9
436.087	12450.63
436.294	12540.74
436.501	12143.43
436.708	12284.74
436.915	12895.04
437.122	13454.13
437.329	13763.37
437.537	13853.48
437.743	14064.43
437.95	14043.95
438.157	14512.93
438.364	15096.6
438.571	14920.48
438.778	14973.72
438.985	16710.4
439.192	15989.52
439.399	16548.61
439.606	16210.7
439.813	17099.52
440.02	17957.61
440.227	17875.7
440.433	17537.78
440.64	18094.83
440.847	17930.99
441.054	18522.85
441.261	19749.59
441.467	19421.91
441.674	19888.85
441.881	20495.05
442.088	20587.21
442.294	20320.97
442.501	20669.12
442.708	21111.49
442.914	22387.37
443.121	22805.16
443.328	22387.37
443.534	24228.49
443.741	23403.16
443.948	22956.71
444.154	24715.91
444.361	24599.18
444.568	24797.83
444.774	24930.95
444.981	24992.39
445.187	25485.95
445.394	26442.35
445.6	26319.47
445.807	28922.44
446.013	27519.58
446.22	27931.22
446.426	29430.33
446.633	29600.32
446.839	30343.73
447.046	29286.98
447.252	30671.4
447.459	30706.22
447.665	30687.79
447.871	32098.84
448.078	33280.52
448.284	31666.72
448.491	32473.62
448.697	33876.48
448.903	34175.48
449.11	34120.18
449.316	33368.58
449.522	34296.31
449.728	35504.61
449.935	35277.29
450.141	35533.28
450.347	36241.88
450.553	35058.15
450.76	35549.67
450.966	36717.01
451.172	36200.92
451.378	36893.13
451.584	36532.69
451.791	37278.15
451.997	37257.67
452.203	37597.63
452.409	37388.74
452.615	36983.24
452.821	35891.68
453.027	35582.43
453.233	37534.15
453.44	35508.71
453.646	36028.89
453.852	36549.07
454.058	37061.07
454.264	35404.26
454.47	36411.86
454.676	35523.04
454.882	36643.28
455.088	33759.74
455.294	33894.91
455.5	34599.41
455.705	34857.45
455.911	33628.67
456.117	32858.63
456.323	32313.87
456.529	30659.12
456.735	31685.15
456.941	30825
457.147	30736.94
457.352	29577.79
457.558	28916.29
457.764	29016.65
457.97	28539.47
458.176	28164.69
458.381	27992.66
458.587	26684.01
458.793	26550.89
458.999	25371.26
459.204	26923.62
459.41	26180.21
459.616	24742.53
459.821	24658.57
460.027	24343.18
460.233	23759.51
460.438	22682.28
460.644	23356.06
460.85	22055.6
461.055	21639.86
461.261	21586.61
461.466	20091.6
461.672	19626.71
461.878	20736.71
462.083	19452.63
462.289	19311.32
462.494	19010.27
462.7	18090.73
462.905	17738.48
463.111	18221.8
463.316	18514.66
463.522	17953.52
463.727	17873.65
463.932	17910.51
464.138	17832.69
464.343	17738.48
464.549	17158.91
464.754	17767.15
464.959	17695.47
465.165	17361.66
465.37	16704.26
465.575	16417.54
465.781	17275.64
465.986	17220.35
466.191	16753.41
466.397	16280.33
466.602	15522.58
466.807	15969.04
467.012	15903.5
467.218	15903.5
467.423	15659.79
467.628	16198.41
