Data from USB4F104151__10__10-20-37-595.txt Node

Date: Wed Mar 12 10:20:37 EDT 2025
User: louis
Spectrometer: USB4F10415
Trigger mode: 4
Integration Time (sec): 3.000000E-2
Scans to average: 1
Electric dark correction enabled: true
Nonlinearity correction enabled: false
Boxcar width: 0
XAxis mode: Wavelengths
Number of Pixels in Spectrum: 3648
>>>>>Begin Spectral Data<<<<<
178.204	-145.75
178.424	-145.75
178.644	-145.75
178.864	-133.46
179.084	-59.73
179.304	24.23
179.524	3.75
179.744	-74.07
179.964	79.53
180.184	9.9
180.404	16.04
180.624	46.76
180.844	36.52
181.064	-92.5
181.283	-41.3
181.503	1.71
181.723	-10.58
181.943	-29.01
182.163	20.14
182.383	-18.77
182.602	95.91
182.822	38.57
183.042	46.76
183.262	-45.4
183.482	28.33
183.701	71.34
183.921	16.04
184.141	36.52
184.361	5.8
184.58	7.85
184.8	46.76
185.02	63.15
185.239	34.47
185.459	77.48
185.679	30.38
185.898	-14.68
186.118	67.24
186.338	20.14
186.557	32.43
186.777	44.71
186.997	-22.87
187.216	-4.44
187.436	40.62
187.655	13.99
187.875	40.62
188.095	22.19
188.314	93.87
188.534	83.63
188.753	-78.16
188.973	-20.82
189.192	46.76
189.412	3.75
189.631	11.95
189.851	3.75
190.07	9.9
190.29	-43.35
190.509	67.24
190.729	26.28
190.948	65.19
191.168	69.29
191.387	75.43
191.607	-12.63
191.826	-0.34
192.045	81.58
192.265	73.39
192.484	77.48
192.704	-35.16
192.923	-16.73
193.142	44.71
193.362	61.1
193.581	61.1
193.8	-18.77
194.02	42.67
194.239	18.09
194.458	85.67
194.678	28.33
194.897	11.95
195.116	5.8
195.335	-35.16
195.555	95.91
195.774	42.67
195.993	-14.68
196.212	16.04
196.432	52.91
196.651	77.48
196.87	9.9
197.089	104.11
197.308	-35.16
197.528	104.11
197.747	-31.06
197.966	3.75
198.185	73.39
198.404	-26.96
198.623	30.38
198.842	26.28
199.062	79.53
199.281	32.43
199.5	-2.39
199.719	52.91
199.938	59.05
200.157	93.87
200.376	-6.49
200.595	54.95
200.814	32.43
201.033	-4.44
201.252	22.19
201.471	-31.06
201.69	28.33
201.909	63.15
202.128	46.76
202.347	42.67
202.566	5.8
202.785	-4.44
203.004	79.53
203.223	22.19
203.442	16.04
203.661	-51.54
203.879	-6.49
204.098	46.76
204.317	-2.39
204.536	73.39
204.755	3.75
204.974	20.14
205.193	57
205.411	104.11
205.63	79.53
205.849	9.9
206.068	38.57
206.287	36.52
206.505	50.86
206.724	3.75
206.943	-8.53
207.162	-6.49
207.381	85.67
207.599	40.62
207.818	71.34
208.037	59.05
208.255	54.95
208.474	32.43
208.693	-6.49
208.911	93.87
209.13	89.77
209.349	77.48
209.567	-18.77
209.786	-8.53
210.005	46.76
210.223	54.95
210.442	26.28
210.661	36.52
210.879	61.1
211.098	54.95
211.316	-4.44
211.535	63.15
211.753	52.91
211.972	11.95
212.191	24.23
212.409	-6.49
212.628	36.52
212.846	30.38
213.065	13.99
213.283	30.38
213.502	-22.87
213.72	16.04
213.938	38.57
214.157	40.62
214.375	46.76
214.594	52.91
214.812	44.71
215.031	46.76
215.249	30.38
215.467	97.96
215.686	5.8
215.904	44.71
216.122	-14.68
216.341	104.11
216.559	5.8
216.778	42.67
216.996	22.19
217.214	-12.63
217.432	-41.3
217.651	-67.92
217.869	54.95
218.087	9.9
218.306	-4.44
218.524	69.29
218.742	73.39
218.96	5.8
219.179	52.91
219.397	5.8
219.615	130.73
219.833	77.48
220.051	38.57
220.27	71.34
220.488	-16.73
220.706	24.23
220.924	18.09
221.142	28.33
221.36	16.04
221.578	22.19
221.796	-14.68
222.015	3.75
222.233	13.99
222.451	89.77
222.669	-8.53
222.887	85.67
223.105	20.14
223.323	-10.58
223.541	-10.58
223.759	93.87
223.977	-0.34
224.195	5.8
224.413	-35.16
224.631	87.72
224.849	13.99
225.067	38.57
225.285	9.9
225.503	-14.68
225.721	13.99
225.939	-2.39
226.157	134.82
226.375	136.87
226.592	13.99
226.81	42.67
227.028	54.95
227.246	81.58
227.464	24.23
227.682	118.44
227.9	75.43
228.117	-6.49
228.335	61.1
228.553	22.19
228.771	18.09
228.989	71.34
229.206	61.1
229.424	-33.11
229.642	-22.87
229.86	9.9
230.077	13.99
230.295	3.75
230.513	67.24
230.731	50.86
230.948	30.38
231.166	-4.44
231.384	20.14
231.601	28.33
231.819	42.67
232.037	-12.63
232.254	63.15
232.472	-43.35
232.689	-55.64
232.907	48.81
233.125	52.91
233.342	5.8
233.56	20.14
233.777	1.71
233.995	36.52
234.213	75.43
234.43	40.62
234.648	30.38
234.865	61.1
235.083	54.95
235.3	28.33
235.518	147.11
235.735	46.76
235.953	52.91
236.17	79.53
236.388	36.52
236.605	38.57
236.822	44.71
237.04	91.82
237.257	11.95
237.475	9.9
237.692	102.06
237.909	57
238.127	18.09
238.344	89.77
238.562	-31.06
238.779	30.38
238.996	-18.77
239.214	-57.68
239.431	87.72
239.648	-10.58
239.865	5.8
240.083	40.62
240.3	67.24
240.517	44.71
240.735	-14.68
240.952	38.57
241.169	30.38
241.386	63.15
241.603	1.71
241.821	1.71
242.038	42.67
242.255	83.63
242.472	1.71
242.689	73.39
242.907	7.85
243.124	9.9
243.341	79.53
243.558	-22.87
243.775	22.19
243.992	5.8
244.209	122.54
244.426	91.82
244.643	75.43
244.86	-10.58
245.078	85.67
245.295	40.62
245.512	-47.44
245.729	44.71
245.946	61.1
246.163	-4.44
246.38	67.24
246.597	-4.44
246.814	48.81
247.031	36.52
247.248	73.39
247.464	-2.39
247.681	24.23
247.898	75.43
248.115	36.52
248.332	-18.77
248.549	69.29
248.766	83.63
248.983	59.05
249.2	26.28
249.417	77.48
249.633	26.28
249.85	-18.77
250.067	3.75
250.284	40.62
250.501	20.14
250.717	28.33
250.934	-39.25
251.151	22.19
251.368	-39.25
251.585	13.99
251.801	38.57
252.018	-4.44
252.235	32.43
252.451	-12.63
252.668	-2.39
252.885	-10.58
253.102	34.47
253.318	46.76
253.535	13.99
253.752	-4.44
253.968	36.52
254.185	-12.63
254.401	26.28
254.618	38.57
254.835	1.71
255.051	32.43
255.268	132.78
255.484	1.71
255.701	18.09
255.917	50.86
256.134	-16.73
256.351	30.38
256.567	38.57
256.784	38.57
257	-41.3
257.217	120.49
257.433	1.71
257.65	126.63
257.866	28.33
258.082	20.14
258.299	52.91
258.515	63.15
258.732	28.33
258.948	79.53
259.165	24.23
259.381	20.14
259.597	-18.77
259.814	83.63
260.03	24.23
260.246	30.38
260.463	63.15
260.679	65.19
260.895	28.33
261.112	22.19
261.328	-33.11
261.544	16.04
261.761	16.04
261.977	-10.58
262.193	22.19
262.409	54.95
262.626	93.87
262.842	44.71
263.058	1.71
263.274	9.9
263.49	13.99
263.707	20.14
263.923	38.57
264.139	-35.16
264.355	13.99
264.571	73.39
264.787	-43.35
265.004	38.57
265.22	-4.44
265.436	-29.01
265.652	3.75
265.868	11.95
266.084	57
266.3	20.14
266.516	24.23
266.732	-8.53
266.948	18.09
267.164	-35.16
267.38	59.05
267.596	42.67
267.812	87.72
268.028	40.62
268.244	24.23
268.46	50.86
268.676	28.33
268.892	48.81
269.108	11.95
269.324	-14.68
269.54	7.85
269.756	91.82
269.972	32.43
270.188	9.9
270.403	-43.35
270.619	38.57
270.835	22.19
271.051	1.71
271.267	13.99
271.483	-12.63
271.698	54.95
271.914	26.28
272.13	9.9
272.346	-35.16
272.562	52.91
272.777	-2.39
272.993	20.14
273.209	11.95
273.425	63.15
273.64	-72.02
273.856	40.62
274.072	9.9
274.287	-22.87
274.503	1.71
274.719	110.25
274.934	95.91
275.15	20.14
275.366	5.8
275.581	-24.92
275.797	7.85
276.012	3.75
276.228	81.58
276.444	46.76
276.659	95.91
276.875	-63.83
277.09	44.71
277.306	-4.44
277.521	42.67
277.737	34.47
277.952	11.95
278.168	100.01
278.383	32.43
278.599	48.81
278.814	24.23
279.03	52.91
279.245	52.91
279.461	-67.92
279.676	-18.77
279.892	9.9
280.107	-10.58
280.322	54.95
280.538	3.75
280.753	44.71
280.969	50.86
281.184	32.43
281.399	54.95
281.615	20.14
281.83	67.24
282.045	-41.3
282.26	-4.44
282.476	114.34
282.691	71.34
282.906	-26.96
283.122	28.33
283.337	87.72
283.552	104.11
283.767	-16.73
283.983	1.71
284.198	38.57
284.413	73.39
284.628	1.71
284.843	52.91
285.058	95.91
285.274	-2.39
285.489	65.19
285.704	57
285.919	71.34
286.134	38.57
286.349	-6.49
286.564	-18.77
286.779	128.68
286.995	-41.3
287.21	93.87
287.425	63.15
287.64	38.57
287.855	54.95
288.07	22.19
288.285	-24.92
288.5	30.38
288.715	3.75
288.93	-4.44
289.145	11.95
289.36	95.91
289.575	-4.44
289.79	32.43
290.004	32.43
290.219	77.48
290.434	-10.58
290.649	-12.63
290.864	57
291.079	20.14
291.294	26.28
291.509	69.29
291.724	28.33
291.938	73.39
292.153	44.71
292.368	54.95
292.583	22.19
292.798	63.15
293.012	153.26
293.227	-26.96
293.442	54.95
293.657	30.38
293.871	108.2
294.086	13.99
294.301	61.1
294.516	30.38
294.73	22.19
294.945	7.85
295.16	50.86
295.374	100.01
295.589	54.95
295.804	-4.44
296.018	36.52
296.233	63.15
296.447	61.1
296.662	20.14
296.877	63.15
297.091	95.91
297.306	9.9
297.52	-2.39
297.735	3.75
297.949	-18.77
298.164	-2.39
298.378	-47.44
298.593	54.95
298.807	-20.82
299.022	57
299.236	59.05
299.451	126.63
299.665	22.19
299.88	28.33
300.094	16.04
300.309	-22.87
300.523	40.62
300.737	-0.34
300.952	-55.64
301.166	73.39
301.381	77.48
301.595	9.9
301.809	24.23
302.024	48.81
302.238	13.99
302.452	81.58
302.667	11.95
302.881	11.95
303.095	-2.39
303.309	85.67
303.524	28.33
303.738	-12.63
303.952	26.28
304.166	57
304.381	42.67
304.595	63.15
304.809	52.91
305.023	79.53
305.237	32.43
305.452	13.99
305.666	87.72
305.88	57
306.094	-6.49
306.308	69.29
306.522	73.39
306.736	34.47
306.95	61.1
307.164	-31.06
307.379	71.34
307.593	91.82
307.807	81.58
308.021	34.47
308.235	75.43
308.449	24.23
308.663	79.53
308.877	132.78
309.091	28.33
309.305	57
309.519	46.76
309.733	-6.49
309.947	-14.68
310.161	7.85
310.374	95.91
310.588	54.95
310.802	5.8
311.016	79.53
311.23	22.19
311.444	42.67
311.658	-2.39
311.872	79.53
312.085	50.86
312.299	57
312.513	11.95
312.727	48.81
312.941	-2.39
313.154	69.29
313.368	9.9
313.582	36.52
313.796	28.33
314.009	69.29
314.223	42.67
314.437	-24.92
314.651	26.28
314.864	-10.58
315.078	22.19
315.292	3.75
315.505	16.04
315.719	11.95
315.933	46.76
316.146	116.39
316.36	38.57
316.573	67.24
316.787	61.1
317.001	71.34
317.214	1.71
317.428	59.05
317.641	24.23
317.855	110.25
318.068	44.71
318.282	54.95
318.495	71.34
318.709	65.19
318.922	-10.58
319.136	48.81
319.349	-22.87
319.563	-2.39
319.776	57
319.99	20.14
320.203	79.53
320.417	134.82
320.63	79.53
320.843	26.28
321.057	79.53
321.27	59.05
321.483	61.1
321.697	126.63
321.91	5.8
322.124	79.53
322.337	97.96
322.55	71.34
322.763	26.28
322.977	116.39
323.19	-26.96
323.403	22.19
323.617	75.43
323.83	40.62
324.043	34.47
324.256	22.19
324.469	30.38
324.683	59.05
324.896	13.99
325.109	65.19
325.322	-10.58
325.535	28.33
325.748	63.15
325.962	54.95
326.175	22.19
326.388	13.99
326.601	75.43
326.814	63.15
327.027	59.05
327.24	97.96
327.453	-12.63
327.666	147.11
327.879	79.53
328.092	54.95
328.305	73.39
328.518	57
328.731	85.67
328.944	26.28
329.157	-20.82
329.37	46.76
329.583	110.25
329.796	-6.49
330.009	34.47
330.222	63.15
330.435	95.91
330.648	95.91
330.861	65.19
331.073	44.71
331.286	100.01
331.499	57
331.712	54.95
331.925	67.24
332.138	52.91
332.35	87.72
332.563	-37.2
332.776	63.15
332.989	52.91
333.202	30.38
333.414	-4.44
333.627	38.57
333.84	77.48
334.053	44.71
334.265	34.47
334.478	52.91
334.691	13.99
334.903	65.19
335.116	11.95
335.329	11.95
335.541	28.33
335.754	71.34
335.966	9.9
336.179	18.09
336.392	-4.44
336.604	-47.44
336.817	22.19
337.029	97.96
337.242	-18.77
337.454	128.68
337.667	65.19
337.88	18.09
338.092	42.67
338.305	30.38
338.517	-16.73
338.729	57
338.942	77.48
339.154	3.75
339.367	1.71
339.579	-33.11
339.792	-39.25
340.004	32.43
340.217	1.71
340.429	-18.77
340.641	95.91
340.854	-14.68
341.066	46.76
341.278	126.63
341.491	87.72
341.703	40.62
341.915	9.9
342.128	59.05
342.34	48.81
342.552	42.67
342.764	110.25
342.977	-10.58
343.189	38.57
343.401	38.57
343.613	52.91
343.826	32.43
344.038	28.33
344.25	30.38
344.462	36.52
344.674	13.99
344.886	34.47
345.099	48.81
345.311	38.57
345.523	161.45
345.735	38.57
345.947	69.29
346.159	93.87
346.371	-26.96
346.583	-47.44
346.795	87.72
347.007	-35.16
347.219	79.53
347.431	95.91
347.643	95.91
347.855	77.48
348.067	13.99
348.279	11.95
348.491	54.95
348.703	38.57
348.915	85.67
349.127	36.52
349.339	16.04
349.551	67.24
349.763	157.35
349.975	26.28
350.187	65.19
350.399	-10.58
350.61	102.06
350.822	91.82
351.034	95.91
351.246	81.58
351.458	-0.34
351.669	91.82
351.881	102.06
352.093	65.19
352.305	71.34
352.517	-12.63
352.728	75.43
352.94	79.53
353.152	16.04
353.363	22.19
353.575	54.95
353.787	28.33
353.999	1.71
354.21	112.3
354.422	38.57
354.633	-4.44
354.845	79.53
355.057	30.38
355.268	46.76
355.48	63.15
355.692	13.99
355.903	32.43
356.115	-2.39
356.326	38.57
356.538	81.58
356.749	28.33
356.961	54.95
357.172	18.09
357.384	54.95
357.595	71.34
357.807	54.95
358.018	59.05
358.23	118.44
358.441	112.3
358.653	52.91
358.864	65.19
359.075	79.53
359.287	54.95
359.498	48.81
359.709	59.05
359.921	97.96
360.132	52.91
360.344	57
360.555	46.76
360.766	67.24
360.977	-26.96
361.189	112.3
361.4	54.95
361.611	106.15
361.823	50.86
362.034	42.67
362.245	-20.82
362.456	112.3
362.667	69.29
362.879	18.09
363.09	46.76
363.301	91.82
363.512	3.75
363.723	-63.83
363.935	38.57
364.146	91.82
364.357	46.76
364.568	-10.58
364.779	46.76
364.99	95.91
365.201	1.71
365.412	22.19
365.623	50.86
365.834	71.34
366.045	48.81
366.256	104.11
366.467	-10.58
366.678	34.47
366.889	67.24
367.1	52.91
367.311	24.23
367.522	-6.49
367.733	69.29
367.944	69.29
368.155	83.63
368.366	67.24
368.577	-4.44
368.788	118.44
368.999	28.33
369.209	85.67
369.42	106.15
369.631	161.45
369.842	5.8
370.053	38.57
370.264	83.63
370.474	100.01
370.685	46.76
370.896	52.91
371.107	22.19
371.317	95.91
371.528	63.15
371.739	93.87
371.95	149.16
372.16	77.48
372.371	-4.44
372.582	95.91
372.792	91.82
373.003	65.19
373.214	71.34
373.424	5.8
373.635	63.15
373.846	108.2
374.056	36.52
374.267	-2.39
374.477	71.34
374.688	5.8
374.898	-22.87
375.109	81.58
375.319	44.71
375.53	61.1
375.74	9.9
375.951	71.34
376.161	30.38
376.372	93.87
376.582	91.82
376.793	32.43
377.003	-45.4
377.214	106.15
377.424	108.2
377.635	18.09
377.845	75.43
378.055	147.11
378.266	1.71
378.476	161.45
378.686	-26.96
378.897	34.47
379.107	-14.68
379.317	24.23
379.528	16.04
379.738	114.34
379.948	83.63
380.158	50.86
380.369	75.43
380.579	89.77
380.789	69.29
380.999	67.24
381.21	77.48
381.42	89.77
381.63	79.53
381.84	77.48
382.05	57
382.261	59.05
382.471	93.87
382.681	52.91
382.891	79.53
383.101	28.33
383.311	50.86
383.521	46.76
383.731	57
383.941	59.05
384.151	77.48
384.361	22.19
384.571	50.86
384.781	112.3
384.991	95.91
385.201	118.44
385.411	54.95
385.621	93.87
385.831	87.72
386.041	63.15
386.251	71.34
386.461	118.44
386.671	-2.39
386.881	67.24
387.091	54.95
387.301	147.11
387.511	120.49
387.72	136.87
387.93	50.86
388.14	130.73
388.35	32.43
388.56	46.76
388.769	81.58
388.979	59.05
389.189	77.48
389.399	132.78
389.609	95.91
389.818	28.33
390.028	13.99
390.238	134.82
390.447	100.01
390.657	67.24
390.867	20.14
391.076	26.28
391.286	122.54
391.496	63.15
391.705	124.58
391.915	89.77
392.125	69.29
392.334	132.78
392.544	89.77
392.753	122.54
392.963	71.34
393.172	143.02
393.382	54.95
393.591	118.44
393.801	87.72
394.01	212.65
394.22	75.43
394.429	134.82
394.639	93.87
394.848	173.74
395.058	24.23
395.267	50.86
395.477	140.97
395.686	85.67
395.895	202.41
396.105	200.36
396.314	110.25
396.524	106.15
396.733	34.47
396.942	100.01
397.152	54.95
397.361	128.68
397.57	13.99
397.78	128.68
397.989	120.49
398.198	210.6
398.407	95.91
398.617	61.1
398.826	159.4
399.035	149.16
399.244	173.74
399.453	153.26
399.663	108.2
399.872	153.26
400.081	130.73
400.29	165.54
400.499	136.87
400.708	120.49
400.917	145.06
401.127	149.16
401.336	120.49
401.545	208.55
401.754	188.07
401.963	220.84
402.172	75.43
402.381	165.54
402.59	112.3
402.799	63.15
403.008	183.98
403.217	151.21
403.426	104.11
403.635	167.59
403.844	147.11
404.053	149.16
404.262	188.07
404.471	186.02
404.68	128.68
404.888	128.68
405.097	161.45
405.306	167.59
405.515	169.64
405.724	157.35
405.933	259.75
406.142	235.18
406.35	269.99
406.559	181.93
406.768	233.13
406.977	243.37
407.185	188.07
407.394	251.56
407.603	218.79
407.812	245.41
408.02	202.41
408.229	274.09
408.438	251.56
408.646	245.41
408.855	241.32
409.064	306.85
409.272	218.79
409.481	335.53
409.69	339.62
409.898	259.75
410.107	274.09
410.315	472.74
410.524	323.24
410.733	403.11
410.941	399.01
411.15	382.63
411.358	439.97
411.567	378.53
411.775	396.96
411.984	489.12
412.192	444.07
412.401	456.36
412.609	554.66
412.818	575.14
413.026	476.84
413.234	554.66
413.443	517.79
413.651	618.15
413.86	630.43
414.068	689.82
414.276	736.93
414.485	642.72
414.693	730.78
414.901	765.6
415.11	781.98
415.318	779.93
415.526	765.6
415.734	886.43
415.943	792.22
416.151	906.91
416.359	878.24
416.567	939.68
416.776	1099.42
416.984	1074.84
417.192	1119.9
417.4	1144.47
417.608	1070.75
417.817	1179.29
418.025	1201.82
418.233	1257.11
418.441	1218.2
418.649	1269.4
418.857	1418.9
419.065	1451.67
419.273	1390.23
419.481	1470.1
419.689	1568.4
419.897	1730.19
420.105	1681.04
420.313	1750.67
420.521	1646.23
420.729	1801.87
420.937	1855.12
421.145	1945.23
421.353	2041.48
421.561	2049.68
421.769	2227.85
421.977	2201.23
422.185	2313.86
422.393	2389.64
422.601	2477.7
422.809	2545.28
423.017	2455.17
423.224	2557.57
423.432	2725.51
423.64	2719.36
423.848	2987.65
424.056	2823.81
424.263	3221.11
424.471	3090.04
424.679	3167.87
424.887	3329.66
425.094	3450.49
425.302	3507.83
425.51	3616.37
425.718	3671.67
425.925	3745.39
426.133	3993.2
426.341	4101.74
426.548	4279.91
426.756	4300.39
426.964	4476.52
427.171	4576.87
427.379	4683.36
427.586	4718.18
427.794	4984.41
428.001	5025.37
428.209	5408.34
428.417	5287.51
428.624	5629.52
428.832	5729.88
429.039	5525.08
429.247	5684.82
429.454	6123.09
429.662	6559.3
429.869	6108.75
430.076	6585.93
430.284	6336.07
430.491	6641.22
430.699	7024.19
430.906	7075.39
431.114	7130.69
431.321	7493.18
431.528	7489.08
431.736	7870
431.943	8357.42
432.15	8027.7
432.358	8132.14
432.565	8525.35
432.772	8594.98
432.979	9111.07
433.187	9174.56
433.394	9227.81
433.601	9813.52
433.808	9883.16
434.016	9840.15
434.223	10321.42
434.43	10761.73
434.637	10595.85
434.844	11097.6
435.052	11718.14
435.259	11445.76
435.466	11365.89
435.673	11449.85
435.88	12281.33
436.087	12778.98
436.294	12938.73
436.501	12619.24
436.708	12928.49
436.915	13227.49
437.122	13782.49
437.329	13792.73
437.537	14134.74
437.743	14443.98
437.95	14331.34
438.157	15130.05
438.364	15642.04
438.571	15406.53
438.778	15789.5
438.985	17055.14
439.192	16367.02
439.399	16825.77
439.606	16502.19
439.813	17644.96
440.02	18591.12
440.227	18161.05
440.433	17886.62
440.64	18462.1
440.847	18226.58
441.054	18740.62
441.261	20352.37
441.467	19899.77
441.674	20317.56
441.881	21153.13
442.088	20958.57
442.294	21067.11
442.501	21370.21
442.708	21671.26
442.914	22680.91
443.121	23399.75
443.328	22957.39
443.534	24411.45
443.741	23569.73
443.948	23545.16
444.154	25380.14
444.361	25214.25
444.568	25361.7
444.774	25402.66
444.981	25400.62
445.187	26352.92
445.394	27243.79
445.6	26715.41
445.807	29656.29
446.013	28024.06
446.22	28552.44
446.426	29715.69
446.633	29918.43
446.839	31358.16
447.046	30033.12
447.252	31143.12
447.459	31925.44
447.665	31112.4
447.871	32785.59
448.078	33709.22
448.284	32283.84
448.491	33182.9
448.697	34628.76
448.903	35179.67
449.11	35007.64
449.316	34301.09
449.522	35073.17
449.728	36011.14
449.935	36187.27
450.141	35980.42
450.347	37000.31
450.553	35538.06
450.76	36390.02
450.966	37037.17
451.172	36981.88
451.378	37952.62
451.584	37194.87
451.791	37700.72
451.997	37706.86
452.203	38444.13
452.409	38261.86
452.615	38177.89
452.821	36637.82
453.027	36060.29
453.233	38106.21
453.44	36310.14
453.646	36736.12
453.852	36940.92
454.058	37428.34
454.264	36119.68
454.47	37018.74
454.676	36320.38
454.882	37278.83
455.088	33836.2
455.294	34610.33
455.5	34995.35
455.705	35208.34
455.911	33842.34
456.117	33496.24
456.323	32795.83
456.529	31059.15
456.735	31831.24
456.941	31640.78
457.147	30864.6
457.352	29953.25
457.558	29676.77
457.764	29670.63
457.97	29070.58
458.176	28450.04
458.381	28368.12
458.587	26991.89
458.793	27106.57
458.999	25591.08
459.204	27483.4
459.41	26588.44
459.616	24974.64
459.821	25040.17
460.027	24759.6
460.233	24134.97
460.438	22912.33
460.644	23391.56
460.85	22678.86
461.055	21984.6
461.261	22015.32
461.466	20534.64
461.672	19973.5
461.878	21196.14
462.083	19551.62
462.289	19352.96
462.494	19105.16
462.7	18380.18
462.905	17884.57
463.111	18326.93
463.316	18761.1
463.522	17794.46
463.727	18314.64
463.932	18130.33
464.138	17884.57
464.343	18019.74
464.549	17515.94
464.754	18187.67
464.959	18058.65
465.165	18052.5
465.37	17249.7
465.575	16563.63
465.781	17268.13
465.986	17401.25
466.191	16758.19
466.397	16604.59
466.602	15805.88
466.807	16088.5
467.012	16418.22
467.218	16324.02
467.423	16022.97
467.628	16041.4
