Data from USB4F104151__129__10-25-22-803.txt Node

Date: Wed Mar 12 10:25:22 EDT 2025
User: louis
Spectrometer: USB4F10415
Trigger mode: 4
Integration Time (sec): 3.000000E-2
Scans to average: 1
Electric dark correction enabled: true
Nonlinearity correction enabled: false
Boxcar width: 0
XAxis mode: Wavelengths
Number of Pixels in Spectrum: 3648
>>>>>Begin Spectral Data<<<<<
178.204	-32.26
178.424	-32.26
178.644	-32.26
178.864	-71.17
179.084	-89.6
179.304	31.23
179.524	-1.54
179.744	-19.97
179.964	-71.17
180.184	64
180.404	10.75
180.624	-5.63
180.844	-5.63
181.064	45.57
181.283	0.51
181.503	-34.3
181.723	-13.82
181.943	-40.45
182.163	96.77
182.383	31.23
182.602	18.94
182.822	35.33
183.042	41.47
183.262	49.66
183.482	35.33
183.701	66.05
183.921	80.38
184.141	-1.54
184.361	123.39
184.58	70.14
184.8	53.76
185.02	70.14
185.239	35.33
185.459	29.18
185.679	18.94
185.898	14.85
186.118	-5.63
186.338	78.33
186.557	98.81
186.777	35.33
186.997	-62.98
187.216	10.75
187.436	39.42
187.655	10.75
187.875	64
188.095	-48.64
188.314	51.71
188.534	57.86
188.753	53.76
188.973	68.09
189.192	29.18
189.412	23.04
189.631	0.51
189.851	84.48
190.07	102.91
190.29	10.75
190.509	57.86
190.729	31.23
190.948	23.04
191.168	115.2
191.387	14.85
191.607	4.61
191.826	92.67
192.045	23.04
192.265	-3.58
192.484	20.99
192.704	43.52
192.923	53.76
193.142	51.71
193.362	70.14
193.581	-17.92
193.8	117.25
194.02	31.23
194.239	6.66
194.458	61.95
194.678	55.81
194.897	92.67
195.116	6.66
195.335	51.71
195.555	100.86
195.774	59.9
195.993	53.76
196.212	68.09
196.432	43.52
196.651	68.09
196.87	10.75
197.089	68.09
197.308	16.9
197.528	45.57
197.747	51.71
197.966	64
198.185	100.86
198.404	20.99
198.623	27.14
198.842	125.44
199.062	2.56
199.281	66.05
199.5	49.66
199.719	55.81
199.938	98.81
200.157	119.29
200.376	16.9
200.595	104.96
200.814	-34.3
201.033	55.81
201.252	78.33
201.471	-38.4
201.69	64
201.909	20.99
202.128	90.62
202.347	27.14
202.566	72.19
202.785	-46.59
203.004	80.38
203.223	37.38
203.442	64
203.661	76.29
203.879	14.85
204.098	66.05
204.317	78.33
204.536	53.76
204.755	18.94
204.974	51.71
205.193	-19.97
205.411	109.05
205.63	68.09
205.849	59.9
206.068	31.23
206.287	6.66
206.505	37.38
206.724	102.91
206.943	2.56
207.162	47.62
207.381	31.23
207.599	0.51
207.818	35.33
208.037	76.29
208.255	92.67
208.474	0.51
208.693	82.43
208.911	14.85
209.13	84.48
209.349	61.95
209.567	27.14
209.786	-9.73
210.005	16.9
210.223	68.09
210.442	4.61
210.661	64
210.879	102.91
211.098	84.48
211.316	18.94
211.535	88.57
211.753	68.09
211.972	84.48
212.191	55.81
212.409	29.18
212.628	33.28
212.846	-11.78
213.065	39.42
213.283	141.82
213.502	35.33
213.72	92.67
213.938	59.9
214.157	80.38
214.375	37.38
214.594	98.81
214.812	18.94
215.031	51.71
215.249	64
215.467	115.2
215.686	-17.92
215.904	137.73
216.122	47.62
216.341	39.42
216.559	49.66
216.778	158.21
216.996	107.01
217.214	-17.92
217.432	25.09
217.651	10.75
217.869	31.23
218.087	25.09
218.306	68.09
218.524	113.15
218.742	-15.87
218.96	109.05
219.179	49.66
219.397	82.43
219.615	49.66
219.833	-73.21
220.051	74.24
220.27	39.42
220.488	59.9
220.706	55.81
220.924	55.81
221.142	59.9
221.36	35.33
221.578	88.57
221.796	115.2
222.015	92.67
222.233	66.05
222.451	76.29
222.669	35.33
222.887	113.15
223.105	43.52
223.323	55.81
223.541	27.14
223.759	100.86
223.977	-38.4
224.195	23.04
224.413	39.42
224.631	-42.5
224.849	55.81
225.067	172.54
225.285	92.67
225.503	29.18
225.721	59.9
225.939	59.9
226.157	41.47
226.375	154.11
226.592	-17.92
226.81	92.67
227.028	104.96
227.246	127.49
227.464	100.86
227.682	-17.92
227.9	86.53
228.117	76.29
228.335	90.62
228.553	0.51
228.771	33.28
228.989	80.38
229.206	80.38
229.424	53.76
229.642	-24.06
229.86	80.38
230.077	-5.63
230.295	31.23
230.513	82.43
230.731	-13.82
230.948	18.94
231.166	92.67
231.384	57.86
231.601	18.94
231.819	98.81
232.037	33.28
232.254	47.62
232.472	31.23
232.689	10.75
232.907	37.38
233.125	31.23
233.342	6.66
233.56	18.94
233.777	82.43
233.995	45.57
234.213	-32.26
234.43	39.42
234.648	-9.73
234.865	53.76
235.083	20.99
235.3	117.25
235.518	129.53
235.735	59.9
235.953	31.23
236.17	-24.06
236.388	-17.92
236.605	-38.4
236.822	82.43
237.04	123.39
237.257	88.57
237.475	51.71
237.692	111.1
237.909	64
238.127	51.71
238.344	82.43
238.562	10.75
238.779	37.38
238.996	4.61
239.214	59.9
239.431	57.86
239.648	53.76
239.865	76.29
240.083	18.94
240.3	8.7
240.517	57.86
240.735	-1.54
240.952	88.57
241.169	100.86
241.386	41.47
241.603	35.33
241.821	-40.45
242.038	33.28
242.255	47.62
242.472	-30.21
242.689	57.86
242.907	18.94
243.124	35.33
243.341	-15.87
243.558	18.94
243.775	84.48
243.992	-28.16
244.209	96.77
244.426	119.29
244.643	90.62
244.86	-13.82
245.078	31.23
245.295	-13.82
245.512	127.49
245.729	39.42
245.946	141.82
246.163	18.94
246.38	96.77
246.597	2.56
246.814	27.14
247.031	76.29
247.248	86.53
247.464	84.48
247.681	104.96
247.898	90.62
248.115	55.81
248.332	18.94
248.549	115.2
248.766	27.14
248.983	90.62
249.2	66.05
249.417	2.56
249.633	94.72
249.85	117.25
250.067	100.86
250.284	35.33
250.501	68.09
250.717	166.4
250.934	27.14
251.151	47.62
251.368	18.94
251.585	68.09
251.801	64
252.018	27.14
252.235	92.67
252.451	4.61
252.668	-5.63
252.885	33.28
253.102	43.52
253.318	66.05
253.535	20.99
253.752	86.53
253.968	47.62
254.185	92.67
254.401	39.42
254.618	80.38
254.835	14.85
255.051	152.06
255.268	31.23
255.484	84.48
255.701	64
255.917	72.19
256.134	72.19
256.351	96.77
256.567	-11.78
256.784	41.47
257	45.57
257.217	61.95
257.433	76.29
257.65	6.66
257.866	-40.45
258.082	23.04
258.299	25.09
258.515	160.25
258.732	4.61
258.948	92.67
259.165	33.28
259.381	6.66
259.597	20.99
259.814	76.29
260.03	90.62
260.246	84.48
260.463	84.48
260.679	53.76
260.895	109.05
261.112	49.66
261.328	59.9
261.544	43.52
261.761	98.81
261.977	49.66
262.193	12.8
262.409	88.57
262.626	107.01
262.842	47.62
263.058	27.14
263.274	102.91
263.49	43.52
263.707	72.19
263.923	39.42
264.139	64
264.355	74.24
264.571	92.67
264.787	47.62
265.004	94.72
265.22	6.66
265.436	72.19
265.652	-17.92
265.868	88.57
266.084	4.61
266.3	88.57
266.516	23.04
266.732	14.85
266.948	-13.82
267.164	88.57
267.38	51.71
267.596	92.67
267.812	76.29
268.028	66.05
268.244	12.8
268.46	100.86
268.676	6.66
268.892	100.86
269.108	-36.35
269.324	-24.06
269.54	-15.87
269.756	53.76
269.972	-17.92
270.188	10.75
270.403	131.58
270.619	47.62
270.835	47.62
271.051	10.75
271.267	-11.78
271.483	72.19
271.698	98.81
271.914	84.48
272.13	123.39
272.346	39.42
272.562	-7.68
272.777	84.48
272.993	35.33
273.209	12.8
273.425	100.86
273.64	68.09
273.856	43.52
274.072	27.14
274.287	76.29
274.503	25.09
274.719	68.09
274.934	104.96
275.15	20.99
275.366	-5.63
275.581	80.38
275.797	-34.3
276.012	92.67
276.228	76.29
276.444	82.43
276.659	84.48
276.875	-7.68
277.09	33.28
277.306	66.05
277.521	109.05
277.737	59.9
277.952	88.57
278.168	-9.73
278.383	14.85
278.599	33.28
278.814	82.43
279.03	88.57
279.245	90.62
279.461	49.66
279.676	43.52
279.892	72.19
280.107	23.04
280.322	0.51
280.538	129.53
280.753	-7.68
280.969	51.71
281.184	16.9
281.399	100.86
281.615	61.95
281.83	45.57
282.045	-28.16
282.26	6.66
282.476	68.09
282.691	41.47
282.906	84.48
283.122	61.95
283.337	47.62
283.552	39.42
283.767	18.94
283.983	57.86
284.198	33.28
284.413	64
284.628	35.33
284.843	41.47
285.058	102.91
285.274	29.18
285.489	29.18
285.704	51.71
285.919	27.14
286.134	12.8
286.349	18.94
286.564	16.9
286.779	84.48
286.995	70.14
287.21	-7.68
287.425	90.62
287.64	35.33
287.855	74.24
288.07	-19.97
288.285	47.62
288.5	-15.87
288.715	23.04
288.93	-62.98
289.145	33.28
289.36	147.97
289.575	90.62
289.79	84.48
290.004	49.66
290.219	18.94
290.434	45.57
290.649	43.52
290.864	86.53
291.079	92.67
291.294	23.04
291.509	51.71
291.724	-17.92
291.938	68.09
292.153	72.19
292.368	-48.64
292.583	78.33
292.798	47.62
293.012	84.48
293.227	23.04
293.442	49.66
293.657	100.86
293.871	115.2
294.086	-22.02
294.301	55.81
294.516	27.14
294.73	25.09
294.945	20.99
295.16	-30.21
295.374	74.24
295.589	16.9
295.804	59.9
296.018	104.96
296.233	41.47
296.447	-38.4
296.662	33.28
296.877	66.05
297.091	74.24
297.306	80.38
297.52	31.23
297.735	107.01
297.949	-13.82
298.164	133.63
298.378	35.33
298.593	113.15
298.807	55.81
299.022	-15.87
299.236	33.28
299.451	-5.63
299.665	23.04
299.88	25.09
300.094	70.14
300.309	100.86
300.523	41.47
300.737	76.29
300.952	55.81
301.166	88.57
301.381	-22.02
301.595	29.18
301.809	18.94
302.024	80.38
302.238	20.99
302.452	18.94
302.667	96.77
302.881	25.09
303.095	53.76
303.309	84.48
303.524	-13.82
303.738	74.24
303.952	45.57
304.166	74.24
304.381	51.71
304.595	100.86
304.809	-7.68
305.023	76.29
305.237	18.94
305.452	43.52
305.666	59.9
305.88	162.3
306.094	80.38
306.308	59.9
306.522	86.53
306.736	86.53
306.95	23.04
307.164	84.48
307.379	43.52
307.593	55.81
307.807	18.94
308.021	-22.02
308.235	117.25
308.449	16.9
308.663	4.61
308.877	82.43
309.091	14.85
309.305	61.95
309.519	10.75
309.733	107.01
309.947	23.04
310.161	53.76
310.374	88.57
310.588	92.67
310.802	10.75
311.016	57.86
311.23	37.38
311.444	-17.92
311.658	33.28
311.872	76.29
312.085	59.9
312.299	78.33
312.513	86.53
312.727	117.25
312.941	-24.06
313.154	135.68
313.368	0.51
313.582	43.52
313.796	20.99
314.009	64
314.223	82.43
314.437	12.8
314.651	74.24
314.864	76.29
315.078	51.71
315.292	41.47
315.505	-13.82
315.719	68.09
315.933	51.71
316.146	8.7
316.36	55.81
316.573	115.2
316.787	74.24
317.001	55.81
317.214	16.9
317.428	80.38
317.641	2.56
317.855	41.47
318.068	53.76
318.282	39.42
318.495	135.68
318.709	119.29
318.922	49.66
319.136	94.72
319.349	6.66
319.563	-13.82
319.776	29.18
319.99	8.7
320.203	125.44
320.417	27.14
320.63	4.61
320.843	72.19
321.057	27.14
321.27	25.09
321.483	68.09
321.697	137.73
321.91	41.47
322.124	-28.16
322.337	96.77
322.55	2.56
322.763	72.19
322.977	76.29
323.19	43.52
323.403	-13.82
323.617	78.33
323.83	80.38
324.043	86.53
324.256	41.47
324.469	-13.82
324.683	137.73
324.896	96.77
325.109	51.71
325.322	10.75
325.535	55.81
325.748	82.43
325.962	96.77
326.175	35.33
326.388	10.75
326.601	109.05
326.814	45.57
327.027	64
327.24	141.82
327.453	-1.54
327.666	92.67
327.879	80.38
328.092	72.19
328.305	35.33
328.518	14.85
328.731	31.23
328.944	41.47
329.157	57.86
329.37	41.47
329.583	31.23
329.796	98.81
330.009	68.09
330.222	119.29
330.435	51.71
330.648	92.67
330.861	92.67
331.073	59.9
331.286	117.25
331.499	121.34
331.712	8.7
331.925	55.81
332.138	51.71
332.35	141.82
332.563	70.14
332.776	121.34
332.989	23.04
333.202	18.94
333.414	74.24
333.627	92.67
333.84	68.09
334.053	51.71
334.265	20.99
334.478	76.29
334.691	18.94
334.903	82.43
335.116	55.81
335.329	45.57
335.541	33.28
335.754	76.29
335.966	57.86
336.179	78.33
336.392	6.66
336.604	66.05
336.817	72.19
337.029	31.23
337.242	49.66
337.454	72.19
337.667	64
337.88	55.81
338.092	51.71
338.305	94.72
338.517	2.56
338.729	109.05
338.942	119.29
339.154	41.47
339.367	57.86
339.579	45.57
339.792	66.05
340.004	55.81
340.217	64
340.429	57.86
340.641	-13.82
340.854	41.47
341.066	66.05
341.278	100.86
341.491	90.62
341.703	45.57
341.915	20.99
342.128	123.39
342.34	33.28
342.552	2.56
342.764	59.9
342.977	43.52
343.189	82.43
343.401	27.14
343.613	59.9
343.826	92.67
344.038	35.33
344.25	31.23
344.462	86.53
344.674	90.62
344.886	66.05
345.099	37.38
345.311	84.48
345.523	47.62
345.735	51.71
345.947	94.72
346.159	25.09
346.371	-19.97
346.583	-13.82
346.795	117.25
347.007	72.19
347.219	61.95
347.431	55.81
347.643	66.05
347.855	45.57
348.067	74.24
348.279	-17.92
348.491	59.9
348.703	104.96
348.915	14.85
349.127	-22.02
349.339	107.01
349.551	76.29
349.763	104.96
349.975	39.42
350.187	90.62
350.399	76.29
350.61	94.72
350.822	80.38
351.034	76.29
351.246	64
351.458	139.77
351.669	43.52
351.881	133.63
352.093	-3.58
352.305	57.86
352.517	59.9
352.728	70.14
352.94	57.86
353.152	76.29
353.363	41.47
353.575	104.96
353.787	123.39
353.999	61.95
354.21	84.48
354.422	16.9
354.633	45.57
354.845	88.57
355.057	76.29
355.268	49.66
355.48	53.76
355.692	25.09
355.903	35.33
356.115	43.52
356.326	4.61
356.538	59.9
356.749	39.42
356.961	29.18
357.172	88.57
357.384	33.28
357.595	129.53
357.807	57.86
358.018	2.56
358.23	109.05
358.441	129.53
358.653	141.82
358.864	-22.02
359.075	78.33
359.287	115.2
359.498	59.9
359.709	53.76
359.921	74.24
360.132	64
360.344	-9.73
360.555	55.81
360.766	115.2
360.977	72.19
361.189	84.48
361.4	25.09
361.611	43.52
361.823	92.67
362.034	96.77
362.245	61.95
362.456	86.53
362.667	57.86
362.879	-40.45
363.09	76.29
363.301	59.9
363.512	123.39
363.723	-1.54
363.935	31.23
364.146	141.82
364.357	119.29
364.568	47.62
364.779	41.47
364.99	125.44
365.201	16.9
365.412	115.2
365.623	47.62
365.834	166.4
366.045	125.44
366.256	96.77
366.467	70.14
366.678	51.71
366.889	117.25
367.1	96.77
367.311	59.9
367.522	92.67
367.733	107.01
367.944	96.77
368.155	57.86
368.366	61.95
368.577	107.01
368.788	41.47
368.999	49.66
369.209	76.29
369.42	113.15
369.631	158.21
369.842	96.77
370.053	33.28
370.264	88.57
370.474	102.91
370.685	145.92
370.896	57.86
371.107	113.15
371.317	86.53
371.528	39.42
371.739	117.25
371.95	104.96
372.16	66.05
372.371	8.7
372.582	47.62
372.792	0.51
373.003	100.86
373.214	72.19
373.424	47.62
373.635	66.05
373.846	98.81
374.056	27.14
374.267	20.99
374.477	86.53
374.688	14.85
374.898	80.38
375.109	131.58
375.319	90.62
375.53	92.67
375.74	109.05
375.951	66.05
376.161	23.04
376.372	64
376.582	98.81
376.793	23.04
377.003	43.52
377.214	143.87
377.424	119.29
377.635	98.81
377.845	43.52
378.055	141.82
378.266	23.04
378.476	47.62
378.686	113.15
378.897	117.25
379.107	100.86
379.317	-5.63
379.528	-5.63
379.738	76.29
379.948	88.57
380.158	76.29
380.369	16.9
380.579	150.01
380.789	23.04
380.999	68.09
381.21	68.09
381.42	117.25
381.63	49.66
381.84	102.91
382.05	109.05
382.261	107.01
382.471	64
382.681	133.63
382.891	59.9
383.101	57.86
383.311	8.7
383.521	23.04
383.731	72.19
383.941	18.94
384.151	109.05
384.361	156.16
384.571	68.09
384.781	64
384.991	133.63
385.201	115.2
385.411	154.11
385.621	68.09
385.831	66.05
386.041	96.77
386.251	123.39
386.461	133.63
386.671	80.38
386.881	113.15
387.091	72.19
387.301	123.39
387.511	51.71
387.72	156.16
387.93	66.05
388.14	2.56
388.35	96.77
388.56	90.62
388.769	145.92
388.979	141.82
389.189	76.29
389.399	68.09
389.609	72.19
389.818	156.16
390.028	104.96
390.238	84.48
390.447	64
390.657	109.05
390.867	72.19
391.076	41.47
391.286	72.19
391.496	68.09
391.705	100.86
391.915	100.86
392.125	117.25
392.334	43.52
392.544	104.96
392.753	86.53
392.963	104.96
393.172	33.28
393.382	51.71
393.591	109.05
393.801	82.43
394.01	125.44
394.22	59.9
394.429	125.44
394.639	100.86
394.848	125.44
395.058	150.01
395.267	90.62
395.477	152.06
395.686	141.82
395.895	133.63
396.105	150.01
396.314	109.05
396.524	111.1
396.733	84.48
396.942	172.54
397.152	121.34
397.361	190.97
397.57	66.05
397.78	150.01
397.989	150.01
398.198	184.83
398.407	143.87
398.617	51.71
398.826	201.21
399.035	123.39
399.244	133.63
399.453	109.05
399.663	92.67
399.872	147.97
400.081	176.64
400.29	125.44
400.499	102.91
400.708	219.64
400.917	111.1
401.127	90.62
401.336	162.3
401.545	123.39
401.754	168.45
401.963	184.83
402.172	145.92
402.381	154.11
402.59	147.97
402.799	154.11
403.008	139.77
403.217	141.82
403.426	154.11
403.635	92.67
403.844	236.03
404.053	166.4
404.262	162.3
404.471	180.73
404.68	154.11
404.888	215.55
405.097	123.39
405.306	203.26
405.515	274.94
405.724	162.3
405.933	231.93
406.142	258.56
406.35	205.31
406.559	227.84
406.768	199.16
406.977	330.23
407.185	305.66
407.394	213.5
407.603	315.9
407.812	336.38
408.02	375.29
408.229	258.56
408.438	303.61
408.646	350.71
408.855	434.68
409.064	322.04
409.272	256.51
409.481	326.14
409.69	305.66
409.898	369.15
410.107	373.24
410.315	399.87
410.524	369.15
410.733	483.83
410.941	348.67
411.15	432.63
411.358	469.5
411.567	492.02
411.775	469.5
411.984	596.47
412.192	532.98
412.401	567.8
412.609	588.28
412.818	530.94
413.026	608.76
413.234	641.53
413.443	627.19
413.651	641.53
413.86	645.62
414.068	735.73
414.276	729.59
414.485	739.83
414.693	748.02
414.901	809.46
415.11	811.51
415.318	860.66
415.526	879.09
415.734	891.38
415.943	926.19
416.151	973.3
416.359	1034.74
416.567	1034.74
416.776	1102.32
416.984	1116.65
417.192	1223.15
417.4	1214.96
417.608	1231.34
417.817	1268.2
418.025	1354.22
418.233	1505.77
418.441	1284.59
418.649	1546.73
418.857	1524.2
419.065	1556.97
419.273	1503.72
419.481	1769.96
419.689	1802.72
419.897	1778.15
420.105	1876.45
420.313	1802.72
420.521	1948.13
420.729	2050.53
420.937	2091.49
421.145	2138.59
421.353	2167.26
421.561	2333.15
421.769	2331.1
421.977	2425.31
422.185	2480.6
422.393	2611.67
422.601	2707.93
422.809	2761.17
423.017	2744.79
423.224	3008.98
423.432	2984.4
423.64	3015.12
423.848	3230.16
424.056	3080.66
424.263	3492.3
424.471	3482.06
424.679	3475.91
424.887	3649.99
425.094	3742.15
425.302	3799.49
425.51	4118.98
425.718	3973.57
425.925	4106.69
426.133	4297.15
426.341	4585.91
426.548	4626.87
426.756	4704.7
426.964	4817.33
427.171	4942.26
427.379	5102
427.586	5198.26
427.794	5376.43
428.001	5642.67
428.209	5943.72
428.417	5867.94
428.624	6054.31
428.832	6150.56
429.039	6105.51
429.247	6156.71
429.454	6930.84
429.662	7303.57
429.869	6859.16
430.076	7332.24
430.284	7278.99
430.491	7389.58
430.699	7790.99
430.906	7825.8
431.114	7995.78
431.321	8049.03
431.528	8388.99
431.736	8792.44
431.943	9228.66
432.15	9025.91
432.358	9030.01
432.565	9419.12
432.772	9578.86
432.979	9828.71
433.187	10283.36
433.394	10326.37
433.601	10795.36
433.808	10932.57
434.016	10778.97
434.223	11147.61
434.43	11929.93
434.637	11827.53
434.844	12538.18
435.052	12613.95
435.259	12558.66
435.466	12880.19
435.673	12749.12
435.88	13570.35
436.087	14270.76
436.294	14346.53
436.501	13836.59
436.708	14137.64
436.915	14569.76
437.122	15290.65
437.329	15290.65
437.537	15956.24
437.743	16158.99
437.95	15884.56
438.157	16484.61
438.364	17469.69
438.571	17223.93
438.778	17363.19
438.985	18796.77
439.192	18381.03
439.399	18737.38
439.606	18288.87
439.813	19357.91
440.02	20539.59
440.227	20052.17
440.433	19849.43
440.64	20615.37
440.847	20580.55
441.054	21227.71
441.261	22456.49
441.467	22036.66
441.674	22491.3
441.881	23482.52
442.088	23345.31
442.294	23226.53
442.501	23718.04
442.708	24154.26
442.914	25108.61
443.121	25960.56
443.328	25464.96
443.534	26988.64
443.741	26566.76
443.948	25798.77
444.154	27969.62
444.361	27859.03
444.568	28094.55
444.774	27795.54
444.981	28188.75
445.187	29222.98
445.394	29937.72
445.6	30027.83
445.807	32643.09
446.013	31469.6
446.22	31948.82
446.426	33128.45
446.633	33191.94
446.839	34734.06
447.046	32950.28
447.252	34707.44
447.459	34801.64
447.665	34861.04
447.871	36321.24
448.078	37654.47
448.284	36057.05
448.491	36974.54
448.697	38287.29
448.903	38807.47
449.11	39223.21
449.316	38297.53
449.522	39325.61
449.728	40118.17
449.935	40349.59
450.141	39935.9
450.347	41553.8
450.553	39837.6
450.76	40071.07
450.966	41449.35
451.172	41078.67
451.378	42088.32
451.584	40898.45
451.791	42008.45
451.997	42000.26
452.203	42358.65
452.409	42676.08
452.615	42471.29
452.821	40640.4
453.027	40632.21
453.233	42545.01
453.44	40757.14
453.646	40906.64
453.852	41527.17
454.058	42090.37
454.264	40619.92
454.47	41504.65
454.676	39950.24
454.882	41781.12
455.088	38248.38
455.294	38690.74
455.5	39284.65
455.705	39290.79
455.911	38045.63
456.117	37214.15
456.323	36765.65
456.529	35006.44
456.735	36200.41
456.941	35389.41
457.147	34727.92
457.352	34082.81
457.558	33341.44
457.764	33357.83
457.97	32718.86
458.176	31854.62
458.381	32356.37
458.587	30398.51
458.793	30586.93
458.999	28905.54
459.204	31232.04
459.41	30058.55
459.616	28170.32
459.821	28358.74
460.027	28360.78
460.233	27543.64
460.438	26159.22
460.644	26431.6
460.85	25288.83
461.055	24983.68
461.261	24774.79
461.466	23036.06
461.672	22433.96
461.878	23963.79
462.083	22329.52
462.289	22030.51
462.494	22079.66
462.7	20818.11
462.905	20017.36
463.111	21006.53
463.316	20936.9
463.522	20580.55
463.727	20515.01
463.932	20615.37
464.138	20195.53
464.343	20402.38
464.549	20005.07
464.754	20256.97
464.959	20181.2
465.165	19990.73
465.37	19488.98
465.575	18764
465.781	19544.28
465.986	19763.41
466.191	19036.38
466.397	18770.15
466.602	17823.98
466.807	18327.78
467.012	18364.65
