Data from USB4F104151__72__10-24-07-421.txt Node

Date: Wed Mar 12 10:24:07 EDT 2025
User: louis
Spectrometer: USB4F10415
Trigger mode: 4
Integration Time (sec): 3.000000E-2
Scans to average: 1
Electric dark correction enabled: true
Nonlinearity correction enabled: false
Boxcar width: 0
XAxis mode: Wavelengths
Number of Pixels in Spectrum: 3648
>>>>>Begin Spectral Data<<<<<
178.204	-63.83
178.424	-63.83
178.644	-63.83
178.864	-198.99
179.084	-92.5
179.304	-24.92
179.524	-41.3
179.744	-10.58
179.964	71.34
180.184	5.8
180.404	26.28
180.624	-31.06
180.844	5.8
181.064	-41.3
181.283	-47.44
181.503	40.62
181.723	46.76
181.943	-35.16
182.163	132.78
182.383	-2.39
182.602	-24.92
182.822	-2.39
183.042	-8.53
183.262	-6.49
183.482	79.53
183.701	61.1
183.921	46.76
184.141	1.71
184.361	-14.68
184.58	-26.96
184.8	34.47
185.02	26.28
185.239	-6.49
185.459	57
185.679	79.53
185.898	20.14
186.118	50.86
186.338	-12.63
186.557	26.28
186.777	3.75
186.997	5.8
187.216	11.95
187.436	44.71
187.655	79.53
187.875	30.38
188.095	16.04
188.314	9.9
188.534	11.95
188.753	42.67
188.973	28.33
189.192	48.81
189.412	-14.68
189.631	87.72
189.851	61.1
190.07	34.47
190.29	-2.39
190.509	28.33
190.729	-10.58
190.948	50.86
191.168	163.5
191.387	102.06
191.607	22.19
191.826	97.96
192.045	-6.49
192.265	75.43
192.484	-47.44
192.704	40.62
192.923	30.38
193.142	77.48
193.362	24.23
193.581	40.62
193.8	40.62
194.02	-6.49
194.239	97.96
194.458	-2.39
194.678	7.85
194.897	67.24
195.116	18.09
195.335	5.8
195.555	-39.25
195.774	59.05
195.993	22.19
196.212	-10.58
196.432	-35.16
196.651	26.28
196.87	16.04
197.089	46.76
197.308	50.86
197.528	57
197.747	13.99
197.966	50.86
198.185	40.62
198.404	-10.58
198.623	32.43
198.842	61.1
199.062	77.48
199.281	87.72
199.5	69.29
199.719	-2.39
199.938	24.23
200.157	18.09
200.376	50.86
200.595	54.95
200.814	71.34
201.033	1.71
201.252	63.15
201.471	9.9
201.69	73.39
201.909	24.23
202.128	22.19
202.347	42.67
202.566	16.04
202.785	-10.58
203.004	-59.73
203.223	140.97
203.442	44.71
203.661	-8.53
203.879	-2.39
204.098	112.3
204.317	30.38
204.536	63.15
204.755	16.04
204.974	9.9
205.193	36.52
205.411	38.57
205.63	-51.54
205.849	-14.68
206.068	-8.53
206.287	-41.3
206.505	26.28
206.724	42.67
206.943	20.14
207.162	48.81
207.381	65.19
207.599	42.67
207.818	57
208.037	97.96
208.255	-22.87
208.474	50.86
208.693	42.67
208.911	-0.34
209.13	85.67
209.349	-6.49
209.567	7.85
209.786	97.96
210.005	-4.44
210.223	-8.53
210.442	-55.64
210.661	38.57
210.879	87.72
211.098	95.91
211.316	63.15
211.535	67.24
211.753	-39.25
211.972	32.43
212.191	22.19
212.409	128.68
212.628	18.09
212.846	5.8
213.065	32.43
213.283	26.28
213.502	18.09
213.72	46.76
213.938	-0.34
214.157	30.38
214.375	48.81
214.594	-43.35
214.812	16.04
215.031	40.62
215.249	-12.63
215.467	73.39
215.686	50.86
215.904	7.85
216.122	-26.96
216.341	38.57
216.559	26.28
216.778	83.63
216.996	42.67
217.214	52.91
217.432	-12.63
217.651	48.81
217.869	42.67
218.087	65.19
218.306	61.1
218.524	97.96
218.742	-29.01
218.96	91.82
219.179	-41.3
219.397	-10.58
219.615	22.19
219.833	48.81
220.051	32.43
220.27	75.43
220.488	-2.39
220.706	40.62
220.924	-49.49
221.142	61.1
221.36	59.05
221.578	9.9
221.796	28.33
222.015	54.95
222.233	40.62
222.451	18.09
222.669	30.38
222.887	-0.34
223.105	36.52
223.323	13.99
223.541	-8.53
223.759	36.52
223.977	-4.44
224.195	67.24
224.413	130.73
224.631	13.99
224.849	44.71
225.067	59.05
225.285	46.76
225.503	87.72
225.721	26.28
225.939	-18.77
226.157	81.58
226.375	183.98
226.592	-20.82
226.81	-6.49
227.028	81.58
227.246	54.95
227.464	-8.53
227.682	71.34
227.9	18.09
228.117	71.34
228.335	75.43
228.553	-16.73
228.771	-43.35
228.989	81.58
229.206	52.91
229.424	20.14
229.642	65.19
229.86	-6.49
230.077	67.24
230.295	-0.34
230.513	32.43
230.731	42.67
230.948	93.87
231.166	75.43
231.384	50.86
231.601	-4.44
231.819	61.1
232.037	30.38
232.254	26.28
232.472	44.71
232.689	-94.55
232.907	104.11
233.125	50.86
233.342	-24.92
233.56	48.81
233.777	7.85
233.995	-33.11
234.213	71.34
234.43	54.95
234.648	7.85
234.865	-2.39
235.083	28.33
235.3	26.28
235.518	42.67
235.735	104.11
235.953	52.91
236.17	83.63
236.388	50.86
236.605	-2.39
236.822	71.34
237.04	104.11
237.257	46.76
237.475	-39.25
237.692	-8.53
237.909	-4.44
238.127	-35.16
238.344	89.77
238.562	81.58
238.779	18.09
238.996	-45.4
239.214	1.71
239.431	93.87
239.648	22.19
239.865	-39.25
240.083	63.15
240.3	40.62
240.517	22.19
240.735	7.85
240.952	54.95
241.169	54.95
241.386	42.67
241.603	-12.63
241.821	26.28
242.038	34.47
242.255	34.47
242.472	48.81
242.689	9.9
242.907	-14.68
243.124	9.9
243.341	20.14
243.558	20.14
243.775	42.67
243.992	1.71
244.209	-22.87
244.426	79.53
244.643	61.1
244.86	112.3
245.078	71.34
245.295	57
245.512	83.63
245.729	-6.49
245.946	46.76
246.163	91.82
246.38	40.62
246.597	-43.35
246.814	22.19
247.031	44.71
247.248	-10.58
247.464	16.04
247.681	100.01
247.898	108.2
248.115	52.91
248.332	-10.58
248.549	71.34
248.766	57
248.983	42.67
249.2	20.14
249.417	100.01
249.633	46.76
249.85	95.91
250.067	7.85
250.284	42.67
250.501	65.19
250.717	-8.53
250.934	5.8
251.151	-0.34
251.368	26.28
251.585	24.23
251.801	7.85
252.018	1.71
252.235	71.34
252.451	-57.68
252.668	11.95
252.885	13.99
253.102	52.91
253.318	18.09
253.535	-49.49
253.752	9.9
253.968	-33.11
254.185	-22.87
254.401	46.76
254.618	73.39
254.835	16.04
255.051	112.3
255.268	89.77
255.484	1.71
255.701	-45.4
255.917	128.68
256.134	34.47
256.351	24.23
256.567	50.86
256.784	50.86
257	-37.2
257.217	-31.06
257.433	40.62
257.65	48.81
257.866	48.81
258.082	61.1
258.299	-39.25
258.515	22.19
258.732	48.81
258.948	-6.49
259.165	61.1
259.381	-26.96
259.597	73.39
259.814	54.95
260.03	-0.34
260.246	-4.44
260.463	22.19
260.679	-12.63
260.895	42.67
261.112	3.75
261.328	40.62
261.544	5.8
261.761	106.15
261.977	52.91
262.193	50.86
262.409	50.86
262.626	50.86
262.842	54.95
263.058	34.47
263.274	61.1
263.49	5.8
263.707	118.44
263.923	95.91
264.139	-31.06
264.355	9.9
264.571	54.95
264.787	9.9
265.004	61.1
265.22	32.43
265.436	5.8
265.652	83.63
265.868	50.86
266.084	59.05
266.3	5.8
266.516	-31.06
266.732	71.34
266.948	7.85
267.164	40.62
267.38	18.09
267.596	50.86
267.812	108.2
268.028	120.49
268.244	-80.21
268.46	34.47
268.676	30.38
268.892	81.58
269.108	18.09
269.324	75.43
269.54	26.28
269.756	40.62
269.972	18.09
270.188	-31.06
270.403	28.33
270.619	52.91
270.835	22.19
271.051	42.67
271.267	-14.68
271.483	54.95
271.698	42.67
271.914	-14.68
272.13	30.38
272.346	-18.77
272.562	-14.68
272.777	108.2
272.993	87.72
273.209	52.91
273.425	-4.44
273.64	-39.25
273.856	38.57
274.072	65.19
274.287	67.24
274.503	-2.39
274.719	63.15
274.934	-0.34
275.15	-4.44
275.366	77.48
275.581	46.76
275.797	-4.44
276.012	30.38
276.228	61.1
276.444	42.67
276.659	28.33
276.875	-10.58
277.09	42.67
277.306	18.09
277.521	42.67
277.737	13.99
277.952	91.82
278.168	95.91
278.383	50.86
278.599	-8.53
278.814	77.48
279.03	34.47
279.245	75.43
279.461	71.34
279.676	34.47
279.892	54.95
280.107	13.99
280.322	-35.16
280.538	22.19
280.753	1.71
280.969	48.81
281.184	54.95
281.399	9.9
281.615	108.2
281.83	7.85
282.045	-6.49
282.26	-14.68
282.476	75.43
282.691	20.14
282.906	95.91
283.122	81.58
283.337	48.81
283.552	54.95
283.767	-20.82
283.983	32.43
284.198	63.15
284.413	18.09
284.628	18.09
284.843	26.28
285.058	100.01
285.274	71.34
285.489	3.75
285.704	77.48
285.919	-63.83
286.134	63.15
286.349	28.33
286.564	28.33
286.779	-12.63
286.995	83.63
287.21	3.75
287.425	73.39
287.64	13.99
287.855	-16.73
288.07	26.28
288.285	42.67
288.5	-14.68
288.715	81.58
288.93	1.71
289.145	-6.49
289.36	69.29
289.575	50.86
289.79	36.52
290.004	28.33
290.219	97.96
290.434	42.67
290.649	-6.49
290.864	-8.53
291.079	79.53
291.294	38.57
291.509	57
291.724	65.19
291.938	-22.87
292.153	42.67
292.368	30.38
292.583	57
292.798	1.71
293.012	67.24
293.227	-33.11
293.442	22.19
293.657	9.9
293.871	87.72
294.086	13.99
294.301	106.15
294.516	1.71
294.73	38.57
294.945	13.99
295.16	65.19
295.374	50.86
295.589	59.05
295.804	59.05
296.018	18.09
296.233	59.05
296.447	-16.73
296.662	32.43
296.877	-8.53
297.091	32.43
297.306	108.2
297.52	34.47
297.735	89.77
297.949	134.82
298.164	26.28
298.378	73.39
298.593	34.47
298.807	149.16
299.022	-0.34
299.236	-6.49
299.451	34.47
299.665	-61.78
299.88	-43.35
300.094	7.85
300.309	30.38
300.523	-26.96
300.737	71.34
300.952	100.01
301.166	73.39
301.381	5.8
301.595	-18.77
301.809	32.43
302.024	-6.49
302.238	-2.39
302.452	89.77
302.667	5.8
302.881	75.43
303.095	87.72
303.309	71.34
303.524	34.47
303.738	7.85
303.952	18.09
304.166	20.14
304.381	65.19
304.595	59.05
304.809	34.47
305.023	95.91
305.237	9.9
305.452	3.75
305.666	26.28
305.88	48.81
306.094	34.47
306.308	1.71
306.522	114.34
306.736	40.62
306.95	87.72
307.164	50.86
307.379	-37.2
307.593	32.43
307.807	54.95
308.021	46.76
308.235	34.47
308.449	1.71
308.663	-39.25
308.877	108.2
309.091	71.34
309.305	89.77
309.519	-69.97
309.733	63.15
309.947	5.8
310.161	18.09
310.374	18.09
310.588	83.63
310.802	42.67
311.016	9.9
311.23	18.09
311.444	34.47
311.658	57
311.872	46.76
312.085	79.53
312.299	63.15
312.513	102.06
312.727	48.81
312.941	11.95
313.154	22.19
313.368	106.15
313.582	13.99
313.796	54.95
314.009	67.24
314.223	87.72
314.437	52.91
314.651	120.49
314.864	42.67
315.078	34.47
315.292	-2.39
315.505	52.91
315.719	13.99
315.933	9.9
316.146	5.8
316.36	87.72
316.573	38.57
316.787	-55.64
317.001	61.1
317.214	-41.3
317.428	22.19
317.641	36.52
317.855	52.91
318.068	54.95
318.282	77.48
318.495	50.86
318.709	147.11
318.922	-65.88
319.136	67.24
319.349	59.05
319.563	-6.49
319.776	63.15
319.99	57
320.203	116.39
320.417	79.53
320.63	57
320.843	63.15
321.057	9.9
321.27	5.8
321.483	30.38
321.697	40.62
321.91	114.34
322.124	114.34
322.337	75.43
322.55	67.24
322.763	-0.34
322.977	48.81
323.19	52.91
323.403	9.9
323.617	-22.87
323.83	52.91
324.043	-10.58
324.256	24.23
324.469	65.19
324.683	24.23
324.896	100.01
325.109	30.38
325.322	-33.11
325.535	16.04
325.748	87.72
325.962	38.57
326.175	65.19
326.388	50.86
326.601	114.34
326.814	5.8
327.027	63.15
327.24	34.47
327.453	-2.39
327.666	65.19
327.879	71.34
328.092	38.57
328.305	38.57
328.518	65.19
328.731	18.09
328.944	40.62
329.157	34.47
329.37	69.29
329.583	112.3
329.796	100.01
330.009	34.47
330.222	22.19
330.435	-4.44
330.648	59.05
330.861	57
331.073	65.19
331.286	48.81
331.499	16.04
331.712	26.28
331.925	13.99
332.138	7.85
332.35	52.91
332.563	-39.25
332.776	-51.54
332.989	-47.44
333.202	9.9
333.414	93.87
333.627	20.14
333.84	38.57
334.053	30.38
334.265	34.47
334.478	54.95
334.691	-2.39
334.903	5.8
335.116	30.38
335.329	48.81
335.541	34.47
335.754	71.34
335.966	-10.58
336.179	97.96
336.392	46.76
336.604	42.67
336.817	100.01
337.029	126.63
337.242	71.34
337.454	57
337.667	63.15
337.88	116.39
338.092	79.53
338.305	20.14
338.517	61.1
338.729	57
338.942	59.05
339.154	83.63
339.367	-33.11
339.579	143.02
339.792	-55.64
340.004	61.1
340.217	5.8
340.429	-12.63
340.641	22.19
340.854	38.57
341.066	102.06
341.278	63.15
341.491	16.04
341.703	22.19
341.915	16.04
342.128	102.06
342.34	59.05
342.552	34.47
342.764	7.85
342.977	44.71
343.189	-6.49
343.401	26.28
343.613	73.39
343.826	32.43
344.038	128.68
344.25	59.05
344.462	30.38
344.674	93.87
344.886	42.67
345.099	108.2
345.311	5.8
345.523	91.82
345.735	-14.68
345.947	57
346.159	59.05
346.371	-6.49
346.583	75.43
346.795	81.58
347.007	38.57
347.219	95.91
347.431	67.24
347.643	18.09
347.855	52.91
348.067	65.19
348.279	7.85
348.491	-12.63
348.703	20.14
348.915	44.71
349.127	42.67
349.339	-26.96
349.551	-20.82
349.763	57
349.975	104.11
350.187	79.53
350.399	100.01
350.61	30.38
350.822	50.86
351.034	91.82
351.246	48.81
351.458	110.25
351.669	89.77
351.881	59.05
352.093	48.81
352.305	38.57
352.517	128.68
352.728	40.62
352.94	-39.25
353.152	85.67
353.363	44.71
353.575	38.57
353.787	89.77
353.999	26.28
354.21	54.95
354.422	9.9
354.633	1.71
354.845	26.28
355.057	28.33
355.268	126.63
355.48	59.05
355.692	16.04
355.903	40.62
356.115	40.62
356.326	5.8
356.538	91.82
356.749	-18.77
356.961	73.39
357.172	52.91
357.384	-35.16
357.595	132.78
357.807	40.62
358.018	20.14
358.23	26.28
358.441	-10.58
358.653	87.72
358.864	18.09
359.075	54.95
359.287	91.82
359.498	85.67
359.709	18.09
359.921	22.19
360.132	40.62
360.344	57
360.555	7.85
360.766	-47.44
360.977	-2.39
361.189	77.48
361.4	30.38
361.611	40.62
361.823	59.05
362.034	93.87
362.245	5.8
362.456	-22.87
362.667	1.71
362.879	91.82
363.09	81.58
363.301	71.34
363.512	5.8
363.723	77.48
363.935	100.01
364.146	79.53
364.357	22.19
364.568	16.04
364.779	9.9
364.99	108.2
365.201	46.76
365.412	112.3
365.623	69.29
365.834	97.96
366.045	87.72
366.256	128.68
366.467	-6.49
366.678	85.67
366.889	42.67
367.1	20.14
367.311	46.76
367.522	16.04
367.733	87.72
367.944	-22.87
368.155	50.86
368.366	100.01
368.577	34.47
368.788	89.77
368.999	-10.58
369.209	81.58
369.42	130.73
369.631	85.67
369.842	91.82
370.053	48.81
370.264	52.91
370.474	-0.34
370.685	63.15
370.896	61.1
371.107	67.24
371.317	69.29
371.528	52.91
371.739	59.05
371.95	52.91
372.16	95.91
372.371	13.99
372.582	77.48
372.792	-4.44
373.003	89.77
373.214	87.72
373.424	42.67
373.635	44.71
373.846	100.01
374.056	57
374.267	118.44
374.477	75.43
374.688	28.33
374.898	81.58
375.109	13.99
375.319	85.67
375.53	87.72
375.74	38.57
375.951	26.28
376.161	114.34
376.372	67.24
376.582	93.87
376.793	110.25
377.003	67.24
377.214	52.91
377.424	32.43
377.635	100.01
377.845	69.29
378.055	57
378.266	32.43
378.476	42.67
378.686	65.19
378.897	57
379.107	95.91
379.317	91.82
379.528	-2.39
379.738	26.28
379.948	59.05
380.158	155.3
380.369	-2.39
380.579	97.96
380.789	106.15
380.999	59.05
381.21	57
381.42	85.67
381.63	138.92
381.84	9.9
382.05	63.15
382.261	104.11
382.471	-8.53
382.681	7.85
382.891	67.24
383.101	112.3
383.311	13.99
383.521	46.76
383.731	61.1
383.941	79.53
384.151	73.39
384.361	-55.64
384.571	69.29
384.781	54.95
384.991	77.48
385.201	145.06
385.411	87.72
385.621	79.53
385.831	5.8
386.041	59.05
386.251	42.67
386.461	118.44
386.671	73.39
386.881	11.95
387.091	75.43
387.301	81.58
387.511	77.48
387.72	93.87
387.93	104.11
388.14	-12.63
388.35	57
388.56	108.2
388.769	83.63
388.979	36.52
389.189	-8.53
389.399	83.63
389.609	116.39
389.818	116.39
390.028	93.87
390.238	28.33
390.447	28.33
390.657	16.04
390.867	18.09
391.076	18.09
391.286	138.92
391.496	65.19
391.705	5.8
391.915	100.01
392.125	138.92
392.334	36.52
392.544	138.92
392.753	165.54
392.963	85.67
393.172	112.3
393.382	48.81
393.591	167.59
393.801	110.25
394.01	128.68
394.22	11.95
394.429	30.38
394.639	38.57
394.848	95.91
395.058	22.19
395.267	118.44
395.477	163.5
395.686	11.95
395.895	138.92
396.105	171.69
396.314	91.82
396.524	93.87
396.733	104.11
396.942	116.39
397.152	95.91
397.361	140.97
397.57	110.25
397.78	159.4
397.989	65.19
398.198	138.92
398.407	157.35
398.617	151.21
398.826	81.58
399.035	126.63
399.244	71.34
399.453	59.05
399.663	116.39
399.872	132.78
400.081	134.82
400.29	134.82
400.499	163.5
400.708	83.63
400.917	108.2
401.127	116.39
401.336	104.11
401.545	169.64
401.754	116.39
401.963	151.21
402.172	89.77
402.381	110.25
402.59	173.74
402.799	179.88
403.008	140.97
403.217	122.54
403.426	169.64
403.635	95.91
403.844	151.21
404.053	163.5
404.262	91.82
404.471	157.35
404.68	143.02
404.888	181.93
405.097	147.11
405.306	177.83
405.515	202.41
405.724	192.17
405.933	237.22
406.142	147.11
406.35	186.02
406.559	181.93
406.768	122.54
406.977	259.75
407.185	229.03
407.394	171.69
407.603	198.31
407.812	186.02
408.02	214.7
408.229	263.85
408.438	237.22
408.646	233.13
408.855	261.8
409.064	269.99
409.272	276.13
409.481	345.77
409.69	276.13
409.898	237.22
410.107	255.65
410.315	370.34
410.524	313
410.733	313
410.941	378.53
411.15	409.25
411.358	427.68
411.567	433.83
411.775	403.11
411.984	509.6
412.192	468.64
412.401	388.77
412.609	534.18
412.818	474.79
413.026	517.79
413.234	599.71
413.443	599.71
413.651	550.56
413.86	605.86
414.068	626.34
414.276	568.99
414.485	540.32
414.693	657.06
414.901	700.06
415.11	624.29
415.318	667.3
415.526	745.12
415.734	843.42
415.943	890.53
416.151	841.37
416.359	845.47
416.567	908.96
416.776	980.64
416.984	994.97
417.192	999.07
417.4	1058.46
417.608	992.92
417.817	1083.03
418.025	1130.14
418.233	1187.48
418.441	1050.27
418.649	1177.24
418.857	1324.69
419.065	1281.69
419.273	1339.03
419.481	1388.18
419.689	1529.49
419.897	1601.17
420.105	1517.2
420.313	1572.5
420.521	1711.76
420.729	1658.51
420.937	1746.58
421.145	1840.78
421.353	1824.4
421.561	1990.28
421.769	2012.81
421.977	2121.35
422.185	2029.2
422.393	2258.57
422.601	2291.34
422.809	2281.1
423.017	2356.87
423.224	2430.6
423.432	2662.02
423.64	2567.81
423.848	2829.95
424.056	2723.46
424.263	2969.21
424.471	2907.77
424.679	2846.34
424.887	3131
425.094	3210.87
425.302	3309.18
425.51	3370.62
425.718	3391.09
425.925	3563.12
426.133	3686
426.341	3882.61
426.548	3925.61
426.756	4159.08
426.964	4054.64
427.171	4253.29
427.379	4501.09
427.586	4480.61
427.794	4658.79
428.001	4824.67
428.209	4873.82
428.417	4957.79
428.624	5170.78
428.832	5353.05
429.039	5305.95
429.247	5252.7
429.454	5752.4
429.662	6137.42
429.869	5801.55
430.076	6108.75
430.284	5961.3
430.491	6055.5
430.699	6633.03
430.906	6399.56
431.114	6786.63
431.321	6846.02
431.528	6991.42
431.736	7407.16
431.943	7697.97
432.15	7605.81
432.358	7540.28
432.565	7980.59
432.772	8089.14
432.979	8506.92
433.187	8832.55
433.394	8625.7
433.601	9268.77
433.808	9133.6
434.016	9131.55
434.223	9625.11
434.43	10128.91
434.637	9893.4
434.844	10409.48
435.052	11005.44
435.259	10714.63
435.466	10747.4
435.673	10790.41
435.88	11490.81
436.087	12070.39
436.294	12021.24
436.501	11699.7
436.708	12062.19
436.915	12414.45
437.122	12946.92
437.329	12668.39
437.537	13123.04
437.743	13503.96
437.95	13243.87
438.157	13966.81
438.364	14499.28
438.571	14532.04
438.778	14579.15
438.985	15979.96
439.192	15349.18
439.399	15746.49
439.606	15297.99
439.813	16311.73
440.02	17139.11
440.227	16756.14
440.433	16940.46
440.64	17225.12
440.847	17122.73
441.054	17749.4
441.261	18879.88
441.467	18494.86
441.674	18996.62
441.881	19420.55
442.088	19572.1
442.294	19371.4
442.501	20032.89
442.708	20340.08
442.914	21001.58
443.121	22101.34
443.328	21636.45
443.534	22875.47
443.741	22164.82
443.948	21835.1
444.154	23643.46
444.361	23291.21
444.568	23469.38
444.774	23608.64
444.981	23780.67
445.187	24454.45
445.394	25543.97
445.6	25146.67
445.807	27456.78
446.013	26453.27
446.22	26664.21
446.426	27950.34
446.633	28118.27
446.839	29039.86
447.046	27835.65
447.252	29353.19
447.459	29218.03
447.665	29007.09
447.871	30637.27
448.078	31591.62
448.284	30225.63
448.491	31081.68
448.697	32197.82
448.903	32933.04
449.11	32562.36
449.316	32459.96
449.522	32783.54
449.728	33731.75
449.935	33516.72
450.141	33698.98
450.347	34602.14
450.553	33471.66
450.76	33565.87
450.966	35026.07
451.172	34493.6
451.378	35286.16
451.584	34530.46
451.791	35380.37
451.997	35323.02
452.203	35972.23
452.409	35490.96
452.615	35671.18
452.821	34020.52
453.027	34065.57
453.233	35474.57
453.44	34260.13
453.646	34421.92
453.852	34749.59
454.058	35079.32
454.264	33944.74
454.47	34712.73
454.676	33907.88
454.882	34702.49
455.088	31993.03
455.294	32128.19
455.5	32978.1
455.705	33434.8
455.911	32085.19
456.117	31220.94
456.323	30547.16
456.529	28749.04
456.735	30221.53
456.941	29494.5
457.147	29238.51
457.352	28202.24
457.558	27733.25
457.764	27909.38
457.97	27286.79
458.176	26795.28
458.381	26754.32
458.587	25648.42
458.793	25742.63
458.999	24048.96
459.204	25769.25
459.41	25072.94
459.616	23317.83
459.821	23799.1
460.027	23670.08
460.233	23031.12
460.438	21794.14
460.644	21980.51
460.85	20956.52
461.055	20974.95
461.261	20874.6
461.466	19033.48
461.672	18552.21
461.878	20227.45
462.083	18584.98
462.289	18398.61
462.494	17962.39
462.7	17489.31
462.905	17061.29
463.111	17339.81
463.316	17624.48
463.522	17130.92
463.727	16907.69
463.932	17059.24
464.138	17022.37
464.343	17077.67
464.549	16567.73
464.754	17042.85
464.959	17114.53
465.165	16981.42
465.37	16137.65
465.575	15519.17
465.781	16244.15
465.986	16268.72
466.191	15910.33
466.397	15662.52
466.602	14925.25
466.807	15506.88
467.012	15576.51
467.218	15123.91
467.423	14972.36
467.628	15148.48
467.833	15846.84
468.038	15144.39
468.244	14671.31
