Data from USB4F104151__94__10-24-30-788.txt Node

Date: Wed Mar 12 10:24:30 EDT 2025
User: louis
Spectrometer: USB4F10415
Trigger mode: 4
Integration Time (sec): 3.000000E-2
Scans to average: 1
Electric dark correction enabled: true
Nonlinearity correction enabled: false
Boxcar width: 0
XAxis mode: Wavelengths
Number of Pixels in Spectrum: 3648
>>>>>Begin Spectral Data<<<<<
178.204	-161.62
178.424	-161.62
178.644	-161.62
178.864	-79.7
179.084	-110.42
179.304	-5.97
179.524	-20.31
179.744	-24.4
179.964	-30.55
180.184	-8.02
180.404	30.89
180.624	51.37
180.844	26.79
181.064	-36.69
181.283	-3.93
181.503	-28.5
181.723	49.32
181.943	-57.17
182.163	110.76
182.383	10.41
182.602	37.03
182.822	86.19
183.042	43.18
183.262	-3.93
183.482	28.84
183.701	-42.84
183.921	69.8
184.141	-44.88
184.361	53.42
184.58	10.41
184.8	69.8
185.02	-24.4
185.239	22.7
185.459	-22.36
185.679	121
185.898	-51.03
186.118	100.52
186.338	0.17
186.557	51.37
186.777	75.95
186.997	12.46
187.216	-65.36
187.436	80.04
187.655	37.03
187.875	-10.07
188.095	16.55
188.314	26.79
188.534	43.18
188.753	51.37
188.973	37.03
189.192	32.94
189.412	49.32
189.631	8.36
189.851	61.61
190.07	57.51
190.29	-81.75
190.509	73.9
190.729	-22.36
190.948	129.19
191.168	159.91
191.387	106.67
191.607	8.36
191.826	112.81
192.045	34.99
192.265	-38.74
192.484	28.84
192.704	39.08
192.923	-12.12
193.142	-48.98
193.362	4.27
193.581	47.27
193.8	26.79
194.02	69.8
194.239	34.99
194.458	116.9
194.678	14.51
194.897	4.27
195.116	6.31
195.335	-1.88
195.555	51.37
195.774	-28.5
195.993	61.61
196.212	-14.17
196.432	65.71
196.651	43.18
196.87	-1.88
197.089	100.52
197.308	-20.31
197.528	20.65
197.747	-87.89
197.966	43.18
198.185	61.61
198.404	-3.93
198.623	6.31
198.842	6.31
199.062	73.9
199.281	98.47
199.5	-12.12
199.719	12.46
199.938	26.79
200.157	118.95
200.376	26.79
200.595	98.47
200.814	-3.93
201.033	51.37
201.252	-3.93
201.471	39.08
201.69	63.66
201.909	-34.64
202.128	-42.84
202.347	61.61
202.566	-28.5
202.785	16.55
203.004	-30.55
203.223	49.32
203.442	4.27
203.661	24.75
203.879	45.23
204.098	-5.97
204.317	-1.88
204.536	51.37
204.755	10.41
204.974	59.56
205.193	69.8
205.411	94.38
205.63	77.99
205.849	94.38
206.068	-28.5
206.287	8.36
206.505	-20.31
206.724	59.56
206.943	24.75
207.162	16.55
207.381	-8.02
207.599	-30.55
207.818	47.27
208.037	84.14
208.255	104.62
208.474	24.75
208.693	16.55
208.911	39.08
209.13	24.75
209.349	28.84
209.567	71.85
209.786	-14.17
210.005	100.52
210.223	73.9
210.442	-12.12
210.661	75.95
210.879	-3.93
211.098	73.9
211.316	24.75
211.535	20.65
211.753	24.75
211.972	63.66
212.191	26.79
212.409	75.95
212.628	28.84
212.846	28.84
213.065	30.89
213.283	16.55
213.502	-5.97
213.72	49.32
213.938	2.22
214.157	32.94
214.375	39.08
214.594	-12.12
214.812	53.42
215.031	32.94
215.249	0.17
215.467	16.55
215.686	4.27
215.904	32.94
216.122	51.37
216.341	80.04
216.559	-38.74
216.778	57.51
216.996	65.71
217.214	61.61
217.432	-26.45
217.651	-8.02
217.869	53.42
218.087	-36.69
218.306	-3.93
218.524	16.55
218.742	-26.45
218.96	34.99
219.179	39.08
219.397	-24.4
219.615	102.57
219.833	6.31
220.051	-1.88
220.27	112.81
220.488	37.03
220.706	34.99
220.924	26.79
221.142	-14.17
221.36	77.99
221.578	77.99
221.796	-61.27
222.015	-40.79
222.233	67.75
222.451	12.46
222.669	26.79
222.887	0.17
223.105	-16.21
223.323	116.9
223.541	22.7
223.759	67.75
223.977	28.84
224.195	18.6
224.413	18.6
224.631	-3.93
224.849	-16.21
225.067	65.71
225.285	32.94
225.503	-46.93
225.721	-8.02
225.939	43.18
226.157	37.03
226.375	41.13
226.592	-8.02
226.81	-8.02
227.028	47.27
227.246	71.85
227.464	-14.17
227.682	43.18
227.9	67.75
228.117	53.42
228.335	0.17
228.553	49.32
228.771	12.46
228.989	14.51
229.206	4.27
229.424	118.95
229.642	-63.32
229.86	-59.22
230.077	37.03
230.295	-3.93
230.513	67.75
230.731	84.14
230.948	77.99
231.166	57.51
231.384	18.6
231.601	45.23
231.819	2.22
232.037	65.71
232.254	-81.75
232.472	14.51
232.689	45.23
232.907	57.51
233.125	37.03
233.342	98.47
233.56	-3.93
233.777	-3.93
233.995	4.27
234.213	98.47
234.43	90.28
234.648	-10.07
234.865	26.79
235.083	139.43
235.3	16.55
235.518	-26.45
235.735	34.99
235.953	43.18
236.17	51.37
236.388	2.22
236.605	-20.31
236.822	41.13
237.04	102.57
237.257	24.75
237.475	34.99
237.692	45.23
237.909	88.23
238.127	51.37
238.344	102.57
238.562	86.19
238.779	-14.17
238.996	-18.26
239.214	43.18
239.431	104.62
239.648	-3.93
239.865	10.41
240.083	65.71
240.3	-1.88
240.517	-1.88
240.735	61.61
240.952	8.36
241.169	22.7
241.386	49.32
241.603	-46.93
241.821	20.65
242.038	-14.17
242.255	96.43
242.472	41.13
242.689	-3.93
242.907	24.75
243.124	55.47
243.341	14.51
243.558	-5.97
243.775	-34.64
243.992	32.94
244.209	20.65
244.426	51.37
244.643	22.7
244.86	43.18
245.078	63.66
245.295	77.99
245.512	20.65
245.729	-1.88
245.946	65.71
246.163	-8.02
246.38	6.31
246.597	12.46
246.814	8.36
247.031	8.36
247.248	92.33
247.464	32.94
247.681	65.71
247.898	2.22
248.115	57.51
248.332	41.13
248.549	75.95
248.766	69.8
248.983	51.37
249.2	53.42
249.417	20.65
249.633	18.6
249.85	39.08
250.067	-22.36
250.284	114.86
250.501	45.23
250.717	92.33
250.934	34.99
251.151	-12.12
251.368	-20.31
251.585	47.27
251.801	53.42
252.018	2.22
252.235	55.47
252.451	45.23
252.668	59.56
252.885	37.03
253.102	0.17
253.318	-20.31
253.535	10.41
253.752	22.7
253.968	32.94
254.185	61.61
254.401	37.03
254.618	32.94
254.835	6.31
255.051	30.89
255.268	4.27
255.484	41.13
255.701	22.7
255.917	69.8
256.134	28.84
256.351	16.55
256.567	53.42
256.784	59.56
257	-38.74
257.217	-12.12
257.433	51.37
257.65	34.99
257.866	-24.4
258.082	-42.84
258.299	12.46
258.515	-1.88
258.732	69.8
258.948	-61.27
259.165	37.03
259.381	-18.26
259.597	57.51
259.814	-12.12
260.03	71.85
260.246	90.28
260.463	86.19
260.679	73.9
260.895	157.86
261.112	84.14
261.328	-16.21
261.544	-32.6
261.761	155.82
261.977	-32.6
262.193	-77.65
262.409	82.09
262.626	26.79
262.842	43.18
263.058	-36.69
263.274	24.75
263.49	34.99
263.707	125.1
263.923	24.75
264.139	-16.21
264.355	53.42
264.571	88.23
264.787	28.84
265.004	57.51
265.22	-1.88
265.436	6.31
265.652	12.46
265.868	61.61
266.084	28.84
266.3	37.03
266.516	-118.61
266.732	16.55
266.948	61.61
267.164	37.03
267.38	18.6
267.596	53.42
267.812	67.75
268.028	86.19
268.244	6.31
268.46	80.04
268.676	24.75
268.892	127.14
269.108	-20.31
269.324	51.37
269.54	18.6
269.756	45.23
269.972	-137.04
270.188	49.32
270.403	-53.08
270.619	84.14
270.835	80.04
271.051	28.84
271.267	2.22
271.483	2.22
271.698	69.8
271.914	24.75
272.13	61.61
272.346	41.13
272.562	59.56
272.777	92.33
272.993	-3.93
273.209	14.51
273.425	67.75
273.64	20.65
273.856	16.55
274.072	30.89
274.287	28.84
274.503	-34.64
274.719	69.8
274.934	-16.21
275.15	8.36
275.366	16.55
275.581	4.27
275.797	20.65
276.012	51.37
276.228	8.36
276.444	41.13
276.659	53.42
276.875	-5.97
277.09	73.9
277.306	45.23
277.521	100.52
277.737	63.66
277.952	49.32
278.168	84.14
278.383	71.85
278.599	61.61
278.814	133.29
279.03	37.03
279.245	108.71
279.461	37.03
279.676	26.79
279.892	-63.32
280.107	45.23
280.322	73.9
280.538	92.33
280.753	-18.26
280.969	73.9
281.184	65.71
281.399	0.17
281.615	-32.6
281.83	16.55
282.045	18.6
282.26	37.03
282.476	55.47
282.691	47.27
282.906	125.1
283.122	41.13
283.337	14.51
283.552	0.17
283.767	96.43
283.983	20.65
284.198	32.94
284.413	37.03
284.628	-53.08
284.843	43.18
285.058	-12.12
285.274	-42.84
285.489	4.27
285.704	53.42
285.919	0.17
286.134	6.31
286.349	37.03
286.564	-5.97
286.779	108.71
286.995	77.99
287.21	14.51
287.425	45.23
287.64	-24.4
287.855	41.13
288.07	80.04
288.285	98.47
288.5	82.09
288.715	45.23
288.93	16.55
289.145	30.89
289.36	43.18
289.575	41.13
289.79	20.65
290.004	-10.07
290.219	51.37
290.434	10.41
290.649	57.51
290.864	-26.45
291.079	61.61
291.294	37.03
291.509	24.75
291.724	61.61
291.938	-22.36
292.153	67.75
292.368	-30.55
292.583	18.6
292.798	84.14
293.012	34.99
293.227	49.32
293.442	-28.5
293.657	18.6
293.871	84.14
294.086	8.36
294.301	-10.07
294.516	45.23
294.73	-12.12
294.945	-16.21
295.16	59.56
295.374	116.9
295.589	34.99
295.804	22.7
296.018	39.08
296.233	116.9
296.447	26.79
296.662	-24.4
296.877	2.22
297.091	41.13
297.306	45.23
297.52	45.23
297.735	-34.64
297.949	51.37
298.164	-3.93
298.378	8.36
298.593	69.8
298.807	-20.31
299.022	45.23
299.236	100.52
299.451	2.22
299.665	88.23
299.88	18.6
300.094	0.17
300.309	37.03
300.523	82.09
300.737	-14.17
300.952	59.56
301.166	45.23
301.381	55.47
301.595	41.13
301.809	57.51
302.024	61.61
302.238	59.56
302.452	10.41
302.667	45.23
302.881	69.8
303.095	34.99
303.309	30.89
303.524	-28.5
303.738	57.51
303.952	-20.31
304.166	94.38
304.381	14.51
304.595	135.34
304.809	-40.79
305.023	28.84
305.237	39.08
305.452	-20.31
305.666	82.09
305.88	18.6
306.094	-22.36
306.308	110.76
306.522	32.94
306.736	28.84
306.95	47.27
307.164	12.46
307.379	65.71
307.593	149.67
307.807	82.09
308.021	73.9
308.235	26.79
308.449	14.51
308.663	100.52
308.877	125.1
309.091	-16.21
309.305	77.99
309.519	-12.12
309.733	133.29
309.947	-16.21
310.161	53.42
310.374	12.46
310.588	71.85
310.802	-34.64
311.016	47.27
311.23	-8.02
311.444	-34.64
311.658	20.65
311.872	4.27
312.085	37.03
312.299	94.38
312.513	67.75
312.727	37.03
312.941	20.65
313.154	71.85
313.368	84.14
313.582	32.94
313.796	94.38
314.009	53.42
314.223	-1.88
314.437	65.71
314.651	53.42
314.864	45.23
315.078	24.75
315.292	34.99
315.505	-10.07
315.719	32.94
315.933	20.65
316.146	24.75
316.36	-24.4
316.573	82.09
316.787	45.23
317.001	49.32
317.214	-67.41
317.428	-30.55
317.641	22.7
317.855	84.14
318.068	20.65
318.282	-22.36
318.495	125.1
318.709	20.65
318.922	28.84
319.136	127.14
319.349	106.67
319.563	30.89
319.776	-8.02
319.99	14.51
320.203	30.89
320.417	24.75
320.63	12.46
320.843	47.27
321.057	98.47
321.27	10.41
321.483	69.8
321.697	12.46
321.91	61.61
322.124	94.38
322.337	84.14
322.55	30.89
322.763	30.89
322.977	47.27
323.19	0.17
323.403	-16.21
323.617	75.95
323.83	-16.21
324.043	-8.02
324.256	37.03
324.469	8.36
324.683	55.47
324.896	61.61
325.109	61.61
325.322	10.41
325.535	41.13
325.748	28.84
325.962	41.13
326.175	0.17
326.388	49.32
326.601	43.18
326.814	37.03
327.027	12.46
327.24	82.09
327.453	45.23
327.666	65.71
327.879	30.89
328.092	26.79
328.305	53.42
328.518	-3.93
328.731	-20.31
328.944	67.75
329.157	-8.02
329.37	39.08
329.583	100.52
329.796	37.03
330.009	-18.26
330.222	53.42
330.435	26.79
330.648	8.36
330.861	53.42
331.073	88.23
331.286	57.51
331.499	75.95
331.712	-46.93
331.925	4.27
332.138	61.61
332.35	125.1
332.563	51.37
332.776	20.65
332.989	61.61
333.202	90.28
333.414	22.7
333.627	51.37
333.84	37.03
334.053	-28.5
334.265	12.46
334.478	39.08
334.691	53.42
334.903	92.33
335.116	61.61
335.329	18.6
335.541	112.81
335.754	51.37
335.966	-18.26
336.179	75.95
336.392	61.61
336.604	53.42
336.817	61.61
337.029	43.18
337.242	28.84
337.454	12.46
337.667	45.23
337.88	84.14
338.092	65.71
338.305	32.94
338.517	-5.97
338.729	30.89
338.942	59.56
339.154	14.51
339.367	20.65
339.579	20.65
339.792	63.66
340.004	69.8
340.217	143.53
340.429	-3.93
340.641	-3.93
340.854	18.6
341.066	16.55
341.278	28.84
341.491	104.62
341.703	20.65
341.915	8.36
342.128	18.6
342.34	121
342.552	45.23
342.764	37.03
342.977	24.75
343.189	18.6
343.401	-32.6
343.613	90.28
343.826	32.94
344.038	-3.93
344.25	59.56
344.462	2.22
344.674	100.52
344.886	34.99
345.099	-12.12
345.311	0.17
345.523	65.71
345.735	-53.08
345.947	69.8
346.159	32.94
346.371	96.43
346.583	57.51
346.795	102.57
347.007	10.41
347.219	86.19
347.431	-36.69
347.643	80.04
347.855	51.37
348.067	53.42
348.279	41.13
348.491	75.95
348.703	-12.12
348.915	65.71
349.127	61.61
349.339	0.17
349.551	59.56
349.763	88.23
349.975	28.84
350.187	77.99
350.399	57.51
350.61	47.27
350.822	125.1
351.034	94.38
351.246	12.46
351.458	100.52
351.669	28.84
351.881	51.37
352.093	100.52
352.305	53.42
352.517	-1.88
352.728	86.19
352.94	61.61
353.152	80.04
353.363	34.99
353.575	98.47
353.787	90.28
353.999	45.23
354.21	73.9
354.422	-30.55
354.633	84.14
354.845	71.85
355.057	51.37
355.268	102.57
355.48	121
355.692	59.56
355.903	77.99
356.115	-16.21
356.326	41.13
356.538	67.75
356.749	102.57
356.961	8.36
357.172	-14.17
357.384	-48.98
357.595	129.19
357.807	0.17
358.018	37.03
358.23	80.04
358.441	82.09
358.653	98.47
358.864	28.84
359.075	20.65
359.287	77.99
359.498	-8.02
359.709	86.19
359.921	63.66
360.132	57.51
360.344	75.95
360.555	8.36
360.766	28.84
360.977	-12.12
361.189	100.52
361.4	75.95
361.611	67.75
361.823	10.41
362.034	96.43
362.245	4.27
362.456	61.61
362.667	75.95
362.879	4.27
363.09	37.03
363.301	49.32
363.512	82.09
363.723	-44.88
363.935	45.23
364.146	110.76
364.357	24.75
364.568	51.37
364.779	10.41
364.99	57.51
365.201	75.95
365.412	53.42
365.623	-12.12
365.834	166.06
366.045	69.8
366.256	2.22
366.467	86.19
366.678	-16.21
366.889	32.94
367.1	69.8
367.311	12.46
367.522	37.03
367.733	65.71
367.944	43.18
368.155	24.75
368.366	43.18
368.577	98.47
368.788	61.61
368.999	-44.88
369.209	75.95
369.42	61.61
369.631	100.52
369.842	75.95
370.053	90.28
370.264	71.85
370.474	41.13
370.685	57.51
370.896	-44.88
371.107	32.94
371.317	65.71
371.528	86.19
371.739	24.75
371.95	41.13
372.16	129.19
372.371	37.03
372.582	65.71
372.792	30.89
373.003	45.23
373.214	86.19
373.424	41.13
373.635	49.32
373.846	98.47
374.056	84.14
374.267	125.1
374.477	69.8
374.688	112.81
374.898	-3.93
375.109	69.8
375.319	49.32
375.53	94.38
375.74	2.22
375.951	-18.26
376.161	80.04
376.372	65.71
376.582	69.8
376.793	127.14
377.003	4.27
377.214	20.65
377.424	-26.45
377.635	37.03
377.845	65.71
378.055	110.76
378.266	22.7
378.476	49.32
378.686	88.23
378.897	37.03
379.107	92.33
379.317	37.03
379.528	-5.97
379.738	125.1
379.948	14.51
380.158	123.05
380.369	96.43
380.579	123.05
380.789	45.23
380.999	69.8
381.21	75.95
381.42	34.99
381.63	67.75
381.84	75.95
382.05	90.28
382.261	123.05
382.471	69.8
382.681	69.8
382.891	82.09
383.101	94.38
383.311	94.38
383.521	37.03
383.731	55.47
383.941	155.82
384.151	57.51
384.361	104.62
384.571	86.19
384.781	59.56
384.991	98.47
385.201	96.43
385.411	47.27
385.621	71.85
385.831	77.99
386.041	80.04
386.251	67.75
386.461	114.86
386.671	32.94
386.881	104.62
387.091	94.38
387.301	114.86
387.511	53.42
387.72	118.95
387.93	100.52
388.14	73.9
388.35	155.82
388.56	69.8
388.769	110.76
388.979	82.09
389.189	22.7
389.399	47.27
389.609	69.8
389.818	184.49
390.028	26.79
390.238	98.47
390.447	90.28
390.657	84.14
390.867	77.99
391.076	67.75
391.286	108.71
391.496	98.47
391.705	34.99
391.915	106.67
392.125	123.05
392.334	77.99
392.544	106.67
392.753	77.99
392.963	133.29
393.172	151.72
393.382	77.99
393.591	164.01
393.801	14.51
394.01	157.86
394.22	92.33
394.429	24.75
394.639	80.04
394.848	67.75
395.058	63.66
395.267	65.71
395.477	104.62
395.686	49.32
395.895	118.95
396.105	170.15
396.314	116.9
396.524	61.61
396.733	77.99
396.942	141.48
397.152	90.28
397.361	108.71
397.57	106.67
397.78	127.14
397.989	172.2
398.198	164.01
398.407	84.14
398.617	131.24
398.826	51.37
399.035	151.72
399.244	184.49
399.453	172.2
399.663	106.67
399.872	110.76
400.081	82.09
400.29	204.97
400.499	116.9
400.708	121
400.917	59.56
401.127	164.01
401.336	123.05
401.545	121
401.754	139.43
401.963	247.97
402.172	198.82
402.381	139.43
402.59	127.14
402.799	221.35
403.008	176.3
403.217	172.2
403.426	176.3
403.635	143.53
403.844	102.57
404.053	139.43
404.262	182.44
404.471	190.63
404.68	180.39
404.888	155.82
405.097	196.78
405.306	88.23
405.515	211.11
405.724	196.78
405.933	227.5
406.142	260.26
406.35	190.63
406.559	151.72
406.768	233.64
406.977	256.17
407.185	305.32
407.394	204.97
407.603	174.25
407.812	305.32
408.02	309.41
408.229	229.54
408.438	266.41
408.646	247.97
408.855	315.56
409.064	268.45
409.272	280.74
409.481	340.13
409.69	348.33
409.898	286.89
410.107	342.18
410.315	352.42
410.524	360.61
410.733	379.04
410.941	405.67
411.15	475.3
411.358	430.24
411.567	483.49
411.775	479.4
411.984	446.63
412.192	450.72
412.401	532.64
412.609	524.45
412.818	551.07
413.026	592.03
413.234	725.15
413.443	680.1
413.651	583.84
413.86	737.44
414.068	655.52
414.276	721.06
414.485	688.29
414.693	743.58
414.901	729.25
415.11	802.97
415.318	829.6
415.526	876.7
415.734	817.31
415.943	936.09
416.151	927.9
416.359	923.8
416.567	1050.78
416.776	1071.26
416.984	1038.49
417.192	1257.62
417.4	1179.8
417.608	1206.42
417.817	1247.38
418.025	1296.53
418.233	1415.32
418.441	1372.31
418.649	1427.6
418.857	1509.52
419.065	1548.44
419.273	1613.97
419.481	1652.88
419.689	1841.29
419.897	1728.66
420.105	1769.62
420.313	1857.68
420.521	1992.84
420.729	1933.45
420.937	2027.66
421.145	2111.63
421.353	2273.42
421.561	2222.22
421.769	2314.38
421.977	2422.92
422.185	2537.6
422.393	2484.36
422.601	2807.94
422.809	2674.82
423.017	2836.61
423.224	2865.28
423.432	3000.44
423.64	2959.49
423.848	3180.67
424.056	3197.05
424.263	3481.72
424.471	3301.5
424.679	3475.57
424.887	3672.18
425.094	3743.86
425.302	3803.25
425.51	3928.17
425.718	4108.4
425.925	4018.29
426.133	4272.23
426.341	4554.85
426.548	4624.48
426.756	4663.4
426.964	4673.64
427.171	4816.99
427.379	5056.61
427.586	5206.11
427.794	5490.77
428.001	5587.03
428.209	5800.02
428.417	5677.14
428.624	6205.52
428.832	6297.67
429.039	6207.56
429.247	6164.56
429.454	6570.05
429.662	7153.73
429.869	6768.71
430.076	7211.07
430.284	7004.22
430.491	7313.47
430.699	7790.64
430.906	7721.01
431.114	7749.68
431.321	8134.7
431.528	8214.57
431.736	8785.96
431.943	9134.11
432.15	8908.83
432.358	8978.47
432.565	9566.23
432.772	9535.51
432.979	9943.06
433.187	10018.83
433.394	10067.99
433.601	10768.39
433.808	10854.41
434.016	10635.27
434.223	11421.69
434.43	12107.76
434.637	11687.93
434.844	12527.6
435.052	12804.07
435.259	12509.16
435.466	12754.92
435.673	12664.81
435.88	13502.43
436.087	14147.54
436.294	14290.9
436.501	13676.51
436.708	14131.16
436.915	14280.66
437.122	15155.14
437.329	14723.02
437.537	15544.25
437.743	16043.96
437.95	15816.63
438.157	16517.04
438.364	17364.9
438.571	17055.65
438.778	17014.7
438.985	18728.84
439.192	17784.73
439.399	18583.44
439.606	18208.66
439.813	19261.32
440.02	20221.81
440.227	19750.78
440.433	19908.47
440.64	20557.68
440.847	20301.68
441.054	20631.41
441.261	22021.98
441.467	21735.26
441.674	22300.5
441.881	23177.03
442.088	22898.51
442.294	22753.1
442.501	23502.66
442.708	23887.68
442.914	24878.9
443.121	25777.95
443.328	25116.46
443.534	26892.05
443.741	26107.68
443.948	25745.19
444.154	27563.78
444.361	27557.64
444.568	27715.33
444.774	27367.18
444.981	28143.36
445.187	28624.63
445.394	30260.96
445.6	29755.11
445.807	32456.38
446.013	30779.09
446.22	31684.3
446.426	32761.53
446.633	33107.63
446.839	34076.32
447.046	32284.35
447.252	34447.01
447.459	34743.96
447.665	34213.54
447.871	35821.19
448.078	37135.99
448.284	35395.21
448.491	36388.48
448.697	37817.96
448.903	38286.95
449.11	38413.92
449.316	37824.11
449.522	38153.83
449.728	38936.15
449.935	39499.34
450.141	39409.23
450.347	40394.31
450.553	39308.88
450.76	39644.75
450.966	40482.37
451.172	40191.56
451.378	41422.39
451.584	40496.7
451.791	41571.89
451.997	41016.89
452.203	41717.29
452.409	41850.41
452.615	41627.18
452.821	39820.88
453.027	39753.29
453.233	41965.1
453.44	40048.2
453.646	40298.05
453.852	40633.92
454.058	41094.71
454.264	39886.41
454.47	41129.53
454.676	39788.11
454.882	40994.36
455.088	37332.59
455.294	38102.63
455.5	38245.99
455.705	38946.39
455.911	37275.25
456.117	36599.42
456.323	35542.67
456.529	33994.4
456.735	35354.26
456.941	34825.88
457.147	34090.66
457.352	33115.83
457.558	32532.15
457.764	32800.44
457.97	31901.38
458.176	31069.9
458.381	31284.94
458.587	29603.56
458.793	29462.25
458.999	28497.66
459.204	30099.17
459.41	29517.54
459.616	27655.94
459.821	27684.61
460.027	27416.33
460.233	26605.33
460.438	25542.44
460.644	25976.61
460.85	24659.76
461.055	24198.97
461.261	24340.28
461.466	22304.6
461.672	21673.82
461.878	23129.93
462.083	21739.36
462.289	21366.63
462.494	21206.89
462.7	20494.19
462.905	19591.04
463.111	20361.08
463.316	20320.12
463.522	20105.08
463.727	20184.95
463.932	20045.69
464.138	20021.11
464.343	19892.09
464.549	19240.84
464.754	20117.37
464.959	19879.8
465.165	19576.7
465.37	18831.24
465.575	18446.23
465.781	19208.07
465.986	19439.49
466.191	18476.94
466.397	18055.06
466.602	17092.52
466.807	18063.26
467.012	17926.04
