Data from USB4F104151__44__10-23-05-898.txt Node

Date: Wed Mar 12 10:23:05 EDT 2025
User: louis
Spectrometer: USB4F10415
Trigger mode: 4
Integration Time (sec): 3.000000E-2
Scans to average: 1
Electric dark correction enabled: true
Nonlinearity correction enabled: false
Boxcar width: 0
XAxis mode: Wavelengths
Number of Pixels in Spectrum: 3648
>>>>>Begin Spectral Data<<<<<
178.204	-147.8
178.424	-147.8
178.644	-147.8
178.864	-135.51
179.084	-69.97
179.304	-12.63
179.524	7.85
179.744	30.38
179.964	28.33
180.184	-0.34
180.404	9.9
180.624	9.9
180.844	24.23
181.064	-100.69
181.283	-10.58
181.503	32.43
181.723	-18.77
181.943	-26.96
182.163	48.81
182.383	-8.53
182.602	40.62
182.822	69.29
183.042	-33.11
183.262	-35.16
183.482	42.67
183.701	11.95
183.921	38.57
184.141	69.29
184.361	48.81
184.58	69.29
184.8	48.81
185.02	7.85
185.239	102.06
185.459	48.81
185.679	22.19
185.898	-59.73
186.118	36.52
186.338	3.75
186.557	-33.11
186.777	-2.39
186.997	69.29
187.216	-0.34
187.436	38.57
187.655	-49.49
187.875	28.33
188.095	-2.39
188.314	65.19
188.534	22.19
188.753	11.95
188.973	-24.92
189.192	61.1
189.412	-12.63
189.631	-35.16
189.851	22.19
190.07	48.81
190.29	20.14
190.509	69.29
190.729	44.71
190.948	69.29
191.168	212.65
191.387	13.99
191.607	-24.92
191.826	36.52
192.045	3.75
192.265	65.19
192.484	7.85
192.704	69.29
192.923	20.14
193.142	20.14
193.362	11.95
193.581	93.87
193.8	65.19
194.02	-33.11
194.239	120.49
194.458	24.23
194.678	-45.4
194.897	40.62
195.116	16.04
195.335	38.57
195.555	67.24
195.774	5.8
195.993	30.38
196.212	-22.87
196.432	-8.53
196.651	44.71
196.87	54.95
197.089	34.47
197.308	93.87
197.528	42.67
197.747	1.71
197.966	24.23
198.185	63.15
198.404	46.76
198.623	112.3
198.842	22.19
199.062	83.63
199.281	3.75
199.5	-14.68
199.719	1.71
199.938	71.34
200.157	40.62
200.376	36.52
200.595	118.44
200.814	5.8
201.033	-57.68
201.252	44.71
201.471	36.52
201.69	100.01
201.909	3.75
202.128	73.39
202.347	89.77
202.566	-0.34
202.785	-67.92
203.004	-12.63
203.223	59.05
203.442	32.43
203.661	54.95
203.879	13.99
204.098	75.43
204.317	7.85
204.536	-10.58
204.755	91.82
204.974	24.23
205.193	-6.49
205.411	93.87
205.63	-29.01
205.849	71.34
206.068	73.39
206.287	91.82
206.505	9.9
206.724	22.19
206.943	11.95
207.162	-0.34
207.381	65.19
207.599	77.48
207.818	-12.63
208.037	42.67
208.255	32.43
208.474	-53.59
208.693	20.14
208.911	85.67
209.13	-39.25
209.349	87.72
209.567	91.82
209.786	69.29
210.005	-0.34
210.223	11.95
210.442	-26.96
210.661	46.76
210.879	18.09
211.098	32.43
211.316	22.19
211.535	26.28
211.753	36.52
211.972	16.04
212.191	48.81
212.409	54.95
212.628	-14.68
212.846	-20.82
213.065	42.67
213.283	77.48
213.502	24.23
213.72	57
213.938	48.81
214.157	-2.39
214.375	89.77
214.594	48.81
214.812	81.58
215.031	79.53
215.249	-45.4
215.467	28.33
215.686	63.15
215.904	32.43
216.122	126.63
216.341	81.58
216.559	11.95
216.778	83.63
216.996	138.92
217.214	48.81
217.432	18.09
217.651	22.19
217.869	-8.53
218.087	-16.73
218.306	-10.58
218.524	50.86
218.742	28.33
218.96	-4.44
219.179	30.38
219.397	40.62
219.615	-33.11
219.833	-2.39
220.051	11.95
220.27	71.34
220.488	24.23
220.706	65.19
220.924	-84.31
221.142	-14.68
221.36	3.75
221.578	-33.11
221.796	-53.59
222.015	75.43
222.233	93.87
222.451	44.71
222.669	7.85
222.887	54.95
223.105	-10.58
223.323	85.67
223.541	-33.11
223.759	48.81
223.977	-2.39
224.195	9.9
224.413	16.04
224.631	-24.92
224.849	71.34
225.067	122.54
225.285	69.29
225.503	-20.82
225.721	11.95
225.939	87.72
226.157	42.67
226.375	91.82
226.592	61.1
226.81	32.43
227.028	85.67
227.246	52.91
227.464	20.14
227.682	97.96
227.9	11.95
228.117	63.15
228.335	5.8
228.553	-8.53
228.771	69.29
228.989	134.82
229.206	93.87
229.424	5.8
229.642	57
229.86	83.63
230.077	-10.58
230.295	-20.82
230.513	97.96
230.731	-8.53
230.948	44.71
231.166	28.33
231.384	24.23
231.601	28.33
231.819	-37.2
232.037	-26.96
232.254	16.04
232.472	38.57
232.689	48.81
232.907	20.14
233.125	-0.34
233.342	-24.92
233.56	9.9
233.777	67.24
233.995	13.99
234.213	63.15
234.43	65.19
234.648	54.95
234.865	-35.16
235.083	38.57
235.3	26.28
235.518	34.47
235.735	57
235.953	110.25
236.17	57
236.388	-8.53
236.605	34.47
236.822	89.77
237.04	85.67
237.257	26.28
237.475	-10.58
237.692	40.62
237.909	18.09
238.127	34.47
238.344	71.34
238.562	26.28
238.779	34.47
238.996	22.19
239.214	-14.68
239.431	40.62
239.648	44.71
239.865	9.9
240.083	116.39
240.3	7.85
240.517	5.8
240.735	30.38
240.952	22.19
241.169	65.19
241.386	38.57
241.603	97.96
241.821	-37.2
242.038	44.71
242.255	61.1
242.472	1.71
242.689	-29.01
242.907	67.24
243.124	102.06
243.341	-8.53
243.558	28.33
243.775	-16.73
243.992	-33.11
244.209	24.23
244.426	89.77
244.643	9.9
244.86	20.14
245.078	-39.25
245.295	7.85
245.512	-29.01
245.729	-45.4
245.946	26.28
246.163	46.76
246.38	13.99
246.597	30.38
246.814	34.47
247.031	44.71
247.248	-12.63
247.464	-16.73
247.681	50.86
247.898	-10.58
248.115	81.58
248.332	-33.11
248.549	57
248.766	-22.87
248.983	73.39
249.2	30.38
249.417	-6.49
249.633	36.52
249.85	102.06
250.067	48.81
250.284	42.67
250.501	7.85
250.717	-8.53
250.934	-49.49
251.151	-8.53
251.368	54.95
251.585	40.62
251.801	5.8
252.018	-16.73
252.235	102.06
252.451	87.72
252.668	-4.44
252.885	16.04
253.102	5.8
253.318	57
253.535	-26.96
253.752	5.8
253.968	-29.01
254.185	11.95
254.401	57
254.618	46.76
254.835	11.95
255.051	93.87
255.268	-8.53
255.484	13.99
255.701	44.71
255.917	-0.34
256.134	-0.34
256.351	40.62
256.567	-8.53
256.784	65.19
257	9.9
257.217	52.91
257.433	3.75
257.65	85.67
257.866	95.91
258.082	30.38
258.299	-20.82
258.515	61.1
258.732	-26.96
258.948	5.8
259.165	7.85
259.381	30.38
259.597	24.23
259.814	-8.53
260.03	28.33
260.246	16.04
260.463	34.47
260.679	3.75
260.895	-4.44
261.112	93.87
261.328	-4.44
261.544	34.47
261.761	73.39
261.977	61.1
262.193	61.1
262.409	48.81
262.626	16.04
262.842	46.76
263.058	-26.96
263.274	50.86
263.49	46.76
263.707	75.43
263.923	-65.88
264.139	24.23
264.355	44.71
264.571	48.81
264.787	-18.77
265.004	-16.73
265.22	32.43
265.436	63.15
265.652	73.39
265.868	11.95
266.084	34.47
266.3	77.48
266.516	30.38
266.732	13.99
266.948	20.14
267.164	63.15
267.38	77.48
267.596	-4.44
267.812	54.95
268.028	67.24
268.244	32.43
268.46	61.1
268.676	5.8
268.892	81.58
269.108	5.8
269.324	54.95
269.54	-53.59
269.756	71.34
269.972	36.52
270.188	16.04
270.403	-20.82
270.619	44.71
270.835	-2.39
271.051	-22.87
271.267	81.58
271.483	36.52
271.698	69.29
271.914	48.81
272.13	26.28
272.346	-26.96
272.562	61.1
272.777	40.62
272.993	114.34
273.209	42.67
273.425	89.77
273.64	65.19
273.856	54.95
274.072	11.95
274.287	-4.44
274.503	-31.06
274.719	34.47
274.934	28.33
275.15	-31.06
275.366	-65.88
275.581	57
275.797	-0.34
276.012	5.8
276.228	11.95
276.444	63.15
276.659	61.1
276.875	-20.82
277.09	28.33
277.306	-35.16
277.521	7.85
277.737	28.33
277.952	30.38
278.168	54.95
278.383	-16.73
278.599	3.75
278.814	52.91
279.03	-14.68
279.245	89.77
279.461	-12.63
279.676	114.34
279.892	16.04
280.107	7.85
280.322	48.81
280.538	-29.01
280.753	48.81
280.969	40.62
281.184	-8.53
281.399	93.87
281.615	36.52
281.83	1.71
282.045	54.95
282.26	75.43
282.476	69.29
282.691	75.43
282.906	9.9
283.122	28.33
283.337	38.57
283.552	67.24
283.767	48.81
283.983	36.52
284.198	48.81
284.413	-53.59
284.628	-80.21
284.843	11.95
285.058	9.9
285.274	7.85
285.489	22.19
285.704	59.05
285.919	-4.44
286.134	18.09
286.349	-0.34
286.564	-33.11
286.779	87.72
286.995	28.33
287.21	-4.44
287.425	81.58
287.64	-47.44
287.855	30.38
288.07	7.85
288.285	57
288.5	73.39
288.715	75.43
288.93	48.81
289.145	-18.77
289.36	16.04
289.575	16.04
289.79	38.57
290.004	-16.73
290.219	71.34
290.434	-22.87
290.649	-14.68
290.864	112.3
291.079	120.49
291.294	77.48
291.509	-4.44
291.724	57
291.938	1.71
292.153	75.43
292.368	114.34
292.583	32.43
292.798	13.99
293.012	11.95
293.227	118.44
293.442	11.95
293.657	57
293.871	1.71
294.086	18.09
294.301	89.77
294.516	48.81
294.73	73.39
294.945	-26.96
295.16	24.23
295.374	50.86
295.589	26.28
295.804	38.57
296.018	81.58
296.233	30.38
296.447	61.1
296.662	9.9
296.877	54.95
297.091	95.91
297.306	3.75
297.52	57
297.735	38.57
297.949	110.25
298.164	71.34
298.378	67.24
298.593	20.14
298.807	32.43
299.022	118.44
299.236	-0.34
299.451	61.1
299.665	83.63
299.88	11.95
300.094	59.05
300.309	30.38
300.523	52.91
300.737	20.14
300.952	44.71
301.166	42.67
301.381	28.33
301.595	100.01
301.809	-6.49
302.024	46.76
302.238	65.19
302.452	61.1
302.667	61.1
302.881	100.01
303.095	63.15
303.309	52.91
303.524	81.58
303.738	32.43
303.952	-74.07
304.166	65.19
304.381	32.43
304.595	30.38
304.809	9.9
305.023	69.29
305.237	34.47
305.452	24.23
305.666	57
305.88	-8.53
306.094	46.76
306.308	11.95
306.522	85.67
306.736	44.71
306.95	1.71
307.164	73.39
307.379	40.62
307.593	110.25
307.807	73.39
308.021	63.15
308.235	40.62
308.449	-0.34
308.663	-2.39
308.877	63.15
309.091	44.71
309.305	65.19
309.519	20.14
309.733	22.19
309.947	-57.68
310.161	-16.73
310.374	65.19
310.588	42.67
310.802	-0.34
311.016	-57.68
311.23	67.24
311.444	13.99
311.658	32.43
311.872	3.75
312.085	-4.44
312.299	20.14
312.513	38.57
312.727	26.28
312.941	-26.96
313.154	-0.34
313.368	42.67
313.582	71.34
313.796	-0.34
314.009	42.67
314.223	36.52
314.437	13.99
314.651	7.85
314.864	-16.73
315.078	-4.44
315.292	42.67
315.505	46.76
315.719	67.24
315.933	38.57
316.146	28.33
316.36	89.77
316.573	65.19
316.787	-6.49
317.001	124.58
317.214	79.53
317.428	20.14
317.641	16.04
317.855	81.58
318.068	20.14
318.282	46.76
318.495	61.1
318.709	28.33
318.922	-20.82
319.136	106.15
319.349	116.39
319.563	-18.77
319.776	63.15
319.99	24.23
320.203	54.95
320.417	46.76
320.63	44.71
320.843	38.57
321.057	63.15
321.27	18.09
321.483	20.14
321.697	89.77
321.91	9.9
322.124	65.19
322.337	20.14
322.55	-18.77
322.763	11.95
322.977	50.86
323.19	-10.58
323.403	126.63
323.617	28.33
323.83	116.39
324.043	7.85
324.256	87.72
324.469	11.95
324.683	40.62
324.896	20.14
325.109	22.19
325.322	18.09
325.535	128.68
325.748	26.28
325.962	9.9
326.175	32.43
326.388	71.34
326.601	22.19
326.814	48.81
327.027	75.43
327.24	32.43
327.453	13.99
327.666	52.91
327.879	61.1
328.092	-8.53
328.305	71.34
328.518	36.52
328.731	-20.82
328.944	32.43
329.157	73.39
329.37	-18.77
329.583	9.9
329.796	34.47
330.009	75.43
330.222	138.92
330.435	77.48
330.648	44.71
330.861	28.33
331.073	26.28
331.286	93.87
331.499	7.85
331.712	-10.58
331.925	-0.34
332.138	-31.06
332.35	81.58
332.563	-0.34
332.776	36.52
332.989	36.52
333.202	-20.82
333.414	65.19
333.627	48.81
333.84	-0.34
334.053	73.39
334.265	11.95
334.478	46.76
334.691	-24.92
334.903	22.19
335.116	91.82
335.329	7.85
335.541	13.99
335.754	118.44
335.966	13.99
336.179	40.62
336.392	57
336.604	-14.68
336.817	-41.3
337.029	46.76
337.242	1.71
337.454	26.28
337.667	13.99
337.88	143.02
338.092	-0.34
338.305	13.99
338.517	-8.53
338.729	11.95
338.942	163.5
339.154	-8.53
339.367	-26.96
339.579	77.48
339.792	7.85
340.004	102.06
340.217	59.05
340.429	11.95
340.641	9.9
340.854	38.57
341.066	-22.87
341.278	26.28
341.491	36.52
341.703	36.52
341.915	9.9
342.128	85.67
342.34	32.43
342.552	54.95
342.764	81.58
342.977	-16.73
343.189	26.28
343.401	65.19
343.613	-26.96
343.826	13.99
344.038	-0.34
344.25	24.23
344.462	-24.92
344.674	77.48
344.886	40.62
345.099	38.57
345.311	20.14
345.523	11.95
345.735	-63.83
345.947	57
346.159	100.01
346.371	32.43
346.583	91.82
346.795	159.4
347.007	11.95
347.219	36.52
347.431	-20.82
347.643	122.54
347.855	32.43
348.067	85.67
348.279	34.47
348.491	38.57
348.703	1.71
348.915	34.47
349.127	-12.63
349.339	89.77
349.551	28.33
349.763	18.09
349.975	77.48
350.187	57
350.399	83.63
350.61	71.34
350.822	-12.63
351.034	9.9
351.246	42.67
351.458	40.62
351.669	81.58
351.881	-51.54
352.093	46.76
352.305	81.58
352.517	57
352.728	-14.68
352.94	69.29
353.152	104.11
353.363	65.19
353.575	118.44
353.787	-0.34
353.999	26.28
354.21	100.01
354.422	63.15
354.633	32.43
354.845	30.38
355.057	-18.77
355.268	44.71
355.48	91.82
355.692	7.85
355.903	91.82
356.115	28.33
356.326	11.95
356.538	32.43
356.749	22.19
356.961	73.39
357.172	42.67
357.384	75.43
357.595	57
357.807	16.04
358.018	69.29
358.23	-12.63
358.441	149.16
358.653	40.62
358.864	110.25
359.075	46.76
359.287	40.62
359.498	48.81
359.709	42.67
359.921	52.91
360.132	87.72
360.344	42.67
360.555	40.62
360.766	63.15
360.977	44.71
361.189	-4.44
361.4	30.38
361.611	65.19
361.823	95.91
362.034	50.86
362.245	-51.54
362.456	28.33
362.667	46.76
362.879	9.9
363.09	22.19
363.301	48.81
363.512	3.75
363.723	3.75
363.935	-4.44
364.146	79.53
364.357	-0.34
364.568	40.62
364.779	24.23
364.99	40.62
365.201	-49.49
365.412	87.72
365.623	1.71
365.834	48.81
366.045	112.3
366.256	95.91
366.467	16.04
366.678	-39.25
366.889	81.58
367.1	-0.34
367.311	32.43
367.522	-47.44
367.733	104.11
367.944	83.63
368.155	-6.49
368.366	3.75
368.577	73.39
368.788	69.29
368.999	-26.96
369.209	87.72
369.42	42.67
369.631	128.68
369.842	108.2
370.053	5.8
370.264	95.91
370.474	73.39
370.685	151.21
370.896	87.72
371.107	89.77
371.317	-10.58
371.528	52.91
371.739	89.77
371.95	63.15
372.16	36.52
372.371	11.95
372.582	-24.92
372.792	24.23
373.003	57
373.214	57
373.424	87.72
373.635	-2.39
373.846	57
374.056	77.48
374.267	7.85
374.477	61.1
374.688	-2.39
374.898	93.87
375.109	48.81
375.319	79.53
375.53	50.86
375.74	-8.53
375.951	63.15
376.161	63.15
376.372	-0.34
376.582	73.39
376.793	54.95
377.003	106.15
377.214	-22.87
377.424	-22.87
377.635	40.62
377.845	42.67
378.055	97.96
378.266	11.95
378.476	40.62
378.686	40.62
378.897	-2.39
379.107	-33.11
379.317	93.87
379.528	22.19
379.738	122.54
379.948	44.71
380.158	128.68
380.369	38.57
380.579	104.11
380.789	67.24
380.999	20.14
381.21	110.25
381.42	175.78
381.63	28.33
381.84	-16.73
382.05	-63.83
382.261	106.15
382.471	110.25
382.681	48.81
382.891	89.77
383.101	114.34
383.311	26.28
383.521	71.34
383.731	71.34
383.941	95.91
384.151	138.92
384.361	61.1
384.571	57
384.781	67.24
384.991	77.48
385.201	40.62
385.411	83.63
385.621	57
385.831	18.09
386.041	57
386.251	16.04
386.461	7.85
386.671	77.48
386.881	73.39
387.091	22.19
387.301	63.15
387.511	36.52
387.72	69.29
387.93	26.28
388.14	7.85
388.35	38.57
388.56	75.43
388.769	5.8
388.979	143.02
389.189	36.52
389.399	30.38
389.609	79.53
389.818	112.3
390.028	110.25
390.238	40.62
390.447	46.76
390.657	79.53
390.867	112.3
391.076	91.82
391.286	89.77
391.496	30.38
391.705	28.33
391.915	143.02
392.125	89.77
392.334	128.68
392.544	100.01
392.753	40.62
392.963	50.86
393.172	132.78
393.382	50.86
393.591	61.1
393.801	54.95
394.01	128.68
394.22	52.91
394.429	97.96
394.639	71.34
394.848	157.35
395.058	-59.73
395.267	106.15
395.477	118.44
395.686	85.67
395.895	77.48
396.105	145.06
396.314	153.26
396.524	65.19
396.733	63.15
396.942	100.01
397.152	128.68
397.361	112.3
397.57	128.68
397.78	126.63
397.989	16.04
398.198	40.62
398.407	112.3
398.617	118.44
398.826	140.97
399.035	77.48
399.244	81.58
399.453	147.11
399.663	159.4
399.872	161.45
400.081	114.34
400.29	106.15
400.499	57
400.708	153.26
400.917	116.39
401.127	145.06
401.336	110.25
401.545	237.22
401.754	208.55
401.963	110.25
402.172	106.15
402.381	122.54
402.59	110.25
402.799	134.82
403.008	171.69
403.217	116.39
403.426	122.54
403.635	161.45
403.844	122.54
404.053	212.65
404.262	112.3
404.471	202.41
404.68	120.49
404.888	167.59
405.097	132.78
405.306	151.21
405.515	188.07
405.724	143.02
405.933	235.18
406.142	186.02
406.35	208.55
406.559	167.59
406.768	106.15
406.977	186.02
407.185	206.5
407.394	226.98
407.603	165.54
407.812	229.03
408.02	204.46
408.229	251.56
408.438	229.03
408.646	263.85
408.855	284.33
409.064	288.42
409.272	274.09
409.481	302.76
409.69	302.76
409.898	396.96
410.107	343.72
410.315	329.38
410.524	288.42
410.733	411.3
410.941	394.92
411.15	386.72
411.358	429.73
411.567	362.15
411.775	425.64
411.984	450.21
412.192	589.47
412.401	454.31
412.609	609.95
412.818	489.12
413.026	501.41
413.234	511.65
413.443	558.75
413.651	566.95
413.86	581.28
414.068	614.05
414.276	618.15
414.485	685.73
414.693	673.44
414.901	702.11
415.11	800.41
415.318	788.13
415.526	841.37
415.734	824.99
415.943	831.13
416.151	913.05
416.359	892.57
416.567	827.04
416.776	992.92
416.984	1064.6
417.192	1085.08
417.4	1021.6
417.608	1080.99
417.817	1228.44
418.025	1218.2
418.233	1291.93
418.441	1308.31
418.649	1275.54
418.857	1427.09
419.065	1410.71
419.273	1431.19
419.481	1447.57
419.689	1611.41
419.897	1605.27
420.105	1683.09
420.313	1773.2
420.521	1803.92
420.729	1744.53
420.937	1941.13
421.145	1930.89
421.353	1994.38
421.561	2180.75
421.769	2057.87
421.977	2252.42
422.185	2178.7
422.393	2406.02
422.601	2416.26
422.809	2477.7
423.017	2514.56
423.224	2594.44
423.432	2772.61
423.64	2799.23
423.848	2950.78
424.056	2909.82
424.263	3051.13
424.471	3145.34
424.679	3212.92
424.887	3309.18
425.094	3575.41
425.302	3522.16
425.51	3643
425.718	3720.82
425.925	3714.67
426.133	3769.97
426.341	4013.68
426.548	4300.39
426.756	4365.93
426.964	4306.54
427.171	4650.6
427.379	4691.56
427.586	4931.17
427.794	4929.12
428.001	5115.48
428.209	5449.3
428.417	5262.94
428.624	5617.24
428.832	5766.74
429.039	5699.16
429.247	5703.25
429.454	6051.41
429.662	6512.2
429.869	6133.33
430.076	6549.06
430.284	6305.35
430.491	6737.48
430.699	6938.18
430.906	7126.59
431.114	7163.45
431.321	7458.36
431.528	7466.55
431.736	8101.42
431.943	8451.63
432.15	8093.23
432.358	8076.85
432.565	8756.77
432.772	8472.11
432.979	9170.46
433.187	9133.6
433.394	9371.16
433.601	9842.2
433.808	10001.94
434.016	9821.72
434.223	10157.58
434.43	10954.24
434.637	10780.17
434.844	11525.63
435.052	11335.17
435.259	11384.32
435.466	11419.13
435.673	11415.04
435.88	12152.31
436.087	12729.83
436.294	12836.33
436.501	12252.66
436.708	12631.53
436.915	13264.35
437.122	13970.9
437.329	13600.22
437.537	14167.51
437.743	14425.55
437.95	14249.43
438.157	15019.46
438.364	15361.47
438.571	15519.17
438.778	15723.96
438.985	17135.01
439.192	16367.02
439.399	16946.6
439.606	16405.94
439.813	17462.69
440.02	18642.32
440.227	18050.46
440.433	18023.83
440.64	18627.98
440.847	18486.67
441.054	18937.23
441.261	19942.78
441.467	19729.79
441.674	20340.08
441.881	20907.37
442.088	20825.45
442.294	20837.74
442.501	21523.81
442.708	21519.71
442.914	22680.91
443.121	23706.94
443.328	23084.36
443.534	24661.3
443.741	23739.71
443.948	23694.66
444.154	25144.62
444.361	24913.2
444.568	25312.55
444.774	25083.18
444.981	25335.08
445.187	25992.48
445.394	27321.61
445.6	26768.66
445.807	29293.8
446.013	28200.19
446.22	28898.55
446.426	29668.58
446.633	29734.12
446.839	30692.57
447.046	29385.96
447.252	31458.51
447.459	31159.5
447.665	31012.05
447.871	32654.52
448.078	33793.19
448.284	32302.27
448.491	33023.15
448.697	34378.91
448.903	35069.08
449.11	34927.77
449.316	34370.72
449.522	34880.66
449.728	36117.64
449.935	35998.85
450.141	36117.64
450.347	36734.07
450.553	35650.7
450.76	36002.95
450.966	37244.02
451.172	36568.19
451.378	37282.93
451.584	36668.54
451.791	37520.49
451.997	37684.33
452.203	38214.76
452.409	38204.52
452.615	37835.88
452.821	36365.44
453.027	36097.16
453.233	37938.28
453.44	36424.83
453.646	36705.4
453.852	37135.48
454.058	37616.75
454.264	36256.9
454.47	37475.44
454.676	36172.93
454.882	37246.07
455.088	33674.41
455.294	34540.7
455.5	34800.79
455.705	35089.56
455.911	33705.13
456.117	32978.1
456.323	32484.54
456.529	31188.17
456.735	32195.78
456.941	31030.48
457.147	30975.19
457.352	30088.42
457.558	29603.05
457.764	29904.1
457.97	28992.75
458.176	28833.01
458.381	28497.14
458.587	27327.75
458.793	27016.46
458.999	25660.71
459.204	27473.16
459.41	26563.86
459.616	24935.73
459.821	24950.06
460.027	25097.52
460.233	24474.93
460.438	23102.79
460.644	23493.96
460.85	22357.33
461.055	22084.95
461.261	21857.63
461.466	20587.89
461.672	19647.87
461.878	21243.24
462.083	19901.82
462.289	19561.86
462.494	19002.76
462.7	18417.04
462.905	17999.26
463.111	18328.98
463.316	18691.47
463.522	18070.93
463.727	18204.05
463.932	17868.19
464.138	18062.74
464.343	18183.57
464.549	17522.08
464.754	18058.65
464.959	18081.17
465.165	17937.82
465.37	17124.77
465.575	16836.01
465.781	17569.18
465.986	17597.85
466.191	16774.57
466.397	16530.86
466.602	15924.66
466.807	16412.08
467.012	16350.64
467.218	16135.6
467.423	15941.05
467.628	16149.94
467.833	16940.46
