Data from USB4F104151__117__10-25-02-856.txt Node

Date: Wed Mar 12 10:25:02 EDT 2025
User: louis
Spectrometer: USB4F10415
Trigger mode: 4
Integration Time (sec): 3.000000E-2
Scans to average: 1
Electric dark correction enabled: true
Nonlinearity correction enabled: false
Boxcar width: 0
XAxis mode: Wavelengths
Number of Pixels in Spectrum: 3648
>>>>>Begin Spectral Data<<<<<
178.204	-78.33
178.424	-78.33
178.644	-78.33
178.864	-104.96
179.084	-147.97
179.304	-6.66
179.524	7.68
179.744	-35.33
179.964	67.07
180.184	-6.66
180.404	-20.99
180.624	26.11
180.844	30.21
181.064	-18.94
181.283	-14.85
181.503	-14.85
181.723	-12.8
181.943	-37.38
182.163	103.93
182.383	93.69
182.602	-16.9
182.822	36.35
183.042	60.93
183.262	87.55
183.482	83.45
183.701	48.64
183.921	22.02
184.141	22.02
184.361	24.06
184.58	26.11
184.8	105.98
185.02	103.93
185.239	87.55
185.459	67.07
185.679	13.82
185.898	69.12
186.118	58.88
186.338	-0.51
186.557	77.31
186.777	116.22
186.997	22.02
187.216	13.82
187.436	1.54
187.655	17.92
187.875	32.26
188.095	11.78
188.314	52.74
188.534	73.21
188.753	67.07
188.973	67.07
189.192	71.17
189.412	83.45
189.631	26.11
189.851	17.92
190.07	101.89
190.29	22.02
190.509	15.87
190.729	-0.51
190.948	1.54
191.168	153.09
191.387	22.02
191.607	9.73
191.826	44.54
192.045	48.64
192.265	32.26
192.484	44.54
192.704	65.02
192.923	17.92
193.142	99.84
193.362	95.74
193.581	97.79
193.8	-31.23
194.02	93.69
194.239	42.5
194.458	71.17
194.678	-6.66
194.897	42.5
195.116	-47.62
195.335	1.54
195.555	-61.95
195.774	-16.9
195.993	67.07
196.212	65.02
196.432	17.92
196.651	60.93
196.87	7.68
197.089	69.12
197.308	67.07
197.528	24.06
197.747	-31.23
197.966	54.78
198.185	99.84
198.404	62.98
198.623	9.73
198.842	-37.38
199.062	65.02
199.281	38.4
199.5	11.78
199.719	48.64
199.938	34.3
200.157	144.89
200.376	22.02
200.595	130.56
200.814	-35.33
201.033	36.35
201.252	38.4
201.471	30.21
201.69	48.64
201.909	28.16
202.128	-12.8
202.347	62.98
202.566	-16.9
202.785	13.82
203.004	38.4
203.223	77.31
203.442	17.92
203.661	7.68
203.879	65.02
204.098	60.93
204.317	-25.09
204.536	60.93
204.755	93.69
204.974	93.69
205.193	46.59
205.411	136.7
205.63	-2.56
205.849	56.83
206.068	-2.56
206.287	50.69
206.505	-8.7
206.724	62.98
206.943	81.41
207.162	-37.38
207.381	54.78
207.599	-35.33
207.818	65.02
208.037	-12.8
208.255	3.58
208.474	38.4
208.693	17.92
208.911	44.54
209.13	40.45
209.349	-0.51
209.567	-2.56
209.786	81.41
210.005	32.26
210.223	32.26
210.442	7.68
210.661	5.63
210.879	-43.52
211.098	-10.75
211.316	28.16
211.535	124.41
211.753	-10.75
211.972	17.92
212.191	11.78
212.409	34.3
212.628	-2.56
212.846	62.98
213.065	30.21
213.283	81.41
213.502	30.21
213.72	38.4
213.938	-14.85
214.157	69.12
214.375	153.09
214.594	-12.8
214.812	15.87
215.031	103.93
215.249	48.64
215.467	22.02
215.686	56.83
215.904	-6.66
216.122	-6.66
216.341	56.83
216.559	19.97
216.778	60.93
216.996	69.12
217.214	-57.86
217.432	26.11
217.651	42.5
217.869	71.17
218.087	-16.9
218.306	-16.9
218.524	52.74
218.742	5.63
218.96	48.64
219.179	34.3
219.397	75.26
219.615	50.69
219.833	38.4
220.051	71.17
220.27	56.83
220.488	58.88
220.706	46.59
220.924	-51.71
221.142	1.54
221.36	-39.42
221.578	9.73
221.796	24.06
222.015	69.12
222.233	50.69
222.451	161.28
222.669	42.5
222.887	42.5
223.105	56.83
223.323	-4.61
223.541	24.06
223.759	69.12
223.977	42.5
224.195	110.08
224.413	42.5
224.631	-33.28
224.849	38.4
225.067	42.5
225.285	-64
225.503	9.73
225.721	7.68
225.939	103.93
226.157	50.69
226.375	81.41
226.592	-6.66
226.81	65.02
227.028	50.69
227.246	67.07
227.464	30.21
227.682	116.22
227.9	73.21
228.117	36.35
228.335	81.41
228.553	17.92
228.771	1.54
228.989	54.78
229.206	95.74
229.424	38.4
229.642	-16.9
229.86	79.36
230.077	75.26
230.295	42.5
230.513	-29.18
230.731	28.16
230.948	77.31
231.166	93.69
231.384	-16.9
231.601	28.16
231.819	73.21
232.037	42.5
232.254	30.21
232.472	11.78
232.689	87.55
232.907	56.83
233.125	30.21
233.342	9.73
233.56	19.97
233.777	13.82
233.995	-16.9
234.213	89.6
234.43	58.88
234.648	-10.75
234.865	112.13
235.083	15.87
235.3	40.45
235.518	50.69
235.735	42.5
235.953	140.8
236.17	17.92
236.388	-45.57
236.605	38.4
236.822	71.17
237.04	56.83
237.257	-10.75
237.475	-23.04
237.692	40.45
237.909	67.07
238.127	19.97
238.344	-4.61
238.562	13.82
238.779	-27.14
238.996	-12.8
239.214	24.06
239.431	83.45
239.648	97.79
239.865	89.6
240.083	108.03
240.3	40.45
240.517	9.73
240.735	15.87
240.952	124.41
241.169	93.69
241.386	79.36
241.603	83.45
241.821	7.68
242.038	40.45
242.255	30.21
242.472	-14.85
242.689	-10.75
242.907	75.26
243.124	13.82
243.341	36.35
243.558	17.92
243.775	77.31
243.992	-2.56
244.209	71.17
244.426	114.17
244.643	101.89
244.86	52.74
245.078	58.88
245.295	50.69
245.512	79.36
245.729	48.64
245.946	38.4
246.163	13.82
246.38	34.3
246.597	-16.9
246.814	26.11
247.031	73.21
247.248	9.73
247.464	71.17
247.681	50.69
247.898	83.45
248.115	69.12
248.332	56.83
248.549	40.45
248.766	81.41
248.983	67.07
249.2	38.4
249.417	11.78
249.633	-6.66
249.85	71.17
250.067	1.54
250.284	89.6
250.501	17.92
250.717	75.26
250.934	50.69
251.151	19.97
251.368	50.69
251.585	38.4
251.801	-6.66
252.018	7.68
252.235	30.21
252.451	-25.09
252.668	75.26
252.885	44.54
253.102	95.74
253.318	50.69
253.535	-2.56
253.752	38.4
253.968	3.58
254.185	65.02
254.401	40.45
254.618	3.58
254.835	30.21
255.051	65.02
255.268	17.92
255.484	52.74
255.701	42.5
255.917	56.83
256.134	-72.19
256.351	19.97
256.567	34.3
256.784	73.21
257	13.82
257.217	48.64
257.433	54.78
257.65	91.65
257.866	58.88
258.082	32.26
258.299	1.54
258.515	-10.75
258.732	-88.57
258.948	-6.66
259.165	26.11
259.381	67.07
259.597	1.54
259.814	26.11
260.03	-12.8
260.246	24.06
260.463	17.92
260.679	75.26
260.895	81.41
261.112	19.97
261.328	13.82
261.544	32.26
261.761	140.8
261.977	140.8
262.193	-20.99
262.409	75.26
262.626	30.21
262.842	89.6
263.058	-6.66
263.274	50.69
263.49	-14.85
263.707	69.12
263.923	67.07
264.139	67.07
264.355	-6.66
264.571	50.69
264.787	95.74
265.004	54.78
265.22	42.5
265.436	87.55
265.652	-18.94
265.868	9.73
266.084	-6.66
266.3	56.83
266.516	93.69
266.732	52.74
266.948	75.26
267.164	85.5
267.38	87.55
267.596	38.4
267.812	83.45
268.028	81.41
268.244	50.69
268.46	-16.9
268.676	1.54
268.892	65.02
269.108	32.26
269.324	-14.85
269.54	26.11
269.756	34.3
269.972	60.93
270.188	-16.9
270.403	40.45
270.619	-2.56
270.835	38.4
271.051	17.92
271.267	9.73
271.483	13.82
271.698	28.16
271.914	97.79
272.13	91.65
272.346	46.59
272.562	24.06
272.777	114.17
272.993	75.26
273.209	1.54
273.425	3.58
273.64	67.07
273.856	42.5
274.072	9.73
274.287	65.02
274.503	83.45
274.719	1.54
274.934	32.26
275.15	-23.04
275.366	36.35
275.581	126.46
275.797	26.11
276.012	-6.66
276.228	91.65
276.444	83.45
276.659	130.56
276.875	19.97
277.09	5.63
277.306	50.69
277.521	54.78
277.737	-12.8
277.952	9.73
278.168	95.74
278.383	58.88
278.599	-6.66
278.814	48.64
279.03	34.3
279.245	60.93
279.461	132.61
279.676	9.73
279.892	52.74
280.107	56.83
280.322	7.68
280.538	69.12
280.753	15.87
280.969	62.98
281.184	50.69
281.399	19.97
281.615	52.74
281.83	-86.53
282.045	38.4
282.26	54.78
282.476	13.82
282.691	153.09
282.906	36.35
283.122	5.63
283.337	71.17
283.552	9.73
283.767	67.07
283.983	26.11
284.198	40.45
284.413	38.4
284.628	-18.94
284.843	116.22
285.058	114.17
285.274	81.41
285.489	58.88
285.704	54.78
285.919	50.69
286.134	69.12
286.349	44.54
286.564	52.74
286.779	56.83
286.995	79.36
287.21	-10.75
287.425	38.4
287.64	58.88
287.855	60.93
288.07	42.5
288.285	42.5
288.5	79.36
288.715	77.31
288.93	-57.86
289.145	48.64
289.36	30.21
289.575	50.69
289.79	11.78
290.004	77.31
290.219	3.58
290.434	17.92
290.649	-6.66
290.864	9.73
291.079	1.54
291.294	73.21
291.509	5.63
291.724	30.21
291.938	3.58
292.153	52.74
292.368	38.4
292.583	32.26
292.798	71.17
293.012	54.78
293.227	56.83
293.442	110.08
293.657	48.64
293.871	3.58
294.086	128.51
294.301	134.65
294.516	9.73
294.73	62.98
294.945	15.87
295.16	36.35
295.374	44.54
295.589	89.6
295.804	-18.94
296.018	67.07
296.233	-0.51
296.447	58.88
296.662	17.92
296.877	50.69
297.091	7.68
297.306	24.06
297.52	91.65
297.735	128.51
297.949	34.3
298.164	9.73
298.378	40.45
298.593	46.59
298.807	-4.61
299.022	-18.94
299.236	95.74
299.451	46.59
299.665	34.3
299.88	5.63
300.094	99.84
300.309	40.45
300.523	79.36
300.737	73.21
300.952	-6.66
301.166	28.16
301.381	28.16
301.595	54.78
301.809	11.78
302.024	11.78
302.238	-6.66
302.452	85.5
302.667	65.02
302.881	46.59
303.095	1.54
303.309	32.26
303.524	11.78
303.738	83.45
303.952	-61.95
304.166	67.07
304.381	56.83
304.595	89.6
304.809	11.78
305.023	75.26
305.237	42.5
305.452	77.31
305.666	73.21
305.88	116.22
306.094	40.45
306.308	-2.56
306.522	34.3
306.736	9.73
306.95	36.35
307.164	22.02
307.379	19.97
307.593	108.03
307.807	62.98
308.021	48.64
308.235	24.06
308.449	-4.61
308.663	5.63
308.877	40.45
309.091	30.21
309.305	50.69
309.519	3.58
309.733	75.26
309.947	-41.47
310.161	77.31
310.374	95.74
310.588	73.21
310.802	30.21
311.016	24.06
311.23	34.3
311.444	124.41
311.658	83.45
311.872	48.64
312.085	30.21
312.299	83.45
312.513	-0.51
312.727	32.26
312.941	85.5
313.154	46.59
313.368	-29.18
313.582	15.87
313.796	99.84
314.009	40.45
314.223	124.41
314.437	30.21
314.651	67.07
314.864	65.02
315.078	69.12
315.292	-6.66
315.505	69.12
315.719	60.93
315.933	48.64
316.146	17.92
316.36	101.89
316.573	89.6
316.787	81.41
317.001	26.11
317.214	42.5
317.428	105.98
317.641	65.02
317.855	26.11
318.068	17.92
318.282	9.73
318.495	108.03
318.709	7.68
318.922	26.11
319.136	30.21
319.349	30.21
319.563	19.97
319.776	81.41
319.99	26.11
320.203	91.65
320.417	15.87
320.63	-6.66
320.843	73.21
321.057	19.97
321.27	83.45
321.483	22.02
321.697	99.84
321.91	-4.61
322.124	-0.51
322.337	73.21
322.55	24.06
322.763	81.41
322.977	71.17
323.19	99.84
323.403	85.5
323.617	-47.62
323.83	99.84
324.043	-23.04
324.256	67.07
324.469	48.64
324.683	83.45
324.896	26.11
325.109	50.69
325.322	1.54
325.535	40.45
325.748	83.45
325.962	73.21
326.175	97.79
326.388	71.17
326.601	28.16
326.814	67.07
327.027	73.21
327.24	110.08
327.453	24.06
327.666	26.11
327.879	126.46
328.092	9.73
328.305	15.87
328.518	40.45
328.731	36.35
328.944	52.74
329.157	103.93
329.37	79.36
329.583	87.55
329.796	99.84
330.009	54.78
330.222	118.27
330.435	99.84
330.648	1.54
330.861	22.02
331.073	36.35
331.286	108.03
331.499	9.73
331.712	-0.51
331.925	19.97
332.138	50.69
332.35	30.21
332.563	-23.04
332.776	108.03
332.989	42.5
333.202	73.21
333.414	-27.14
333.627	1.54
333.84	-8.7
334.053	71.17
334.265	83.45
334.478	50.69
334.691	60.93
334.903	32.26
335.116	17.92
335.329	62.98
335.541	30.21
335.754	48.64
335.966	73.21
336.179	56.83
336.392	-12.8
336.604	97.79
336.817	71.17
337.029	62.98
337.242	-2.56
337.454	36.35
337.667	19.97
337.88	71.17
338.092	-59.9
338.305	79.36
338.517	85.5
338.729	9.73
338.942	54.78
339.154	-14.85
339.367	-18.94
339.579	101.89
339.792	50.69
340.004	148.99
340.217	67.07
340.429	87.55
340.641	48.64
340.854	93.69
341.066	7.68
341.278	38.4
341.491	81.41
341.703	77.31
341.915	-55.81
342.128	112.13
342.34	77.31
342.552	17.92
342.764	87.55
342.977	9.73
343.189	17.92
343.401	17.92
343.613	-55.81
343.826	26.11
344.038	75.26
344.25	-14.85
344.462	-0.51
344.674	99.84
344.886	19.97
345.099	46.59
345.311	-14.85
345.523	34.3
345.735	48.64
345.947	38.4
346.159	24.06
346.371	73.21
346.583	116.22
346.795	85.5
347.007	48.64
347.219	50.69
347.431	9.73
347.643	69.12
347.855	67.07
348.067	9.73
348.279	42.5
348.491	89.6
348.703	91.65
348.915	95.74
349.127	-20.99
349.339	38.4
349.551	3.58
349.763	46.59
349.975	-4.61
350.187	67.07
350.399	28.16
350.61	36.35
350.822	32.26
351.034	24.06
351.246	40.45
351.458	9.73
351.669	17.92
351.881	146.94
352.093	73.21
352.305	95.74
352.517	73.21
352.728	79.36
352.94	22.02
353.152	114.17
353.363	46.59
353.575	34.3
353.787	42.5
353.999	42.5
354.21	77.31
354.422	38.4
354.633	71.17
354.845	38.4
355.057	65.02
355.268	81.41
355.48	75.26
355.692	17.92
355.903	85.5
356.115	-8.7
356.326	-16.9
356.538	50.69
356.749	67.07
356.961	44.54
357.172	40.45
357.384	146.94
357.595	112.13
357.807	38.4
358.018	42.5
358.23	83.45
358.441	71.17
358.653	1.54
358.864	30.21
359.075	5.63
359.287	85.5
359.498	65.02
359.709	34.3
359.921	9.73
360.132	-2.56
360.344	50.69
360.555	42.5
360.766	56.83
360.977	17.92
361.189	118.27
361.4	15.87
361.611	101.89
361.823	85.5
362.034	1.54
362.245	-20.99
362.456	5.63
362.667	56.83
362.879	40.45
363.09	87.55
363.301	69.12
363.512	38.4
363.723	97.79
363.935	-0.51
364.146	32.26
364.357	58.88
364.568	34.3
364.779	24.06
364.99	128.51
365.201	15.87
365.412	32.26
365.623	-12.8
365.834	56.83
366.045	-0.51
366.256	132.61
366.467	101.89
366.678	50.69
366.889	155.13
367.1	17.92
367.311	91.65
367.522	13.82
367.733	60.93
367.944	87.55
368.155	58.88
368.366	87.55
368.577	128.51
368.788	54.78
368.999	-0.51
369.209	62.98
369.42	114.17
369.631	110.08
369.842	81.41
370.053	71.17
370.264	87.55
370.474	75.26
370.685	38.4
370.896	75.26
371.107	89.6
371.317	42.5
371.528	32.26
371.739	140.8
371.95	67.07
372.16	19.97
372.371	26.11
372.582	9.73
372.792	38.4
373.003	26.11
373.214	34.3
373.424	71.17
373.635	-49.66
373.846	142.85
374.056	99.84
374.267	48.64
374.477	71.17
374.688	67.07
374.898	44.54
375.109	97.79
375.319	1.54
375.53	79.36
375.74	87.55
375.951	38.4
376.161	134.65
376.372	118.27
376.582	122.37
376.793	-6.66
377.003	19.97
377.214	34.3
377.424	67.07
377.635	58.88
377.845	48.64
378.055	91.65
378.266	9.73
378.476	79.36
378.686	87.55
378.897	126.46
379.107	97.79
379.317	62.98
379.528	44.54
379.738	91.65
379.948	11.78
380.158	71.17
380.369	30.21
380.579	7.68
380.789	58.88
380.999	44.54
381.21	34.3
381.42	110.08
381.63	44.54
381.84	5.63
382.05	54.78
382.261	54.78
382.471	56.83
382.681	54.78
382.891	91.65
383.101	87.55
383.311	83.45
383.521	-33.28
383.731	50.69
383.941	95.74
384.151	52.74
384.361	-6.66
384.571	81.41
384.781	32.26
384.991	97.79
385.201	58.88
385.411	62.98
385.621	15.87
385.831	54.78
386.041	22.02
386.251	46.59
386.461	87.55
386.671	99.84
386.881	73.21
387.091	91.65
387.301	40.45
387.511	114.17
387.72	67.07
387.93	116.22
388.14	62.98
388.35	87.55
388.56	85.5
388.769	155.13
388.979	79.36
389.189	22.02
389.399	99.84
389.609	89.6
389.818	159.23
390.028	7.68
390.238	108.03
390.447	54.78
390.657	34.3
390.867	75.26
391.076	99.84
391.286	17.92
391.496	22.02
391.705	-6.66
391.915	99.84
392.125	97.79
392.334	81.41
392.544	87.55
392.753	-0.51
392.963	87.55
393.172	65.02
393.382	19.97
393.591	56.83
393.801	134.65
394.01	114.17
394.22	24.06
394.429	116.22
394.639	32.26
394.848	46.59
395.058	38.4
395.267	120.32
395.477	60.93
395.686	105.98
395.895	93.69
396.105	167.42
396.314	83.45
396.524	95.74
396.733	99.84
396.942	161.28
397.152	75.26
397.361	161.28
397.57	124.41
397.78	167.42
397.989	114.17
398.198	140.8
398.407	36.35
398.617	71.17
398.826	110.08
399.035	65.02
399.244	75.26
399.453	65.02
399.663	99.84
399.872	136.7
400.081	81.41
400.29	212.48
400.499	108.03
400.708	120.32
400.917	89.6
401.127	87.55
401.336	155.13
401.545	128.51
401.754	120.32
401.963	130.56
402.172	93.69
402.381	81.41
402.59	126.46
402.799	142.85
403.008	134.65
403.217	165.37
403.426	114.17
403.635	136.7
403.844	95.74
404.053	108.03
404.262	120.32
404.471	157.18
404.68	128.51
404.888	155.13
405.097	179.71
405.306	214.52
405.515	128.51
405.724	128.51
405.933	159.23
406.142	163.33
406.35	169.47
406.559	212.48
406.768	210.43
406.977	192
407.185	159.23
407.394	196.09
407.603	142.85
407.812	218.62
408.02	261.63
408.229	189.95
408.438	214.52
408.646	163.33
408.855	261.63
409.064	284.16
409.272	189.95
409.481	247.29
409.69	292.35
409.898	335.35
410.107	302.59
410.315	275.96
410.524	306.68
410.733	351.74
410.941	278.01
411.15	417.27
411.358	300.54
411.567	396.79
411.775	376.31
411.984	390.65
412.192	357.88
412.401	452.09
412.609	464.38
412.818	447.99
413.026	474.62
413.234	359.93
413.443	443.9
413.651	568.82
413.86	480.76
414.068	517.62
414.276	587.26
414.485	548.34
414.693	642.55
414.901	677.37
415.11	624.12
415.318	642.55
415.526	708.09
415.734	689.65
415.943	667.13
416.151	738.8
416.359	712.18
416.567	808.44
416.776	947.7
416.984	804.34
417.192	982.51
417.4	931.31
417.608	984.56
417.817	894.45
418.025	1029.62
418.233	1005.04
418.441	1052.14
418.649	1078.77
418.857	1136.11
419.065	1121.77
419.273	1181.17
419.481	1224.17
419.689	1156.59
419.897	1330.67
420.105	1248.75
420.313	1410.54
420.521	1443.31
420.729	1426.92
420.937	1504.75
421.145	1527.27
421.353	1619.43
421.561	1670.63
421.769	1723.88
421.977	1830.37
422.185	1824.23
422.393	1967.59
422.601	1979.87
422.809	2016.74
423.017	2141.66
423.224	2119.14
423.432	2203.1
423.64	2209.25
423.848	2321.88
424.056	2323.93
424.263	2430.43
424.471	2577.88
424.679	2663.9
424.887	2598.36
425.094	2721.24
425.302	2868.69
425.51	3046.87
425.718	3104.21
425.925	2962.9
426.133	3202.51
426.341	3319.25
426.548	3382.73
426.756	3433.93
426.964	3390.92
427.171	3628.49
427.379	3845.57
427.586	3786.18
427.794	4040.13
428.001	4259.26
428.209	4251.07
428.417	4189.63
428.624	4638.14
428.832	4554.17
429.039	4744.63
429.247	4621.75
429.454	4967.86
429.662	5436.85
429.869	5041.59
430.076	5414.32
430.284	4959.67
430.491	5514.67
430.699	5830.06
430.906	5834.15
431.114	5774.76
431.321	6038.95
431.528	6071.72
431.736	6538.65
431.943	6808.98
432.15	6677.91
432.358	6765.98
432.565	7009.69
432.772	6909.33
432.979	7495.05
433.187	7433.61
433.394	7482.77
433.601	7939.46
433.808	7972.23
434.016	7974.28
434.223	8488.32
434.43	8809.85
434.637	8740.22
434.844	9147.76
435.052	9346.42
435.259	9184.63
435.466	9293.17
435.673	9305.46
435.88	10040.68
436.087	10454.37
436.294	10390.88
436.501	9993.58
436.708	10431.84
436.915	10749.28
437.122	11179.35
437.329	11058.52
437.537	11500.88
437.743	11773.26
437.95	11683.15
438.157	12295.49
438.364	12768.57
438.571	12647.74
438.778	12590.4
438.985	13772.08
439.192	13372.72
439.399	13718.83
439.606	13434.16
439.813	14271.78
440.02	14943.52
440.227	14755.1
440.433	14734.62
440.64	14972.19
440.847	15093.02
441.054	15404.31
441.261	16268.55
441.467	16121.1
441.674	16545.03
441.881	17061.12
442.088	17036.54
442.294	17061.12
442.501	17403.13
442.708	17640.69
442.914	18509.03
443.121	19242.2
443.328	18783.46
443.534	20040.91
443.741	19401.94
443.948	19252.44
444.154	20821.19
444.361	20509.9
444.568	20567.24
444.774	20686.02
444.981	20624.58
445.187	21632.18
445.394	22428.84
445.6	21939.38
445.807	24323.21
446.013	22817.96
446.22	23405.72
446.426	24140.94
446.633	24462.47
446.839	25248.89
447.046	24091.79
447.252	25818.23
447.459	25623.67
447.665	25629.82
447.871	26498.16
448.078	27675.74
448.284	26260.59
448.491	26852.45
448.697	28023.89
448.903	28513.36
449.11	28832.84
449.316	28273.74
449.522	28578.89
449.728	29652.03
449.935	29709.37
450.141	29486.14
450.347	30395.44
450.553	29131.84
450.76	29498.43
450.966	30850.09
451.172	29779
451.378	31036.45
451.584	30465.07
451.791	31145
451.997	30921.77
452.203	31069.22
452.409	31013.93
452.615	31333.41
452.821	29942.84
453.027	29647.93
453.233	31577.12
453.44	29879.35
453.646	30479.41
453.852	30243.89
454.058	30714.92
454.264	29662.27
454.47	30409.78
454.676	29307.97
454.882	30473.26
455.088	28062.8
455.294	28404.81
455.5	28564.56
455.705	29127.75
455.911	27903.06
456.117	27278.43
456.323	26911.85
456.529	25805.94
456.735	26645.61
456.941	26023.03
457.147	25402.49
457.352	24546.44
457.558	24489.1
457.764	24640.65
457.97	23979.15
458.176	23098.53
458.381	23553.18
458.587	22279.34
458.793	22262.96
458.999	21101.76
459.204	22733.99
459.41	21961.9
459.616	20546.76
459.821	20858.05
460.027	20493.51
460.233	19791.06
460.438	18869.47
460.644	19293.4
460.85	18427.11
461.055	18148.59
461.261	18009.33
461.466	16483.59
461.672	16078.09
461.878	17540.34
462.083	16168.2
462.289	15861.01
462.494	15854.86
462.7	15164.7
462.905	14730.53
463.111	15219.99
463.316	15170.84
463.522	15033.63
463.727	14751.01
463.932	14996.76
464.138	14736.67
464.343	14789.92
464.549	14339.37
464.754	14767.39
464.959	14849.31
465.165	14615.84
465.37	14103.85
465.575	13770.03
465.781	14351.65
465.986	14198.06
466.191	13817.13
466.397	13546.8
466.602	13024.57
466.807	13395.25
467.012	13147.45
467.218	13141.3
467.423	12905.79
467.628	13147.45
467.833	13755.69
468.038	13303.09
468.244	12799.29
468.449	13188.41
