Data from USB4F104151__242__10-30-56-006.txt Node

Date: Wed Mar 12 10:30:56 EDT 2025
User: louis
Spectrometer: USB4F10415
Trigger mode: 4
Integration Time (sec): 3.000000E-2
Scans to average: 1
Electric dark correction enabled: true
Nonlinearity correction enabled: false
Boxcar width: 0
XAxis mode: Wavelengths
Number of Pixels in Spectrum: 3648
>>>>>Begin Spectral Data<<<<<
178.204	-96.77
178.424	-96.77
178.644	-96.77
178.864	-129.53
179.084	-119.29
179.304	48.64
179.524	-0.51
179.744	-23.04
179.964	-6.66
180.184	54.78
180.404	-6.66
180.624	30.21
180.844	-8.7
181.064	-64
181.283	13.82
181.503	-59.9
181.723	22.02
181.943	13.82
182.163	71.17
182.383	11.78
182.602	93.69
182.822	73.21
183.042	-27.14
183.262	7.68
183.482	-35.33
183.701	52.74
183.921	44.54
184.141	-25.09
184.361	75.26
184.58	-4.61
184.8	24.06
185.02	-18.94
185.239	11.78
185.459	3.58
185.679	-8.7
185.898	-16.9
186.118	17.92
186.338	52.74
186.557	-6.66
186.777	-8.7
186.997	11.78
187.216	1.54
187.436	54.78
187.655	7.68
187.875	-16.9
188.095	-4.61
188.314	87.55
188.534	9.73
188.753	1.54
188.973	19.97
189.192	-2.56
189.412	62.98
189.631	-16.9
189.851	-14.85
190.07	40.45
190.29	-43.52
190.509	24.06
190.729	-29.18
190.948	38.4
191.168	120.32
191.387	85.5
191.607	38.4
191.826	-47.62
192.045	7.68
192.265	65.02
192.484	32.26
192.704	-10.75
192.923	13.82
193.142	73.21
193.362	1.54
193.581	62.98
193.8	38.4
194.02	99.84
194.239	-12.8
194.458	30.21
194.678	-23.04
194.897	65.02
195.116	-53.76
195.335	38.4
195.555	28.16
195.774	5.63
195.993	81.41
196.212	32.26
196.432	-20.99
196.651	95.74
196.87	22.02
197.089	50.69
197.308	87.55
197.528	99.84
197.747	-4.61
197.966	128.51
198.185	130.56
198.404	54.78
198.623	40.45
198.842	13.82
199.062	89.6
199.281	24.06
199.5	3.58
199.719	13.82
199.938	48.64
200.157	67.07
200.376	7.68
200.595	77.31
200.814	-29.18
201.033	38.4
201.252	7.68
201.471	87.55
201.69	32.26
201.909	-49.66
202.128	15.87
202.347	26.11
202.566	17.92
202.785	32.26
203.004	48.64
203.223	75.26
203.442	48.64
203.661	17.92
203.879	-2.56
204.098	34.3
204.317	-0.51
204.536	138.75
204.755	-0.51
204.974	28.16
205.193	7.68
205.411	77.31
205.63	11.78
205.849	-41.47
206.068	5.63
206.287	77.31
206.505	42.5
206.724	32.26
206.943	3.58
207.162	58.88
207.381	11.78
207.599	7.68
207.818	36.35
208.037	60.93
208.255	101.89
208.474	-14.85
208.693	38.4
208.911	-8.7
209.13	89.6
209.349	17.92
209.567	40.45
209.786	-18.94
210.005	13.82
210.223	19.97
210.442	-45.57
210.661	91.65
210.879	30.21
211.098	32.26
211.316	-57.86
211.535	48.64
211.753	46.59
211.972	60.93
212.191	-12.8
212.409	7.68
212.628	17.92
212.846	1.54
213.065	38.4
213.283	87.55
213.502	44.54
213.72	52.74
213.938	-16.9
214.157	-43.52
214.375	-10.75
214.594	40.45
214.812	48.64
215.031	44.54
215.249	11.78
215.467	36.35
215.686	71.17
215.904	11.78
216.122	15.87
216.341	93.69
216.559	44.54
216.778	44.54
216.996	105.98
217.214	54.78
217.432	30.21
217.651	7.68
217.869	114.17
218.087	19.97
218.306	-2.56
218.524	60.93
218.742	7.68
218.96	30.21
219.179	38.4
219.397	60.93
219.615	7.68
219.833	87.55
220.051	-0.51
220.27	15.87
220.488	24.06
220.706	77.31
220.924	7.68
221.142	26.11
221.36	32.26
221.578	11.78
221.796	-49.66
222.015	-37.38
222.233	38.4
222.451	38.4
222.669	-25.09
222.887	9.73
223.105	-8.7
223.323	105.98
223.541	9.73
223.759	38.4
223.977	9.73
224.195	89.6
224.413	77.31
224.631	-39.42
224.849	-29.18
225.067	77.31
225.285	-25.09
225.503	60.93
225.721	-109.05
225.939	44.54
226.157	22.02
226.375	58.88
226.592	-14.85
226.81	1.54
227.028	77.31
227.246	155.13
227.464	26.11
227.682	15.87
227.9	73.21
228.117	19.97
228.335	-10.75
228.553	17.92
228.771	-12.8
228.989	46.59
229.206	62.98
229.424	65.02
229.642	24.06
229.86	26.11
230.077	38.4
230.295	-8.7
230.513	32.26
230.731	44.54
230.948	132.61
231.166	89.6
231.384	28.16
231.601	75.26
231.819	60.93
232.037	-37.38
232.254	32.26
232.472	97.79
232.689	-25.09
232.907	77.31
233.125	62.98
233.342	-20.99
233.56	-4.61
233.777	28.16
233.995	42.5
234.213	-12.8
234.43	54.78
234.648	46.59
234.865	85.5
235.083	65.02
235.3	71.17
235.518	83.45
235.735	103.93
235.953	38.4
236.17	60.93
236.388	54.78
236.605	73.21
236.822	58.88
237.04	60.93
237.257	1.54
237.475	3.58
237.692	-100.86
237.909	-25.09
238.127	-25.09
238.344	101.89
238.562	75.26
238.779	-6.66
238.996	38.4
239.214	60.93
239.431	30.21
239.648	110.08
239.865	89.6
240.083	69.12
240.3	-0.51
240.517	122.37
240.735	81.41
240.952	52.74
241.169	136.7
241.386	-16.9
241.603	-14.85
241.821	-27.14
242.038	99.84
242.255	95.74
242.472	-86.53
242.689	40.45
242.907	54.78
243.124	7.68
243.341	32.26
243.558	17.92
243.775	-12.8
243.992	-49.66
244.209	50.69
244.426	77.31
244.643	15.87
244.86	40.45
245.078	15.87
245.295	15.87
245.512	103.93
245.729	-12.8
245.946	103.93
246.163	52.74
246.38	89.6
246.597	81.41
246.814	-27.14
247.031	163.33
247.248	54.78
247.464	40.45
247.681	-33.28
247.898	34.3
248.115	-16.9
248.332	-66.05
248.549	7.68
248.766	153.09
248.983	28.16
249.2	22.02
249.417	85.5
249.633	-61.95
249.85	52.74
250.067	54.78
250.284	-37.38
250.501	48.64
250.717	91.65
250.934	32.26
251.151	-10.75
251.368	26.11
251.585	-0.51
251.801	-2.56
252.018	3.58
252.235	83.45
252.451	-57.86
252.668	46.59
252.885	97.79
253.102	26.11
253.318	-29.18
253.535	15.87
253.752	11.78
253.968	-35.33
254.185	-37.38
254.401	81.41
254.618	38.4
254.835	28.16
255.051	44.54
255.268	24.06
255.484	62.98
255.701	24.06
255.917	15.87
256.134	-39.42
256.351	79.36
256.567	36.35
256.784	54.78
257	1.54
257.217	36.35
257.433	-29.18
257.65	93.69
257.866	46.59
258.082	9.73
258.299	11.78
258.515	-16.9
258.732	34.3
258.948	56.83
259.165	-39.42
259.381	22.02
259.597	15.87
259.814	54.78
260.03	46.59
260.246	24.06
260.463	36.35
260.679	73.21
260.895	65.02
261.112	56.83
261.328	15.87
261.544	-8.7
261.761	48.64
261.977	-12.8
262.193	44.54
262.409	42.5
262.626	1.54
262.842	44.54
263.058	-25.09
263.274	46.59
263.49	52.74
263.707	24.06
263.923	48.64
264.139	-45.57
264.355	85.5
264.571	46.59
264.787	36.35
265.004	56.83
265.22	81.41
265.436	38.4
265.652	85.5
265.868	87.55
266.084	36.35
266.3	30.21
266.516	46.59
266.732	-2.56
266.948	19.97
267.164	42.5
267.38	-4.61
267.596	87.55
267.812	58.88
268.028	52.74
268.244	24.06
268.46	105.98
268.676	24.06
268.892	56.83
269.108	26.11
269.324	-0.51
269.54	48.64
269.756	73.21
269.972	50.69
270.188	7.68
270.403	5.63
270.619	73.21
270.835	-16.9
271.051	36.35
271.267	7.68
271.483	17.92
271.698	40.45
271.914	44.54
272.13	28.16
272.346	32.26
272.562	-20.99
272.777	132.61
272.993	54.78
273.209	1.54
273.425	28.16
273.64	32.26
273.856	48.64
274.072	-51.71
274.287	44.54
274.503	71.17
274.719	-12.8
274.934	46.59
275.15	-49.66
275.366	-41.47
275.581	3.58
275.797	-20.99
276.012	19.97
276.228	22.02
276.444	-0.51
276.659	140.8
276.875	-57.86
277.09	93.69
277.306	58.88
277.521	56.83
277.737	73.21
277.952	79.36
278.168	7.68
278.383	32.26
278.599	54.78
278.814	22.02
279.03	32.26
279.245	58.88
279.461	54.78
279.676	54.78
279.892	15.87
280.107	54.78
280.322	-10.75
280.538	44.54
280.753	30.21
280.969	130.56
281.184	93.69
281.399	11.78
281.615	-6.66
281.83	-35.33
282.045	15.87
282.26	-35.33
282.476	-2.56
282.691	13.82
282.906	15.87
283.122	46.59
283.337	34.3
283.552	26.11
283.767	44.54
283.983	11.78
284.198	11.78
284.413	-41.47
284.628	-98.81
284.843	28.16
285.058	48.64
285.274	32.26
285.489	7.68
285.704	99.84
285.919	40.45
286.134	32.26
286.349	26.11
286.564	81.41
286.779	30.21
286.995	46.59
287.21	22.02
287.425	54.78
287.64	-37.38
287.855	65.02
288.07	5.63
288.285	79.36
288.5	26.11
288.715	44.54
288.93	-29.18
289.145	34.3
289.36	-8.7
289.575	105.98
289.79	48.64
290.004	40.45
290.219	73.21
290.434	-18.94
290.649	-4.61
290.864	132.61
291.079	-0.51
291.294	75.26
291.509	95.74
291.724	1.54
291.938	36.35
292.153	73.21
292.368	-16.9
292.583	52.74
292.798	73.21
293.012	52.74
293.227	48.64
293.442	87.55
293.657	50.69
293.871	77.31
294.086	60.93
294.301	67.07
294.516	69.12
294.73	28.16
294.945	3.58
295.16	56.83
295.374	48.64
295.589	46.59
295.804	-23.04
296.018	32.26
296.233	71.17
296.447	1.54
296.662	-25.09
296.877	130.56
297.091	19.97
297.306	32.26
297.52	19.97
297.735	126.46
297.949	19.97
298.164	118.27
298.378	-0.51
298.593	38.4
298.807	185.85
299.022	93.69
299.236	48.64
299.451	-41.47
299.665	22.02
299.88	48.64
300.094	44.54
300.309	-68.09
300.523	65.02
300.737	28.16
300.952	-6.66
301.166	40.45
301.381	48.64
301.595	-2.56
301.809	1.54
302.024	87.55
302.238	17.92
302.452	46.59
302.667	58.88
302.881	69.12
303.095	44.54
303.309	40.45
303.524	48.64
303.738	-8.7
303.952	-18.94
304.166	69.12
304.381	-29.18
304.595	11.78
304.809	46.59
305.023	95.74
305.237	-27.14
305.452	7.68
305.666	9.73
305.88	28.16
306.094	28.16
306.308	73.21
306.522	93.69
306.736	15.87
306.95	73.21
307.164	24.06
307.379	46.59
307.593	24.06
307.807	54.78
308.021	87.55
308.235	54.78
308.449	-6.66
308.663	-25.09
308.877	97.79
309.091	28.16
309.305	26.11
309.519	-10.75
309.733	118.27
309.947	3.58
310.161	97.79
310.374	-10.75
310.588	28.16
310.802	5.63
311.016	48.64
311.23	71.17
311.444	28.16
311.658	62.98
311.872	105.98
312.085	34.3
312.299	46.59
312.513	60.93
312.727	44.54
312.941	-12.8
313.154	-6.66
313.368	67.07
313.582	58.88
313.796	19.97
314.009	7.68
314.223	-4.61
314.437	161.28
314.651	38.4
314.864	46.59
315.078	11.78
315.292	-41.47
315.505	-49.66
315.719	42.5
315.933	91.65
316.146	-55.81
316.36	-14.85
316.573	11.78
316.787	34.3
317.001	15.87
317.214	40.45
317.428	19.97
317.641	40.45
317.855	-18.94
318.068	-35.33
318.282	40.45
318.495	77.31
318.709	-0.51
318.922	-12.8
319.136	89.6
319.349	15.87
319.563	-10.75
319.776	-10.75
319.99	-12.8
320.203	60.93
320.417	42.5
320.63	42.5
320.843	108.03
321.057	48.64
321.27	11.78
321.483	56.83
321.697	38.4
321.91	-14.85
322.124	87.55
322.337	79.36
322.55	32.26
322.763	3.58
322.977	40.45
323.19	9.73
323.403	83.45
323.617	-14.85
323.83	-6.66
324.043	38.4
324.256	22.02
324.469	52.74
324.683	24.06
324.896	-8.7
325.109	46.59
325.322	15.87
325.535	101.89
325.748	93.69
325.962	-37.38
326.175	122.37
326.388	58.88
326.601	159.23
326.814	75.26
327.027	81.41
327.24	101.89
327.453	3.58
327.666	95.74
327.879	-0.51
328.092	52.74
328.305	-59.9
328.518	-12.8
328.731	26.11
328.944	108.03
329.157	60.93
329.37	-18.94
329.583	124.41
329.796	48.64
330.009	22.02
330.222	56.83
330.435	93.69
330.648	34.3
330.861	52.74
331.073	32.26
331.286	73.21
331.499	34.3
331.712	11.78
331.925	62.98
332.138	89.6
332.35	19.97
332.563	19.97
332.776	65.02
332.989	30.21
333.202	32.26
333.414	30.21
333.627	-8.7
333.84	19.97
334.053	-31.23
334.265	7.68
334.478	-14.85
334.691	24.06
334.903	-31.23
335.116	11.78
335.329	17.92
335.541	58.88
335.754	110.08
335.966	-16.9
336.179	71.17
336.392	15.87
336.604	77.31
336.817	67.07
337.029	77.31
337.242	36.35
337.454	58.88
337.667	65.02
337.88	75.26
338.092	60.93
338.305	5.63
338.517	58.88
338.729	83.45
338.942	97.79
339.154	-8.7
339.367	93.69
339.579	7.68
339.792	46.59
340.004	99.84
340.217	22.02
340.429	30.21
340.641	15.87
340.854	69.12
341.066	50.69
341.278	17.92
341.491	97.79
341.703	34.3
341.915	62.98
342.128	42.5
342.34	69.12
342.552	-53.76
342.764	38.4
342.977	93.69
343.189	60.93
343.401	77.31
343.613	54.78
343.826	32.26
344.038	48.64
344.25	95.74
344.462	15.87
344.674	73.21
344.886	24.06
345.099	-20.99
345.311	83.45
345.523	-4.61
345.735	-51.71
345.947	81.41
346.159	91.65
346.371	26.11
346.583	73.21
346.795	71.17
347.007	24.06
347.219	56.83
347.431	50.69
347.643	120.32
347.855	17.92
348.067	52.74
348.279	13.82
348.491	26.11
348.703	32.26
348.915	89.6
349.127	22.02
349.339	75.26
349.551	34.3
349.763	73.21
349.975	79.36
350.187	77.31
350.399	97.79
350.61	108.03
350.822	-6.66
351.034	-39.42
351.246	44.54
351.458	134.65
351.669	44.54
351.881	56.83
352.093	40.45
352.305	73.21
352.517	36.35
352.728	46.59
352.94	58.88
353.152	71.17
353.363	54.78
353.575	110.08
353.787	103.93
353.999	28.16
354.21	38.4
354.422	-12.8
354.633	-20.99
354.845	17.92
355.057	56.83
355.268	118.27
355.48	73.21
355.692	32.26
355.903	15.87
356.115	58.88
356.326	-29.18
356.538	46.59
356.749	42.5
356.961	-20.99
357.172	50.69
357.384	15.87
357.595	48.64
357.807	46.59
358.018	13.82
358.23	7.68
358.441	122.37
358.653	91.65
358.864	77.31
359.075	75.26
359.287	-8.7
359.498	-43.52
359.709	67.07
359.921	112.13
360.132	46.59
360.344	22.02
360.555	19.97
360.766	128.51
360.977	44.54
361.189	85.5
361.4	17.92
361.611	26.11
361.823	114.17
362.034	26.11
362.245	-6.66
362.456	-2.56
362.667	62.98
362.879	67.07
363.09	40.45
363.301	87.55
363.512	24.06
363.723	32.26
363.935	62.98
364.146	26.11
364.357	56.83
364.568	91.65
364.779	62.98
364.99	83.45
365.201	5.63
365.412	50.69
365.623	-29.18
365.834	71.17
366.045	67.07
366.256	79.36
366.467	40.45
366.678	17.92
366.889	67.07
367.1	22.02
367.311	56.83
367.522	50.69
367.733	118.27
367.944	60.93
368.155	136.7
368.366	122.37
368.577	126.46
368.788	110.08
368.999	36.35
369.209	77.31
369.42	56.83
369.631	122.37
369.842	58.88
370.053	81.41
370.264	71.17
370.474	44.54
370.685	50.69
370.896	32.26
371.107	130.56
371.317	3.58
371.528	1.54
371.739	142.85
371.95	7.68
372.16	79.36
372.371	28.16
372.582	118.27
372.792	77.31
373.003	112.13
373.214	73.21
373.424	140.8
373.635	5.63
373.846	83.45
374.056	40.45
374.267	69.12
374.477	32.26
374.688	13.82
374.898	89.6
375.109	50.69
375.319	97.79
375.53	79.36
375.74	71.17
375.951	89.6
376.161	93.69
376.372	91.65
376.582	95.74
376.793	97.79
377.003	28.16
377.214	89.6
377.424	112.13
377.635	58.88
377.845	130.56
378.055	62.98
378.266	19.97
378.476	91.65
378.686	56.83
378.897	7.68
379.107	40.45
379.317	56.83
379.528	38.4
379.738	87.55
379.948	101.89
380.158	87.55
380.369	89.6
380.579	38.4
380.789	52.74
380.999	-18.94
381.21	171.52
381.42	48.64
381.63	50.69
381.84	81.41
382.05	32.26
382.261	81.41
382.471	95.74
382.681	77.31
382.891	146.94
383.101	103.93
383.311	5.63
383.521	85.5
383.731	52.74
383.941	99.84
384.151	22.02
384.361	85.5
384.571	99.84
384.781	118.27
384.991	87.55
385.201	120.32
385.411	128.51
385.621	-18.94
385.831	101.89
386.041	73.21
386.251	97.79
386.461	105.98
386.671	22.02
386.881	52.74
387.091	101.89
387.301	60.93
387.511	24.06
387.72	15.87
387.93	65.02
388.14	75.26
388.35	46.59
388.56	56.83
388.769	93.69
388.979	32.26
389.189	13.82
389.399	71.17
389.609	134.65
389.818	58.88
390.028	75.26
390.238	110.08
390.447	52.74
390.657	97.79
390.867	30.21
391.076	42.5
391.286	130.56
391.496	83.45
391.705	65.02
391.915	24.06
392.125	110.08
392.334	95.74
392.544	132.61
392.753	103.93
392.963	132.61
393.172	69.12
393.382	167.42
393.591	110.08
393.801	52.74
394.01	159.23
394.22	142.85
394.429	91.65
394.639	46.59
394.848	151.04
395.058	67.07
395.267	122.37
395.477	112.13
395.686	144.89
395.895	194.05
396.105	122.37
396.314	97.79
396.524	93.69
396.733	73.21
396.942	136.7
397.152	120.32
397.361	183.81
397.57	161.28
397.78	128.51
397.989	50.69
398.198	212.48
398.407	120.32
398.617	110.08
398.826	175.61
399.035	122.37
399.244	142.85
399.453	97.79
399.663	79.36
399.872	114.17
400.081	93.69
400.29	91.65
400.499	67.07
400.708	196.09
400.917	155.13
401.127	130.56
401.336	105.98
401.545	140.8
401.754	218.62
401.963	161.28
402.172	200.19
402.381	110.08
402.59	153.09
402.799	181.76
403.008	146.94
403.217	144.89
403.426	212.48
403.635	146.94
403.844	118.27
404.053	192
404.262	224.76
404.471	241.15
404.68	251.39
404.888	204.28
405.097	216.57
405.306	202.24
405.515	261.63
405.724	167.42
405.933	189.95
406.142	282.11
406.35	286.2
406.559	282.11
406.768	257.53
406.977	304.64
407.185	282.11
407.394	314.88
407.603	216.57
407.812	300.54
408.02	364.03
408.229	355.83
408.438	265.72
408.646	359.93
408.855	323.07
409.064	339.45
409.272	296.44
409.481	423.42
409.69	298.49
409.898	419.32
410.107	394.75
410.315	380.41
410.524	435.71
410.733	470.52
410.941	429.56
411.15	554.49
411.358	488.95
411.567	572.92
411.775	542.2
411.984	585.21
412.192	572.92
412.401	642.55
412.609	693.75
412.818	628.21
413.026	691.7
413.234	658.93
413.443	753.14
413.651	767.48
413.86	722.42
414.068	865.78
414.276	865.78
414.485	898.55
414.693	873.97
414.901	929.27
415.11	914.93
415.318	896.5
415.526	980.47
415.734	1103.34
415.943	1115.63
416.151	1064.43
416.359	1138.16
416.567	1207.79
416.776	1275.37
416.984	1351.15
417.192	1308.14
417.4	1283.56
417.608	1336.81
417.817	1435.11
418.025	1535.46
418.233	1603.05
418.441	1637.86
418.649	1586.66
418.857	1695.21
419.065	1883.62
419.273	1764.84
419.481	1813.99
419.689	1957.35
419.897	2055.65
420.105	2045.41
420.313	2196.96
420.521	2186.72
420.729	2303.45
420.937	2434.52
421.145	2434.52
421.353	2602.46
421.561	2686.42
421.769	2833.88
421.977	2846.16
422.185	2858.45
422.393	2985.43
422.601	3067.35
422.809	3143.12
423.017	3243.47
423.224	3247.57
423.432	3395.02
423.64	3456.46
423.848	3802.57
424.056	3751.37
424.263	3935.68
424.471	3923.4
424.679	4056.51
424.887	4148.67
425.094	4363.71
425.302	4267.45
425.51	4656.57
425.718	4912.57
425.925	4709.82
426.133	4986.29
426.341	5305.78
426.548	5426.61
426.756	5524.91
426.964	5477.8
427.171	5840.29
427.379	6020.52
427.586	6133.15
427.794	6237.6
428.001	6534.56
428.209	6833.56
428.417	6745.5
428.624	7294.35
428.832	7191.95
429.039	7116.18
429.247	7081.36
429.454	7812.49
429.662	8326.53
429.869	7693.71
430.076	8357.25
430.284	8201.6
430.491	8467.84
430.699	8979.83
430.906	9043.32
431.114	8957.3
431.321	9393.52
431.528	9659.76
431.736	10108.26
431.943	10769.76
432.15	10464.61
432.358	10569.05
432.565	11007.32
432.772	11226.45
432.979	11662.67
433.187	11746.64
433.394	11752.78
433.601	12672.32
433.808	12754.24
434.016	12535.1
434.223	12989.75
434.43	13886.76
434.637	13583.66
434.844	14304.55
435.052	14591.27
435.259	14595.36
435.466	14830.88
435.673	14861.6
435.88	15736.08
436.087	16360.71
436.294	16348.42
436.501	15944.97
436.708	16528.64
436.915	16844.03
437.122	17695.99
437.329	17626.36
437.537	17849.58
437.743	18619.62
437.95	18367.72
438.157	19367.13
438.364	19864.78
438.571	19942.61
438.778	20036.81
438.985	22058.16
439.192	21163.2
439.399	21945.52
439.606	21044.41
439.813	22424.75
440.02	23823.51
440.227	23631
440.433	23116.96
440.64	23983.25
440.847	23655.58
441.054	24102.03
441.261	25793.65
441.467	25437.31
441.674	25853.05
441.881	27001.96
442.088	26815.59
442.294	26461.29
442.501	27321.44
442.708	27677.79
442.914	28902.47
443.121	30278.71
443.328	29123.65
443.534	31591.45
443.741	30751.79
443.948	30186.55
444.154	32396.31
444.361	31818.78
444.568	32455.7
444.774	32474.13
444.981	32558.1
445.187	33696.77
445.394	34931.69
445.6	34212.85
445.807	37512.13
446.013	35943.39
446.22	36897.74
446.426	37950.4
446.633	38259.64
446.839	39609.25
447.046	38077.37
447.252	40221.59
447.459	40194.97
447.665	39678.88
447.871	41915.26
448.078	43414.38
448.284	41526.15
448.491	42171.26
448.697	43948.9
448.903	44825.43
449.11	44852.05
449.316	43996
449.522	44944.21
449.728	45943.62
449.935	46197.57
450.141	46273.34
450.347	47418.16
450.553	46078.78
450.76	46545.72
450.966	47899.43
451.172	47352.62
451.378	48337.69
451.584	47620.91
451.791	48648.99
451.997	47547.18
452.203	49181.46
452.409	49437.45
452.615	48464.67
452.821	47209.26
453.027	46943.03
453.233	49386.25
453.44	46773.05
453.646	47121.2
453.852	47811.37
454.058	48313.12
454.264	46656.31
454.47	47881
454.676	46304.06
454.882	48290.59
455.088	44340.06
455.294	44630.87
455.5	45370.19
455.705	45677.38
455.911	43973.47
456.117	43172.72
456.323	42648.44
456.529	40176.54
456.735	42023.81
456.941	41073.55
457.147	40389.53
457.352	38839.22
457.558	38484.92
457.764	38802.35
457.97	37825.47
458.176	36994
458.381	37458.88
458.587	34999.27
458.793	35103.72
458.999	33766.4
459.204	35810.27
459.41	34628.59
459.616	32443.41
459.821	32427.03
460.027	32244.76
460.233	31966.23
460.438	30247.99
460.644	30616.62
460.85	29008.97
461.055	28609.61
461.261	28869.7
461.466	26809.45
461.672	25820.28
461.878	27446.37
462.083	26006.64
462.289	25427.07
462.494	25134.21
462.7	24083.6
462.905	23637.14
463.111	24355.98
463.316	24415.37
463.522	23702.68
463.727	23766.17
463.932	23745.69
464.138	23702.68
464.343	23602.33
464.549	23080.1
464.754	23817.36
464.959	23370.91
465.165	23272.6
465.37	22471.85
465.575	21779.64
465.781	22840.48
465.986	22867.11
466.191	21933.23
466.397	21474.49
466.602	20319.43
466.807	21380.28
467.012	21632.18
