Data from USB4F104151__225__10-30-13-531.txt Node

Date: Wed Mar 12 10:30:13 EDT 2025
User: louis
Spectrometer: USB4F10415
Trigger mode: 4
Integration Time (sec): 3.000000E-2
Scans to average: 1
Electric dark correction enabled: true
Nonlinearity correction enabled: false
Boxcar width: 0
XAxis mode: Wavelengths
Number of Pixels in Spectrum: 3648
>>>>>Begin Spectral Data<<<<<
178.204	-80.04
178.424	-80.04
178.644	-80.04
178.864	-129.19
179.084	-147.62
179.304	14.17
179.524	30.55
179.744	26.45
179.964	-43.18
180.184	-12.46
180.404	-10.41
180.624	-73.9
180.844	3.93
181.064	-49.32
181.283	34.64
181.503	32.6
181.723	46.93
181.943	-110.76
182.163	46.93
182.383	30.55
182.602	24.4
182.822	69.46
183.042	14.17
183.262	12.12
183.482	24.4
183.701	28.5
183.921	-14.51
184.141	-47.27
184.361	10.07
184.58	-61.61
184.8	46.93
185.02	-14.51
185.239	-14.51
185.459	-26.79
185.679	16.21
185.898	14.17
186.118	24.4
186.338	24.4
186.557	30.55
186.777	3.93
186.997	10.07
187.216	-32.94
187.436	135
187.655	55.12
187.875	5.97
188.095	-43.18
188.314	98.13
188.534	10.07
188.753	-10.41
188.973	42.84
189.192	22.36
189.412	63.32
189.631	24.4
189.851	40.79
190.07	24.4
190.29	-59.56
190.509	-57.51
190.729	-2.22
190.948	59.22
191.168	94.04
191.387	38.74
191.607	12.12
191.826	89.94
192.045	26.45
192.265	-61.61
192.484	-14.51
192.704	10.07
192.923	-16.55
193.142	16.21
193.362	1.88
193.581	24.4
193.8	44.88
194.02	34.64
194.239	22.36
194.458	24.4
194.678	-8.36
194.897	91.99
195.116	3.93
195.335	22.36
195.555	69.46
195.774	-43.18
195.993	18.26
196.212	30.55
196.432	5.97
196.651	63.32
196.87	18.26
197.089	83.8
197.308	67.41
197.528	77.65
197.747	28.5
197.966	24.4
198.185	75.6
198.404	-18.6
198.623	51.03
198.842	18.26
199.062	55.12
199.281	98.13
199.5	124.76
199.719	42.84
199.938	22.36
200.157	18.26
200.376	-0.17
200.595	-0.17
200.814	-22.7
201.033	85.84
201.252	110.42
201.471	53.08
201.69	30.55
201.909	-18.6
202.128	22.36
202.347	36.69
202.566	73.56
202.785	46.93
203.004	36.69
203.223	77.65
203.442	5.97
203.661	85.84
203.879	-24.75
204.098	10.07
204.317	-18.6
204.536	-82.09
204.755	53.08
204.974	10.07
205.193	42.84
205.411	51.03
205.63	30.55
205.849	69.46
206.068	71.51
206.287	-18.6
206.505	51.03
206.724	28.5
206.943	12.12
207.162	-12.46
207.381	-26.79
207.599	87.89
207.818	10.07
208.037	-4.27
208.255	-0.17
208.474	-14.51
208.693	18.26
208.911	8.02
209.13	-10.41
209.349	55.12
209.567	55.12
209.786	61.27
210.005	-2.22
210.223	36.69
210.442	104.28
210.661	32.6
210.879	16.21
211.098	22.36
211.316	61.27
211.535	71.51
211.753	-4.27
211.972	-6.31
212.191	46.93
212.409	-8.36
212.628	-4.27
212.846	-24.75
213.065	14.17
213.283	65.36
213.502	-45.23
213.72	40.79
213.938	22.36
214.157	38.74
214.375	91.99
214.594	8.02
214.812	30.55
215.031	18.26
215.249	3.93
215.467	128.85
215.686	-53.42
215.904	135
216.122	-59.56
216.341	14.17
216.559	-16.55
216.778	38.74
216.996	-2.22
217.214	26.45
217.432	-20.65
217.651	10.07
217.869	-2.22
218.087	55.12
218.306	42.84
218.524	59.22
218.742	-10.41
218.96	10.07
219.179	22.36
219.397	24.4
219.615	14.17
219.833	61.27
220.051	-104.62
220.27	42.84
220.488	34.64
220.706	38.74
220.924	10.07
221.142	22.36
221.36	12.12
221.578	-20.65
221.796	40.79
222.015	36.69
222.233	-6.31
222.451	26.45
222.669	18.26
222.887	71.51
223.105	-47.27
223.323	42.84
223.541	-28.84
223.759	-14.51
223.977	65.36
224.195	96.08
224.413	63.32
224.631	22.36
224.849	-49.32
225.067	135
225.285	-12.46
225.503	73.56
225.721	-32.94
225.939	-14.51
226.157	-10.41
226.375	71.51
226.592	8.02
226.81	28.5
227.028	71.51
227.246	-10.41
227.464	42.84
227.682	-10.41
227.9	32.6
228.117	87.89
228.335	-34.99
228.553	120.66
228.771	87.89
228.989	-10.41
229.206	20.31
229.424	-0.17
229.642	36.69
229.86	65.36
230.077	44.88
230.295	42.84
230.513	57.17
230.731	79.7
230.948	91.99
231.166	32.6
231.384	-43.18
231.601	79.7
231.819	36.69
232.037	-26.79
232.254	55.12
232.472	-18.6
232.689	-2.22
232.907	55.12
233.125	10.07
233.342	59.22
233.56	-18.6
233.777	-14.51
233.995	10.07
234.213	44.88
234.43	10.07
234.648	10.07
234.865	-47.27
235.083	-24.75
235.3	-10.41
235.518	26.45
235.735	87.89
235.953	-28.84
236.17	30.55
236.388	1.88
236.605	22.36
236.822	48.98
237.04	42.84
237.257	1.88
237.475	-53.42
237.692	18.26
237.909	20.31
238.127	79.7
238.344	28.5
238.562	18.26
238.779	34.64
238.996	1.88
239.214	38.74
239.431	-2.22
239.648	34.64
239.865	36.69
240.083	46.93
240.3	-6.31
240.517	71.51
240.735	-2.22
240.952	3.93
241.169	65.36
241.386	-20.65
241.603	-18.6
241.821	-67.75
242.038	-0.17
242.255	-41.13
242.472	-43.18
242.689	-4.27
242.907	38.74
243.124	-77.99
243.341	-10.41
243.558	36.69
243.775	-47.27
243.992	-67.75
244.209	28.5
244.426	124.76
244.643	53.08
244.86	-2.22
245.078	26.45
245.295	40.79
245.512	69.46
245.729	38.74
245.946	14.17
246.163	87.89
246.38	73.56
246.597	-55.47
246.814	-20.65
247.031	55.12
247.248	77.65
247.464	108.37
247.681	75.6
247.898	145.24
248.115	128.85
248.332	-20.65
248.549	-28.84
248.766	85.84
248.983	-24.75
249.2	1.88
249.417	71.51
249.633	12.12
249.85	-39.08
250.067	-28.84
250.284	-18.6
250.501	18.26
250.717	51.03
250.934	-12.46
251.151	16.21
251.368	46.93
251.585	38.74
251.801	10.07
252.018	55.12
252.235	-2.22
252.451	30.55
252.668	-14.51
252.885	65.36
253.102	55.12
253.318	24.4
253.535	34.64
253.752	10.07
253.968	-2.22
254.185	40.79
254.401	-20.65
254.618	18.26
254.835	24.4
255.051	57.17
255.268	38.74
255.484	-22.7
255.701	46.93
255.917	-28.84
256.134	-2.22
256.351	-10.41
256.567	-4.27
256.784	-43.18
257	-26.79
257.217	85.84
257.433	-2.22
257.65	63.32
257.866	36.69
258.082	-55.47
258.299	22.36
258.515	53.08
258.732	-16.55
258.948	18.26
259.165	5.97
259.381	63.32
259.597	-2.22
259.814	65.36
260.03	-24.75
260.246	-10.41
260.463	-22.7
260.679	26.45
260.895	5.97
261.112	-18.6
261.328	-67.75
261.544	16.21
261.761	38.74
261.977	3.93
262.193	-14.51
262.409	18.26
262.626	14.17
262.842	61.27
263.058	26.45
263.274	24.4
263.49	22.36
263.707	75.6
263.923	63.32
264.139	5.97
264.355	20.31
264.571	55.12
264.787	-2.22
265.004	20.31
265.22	-26.79
265.436	-4.27
265.652	-6.31
265.868	55.12
266.084	-12.46
266.3	63.32
266.516	-63.66
266.732	8.02
266.948	63.32
267.164	-12.46
267.38	-34.99
267.596	65.36
267.812	94.04
268.028	46.93
268.244	18.26
268.46	-10.41
268.676	51.03
268.892	8.02
269.108	-2.22
269.324	-6.31
269.54	12.12
269.756	20.31
269.972	46.93
270.188	36.69
270.403	-0.17
270.619	36.69
270.835	20.31
271.051	40.79
271.267	28.5
271.483	22.36
271.698	87.89
271.914	44.88
272.13	18.26
272.346	46.93
272.562	63.32
272.777	32.6
272.993	59.22
273.209	57.17
273.425	28.5
273.64	36.69
273.856	16.21
274.072	20.31
274.287	-10.41
274.503	59.22
274.719	63.32
274.934	5.97
275.15	1.88
275.366	10.07
275.581	26.45
275.797	-77.99
276.012	18.26
276.228	12.12
276.444	55.12
276.659	71.51
276.875	48.98
277.09	61.27
277.306	-18.6
277.521	36.69
277.737	32.6
277.952	-24.75
278.168	36.69
278.383	57.17
278.599	36.69
278.814	65.36
279.03	26.45
279.245	75.6
279.461	10.07
279.676	63.32
279.892	10.07
280.107	48.98
280.322	44.88
280.538	-20.65
280.753	38.74
280.969	53.08
281.184	-65.71
281.399	139.09
281.615	-18.6
281.83	53.08
282.045	16.21
282.26	-34.99
282.476	36.69
282.691	102.23
282.906	132.95
283.122	14.17
283.337	22.36
283.552	-18.6
283.767	-18.6
283.983	-26.79
284.198	71.51
284.413	63.32
284.628	30.55
284.843	10.07
285.058	-18.6
285.274	-4.27
285.489	14.17
285.704	112.47
285.919	-20.65
286.134	38.74
286.349	-12.46
286.564	32.6
286.779	38.74
286.995	-51.37
287.21	-6.31
287.425	-0.17
287.64	30.55
287.855	53.08
288.07	-96.43
288.285	116.56
288.5	71.51
288.715	48.98
288.93	-2.22
289.145	-45.23
289.36	16.21
289.575	34.64
289.79	55.12
290.004	36.69
290.219	20.31
290.434	-39.08
290.649	-63.66
290.864	12.12
291.079	36.69
291.294	1.88
291.509	-2.22
291.724	-18.6
291.938	48.98
292.153	46.93
292.368	-4.27
292.583	8.02
292.798	18.26
293.012	26.45
293.227	44.88
293.442	38.74
293.657	69.46
293.871	63.32
294.086	1.88
294.301	73.56
294.516	24.4
294.73	10.07
294.945	-12.46
295.16	-14.51
295.374	-16.55
295.589	-0.17
295.804	-92.33
296.018	75.6
296.233	71.51
296.447	22.36
296.662	-24.75
296.877	59.22
297.091	59.22
297.306	-20.65
297.52	102.23
297.735	42.84
297.949	-0.17
298.164	16.21
298.378	71.51
298.593	-8.36
298.807	-18.6
299.022	55.12
299.236	44.88
299.451	28.5
299.665	-12.46
299.88	32.6
300.094	12.12
300.309	61.27
300.523	28.5
300.737	40.79
300.952	3.93
301.166	20.31
301.381	8.02
301.595	26.45
301.809	112.47
302.024	83.8
302.238	24.4
302.452	81.75
302.667	-14.51
302.881	87.89
303.095	48.98
303.309	-26.79
303.524	18.26
303.738	10.07
303.952	30.55
304.166	63.32
304.381	-37.03
304.595	22.36
304.809	38.74
305.023	36.69
305.237	12.12
305.452	-0.17
305.666	51.03
305.88	-18.6
306.094	65.36
306.308	20.31
306.522	87.89
306.736	57.17
306.95	53.08
307.164	75.6
307.379	-4.27
307.593	100.18
307.807	67.41
308.021	-69.8
308.235	-8.36
308.449	12.12
308.663	-0.17
308.877	16.21
309.091	-8.36
309.305	59.22
309.519	-41.13
309.733	34.64
309.947	-2.22
310.161	71.51
310.374	-84.14
310.588	14.17
310.802	10.07
311.016	-16.55
311.23	100.18
311.444	32.6
311.658	36.69
311.872	55.12
312.085	59.22
312.299	67.41
312.513	67.41
312.727	38.74
312.941	16.21
313.154	-8.36
313.368	28.5
313.582	55.12
313.796	14.17
314.009	34.64
314.223	18.26
314.437	-55.47
314.651	53.08
314.864	10.07
315.078	48.98
315.292	-0.17
315.505	16.21
315.719	42.84
315.933	-12.46
316.146	16.21
316.36	3.93
316.573	26.45
316.787	59.22
317.001	63.32
317.214	18.26
317.428	34.64
317.641	24.4
317.855	10.07
318.068	53.08
318.282	53.08
318.495	71.51
318.709	106.32
318.922	55.12
319.136	40.79
319.349	118.61
319.563	30.55
319.776	-22.7
319.99	24.4
320.203	112.47
320.417	83.8
320.63	18.26
320.843	63.32
321.057	81.75
321.27	-20.65
321.483	10.07
321.697	75.6
321.91	42.84
322.124	34.64
322.337	-10.41
322.55	-6.31
322.763	122.71
322.977	81.75
323.19	-43.18
323.403	77.65
323.617	34.64
323.83	46.93
324.043	-8.36
324.256	85.84
324.469	5.97
324.683	14.17
324.896	44.88
325.109	53.08
325.322	53.08
325.535	46.93
325.748	48.98
325.962	22.36
326.175	38.74
326.388	36.69
326.601	-24.75
326.814	57.17
327.027	34.64
327.24	16.21
327.453	-6.31
327.666	69.46
327.879	34.64
328.092	40.79
328.305	75.6
328.518	-6.31
328.731	46.93
328.944	63.32
329.157	-45.23
329.37	-12.46
329.583	87.89
329.796	34.64
330.009	28.5
330.222	81.75
330.435	46.93
330.648	83.8
330.861	16.21
331.073	22.36
331.286	91.99
331.499	83.8
331.712	24.4
331.925	30.55
332.138	28.5
332.35	-4.27
332.563	-22.7
332.776	10.07
332.989	22.36
333.202	-12.46
333.414	10.07
333.627	30.55
333.84	-6.31
334.053	-6.31
334.265	55.12
334.478	-47.27
334.691	32.6
334.903	69.46
335.116	-6.31
335.329	-59.56
335.541	102.23
335.754	110.42
335.966	48.98
336.179	-14.51
336.392	-12.46
336.604	61.27
336.817	12.12
337.029	135
337.242	87.89
337.454	34.64
337.667	36.69
337.88	24.4
338.092	12.12
338.305	44.88
338.517	18.26
338.729	14.17
338.942	63.32
339.154	38.74
339.367	-10.41
339.579	48.98
339.792	34.64
340.004	-12.46
340.217	-10.41
340.429	69.46
340.641	67.41
340.854	63.32
341.066	20.31
341.278	59.22
341.491	67.41
341.703	83.8
341.915	-43.18
342.128	18.26
342.34	-55.47
342.552	46.93
342.764	44.88
342.977	69.46
343.189	102.23
343.401	30.55
343.613	20.31
343.826	3.93
344.038	14.17
344.25	67.41
344.462	63.32
344.674	124.76
344.886	40.79
345.099	-26.79
345.311	28.5
345.523	75.6
345.735	-26.79
345.947	30.55
346.159	120.66
346.371	34.64
346.583	14.17
346.795	128.85
347.007	10.07
347.219	94.04
347.431	69.46
347.643	22.36
347.855	57.17
348.067	143.19
348.279	-61.61
348.491	24.4
348.703	-10.41
348.915	-2.22
349.127	14.17
349.339	38.74
349.551	46.93
349.763	-14.51
349.975	46.93
350.187	-0.17
350.399	79.7
350.61	38.74
350.822	-20.65
351.034	-10.41
351.246	48.98
351.458	63.32
351.669	-10.41
351.881	38.74
352.093	85.84
352.305	79.7
352.517	10.07
352.728	38.74
352.94	57.17
353.152	-4.27
353.363	-6.31
353.575	38.74
353.787	91.99
353.999	79.7
354.21	67.41
354.422	5.97
354.633	69.46
354.845	59.22
355.057	24.4
355.268	59.22
355.48	87.89
355.692	32.6
355.903	5.97
356.115	-28.84
356.326	81.75
356.538	30.55
356.749	32.6
356.961	112.47
357.172	38.74
357.384	-10.41
357.595	157.52
357.807	91.99
358.018	-37.03
358.23	55.12
358.441	104.28
358.653	-22.7
358.864	34.64
359.075	28.5
359.287	71.51
359.498	83.8
359.709	81.75
359.921	-53.42
360.132	42.84
360.344	67.41
360.555	22.36
360.766	69.46
360.977	18.26
361.189	26.45
361.4	38.74
361.611	-34.99
361.823	53.08
362.034	24.4
362.245	57.17
362.456	42.84
362.667	104.28
362.879	61.27
363.09	-20.65
363.301	-43.18
363.512	-14.51
363.723	28.5
363.935	14.17
364.146	89.94
364.357	20.31
364.568	91.99
364.779	34.64
364.99	75.6
365.201	-30.89
365.412	63.32
365.623	-6.31
365.834	61.27
366.045	77.65
366.256	42.84
366.467	10.07
366.678	59.22
366.889	16.21
367.1	46.93
367.311	57.17
367.522	5.97
367.733	77.65
367.944	65.36
368.155	51.03
368.366	75.6
368.577	10.07
368.788	26.45
368.999	55.12
369.209	38.74
369.42	98.13
369.631	132.95
369.842	32.6
370.053	14.17
370.264	32.6
370.474	91.99
370.685	-12.46
370.896	-22.7
371.107	106.32
371.317	10.07
371.528	30.55
371.739	36.69
371.95	-14.51
372.16	53.08
372.371	73.56
372.582	16.21
372.792	96.08
373.003	51.03
373.214	75.6
373.424	-34.99
373.635	36.69
373.846	36.69
374.056	46.93
374.267	69.46
374.477	38.74
374.688	16.21
374.898	-4.27
375.109	30.55
375.319	65.36
375.53	46.93
375.74	12.12
375.951	61.27
376.161	100.18
376.372	77.65
376.582	75.6
376.793	61.27
377.003	-10.41
377.214	85.84
377.424	8.02
377.635	104.28
377.845	1.88
378.055	91.99
378.266	-6.31
378.476	77.65
378.686	36.69
378.897	14.17
379.107	67.41
379.317	24.4
379.528	-12.46
379.738	94.04
379.948	-71.85
380.158	28.5
380.369	-4.27
380.579	44.88
380.789	22.36
380.999	26.45
381.21	124.76
381.42	40.79
381.63	5.97
381.84	26.45
382.05	120.66
382.261	30.55
382.471	79.7
382.681	59.22
382.891	110.42
383.101	-14.51
383.311	102.23
383.521	38.74
383.731	98.13
383.941	69.46
384.151	38.74
384.361	73.56
384.571	159.57
384.781	-16.55
384.991	69.46
385.201	118.61
385.411	79.7
385.621	-10.41
385.831	32.6
386.041	34.64
386.251	69.46
386.461	79.7
386.671	30.55
386.881	120.66
387.091	59.22
387.301	55.12
387.511	46.93
387.72	20.31
387.93	75.6
388.14	26.45
388.35	-2.22
388.56	94.04
388.769	157.52
388.979	24.4
389.189	30.55
389.399	59.22
389.609	38.74
389.818	1.88
390.028	104.28
390.238	67.41
390.447	65.36
390.657	89.94
390.867	77.65
391.076	110.42
391.286	24.4
391.496	26.45
391.705	14.17
391.915	116.56
392.125	34.64
392.334	102.23
392.544	-41.13
392.753	34.64
392.963	83.8
393.172	153.43
393.382	3.93
393.591	173.91
393.801	94.04
394.01	128.85
394.22	108.37
394.429	94.04
394.639	94.04
394.848	94.04
395.058	77.65
395.267	63.32
395.477	132.95
395.686	85.84
395.895	79.7
396.105	108.37
396.314	36.69
396.524	83.8
396.733	38.74
396.942	180.05
397.152	65.36
397.361	171.86
397.57	12.12
397.78	59.22
397.989	124.76
398.198	100.18
398.407	130.9
398.617	91.99
398.826	104.28
399.035	141.14
399.244	159.57
399.453	110.42
399.663	106.32
399.872	155.47
400.081	124.76
400.29	139.09
400.499	100.18
400.708	192.34
400.917	46.93
401.127	65.36
401.336	149.33
401.545	91.99
401.754	112.47
401.963	124.76
402.172	100.18
402.381	132.95
402.59	161.62
402.799	145.24
403.008	159.57
403.217	71.51
403.426	98.13
403.635	67.41
403.844	182.1
404.053	161.62
404.262	227.15
404.471	155.47
404.68	155.47
404.888	141.14
405.097	104.28
405.306	106.32
405.515	196.43
405.724	118.61
405.933	227.15
406.142	137.04
406.35	202.58
406.559	182.1
406.768	132.95
406.977	212.82
407.185	218.96
407.394	239.44
407.603	186.19
407.812	200.53
408.02	229.2
408.229	284.5
408.438	327.5
408.646	243.54
408.855	251.73
409.064	266.07
409.272	278.35
409.481	272.21
409.69	309.07
409.898	401.23
410.107	298.83
410.315	296.78
410.524	325.46
410.733	390.99
410.941	333.65
411.15	462.67
411.358	497.49
411.567	472.91
411.775	429.9
411.984	427.85
412.192	481.1
412.401	470.86
412.609	556.88
412.818	487.25
413.026	491.34
413.234	558.92
413.443	550.73
413.651	644.94
413.86	673.61
414.068	689.99
414.276	614.22
414.485	761.67
414.693	712.52
414.901	794.44
415.11	796.49
415.318	827.21
415.526	794.44
415.734	872.26
415.943	880.46
416.151	956.23
416.359	1001.29
416.567	989
416.776	991.05
416.984	1052.49
417.192	1099.59
417.4	1175.36
417.608	1083.2
417.817	1171.27
418.025	1249.09
418.233	1271.62
418.441	1351.49
418.649	1308.48
418.857	1392.45
419.065	1429.31
419.273	1457.98
419.481	1496.89
419.689	1656.64
419.897	1724.22
420.105	1734.46
420.313	1750.84
420.521	1740.6
420.729	1832.76
420.937	2000.69
421.145	1922.87
421.353	2148.15
421.561	2178.87
421.769	2215.73
421.977	2301.75
422.185	2254.64
422.393	2441.01
422.601	2629.42
422.809	2578.22
423.017	2651.95
423.224	2662.19
423.432	2803.5
423.64	2793.26
423.848	3098.41
424.056	3057.45
424.263	3307.3
424.471	3243.81
424.679	3313.44
424.887	3467.04
425.094	3575.58
425.302	3747.61
425.51	3653.41
425.718	3770.14
425.925	3874.59
426.133	4032.28
426.341	4222.74
426.548	4476.69
426.756	4308.76
426.964	4488.98
427.171	4706.06
427.379	4929.29
427.586	5027.59
427.794	4988.68
428.001	5441.28
428.209	5596.93
428.417	5560.06
428.624	5834.49
428.832	5940.99
429.039	5938.94
429.247	5797.63
429.454	6459.12
429.662	7128.81
429.869	6348.53
430.076	6758.13
430.284	6790.89
430.491	7050.99
430.699	7284.45
430.906	7366.37
431.114	7458.53
431.321	7661.28
431.528	7962.33
431.736	8128.22
431.943	8767.18
432.15	8429.27
432.358	8529.62
432.565	9049.8
432.772	8988.36
432.979	9436.87
433.187	9541.32
433.394	9703.11
433.601	10268.34
433.808	10587.83
434.016	10262.2
434.223	10876.59
434.43	11525.8
434.637	11421.35
434.844	11703.97
435.052	12064.41
435.259	11843.23
435.466	12045.98
435.673	12170.91
435.88	12730
436.087	13579.91
436.294	13217.42
436.501	13137.55
436.708	13428.36
436.915	13985.41
437.122	14773.88
437.329	14413.43
437.537	14960.24
437.743	15224.43
437.95	15038.06
438.157	15898.21
438.364	16578.14
438.571	16279.13
438.778	16199.26
438.985	17993.28
439.192	17141.33
439.399	17741.38
439.606	17153.62
439.813	18368.06
440.02	19428.91
440.227	19160.62
440.433	18957.88
440.64	19506.73
440.847	19447.34
441.054	19908.13
441.261	21306.9
441.467	20626.97
441.674	21474.83
441.881	22070.79
442.088	21933.57
442.294	21960.2
442.501	22191.62
442.708	22793.72
442.914	23977.45
443.121	24632.8
443.328	24155.62
443.534	25972.17
443.741	25095.64
443.948	24823.26
444.154	26289.6
444.361	26342.85
444.568	26420.67
444.774	26297.8
444.981	26940.86
445.187	27340.21
445.394	28913.05
445.6	28013.99
445.807	30942.59
446.013	29341.08
446.22	30076.3
446.426	31186.3
446.633	31661.43
446.839	32425.32
447.046	31532.4
447.252	33221.98
447.459	32927.07
447.665	32939.36
447.871	34071.89
448.078	35374.39
448.284	34186.57
448.491	35169.6
448.697	36001.07
448.903	36836.64
449.11	36470.06
449.316	36250.92
449.522	36785.44
449.728	37526.81
449.935	38264.08
450.141	37801.24
450.347	39009.54
450.553	37596.44
450.76	37829.91
450.966	38937.86
451.172	38929.67
451.378	39947.51
451.584	39208.19
451.791	39990.52
451.997	39836.92
452.203	40097.01
452.409	40164.59
452.615	40144.11
452.821	38386.96
453.027	38100.24
453.233	40363.25
453.44	38239.5
453.646	38733.06
453.852	39062.79
454.058	39521.53
454.264	38538.51
454.47	38761.73
454.676	38212.88
454.882	39699.7
455.088	35757.36
455.294	36404.52
455.5	36939.04
455.705	37432.6
455.911	35884.34
456.117	35237.18
456.323	34731.33
456.529	32965.98
456.735	34325.83
456.941	33353.05
457.147	32648.55
457.352	31794.54
457.558	31466.87
457.764	31528.31
457.97	30825.85
458.176	30461.32
458.381	29871.5
458.587	28597.66
458.793	28796.32
458.999	27571.63
459.204	29433.24
459.41	28616.1
459.616	26643.9
459.821	26353.09
460.027	26451.39
460.233	25759.18
460.438	24831.45
460.644	25044.44
460.85	23817.71
461.055	23356.91
461.261	23047.67
461.466	21919.24
461.672	20938.26
461.878	22838.78
462.083	20999.7
462.289	20350.49
462.494	20598.3
462.7	19672.62
462.905	19230.26
463.111	19602.99
463.316	19754.54
463.522	19461.68
463.727	19396.14
463.932	19410.48
464.138	19183.15
464.343	19015.22
464.549	18763.32
464.754	19074.61
464.959	19211.82
465.165	18703.93
465.37	17929.8
465.575	17833.54
465.781	18558.52
465.986	18746.94
466.191	17743.43
466.397	17552.97
466.602	16662.1
466.807	17344.08
