Data from USB4F104151__104__10-24-45-367.txt Node

Date: Wed Mar 12 10:24:45 EDT 2025
User: louis
Spectrometer: USB4F10415
Trigger mode: 4
Integration Time (sec): 3.000000E-2
Scans to average: 1
Electric dark correction enabled: true
Nonlinearity correction enabled: false
Boxcar width: 0
XAxis mode: Wavelengths
Number of Pixels in Spectrum: 3648
>>>>>Begin Spectral Data<<<<<
178.204	-74.75
178.424	-74.75
178.644	-74.75
178.864	-113.66
179.084	-105.47
179.304	-50.18
179.524	-70.65
179.744	31.74
179.964	9.22
180.184	-15.36
180.404	66.56
180.624	-44.03
180.844	11.26
181.064	23.55
181.283	-23.55
181.503	-15.36
181.723	76.8
181.943	-13.31
182.163	33.79
182.383	-54.27
182.602	9.22
182.822	37.89
183.042	48.13
183.262	-17.41
183.482	29.7
183.701	-7.17
183.921	-9.22
184.141	25.6
184.361	7.17
184.58	33.79
184.8	111.61
185.02	-25.6
185.239	58.37
185.459	31.74
185.679	1.02
185.898	-39.94
186.118	9.22
186.338	-31.74
186.557	-17.41
186.777	33.79
186.997	-25.6
187.216	39.94
187.436	7.17
187.655	37.89
187.875	17.41
188.095	33.79
188.314	125.95
188.534	39.94
188.753	21.5
188.973	3.07
189.192	70.65
189.412	15.36
189.631	54.27
189.851	11.26
190.07	62.46
190.29	50.18
190.509	62.46
190.729	-11.26
190.948	56.32
191.168	154.62
191.387	33.79
191.607	-23.55
191.826	3.07
192.045	13.31
192.265	-9.22
192.484	-3.07
192.704	-39.94
192.923	-19.46
193.142	58.37
193.362	66.56
193.581	78.85
193.8	-7.17
194.02	13.31
194.239	7.17
194.458	56.32
194.678	7.17
194.897	-11.26
195.116	-41.98
195.335	41.98
195.555	-5.12
195.774	17.41
195.993	64.51
196.212	-48.13
196.432	3.07
196.651	99.33
196.87	-1.02
197.089	113.66
197.308	99.33
197.528	11.26
197.747	-13.31
197.966	-3.07
198.185	68.61
198.404	19.46
198.623	29.7
198.842	37.89
199.062	58.37
199.281	17.41
199.5	25.6
199.719	15.36
199.938	-33.79
200.157	13.31
200.376	-41.98
200.595	119.81
200.814	62.46
201.033	7.17
201.252	-3.07
201.471	39.94
201.69	41.98
201.909	23.55
202.128	37.89
202.347	5.12
202.566	68.61
202.785	3.07
203.004	3.07
203.223	128
203.442	21.5
203.661	-5.12
203.879	-7.17
204.098	54.27
204.317	31.74
204.536	62.46
204.755	-3.07
204.974	-3.07
205.193	46.08
205.411	58.37
205.63	5.12
205.849	84.99
206.068	-1.02
206.287	-35.84
206.505	50.18
206.724	35.84
206.943	5.12
207.162	44.03
207.381	-9.22
207.599	-15.36
207.818	-9.22
208.037	31.74
208.255	17.41
208.474	3.07
208.693	1.02
208.911	109.57
209.13	9.22
209.349	21.5
209.567	48.13
209.786	5.12
210.005	-23.55
210.223	70.65
210.442	-68.61
210.661	19.46
210.879	-52.22
211.098	5.12
211.316	54.27
211.535	41.98
211.753	-11.26
211.972	23.55
212.191	3.07
212.409	76.8
212.628	15.36
212.846	37.89
213.065	48.13
213.283	70.65
213.502	-31.74
213.72	13.31
213.938	58.37
214.157	48.13
214.375	25.6
214.594	9.22
214.812	9.22
215.031	39.94
215.249	-1.02
215.467	15.36
215.686	58.37
215.904	74.75
216.122	17.41
216.341	134.14
216.559	50.18
216.778	54.27
216.996	37.89
217.214	62.46
217.432	46.08
217.651	-39.94
217.869	-39.94
218.087	74.75
218.306	-41.98
218.524	64.51
218.742	50.18
218.96	54.27
219.179	9.22
219.397	35.84
219.615	25.6
219.833	-27.65
220.051	-3.07
220.27	54.27
220.488	33.79
220.706	-25.6
220.924	9.22
221.142	-31.74
221.36	101.37
221.578	-3.07
221.796	41.98
222.015	48.13
222.233	29.7
222.451	70.65
222.669	-48.13
222.887	78.85
223.105	-37.89
223.323	7.17
223.541	-7.17
223.759	52.22
223.977	-3.07
224.195	136.19
224.413	54.27
224.631	37.89
224.849	-11.26
225.067	70.65
225.285	-15.36
225.503	-11.26
225.721	-50.18
225.939	-33.79
226.157	66.56
226.375	66.56
226.592	-17.41
226.81	56.32
227.028	11.26
227.246	48.13
227.464	15.36
227.682	37.89
227.9	-39.94
228.117	70.65
228.335	5.12
228.553	23.55
228.771	15.36
228.989	58.37
229.206	82.94
229.424	-46.08
229.642	3.07
229.86	31.74
230.077	-11.26
230.295	-17.41
230.513	29.7
230.731	17.41
230.948	46.08
231.166	54.27
231.384	21.5
231.601	-13.31
231.819	50.18
232.037	-9.22
232.254	23.55
232.472	41.98
232.689	50.18
232.907	48.13
233.125	64.51
233.342	35.84
233.56	-66.56
233.777	-3.07
233.995	-70.65
234.213	95.23
234.43	25.6
234.648	1.02
234.865	-56.32
235.083	60.42
235.3	31.74
235.518	15.36
235.735	74.75
235.953	72.7
236.17	-27.65
236.388	89.09
236.605	41.98
236.822	76.8
237.04	52.22
237.257	37.89
237.475	-52.22
237.692	48.13
237.909	44.03
238.127	-52.22
238.344	9.22
238.562	-19.46
238.779	9.22
238.996	1.02
239.214	82.94
239.431	-19.46
239.648	-33.79
239.865	-11.26
240.083	39.94
240.3	87.04
240.517	-44.03
240.735	13.31
240.952	68.61
241.169	66.56
241.386	1.02
241.603	62.46
241.821	9.22
242.038	41.98
242.255	-15.36
242.472	-41.98
242.689	-7.17
242.907	41.98
243.124	25.6
243.341	64.51
243.558	-25.6
243.775	-9.22
243.992	-27.65
244.209	66.56
244.426	21.5
244.643	9.22
244.86	-17.41
245.078	37.89
245.295	33.79
245.512	-27.65
245.729	-25.6
245.946	33.79
246.163	136.19
246.38	19.46
246.597	15.36
246.814	27.65
247.031	-25.6
247.248	29.7
247.464	93.18
247.681	1.02
247.898	-62.46
248.115	-9.22
248.332	-72.7
248.549	21.5
248.766	87.04
248.983	5.12
249.2	52.22
249.417	44.03
249.633	7.17
249.85	-7.17
250.067	-5.12
250.284	35.84
250.501	68.61
250.717	17.41
250.934	109.57
251.151	17.41
251.368	99.33
251.585	52.22
251.801	21.5
252.018	48.13
252.235	-23.55
252.451	-15.36
252.668	19.46
252.885	23.55
253.102	13.31
253.318	-21.5
253.535	-1.02
253.752	-27.65
253.968	-23.55
254.185	74.75
254.401	-23.55
254.618	-19.46
254.835	74.75
255.051	-17.41
255.268	5.12
255.484	11.26
255.701	17.41
255.917	64.51
256.134	-5.12
256.351	-17.41
256.567	-9.22
256.784	-15.36
257	-5.12
257.217	58.37
257.433	23.55
257.65	105.47
257.866	74.75
258.082	21.5
258.299	-56.32
258.515	15.36
258.732	44.03
258.948	31.74
259.165	50.18
259.381	-15.36
259.597	-39.94
259.814	33.79
260.03	-11.26
260.246	9.22
260.463	54.27
260.679	48.13
260.895	50.18
261.112	66.56
261.328	33.79
261.544	-21.5
261.761	111.61
261.977	39.94
262.193	-64.51
262.409	48.13
262.626	17.41
262.842	-15.36
263.058	-13.31
263.274	29.7
263.49	76.8
263.707	25.6
263.923	-41.98
264.139	91.13
264.355	13.31
264.571	-17.41
264.787	15.36
265.004	64.51
265.22	3.07
265.436	-17.41
265.652	-44.03
265.868	62.46
266.084	25.6
266.3	56.32
266.516	-11.26
266.732	56.32
266.948	54.27
267.164	-5.12
267.38	35.84
267.596	95.23
267.812	39.94
268.028	58.37
268.244	-1.02
268.46	64.51
268.676	50.18
268.892	56.32
269.108	-72.7
269.324	-11.26
269.54	31.74
269.756	78.85
269.972	56.32
270.188	-3.07
270.403	17.41
270.619	-7.17
270.835	35.84
271.051	52.22
271.267	-35.84
271.483	-39.94
271.698	44.03
271.914	-23.55
272.13	5.12
272.346	13.31
272.562	95.23
272.777	52.22
272.993	5.12
273.209	-35.84
273.425	72.7
273.64	-3.07
273.856	-11.26
274.072	-31.74
274.287	-41.98
274.503	62.46
274.719	-70.65
274.934	9.22
275.15	5.12
275.366	-23.55
275.581	39.94
275.797	7.17
276.012	-39.94
276.228	9.22
276.444	17.41
276.659	29.7
276.875	-80.89
277.09	7.17
277.306	15.36
277.521	64.51
277.737	7.17
277.952	21.5
278.168	84.99
278.383	89.09
278.599	58.37
278.814	41.98
279.03	50.18
279.245	58.37
279.461	-35.84
279.676	1.02
279.892	50.18
280.107	25.6
280.322	-3.07
280.538	66.56
280.753	46.08
280.969	-15.36
281.184	41.98
281.399	130.05
281.615	66.56
281.83	84.99
282.045	-15.36
282.26	-23.55
282.476	-60.42
282.691	48.13
282.906	41.98
283.122	130.05
283.337	-39.94
283.552	95.23
283.767	7.17
283.983	13.31
284.198	11.26
284.413	39.94
284.628	-54.27
284.843	33.79
285.058	-15.36
285.274	70.65
285.489	1.02
285.704	50.18
285.919	-7.17
286.134	15.36
286.349	33.79
286.564	-9.22
286.779	44.03
286.995	41.98
287.21	13.31
287.425	44.03
287.64	-17.41
287.855	50.18
288.07	-39.94
288.285	19.46
288.5	48.13
288.715	21.5
288.93	21.5
289.145	54.27
289.36	-31.74
289.575	58.37
289.79	60.42
290.004	84.99
290.219	29.7
290.434	58.37
290.649	9.22
290.864	39.94
291.079	27.65
291.294	21.5
291.509	25.6
291.724	21.5
291.938	-25.6
292.153	-11.26
292.368	11.26
292.583	21.5
292.798	21.5
293.012	13.31
293.227	-15.36
293.442	-27.65
293.657	-1.02
293.871	66.56
294.086	-31.74
294.301	97.28
294.516	80.89
294.73	9.22
294.945	48.13
295.16	37.89
295.374	50.18
295.589	105.47
295.804	-15.36
296.018	54.27
296.233	52.22
296.447	50.18
296.662	-13.31
296.877	87.04
297.091	76.8
297.306	39.94
297.52	50.18
297.735	41.98
297.949	-25.6
298.164	111.61
298.378	37.89
298.593	41.98
298.807	19.46
299.022	15.36
299.236	17.41
299.451	74.75
299.665	-62.46
299.88	-48.13
300.094	48.13
300.309	5.12
300.523	7.17
300.737	-3.07
300.952	46.08
301.166	-15.36
301.381	-68.61
301.595	21.5
301.809	97.28
302.024	41.98
302.238	3.07
302.452	56.32
302.667	58.37
302.881	33.79
303.095	56.32
303.309	50.18
303.524	48.13
303.738	-21.5
303.952	58.37
304.166	54.27
304.381	39.94
304.595	74.75
304.809	-74.75
305.023	13.31
305.237	80.89
305.452	27.65
305.666	13.31
305.88	11.26
306.094	13.31
306.308	21.5
306.522	19.46
306.736	35.84
306.95	91.13
307.164	-48.13
307.379	27.65
307.593	87.04
307.807	46.08
308.021	121.85
308.235	33.79
308.449	41.98
308.663	23.55
308.877	99.33
309.091	-7.17
309.305	44.03
309.519	9.22
309.733	58.37
309.947	-89.09
310.161	54.27
310.374	107.52
310.588	-60.42
310.802	52.22
311.016	31.74
311.23	68.61
311.444	19.46
311.658	39.94
311.872	95.23
312.085	95.23
312.299	62.46
312.513	9.22
312.727	41.98
312.941	-33.79
313.154	44.03
313.368	68.61
313.582	78.85
313.796	48.13
314.009	-7.17
314.223	17.41
314.437	-48.13
314.651	13.31
314.864	52.22
315.078	7.17
315.292	56.32
315.505	-15.36
315.719	54.27
315.933	72.7
316.146	9.22
316.36	5.12
316.573	82.94
316.787	87.04
317.001	56.32
317.214	-7.17
317.428	33.79
317.641	-17.41
317.855	54.27
318.068	95.23
318.282	70.65
318.495	76.8
318.709	48.13
318.922	9.22
319.136	87.04
319.349	58.37
319.563	-5.12
319.776	64.51
319.99	23.55
320.203	70.65
320.417	62.46
320.63	56.32
320.843	107.52
321.057	23.55
321.27	17.41
321.483	23.55
321.697	64.51
321.91	87.04
322.124	60.42
322.337	3.07
322.55	-7.17
322.763	17.41
322.977	-13.31
323.19	-13.31
323.403	35.84
323.617	-9.22
323.83	80.89
324.043	39.94
324.256	1.02
324.469	19.46
324.683	80.89
324.896	41.98
325.109	78.85
325.322	17.41
325.535	31.74
325.748	37.89
325.962	27.65
326.175	41.98
326.388	23.55
326.601	113.66
326.814	107.52
327.027	17.41
327.24	87.04
327.453	13.31
327.666	44.03
327.879	17.41
328.092	50.18
328.305	19.46
328.518	41.98
328.731	72.7
328.944	33.79
329.157	58.37
329.37	37.89
329.583	23.55
329.796	91.13
330.009	-7.17
330.222	-48.13
330.435	99.33
330.648	-31.74
330.861	-21.5
331.073	66.56
331.286	3.07
331.499	25.6
331.712	-31.74
331.925	-5.12
332.138	-27.65
332.35	54.27
332.563	-66.56
332.776	64.51
332.989	-29.7
333.202	64.51
333.414	72.7
333.627	58.37
333.84	25.6
334.053	37.89
334.265	-37.89
334.478	-29.7
334.691	25.6
334.903	23.55
335.116	-11.26
335.329	58.37
335.541	-1.02
335.754	89.09
335.966	5.12
336.179	-1.02
336.392	46.08
336.604	56.32
336.817	31.74
337.029	54.27
337.242	74.75
337.454	58.37
337.667	29.7
337.88	113.66
338.092	35.84
338.305	52.22
338.517	33.79
338.729	105.47
338.942	35.84
339.154	11.26
339.367	-35.84
339.579	68.61
339.792	33.79
340.004	-19.46
340.217	-17.41
340.429	25.6
340.641	-5.12
340.854	29.7
341.066	54.27
341.278	50.18
341.491	74.75
341.703	97.28
341.915	5.12
342.128	58.37
342.34	-5.12
342.552	37.89
342.764	17.41
342.977	5.12
343.189	54.27
343.401	50.18
343.613	-41.98
343.826	64.51
344.038	56.32
344.25	31.74
344.462	-11.26
344.674	37.89
344.886	48.13
345.099	115.71
345.311	78.85
345.523	89.09
345.735	48.13
345.947	78.85
346.159	84.99
346.371	-27.65
346.583	5.12
346.795	72.7
347.007	58.37
347.219	13.31
347.431	70.65
347.643	50.18
347.855	-19.46
348.067	78.85
348.279	-21.5
348.491	33.79
348.703	97.28
348.915	37.89
349.127	60.42
349.339	70.65
349.551	56.32
349.763	27.65
349.975	17.41
350.187	60.42
350.399	105.47
350.61	103.42
350.822	23.55
351.034	3.07
351.246	-7.17
351.458	37.89
351.669	76.8
351.881	25.6
352.093	37.89
352.305	109.57
352.517	80.89
352.728	82.94
352.94	48.13
353.152	62.46
353.363	31.74
353.575	56.32
353.787	25.6
353.999	48.13
354.21	103.42
354.422	84.99
354.633	25.6
354.845	29.7
355.057	72.7
355.268	84.99
355.48	105.47
355.692	-19.46
355.903	-72.7
356.115	52.22
356.326	-17.41
356.538	78.85
356.749	54.27
356.961	17.41
357.172	-13.31
357.384	17.41
357.595	64.51
357.807	54.27
358.018	1.02
358.23	-9.22
358.441	62.46
358.653	-7.17
358.864	-15.36
359.075	13.31
359.287	-72.7
359.498	31.74
359.709	17.41
359.921	52.22
360.132	1.02
360.344	64.51
360.555	78.85
360.766	19.46
360.977	-15.36
361.189	76.8
361.4	132.09
361.611	39.94
361.823	72.7
362.034	46.08
362.245	62.46
362.456	82.94
362.667	21.5
362.879	-39.94
363.09	-7.17
363.301	89.09
363.512	62.46
363.723	15.36
363.935	15.36
364.146	19.46
364.357	-15.36
364.568	74.75
364.779	3.07
364.99	52.22
365.201	21.5
365.412	17.41
365.623	33.79
365.834	107.52
366.045	46.08
366.256	80.89
366.467	-7.17
366.678	68.61
366.889	46.08
367.1	7.17
367.311	103.42
367.522	25.6
367.733	68.61
367.944	37.89
368.155	29.7
368.366	21.5
368.577	-3.07
368.788	-7.17
368.999	-15.36
369.209	70.65
369.42	56.32
369.631	123.9
369.842	58.37
370.053	39.94
370.264	50.18
370.474	74.75
370.685	25.6
370.896	25.6
371.107	50.18
371.317	-1.02
371.528	29.7
371.739	105.47
371.95	23.55
372.16	37.89
372.371	-27.65
372.582	-39.94
372.792	33.79
373.003	52.22
373.214	15.36
373.424	66.56
373.635	-5.12
373.846	56.32
374.056	31.74
374.267	35.84
374.477	64.51
374.688	-99.33
374.898	25.6
375.109	70.65
375.319	-56.32
375.53	105.47
375.74	54.27
375.951	80.89
376.161	15.36
376.372	80.89
376.582	5.12
376.793	15.36
377.003	-21.5
377.214	-29.7
377.424	-29.7
377.635	87.04
377.845	-3.07
378.055	82.94
378.266	-39.94
378.476	107.52
378.686	93.18
378.897	84.99
379.107	134.14
379.317	46.08
379.528	-31.74
379.738	60.42
379.948	-1.02
380.158	31.74
380.369	33.79
380.579	82.94
380.789	17.41
380.999	50.18
381.21	-76.8
381.42	37.89
381.63	58.37
381.84	25.6
382.05	74.75
382.261	62.46
382.471	70.65
382.681	-23.55
382.891	78.85
383.101	-7.17
383.311	107.52
383.521	89.09
383.731	46.08
383.941	82.94
384.151	91.13
384.361	-9.22
384.571	60.42
384.781	72.7
384.991	70.65
385.201	117.76
385.411	74.75
385.621	58.37
385.831	31.74
386.041	58.37
386.251	37.89
386.461	56.32
386.671	41.98
386.881	56.32
387.091	64.51
387.301	78.85
387.511	48.13
387.72	138.24
387.93	50.18
388.14	21.5
388.35	84.99
388.56	68.61
388.769	58.37
388.979	52.22
389.189	70.65
389.399	31.74
389.609	48.13
389.818	99.33
390.028	46.08
390.238	125.95
390.447	91.13
390.657	-7.17
390.867	13.31
391.076	41.98
391.286	78.85
391.496	87.04
391.705	5.12
391.915	95.23
392.125	99.33
392.334	50.18
392.544	70.65
392.753	50.18
392.963	33.79
393.172	111.61
393.382	-15.36
393.591	111.61
393.801	134.14
394.01	23.55
394.22	27.65
394.429	105.47
394.639	23.55
394.848	119.81
395.058	48.13
395.267	58.37
395.477	19.46
395.686	82.94
395.895	154.62
396.105	148.48
396.314	33.79
396.524	21.5
396.733	-7.17
396.942	99.33
397.152	152.57
397.361	23.55
397.57	64.51
397.78	46.08
397.989	80.89
398.198	58.37
398.407	41.98
398.617	140.29
398.826	91.13
399.035	136.19
399.244	72.7
399.453	78.85
399.663	74.75
399.872	99.33
400.081	13.31
400.29	134.14
400.499	103.42
400.708	130.05
400.917	66.56
401.127	84.99
401.336	115.71
401.545	148.48
401.754	160.77
401.963	117.76
402.172	111.61
402.381	144.38
402.59	66.56
402.799	13.31
403.008	134.14
403.217	97.28
403.426	189.44
403.635	95.23
403.844	93.18
404.053	97.28
404.262	68.61
404.471	195.58
404.68	193.53
404.888	97.28
405.097	164.86
405.306	144.38
405.515	173.05
405.724	103.42
405.933	128
406.142	211.96
406.35	154.62
406.559	150.53
406.768	171.01
406.977	168.96
407.185	189.44
407.394	205.82
407.603	115.71
407.812	222.2
408.02	201.72
408.229	263.16
408.438	254.97
408.646	162.81
408.855	214.01
409.064	267.26
409.272	230.4
409.481	238.59
409.69	275.45
409.898	242.68
410.107	242.68
410.315	269.31
410.524	224.25
410.733	332.79
410.941	304.12
411.15	265.21
411.358	357.37
411.567	349.18
411.775	349.18
411.984	330.75
412.192	357.37
412.401	334.84
412.609	394.23
412.818	449.53
413.026	396.28
413.234	455.67
413.443	418.81
413.651	523.26
413.86	404.47
414.068	525.3
414.276	545.78
414.485	498.68
414.693	586.74
414.901	605.17
415.11	599.03
415.318	635.89
415.526	721.91
415.734	662.52
415.943	678.9
416.151	764.92
416.359	656.37
416.567	721.91
416.776	783.35
416.984	824.31
417.192	861.17
417.4	828.4
417.608	826.36
417.817	848.88
418.025	977.91
418.233	1029.1
418.441	1000.43
418.649	1074.16
418.857	1039.34
419.065	1176.56
419.273	1168.37
419.481	1192.94
419.689	1297.39
419.897	1440.75
420.105	1303.53
420.313	1358.83
420.521	1424.36
420.729	1442.79
420.937	1555.43
421.145	1483.75
421.353	1670.12
421.561	1709.03
421.769	1709.03
421.977	1819.62
422.185	1782.76
422.393	1901.54
422.601	1942.5
422.809	1926.11
423.017	2096.1
423.224	2147.3
423.432	2270.17
423.64	2147.3
423.848	2358.24
424.056	2304.99
424.263	2466.78
424.471	2460.63
424.679	2624.47
424.887	2665.43
425.094	2761.69
425.302	2759.64
425.51	2888.66
425.718	3083.22
425.925	3056.59
426.133	3193.81
426.341	3257.29
426.548	3447.76
426.756	3400.65
426.964	3460.04
427.171	3693.51
427.379	3699.66
427.586	3888.07
427.794	4058.05
428.001	4275.13
428.209	4248.51
428.417	4277.18
428.624	4649.91
428.832	4617.15
429.039	4543.42
429.247	4588.47
429.454	4948.92
429.662	5469.1
429.869	4912.05
430.076	5325.74
430.284	5114.8
430.491	5280.69
430.699	5778.34
430.906	5817.26
431.114	5710.76
431.321	5876.65
431.528	6022.05
431.736	6562.72
431.943	6767.51
432.15	6601.63
432.358	6816.66
432.565	7127.96
432.772	6984.6
432.979	7168.91
433.187	7496.59
433.394	7459.73
433.601	7934.85
433.808	8065.92
434.016	8016.77
434.223	8274.82
434.43	8827.77
434.637	8649.6
434.844	9241.46
435.052	9329.52
435.259	9182.07
435.466	9421.68
435.673	9319.28
435.88	9925.48
436.087	10638.17
436.294	10361.7
436.501	10208.1
436.708	10390.37
436.915	10896.22
437.122	11021.14
437.329	11176.79
437.537	11557.71
437.743	11619.15
437.95	11639.63
438.157	12194.63
438.364	12780.35
438.571	12657.47
438.778	12540.74
438.985	13775.66
439.192	13148.98
439.399	13734.7
439.606	13501.23
439.813	14289.7
440.02	14904.09
440.227	14777.12
440.433	14658.34
440.64	14920.48
440.847	15016.73
441.054	15590.16
441.261	16161.55
441.467	16233.22
441.674	16476.93
441.881	17042.17
442.088	17181.43
442.294	16888.57
442.501	17310.46
442.708	17588.98
442.914	18430.69
443.121	19053.28
443.328	18928.35
443.534	20189.9
443.741	18830.05
443.948	19114.72
444.154	20576.97
444.361	20302.54
444.568	20732.61
444.774	20552.39
444.981	20912.83
445.187	21244.6
445.394	22055.6
445.6	21863.09
445.807	24119.95
446.013	22899.36
446.22	23237.28
446.426	24160.91
446.633	24742.53
446.839	25111.17
447.046	24343.18
447.252	25623.16
447.459	25780.85
447.665	25301.63
447.871	26524.27
448.078	27538.01
448.284	26268.27
448.491	27062.88
448.697	28140.11
448.903	28676.68
449.11	28633.68
449.316	27931.22
449.522	28801.61
449.728	29452.86
449.935	29788.73
450.141	29356.61
450.347	29917.75
450.553	29219.39
450.76	29516.35
450.966	30370.35
451.172	29848.12
451.378	31066.66
451.584	30292.53
451.791	30675.5
451.997	30921.26
452.203	31328.8
452.409	31076.9
452.615	31435.3
452.821	29837.88
453.027	29620.8
453.233	31504.93
453.44	29772.35
453.646	30300.72
453.852	30304.82
454.058	30845.48
454.264	29891.13
454.47	30546.48
454.676	29610.56
454.882	30761.51
455.088	28191.31
455.294	28482.13
455.5	29020.74
455.705	29151.81
455.911	27751
456.117	27318.88
456.323	26980.96
456.529	25551.48
456.735	26430.06
456.941	26049.14
457.147	25193.09
457.352	24742.53
457.558	24359.56
457.764	24173.2
457.97	24046.23
458.176	23292.57
458.381	23517.85
458.587	22448.81
458.793	22143.66
458.999	20986.56
459.204	22731.43
459.41	22031.02
459.616	20419.27
459.821	20660.93
460.027	20550.34
460.233	20011.73
460.438	18891.49
460.644	19501.78
460.85	18350.82
461.055	18238.19
461.261	18125.55
461.466	16952.06
461.672	16167.69
461.878	17255.16
462.083	16278.28
462.289	15915.79
462.494	15987.47
462.7	15207.19
462.905	14551.84
463.111	15358.74
463.316	15201.05
463.522	15258.39
463.727	14863.13
463.932	15078.17
464.138	14662.43
464.343	14945.05
464.549	14400.29
464.754	14900
464.959	14793.5
465.165	14508.83
465.37	14021.42
465.575	13636.4
465.781	14304.04
465.986	14248.74
466.191	13921.07
466.397	13577.01
466.602	12944.19
466.807	13628.21
467.012	13454.13
467.218	13196.09
467.423	13169.46
467.628	13443.89
