Data from USB4F104151__240__10-30-36-479.txt Node

Date: Wed Mar 12 10:30:36 EDT 2025
User: louis
Spectrometer: USB4F10415
Trigger mode: 4
Integration Time (sec): 3.000000E-2
Scans to average: 1
Electric dark correction enabled: true
Nonlinearity correction enabled: false
Boxcar width: 0
XAxis mode: Wavelengths
Number of Pixels in Spectrum: 3648
>>>>>Begin Spectral Data<<<<<
178.204	-63.66
178.424	-63.66
178.644	-63.66
178.864	-63.66
179.084	-129.19
179.304	-20.65
179.524	-65.71
179.744	-30.89
179.964	44.88
180.184	-32.94
180.404	26.45
180.624	-28.84
180.844	42.84
181.064	18.26
181.283	55.12
181.503	-6.31
181.723	-2.22
181.943	-30.89
182.163	57.17
182.383	5.97
182.602	-18.6
182.822	67.41
183.042	3.93
183.262	-53.42
183.482	112.47
183.701	59.22
183.921	26.45
184.141	81.75
184.361	40.79
184.58	85.84
184.8	61.27
185.02	-8.36
185.239	30.55
185.459	32.6
185.679	94.04
185.898	-0.17
186.118	38.74
186.338	48.98
186.557	-4.27
186.777	-0.17
186.997	71.51
187.216	71.51
187.436	83.8
187.655	16.21
187.875	14.17
188.095	-18.6
188.314	59.22
188.534	106.32
188.753	20.31
188.973	71.51
189.192	83.8
189.412	51.03
189.631	55.12
189.851	-14.51
190.07	85.84
190.29	67.41
190.509	139.09
190.729	20.31
190.948	-0.17
191.168	192.34
191.387	38.74
191.607	-14.51
191.826	108.37
192.045	-22.7
192.265	8.02
192.484	81.75
192.704	32.6
192.923	28.5
193.142	57.17
193.362	20.31
193.581	71.51
193.8	55.12
194.02	67.41
194.239	67.41
194.458	75.6
194.678	75.6
194.897	34.64
195.116	51.03
195.335	-10.41
195.555	38.74
195.774	26.45
195.993	34.64
196.212	75.6
196.432	51.03
196.651	34.64
196.87	73.56
197.089	122.71
197.308	65.36
197.528	24.4
197.747	1.88
197.966	46.93
198.185	71.51
198.404	1.88
198.623	14.17
198.842	159.57
199.062	51.03
199.281	91.99
199.5	51.03
199.719	61.27
199.938	104.28
200.157	5.97
200.376	53.08
200.595	81.75
200.814	53.08
201.033	44.88
201.252	46.93
201.471	34.64
201.69	40.79
201.909	20.31
202.128	42.84
202.347	8.02
202.566	24.4
202.785	-77.99
203.004	16.21
203.223	126.8
203.442	18.26
203.661	5.97
203.879	44.88
204.098	124.76
204.317	-6.31
204.536	24.4
204.755	22.36
204.974	55.12
205.193	36.69
205.411	55.12
205.63	57.17
205.849	91.99
206.068	87.89
206.287	14.17
206.505	28.5
206.724	-8.36
206.943	22.36
207.162	10.07
207.381	32.6
207.599	67.41
207.818	48.98
208.037	-14.51
208.255	-18.6
208.474	38.74
208.693	32.6
208.911	44.88
209.13	75.6
209.349	-2.22
209.567	102.23
209.786	77.65
210.005	81.75
210.223	18.26
210.442	12.12
210.661	63.32
210.879	-26.79
211.098	10.07
211.316	18.26
211.535	94.04
211.753	20.31
211.972	26.45
212.191	67.41
212.409	57.17
212.628	40.79
212.846	96.08
213.065	40.79
213.283	69.46
213.502	-12.46
213.72	24.4
213.938	-37.03
214.157	-24.75
214.375	40.79
214.594	128.85
214.812	91.99
215.031	36.69
215.249	104.28
215.467	1.88
215.686	30.55
215.904	85.84
216.122	22.36
216.341	63.32
216.559	57.17
216.778	1.88
216.996	89.94
217.214	40.79
217.432	-14.51
217.651	30.55
217.869	10.07
218.087	30.55
218.306	46.93
218.524	71.51
218.742	79.7
218.96	36.69
219.179	46.93
219.397	75.6
219.615	112.47
219.833	42.84
220.051	26.45
220.27	57.17
220.488	69.46
220.706	128.85
220.924	28.5
221.142	63.32
221.36	-41.13
221.578	57.17
221.796	16.21
222.015	36.69
222.233	40.79
222.451	18.26
222.669	3.93
222.887	65.36
223.105	24.4
223.323	20.31
223.541	10.07
223.759	30.55
223.977	24.4
224.195	79.7
224.413	67.41
224.631	26.45
224.849	59.22
225.067	38.74
225.285	-67.75
225.503	26.45
225.721	44.88
225.939	53.08
226.157	14.17
226.375	104.28
226.592	46.93
226.81	98.13
227.028	81.75
227.246	57.17
227.464	16.21
227.682	81.75
227.9	65.36
228.117	91.99
228.335	-0.17
228.553	61.27
228.771	61.27
228.989	100.18
229.206	96.08
229.424	87.89
229.642	26.45
229.86	42.84
230.077	34.64
230.295	-6.31
230.513	89.94
230.731	-2.22
230.948	94.04
231.166	22.36
231.384	10.07
231.601	-45.23
231.819	69.46
232.037	40.79
232.254	-53.42
232.472	59.22
232.689	-8.36
232.907	44.88
233.125	79.7
233.342	57.17
233.56	30.55
233.777	10.07
233.995	75.6
234.213	91.99
234.43	-22.7
234.648	-18.6
234.865	1.88
235.083	57.17
235.3	5.97
235.518	34.64
235.735	110.42
235.953	44.88
236.17	81.75
236.388	-0.17
236.605	1.88
236.822	73.56
237.04	112.47
237.257	36.69
237.475	22.36
237.692	124.76
237.909	8.02
238.127	24.4
238.344	81.75
238.562	73.56
238.779	46.93
238.996	77.65
239.214	14.17
239.431	79.7
239.648	40.79
239.865	79.7
240.083	75.6
240.3	128.85
240.517	63.32
240.735	55.12
240.952	34.64
241.169	16.21
241.386	22.36
241.603	10.07
241.821	-0.17
242.038	67.41
242.255	63.32
242.472	124.76
242.689	1.88
242.907	124.76
243.124	44.88
243.341	46.93
243.558	51.03
243.775	-2.22
243.992	5.97
244.209	87.89
244.426	100.18
244.643	69.46
244.86	48.98
245.078	30.55
245.295	81.75
245.512	22.36
245.729	-12.46
245.946	114.52
246.163	104.28
246.38	77.65
246.597	8.02
246.814	75.6
247.031	73.56
247.248	5.97
247.464	124.76
247.681	34.64
247.898	51.03
248.115	73.56
248.332	-53.42
248.549	40.79
248.766	114.52
248.983	137.04
249.2	42.84
249.417	53.08
249.633	14.17
249.85	94.04
250.067	1.88
250.284	12.12
250.501	55.12
250.717	75.6
250.934	61.27
251.151	81.75
251.368	124.76
251.585	32.6
251.801	-0.17
252.018	-24.75
252.235	55.12
252.451	34.64
252.668	16.21
252.885	38.74
253.102	67.41
253.318	42.84
253.535	38.74
253.752	20.31
253.968	28.5
254.185	85.84
254.401	79.7
254.618	44.88
254.835	53.08
255.051	83.8
255.268	59.22
255.484	67.41
255.701	16.21
255.917	73.56
256.134	42.84
256.351	108.37
256.567	-45.23
256.784	10.07
257	81.75
257.217	-12.46
257.433	85.84
257.65	106.32
257.866	-39.08
258.082	48.98
258.299	-8.36
258.515	75.6
258.732	18.26
258.948	48.98
259.165	40.79
259.381	14.17
259.597	38.74
259.814	143.19
260.03	67.41
260.246	-22.7
260.463	98.13
260.679	28.5
260.895	34.64
261.112	44.88
261.328	48.98
261.544	73.56
261.761	96.08
261.977	18.26
262.193	96.08
262.409	126.8
262.626	36.69
262.842	30.55
263.058	26.45
263.274	118.61
263.49	59.22
263.707	104.28
263.923	26.45
264.139	32.6
264.355	65.36
264.571	71.51
264.787	18.26
265.004	57.17
265.22	30.55
265.436	12.12
265.652	83.8
265.868	104.28
266.084	63.32
266.3	-39.08
266.516	-28.84
266.732	104.28
266.948	67.41
267.164	38.74
267.38	59.22
267.596	16.21
267.812	139.09
268.028	46.93
268.244	42.84
268.46	85.84
268.676	51.03
268.892	16.21
269.108	14.17
269.324	48.98
269.54	20.31
269.756	96.08
269.972	73.56
270.188	55.12
270.403	51.03
270.619	65.36
270.835	67.41
271.051	81.75
271.267	-61.61
271.483	-59.56
271.698	153.43
271.914	44.88
272.13	-26.79
272.346	85.84
272.562	34.64
272.777	5.97
272.993	-82.09
273.209	44.88
273.425	40.79
273.64	48.98
273.856	96.08
274.072	42.84
274.287	22.36
274.503	57.17
274.719	79.7
274.934	69.46
275.15	8.02
275.366	16.21
275.581	-14.51
275.797	38.74
276.012	-0.17
276.228	104.28
276.444	16.21
276.659	-24.75
276.875	75.6
277.09	20.31
277.306	75.6
277.521	79.7
277.737	36.69
277.952	38.74
278.168	1.88
278.383	67.41
278.599	18.26
278.814	-14.51
279.03	67.41
279.245	65.36
279.461	14.17
279.676	71.51
279.892	1.88
280.107	16.21
280.322	67.41
280.538	18.26
280.753	40.79
280.969	-4.27
281.184	48.98
281.399	51.03
281.615	67.41
281.83	87.89
282.045	16.21
282.26	30.55
282.476	89.94
282.691	44.88
282.906	22.36
283.122	51.03
283.337	53.08
283.552	-14.51
283.767	1.88
283.983	67.41
284.198	63.32
284.413	53.08
284.628	-14.51
284.843	28.5
285.058	5.97
285.274	-14.51
285.489	44.88
285.704	100.18
285.919	67.41
286.134	5.97
286.349	67.41
286.564	118.61
286.779	75.6
286.995	36.69
287.21	-0.17
287.425	65.36
287.64	16.21
287.855	53.08
288.07	-22.7
288.285	67.41
288.5	79.7
288.715	89.94
288.93	73.56
289.145	22.36
289.36	18.26
289.575	79.7
289.79	87.89
290.004	24.4
290.219	98.13
290.434	96.08
290.649	22.36
290.864	8.02
291.079	36.69
291.294	73.56
291.509	44.88
291.724	71.51
291.938	-39.08
292.153	104.28
292.368	83.8
292.583	67.41
292.798	32.6
293.012	38.74
293.227	128.85
293.442	46.93
293.657	40.79
293.871	83.8
294.086	67.41
294.301	139.09
294.516	42.84
294.73	-14.51
294.945	42.84
295.16	77.65
295.374	94.04
295.589	55.12
295.804	112.47
296.018	79.7
296.233	36.69
296.447	28.5
296.662	-6.31
296.877	59.22
297.091	8.02
297.306	96.08
297.52	30.55
297.735	67.41
297.949	36.69
298.164	98.13
298.378	51.03
298.593	14.17
298.807	38.74
299.022	71.51
299.236	81.75
299.451	-24.75
299.665	-47.27
299.88	51.03
300.094	28.5
300.309	55.12
300.523	46.93
300.737	42.84
300.952	22.36
301.166	116.56
301.381	18.26
301.595	63.32
301.809	36.69
302.024	59.22
302.238	14.17
302.452	118.61
302.667	106.32
302.881	51.03
303.095	106.32
303.309	73.56
303.524	87.89
303.738	40.79
303.952	73.56
304.166	32.6
304.381	14.17
304.595	67.41
304.809	30.55
305.023	67.41
305.237	5.97
305.452	79.7
305.666	5.97
305.88	102.23
306.094	44.88
306.308	12.12
306.522	91.99
306.736	28.5
306.95	42.84
307.164	61.27
307.379	38.74
307.593	178
307.807	59.22
308.021	57.17
308.235	32.6
308.449	-53.42
308.663	22.36
308.877	190.29
309.091	71.51
309.305	40.79
309.519	-45.23
309.733	38.74
309.947	57.17
310.161	61.27
310.374	71.51
310.588	59.22
310.802	102.23
311.016	77.65
311.23	34.64
311.444	-24.75
311.658	71.51
311.872	87.89
312.085	110.42
312.299	14.17
312.513	12.12
312.727	40.79
312.941	42.84
313.154	18.26
313.368	18.26
313.582	116.56
313.796	-12.46
314.009	51.03
314.223	81.75
314.437	18.26
314.651	38.74
314.864	-18.6
315.078	-61.61
315.292	8.02
315.505	114.52
315.719	73.56
315.933	96.08
316.146	-0.17
316.36	-2.22
316.573	120.66
316.787	48.98
317.001	59.22
317.214	34.64
317.428	67.41
317.641	79.7
317.855	18.26
318.068	38.74
318.282	116.56
318.495	110.42
318.709	108.37
318.922	108.37
319.136	106.32
319.349	48.98
319.563	-6.31
319.776	59.22
319.99	10.07
320.203	59.22
320.417	94.04
320.63	-6.31
320.843	91.99
321.057	18.26
321.27	59.22
321.483	44.88
321.697	114.52
321.91	59.22
322.124	83.8
322.337	51.03
322.55	42.84
322.763	38.74
322.977	20.31
323.19	-0.17
323.403	83.8
323.617	32.6
323.83	81.75
324.043	71.51
324.256	36.69
324.469	59.22
324.683	104.28
324.896	83.8
325.109	65.36
325.322	83.8
325.535	165.71
325.748	55.12
325.962	51.03
326.175	112.47
326.388	63.32
326.601	22.36
326.814	30.55
327.027	73.56
327.24	118.61
327.453	1.88
327.666	73.56
327.879	89.94
328.092	48.98
328.305	96.08
328.518	42.84
328.731	122.71
328.944	67.41
329.157	89.94
329.37	3.93
329.583	71.51
329.796	106.32
330.009	-14.51
330.222	32.6
330.435	26.45
330.648	69.46
330.861	89.94
331.073	102.23
331.286	55.12
331.499	139.09
331.712	-10.41
331.925	14.17
332.138	42.84
332.35	104.28
332.563	34.64
332.776	22.36
332.989	40.79
333.202	-2.22
333.414	128.85
333.627	151.38
333.84	75.6
334.053	69.46
334.265	59.22
334.478	3.93
334.691	12.12
334.903	83.8
335.116	42.84
335.329	114.52
335.541	59.22
335.754	85.84
335.966	51.03
336.179	83.8
336.392	61.27
336.604	51.03
336.817	59.22
337.029	79.7
337.242	34.64
337.454	22.36
337.667	22.36
337.88	100.18
338.092	48.98
338.305	120.66
338.517	1.88
338.729	30.55
338.942	128.85
339.154	38.74
339.367	36.69
339.579	46.93
339.792	28.5
340.004	83.8
340.217	-28.84
340.429	137.04
340.641	26.45
340.854	55.12
341.066	16.21
341.278	46.93
341.491	112.47
341.703	3.93
341.915	-0.17
342.128	118.61
342.34	120.66
342.552	28.5
342.764	3.93
342.977	30.55
343.189	-45.23
343.401	83.8
343.613	34.64
343.826	110.42
344.038	53.08
344.25	96.08
344.462	71.51
344.674	61.27
344.886	71.51
345.099	126.8
345.311	48.98
345.523	51.03
345.735	20.31
345.947	96.08
346.159	32.6
346.371	71.51
346.583	96.08
346.795	83.8
347.007	73.56
347.219	75.6
347.431	75.6
347.643	67.41
347.855	59.22
348.067	20.31
348.279	-32.94
348.491	67.41
348.703	30.55
348.915	89.94
349.127	14.17
349.339	42.84
349.551	69.46
349.763	57.17
349.975	53.08
350.187	77.65
350.399	57.17
350.61	73.56
350.822	30.55
351.034	85.84
351.246	57.17
351.458	75.6
351.669	108.37
351.881	143.19
352.093	57.17
352.305	98.13
352.517	108.37
352.728	91.99
352.94	51.03
353.152	14.17
353.363	26.45
353.575	96.08
353.787	135
353.999	-32.94
354.21	71.51
354.422	61.27
354.633	10.07
354.845	34.64
355.057	100.18
355.268	20.31
355.48	-8.36
355.692	20.31
355.903	67.41
356.115	75.6
356.326	30.55
356.538	108.37
356.749	34.64
356.961	104.28
357.172	61.27
357.384	67.41
357.595	104.28
357.807	10.07
358.018	110.42
358.23	108.37
358.441	151.38
358.653	100.18
358.864	122.71
359.075	77.65
359.287	124.76
359.498	106.32
359.709	102.23
359.921	61.27
360.132	73.56
360.344	112.47
360.555	71.51
360.766	69.46
360.977	63.32
361.189	175.95
361.4	40.79
361.611	55.12
361.823	36.69
362.034	38.74
362.245	48.98
362.456	53.08
362.667	65.36
362.879	73.56
363.09	130.9
363.301	63.32
363.512	104.28
363.723	32.6
363.935	69.46
364.146	155.47
364.357	59.22
364.568	59.22
364.779	65.36
364.99	126.8
365.201	42.84
365.412	180.05
365.623	12.12
365.834	73.56
366.045	126.8
366.256	44.88
366.467	24.4
366.678	75.6
366.889	18.26
367.1	12.12
367.311	89.94
367.522	59.22
367.733	100.18
367.944	53.08
368.155	12.12
368.366	18.26
368.577	75.6
368.788	75.6
368.999	8.02
369.209	67.41
369.42	153.43
369.631	145.24
369.842	91.99
370.053	20.31
370.264	46.93
370.474	114.52
370.685	-22.7
370.896	79.7
371.107	38.74
371.317	67.41
371.528	63.32
371.739	83.8
371.95	124.76
372.16	30.55
372.371	63.32
372.582	89.94
372.792	38.74
373.003	75.6
373.214	85.84
373.424	102.23
373.635	14.17
373.846	104.28
374.056	67.41
374.267	91.99
374.477	34.64
374.688	53.08
374.898	26.45
375.109	36.69
375.319	51.03
375.53	100.18
375.74	120.66
375.951	32.6
376.161	85.84
376.372	73.56
376.582	59.22
376.793	69.46
377.003	14.17
377.214	34.64
377.424	51.03
377.635	55.12
377.845	48.98
378.055	91.99
378.266	51.03
378.476	10.07
378.686	112.47
378.897	65.36
379.107	18.26
379.317	100.18
379.528	46.93
379.738	63.32
379.948	28.5
380.158	116.56
380.369	12.12
380.579	67.41
380.789	18.26
380.999	98.13
381.21	102.23
381.42	157.52
381.63	87.89
381.84	89.94
382.05	155.47
382.261	102.23
382.471	83.8
382.681	53.08
382.891	63.32
383.101	75.6
383.311	36.69
383.521	161.62
383.731	63.32
383.941	75.6
384.151	55.12
384.361	53.08
384.571	87.89
384.781	73.56
384.991	79.7
385.201	153.43
385.411	79.7
385.621	5.97
385.831	65.36
386.041	77.65
386.251	28.5
386.461	102.23
386.671	26.45
386.881	67.41
387.091	67.41
387.301	87.89
387.511	116.56
387.72	100.18
387.93	163.67
388.14	59.22
388.35	48.98
388.56	18.26
388.769	114.52
388.979	16.21
389.189	106.32
389.399	51.03
389.609	67.41
389.818	32.6
390.028	44.88
390.238	157.52
390.447	51.03
390.657	87.89
390.867	106.32
391.076	124.76
391.286	163.67
391.496	77.65
391.705	1.88
391.915	124.76
392.125	87.89
392.334	83.8
392.544	42.84
392.753	40.79
392.963	36.69
393.172	94.04
393.382	83.8
393.591	114.52
393.801	104.28
394.01	155.47
394.22	73.56
394.429	114.52
394.639	147.28
394.848	118.61
395.058	128.85
395.267	167.76
395.477	89.94
395.686	81.75
395.895	79.7
396.105	108.37
396.314	63.32
396.524	55.12
396.733	96.08
396.942	128.85
397.152	145.24
397.361	42.84
397.57	130.9
397.78	155.47
397.989	173.91
398.198	143.19
398.407	91.99
398.617	108.37
398.826	91.99
399.035	155.47
399.244	100.18
399.453	202.58
399.663	110.42
399.872	79.7
400.081	130.9
400.29	141.14
400.499	83.8
400.708	137.04
400.917	137.04
401.127	81.75
401.336	83.8
401.545	182.1
401.754	165.71
401.963	159.57
402.172	180.05
402.381	128.85
402.59	190.29
402.799	116.56
403.008	112.47
403.217	89.94
403.426	192.34
403.635	124.76
403.844	141.14
404.053	272.21
404.262	200.53
404.471	208.72
404.68	157.52
404.888	110.42
405.097	141.14
405.306	202.58
405.515	237.39
405.724	235.35
405.933	270.16
406.142	169.81
406.35	268.11
406.559	163.67
406.768	225.11
406.977	339.79
407.185	284.5
407.394	253.78
407.603	192.34
407.812	302.93
408.02	315.22
408.229	313.17
408.438	274.26
408.646	313.17
408.855	307.02
409.064	352.08
409.272	309.07
409.481	307.02
409.69	337.74
409.898	401.23
410.107	390.99
410.315	313.17
410.524	372.56
410.733	401.23
410.941	350.03
411.15	450.38
411.358	417.61
411.567	450.38
411.775	491.34
411.984	493.39
412.192	483.15
412.401	450.38
412.609	546.64
412.818	589.64
413.026	497.49
413.234	634.7
413.443	618.32
413.651	536.4
413.86	599.88
414.068	661.32
414.276	741.19
414.485	759.63
414.693	776.01
414.901	751.43
415.11	835.4
415.318	763.72
415.526	866.12
415.734	896.84
415.943	921.42
416.151	933.7
416.359	927.56
416.567	964.42
416.776	997.19
416.984	1079.11
417.192	1107.78
417.4	1060.68
417.608	1183.56
417.817	1105.73
418.025	1218.37
418.233	1292.1
418.441	1302.34
418.649	1404.74
418.857	1470.27
419.065	1484.61
419.273	1378.11
419.481	1462.08
419.689	1584.96
419.897	1711.93
420.105	1748.79
420.313	1832.76
420.521	1820.47
420.729	1951.54
420.937	1890.1
421.145	1980.22
421.353	2041.65
421.561	2223.92
421.769	2285.36
421.977	2174.77
422.185	2320.18
422.393	2459.44
422.601	2545.45
422.809	2498.35
423.017	2615.09
423.224	2778.92
423.432	2752.3
423.64	2823.98
423.848	3090.21
424.056	2961.19
424.263	3112.74
424.471	3209
424.679	3219.24
424.887	3481.38
425.094	3487.52
425.302	3594.01
425.51	3645.21
425.718	3657.5
425.925	3835.67
426.133	4077.34
426.341	4257.56
426.548	4413.2
426.756	4415.25
426.964	4419.35
427.171	4800.27
427.379	4736.78
427.586	4966.15
427.794	5043.98
428.001	5248.77
428.209	5306.12
428.417	5426.95
428.624	5734.14
428.832	5879.55
429.039	5836.54
429.247	5641.98
429.454	6301.43
429.662	6797.04
429.869	6293.24
430.076	6852.33
430.284	6401.78
430.491	6631.15
430.699	6940.4
430.906	7116.52
431.114	7317.22
431.321	7556.83
431.528	7892.7
431.736	8240.86
431.943	8546
432.15	8435.41
432.358	8521.43
432.565	9021.13
432.772	8746.7
432.979	9213.64
433.187	9561.8
433.394	9641.67
433.601	10110.65
433.808	10157.75
434.016	9934.53
434.223	10505.91
434.43	11112.11
434.637	10999.47
434.844	11706.02
435.052	11880.1
435.259	11712.16
435.466	12039.84
435.673	11853.47
435.88	12537.49
436.087	13295.24
436.294	12904.08
436.501	13098.64
436.708	13069.97
436.915	13328.01
437.122	14296.7
437.329	14059.13
437.537	14546.55
437.743	14694.01
437.95	14601.85
438.157	15566.44
438.364	16023.14
438.571	15638.12
438.778	15826.53
438.985	17440.33
439.192	16868.95
439.399	17493.58
439.606	16995.92
439.813	17894.98
440.02	18998.84
440.227	18755.13
440.433	18421.31
440.64	19125.81
440.847	19099.19
441.054	19381.81
441.261	20624.92
441.467	20287.01
441.674	20919.83
441.881	21538.32
442.088	21376.53
442.294	21020.18
442.501	21628.43
442.708	22543.87
442.914	23586.29
443.121	24114.66
443.328	23465.46
443.534	25404.88
443.741	24466.91
443.948	24368.61
444.154	26029.51
444.361	25693.65
444.568	25806.28
444.774	25794
444.981	25970.12
445.187	26918.33
445.394	27833.77
445.6	27612.59
445.807	30461.32
446.013	28945.82
446.22	29765.01
446.426	30551.43
446.633	30731.65
446.839	31901.04
447.046	30350.73
447.252	32150.89
447.459	32200.04
447.665	32142.7
447.871	33738.07
448.078	34647.36
448.284	33332.57
448.491	34385.22
448.697	35435.83
448.903	35904.82
449.11	36173.1
449.316	35366.2
449.522	36113.71
449.728	36830.5
449.935	37256.48
450.141	37053.73
450.347	38155.54
450.553	37117.21
450.76	37088.54
450.966	38579.46
451.172	37993.75
451.378	38470.92
451.584	38202.64
451.791	38923.52
451.997	39009.54
452.203	39361.79
452.409	39505.15
452.615	39165.18
452.821	37981.46
453.027	37432.6
453.233	39300.35
453.44	37270.81
453.646	38223.12
453.852	38124.82
454.058	38804.74
454.264	37627.16
454.47	38477.07
454.676	37459.23
454.882	38786.31
455.088	35335.48
455.294	35671.35
455.5	36152.62
455.705	36549.93
455.911	35085.63
456.117	34792.77
456.323	33854.8
456.529	32124.27
456.735	33328.47
456.941	32468.33
457.147	31999.34
457.352	31448.44
457.558	30875.01
457.764	30991.74
457.97	29941.13
458.176	29676.94
458.381	29762.96
458.587	28347.81
458.793	28061.1
458.999	26762.68
459.204	28722.59
459.41	27889.07
459.616	26117.57
459.821	25998.79
460.027	25943.5
460.233	25189.84
460.438	24081.89
460.644	24591.84
460.85	23469.55
461.055	23062.01
461.261	22834.68
461.466	21530.12
461.672	20848.15
461.878	22179.33
462.083	20780.57
462.289	20194.85
462.494	20057.64
462.7	19117.62
462.905	18527.8
463.111	19506.73
463.316	19277.36
463.522	18988.6
463.727	19039.79
463.932	18835
464.138	18765.37
464.343	19068.47
464.549	18380.35
464.754	18974.26
464.959	18535.99
465.165	18517.56
465.37	17958.47
465.575	17591.88
465.781	18210.37
465.986	18187.84
466.191	17765.96
466.397	17112.66
466.602	16289.37
466.807	17071.7
467.012	16897.62
467.218	17016.4
