Data from USB4F104151__166__10-27-23-952.txt Node

Date: Wed Mar 12 10:27:23 EDT 2025
User: louis
Spectrometer: USB4F10415
Trigger mode: 4
Integration Time (sec): 3.000000E-2
Scans to average: 1
Electric dark correction enabled: true
Nonlinearity correction enabled: false
Boxcar width: 0
XAxis mode: Wavelengths
Number of Pixels in Spectrum: 3648
>>>>>Begin Spectral Data<<<<<
178.204	-88.4
178.424	-88.4
178.644	-88.4
178.864	-158.03
179.084	-119.12
179.304	-26.96
179.524	42.67
179.744	-33.11
179.964	36.52
180.184	54.95
180.404	50.86
180.624	-8.53
180.844	-57.68
181.064	-16.73
181.283	-31.06
181.503	-10.58
181.723	-0.34
181.943	-31.06
182.163	-10.58
182.383	-0.34
182.602	36.52
182.822	20.14
183.042	-12.63
183.262	-10.58
183.482	-8.53
183.701	38.57
183.921	-4.44
184.141	-65.88
184.361	34.47
184.58	97.96
184.8	65.19
185.02	-6.49
185.239	20.14
185.459	59.05
185.679	-12.63
185.898	54.95
186.118	-98.64
186.338	-4.44
186.557	69.29
186.777	-35.16
186.997	36.52
187.216	71.34
187.436	11.95
187.655	20.14
187.875	73.39
188.095	57
188.314	65.19
188.534	83.63
188.753	-59.73
188.973	38.57
189.192	65.19
189.412	120.49
189.631	40.62
189.851	40.62
190.07	89.77
190.29	-26.96
190.509	-37.2
190.729	42.67
190.948	32.43
191.168	171.69
191.387	75.43
191.607	-31.06
191.826	32.43
192.045	-24.92
192.265	-2.39
192.484	48.81
192.704	30.38
192.923	-49.49
193.142	130.73
193.362	-37.2
193.581	81.58
193.8	-0.34
194.02	11.95
194.239	16.04
194.458	44.71
194.678	73.39
194.897	-29.01
195.116	28.33
195.335	-33.11
195.555	48.81
195.774	52.91
195.993	13.99
196.212	52.91
196.432	40.62
196.651	54.95
196.87	13.99
197.089	75.43
197.308	22.19
197.528	24.23
197.747	-2.39
197.966	-63.83
198.185	-6.49
198.404	42.67
198.623	114.34
198.842	50.86
199.062	87.72
199.281	138.92
199.5	32.43
199.719	36.52
199.938	-12.63
200.157	-2.39
200.376	38.57
200.595	83.63
200.814	93.87
201.033	71.34
201.252	102.06
201.471	54.95
201.69	77.48
201.909	81.58
202.128	22.19
202.347	16.04
202.566	3.75
202.785	57
203.004	57
203.223	140.97
203.442	-14.68
203.661	9.9
203.879	-8.53
204.098	7.85
204.317	28.33
204.536	136.87
204.755	38.57
204.974	24.23
205.193	48.81
205.411	36.52
205.63	40.62
205.849	18.09
206.068	73.39
206.287	13.99
206.505	48.81
206.724	-53.59
206.943	36.52
207.162	69.29
207.381	-24.92
207.599	63.15
207.818	91.82
208.037	11.95
208.255	-14.68
208.474	71.34
208.693	-41.3
208.911	18.09
209.13	-2.39
209.349	5.8
209.567	93.87
209.786	59.05
210.005	-16.73
210.223	73.39
210.442	16.04
210.661	73.39
210.879	85.67
211.098	61.1
211.316	-24.92
211.535	52.91
211.753	20.14
211.972	48.81
212.191	-2.39
212.409	83.63
212.628	20.14
212.846	32.43
213.065	32.43
213.283	106.15
213.502	-6.49
213.72	-24.92
213.938	-10.58
214.157	28.33
214.375	44.71
214.594	54.95
214.812	16.04
215.031	1.71
215.249	75.43
215.467	20.14
215.686	5.8
215.904	38.57
216.122	20.14
216.341	46.76
216.559	40.62
216.778	18.09
216.996	18.09
217.214	7.85
217.432	13.99
217.651	11.95
217.869	52.91
218.087	-6.49
218.306	-2.39
218.524	122.54
218.742	77.48
218.96	89.77
219.179	-33.11
219.397	3.75
219.615	50.86
219.833	26.28
220.051	28.33
220.27	42.67
220.488	40.62
220.706	87.72
220.924	-43.35
221.142	59.05
221.36	69.29
221.578	32.43
221.796	-24.92
222.015	40.62
222.233	44.71
222.451	85.67
222.669	42.67
222.887	48.81
223.105	50.86
223.323	16.04
223.541	-47.44
223.759	-6.49
223.977	3.75
224.195	38.57
224.413	93.87
224.631	7.85
224.849	22.19
225.067	89.77
225.285	-10.58
225.503	77.48
225.721	24.23
225.939	5.8
226.157	32.43
226.375	102.06
226.592	46.76
226.81	5.8
227.028	67.24
227.246	46.76
227.464	13.99
227.682	38.57
227.9	83.63
228.117	16.04
228.335	-18.77
228.553	42.67
228.771	11.95
228.989	59.05
229.206	-49.49
229.424	7.85
229.642	54.95
229.86	36.52
230.077	54.95
230.295	48.81
230.513	-8.53
230.731	65.19
230.948	81.58
231.166	77.48
231.384	-10.58
231.601	34.47
231.819	36.52
232.037	22.19
232.254	20.14
232.472	71.34
232.689	32.43
232.907	-14.68
233.125	46.76
233.342	5.8
233.56	34.47
233.777	30.38
233.995	28.33
234.213	52.91
234.43	75.43
234.648	-0.34
234.865	24.23
235.083	7.85
235.3	83.63
235.518	87.72
235.735	28.33
235.953	122.54
236.17	16.04
236.388	48.81
236.605	-31.06
236.822	71.34
237.04	38.57
237.257	-39.25
237.475	28.33
237.692	79.53
237.909	38.57
238.127	-29.01
238.344	30.38
238.562	24.23
238.779	-31.06
238.996	9.9
239.214	57
239.431	89.77
239.648	-10.58
239.865	-0.34
240.083	44.71
240.3	52.91
240.517	24.23
240.735	-37.2
240.952	54.95
241.169	16.04
241.386	44.71
241.603	40.62
241.821	20.14
242.038	65.19
242.255	97.96
242.472	9.9
242.689	11.95
242.907	65.19
243.124	32.43
243.341	32.43
243.558	16.04
243.775	52.91
243.992	34.47
244.209	-37.2
244.426	71.34
244.643	61.1
244.86	65.19
245.078	79.53
245.295	48.81
245.512	20.14
245.729	-4.44
245.946	57
246.163	30.38
246.38	40.62
246.597	102.06
246.814	124.58
247.031	30.38
247.248	32.43
247.464	-20.82
247.681	-88.4
247.898	63.15
248.115	93.87
248.332	-35.16
248.549	71.34
248.766	57
248.983	36.52
249.2	13.99
249.417	3.75
249.633	32.43
249.85	54.95
250.067	44.71
250.284	67.24
250.501	7.85
250.717	85.67
250.934	13.99
251.151	3.75
251.368	-8.53
251.585	81.58
251.801	65.19
252.018	-10.58
252.235	57
252.451	102.06
252.668	57
252.885	20.14
253.102	18.09
253.318	20.14
253.535	100.01
253.752	67.24
253.968	-0.34
254.185	-20.82
254.401	-47.44
254.618	42.67
254.835	-16.73
255.051	122.54
255.268	-2.39
255.484	54.95
255.701	5.8
255.917	69.29
256.134	13.99
256.351	16.04
256.567	9.9
256.784	65.19
257	57
257.217	44.71
257.433	52.91
257.65	34.47
257.866	20.14
258.082	-8.53
258.299	28.33
258.515	44.71
258.732	-22.87
258.948	30.38
259.165	104.11
259.381	9.9
259.597	7.85
259.814	-8.53
260.03	7.85
260.246	34.47
260.463	81.58
260.679	52.91
260.895	11.95
261.112	24.23
261.328	-18.77
261.544	89.77
261.761	-6.49
261.977	11.95
262.193	-12.63
262.409	-24.92
262.626	34.47
262.842	61.1
263.058	11.95
263.274	24.23
263.49	-18.77
263.707	69.29
263.923	24.23
264.139	46.76
264.355	-14.68
264.571	16.04
264.787	126.63
265.004	75.43
265.22	97.96
265.436	16.04
265.652	42.67
265.868	7.85
266.084	32.43
266.3	126.63
266.516	-16.73
266.732	36.52
266.948	40.62
267.164	32.43
267.38	7.85
267.596	91.82
267.812	69.29
268.028	40.62
268.244	93.87
268.46	-37.2
268.676	30.38
268.892	46.76
269.108	48.81
269.324	89.77
269.54	52.91
269.756	20.14
269.972	65.19
270.188	93.87
270.403	3.75
270.619	44.71
270.835	69.29
271.051	-2.39
271.267	42.67
271.483	34.47
271.698	61.1
271.914	32.43
272.13	40.62
272.346	34.47
272.562	48.81
272.777	79.53
272.993	1.71
273.209	-29.01
273.425	-8.53
273.64	52.91
273.856	57
274.072	28.33
274.287	-0.34
274.503	85.67
274.719	-8.53
274.934	18.09
275.15	16.04
275.366	79.53
275.581	71.34
275.797	69.29
276.012	5.8
276.228	-8.53
276.444	-18.77
276.659	89.77
276.875	30.38
277.09	120.49
277.306	-20.82
277.521	-26.96
277.737	73.39
277.952	1.71
278.168	20.14
278.383	5.8
278.599	-0.34
278.814	-20.82
279.03	11.95
279.245	22.19
279.461	20.14
279.676	100.01
279.892	-14.68
280.107	26.28
280.322	-2.39
280.538	34.47
280.753	30.38
280.969	16.04
281.184	-57.68
281.399	67.24
281.615	122.54
281.83	73.39
282.045	42.67
282.26	9.9
282.476	46.76
282.691	50.86
282.906	67.24
283.122	-24.92
283.337	-4.44
283.552	-18.77
283.767	73.39
283.983	20.14
284.198	63.15
284.413	134.82
284.628	-20.82
284.843	61.1
285.058	57
285.274	48.81
285.489	61.1
285.704	36.52
285.919	63.15
286.134	40.62
286.349	28.33
286.564	73.39
286.779	52.91
286.995	22.19
287.21	-4.44
287.425	81.58
287.64	7.85
287.855	108.2
288.07	16.04
288.285	108.2
288.5	13.99
288.715	36.52
288.93	-10.58
289.145	77.48
289.36	42.67
289.575	40.62
289.79	81.58
290.004	67.24
290.219	16.04
290.434	11.95
290.649	16.04
290.864	3.75
291.079	40.62
291.294	77.48
291.509	46.76
291.724	81.58
291.938	-6.49
292.153	48.81
292.368	-0.34
292.583	48.81
292.798	52.91
293.012	104.11
293.227	34.47
293.442	40.62
293.657	22.19
293.871	57
294.086	73.39
294.301	59.05
294.516	89.77
294.73	104.11
294.945	106.15
295.16	40.62
295.374	42.67
295.589	77.48
295.804	57
296.018	-8.53
296.233	122.54
296.447	77.48
296.662	20.14
296.877	26.28
297.091	42.67
297.306	11.95
297.52	-10.58
297.735	110.25
297.949	30.38
298.164	85.67
298.378	46.76
298.593	97.96
298.807	26.28
299.022	20.14
299.236	95.91
299.451	50.86
299.665	11.95
299.88	75.43
300.094	42.67
300.309	40.62
300.523	65.19
300.737	22.19
300.952	67.24
301.166	38.57
301.381	71.34
301.595	57
301.809	-78.16
302.024	-45.4
302.238	44.71
302.452	65.19
302.667	22.19
302.881	71.34
303.095	-16.73
303.309	89.77
303.524	7.85
303.738	9.9
303.952	-63.83
304.166	52.91
304.381	11.95
304.595	34.47
304.809	40.62
305.023	34.47
305.237	63.15
305.452	40.62
305.666	42.67
305.88	52.91
306.094	11.95
306.308	169.64
306.522	97.96
306.736	77.48
306.95	73.39
307.164	-8.53
307.379	54.95
307.593	126.63
307.807	7.85
308.021	79.53
308.235	40.62
308.449	1.71
308.663	-61.78
308.877	9.9
309.091	73.39
309.305	46.76
309.519	36.52
309.733	71.34
309.947	-2.39
310.161	38.57
310.374	30.38
310.588	36.52
310.802	-37.2
311.016	13.99
311.23	-20.82
311.444	-2.39
311.658	-4.44
311.872	81.58
312.085	-2.39
312.299	81.58
312.513	-8.53
312.727	57
312.941	-65.88
313.154	97.96
313.368	20.14
313.582	11.95
313.796	-0.34
314.009	40.62
314.223	79.53
314.437	-24.92
314.651	151.21
314.864	42.67
315.078	5.8
315.292	89.77
315.505	42.67
315.719	-29.01
315.933	97.96
316.146	30.38
316.36	26.28
316.573	97.96
316.787	59.05
317.001	67.24
317.214	-12.63
317.428	73.39
317.641	11.95
317.855	54.95
318.068	-26.96
318.282	-10.58
318.495	81.58
318.709	34.47
318.922	-29.01
319.136	75.43
319.349	87.72
319.563	-29.01
319.776	155.3
319.99	22.19
320.203	69.29
320.417	44.71
320.63	57
320.843	91.82
321.057	106.15
321.27	50.86
321.483	-16.73
321.697	18.09
321.91	16.04
322.124	38.57
322.337	22.19
322.55	3.75
322.763	52.91
322.977	63.15
323.19	-45.4
323.403	9.9
323.617	71.34
323.83	108.2
324.043	-18.77
324.256	104.11
324.469	28.33
324.683	44.71
324.896	18.09
325.109	52.91
325.322	18.09
325.535	3.75
325.748	48.81
325.962	93.87
326.175	-8.53
326.388	97.96
326.601	1.71
326.814	-4.44
327.027	61.1
327.24	11.95
327.453	26.28
327.666	69.29
327.879	69.29
328.092	40.62
328.305	-49.49
328.518	-16.73
328.731	40.62
328.944	102.06
329.157	87.72
329.37	81.58
329.583	18.09
329.796	89.77
330.009	-18.77
330.222	48.81
330.435	79.53
330.648	1.71
330.861	30.38
331.073	44.71
331.286	52.91
331.499	97.96
331.712	24.23
331.925	-10.58
332.138	11.95
332.35	26.28
332.563	38.57
332.776	9.9
332.989	93.87
333.202	7.85
333.414	44.71
333.627	24.23
333.84	-33.11
334.053	44.71
334.265	30.38
334.478	69.29
334.691	20.14
334.903	81.58
335.116	61.1
335.329	59.05
335.541	110.25
335.754	87.72
335.966	5.8
336.179	46.76
336.392	50.86
336.604	71.34
336.817	161.45
337.029	34.47
337.242	30.38
337.454	9.9
337.667	126.63
337.88	81.58
338.092	-24.92
338.305	71.34
338.517	-8.53
338.729	3.75
338.942	54.95
339.154	-20.82
339.367	50.86
339.579	1.71
339.792	28.33
340.004	7.85
340.217	85.67
340.429	32.43
340.641	-6.49
340.854	124.58
341.066	-4.44
341.278	136.87
341.491	48.81
341.703	13.99
341.915	-20.82
342.128	65.19
342.34	24.23
342.552	-55.64
342.764	20.14
342.977	71.34
343.189	102.06
343.401	18.09
343.613	28.33
343.826	22.19
344.038	32.43
344.25	18.09
344.462	63.15
344.674	63.15
344.886	50.86
345.099	65.19
345.311	18.09
345.523	75.43
345.735	-76.12
345.947	-10.58
346.159	48.81
346.371	52.91
346.583	-12.63
346.795	153.26
347.007	1.71
347.219	30.38
347.431	40.62
347.643	20.14
347.855	-35.16
348.067	110.25
348.279	67.24
348.491	32.43
348.703	93.87
348.915	3.75
349.127	20.14
349.339	61.1
349.551	9.9
349.763	24.23
349.975	57
350.187	65.19
350.399	7.85
350.61	79.53
350.822	7.85
351.034	-0.34
351.246	9.9
351.458	71.34
351.669	18.09
351.881	81.58
352.093	52.91
352.305	143.02
352.517	87.72
352.728	22.19
352.94	7.85
353.152	95.91
353.363	32.43
353.575	-8.53
353.787	108.2
353.999	73.39
354.21	100.01
354.422	59.05
354.633	-8.53
354.845	61.1
355.057	73.39
355.268	5.8
355.48	104.11
355.692	-12.63
355.903	85.67
356.115	-2.39
356.326	-12.63
356.538	71.34
356.749	-26.96
356.961	91.82
357.172	38.57
357.384	20.14
357.595	192.17
357.807	13.99
358.018	-16.73
358.23	54.95
358.441	97.96
358.653	73.39
358.864	3.75
359.075	54.95
359.287	73.39
359.498	102.06
359.709	11.95
359.921	112.3
360.132	-39.25
360.344	73.39
360.555	71.34
360.766	16.04
360.977	24.23
361.189	120.49
361.4	36.52
361.611	67.24
361.823	59.05
362.034	38.57
362.245	40.62
362.456	83.63
362.667	77.48
362.879	30.38
363.09	81.58
363.301	-12.63
363.512	-20.82
363.723	46.76
363.935	54.95
364.146	77.48
364.357	-41.3
364.568	13.99
364.779	67.24
364.99	-0.34
365.201	30.38
365.412	73.39
365.623	120.49
365.834	77.48
366.045	-26.96
366.256	38.57
366.467	5.8
366.678	40.62
366.889	114.34
367.1	16.04
367.311	13.99
367.522	-8.53
367.733	124.58
367.944	83.63
368.155	7.85
368.366	77.48
368.577	54.95
368.788	120.49
368.999	24.23
369.209	13.99
369.42	63.15
369.631	48.81
369.842	132.78
370.053	20.14
370.264	54.95
370.474	-12.63
370.685	63.15
370.896	16.04
371.107	30.38
371.317	75.43
371.528	85.67
371.739	69.29
371.95	89.77
372.16	132.78
372.371	87.72
372.582	63.15
372.792	50.86
373.003	87.72
373.214	140.97
373.424	87.72
373.635	30.38
373.846	87.72
374.056	36.52
374.267	112.3
374.477	-0.34
374.688	3.75
374.898	-49.49
375.109	128.68
375.319	73.39
375.53	-18.77
375.74	69.29
375.951	3.75
376.161	44.71
376.372	91.82
376.582	106.15
376.793	42.67
377.003	57
377.214	67.24
377.424	-2.39
377.635	50.86
377.845	7.85
378.055	120.49
378.266	26.28
378.476	44.71
378.686	61.1
378.897	-10.58
379.107	54.95
379.317	65.19
379.528	-45.4
379.738	79.53
379.948	13.99
380.158	48.81
380.369	122.54
380.579	91.82
380.789	46.76
380.999	52.91
381.21	97.96
381.42	9.9
381.63	61.1
381.84	28.33
382.05	59.05
382.261	69.29
382.471	118.44
382.681	-0.34
382.891	-8.53
383.101	89.77
383.311	40.62
383.521	59.05
383.731	52.91
383.941	-2.39
384.151	83.63
384.361	83.63
384.571	46.76
384.781	81.58
384.991	112.3
385.201	63.15
385.411	54.95
385.621	63.15
385.831	69.29
386.041	87.72
386.251	77.48
386.461	85.67
386.671	40.62
386.881	112.3
387.091	112.3
387.301	57
387.511	85.67
387.72	85.67
387.93	71.34
388.14	34.47
388.35	97.96
388.56	114.34
388.769	69.29
388.979	57
389.189	50.86
389.399	79.53
389.609	42.67
389.818	73.39
390.028	59.05
390.238	52.91
390.447	50.86
390.657	93.87
390.867	24.23
391.076	42.67
391.286	81.58
391.496	91.82
391.705	118.44
391.915	106.15
392.125	102.06
392.334	87.72
392.544	67.24
392.753	89.77
392.963	71.34
393.172	69.29
393.382	38.57
393.591	210.6
393.801	48.81
394.01	48.81
394.22	128.68
394.429	38.57
394.639	44.71
394.848	52.91
395.058	136.87
395.267	122.54
395.477	46.76
395.686	81.58
395.895	85.67
396.105	186.02
396.314	110.25
396.524	65.19
396.733	104.11
396.942	102.06
397.152	116.39
397.361	134.82
397.57	153.26
397.78	159.4
397.989	118.44
398.198	145.06
398.407	134.82
398.617	106.15
398.826	77.48
399.035	128.68
399.244	110.25
399.453	153.26
399.663	136.87
399.872	136.87
400.081	32.43
400.29	128.68
400.499	65.19
400.708	87.72
400.917	116.39
401.127	108.2
401.336	65.19
401.545	163.5
401.754	85.67
401.963	138.92
402.172	71.34
402.381	136.87
402.59	153.26
402.799	155.3
403.008	106.15
403.217	198.31
403.426	136.87
403.635	57
403.844	118.44
404.053	118.44
404.262	167.59
404.471	114.34
404.68	188.07
404.888	120.49
405.097	147.11
405.306	143.02
405.515	200.36
405.724	181.93
405.933	186.02
406.142	171.69
406.35	188.07
406.559	179.88
406.768	235.18
406.977	214.7
407.185	196.26
407.394	194.22
407.603	147.11
407.812	155.3
408.02	267.94
408.229	130.73
408.438	249.51
408.646	239.27
408.855	188.07
409.064	243.37
409.272	194.22
409.481	257.7
409.69	319.14
409.898	233.13
410.107	300.71
410.315	323.24
410.524	360.1
410.733	247.46
410.941	315.05
411.15	407.2
411.358	280.23
411.567	392.87
411.775	376.48
411.984	458.4
412.192	446.12
412.401	487.08
412.609	458.4
412.818	487.08
413.026	454.31
413.234	470.69
413.443	575.14
413.651	491.17
413.86	554.66
414.068	605.86
414.276	685.73
414.485	489.12
414.693	620.19
414.901	663.2
415.11	698.02
415.318	765.6
415.526	749.22
415.734	777.89
415.943	790.17
416.151	779.93
416.359	806.56
416.567	769.69
416.776	927.39
416.984	1011.36
417.192	974.49
417.4	997.02
417.608	925.34
417.817	1013.4
418.025	1035.93
418.233	1080.99
418.441	1119.9
418.649	1289.88
418.857	1240.73
419.065	1265.3
419.273	1238.68
419.481	1296.02
419.689	1375.89
419.897	1406.61
420.105	1437.33
420.313	1547.92
420.521	1605.27
420.729	1531.54
420.937	1605.27
421.145	1664.66
421.353	1730.19
421.561	1953.42
421.769	1846.93
421.977	2043.53
422.185	1961.61
422.393	2053.77
422.601	2225.8
422.809	2250.38
423.017	2117.26
423.224	2299.53
423.432	2360.97
423.64	2623.11
423.848	2643.59
424.056	2641.54
424.263	2766.46
424.471	2743.94
424.679	2832
424.887	3073.66
425.094	3055.23
425.302	3085.95
425.51	3118.72
425.718	3219.07
425.925	3260.02
426.133	3436.15
426.341	3575.41
426.548	3688.05
426.756	3755.63
426.964	3939.95
427.171	4083.31
427.379	4185.71
427.586	4349.54
427.794	4279.91
428.001	4488.81
428.209	4765.28
428.417	4726.37
428.624	4957.79
428.832	5054.05
429.039	4976.22
429.247	5047.9
429.454	5418.58
429.662	5785.17
429.869	5502.55
430.076	6000.21
430.284	5746.26
430.491	6075.98
430.699	6196.81
430.906	6297.16
431.114	6313.55
431.321	6606.41
431.528	6807.11
431.736	7208.51
431.943	7423.55
432.15	7089.73
432.358	7355.96
432.565	7820.85
432.772	7642.68
432.979	7943.73
433.187	8279.6
433.394	8265.26
433.601	8853.03
433.808	8920.61
434.016	8836.64
434.223	9080.35
434.43	9750.04
434.637	9442.84
434.844	10055.19
435.052	10159.63
435.259	10243.6
435.466	10346
435.673	10259.98
435.88	10952.2
436.087	11367.93
436.294	11486.72
436.501	11070.98
436.708	11460.09
436.915	11687.42
437.122	12191.22
437.329	12250.61
437.537	12598.76
437.743	12969.44
437.95	12899.81
438.157	13450.72
438.364	14020.05
438.571	13929.94
438.778	13944.28
438.985	15500.73
439.192	14591.44
439.399	15201.73
439.606	14833.1
439.813	15623.61
440.02	16430.51
440.227	16098.74
440.433	16047.54
440.64	16709.04
440.847	16577.97
441.054	17124.77
441.261	18124.18
441.467	18056.6
441.674	18496.91
441.881	18785.68
442.088	18773.39
442.294	18449.81
442.501	19467.65
442.708	19795.32
442.914	20491.63
443.121	21165.42
443.328	20669.81
443.534	21890.4
443.741	21116.26
443.948	21073.26
444.154	22822.22
444.361	22347.09
444.568	22631.76
444.774	22707.54
444.981	23065.93
445.187	23219.53
445.394	24446.26
445.6	24200.51
445.807	26504.47
446.013	25269.55
446.22	25720.1
446.426	26739.99
446.633	27030.8
446.839	27985.15
447.046	26649.88
447.252	28112.13
447.459	28560.63
447.665	28157.18
447.871	29318.38
448.078	30438.62
448.284	28902.64
448.491	29916.39
448.697	30696.66
448.903	31345.87
449.11	31091.92
449.316	30600.41
449.522	31411.4
449.728	32425.15
449.935	32797.88
450.141	32427.2
450.347	33221.81
450.553	31958.21
450.76	32480.44
450.966	33273.01
451.172	33391.79
451.378	33731.75
451.584	33250.48
451.791	34401.44
451.997	33637.55
452.203	34684.06
452.409	34145.44
452.615	34385.05
452.821	32904.37
453.027	32564.41
453.233	34700.44
453.44	32658.62
453.646	33383.6
453.852	33244.34
454.058	33805.48
454.264	32974
454.47	33201.33
454.676	32373.95
454.882	33420.46
455.088	30334.17
455.294	30948.56
455.5	31749.32
455.705	32031.94
455.911	30663.89
456.117	30020.83
456.323	29531.37
456.529	27735.3
456.735	28742.9
456.941	28415.23
457.147	27727.11
457.352	26846.48
457.558	26246.43
457.764	26780.95
457.97	25972
458.176	25361.7
458.381	25902.37
458.587	24325.43
458.793	24253.75
458.999	23217.48
459.204	24724.79
459.41	24067.39
459.616	22441.3
459.821	22441.3
460.027	22109.53
460.233	21806.43
460.438	20702.57
460.644	21077.35
460.85	20161.91
461.055	19672.45
461.261	19791.23
461.466	18275.73
461.672	17808.79
461.878	19047.82
462.083	17726.88
462.289	17450.4
462.494	17102.25
462.7	16666.03
462.905	16301.49
463.111	16674.22
463.316	16715.18
463.522	16522.67
463.727	16496.05
463.932	16305.59
464.138	16096.69
464.343	16344.5
464.549	15855.03
464.754	16326.07
464.959	16483.76
465.165	16014.77
465.37	15324.61
465.575	14695.88
465.781	15562.17
465.986	15752.63
466.191	15232.45
466.397	14917.06
466.602	14235.09
466.807	14521.81
467.012	14802.38
467.218	14523.85
467.423	14517.71
467.628	14718.41
467.833	15287.75
