Data from USB4F104151__259__10-39-53-301.txt Node

Date: Wed Mar 12 10:39:53 EDT 2025
User: louis
Spectrometer: USB4F10415
Trigger mode: 4
Integration Time (sec): 3.000000E-2
Scans to average: 1
Electric dark correction enabled: true
Nonlinearity correction enabled: false
Boxcar width: 0
XAxis mode: Wavelengths
Number of Pixels in Spectrum: 3648
>>>>>Begin Spectral Data<<<<<
178.204	-58.2
178.424	-58.2
178.644	-58.2
178.864	-136.02
179.084	-152.4
179.304	1.19
179.524	5.29
179.744	-35.67
179.964	7.34
180.184	21.67
180.404	-7
180.624	48.3
180.844	-33.62
181.064	-66.39
181.283	-4.95
181.503	9.39
181.723	54.44
181.943	-74.58
182.163	-4.95
182.383	50.35
182.602	91.31
182.822	93.35
183.042	97.45
183.262	-4.95
183.482	13.48
183.701	7.34
183.921	25.77
184.141	-4.95
184.361	48.3
184.58	19.63
184.8	-35.67
185.02	19.63
185.239	79.02
185.459	-21.33
185.679	107.69
185.898	-47.96
186.118	54.44
186.338	91.31
186.557	40.11
186.777	111.78
186.997	87.21
187.216	58.54
187.436	50.35
187.655	38.06
187.875	132.26
188.095	25.77
188.314	27.82
188.534	27.82
188.753	9.39
188.973	44.2
189.192	89.26
189.412	76.97
189.631	54.44
189.851	52.39
190.07	15.53
190.29	27.82
190.509	-9.05
190.729	-33.62
190.948	117.93
191.168	122.02
191.387	27.82
191.607	-13.14
191.826	81.07
192.045	72.87
192.265	81.07
192.484	68.78
192.704	76.97
192.923	-62.29
193.142	132.26
193.362	101.55
193.581	74.92
193.8	50.35
194.02	68.78
194.239	1.19
194.458	7.34
194.678	1.19
194.897	60.59
195.116	93.35
195.335	56.49
195.555	33.96
195.774	95.4
195.993	87.21
196.212	89.26
196.432	64.68
196.651	64.68
196.87	115.88
197.089	91.31
197.308	-4.95
197.528	9.39
197.747	-54.1
197.966	3.24
198.185	58.54
198.404	-0.85
198.623	83.11
198.842	70.83
199.062	-2.9
199.281	44.2
199.5	44.2
199.719	33.96
199.938	17.58
200.157	64.68
200.376	44.2
200.595	25.77
200.814	58.54
201.033	64.68
201.252	72.87
201.471	23.72
201.69	40.11
201.909	56.49
202.128	54.44
202.347	38.06
202.566	-9.05
202.785	62.63
203.004	11.43
203.223	31.91
203.442	31.91
203.661	40.11
203.879	81.07
204.098	101.55
204.317	40.11
204.536	70.83
204.755	66.73
204.974	128.17
205.193	17.58
205.411	38.06
205.63	56.49
205.849	62.63
206.068	115.88
206.287	5.29
206.505	42.15
206.724	83.11
206.943	11.43
207.162	-15.19
207.381	52.39
207.599	-2.9
207.818	36.01
208.037	79.02
208.255	23.72
208.474	72.87
208.693	62.63
208.911	-7
209.13	25.77
209.349	74.92
209.567	60.59
209.786	31.91
210.005	60.59
210.223	21.67
210.442	-9.05
210.661	72.87
210.879	-9.05
211.098	40.11
211.316	91.31
211.535	44.2
211.753	17.58
211.972	3.24
212.191	27.82
212.409	-4.95
212.628	21.67
212.846	-4.95
213.065	70.83
213.283	132.26
213.502	44.2
213.72	19.63
213.938	-17.24
214.157	83.11
214.375	33.96
214.594	19.63
214.812	3.24
215.031	52.39
215.249	23.72
215.467	25.77
215.686	-7
215.904	81.07
216.122	36.01
216.341	-13.14
216.559	17.58
216.778	93.35
216.996	81.07
217.214	27.82
217.432	-41.81
217.651	60.59
217.869	1.19
218.087	79.02
218.306	64.68
218.524	19.63
218.742	-2.9
218.96	3.24
219.179	7.34
219.397	40.11
219.615	62.63
219.833	19.63
220.051	15.53
220.27	74.92
220.488	38.06
220.706	17.58
220.924	-74.58
221.142	-0.85
221.36	44.2
221.578	23.72
221.796	9.39
222.015	-13.14
222.233	40.11
222.451	3.24
222.669	-7
222.887	60.59
223.105	-15.19
223.323	42.15
223.541	-13.14
223.759	42.15
223.977	7.34
224.195	60.59
224.413	-15.19
224.631	19.63
224.849	40.11
225.067	15.53
225.285	42.15
225.503	-54.1
225.721	-37.72
225.939	-13.14
226.157	38.06
226.375	44.2
226.592	-19.29
226.81	105.64
227.028	-37.72
227.246	56.49
227.464	7.34
227.682	3.24
227.9	74.92
228.117	-29.52
228.335	64.68
228.553	13.48
228.771	1.19
228.989	66.73
229.206	-0.85
229.424	13.48
229.642	33.96
229.86	3.24
230.077	50.35
230.295	40.11
230.513	117.93
230.731	85.16
230.948	126.12
231.166	156.84
231.384	46.25
231.601	-7
231.819	107.69
232.037	5.29
232.254	17.58
232.472	68.78
232.689	-2.9
232.907	103.59
233.125	-7
233.342	25.77
233.56	40.11
233.777	46.25
233.995	38.06
234.213	48.3
234.43	44.2
234.648	-19.29
234.865	5.29
235.083	33.96
235.3	7.34
235.518	70.83
235.735	60.59
235.953	11.43
236.17	19.63
236.388	17.58
236.605	-23.38
236.822	117.93
237.04	91.31
237.257	56.49
237.475	15.53
237.692	38.06
237.909	58.54
238.127	-21.33
238.344	44.2
238.562	76.97
238.779	-0.85
238.996	9.39
239.214	56.49
239.431	48.3
239.648	56.49
239.865	29.87
240.083	-13.14
240.3	56.49
240.517	38.06
240.735	21.67
240.952	27.82
241.169	54.44
241.386	29.87
241.603	23.72
241.821	-4.95
242.038	117.93
242.255	66.73
242.472	-11.09
242.689	70.83
242.907	19.63
243.124	50.35
243.341	-50
243.558	31.91
243.775	1.19
243.992	11.43
244.209	56.49
244.426	19.63
244.643	48.3
244.86	52.39
245.078	3.24
245.295	97.45
245.512	-23.38
245.729	-0.85
245.946	46.25
246.163	-4.95
246.38	-4.95
246.597	72.87
246.814	-11.09
247.031	99.5
247.248	23.72
247.464	42.15
247.681	58.54
247.898	-15.19
248.115	99.5
248.332	-21.33
248.549	54.44
248.766	72.87
248.983	50.35
249.2	83.11
249.417	7.34
249.633	-17.24
249.85	52.39
250.067	-9.05
250.284	52.39
250.501	54.44
250.717	-25.43
250.934	44.2
251.151	-45.91
251.368	68.78
251.585	56.49
251.801	-29.52
252.018	-0.85
252.235	93.35
252.451	52.39
252.668	68.78
252.885	33.96
253.102	74.92
253.318	25.77
253.535	54.44
253.752	46.25
253.968	52.39
254.185	13.48
254.401	36.01
254.618	89.26
254.835	23.72
255.051	36.01
255.268	132.26
255.484	128.17
255.701	64.68
255.917	-13.14
256.134	17.58
256.351	56.49
256.567	60.59
256.784	48.3
257	-17.24
257.217	-2.9
257.433	-15.19
257.65	132.26
257.866	-25.43
258.082	-2.9
258.299	-7
258.515	36.01
258.732	27.82
258.948	42.15
259.165	7.34
259.381	-13.14
259.597	56.49
259.814	-25.43
260.03	60.59
260.246	52.39
260.463	97.45
260.679	97.45
260.895	-2.9
261.112	58.54
261.328	5.29
261.544	-37.72
261.761	38.06
261.977	27.82
262.193	-4.95
262.409	-9.05
262.626	122.02
262.842	91.31
263.058	44.2
263.274	-0.85
263.49	33.96
263.707	33.96
263.923	101.55
264.139	-37.72
264.355	31.91
264.571	31.91
264.787	52.39
265.004	81.07
265.22	50.35
265.436	64.68
265.652	68.78
265.868	29.87
266.084	85.16
266.3	36.01
266.516	44.2
266.732	56.49
266.948	111.78
267.164	48.3
267.38	-58.2
267.596	42.15
267.812	68.78
268.028	23.72
268.244	36.01
268.46	-21.33
268.676	25.77
268.892	40.11
269.108	-39.76
269.324	46.25
269.54	-13.14
269.756	52.39
269.972	-29.52
270.188	13.48
270.403	-4.95
270.619	40.11
270.835	72.87
271.051	15.53
271.267	15.53
271.483	-4.95
271.698	33.96
271.914	52.39
272.13	9.39
272.346	11.43
272.562	56.49
272.777	83.11
272.993	89.26
273.209	7.34
273.425	76.97
273.64	76.97
273.856	50.35
274.072	48.3
274.287	29.87
274.503	44.2
274.719	62.63
274.934	29.87
275.15	-4.95
275.366	23.72
275.581	15.53
275.797	11.43
276.012	40.11
276.228	1.19
276.444	83.11
276.659	54.44
276.875	-45.91
277.09	68.78
277.306	70.83
277.521	-19.29
277.737	5.29
277.952	27.82
278.168	46.25
278.383	-15.19
278.599	27.82
278.814	72.87
279.03	46.25
279.245	97.45
279.461	48.3
279.676	31.91
279.892	11.43
280.107	72.87
280.322	40.11
280.538	83.11
280.753	38.06
280.969	-15.19
281.184	3.24
281.399	7.34
281.615	-7
281.83	31.91
282.045	-47.96
282.26	83.11
282.476	-21.33
282.691	11.43
282.906	-0.85
283.122	44.2
283.337	58.54
283.552	29.87
283.767	21.67
283.983	81.07
284.198	31.91
284.413	62.63
284.628	19.63
284.843	62.63
285.058	64.68
285.274	52.39
285.489	-21.33
285.704	27.82
285.919	-4.95
286.134	-2.9
286.349	74.92
286.564	19.63
286.779	93.35
286.995	33.96
287.21	-2.9
287.425	87.21
287.64	111.78
287.855	31.91
288.07	15.53
288.285	79.02
288.5	152.74
288.715	36.01
288.93	40.11
289.145	9.39
289.36	-2.9
289.575	19.63
289.79	79.02
290.004	36.01
290.219	130.22
290.434	17.58
290.649	21.67
290.864	50.35
291.079	54.44
291.294	122.02
291.509	-45.91
291.724	48.3
291.938	-25.43
292.153	42.15
292.368	36.01
292.583	36.01
292.798	91.31
293.012	95.4
293.227	52.39
293.442	-23.38
293.657	44.2
293.871	42.15
294.086	-21.33
294.301	36.01
294.516	85.16
294.73	60.59
294.945	29.87
295.16	29.87
295.374	62.63
295.589	74.92
295.804	70.83
296.018	56.49
296.233	-2.9
296.447	7.34
296.662	-4.95
296.877	62.63
297.091	126.12
297.306	76.97
297.52	36.01
297.735	81.07
297.949	40.11
298.164	31.91
298.378	-29.52
298.593	-23.38
298.807	64.68
299.022	99.5
299.236	7.34
299.451	64.68
299.665	76.97
299.88	56.49
300.094	36.01
300.309	85.16
300.523	79.02
300.737	-4.95
300.952	-45.91
301.166	27.82
301.381	-39.76
301.595	38.06
301.809	11.43
302.024	-29.52
302.238	66.73
302.452	11.43
302.667	27.82
302.881	70.83
303.095	68.78
303.309	132.26
303.524	23.72
303.738	117.93
303.952	38.06
304.166	72.87
304.381	33.96
304.595	119.98
304.809	93.35
305.023	25.77
305.237	58.54
305.452	72.87
305.666	40.11
305.88	27.82
306.094	72.87
306.308	19.63
306.522	3.24
306.736	29.87
306.95	11.43
307.164	-29.52
307.379	-41.81
307.593	93.35
307.807	15.53
308.021	113.83
308.235	13.48
308.449	46.25
308.663	50.35
308.877	36.01
309.091	13.48
309.305	-13.14
309.519	76.97
309.733	146.6
309.947	-0.85
310.161	58.54
310.374	115.88
310.588	66.73
310.802	-56.15
311.016	5.29
311.23	27.82
311.444	-2.9
311.658	-39.76
311.872	128.17
312.085	113.83
312.299	101.55
312.513	124.07
312.727	101.55
312.941	23.72
313.154	50.35
313.368	9.39
313.582	140.46
313.796	21.67
314.009	33.96
314.223	81.07
314.437	56.49
314.651	60.59
314.864	68.78
315.078	95.4
315.292	56.49
315.505	13.48
315.719	-15.19
315.933	74.92
316.146	13.48
316.36	19.63
316.573	142.5
316.787	33.96
317.001	105.64
317.214	7.34
317.428	111.78
317.641	-33.62
317.855	15.53
318.068	19.63
318.282	113.83
318.495	85.16
318.709	29.87
318.922	31.91
319.136	144.55
319.349	58.54
319.563	23.72
319.776	7.34
319.99	85.16
320.203	58.54
320.417	-0.85
320.63	56.49
320.843	148.65
321.057	54.44
321.27	62.63
321.483	17.58
321.697	128.17
321.91	83.11
322.124	115.88
322.337	113.83
322.55	3.24
322.763	33.96
322.977	36.01
323.19	13.48
323.403	81.07
323.617	23.72
323.83	103.59
324.043	56.49
324.256	60.59
324.469	19.63
324.683	144.55
324.896	27.82
325.109	79.02
325.322	31.91
325.535	79.02
325.748	33.96
325.962	-2.9
326.175	48.3
326.388	-13.14
326.601	-25.43
326.814	13.48
327.027	-7
327.24	107.69
327.453	42.15
327.666	-45.91
327.879	29.87
328.092	83.11
328.305	101.55
328.518	101.55
328.731	-2.9
328.944	21.67
329.157	66.73
329.37	95.4
329.583	60.59
329.796	81.07
330.009	44.2
330.222	25.77
330.435	76.97
330.648	74.92
330.861	19.63
331.073	11.43
331.286	38.06
331.499	-23.38
331.712	50.35
331.925	62.63
332.138	44.2
332.35	124.07
332.563	60.59
332.776	23.72
332.989	25.77
333.202	40.11
333.414	15.53
333.627	62.63
333.84	56.49
334.053	29.87
334.265	27.82
334.478	13.48
334.691	40.11
334.903	33.96
335.116	122.02
335.329	89.26
335.541	7.34
335.754	128.17
335.966	62.63
336.179	21.67
336.392	58.54
336.604	68.78
336.817	19.63
337.029	52.39
337.242	74.92
337.454	52.39
337.667	48.3
337.88	38.06
338.092	93.35
338.305	154.79
338.517	93.35
338.729	87.21
338.942	56.49
339.154	3.24
339.367	7.34
339.579	105.64
339.792	126.12
340.004	29.87
340.217	52.39
340.429	-23.38
340.641	-0.85
340.854	3.24
341.066	-9.05
341.278	46.25
341.491	27.82
341.703	97.45
341.915	17.58
342.128	56.49
342.34	81.07
342.552	13.48
342.764	81.07
342.977	40.11
343.189	62.63
343.401	126.12
343.613	3.24
343.826	79.02
344.038	74.92
344.25	83.11
344.462	87.21
344.674	97.45
344.886	15.53
345.099	105.64
345.311	31.91
345.523	19.63
345.735	27.82
345.947	64.68
346.159	27.82
346.371	33.96
346.583	126.12
346.795	111.78
347.007	44.2
347.219	36.01
347.431	17.58
347.643	76.97
347.855	89.26
348.067	19.63
348.279	33.96
348.491	101.55
348.703	25.77
348.915	-21.33
349.127	29.87
349.339	23.72
349.551	36.01
349.763	99.5
349.975	74.92
350.187	72.87
350.399	50.35
350.61	68.78
350.822	13.48
351.034	117.93
351.246	31.91
351.458	130.22
351.669	27.82
351.881	60.59
352.093	83.11
352.305	60.59
352.517	113.83
352.728	-11.09
352.94	52.39
353.152	115.88
353.363	27.82
353.575	70.83
353.787	60.59
353.999	44.2
354.21	97.45
354.422	40.11
354.633	42.15
354.845	25.77
355.057	44.2
355.268	23.72
355.48	52.39
355.692	64.68
355.903	23.72
356.115	42.15
356.326	11.43
356.538	103.59
356.749	68.78
356.961	27.82
357.172	25.77
357.384	68.78
357.595	99.5
357.807	52.39
358.018	46.25
358.23	68.78
358.441	130.22
358.653	89.26
358.864	-31.57
359.075	81.07
359.287	85.16
359.498	115.88
359.709	99.5
359.921	76.97
360.132	50.35
360.344	79.02
360.555	23.72
360.766	5.29
360.977	19.63
361.189	54.44
361.4	56.49
361.611	11.43
361.823	138.41
362.034	101.55
362.245	-2.9
362.456	109.74
362.667	56.49
362.879	36.01
363.09	89.26
363.301	160.94
363.512	76.97
363.723	50.35
363.935	-7
364.146	46.25
364.357	13.48
364.568	97.45
364.779	76.97
364.99	31.91
365.201	62.63
365.412	115.88
365.623	15.53
365.834	68.78
366.045	46.25
366.256	97.45
366.467	81.07
366.678	95.4
366.889	29.87
367.1	7.34
367.311	83.11
367.522	81.07
367.733	85.16
367.944	142.5
368.155	87.21
368.366	105.64
368.577	76.97
368.788	158.89
368.999	56.49
369.209	74.92
369.42	132.26
369.631	142.5
369.842	130.22
370.053	44.2
370.264	152.74
370.474	60.59
370.685	17.58
370.896	50.35
371.107	99.5
371.317	93.35
371.528	99.5
371.739	64.68
371.95	62.63
372.16	76.97
372.371	91.31
372.582	15.53
372.792	50.35
373.003	87.21
373.214	-33.62
373.424	52.39
373.635	66.73
373.846	136.36
374.056	117.93
374.267	105.64
374.477	23.72
374.688	56.49
374.898	87.21
375.109	56.49
375.319	126.12
375.53	93.35
375.74	62.63
375.951	-31.57
376.161	60.59
376.372	17.58
376.582	13.48
376.793	70.83
377.003	70.83
377.214	31.91
377.424	52.39
377.635	62.63
377.845	-4.95
378.055	60.59
378.266	52.39
378.476	5.29
378.686	44.2
378.897	97.45
379.107	74.92
379.317	54.44
379.528	46.25
379.738	134.31
379.948	36.01
380.158	72.87
380.369	-7
380.579	31.91
380.789	146.6
380.999	-4.95
381.21	130.22
381.42	99.5
381.63	17.58
381.84	60.59
382.05	91.31
382.261	138.41
382.471	122.02
382.681	76.97
382.891	113.83
383.101	130.22
383.311	66.73
383.521	23.72
383.731	21.67
383.941	122.02
384.151	58.54
384.361	111.78
384.571	70.83
384.781	56.49
384.991	130.22
385.201	124.07
385.411	138.41
385.621	44.2
385.831	105.64
386.041	117.93
386.251	85.16
386.461	154.79
386.671	74.92
386.881	76.97
387.091	3.24
387.301	-13.14
387.511	101.55
387.72	95.4
387.93	-0.85
388.14	-9.05
388.35	81.07
388.56	97.45
388.769	154.79
388.979	58.54
389.189	72.87
389.399	36.01
389.609	58.54
389.818	72.87
390.028	126.12
390.238	-0.85
390.447	64.68
390.657	72.87
390.867	130.22
391.076	101.55
391.286	136.36
391.496	113.83
391.705	93.35
391.915	154.79
392.125	142.5
392.334	64.68
392.544	44.2
392.753	74.92
392.963	9.39
393.172	91.31
393.382	89.26
393.591	138.41
393.801	107.69
394.01	113.83
394.22	101.55
394.429	25.77
394.639	130.22
394.848	115.88
395.058	68.78
395.267	113.83
395.477	48.3
395.686	93.35
395.895	185.51
396.105	171.18
396.314	126.12
396.524	154.79
396.733	93.35
396.942	95.4
397.152	109.74
397.361	185.51
397.57	234.66
397.78	134.31
397.989	126.12
398.198	195.75
398.407	128.17
398.617	119.98
398.826	154.79
399.035	140.46
399.244	199.85
399.453	189.61
399.663	124.07
399.872	146.6
400.081	70.83
400.29	158.89
400.499	162.98
400.708	175.27
400.917	107.69
401.127	150.7
401.336	68.78
401.545	142.5
401.754	193.7
401.963	167.08
402.172	126.12
402.381	234.66
402.59	187.56
402.799	177.32
403.008	183.46
403.217	234.66
403.426	205.99
403.635	132.26
403.844	167.08
404.053	185.51
404.262	210.09
404.471	277.67
404.68	234.66
404.888	183.46
405.097	230.57
405.306	187.56
405.515	296.1
405.724	251.05
405.933	259.24
406.142	267.43
406.35	214.18
406.559	199.85
406.768	197.8
406.977	273.57
407.185	214.18
407.394	275.62
407.603	289.96
407.812	201.9
408.02	273.57
408.229	337.06
408.438	324.77
408.646	224.42
408.855	353.45
409.064	318.63
409.272	433.32
409.481	359.59
409.69	433.32
409.898	476.32
410.107	421.03
410.315	431.27
410.524	412.84
410.733	492.71
410.941	490.66
411.15	478.37
411.358	554.15
411.567	437.41
411.775	531.62
411.984	511.14
412.192	607.39
412.401	625.83
412.609	699.55
412.818	634.02
413.026	666.78
413.234	662.69
413.443	730.27
413.651	746.66
413.86	799.9
414.068	838.81
414.276	855.2
414.485	892.06
414.693	851.1
414.901	908.44
415.11	996.51
415.318	994.46
415.526	1021.08
415.734	912.54
415.943	1150.11
416.151	1168.54
416.359	1143.96
416.567	1213.59
416.776	1260.7
416.984	1303.7
417.192	1404.05
417.4	1399.96
417.608	1338.52
417.817	1412.25
418.025	1461.4
418.233	1723.54
418.441	1481.88
418.649	1668.24
418.857	1803.41
419.065	1715.34
419.273	1873.04
419.481	1911.95
419.689	2112.65
419.897	2073.74
420.105	2047.12
420.313	2155.66
420.521	2241.67
420.729	2368.65
420.937	2428.04
421.145	2405.51
421.353	2485.38
421.561	2688.13
421.769	2784.38
421.977	2929.79
422.185	2835.58
422.393	2880.64
422.601	3259.51
422.809	3198.07
423.017	3286.14
423.224	3441.78
423.432	3556.47
423.64	3505.27
423.848	3773.55
424.056	3730.55
424.263	4021.36
424.471	4033.65
424.679	4109.42
424.887	4361.32
425.094	4361.32
425.302	4338.79
425.51	4523.11
425.718	4775.01
425.925	4721.76
426.133	5020.77
426.341	5299.29
426.548	5532.76
426.756	5553.24
426.964	5682.26
427.171	5801.04
427.379	6292.55
427.586	6212.68
427.794	6401.1
428.001	6597.7
428.209	7103.55
428.417	6814.79
428.624	7435.32
428.832	7507
429.039	7255.1
429.247	7449.66
429.454	8033.33
429.662	8778.79
429.869	8004.66
430.076	8506.41
430.284	8322.09
430.491	8629.29
430.699	9352.22
430.906	9176.09
431.114	9468.95
431.321	9692.18
431.528	9989.14
431.736	10292.24
431.943	11111.43
432.15	10867.72
432.358	10863.62
432.565	11416.57
432.772	11277.31
432.979	11965.43
433.187	12186.61
433.394	12280.82
433.601	12882.92
433.808	13190.11
434.016	13046.76
434.223	13585.37
434.43	14349.26
434.637	14175.19
434.844	15127.49
435.052	15330.24
435.259	15029.19
435.466	15401.92
435.673	15211.46
435.88	16470.96
436.087	17079.21
436.294	16909.22
436.501	16526.25
436.708	17159.08
436.915	17660.83
437.122	18363.28
437.329	18285.46
437.537	18983.82
437.743	19303.3
437.95	19098.5
438.157	20091.77
438.364	21089.13
438.571	20808.56
438.778	21013.35
438.985	23112.52
439.192	21965.66
439.399	22616.91
439.606	22156.12
439.813	23405.38
440.02	24937.26
440.227	24511.28
440.433	24380.21
440.64	25178.92
440.847	24843.06
441.054	25475.88
441.261	27220.75
441.467	26819.35
441.674	27380.49
441.881	28336.89
442.088	28439.29
442.294	27886.34
442.501	28689.14
442.708	29190.89
442.914	30739.16
443.121	31918.79
443.328	30855.89
443.534	33129.14
443.741	32334.53
443.948	31961.79
444.154	34431.65
444.361	33729.19
444.568	34278.05
444.774	34099.87
444.981	34218.66
445.187	35693.19
445.394	36950.65
445.6	36467.33
445.807	40038.98
446.013	38122.08
446.22	38992.47
446.426	40616.51
446.633	40471.11
446.839	41839.15
447.046	40202.82
447.252	42322.47
447.459	42535.46
447.665	42418.72
447.871	44274.18
448.078	45871.6
448.284	43704.85
448.491	44630.53
448.697	46660.07
448.903	47010.27
449.11	47284.7
449.316	46426.6
449.522	47264.22
449.728	48419.27
449.935	48792
450.141	48914.88
450.347	49559.99
450.553	48239.05
450.76	48579.01
450.966	49596.85
451.172	49140.16
451.378	50684.33
451.584	49521.08
451.791	50520.49
451.997	50540.97
452.203	51241.37
452.409	51077.54
452.615	50952.61
452.821	48669.12
453.027	48718.28
453.233	50827.68
453.44	49080.77
453.646	49291.71
453.852	49680.82
454.058	50237.87
454.264	48531.91
454.47	49402.3
454.676	47940.05
454.882	49676.72
455.088	45713.91
455.294	46207.47
455.5	46746.08
455.705	46813.66
455.911	44847.61
456.117	44110.35
456.323	43391.51
456.529	41015.86
456.735	42603.04
456.941	41638.45
457.147	41148.98
457.352	39803.47
457.558	39006.81
457.764	39324.24
457.97	38617.69
458.176	37700.2
458.381	37497.45
458.587	35877.51
458.793	35613.32
458.999	33798.82
459.204	36074.12
459.41	35238.54
459.616	33094.32
459.821	33055.41
460.027	32991.92
460.233	31785.67
460.438	30454.49
460.644	30755.54
460.85	29190.89
461.055	29172.46
461.261	29137.65
461.466	26694.42
461.672	25942.81
461.878	27851.52
462.083	25938.72
462.289	25768.74
462.494	25420.58
462.7	24142.65
462.905	23429.96
463.111	24363.83
463.316	24443.7
463.522	24019.77
463.727	23935.81
463.932	23835.45
464.138	24005.44
464.343	23868.22
464.549	23200.58
464.754	23900.99
464.959	23548.74
465.165	23589.7
465.37	22641.49
465.575	21967.71
465.781	23051.08
465.986	23272.26
466.191	22203.22
466.397	21801.82
466.602	20861.8
466.807	21605.22
467.012	21412.71
