Data from USB4F104151__154__10-27-00-502.txt Node

Date: Wed Mar 12 10:27:00 EDT 2025
User: louis
Spectrometer: USB4F10415
Trigger mode: 4
Integration Time (sec): 3.000000E-2
Scans to average: 1
Electric dark correction enabled: true
Nonlinearity correction enabled: false
Boxcar width: 0
XAxis mode: Wavelengths
Number of Pixels in Spectrum: 3648
>>>>>Begin Spectral Data<<<<<
178.204	-140.12
178.424	-140.12
178.644	-140.12
178.864	-105.3
179.084	-107.35
179.304	64.68
179.524	52.39
179.744	-0.85
179.964	33.96
180.184	-11.09
180.404	-0.85
180.624	19.63
180.844	-33.62
181.064	-109.4
181.283	-15.19
181.503	-39.76
181.723	40.11
181.943	-37.72
182.163	38.06
182.383	21.67
182.602	89.26
182.822	7.34
183.042	-7
183.262	3.24
183.482	27.82
183.701	3.24
183.921	27.82
184.141	3.24
184.361	40.11
184.58	31.91
184.8	27.82
185.02	66.73
185.239	3.24
185.459	60.59
185.679	40.11
185.898	19.63
186.118	81.07
186.338	54.44
186.557	27.82
186.777	66.73
186.997	13.48
187.216	27.82
187.436	128.17
187.655	23.72
187.875	46.25
188.095	-41.81
188.314	50.35
188.534	-0.85
188.753	-35.67
188.973	3.24
189.192	103.59
189.412	60.59
189.631	11.43
189.851	-4.95
190.07	109.74
190.29	-4.95
190.509	46.25
190.729	29.87
190.948	42.15
191.168	148.65
191.387	54.44
191.607	25.77
191.826	23.72
192.045	36.01
192.265	25.77
192.484	-25.43
192.704	-23.38
192.923	-39.76
193.142	132.26
193.362	81.07
193.581	-41.81
193.8	54.44
194.02	38.06
194.239	-17.24
194.458	56.49
194.678	15.53
194.897	-4.95
195.116	-23.38
195.335	-15.19
195.555	44.2
195.774	-39.76
195.993	44.2
196.212	33.96
196.432	68.78
196.651	3.24
196.87	-45.91
197.089	97.45
197.308	3.24
197.528	29.87
197.747	99.5
197.966	46.25
198.185	50.35
198.404	-31.57
198.623	62.63
198.842	50.35
199.062	60.59
199.281	-33.62
199.5	-29.52
199.719	-11.09
199.938	44.2
200.157	70.83
200.376	38.06
200.595	-2.9
200.814	-29.52
201.033	36.01
201.252	58.54
201.471	11.43
201.69	11.43
201.909	31.91
202.128	66.73
202.347	25.77
202.566	79.02
202.785	31.91
203.004	21.67
203.223	27.82
203.442	15.53
203.661	-58.2
203.879	52.39
204.098	21.67
204.317	-13.14
204.536	-7
204.755	15.53
204.974	9.39
205.193	1.19
205.411	81.07
205.63	-29.52
205.849	50.35
206.068	1.19
206.287	19.63
206.505	74.92
206.724	23.72
206.943	58.54
207.162	15.53
207.381	27.82
207.599	46.25
207.818	25.77
208.037	117.93
208.255	23.72
208.474	-9.05
208.693	27.82
208.911	-21.33
209.13	31.91
209.349	101.55
209.567	-21.33
209.786	31.91
210.005	9.39
210.223	48.3
210.442	-4.95
210.661	-17.24
210.879	56.49
211.098	52.39
211.316	40.11
211.535	36.01
211.753	50.35
211.972	44.2
212.191	5.29
212.409	13.48
212.628	68.78
212.846	-2.9
213.065	62.63
213.283	58.54
213.502	-13.14
213.72	-37.72
213.938	-7
214.157	33.96
214.375	64.68
214.594	36.01
214.812	23.72
215.031	31.91
215.249	44.2
215.467	76.97
215.686	74.92
215.904	89.26
216.122	23.72
216.341	46.25
216.559	76.97
216.778	25.77
216.996	23.72
217.214	33.96
217.432	-9.05
217.651	5.29
217.869	-0.85
218.087	42.15
218.306	-23.38
218.524	46.25
218.742	-0.85
218.96	64.68
219.179	44.2
219.397	40.11
219.615	130.22
219.833	81.07
220.051	-11.09
220.27	68.78
220.488	7.34
220.706	19.63
220.924	66.73
221.142	31.91
221.36	40.11
221.578	46.25
221.796	-7
222.015	-45.91
222.233	58.54
222.451	19.63
222.669	25.77
222.887	31.91
223.105	52.39
223.323	44.2
223.541	-15.19
223.759	7.34
223.977	19.63
224.195	72.87
224.413	19.63
224.631	52.39
224.849	17.58
225.067	56.49
225.285	-33.62
225.503	-23.38
225.721	36.01
225.939	93.35
226.157	44.2
226.375	85.16
226.592	-4.95
226.81	62.63
227.028	91.31
227.246	138.41
227.464	44.2
227.682	64.68
227.9	33.96
228.117	25.77
228.335	58.54
228.553	-45.91
228.771	29.87
228.989	83.11
229.206	-33.62
229.424	-17.24
229.642	9.39
229.86	40.11
230.077	-25.43
230.295	17.58
230.513	99.5
230.731	25.77
230.948	36.01
231.166	-9.05
231.384	54.44
231.601	3.24
231.819	23.72
232.037	60.59
232.254	52.39
232.472	3.24
232.689	-41.81
232.907	38.06
233.125	-31.57
233.342	64.68
233.56	27.82
233.777	-31.57
233.995	9.39
234.213	38.06
234.43	83.11
234.648	-11.09
234.865	46.25
235.083	7.34
235.3	9.39
235.518	9.39
235.735	70.83
235.953	-7
236.17	27.82
236.388	-0.85
236.605	36.01
236.822	3.24
237.04	56.49
237.257	-9.05
237.475	-13.14
237.692	46.25
237.909	1.19
238.127	56.49
238.344	70.83
238.562	50.35
238.779	62.63
238.996	58.54
239.214	36.01
239.431	15.53
239.648	52.39
239.865	3.24
240.083	52.39
240.3	42.15
240.517	-19.29
240.735	97.45
240.952	52.39
241.169	42.15
241.386	58.54
241.603	42.15
241.821	-50
242.038	103.59
242.255	93.35
242.472	66.73
242.689	52.39
242.907	36.01
243.124	40.11
243.341	29.87
243.558	-70.48
243.775	36.01
243.992	-2.9
244.209	79.02
244.426	87.21
244.643	-19.29
244.86	-29.52
245.078	-39.76
245.295	54.44
245.512	23.72
245.729	42.15
245.946	29.87
246.163	31.91
246.38	42.15
246.597	101.55
246.814	79.02
247.031	31.91
247.248	-33.62
247.464	17.58
247.681	64.68
247.898	42.15
248.115	-0.85
248.332	-23.38
248.549	62.63
248.766	36.01
248.983	25.77
249.2	5.29
249.417	25.77
249.633	23.72
249.85	38.06
250.067	13.48
250.284	79.02
250.501	76.97
250.717	27.82
250.934	-56.15
251.151	56.49
251.368	-7
251.585	42.15
251.801	-17.24
252.018	-45.91
252.235	-88.92
252.451	29.87
252.668	150.7
252.885	44.2
253.102	54.44
253.318	27.82
253.535	-11.09
253.752	42.15
253.968	11.43
254.185	15.53
254.401	70.83
254.618	99.5
254.835	-13.14
255.051	130.22
255.268	-15.19
255.484	36.01
255.701	44.2
255.917	17.58
256.134	-60.24
256.351	-17.24
256.567	-62.29
256.784	27.82
257	7.34
257.217	60.59
257.433	-7
257.65	-27.48
257.866	42.15
258.082	19.63
258.299	-2.9
258.515	23.72
258.732	-7
258.948	48.3
259.165	19.63
259.381	-21.33
259.597	52.39
259.814	76.97
260.03	33.96
260.246	79.02
260.463	64.68
260.679	-4.95
260.895	11.43
261.112	-31.57
261.328	93.35
261.544	7.34
261.761	117.93
261.977	-21.33
262.193	21.67
262.409	3.24
262.626	38.06
262.842	40.11
263.058	-33.62
263.274	38.06
263.49	58.54
263.707	50.35
263.923	52.39
264.139	7.34
264.355	13.48
264.571	76.97
264.787	-66.39
265.004	105.64
265.22	40.11
265.436	44.2
265.652	74.92
265.868	50.35
266.084	-52.05
266.3	68.78
266.516	-45.91
266.732	56.49
266.948	21.67
267.164	85.16
267.38	62.63
267.596	-21.33
267.812	68.78
268.028	91.31
268.244	21.67
268.46	87.21
268.676	27.82
268.892	33.96
269.108	-11.09
269.324	-21.33
269.54	11.43
269.756	56.49
269.972	-13.14
270.188	19.63
270.403	-11.09
270.619	-43.86
270.835	36.01
271.051	52.39
271.267	13.48
271.483	50.35
271.698	15.53
271.914	19.63
272.13	3.24
272.346	3.24
272.562	25.77
272.777	38.06
272.993	11.43
273.209	42.15
273.425	134.31
273.64	36.01
273.856	9.39
274.072	58.54
274.287	19.63
274.503	83.11
274.719	-60.24
274.934	7.34
275.15	17.58
275.366	27.82
275.581	11.43
275.797	64.68
276.012	3.24
276.228	33.96
276.444	62.63
276.659	66.73
276.875	-13.14
277.09	50.35
277.306	-9.05
277.521	44.2
277.737	-4.95
277.952	105.64
278.168	27.82
278.383	21.67
278.599	40.11
278.814	76.97
279.03	-29.52
279.245	107.69
279.461	105.64
279.676	74.92
279.892	29.87
280.107	56.49
280.322	13.48
280.538	5.29
280.753	-4.95
280.969	52.39
281.184	9.39
281.399	72.87
281.615	19.63
281.83	-13.14
282.045	31.91
282.26	48.3
282.476	-4.95
282.691	54.44
282.906	-2.9
283.122	23.72
283.337	-43.86
283.552	44.2
283.767	25.77
283.983	72.87
284.198	-41.81
284.413	66.73
284.628	3.24
284.843	11.43
285.058	97.45
285.274	-11.09
285.489	-54.1
285.704	17.58
285.919	-25.43
286.134	-13.14
286.349	58.54
286.564	19.63
286.779	128.17
286.995	-17.24
287.21	-25.43
287.425	101.55
287.64	64.68
287.855	13.48
288.07	23.72
288.285	29.87
288.5	74.92
288.715	17.58
288.93	79.02
289.145	44.2
289.36	48.3
289.575	21.67
289.79	3.24
290.004	17.58
290.219	66.73
290.434	-9.05
290.649	3.24
290.864	60.59
291.079	95.4
291.294	40.11
291.509	72.87
291.724	27.82
291.938	-19.29
292.153	66.73
292.368	23.72
292.583	-7
292.798	40.11
293.012	72.87
293.227	9.39
293.442	7.34
293.657	48.3
293.871	111.78
294.086	48.3
294.301	52.39
294.516	36.01
294.73	117.93
294.945	21.67
295.16	40.11
295.374	9.39
295.589	27.82
295.804	38.06
296.018	9.39
296.233	48.3
296.447	58.54
296.662	-7
296.877	89.26
297.091	46.25
297.306	74.92
297.52	17.58
297.735	83.11
297.949	48.3
298.164	-25.43
298.378	144.55
298.593	31.91
298.807	46.25
299.022	113.83
299.236	68.78
299.451	97.45
299.665	58.54
299.88	48.3
300.094	-0.85
300.309	44.2
300.523	21.67
300.737	56.49
300.952	44.2
301.166	29.87
301.381	50.35
301.595	27.82
301.809	3.24
302.024	89.26
302.238	85.16
302.452	58.54
302.667	76.97
302.881	79.02
303.095	44.2
303.309	21.67
303.524	36.01
303.738	11.43
303.952	-11.09
304.166	21.67
304.381	13.48
304.595	74.92
304.809	1.19
305.023	70.83
305.237	23.72
305.452	62.63
305.666	117.93
305.88	50.35
306.094	13.48
306.308	44.2
306.522	17.58
306.736	44.2
306.95	95.4
307.164	68.78
307.379	-21.33
307.593	3.24
307.807	40.11
308.021	3.24
308.235	25.77
308.449	-17.24
308.663	15.53
308.877	64.68
309.091	62.63
309.305	38.06
309.519	1.19
309.733	58.54
309.947	-23.38
310.161	74.92
310.374	85.16
310.588	-2.9
310.802	50.35
311.016	27.82
311.23	-7
311.444	17.58
311.658	11.43
311.872	11.43
312.085	23.72
312.299	134.31
312.513	31.91
312.727	60.59
312.941	25.77
313.154	9.39
313.368	29.87
313.582	64.68
313.796	25.77
314.009	17.58
314.223	91.31
314.437	17.58
314.651	11.43
314.864	-39.76
315.078	115.88
315.292	17.58
315.505	9.39
315.719	17.58
315.933	-7
316.146	-11.09
316.36	68.78
316.573	48.3
316.787	87.21
317.001	44.2
317.214	40.11
317.428	91.31
317.641	58.54
317.855	103.59
318.068	9.39
318.282	36.01
318.495	64.68
318.709	66.73
318.922	23.72
319.136	109.74
319.349	105.64
319.563	33.96
319.776	33.96
319.99	17.58
320.203	76.97
320.417	36.01
320.63	89.26
320.843	101.55
321.057	58.54
321.27	23.72
321.483	50.35
321.697	62.63
321.91	154.79
322.124	44.2
322.337	83.11
322.55	68.78
322.763	91.31
322.977	9.39
323.19	9.39
323.403	97.45
323.617	109.74
323.83	83.11
324.043	-13.14
324.256	-23.38
324.469	19.63
324.683	31.91
324.896	91.31
325.109	19.63
325.322	-29.52
325.535	83.11
325.748	48.3
325.962	68.78
326.175	48.3
326.388	-9.05
326.601	68.78
326.814	87.21
327.027	36.01
327.24	52.39
327.453	-31.57
327.666	-29.52
327.879	42.15
328.092	105.64
328.305	117.93
328.518	-0.85
328.731	19.63
328.944	48.3
329.157	79.02
329.37	25.77
329.583	19.63
329.796	42.15
330.009	17.58
330.222	64.68
330.435	21.67
330.648	60.59
330.861	50.35
331.073	33.96
331.286	91.31
331.499	27.82
331.712	-9.05
331.925	62.63
332.138	-4.95
332.35	17.58
332.563	-25.43
332.776	107.69
332.989	56.49
333.202	42.15
333.414	13.48
333.627	17.58
333.84	-2.9
334.053	44.2
334.265	-45.91
334.478	-21.33
334.691	33.96
334.903	31.91
335.116	29.87
335.329	38.06
335.541	33.96
335.754	23.72
335.966	-21.33
336.179	36.01
336.392	48.3
336.604	29.87
336.817	58.54
337.029	62.63
337.242	-9.05
337.454	99.5
337.667	-0.85
337.88	122.02
338.092	-13.14
338.305	85.16
338.517	21.67
338.729	-0.85
338.942	3.24
339.154	-0.85
339.367	54.44
339.579	62.63
339.792	7.34
340.004	103.59
340.217	9.39
340.429	107.69
340.641	52.39
340.854	48.3
341.066	74.92
341.278	15.53
341.491	76.97
341.703	9.39
341.915	-60.24
342.128	17.58
342.34	19.63
342.552	40.11
342.764	70.83
342.977	-31.57
343.189	117.93
343.401	128.17
343.613	72.87
343.826	72.87
344.038	95.4
344.25	40.11
344.462	44.2
344.674	105.64
344.886	36.01
345.099	46.25
345.311	52.39
345.523	17.58
345.735	48.3
345.947	85.16
346.159	58.54
346.371	33.96
346.583	31.91
346.795	136.36
347.007	29.87
347.219	56.49
347.431	68.78
347.643	167.08
347.855	40.11
348.067	44.2
348.279	52.39
348.491	7.34
348.703	19.63
348.915	85.16
349.127	60.59
349.339	58.54
349.551	1.19
349.763	-13.14
349.975	87.21
350.187	72.87
350.399	93.35
350.61	31.91
350.822	54.44
351.034	-86.87
351.246	87.21
351.458	74.92
351.669	58.54
351.881	-31.57
352.093	54.44
352.305	60.59
352.517	54.44
352.728	101.55
352.94	60.59
353.152	93.35
353.363	-17.24
353.575	56.49
353.787	19.63
353.999	-4.95
354.21	160.94
354.422	44.2
354.633	-31.57
354.845	58.54
355.057	76.97
355.268	25.77
355.48	60.59
355.692	15.53
355.903	109.74
356.115	38.06
356.326	-17.24
356.538	50.35
356.749	66.73
356.961	146.6
357.172	17.58
357.384	-15.19
357.595	109.74
357.807	79.02
358.018	15.53
358.23	-4.95
358.441	56.49
358.653	50.35
358.864	76.97
359.075	44.2
359.287	31.91
359.498	38.06
359.709	87.21
359.921	40.11
360.132	31.91
360.344	23.72
360.555	-21.33
360.766	105.64
360.977	52.39
361.189	99.5
361.4	23.72
361.611	-7
361.823	58.54
362.034	38.06
362.245	15.53
362.456	48.3
362.667	76.97
362.879	-7
363.09	36.01
363.301	93.35
363.512	50.35
363.723	3.24
363.935	70.83
364.146	83.11
364.357	23.72
364.568	52.39
364.779	25.77
364.99	87.21
365.201	38.06
365.412	19.63
365.623	-0.85
365.834	74.92
366.045	-7
366.256	60.59
366.467	89.26
366.678	52.39
366.889	66.73
367.1	126.12
367.311	87.21
367.522	5.29
367.733	44.2
367.944	11.43
368.155	29.87
368.366	87.21
368.577	70.83
368.788	54.44
368.999	162.98
369.209	-2.9
369.42	109.74
369.631	140.46
369.842	29.87
370.053	23.72
370.264	79.02
370.474	48.3
370.685	81.07
370.896	62.63
371.107	44.2
371.317	117.93
371.528	85.16
371.739	19.63
371.95	33.96
372.16	64.68
372.371	64.68
372.582	19.63
372.792	21.67
373.003	64.68
373.214	46.25
373.424	54.44
373.635	11.43
373.846	36.01
374.056	13.48
374.267	85.16
374.477	-2.9
374.688	46.25
374.898	27.82
375.109	-15.19
375.319	99.5
375.53	66.73
375.74	99.5
375.951	11.43
376.161	66.73
376.372	42.15
376.582	33.96
376.793	-0.85
377.003	17.58
377.214	15.53
377.424	-7
377.635	-2.9
377.845	85.16
378.055	70.83
378.266	-9.05
378.476	42.15
378.686	38.06
378.897	56.49
379.107	62.63
379.317	23.72
379.528	1.19
379.738	64.68
379.948	58.54
380.158	33.96
380.369	44.2
380.579	25.77
380.789	85.16
380.999	58.54
381.21	95.4
381.42	124.07
381.63	-7
381.84	83.11
382.05	93.35
382.261	40.11
382.471	70.83
382.681	79.02
382.891	85.16
383.101	-9.05
383.311	44.2
383.521	99.5
383.731	76.97
383.941	64.68
384.151	-9.05
384.361	101.55
384.571	36.01
384.781	52.39
384.991	91.31
385.201	99.5
385.411	105.64
385.621	27.82
385.831	29.87
386.041	70.83
386.251	15.53
386.461	91.31
386.671	29.87
386.881	62.63
387.091	11.43
387.301	68.78
387.511	-2.9
387.72	31.91
387.93	21.67
388.14	-31.57
388.35	68.78
388.56	64.68
388.769	-15.19
388.979	99.5
389.189	89.26
389.399	58.54
389.609	99.5
389.818	97.45
390.028	79.02
390.238	52.39
390.447	19.63
390.657	60.59
390.867	33.96
391.076	64.68
391.286	72.87
391.496	79.02
391.705	68.78
391.915	109.74
392.125	70.83
392.334	76.97
392.544	130.22
392.753	40.11
392.963	-9.05
393.172	76.97
393.382	60.59
393.591	140.46
393.801	85.16
394.01	99.5
394.22	162.98
394.429	52.39
394.639	52.39
394.848	136.36
395.058	72.87
395.267	93.35
395.477	95.4
395.686	81.07
395.895	154.79
396.105	126.12
396.314	115.88
396.524	115.88
396.733	29.87
396.942	156.84
397.152	89.26
397.361	68.78
397.57	150.7
397.78	115.88
397.989	113.83
398.198	132.26
398.407	76.97
398.617	93.35
398.826	91.31
399.035	83.11
399.244	107.69
399.453	103.59
399.663	60.59
399.872	154.79
400.081	40.11
400.29	91.31
400.499	101.55
400.708	115.88
400.917	70.83
401.127	81.07
401.336	126.12
401.545	99.5
401.754	165.03
401.963	150.7
402.172	122.02
402.381	105.64
402.59	130.22
402.799	101.55
403.008	173.22
403.217	171.18
403.426	212.14
403.635	113.83
403.844	117.93
404.053	167.08
404.262	158.89
404.471	257.19
404.68	199.85
404.888	171.18
405.097	109.74
405.306	195.75
405.515	177.32
405.724	208.04
405.933	216.23
406.142	242.85
406.35	199.85
406.559	162.98
406.768	158.89
406.977	210.09
407.185	281.77
407.394	289.96
407.603	169.13
407.812	187.56
408.02	345.25
408.229	195.75
408.438	228.52
408.646	240.81
408.855	298.15
409.064	251.05
409.272	224.42
409.481	314.53
409.69	281.77
409.898	339.11
410.107	351.4
410.315	320.68
410.524	349.35
410.733	388.26
410.941	367.78
411.15	363.69
411.358	406.69
411.567	588.96
411.775	408.74
411.984	457.89
412.192	441.51
412.401	484.52
412.609	466.08
412.818	527.52
413.026	564.39
413.234	543.91
413.443	591.01
413.651	539.81
413.86	697.5
414.068	658.59
414.276	756.9
414.485	621.73
414.693	699.55
414.901	724.13
415.11	779.42
415.318	662.69
415.526	865.44
415.734	912.54
415.943	783.52
416.151	933.02
416.359	791.71
416.567	896.16
416.776	976.03
416.984	971.93
417.192	1103
417.4	1027.23
417.608	1053.85
417.817	1193.11
418.025	1223.83
418.233	1289.37
418.441	1182.87
418.649	1248.41
418.857	1465.49
419.065	1428.63
419.273	1367.19
419.481	1447.06
419.689	1549.46
419.897	1574.03
420.105	1629.33
420.313	1707.15
420.521	1645.71
420.729	1715.34
420.937	1801.36
421.145	1905.81
421.353	1954.96
421.561	2047.12
421.769	2098.31
421.977	2141.32
422.185	2165.9
422.393	2249.86
422.601	2376.84
422.809	2385.03
423.017	2507.91
423.224	2626.69
423.432	2731.14
423.64	2634.88
423.848	2980.99
424.056	2862.21
424.263	2978.94
424.471	2991.23
424.679	3028.09
424.887	3269.75
425.094	3351.67
425.302	3484.79
425.51	3595.38
425.718	3611.76
425.925	3572.85
426.133	3691.63
426.341	3894.38
426.548	4107.37
426.756	4168.81
426.964	4107.37
427.171	4510.82
427.379	4547.69
427.586	4545.64
427.794	4709.47
428.001	4811.87
428.209	5303.39
428.417	5114.97
428.624	5565.53
428.832	5622.87
429.039	5405.78
429.247	5497.94
429.454	6093.9
429.662	6470.73
429.869	6050.89
430.076	6433.86
430.284	6194.25
430.491	6677.57
430.699	7029.82
430.906	6874.18
431.114	7146.56
431.321	7449.66
431.528	7468.09
431.736	7849.01
431.943	8113.2
432.15	7783.48
432.358	8012.85
432.565	8578.09
432.772	8262.7
432.979	8795.17
433.187	8940.58
433.394	9110.56
433.601	9878.55
433.808	9700.37
434.016	9634.84
434.223	10165.26
434.43	10529.8
434.637	10488.84
434.844	11271.17
435.052	11234.3
435.259	11244.54
435.466	11305.98
435.673	11322.37
435.88	11985.91
436.087	12702.7
436.294	12313.58
436.501	12370.93
436.708	12487.66
436.915	13069.28
437.122	13376.48
437.329	13601.76
437.537	13741.02
437.743	14177.23
437.95	13736.92
438.157	14883.78
438.364	15270.85
438.571	15109.06
438.778	15387.58
438.985	16917.42
439.192	15999.93
439.399	16640.94
439.606	16022.45
439.813	17167.27
440.02	18072.47
440.227	17970.07
440.433	17632.16
440.64	18199.44
440.847	18035.61
441.054	18416.53
441.261	19860.35
441.467	19669.89
441.674	20001.66
441.881	20644.72
442.088	20181.88
442.294	20521.84
442.501	20855.66
442.708	21365.6
442.914	21908.32
443.121	22926.16
443.328	22514.52
443.534	24240.95
443.741	23647.04
443.948	22936.4
444.154	24763.18
444.361	24640.31
444.568	24886.06
444.774	24767.28
444.981	25033.52
445.187	25682.72
445.394	26802.96
445.6	26426.14
445.807	28859.12
446.013	27798.27
446.22	28015.36
446.426	29133.55
446.633	29623.01
446.839	30503.64
447.046	29391.59
447.252	30935.76
447.459	30577.37
447.665	30708.44
447.871	31924.93
448.078	33112.75
448.284	31556.3
448.491	32678.58
448.697	33788.58
448.903	34491.04
449.11	34255.52
449.316	33626.79
449.522	34517.66
449.728	35254.93
449.935	35361.42
450.141	35521.16
450.347	36090.5
450.553	35197.59
450.76	35254.93
450.966	36606.59
451.172	36315.78
451.378	36803.19
451.584	36037.25
451.791	37417.58
451.997	36848.25
452.203	37802.6
452.409	37608.04
452.615	37063.29
452.821	36170.37
453.027	35455.63
453.233	37407.34
453.44	36094.6
453.646	36467.33
453.852	36182.66
454.058	37042.81
454.264	35711.63
454.47	36231.81
454.676	35838.6
454.882	36856.44
455.088	33411.76
455.294	33897.13
455.5	34237.09
455.705	34716.31
455.911	33358.51
456.117	33039.03
456.323	32268.99
456.529	30403.29
456.735	31812.29
456.941	30720.73
457.147	30479.07
457.352	29461.23
457.558	28879.6
457.764	29332.2
457.97	28566.26
458.176	28062.46
458.381	27972.35
458.587	26569.49
458.793	26596.12
458.999	25242.41
459.204	26921.74
459.41	26127.13
459.616	24462.13
459.821	24466.23
460.027	24607.54
460.233	23823.17
460.438	22825.81
460.644	23126.86
460.85	21984.09
461.055	21654.37
461.261	21562.21
461.466	20015.99
461.672	19489.67
461.878	20824.94
462.083	19538.82
462.289	19284.87
462.494	19116.93
462.7	18019.22
462.905	17761.18
463.111	18480.02
463.316	18424.72
463.522	17931.16
463.727	17752.99
463.932	17869.72
464.138	17791.9
464.343	18160.53
464.549	17329.06
464.754	17757.08
464.959	17531.81
465.165	17810.33
465.37	16622.51
465.575	16421.81
465.781	17322.91
465.986	17269.67
466.191	16624.56
466.397	16333.75
466.602	15506.37
466.807	16053.17
467.012	15934.39
467.218	16083.89
467.423	15924.15
467.628	15848.38
467.833	16645.04
