Data from USB4F104151__32__10-21-53-216.txt Node

Date: Wed Mar 12 10:21:53 EDT 2025
User: louis
Spectrometer: USB4F10415
Trigger mode: 4
Integration Time (sec): 3.000000E-2
Scans to average: 1
Electric dark correction enabled: true
Nonlinearity correction enabled: false
Boxcar width: 0
XAxis mode: Wavelengths
Number of Pixels in Spectrum: 3648
>>>>>Begin Spectral Data<<<<<
178.204	-116.73
178.424	-116.73
178.644	-116.73
178.864	-124.93
179.084	-129.02
179.304	14.34
179.524	-38.91
179.744	12.29
179.964	38.91
180.184	14.34
180.404	-28.67
180.624	-2.05
180.844	-16.38
181.064	30.72
181.283	28.67
181.503	-34.82
181.723	-18.43
181.943	-96.25
182.163	92.16
182.383	47.1
182.602	18.43
182.822	-10.24
183.042	40.96
183.262	-12.29
183.482	53.25
183.701	51.2
183.921	57.34
184.141	88.06
184.361	-32.77
184.58	12.29
184.8	8.19
185.02	90.11
185.239	126.97
185.459	63.49
185.679	-12.29
185.898	0
186.118	118.78
186.338	16.38
186.557	26.62
186.777	73.73
186.997	-16.38
187.216	53.25
187.436	81.92
187.655	6.14
187.875	-2.05
188.095	38.91
188.314	139.26
188.534	77.82
188.753	6.14
188.973	30.72
189.192	81.92
189.412	34.82
189.631	71.68
189.851	10.24
190.07	36.86
190.29	43.01
190.509	55.3
190.729	-6.14
190.948	36.86
191.168	210.94
191.387	47.1
191.607	22.53
191.826	102.4
192.045	-10.24
192.265	61.44
192.484	67.58
192.704	34.82
192.923	22.53
193.142	14.34
193.362	-59.39
193.581	71.68
193.8	30.72
194.02	55.3
194.239	67.58
194.458	83.97
194.678	-38.91
194.897	34.82
195.116	-34.82
195.335	73.73
195.555	38.91
195.774	34.82
195.993	129.02
196.212	36.86
196.432	26.62
196.651	53.25
196.87	77.82
197.089	24.58
197.308	55.3
197.528	122.88
197.747	-4.1
197.966	18.43
198.185	57.34
198.404	53.25
198.623	108.54
198.842	30.72
199.062	38.91
199.281	71.68
199.5	2.05
199.719	102.4
199.938	38.91
200.157	53.25
200.376	12.29
200.595	49.15
200.814	22.53
201.033	-53.25
201.252	-2.05
201.471	-8.19
201.69	79.87
201.909	4.1
202.128	51.2
202.347	90.11
202.566	14.34
202.785	40.96
203.004	22.53
203.223	59.39
203.442	8.19
203.661	2.05
203.879	22.53
204.098	57.34
204.317	4.1
204.536	69.63
204.755	73.73
204.974	57.34
205.193	71.68
205.411	83.97
205.63	-4.1
205.849	18.43
206.068	34.82
206.287	79.87
206.505	47.1
206.724	10.24
206.943	38.91
207.162	-38.91
207.381	30.72
207.599	40.96
207.818	61.44
208.037	-2.05
208.255	24.58
208.474	53.25
208.693	57.34
208.911	71.68
209.13	55.3
209.349	135.17
209.567	57.34
209.786	6.14
210.005	94.21
210.223	18.43
210.442	-6.14
210.661	61.44
210.879	4.1
211.098	20.48
211.316	53.25
211.535	22.53
211.753	14.34
211.972	73.73
212.191	53.25
212.409	18.43
212.628	40.96
212.846	-14.34
213.065	55.3
213.283	51.2
213.502	-2.05
213.72	22.53
213.938	63.49
214.157	0
214.375	16.38
214.594	45.06
214.812	26.62
215.031	-18.43
215.249	79.87
215.467	96.25
215.686	88.06
215.904	6.14
216.122	-53.25
216.341	71.68
216.559	2.05
216.778	112.64
216.996	8.19
217.214	43.01
217.432	6.14
217.651	53.25
217.869	18.43
218.087	0
218.306	86.01
218.524	67.58
218.742	18.43
218.96	45.06
219.179	75.77
219.397	6.14
219.615	63.49
219.833	45.06
220.051	26.62
220.27	114.69
220.488	69.63
220.706	63.49
220.924	45.06
221.142	-6.14
221.36	67.58
221.578	10.24
221.796	96.25
222.015	4.1
222.233	6.14
222.451	26.62
222.669	63.49
222.887	98.3
223.105	12.29
223.323	6.14
223.541	-77.82
223.759	75.77
223.977	16.38
224.195	98.3
224.413	51.2
224.631	86.01
224.849	20.48
225.067	133.12
225.285	-36.86
225.503	-12.29
225.721	30.72
225.939	43.01
226.157	18.43
226.375	77.82
226.592	28.67
226.81	57.34
227.028	16.38
227.246	90.11
227.464	16.38
227.682	43.01
227.9	65.53
228.117	18.43
228.335	83.97
228.553	63.49
228.771	83.97
228.989	47.1
229.206	71.68
229.424	126.97
229.642	81.92
229.86	43.01
230.077	63.49
230.295	45.06
230.513	67.58
230.731	22.53
230.948	51.2
231.166	126.97
231.384	57.34
231.601	79.87
231.819	102.4
232.037	-20.48
232.254	22.53
232.472	67.58
232.689	12.29
232.907	81.92
233.125	28.67
233.342	28.67
233.56	-49.15
233.777	47.1
233.995	79.87
234.213	83.97
234.43	20.48
234.648	8.19
234.865	51.2
235.083	28.67
235.3	55.3
235.518	63.49
235.735	45.06
235.953	116.73
236.17	24.58
236.388	22.53
236.605	75.77
236.822	55.3
237.04	63.49
237.257	100.35
237.475	10.24
237.692	6.14
237.909	14.34
238.127	53.25
238.344	28.67
238.562	18.43
238.779	22.53
238.996	14.34
239.214	30.72
239.431	86.01
239.648	-6.14
239.865	120.83
240.083	75.77
240.3	49.15
240.517	12.29
240.735	45.06
240.952	61.44
241.169	8.19
241.386	96.25
241.603	57.34
241.821	49.15
242.038	108.54
242.255	116.73
242.472	67.58
242.689	16.38
242.907	100.35
243.124	20.48
243.341	28.67
243.558	28.67
243.775	34.82
243.992	-18.43
244.209	51.2
244.426	79.87
244.643	71.68
244.86	94.21
245.078	34.82
245.295	110.59
245.512	102.4
245.729	34.82
245.946	98.3
246.163	53.25
246.38	-2.05
246.597	6.14
246.814	32.77
247.031	24.58
247.248	-8.19
247.464	75.77
247.681	32.77
247.898	126.97
248.115	141.31
248.332	26.62
248.549	167.93
248.766	28.67
248.983	94.21
249.2	-6.14
249.417	96.25
249.633	22.53
249.85	124.93
250.067	38.91
250.284	116.73
250.501	47.1
250.717	40.96
250.934	47.1
251.151	77.82
251.368	83.97
251.585	112.64
251.801	20.48
252.018	147.45
252.235	28.67
252.451	-22.53
252.668	-51.2
252.885	36.86
253.102	34.82
253.318	14.34
253.535	36.86
253.752	92.16
253.968	63.49
254.185	18.43
254.401	-16.38
254.618	36.86
254.835	86.01
255.051	40.96
255.268	43.01
255.484	30.72
255.701	24.58
255.917	18.43
256.134	16.38
256.351	-67.58
256.567	96.25
256.784	24.58
257	2.05
257.217	69.63
257.433	26.62
257.65	28.67
257.866	55.3
258.082	-43.01
258.299	-4.1
258.515	53.25
258.732	83.97
258.948	61.44
259.165	73.73
259.381	65.53
259.597	14.34
259.814	112.64
260.03	79.87
260.246	38.91
260.463	77.82
260.679	30.72
260.895	75.77
261.112	61.44
261.328	32.77
261.544	0
261.761	135.17
261.977	26.62
262.193	-22.53
262.409	-4.1
262.626	47.1
262.842	92.16
263.058	6.14
263.274	108.54
263.49	34.82
263.707	57.34
263.923	73.73
264.139	-67.58
264.355	20.48
264.571	0
264.787	34.82
265.004	94.21
265.22	38.91
265.436	14.34
265.652	34.82
265.868	34.82
266.084	83.97
266.3	38.91
266.516	47.1
266.732	55.3
266.948	96.25
267.164	51.2
267.38	61.44
267.596	90.11
267.812	32.77
268.028	90.11
268.244	49.15
268.46	18.43
268.676	16.38
268.892	65.53
269.108	6.14
269.324	51.2
269.54	-38.91
269.756	32.77
269.972	55.3
270.188	-14.34
270.403	73.73
270.619	30.72
270.835	8.19
271.051	43.01
271.267	-22.53
271.483	18.43
271.698	79.87
271.914	6.14
272.13	75.77
272.346	75.77
272.562	75.77
272.777	-4.1
272.993	22.53
273.209	14.34
273.425	65.53
273.64	43.01
273.856	4.1
274.072	26.62
274.287	36.86
274.503	32.77
274.719	40.96
274.934	34.82
275.15	79.87
275.366	77.82
275.581	55.3
275.797	108.54
276.012	-14.34
276.228	26.62
276.444	30.72
276.659	98.3
276.875	20.48
277.09	-55.3
277.306	88.06
277.521	110.59
277.737	-2.05
277.952	43.01
278.168	55.3
278.383	-20.48
278.599	22.53
278.814	34.82
279.03	77.82
279.245	32.77
279.461	55.3
279.676	49.15
279.892	73.73
280.107	0
280.322	38.91
280.538	67.58
280.753	-47.1
280.969	96.25
281.184	51.2
281.399	36.86
281.615	63.49
281.83	34.82
282.045	-47.1
282.26	36.86
282.476	26.62
282.691	67.58
282.906	16.38
283.122	49.15
283.337	-75.77
283.552	2.05
283.767	12.29
283.983	63.49
284.198	22.53
284.413	10.24
284.628	26.62
284.843	59.39
285.058	104.45
285.274	14.34
285.489	32.77
285.704	63.49
285.919	18.43
286.134	102.4
286.349	38.91
286.564	-18.43
286.779	8.19
286.995	4.1
287.21	16.38
287.425	135.17
287.64	-14.34
287.855	83.97
288.07	-6.14
288.285	67.58
288.5	88.06
288.715	49.15
288.93	2.05
289.145	-10.24
289.36	55.3
289.575	47.1
289.79	96.25
290.004	34.82
290.219	53.25
290.434	22.53
290.649	6.14
290.864	34.82
291.079	30.72
291.294	49.15
291.509	49.15
291.724	-75.77
291.938	-34.82
292.153	24.58
292.368	-34.82
292.583	53.25
292.798	36.86
293.012	-14.34
293.227	26.62
293.442	0
293.657	79.87
293.871	61.44
294.086	63.49
294.301	40.96
294.516	90.11
294.73	151.55
294.945	108.54
295.16	59.39
295.374	59.39
295.589	4.1
295.804	75.77
296.018	49.15
296.233	55.3
296.447	22.53
296.662	-10.24
296.877	18.43
297.091	14.34
297.306	116.73
297.52	36.86
297.735	100.35
297.949	12.29
298.164	63.49
298.378	30.72
298.593	24.58
298.807	26.62
299.022	71.68
299.236	96.25
299.451	6.14
299.665	59.39
299.88	18.43
300.094	6.14
300.309	96.25
300.523	-2.05
300.737	67.58
300.952	92.16
301.166	61.44
301.381	18.43
301.595	30.72
301.809	-30.72
302.024	45.06
302.238	22.53
302.452	81.92
302.667	55.3
302.881	116.73
303.095	67.58
303.309	12.29
303.524	40.96
303.738	63.49
303.952	43.01
304.166	88.06
304.381	16.38
304.595	47.1
304.809	2.05
305.023	61.44
305.237	92.16
305.452	75.77
305.666	30.72
305.88	65.53
306.094	133.12
306.308	112.64
306.522	94.21
306.736	28.67
306.95	22.53
307.164	-26.62
307.379	71.68
307.593	79.87
307.807	63.49
308.021	120.83
308.235	26.62
308.449	47.1
308.663	43.01
308.877	71.68
309.091	47.1
309.305	16.38
309.519	18.43
309.733	83.97
309.947	-4.1
310.161	26.62
310.374	47.1
310.588	47.1
310.802	22.53
311.016	79.87
311.23	28.67
311.444	67.58
311.658	75.77
311.872	49.15
312.085	4.1
312.299	149.5
312.513	47.1
312.727	94.21
312.941	30.72
313.154	-26.62
313.368	53.25
313.582	86.01
313.796	102.4
314.009	51.2
314.223	124.93
314.437	108.54
314.651	86.01
314.864	69.63
315.078	69.63
315.292	18.43
315.505	79.87
315.719	16.38
315.933	59.39
316.146	92.16
316.36	36.86
316.573	83.97
316.787	63.49
317.001	92.16
317.214	51.2
317.428	118.78
317.641	24.58
317.855	100.35
318.068	61.44
318.282	12.29
318.495	102.4
318.709	81.92
318.922	83.97
319.136	77.82
319.349	51.2
319.563	53.25
319.776	51.2
319.99	59.39
320.203	51.2
320.417	67.58
320.63	55.3
320.843	71.68
321.057	59.39
321.27	26.62
321.483	73.73
321.697	34.82
321.91	55.3
322.124	63.49
322.337	30.72
322.55	2.05
322.763	86.01
322.977	81.92
323.19	77.82
323.403	10.24
323.617	2.05
323.83	43.01
324.043	71.68
324.256	59.39
324.469	38.91
324.683	65.53
324.896	53.25
325.109	-10.24
325.322	-2.05
325.535	96.25
325.748	118.78
325.962	92.16
326.175	36.86
326.388	73.73
326.601	43.01
326.814	51.2
327.027	53.25
327.24	120.83
327.453	28.67
327.666	71.68
327.879	49.15
328.092	98.3
328.305	34.82
328.518	88.06
328.731	-20.48
328.944	34.82
329.157	-6.14
329.37	55.3
329.583	141.31
329.796	137.21
330.009	-28.67
330.222	-34.82
330.435	81.92
330.648	61.44
330.861	112.64
331.073	104.45
331.286	120.83
331.499	49.15
331.712	12.29
331.925	28.67
332.138	14.34
332.35	38.91
332.563	32.77
332.776	94.21
332.989	-22.53
333.202	120.83
333.414	161.79
333.627	-10.24
333.84	38.91
334.053	30.72
334.265	45.06
334.478	-8.19
334.691	53.25
334.903	28.67
335.116	77.82
335.329	38.91
335.541	16.38
335.754	-18.43
335.966	53.25
336.179	75.77
336.392	-12.29
336.604	47.1
336.817	133.12
337.029	36.86
337.242	49.15
337.454	-14.34
337.667	133.12
337.88	51.2
338.092	86.01
338.305	71.68
338.517	45.06
338.729	55.3
338.942	22.53
339.154	102.4
339.367	108.54
339.579	24.58
339.792	81.92
340.004	53.25
340.217	71.68
340.429	71.68
340.641	61.44
340.854	-14.34
341.066	36.86
341.278	75.77
341.491	112.64
341.703	63.49
341.915	75.77
342.128	61.44
342.34	88.06
342.552	47.1
342.764	-30.72
342.977	47.1
343.189	79.87
343.401	-4.1
343.613	43.01
343.826	96.25
344.038	30.72
344.25	45.06
344.462	79.87
344.674	96.25
344.886	63.49
345.099	55.3
345.311	55.3
345.523	-2.05
345.735	30.72
345.947	88.06
346.159	8.19
346.371	67.58
346.583	81.92
346.795	180.22
347.007	-36.86
347.219	45.06
347.431	71.68
347.643	71.68
347.855	100.35
348.067	49.15
348.279	4.1
348.491	26.62
348.703	81.92
348.915	47.1
349.127	32.77
349.339	75.77
349.551	30.72
349.763	137.21
349.975	38.91
350.187	55.3
350.399	71.68
350.61	81.92
350.822	96.25
351.034	63.49
351.246	57.34
351.458	92.16
351.669	98.3
351.881	77.82
352.093	47.1
352.305	45.06
352.517	55.3
352.728	114.69
352.94	71.68
353.152	63.49
353.363	53.25
353.575	65.53
353.787	59.39
353.999	124.93
354.21	110.59
354.422	110.59
354.633	59.39
354.845	36.86
355.057	4.1
355.268	69.63
355.48	139.26
355.692	38.91
355.903	75.77
356.115	55.3
356.326	2.05
356.538	53.25
356.749	75.77
356.961	135.17
357.172	71.68
357.384	67.58
357.595	124.93
357.807	88.06
358.018	14.34
358.23	-20.48
358.441	96.25
358.653	77.82
358.864	55.3
359.075	71.68
359.287	137.21
359.498	137.21
359.709	77.82
359.921	92.16
360.132	28.67
360.344	55.3
360.555	137.21
360.766	137.21
360.977	-6.14
361.189	67.58
361.4	129.02
361.611	112.64
361.823	102.4
362.034	114.69
362.245	34.82
362.456	43.01
362.667	10.24
362.879	32.77
363.09	57.34
363.301	69.63
363.512	30.72
363.723	57.34
363.935	55.3
364.146	14.34
364.357	79.87
364.568	51.2
364.779	0
364.99	131.07
365.201	2.05
365.412	116.73
365.623	14.34
365.834	4.1
366.045	51.2
366.256	116.73
366.467	38.91
366.678	22.53
366.889	6.14
367.1	65.53
367.311	47.1
367.522	55.3
367.733	45.06
367.944	61.44
368.155	55.3
368.366	88.06
368.577	96.25
368.788	120.83
368.999	10.24
369.209	96.25
369.42	153.6
369.631	114.69
369.842	34.82
370.053	4.1
370.264	104.45
370.474	-43.01
370.685	165.89
370.896	40.96
371.107	71.68
371.317	106.49
371.528	77.82
371.739	129.02
371.95	83.97
372.16	96.25
372.371	28.67
372.582	69.63
372.792	81.92
373.003	47.1
373.214	86.01
373.424	83.97
373.635	49.15
373.846	59.39
374.056	63.49
374.267	20.48
374.477	71.68
374.688	88.06
374.898	61.44
375.109	73.73
375.319	92.16
375.53	28.67
375.74	79.87
375.951	135.17
376.161	22.53
376.372	55.3
376.582	8.19
376.793	96.25
377.003	118.78
377.214	0
377.424	102.4
377.635	92.16
377.845	53.25
378.055	67.58
378.266	47.1
378.476	6.14
378.686	88.06
378.897	49.15
379.107	106.49
379.317	133.12
379.528	36.86
379.738	26.62
379.948	47.1
380.158	77.82
380.369	88.06
380.579	38.91
380.789	108.54
380.999	79.87
381.21	79.87
381.42	100.35
381.63	51.2
381.84	129.02
382.05	53.25
382.261	26.62
382.471	118.78
382.681	96.25
382.891	83.97
383.101	135.17
383.311	38.91
383.521	14.34
383.731	176.13
383.941	106.49
384.151	126.97
384.361	143.36
384.571	43.01
384.781	49.15
384.991	77.82
385.201	108.54
385.411	69.63
385.621	102.4
385.831	45.06
386.041	106.49
386.251	55.3
386.461	34.82
386.671	114.69
386.881	63.49
387.091	75.77
387.301	118.78
387.511	49.15
387.72	57.34
387.93	100.35
388.14	20.48
388.35	135.17
388.56	102.4
388.769	112.64
388.979	94.21
389.189	22.53
389.399	10.24
389.609	145.41
389.818	124.93
390.028	55.3
390.238	92.16
390.447	26.62
390.657	63.49
390.867	8.19
391.076	10.24
391.286	153.6
391.496	51.2
391.705	83.97
391.915	124.93
392.125	53.25
392.334	59.39
392.544	133.12
392.753	137.21
392.963	79.87
393.172	75.77
393.382	22.53
393.591	98.3
393.801	75.77
394.01	145.41
394.22	79.87
394.429	63.49
394.639	133.12
394.848	63.49
395.058	77.82
395.267	129.02
395.477	137.21
395.686	126.97
395.895	153.6
396.105	120.83
396.314	53.25
396.524	137.21
396.733	28.67
396.942	116.73
397.152	90.11
397.361	120.83
397.57	96.25
397.78	161.79
397.989	141.31
398.198	169.98
398.407	55.3
398.617	61.44
398.826	225.28
399.035	120.83
399.244	163.84
399.453	108.54
399.663	86.01
399.872	149.5
400.081	90.11
400.29	106.49
400.499	104.45
400.708	135.17
400.917	116.73
401.127	133.12
401.336	151.55
401.545	145.41
401.754	104.45
401.963	108.54
402.172	73.73
402.381	147.45
402.59	90.11
402.799	202.75
403.008	112.64
403.217	139.26
403.426	143.36
403.635	110.59
403.844	145.41
404.053	190.46
404.262	206.84
404.471	200.7
404.68	178.17
404.888	133.12
405.097	143.36
405.306	192.51
405.515	139.26
405.724	180.22
405.933	124.93
406.142	245.76
406.35	270.33
406.559	241.66
406.768	227.32
406.977	245.76
407.185	235.52
407.394	233.47
407.603	219.13
407.812	249.85
408.02	305.15
408.229	256
408.438	229.37
408.646	278.52
408.855	235.52
409.064	360.44
409.272	272.38
409.481	319.48
409.69	284.67
409.898	313.34
410.107	294.91
410.315	405.5
410.524	280.57
410.733	299
410.941	337.91
411.15	436.22
411.358	325.63
411.567	405.5
411.775	413.69
411.984	393.21
412.192	430.07
412.401	419.83
412.609	423.93
412.818	462.84
413.026	487.42
413.234	610.29
413.443	522.23
413.651	473.08
413.86	571.38
414.068	563.19
414.276	634.87
414.485	587.77
414.693	655.35
414.901	659.45
415.11	649.21
415.318	669.69
415.526	706.55
415.734	831.48
415.943	745.46
416.151	819.19
416.359	915.44
416.567	937.97
416.776	872.43
416.984	1030.13
417.192	1032.18
417.4	1007.6
417.608	1001.46
417.817	1136.62
418.025	1153.01
418.233	1226.73
418.441	1232.88
418.649	1230.83
418.857	1390.57
419.065	1376.23
419.273	1290.22
419.481	1378.28
419.689	1398.76
419.897	1476.59
420.105	1454.06
420.313	1562.6
420.521	1562.6
420.729	1753.06
420.937	1716.2
421.145	1722.34
421.353	1888.23
421.561	2023.39
421.769	2039.78
421.977	2113.5
422.185	2021.35
422.393	2131.94
422.601	2224.09
422.809	2359.26
423.017	2398.17
423.224	2445.27
423.432	2592.73
423.64	2492.38
423.848	2768.85
424.056	2658.26
424.263	2791.38
424.471	2725.85
424.679	3041.23
424.887	3164.11
425.094	3225.55
425.302	3166.16
425.51	3438.54
425.718	3327.95
425.925	3520.46
426.133	3436.49
426.341	3846.09
426.548	3798.98
426.756	3952.58
426.964	3981.25
427.171	4134.85
427.379	4345.79
427.586	4526.01
427.794	4618.17
428.001	4667.32
428.209	4896.69
428.417	4919.22
428.624	5146.55
428.832	5152.69
429.039	5310.38
429.247	5224.37
429.454	5603.24
429.662	6037.41
429.869	5466.03
430.076	6088.61
430.284	5953.45
430.491	6258.59
430.699	6467.49
430.906	6559.64
431.114	6582.17
431.321	6666.14
431.528	6956.95
431.736	7376.78
431.943	7784.33
432.15	7546.76
432.358	7581.58
432.565	8050.57
432.772	7929.74
432.979	8454.01
433.187	8505.21
433.394	8458.11
433.601	9154.42
433.808	9115.51
434.016	8986.49
434.223	9467.76
434.43	9846.63
434.637	9805.67
434.844	10266.47
435.052	10461.02
435.259	10680.16
435.466	10727.26
435.673	10643.29
435.88	11308.88
436.087	11841.36
436.294	11792.2
436.501	11544.4
436.708	11812.68
436.915	12238.66
437.122	12627.78
437.329	12508.99
437.537	13023.03
437.743	13242.17
437.95	13201.21
438.157	13973.29
438.364	14380.84
438.571	14034.73
438.778	14372.64
438.985	15877.9
439.192	14925.6
439.399	15656.72
439.606	15021.85
439.813	15951.63
440.02	17037.05
440.227	16533.25
440.433	16596.74
440.64	17147.64
440.847	16973.56
441.054	17325.82
441.261	18859.74
441.467	18396.9
441.674	18835.17
441.881	19246.81
442.088	19420.89
442.294	19019.49
442.501	19785.43
442.708	20287.18
442.914	20883.14
443.121	21911.22
443.328	21188.28
443.534	22587.05
443.741	22068.91
443.948	21767.86
444.154	23176.86
444.361	23111.33
444.568	23307.93
444.774	23164.57
444.981	23639.7
445.187	24172.18
445.394	25577.08
445.6	24940.16
445.807	27254.37
446.013	26150.51
446.22	26678.89
446.426	27270.75
446.633	27692.63
446.839	28716.62
447.046	27457.12
447.252	28825.16
447.459	28892.74
447.665	28913.22
447.871	30551.6
448.078	31356.45
448.284	29765.18
448.491	30801.45
448.697	32038.42
448.903	32540.18
449.11	32550.42
449.316	32003.61
449.522	32488.98
449.728	33111.56
449.935	33482.24
450.141	33433.09
450.347	34242.04
450.553	33080.84
450.76	33156.61
450.966	34555.38
451.172	33940.99
451.378	35010.03
451.584	34373.11
451.791	35098.09
451.997	34901.48
452.203	35540.45
452.409	35294.69
452.615	35415.52
452.821	33676.8
453.027	33578.5
453.233	35233.25
453.44	33881.6
453.646	34399.73
453.852	34674.16
454.058	34842.09
454.264	33684.99
454.47	34141.69
454.676	33629.69
454.882	34665.97
455.088	32013.85
455.294	32136.73
455.5	32501.26
455.705	32826.89
455.911	31780.38
456.117	30846.51
456.323	30432.82
456.529	28945.99
456.735	29898.3
456.941	29150.79
457.147	28747.34
457.352	27885.14
457.558	27731.54
457.764	27934.29
457.97	27106.91
458.176	26484.33
458.381	26582.63
458.587	25220.74
458.793	25263.74
458.999	23959.19
459.204	25486.97
459.41	24798.85
459.616	23334.56
459.821	23195.29
460.027	23164.57
460.233	22671.01
460.438	21659.32
460.644	21796.53
460.85	20592.33
461.055	20573.89
461.261	20518.6
461.466	18755.3
461.672	18577.12
461.878	19885.78
462.083	18433.77
462.289	18036.46
462.494	17964.78
462.7	17129.21
462.905	16654.08
463.111	17311.48
463.316	17458.93
463.522	17063.68
463.727	17221.37
463.932	16983.8
464.138	16789.25
464.343	16705.28
464.549	16328.45
464.754	16992
464.959	16789.25
465.165	16662.27
465.37	16111.37
465.575	15345.43
465.781	16129.8
465.986	16416.52
466.191	15746.83
466.397	15617.81
466.602	14690.08
466.807	15210.26
467.012	15161.11
467.218	15228.7
467.423	14911.26
467.628	14933.79
467.833	15566.61
