Data from USB4F104151__175__10-27-36-438.txt Node

Date: Wed Mar 12 10:27:36 EDT 2025
User: louis
Spectrometer: USB4F10415
Trigger mode: 4
Integration Time (sec): 3.000000E-2
Scans to average: 1
Electric dark correction enabled: true
Nonlinearity correction enabled: false
Boxcar width: 0
XAxis mode: Wavelengths
Number of Pixels in Spectrum: 3648
>>>>>Begin Spectral Data<<<<<
178.204	-192.85
178.424	-192.85
178.644	-192.85
178.864	-221.52
179.084	-141.65
179.304	54.95
179.524	-20.82
179.744	9.9
179.964	28.33
180.184	-41.3
180.404	-55.64
180.624	-65.88
180.844	69.29
181.064	-26.96
181.283	1.71
181.503	11.95
181.723	34.47
181.943	3.75
182.163	26.28
182.383	-39.25
182.602	13.99
182.822	52.91
183.042	-10.58
183.262	34.47
183.482	42.67
183.701	50.86
183.921	-24.92
184.141	-29.01
184.361	26.28
184.58	5.8
184.8	16.04
185.02	-22.87
185.239	-10.58
185.459	-51.54
185.679	1.71
185.898	-29.01
186.118	52.91
186.338	-26.96
186.557	18.09
186.777	-24.92
186.997	9.9
187.216	38.57
187.436	32.43
187.655	-6.49
187.875	34.47
188.095	-51.54
188.314	52.91
188.534	48.81
188.753	-10.58
188.973	48.81
189.192	24.23
189.412	18.09
189.631	18.09
189.851	-12.63
190.07	13.99
190.29	-2.39
190.509	61.1
190.729	28.33
190.948	5.8
191.168	124.58
191.387	75.43
191.607	-26.96
191.826	61.1
192.045	22.19
192.265	-6.49
192.484	-22.87
192.704	22.19
192.923	34.47
193.142	52.91
193.362	-6.49
193.581	40.62
193.8	-2.39
194.02	-2.39
194.239	30.38
194.458	11.95
194.678	16.04
194.897	-12.63
195.116	-69.97
195.335	16.04
195.555	40.62
195.774	3.75
195.993	28.33
196.212	-0.34
196.432	3.75
196.651	-24.92
196.87	-22.87
197.089	65.19
197.308	26.28
197.528	32.43
197.747	-4.44
197.966	13.99
198.185	69.29
198.404	-4.44
198.623	79.53
198.842	20.14
199.062	106.15
199.281	3.75
199.5	65.19
199.719	40.62
199.938	-43.35
200.157	-4.44
200.376	11.95
200.595	46.76
200.814	34.47
201.033	24.23
201.252	-2.39
201.471	61.1
201.69	32.43
201.909	5.8
202.128	18.09
202.347	118.44
202.566	22.19
202.785	-18.77
203.004	20.14
203.223	65.19
203.442	67.24
203.661	-2.39
203.879	1.71
204.098	-2.39
204.317	-20.82
204.536	13.99
204.755	-8.53
204.974	24.23
205.193	87.72
205.411	89.77
205.63	-6.49
205.849	52.91
206.068	-55.64
206.287	22.19
206.505	-10.58
206.724	9.9
206.943	-57.68
207.162	26.28
207.381	-31.06
207.599	-16.73
207.818	-10.58
208.037	11.95
208.255	-43.35
208.474	-35.16
208.693	24.23
208.911	22.19
209.13	-16.73
209.349	7.85
209.567	26.28
209.786	91.82
210.005	5.8
210.223	3.75
210.442	-51.54
210.661	54.95
210.879	91.82
211.098	73.39
211.316	-4.44
211.535	120.49
211.753	9.9
211.972	-26.96
212.191	-47.44
212.409	-72.02
212.628	22.19
212.846	24.23
213.065	34.47
213.283	73.39
213.502	-31.06
213.72	-6.49
213.938	54.95
214.157	-31.06
214.375	26.28
214.594	42.67
214.812	-20.82
215.031	13.99
215.249	16.04
215.467	18.09
215.686	73.39
215.904	28.33
216.122	-59.73
216.341	20.14
216.559	7.85
216.778	67.24
216.996	118.44
217.214	-39.25
217.432	-35.16
217.651	-39.25
217.869	54.95
218.087	50.86
218.306	42.67
218.524	-31.06
218.742	-31.06
218.96	-22.87
219.179	-4.44
219.397	-2.39
219.615	97.96
219.833	-26.96
220.051	-4.44
220.27	-2.39
220.488	46.76
220.706	7.85
220.924	-14.68
221.142	50.86
221.36	13.99
221.578	63.15
221.796	-14.68
222.015	-14.68
222.233	20.14
222.451	50.86
222.669	-31.06
222.887	-6.49
223.105	18.09
223.323	-88.4
223.541	1.71
223.759	71.34
223.977	-31.06
224.195	79.53
224.413	-35.16
224.631	-20.82
224.849	20.14
225.067	36.52
225.285	9.9
225.503	13.99
225.721	-8.53
225.939	9.9
226.157	1.71
226.375	1.71
226.592	-22.87
226.81	-24.92
227.028	26.28
227.246	46.76
227.464	9.9
227.682	54.95
227.9	20.14
228.117	44.71
228.335	-10.58
228.553	11.95
228.771	75.43
228.989	54.95
229.206	16.04
229.424	-18.77
229.642	22.19
229.86	-55.64
230.077	87.72
230.295	-12.63
230.513	-12.63
230.731	50.86
230.948	83.63
231.166	13.99
231.384	-22.87
231.601	-51.54
231.819	54.95
232.037	22.19
232.254	-63.83
232.472	-0.34
232.689	26.28
232.907	-18.77
233.125	5.8
233.342	-41.3
233.56	-80.21
233.777	59.05
233.995	3.75
234.213	114.34
234.43	48.81
234.648	-22.87
234.865	40.62
235.083	42.67
235.3	-43.35
235.518	63.15
235.735	13.99
235.953	97.96
236.17	9.9
236.388	-35.16
236.605	-2.39
236.822	38.57
237.04	18.09
237.257	26.28
237.475	-18.77
237.692	46.76
237.909	-16.73
238.127	34.47
238.344	1.71
238.562	18.09
238.779	11.95
238.996	40.62
239.214	-2.39
239.431	65.19
239.648	-14.68
239.865	79.53
240.083	40.62
240.3	-84.31
240.517	5.8
240.735	44.71
240.952	48.81
241.169	54.95
241.386	38.57
241.603	16.04
241.821	-22.87
242.038	50.86
242.255	20.14
242.472	13.99
242.689	-12.63
242.907	32.43
243.124	-43.35
243.341	-100.69
243.558	-29.01
243.775	3.75
243.992	-67.92
244.209	85.67
244.426	54.95
244.643	28.33
244.86	18.09
245.078	87.72
245.295	-29.01
245.512	-0.34
245.729	11.95
245.946	-22.87
246.163	44.71
246.38	20.14
246.597	67.24
246.814	28.33
247.031	-20.82
247.248	1.71
247.464	-29.01
247.681	-35.16
247.898	50.86
248.115	-53.59
248.332	-63.83
248.549	75.43
248.766	38.57
248.983	61.1
249.2	11.95
249.417	46.76
249.633	-12.63
249.85	87.72
250.067	-4.44
250.284	50.86
250.501	102.06
250.717	26.28
250.934	-24.92
251.151	42.67
251.368	67.24
251.585	81.58
251.801	24.23
252.018	-29.01
252.235	54.95
252.451	-4.44
252.668	-47.44
252.885	75.43
253.102	20.14
253.318	71.34
253.535	22.19
253.752	-35.16
253.968	-20.82
254.185	34.47
254.401	5.8
254.618	1.71
254.835	-43.35
255.051	40.62
255.268	63.15
255.484	28.33
255.701	5.8
255.917	102.06
256.134	30.38
256.351	79.53
256.567	34.47
256.784	-51.54
257	-26.96
257.217	42.67
257.433	-2.39
257.65	65.19
257.866	28.33
258.082	28.33
258.299	69.29
258.515	147.11
258.732	-24.92
258.948	44.71
259.165	24.23
259.381	16.04
259.597	-76.12
259.814	50.86
260.03	1.71
260.246	-18.77
260.463	61.1
260.679	63.15
260.895	87.72
261.112	59.05
261.328	9.9
261.544	-8.53
261.761	11.95
261.977	91.82
262.193	11.95
262.409	-22.87
262.626	28.33
262.842	13.99
263.058	42.67
263.274	30.38
263.49	22.19
263.707	-2.39
263.923	-55.64
264.139	-0.34
264.355	22.19
264.571	44.71
264.787	1.71
265.004	40.62
265.22	91.82
265.436	16.04
265.652	30.38
265.868	79.53
266.084	30.38
266.3	-12.63
266.516	20.14
266.732	48.81
266.948	-4.44
267.164	75.43
267.38	42.67
267.596	13.99
267.812	59.05
268.028	87.72
268.244	32.43
268.46	5.8
268.676	7.85
268.892	128.68
269.108	54.95
269.324	-6.49
269.54	-35.16
269.756	54.95
269.972	-67.92
270.188	-22.87
270.403	9.9
270.619	-18.77
270.835	-22.87
271.051	36.52
271.267	-6.49
271.483	18.09
271.698	18.09
271.914	52.91
272.13	-24.92
272.346	-14.68
272.562	13.99
272.777	54.95
272.993	-57.68
273.209	46.76
273.425	63.15
273.64	-39.25
273.856	48.81
274.072	79.53
274.287	-57.68
274.503	91.82
274.719	9.9
274.934	-10.58
275.15	-53.59
275.366	44.71
275.581	-53.59
275.797	18.09
276.012	26.28
276.228	42.67
276.444	38.57
276.659	-10.58
276.875	-29.01
277.09	-24.92
277.306	-20.82
277.521	57
277.737	-24.92
277.952	40.62
278.168	-29.01
278.383	57
278.599	95.91
278.814	5.8
279.03	26.28
279.245	95.91
279.461	-6.49
279.676	-2.39
279.892	-47.44
280.107	-37.2
280.322	-39.25
280.538	7.85
280.753	11.95
280.969	-39.25
281.184	-33.11
281.399	75.43
281.615	-41.3
281.83	-31.06
282.045	5.8
282.26	36.52
282.476	18.09
282.691	151.21
282.906	46.76
283.122	-18.77
283.337	40.62
283.552	40.62
283.767	-45.4
283.983	52.91
284.198	-0.34
284.413	79.53
284.628	16.04
284.843	71.34
285.058	61.1
285.274	71.34
285.489	54.95
285.704	-0.34
285.919	-6.49
286.134	26.28
286.349	65.19
286.564	5.8
286.779	-20.82
286.995	-78.16
287.21	-12.63
287.425	11.95
287.64	63.15
287.855	26.28
288.07	57
288.285	36.52
288.5	30.38
288.715	108.2
288.93	-22.87
289.145	20.14
289.36	5.8
289.575	-22.87
289.79	22.19
290.004	-2.39
290.219	-45.4
290.434	-2.39
290.649	-2.39
290.864	44.71
291.079	28.33
291.294	5.8
291.509	18.09
291.724	50.86
291.938	9.9
292.153	116.39
292.368	1.71
292.583	13.99
292.798	81.58
293.012	46.76
293.227	50.86
293.442	48.81
293.657	13.99
293.871	30.38
294.086	26.28
294.301	63.15
294.516	75.43
294.73	13.99
294.945	-4.44
295.16	-53.59
295.374	-26.96
295.589	50.86
295.804	-49.49
296.018	26.28
296.233	9.9
296.447	18.09
296.662	-29.01
296.877	61.1
297.091	126.63
297.306	-12.63
297.52	-26.96
297.735	67.24
297.949	-8.53
298.164	28.33
298.378	16.04
298.593	-2.39
298.807	11.95
299.022	112.3
299.236	11.95
299.451	-26.96
299.665	77.48
299.88	67.24
300.094	38.57
300.309	-10.58
300.523	7.85
300.737	-39.25
300.952	59.05
301.166	-57.68
301.381	57
301.595	54.95
301.809	44.71
302.024	42.67
302.238	22.19
302.452	32.43
302.667	30.38
302.881	61.1
303.095	79.53
303.309	36.52
303.524	-41.3
303.738	34.47
303.952	-29.01
304.166	13.99
304.381	-39.25
304.595	75.43
304.809	-55.64
305.023	-43.35
305.237	32.43
305.452	1.71
305.666	-2.39
305.88	-4.44
306.094	77.48
306.308	54.95
306.522	50.86
306.736	26.28
306.95	50.86
307.164	5.8
307.379	42.67
307.593	5.8
307.807	28.33
308.021	100.01
308.235	5.8
308.449	18.09
308.663	-69.97
308.877	104.11
309.091	73.39
309.305	46.76
309.519	-26.96
309.733	50.86
309.947	65.19
310.161	13.99
310.374	28.33
310.588	24.23
310.802	24.23
311.016	24.23
311.23	-2.39
311.444	42.67
311.658	71.34
311.872	34.47
312.085	54.95
312.299	85.67
312.513	30.38
312.727	71.34
312.941	-31.06
313.154	59.05
313.368	20.14
313.582	-45.4
313.796	44.71
314.009	26.28
314.223	-22.87
314.437	-2.39
314.651	61.1
314.864	-4.44
315.078	28.33
315.292	-51.54
315.505	59.05
315.719	97.96
315.933	-14.68
316.146	11.95
316.36	9.9
316.573	22.19
316.787	-35.16
317.001	75.43
317.214	-16.73
317.428	-4.44
317.641	-20.82
317.855	40.62
318.068	-0.34
318.282	-14.68
318.495	32.43
318.709	7.85
318.922	11.95
319.136	85.67
319.349	71.34
319.563	20.14
319.776	40.62
319.99	11.95
320.203	40.62
320.417	-6.49
320.63	44.71
320.843	18.09
321.057	-20.82
321.27	38.57
321.483	100.01
321.697	18.09
321.91	77.48
322.124	69.29
322.337	30.38
322.55	11.95
322.763	59.05
322.977	65.19
323.19	22.19
323.403	85.67
323.617	71.34
323.83	30.38
324.043	44.71
324.256	-39.25
324.469	46.76
324.683	24.23
324.896	54.95
325.109	30.38
325.322	13.99
325.535	63.15
325.748	-16.73
325.962	42.67
326.175	79.53
326.388	52.91
326.601	-26.96
326.814	5.8
327.027	36.52
327.24	28.33
327.453	-35.16
327.666	42.67
327.879	26.28
328.092	61.1
328.305	3.75
328.518	93.87
328.731	3.75
328.944	-2.39
329.157	93.87
329.37	71.34
329.583	46.76
329.796	95.91
330.009	69.29
330.222	79.53
330.435	67.24
330.648	147.11
330.861	-20.82
331.073	22.19
331.286	11.95
331.499	48.81
331.712	20.14
331.925	108.2
332.138	-18.77
332.35	36.52
332.563	18.09
332.776	69.29
332.989	-12.63
333.202	-4.44
333.414	20.14
333.627	61.1
333.84	-33.11
334.053	91.82
334.265	34.47
334.478	9.9
334.691	48.81
334.903	32.43
335.116	30.38
335.329	40.62
335.541	13.99
335.754	136.87
335.966	7.85
336.179	83.63
336.392	73.39
336.604	-22.87
336.817	-10.58
337.029	95.91
337.242	36.52
337.454	46.76
337.667	44.71
337.88	34.47
338.092	40.62
338.305	-33.11
338.517	-33.11
338.729	30.38
338.942	18.09
339.154	22.19
339.367	28.33
339.579	61.1
339.792	16.04
340.004	65.19
340.217	46.76
340.429	34.47
340.641	-55.64
340.854	44.71
341.066	-18.77
341.278	40.62
341.491	44.71
341.703	75.43
341.915	-35.16
342.128	63.15
342.34	20.14
342.552	18.09
342.764	-24.92
342.977	42.67
343.189	-22.87
343.401	57
343.613	3.75
343.826	61.1
344.038	52.91
344.25	22.19
344.462	22.19
344.674	28.33
344.886	59.05
345.099	91.82
345.311	46.76
345.523	1.71
345.735	50.86
345.947	-22.87
346.159	-10.58
346.371	-51.54
346.583	30.38
346.795	13.99
347.007	106.15
347.219	95.91
347.431	79.53
347.643	52.91
347.855	32.43
348.067	-2.39
348.279	-14.68
348.491	-10.58
348.703	79.53
348.915	24.23
349.127	1.71
349.339	110.25
349.551	67.24
349.763	77.48
349.975	54.95
350.187	95.91
350.399	36.52
350.61	13.99
350.822	-26.96
351.034	16.04
351.246	57
351.458	71.34
351.669	61.1
351.881	48.81
352.093	132.78
352.305	91.82
352.517	48.81
352.728	-22.87
352.94	3.75
353.152	110.25
353.363	-31.06
353.575	48.81
353.787	52.91
353.999	75.43
354.21	46.76
354.422	61.1
354.633	-16.73
354.845	32.43
355.057	46.76
355.268	7.85
355.48	73.39
355.692	28.33
355.903	40.62
356.115	28.33
356.326	112.3
356.538	140.97
356.749	18.09
356.961	52.91
357.172	-18.77
357.384	13.99
357.595	126.63
357.807	-0.34
358.018	-20.82
358.23	54.95
358.441	50.86
358.653	50.86
358.864	-26.96
359.075	11.95
359.287	20.14
359.498	59.05
359.709	-10.58
359.921	54.95
360.132	32.43
360.344	46.76
360.555	52.91
360.766	44.71
360.977	63.15
361.189	-14.68
361.4	-14.68
361.611	95.91
361.823	48.81
362.034	3.75
362.245	52.91
362.456	42.67
362.667	36.52
362.879	-20.82
363.09	30.38
363.301	38.57
363.512	-16.73
363.723	36.52
363.935	36.52
364.146	11.95
364.357	-18.77
364.568	38.57
364.779	-4.44
364.99	89.77
365.201	44.71
365.412	32.43
365.623	5.8
365.834	36.52
366.045	-37.2
366.256	126.63
366.467	-37.2
366.678	-2.39
366.889	13.99
367.1	11.95
367.311	26.28
367.522	-39.25
367.733	67.24
367.944	50.86
368.155	93.87
368.366	87.72
368.577	97.96
368.788	48.81
368.999	30.38
369.209	48.81
369.42	71.34
369.631	143.02
369.842	1.71
370.053	-31.06
370.264	75.43
370.474	40.62
370.685	44.71
370.896	59.05
371.107	118.44
371.317	106.15
371.528	59.05
371.739	48.81
371.95	93.87
372.16	59.05
372.371	20.14
372.582	34.47
372.792	-31.06
373.003	85.67
373.214	5.8
373.424	-24.92
373.635	28.33
373.846	9.9
374.056	57
374.267	143.02
374.477	57
374.688	-6.49
374.898	16.04
375.109	100.01
375.319	13.99
375.53	102.06
375.74	28.33
375.951	-0.34
376.161	69.29
376.372	93.87
376.582	-35.16
376.793	102.06
377.003	85.67
377.214	-26.96
377.424	30.38
377.635	52.91
377.845	89.77
378.055	87.72
378.266	5.8
378.476	44.71
378.686	-29.01
378.897	28.33
379.107	44.71
379.317	65.19
379.528	-8.53
379.738	22.19
379.948	-22.87
380.158	46.76
380.369	34.47
380.579	-12.63
380.789	26.28
380.999	38.57
381.21	89.77
381.42	67.24
381.63	-41.3
381.84	85.67
382.05	42.67
382.261	79.53
382.471	26.28
382.681	-53.59
382.891	104.11
383.101	69.29
383.311	34.47
383.521	100.01
383.731	91.82
383.941	143.02
384.151	93.87
384.361	63.15
384.571	18.09
384.781	7.85
384.991	48.81
385.201	124.58
385.411	87.72
385.621	46.76
385.831	-6.49
386.041	89.77
386.251	44.71
386.461	61.1
386.671	26.28
386.881	5.8
387.091	5.8
387.301	40.62
387.511	16.04
387.72	26.28
387.93	65.19
388.14	3.75
388.35	-10.58
388.56	91.82
388.769	34.47
388.979	52.91
389.189	-8.53
389.399	73.39
389.609	13.99
389.818	85.67
390.028	34.47
390.238	9.9
390.447	54.95
390.657	1.71
390.867	38.57
391.076	32.43
391.286	50.86
391.496	87.72
391.705	65.19
391.915	130.73
392.125	34.47
392.334	-6.49
392.544	95.91
392.753	22.19
392.963	77.48
393.172	63.15
393.382	24.23
393.591	38.57
393.801	57
394.01	108.2
394.22	61.1
394.429	138.92
394.639	118.44
394.848	42.67
395.058	30.38
395.267	71.34
395.477	81.58
395.686	75.43
395.895	134.82
396.105	159.4
396.314	67.24
396.524	100.01
396.733	48.81
396.942	104.11
397.152	128.68
397.361	136.87
397.57	73.39
397.78	79.53
397.989	124.58
398.198	149.16
398.407	95.91
398.617	100.01
398.826	183.98
399.035	71.34
399.244	48.81
399.453	128.68
399.663	112.3
399.872	116.39
400.081	28.33
400.29	85.67
400.499	61.1
400.708	118.44
400.917	67.24
401.127	112.3
401.336	124.58
401.545	106.15
401.754	110.25
401.963	153.26
402.172	140.97
402.381	50.86
402.59	87.72
402.799	104.11
403.008	169.64
403.217	153.26
403.426	140.97
403.635	130.73
403.844	91.82
404.053	116.39
404.262	136.87
404.471	202.41
404.68	89.77
404.888	153.26
405.097	210.6
405.306	216.74
405.515	206.5
405.724	130.73
405.933	128.68
406.142	157.35
406.35	169.64
406.559	149.16
406.768	143.02
406.977	194.22
407.185	229.03
407.394	251.56
407.603	183.98
407.812	267.94
408.02	263.85
408.229	237.22
408.438	212.65
408.646	169.64
408.855	284.33
409.064	233.13
409.272	206.5
409.481	337.57
409.69	308.9
409.898	251.56
410.107	257.7
410.315	394.92
410.524	376.48
410.733	294.57
410.941	321.19
411.15	454.31
411.358	429.73
411.567	382.63
411.775	454.31
411.984	411.3
412.192	456.36
412.401	460.45
412.609	505.51
412.818	603.81
413.026	579.23
413.234	609.95
413.443	599.71
413.651	556.71
413.86	595.62
414.068	587.43
414.276	587.43
414.485	644.77
414.693	650.91
414.901	683.68
415.11	716.45
415.318	865.95
415.526	790.17
415.734	800.41
415.943	851.61
416.151	827.04
416.359	898.72
416.567	898.72
416.776	1033.88
416.984	1023.64
417.192	1119.9
417.4	1083.03
417.608	1074.84
417.817	1105.56
418.025	1136.28
418.233	1236.63
418.441	1175.19
418.649	1267.35
418.857	1437.33
419.065	1482.39
419.273	1328.79
419.481	1568.4
419.689	1521.3
419.897	1611.41
420.105	1504.92
420.313	1685.14
420.521	1683.09
420.729	1767.06
420.937	1758.86
421.145	1824.4
421.353	1939.09
421.561	2008.72
421.769	2068.11
421.977	2231.94
422.185	2238.09
422.393	2285.19
422.601	2395.78
422.809	2418.31
423.017	2494.08
423.224	2705.03
423.432	2627.2
423.64	2723.46
423.848	2862.72
424.056	2842.24
424.263	3135.1
424.471	3040.89
424.679	3192.44
424.887	3178.11
425.094	3409.53
425.302	3290.74
425.51	3495.54
425.718	3692.15
425.925	3593.84
426.133	3841.65
426.341	4050.54
426.548	4138.6
426.756	4144.75
426.964	4152.94
427.171	4445.8
427.379	4494.95
427.586	4742.75
427.794	4777.57
428.001	4982.37
428.209	5146.2
428.417	5138.01
428.624	5529.17
428.832	5572.18
429.039	5369.43
429.247	5465.69
429.454	6092.37
429.662	6448.71
429.869	6094.41
430.076	6307.4
430.284	6137.42
430.491	6571.59
430.699	6886.98
430.906	6843.97
431.114	6979.14
431.321	7214.65
431.528	7472.7
431.736	7925.3
431.943	8312.36
432.15	8072.75
432.358	8121.9
432.565	8594.98
432.772	8443.43
432.979	8807.97
433.187	9039.39
433.394	8963.62
433.601	9616.92
433.808	9598.49
434.016	9383.45
434.223	9973.27
434.43	10743.3
434.637	10556.94
434.844	11107.84
435.052	11226.62
435.259	11181.57
435.466	11386.36
435.673	11159.04
435.88	11976.18
436.087	12600.81
436.294	12545.52
436.501	12281.33
436.708	12508.65
436.915	12809.7
437.122	13571.55
437.329	13516.25
437.537	13888.98
437.743	14063.06
437.95	13673.95
438.157	14835.14
438.364	15214.02
438.571	15228.35
438.778	15390.14
438.985	16668.08
439.192	15943.1
439.399	16524.72
439.606	16522.67
439.813	17175.97
440.02	18132.37
440.227	17679.77
440.433	17616.29
440.64	18146.71
440.847	18048.41
441.054	18777.48
441.261	19555.71
441.467	19189.13
441.674	20192.63
441.881	20571.5
442.088	20094.33
442.294	20239.73
442.501	20966.76
442.708	21443.94
442.914	22199.64
443.121	23010.64
443.328	22531.41
443.534	23856.45
443.741	23459.14
443.948	23098.7
444.154	24823.09
444.361	24614.2
444.568	24550.71
444.774	24743.22
444.981	24948.01
445.187	25722.15
445.394	26676.5
445.6	26391.83
445.807	28972.27
446.013	27700.48
446.22	28540.15
446.426	29367.53
446.633	29398.25
446.839	30373.08
447.046	29213.93
447.252	30704.85
447.459	30737.62
447.665	30624.98
447.871	32511.16
448.078	33330.35
448.284	31407.31
448.491	32564.41
448.697	34139.3
448.903	34518.17
449.11	34237.6
449.316	33606.83
449.522	34602.14
449.728	35282.06
449.935	35755.15
450.141	35423.37
450.347	36297.86
450.553	35411.09
450.76	35337.36
450.966	36828.28
451.172	36490.37
451.378	36961.4
451.584	36334.72
451.791	37094.52
451.997	36897.91
452.203	37575.79
452.409	37395.57
452.615	37416.05
452.821	36265.09
453.027	35562.64
453.233	37297.27
453.44	35955.85
453.646	36080.77
453.852	36320.38
454.058	36707.45
454.264	35679.37
454.47	36369.54
454.676	35585.16
454.882	36643.96
455.088	33748.14
455.294	33975.46
455.5	34387.1
455.705	34442.4
455.911	33176.75
456.117	32773.3
456.323	32371.9
456.529	30518.49
456.735	31722.69
456.941	30819.54
457.147	30729.43
457.352	29537.51
457.558	29162.73
457.764	29336.81
457.97	28849.39
458.176	27991.3
458.381	27856.13
458.587	26506.52
458.793	26629.4
458.999	25525.54
459.204	26924.3
459.41	26410.26
459.616	24714.55
459.821	24487.22
460.027	24692.02
460.233	23897.41
460.438	22867.28
460.644	22836.56
460.85	22029.66
461.055	21775.71
461.261	21861.73
461.466	20088.18
461.672	19484.03
461.878	21144.94
462.083	19338.63
462.289	19412.35
462.494	18961.8
462.7	18085.27
462.905	17712.54
463.111	18271.64
463.316	18290.07
463.522	17890.71
463.727	18032.02
463.932	18156.95
464.138	17712.54
464.343	17927.58
464.549	17280.42
464.754	17735.07
464.959	17816.99
465.165	17446.3
465.37	16948.65
465.575	16512.43
465.781	17249.7
465.986	17178.02
466.191	16516.53
466.397	16168.37
466.602	15410.62
466.807	16025.01
