Data from USB4F104151__50__10-23-29-235.txt Node

Date: Wed Mar 12 10:23:29 EDT 2025
User: louis
Spectrometer: USB4F10415
Trigger mode: 4
Integration Time (sec): 3.000000E-2
Scans to average: 1
Electric dark correction enabled: true
Nonlinearity correction enabled: false
Boxcar width: 0
XAxis mode: Wavelengths
Number of Pixels in Spectrum: 3648
>>>>>Begin Spectral Data<<<<<
178.204	-146.43
178.424	-146.43
178.644	-146.43
178.864	-68.61
179.084	-78.85
179.304	33.79
179.524	-7.17
179.744	-39.94
179.964	13.31
180.184	1.02
180.404	-39.94
180.624	58.37
180.844	-58.37
181.064	70.65
181.283	-13.31
181.503	-29.7
181.723	11.26
181.943	-109.57
182.163	68.61
182.383	35.84
182.602	9.22
182.822	62.46
183.042	70.65
183.262	-7.17
183.482	-15.36
183.701	11.26
183.921	-3.07
184.141	-48.13
184.361	23.55
184.58	62.46
184.8	-27.65
185.02	-15.36
185.239	68.61
185.459	-13.31
185.679	66.56
185.898	-52.22
186.118	123.9
186.338	37.89
186.557	33.79
186.777	35.84
186.997	76.8
187.216	60.42
187.436	103.42
187.655	21.5
187.875	25.6
188.095	62.46
188.314	89.09
188.534	-68.61
188.753	21.5
188.973	50.18
189.192	54.27
189.412	5.12
189.631	44.03
189.851	5.12
190.07	9.22
190.29	76.8
190.509	-23.55
190.729	-9.22
190.948	27.65
191.168	189.44
191.387	11.26
191.607	-23.55
191.826	-19.46
192.045	-1.02
192.265	31.74
192.484	13.31
192.704	37.89
192.923	-19.46
193.142	95.23
193.362	-11.26
193.581	60.42
193.8	35.84
194.02	37.89
194.239	9.22
194.458	58.37
194.678	3.07
194.897	27.65
195.116	15.36
195.335	70.65
195.555	35.84
195.774	11.26
195.993	60.42
196.212	-52.22
196.432	-1.02
196.651	52.22
196.87	48.13
197.089	11.26
197.308	74.75
197.528	27.65
197.747	5.12
197.966	54.27
198.185	89.09
198.404	-31.74
198.623	50.18
198.842	44.03
199.062	31.74
199.281	62.46
199.5	-17.41
199.719	25.6
199.938	-5.12
200.157	41.98
200.376	13.31
200.595	19.46
200.814	-19.46
201.033	-11.26
201.252	78.85
201.471	95.23
201.69	-9.22
201.909	-54.27
202.128	5.12
202.347	25.6
202.566	-35.84
202.785	-15.36
203.004	11.26
203.223	74.75
203.442	-13.31
203.661	-23.55
203.879	21.5
204.098	72.7
204.317	95.23
204.536	3.07
204.755	70.65
204.974	41.98
205.193	9.22
205.411	76.8
205.63	-5.12
205.849	25.6
206.068	3.07
206.287	82.94
206.505	21.5
206.724	-13.31
206.943	-5.12
207.162	-17.41
207.381	13.31
207.599	3.07
207.818	50.18
208.037	17.41
208.255	23.55
208.474	-5.12
208.693	78.85
208.911	-25.6
209.13	64.51
209.349	9.22
209.567	87.04
209.786	9.22
210.005	-19.46
210.223	46.08
210.442	-9.22
210.661	-19.46
210.879	35.84
211.098	48.13
211.316	-11.26
211.535	21.5
211.753	-3.07
211.972	54.27
212.191	50.18
212.409	13.31
212.628	48.13
212.846	56.32
213.065	78.85
213.283	-31.74
213.502	1.02
213.72	35.84
213.938	54.27
214.157	27.65
214.375	25.6
214.594	9.22
214.812	15.36
215.031	17.41
215.249	-7.17
215.467	37.89
215.686	9.22
215.904	37.89
216.122	-37.89
216.341	95.23
216.559	54.27
216.778	9.22
216.996	1.02
217.214	84.99
217.432	-3.07
217.651	-21.5
217.869	9.22
218.087	9.22
218.306	19.46
218.524	5.12
218.742	27.65
218.96	48.13
219.179	21.5
219.397	48.13
219.615	52.22
219.833	29.7
220.051	50.18
220.27	23.55
220.488	-11.26
220.706	105.47
220.924	-46.08
221.142	54.27
221.36	-5.12
221.578	78.85
221.796	-50.18
222.015	41.98
222.233	62.46
222.451	70.65
222.669	-31.74
222.887	37.89
223.105	-9.22
223.323	13.31
223.541	15.36
223.759	25.6
223.977	58.37
224.195	95.23
224.413	56.32
224.631	19.46
224.849	27.65
225.067	60.42
225.285	-5.12
225.503	5.12
225.721	-89.09
225.939	33.79
226.157	13.31
226.375	123.9
226.592	23.55
226.81	19.46
227.028	29.7
227.246	19.46
227.464	46.08
227.682	41.98
227.9	29.7
228.117	56.32
228.335	66.56
228.553	13.31
228.771	25.6
228.989	-7.17
229.206	-23.55
229.424	103.42
229.642	-35.84
229.86	13.31
230.077	64.51
230.295	7.17
230.513	-11.26
230.731	1.02
230.948	87.04
231.166	25.6
231.384	-23.55
231.601	-5.12
231.819	25.6
232.037	-13.31
232.254	-46.08
232.472	15.36
232.689	62.46
232.907	21.5
233.125	-50.18
233.342	5.12
233.56	-44.03
233.777	39.94
233.995	39.94
234.213	62.46
234.43	-29.7
234.648	23.55
234.865	-27.65
235.083	52.22
235.3	46.08
235.518	33.79
235.735	31.74
235.953	52.22
236.17	3.07
236.388	-31.74
236.605	-17.41
236.822	27.65
237.04	13.31
237.257	25.6
237.475	-15.36
237.692	17.41
237.909	15.36
238.127	44.03
238.344	-62.46
238.562	25.6
238.779	54.27
238.996	-23.55
239.214	-9.22
239.431	5.12
239.648	-13.31
239.865	50.18
240.083	-17.41
240.3	109.57
240.517	35.84
240.735	91.13
240.952	111.61
241.169	-27.65
241.386	21.5
241.603	1.02
241.821	78.85
242.038	58.37
242.255	35.84
242.472	-62.46
242.689	19.46
242.907	70.65
243.124	33.79
243.341	46.08
243.558	-17.41
243.775	-27.65
243.992	1.02
244.209	-19.46
244.426	107.52
244.643	15.36
244.86	-37.89
245.078	107.52
245.295	9.22
245.512	-23.55
245.729	29.7
245.946	56.32
246.163	-21.5
246.38	-70.65
246.597	-27.65
246.814	3.07
247.031	91.13
247.248	-9.22
247.464	37.89
247.681	-23.55
247.898	54.27
248.115	33.79
248.332	11.26
248.549	-19.46
248.766	54.27
248.983	68.61
249.2	72.7
249.417	-1.02
249.633	37.89
249.85	82.94
250.067	50.18
250.284	9.22
250.501	-11.26
250.717	93.18
250.934	-15.36
251.151	70.65
251.368	-15.36
251.585	-29.7
251.801	41.98
252.018	-13.31
252.235	95.23
252.451	13.31
252.668	1.02
252.885	-11.26
253.102	3.07
253.318	-5.12
253.535	9.22
253.752	74.75
253.968	9.22
254.185	-11.26
254.401	-33.79
254.618	13.31
254.835	-13.31
255.051	76.8
255.268	11.26
255.484	56.32
255.701	21.5
255.917	3.07
256.134	48.13
256.351	-21.5
256.567	46.08
256.784	119.81
257	11.26
257.217	60.42
257.433	-13.31
257.65	84.99
257.866	17.41
258.082	72.7
258.299	-17.41
258.515	93.18
258.732	21.5
258.948	52.22
259.165	-72.7
259.381	-35.84
259.597	11.26
259.814	54.27
260.03	64.51
260.246	9.22
260.463	37.89
260.679	-7.17
260.895	9.22
261.112	-5.12
261.328	-62.46
261.544	7.17
261.761	48.13
261.977	19.46
262.193	-25.6
262.409	29.7
262.626	37.89
262.842	46.08
263.058	-23.55
263.274	-29.7
263.49	56.32
263.707	44.03
263.923	-33.79
264.139	35.84
264.355	29.7
264.571	44.03
264.787	68.61
265.004	21.5
265.22	62.46
265.436	-48.13
265.652	-29.7
265.868	37.89
266.084	-11.26
266.3	56.32
266.516	-37.89
266.732	-41.98
266.948	-25.6
267.164	76.8
267.38	52.22
267.596	78.85
267.812	29.7
268.028	-17.41
268.244	21.5
268.46	37.89
268.676	37.89
268.892	29.7
269.108	-35.84
269.324	-44.03
269.54	13.31
269.756	15.36
269.972	54.27
270.188	23.55
270.403	-9.22
270.619	91.13
270.835	46.08
271.051	-23.55
271.267	48.13
271.483	48.13
271.698	44.03
271.914	-27.65
272.13	21.5
272.346	80.89
272.562	-15.36
272.777	46.08
272.993	25.6
273.209	60.42
273.425	-15.36
273.64	-23.55
273.856	52.22
274.072	44.03
274.287	58.37
274.503	21.5
274.719	66.56
274.934	27.65
275.15	54.27
275.366	66.56
275.581	70.65
275.797	64.51
276.012	-11.26
276.228	46.08
276.444	5.12
276.659	70.65
276.875	46.08
277.09	11.26
277.306	62.46
277.521	-17.41
277.737	21.5
277.952	46.08
278.168	62.46
278.383	5.12
278.599	9.22
278.814	78.85
279.03	44.03
279.245	70.65
279.461	-3.07
279.676	64.51
279.892	-15.36
280.107	-23.55
280.322	62.46
280.538	9.22
280.753	29.7
280.969	52.22
281.184	25.6
281.399	119.81
281.615	17.41
281.83	35.84
282.045	-58.37
282.26	-74.75
282.476	52.22
282.691	64.51
282.906	17.41
283.122	-9.22
283.337	21.5
283.552	33.79
283.767	-7.17
283.983	-21.5
284.198	23.55
284.413	29.7
284.628	-15.36
284.843	-37.89
285.058	44.03
285.274	-62.46
285.489	-7.17
285.704	54.27
285.919	-7.17
286.134	-1.02
286.349	23.55
286.564	7.17
286.779	35.84
286.995	66.56
287.21	-5.12
287.425	60.42
287.64	13.31
287.855	78.85
288.07	46.08
288.285	101.37
288.5	64.51
288.715	44.03
288.93	-31.74
289.145	5.12
289.36	66.56
289.575	99.33
289.79	72.7
290.004	-1.02
290.219	41.98
290.434	-1.02
290.649	29.7
290.864	9.22
291.079	21.5
291.294	52.22
291.509	23.55
291.724	-7.17
291.938	11.26
292.153	19.46
292.368	64.51
292.583	23.55
292.798	68.61
293.012	25.6
293.227	19.46
293.442	-27.65
293.657	52.22
293.871	74.75
294.086	41.98
294.301	78.85
294.516	93.18
294.73	70.65
294.945	-52.22
295.16	132.09
295.374	60.42
295.589	1.02
295.804	62.46
296.018	-5.12
296.233	-3.07
296.447	93.18
296.662	-27.65
296.877	87.04
297.091	66.56
297.306	5.12
297.52	103.42
297.735	1.02
297.949	-3.07
298.164	91.13
298.378	-68.61
298.593	3.07
298.807	41.98
299.022	152.57
299.236	78.85
299.451	46.08
299.665	39.94
299.88	19.46
300.094	62.46
300.309	39.94
300.523	64.51
300.737	44.03
300.952	46.08
301.166	54.27
301.381	37.89
301.595	41.98
301.809	19.46
302.024	21.5
302.238	66.56
302.452	74.75
302.667	-19.46
302.881	3.07
303.095	82.94
303.309	39.94
303.524	48.13
303.738	64.51
303.952	44.03
304.166	82.94
304.381	-41.98
304.595	56.32
304.809	37.89
305.023	5.12
305.237	80.89
305.452	-27.65
305.666	93.18
305.88	84.99
306.094	111.61
306.308	62.46
306.522	64.51
306.736	84.99
306.95	60.42
307.164	23.55
307.379	76.8
307.593	25.6
307.807	19.46
308.021	58.37
308.235	58.37
308.449	78.85
308.663	-7.17
308.877	9.22
309.091	70.65
309.305	60.42
309.519	-29.7
309.733	33.79
309.947	-13.31
310.161	21.5
310.374	3.07
310.588	117.76
310.802	5.12
311.016	19.46
311.23	27.65
311.444	-52.22
311.658	60.42
311.872	60.42
312.085	68.61
312.299	87.04
312.513	46.08
312.727	119.81
312.941	29.7
313.154	54.27
313.368	80.89
313.582	11.26
313.796	66.56
314.009	60.42
314.223	56.32
314.437	54.27
314.651	35.84
314.864	78.85
315.078	52.22
315.292	58.37
315.505	-13.31
315.719	66.56
315.933	33.79
316.146	74.75
316.36	-46.08
316.573	35.84
316.787	50.18
317.001	35.84
317.214	-9.22
317.428	52.22
317.641	-54.27
317.855	27.65
318.068	-37.89
318.282	91.13
318.495	134.14
318.709	33.79
318.922	62.46
319.136	41.98
319.349	97.28
319.563	35.84
319.776	103.42
319.99	37.89
320.203	-15.36
320.417	21.5
320.63	60.42
320.843	68.61
321.057	115.71
321.27	62.46
321.483	25.6
321.697	29.7
321.91	21.5
322.124	91.13
322.337	3.07
322.55	29.7
322.763	35.84
322.977	54.27
323.19	-35.84
323.403	-25.6
323.617	46.08
323.83	33.79
324.043	5.12
324.256	58.37
324.469	-29.7
324.683	3.07
324.896	66.56
325.109	52.22
325.322	35.84
325.535	37.89
325.748	89.09
325.962	-3.07
326.175	-7.17
326.388	21.5
326.601	123.9
326.814	41.98
327.027	68.61
327.24	99.33
327.453	25.6
327.666	99.33
327.879	78.85
328.092	13.31
328.305	44.03
328.518	-72.7
328.731	25.6
328.944	5.12
329.157	93.18
329.37	31.74
329.583	109.57
329.796	56.32
330.009	21.5
330.222	35.84
330.435	21.5
330.648	62.46
330.861	-27.65
331.073	-9.22
331.286	111.61
331.499	48.13
331.712	54.27
331.925	68.61
332.138	37.89
332.35	60.42
332.563	70.65
332.776	48.13
332.989	15.36
333.202	33.79
333.414	103.42
333.627	52.22
333.84	52.22
334.053	5.12
334.265	52.22
334.478	-31.74
334.691	111.61
334.903	99.33
335.116	50.18
335.329	27.65
335.541	70.65
335.754	64.51
335.966	-23.55
336.179	27.65
336.392	84.99
336.604	123.9
336.817	46.08
337.029	39.94
337.242	17.41
337.454	68.61
337.667	46.08
337.88	31.74
338.092	37.89
338.305	29.7
338.517	11.26
338.729	105.47
338.942	95.23
339.154	-5.12
339.367	39.94
339.579	78.85
339.792	-1.02
340.004	62.46
340.217	21.5
340.429	72.7
340.641	62.46
340.854	11.26
341.066	87.04
341.278	101.37
341.491	1.02
341.703	9.22
341.915	54.27
342.128	99.33
342.34	44.03
342.552	39.94
342.764	21.5
342.977	39.94
343.189	91.13
343.401	54.27
343.613	52.22
343.826	39.94
344.038	19.46
344.25	-13.31
344.462	-56.32
344.674	58.37
344.886	23.55
345.099	68.61
345.311	62.46
345.523	25.6
345.735	-44.03
345.947	35.84
346.159	54.27
346.371	56.32
346.583	91.13
346.795	103.42
347.007	21.5
347.219	21.5
347.431	54.27
347.643	70.65
347.855	33.79
348.067	5.12
348.279	27.65
348.491	-23.55
348.703	60.42
348.915	27.65
349.127	-60.42
349.339	3.07
349.551	123.9
349.763	97.28
349.975	87.04
350.187	93.18
350.399	25.6
350.61	5.12
350.822	15.36
351.034	52.22
351.246	50.18
351.458	15.36
351.669	21.5
351.881	29.7
352.093	103.42
352.305	21.5
352.517	105.47
352.728	-3.07
352.94	76.8
353.152	101.37
353.363	-35.84
353.575	19.46
353.787	37.89
353.999	78.85
354.21	121.85
354.422	19.46
354.633	39.94
354.845	72.7
355.057	111.61
355.268	66.56
355.48	58.37
355.692	78.85
355.903	119.81
356.115	7.17
356.326	25.6
356.538	93.18
356.749	68.61
356.961	148.48
357.172	13.31
357.384	66.56
357.595	87.04
357.807	39.94
358.018	27.65
358.23	91.13
358.441	46.08
358.653	54.27
358.864	56.32
359.075	-27.65
359.287	84.99
359.498	62.46
359.709	7.17
359.921	3.07
360.132	39.94
360.344	107.52
360.555	-11.26
360.766	19.46
360.977	97.28
361.189	60.42
361.4	17.41
361.611	84.99
361.823	76.8
362.034	107.52
362.245	11.26
362.456	29.7
362.667	91.13
362.879	-64.51
363.09	62.46
363.301	128
363.512	-21.5
363.723	41.98
363.935	33.79
364.146	56.32
364.357	13.31
364.568	125.95
364.779	17.41
364.99	23.55
365.201	-3.07
365.412	54.27
365.623	41.98
365.834	29.7
366.045	140.29
366.256	52.22
366.467	95.23
366.678	31.74
366.889	41.98
367.1	29.7
367.311	37.89
367.522	48.13
367.733	70.65
367.944	-7.17
368.155	78.85
368.366	111.61
368.577	95.23
368.788	87.04
368.999	66.56
369.209	19.46
369.42	48.13
369.631	148.48
369.842	33.79
370.053	13.31
370.264	84.99
370.474	-3.07
370.685	68.61
370.896	31.74
371.107	103.42
371.317	64.51
371.528	60.42
371.739	31.74
371.95	-19.46
372.16	78.85
372.371	-46.08
372.582	70.65
372.792	13.31
373.003	58.37
373.214	70.65
373.424	111.61
373.635	113.66
373.846	72.7
374.056	99.33
374.267	107.52
374.477	54.27
374.688	119.81
374.898	21.5
375.109	25.6
375.319	9.22
375.53	101.37
375.74	-21.5
375.951	68.61
376.161	74.75
376.372	78.85
376.582	41.98
376.793	117.76
377.003	13.31
377.214	52.22
377.424	95.23
377.635	31.74
377.845	35.84
378.055	119.81
378.266	-33.79
378.476	-5.12
378.686	101.37
378.897	-33.79
379.107	64.51
379.317	46.08
379.528	62.46
379.738	60.42
379.948	48.13
380.158	33.79
380.369	62.46
380.579	82.94
380.789	-31.74
380.999	66.56
381.21	17.41
381.42	91.13
381.63	-3.07
381.84	41.98
382.05	19.46
382.261	39.94
382.471	91.13
382.681	37.89
382.891	76.8
383.101	128
383.311	-15.36
383.521	41.98
383.731	173.05
383.941	121.85
384.151	11.26
384.361	37.89
384.571	25.6
384.781	150.53
384.991	37.89
385.201	72.7
385.411	107.52
385.621	103.42
385.831	68.61
386.041	54.27
386.251	21.5
386.461	123.9
386.671	48.13
386.881	-13.31
387.091	52.22
387.301	93.18
387.511	52.22
387.72	84.99
387.93	70.65
388.14	41.98
388.35	52.22
388.56	101.37
388.769	35.84
388.979	44.03
389.189	103.42
389.399	25.6
389.609	99.33
389.818	140.29
390.028	107.52
390.238	1.02
390.447	44.03
390.657	125.95
390.867	76.8
391.076	93.18
391.286	46.08
391.496	70.65
391.705	-19.46
391.915	113.66
392.125	189.44
392.334	23.55
392.544	91.13
392.753	123.9
392.963	111.61
393.172	105.47
393.382	68.61
393.591	68.61
393.801	128
394.01	152.57
394.22	54.27
394.429	54.27
394.639	101.37
394.848	56.32
395.058	115.71
395.267	111.61
395.477	93.18
395.686	91.13
395.895	95.23
396.105	82.94
396.314	72.7
396.524	107.52
396.733	89.09
396.942	111.61
397.152	52.22
397.361	78.85
397.57	54.27
397.78	123.9
397.989	171.01
398.198	158.72
398.407	82.94
398.617	103.42
398.826	130.05
399.035	70.65
399.244	158.72
399.453	160.77
399.663	162.81
399.872	107.52
400.081	101.37
400.29	166.91
400.499	138.24
400.708	158.72
400.917	109.57
401.127	89.09
401.336	101.37
401.545	166.91
401.754	175.1
401.963	144.38
402.172	130.05
402.381	93.18
402.59	111.61
402.799	173.05
403.008	240.64
403.217	138.24
403.426	154.62
403.635	101.37
403.844	205.82
404.053	115.71
404.262	156.67
404.471	162.81
404.68	166.91
404.888	197.63
405.097	232.44
405.306	148.48
405.515	209.92
405.724	242.68
405.933	152.57
406.142	150.53
406.35	171.01
406.559	166.91
406.768	134.14
406.977	275.45
407.185	250.88
407.394	240.64
407.603	207.87
407.812	201.72
408.02	283.64
408.229	232.44
408.438	226.3
408.646	263.16
408.855	300.03
409.064	234.49
409.272	257.02
409.481	293.88
409.69	250.88
409.898	252.92
410.107	345.08
410.315	390.14
410.524	308.22
410.733	371.71
410.941	347.13
411.15	441.34
411.358	435.19
411.567	418.81
411.775	461.82
411.984	439.29
412.192	527.35
412.401	359.42
412.609	586.74
412.818	541.69
413.026	549.88
413.234	617.46
413.443	586.74
413.651	584.7
413.86	592.89
414.068	607.22
414.276	689.14
414.485	615.41
414.693	711.67
414.901	736.24
415.11	726
415.318	865.27
415.526	807.92
415.734	963.57
415.943	963.57
416.151	920.56
416.359	910.32
416.567	959.47
416.776	1029.1
416.984	1090.54
417.192	1063.92
417.4	1090.54
417.608	1086.45
417.817	1188.85
418.025	1250.28
418.233	1364.97
418.441	1315.82
418.649	1420.27
418.857	1487.85
419.065	1479.66
419.273	1479.66
419.481	1506.28
419.689	1510.38
419.897	1635.3
420.105	1756.13
420.313	1713.13
420.521	1813.48
420.729	1827.81
420.937	2028.51
421.145	2071.52
421.353	2055.14
421.561	2198.49
421.769	2178.01
421.977	2231.26
422.185	2286.56
422.393	2419.68
422.601	2520.03
422.809	2626.52
423.017	2608.09
423.224	2583.51
423.432	2782.17
423.64	2753.49
423.848	3013.59
424.056	3005.39
424.263	3267.53
424.471	3206.1
424.679	3357.64
424.887	3464.14
425.094	3683.27
425.302	3556.3
425.51	3517.39
425.718	3722.18
425.925	3869.64
426.133	3961.8
426.341	4084.67
426.548	4336.57
426.756	4357.05
426.964	4455.36
427.171	4694.97
427.379	4903.86
427.586	4940.72
427.794	4950.96
428.001	5329.84
428.209	5524.4
428.417	5495.72
428.624	5917.61
428.832	5788.58
429.039	5753.77
429.247	5632.94
429.454	6394.78
429.662	6847.38
429.869	6230.94
430.076	6847.38
430.284	6708.12
430.491	6900.63
430.699	7349.14
430.906	7508.88
431.114	7482.25
431.321	7803.78
431.528	8035.21
431.736	8104.84
431.943	8577.92
432.15	8377.22
432.358	8684.41
432.565	8977.27
432.772	9012.09
432.979	9466.74
433.187	9425.78
433.394	9548.65
433.601	10261.35
433.808	10285.92
434.016	10240.87
434.223	10521.44
434.43	11197.27
434.637	11103.06
434.844	11551.57
435.052	11961.16
435.259	12006.22
435.466	11883.34
435.673	11776.84
435.88	12682.05
436.087	13288.25
436.294	13382.45
436.501	13075.26
436.708	13308.72
436.915	13693.74
437.122	14246.69
437.329	14091.05
437.537	14433.06
437.743	15004.44
437.95	14850.85
438.157	15684.37
438.364	16171.79
438.571	16067.34
438.778	16216.84
438.985	17781.49
439.192	16997.12
439.399	17519.35
439.606	17146.62
439.813	18064.11
440.02	19098.33
440.227	18498.28
440.433	18639.59
440.64	19442.39
440.847	18959.07
441.054	19618.52
441.261	21021.38
441.467	20660.93
441.674	20861.63
441.881	21922.48
442.088	21668.53
442.294	21347
442.501	22039.22
442.708	22553.26
442.914	23274.14
443.121	24146.58
443.328	23827.09
443.534	25385.6
443.741	24384.14
443.948	24251.02
444.154	25864.82
444.361	25959.03
444.568	26243.7
444.774	25952.88
444.981	26327.66
445.187	27097.7
445.394	28140.11
445.6	27822.68
445.807	30544.43
446.013	28963.4
446.22	29413.95
446.426	30827.05
446.633	31199.78
446.839	31992.34
447.046	30878.25
447.252	32526.86
447.459	32541.2
447.665	32471.57
447.871	33376.77
448.078	35119.59
448.284	33436.16
448.491	34228.73
448.697	35271.14
448.903	35887.58
449.11	36315.61
449.316	35424.74
449.522	36440.53
449.728	37247.43
449.935	36985.29
450.141	37243.34
450.347	38228.41
450.553	37190.09
450.76	37366.21
450.966	38748.59
451.172	38068.67
451.378	38996.4
451.584	38252.98
451.791	39299.5
451.997	39176.62
452.203	39453.09
452.409	39801.25
452.615	39418.28
452.821	37650.88
453.027	37597.63
453.233	39389.61
453.44	37839.29
453.646	38418.87
453.852	38152.63
454.058	39160.23
454.264	37521.86
454.47	38291.9
454.676	37138.89
454.882	38334.9
455.088	35437.03
455.294	35856.86
455.5	36264.41
455.705	36678.1
455.911	35342.82
456.117	34441.71
456.323	34232.82
456.529	32199.19
456.735	33384.96
456.941	32901.64
457.147	31769.12
457.352	31044.13
457.558	30773.8
457.764	30999.08
457.97	30628.4
458.176	29571.64
458.381	29534.78
458.587	28312.14
458.793	28217.94
458.999	26710.63
459.204	28785.22
459.41	27910.74
459.616	26172.02
459.821	26249.84
460.027	26278.51
460.233	25410.17
460.438	24160.91
460.644	24494.73
460.85	23777.94
461.055	22901.41
461.261	22817.44
461.466	21113.53
461.672	20501.19
461.878	22278.83
462.083	20597.45
462.289	20308.68
462.494	19995.34
462.7	19163.87
462.905	18658.02
463.111	19628.76
463.316	19286.75
463.522	19110.62
463.727	19104.48
463.932	19088.09
464.138	18871.01
464.343	18868.96
464.549	18119.4
464.754	19075.8
464.959	18688.74
465.165	18457.32
465.37	17926.89
465.575	17664.75
465.781	17996.53
465.986	18338.54
466.191	17576.69
466.397	17384.18
466.602	16446.21
466.807	17140.47
467.012	17015.55
467.218	16849.66
