Data from USB4F104151__140__10-25-53-850.txt Node

Date: Wed Mar 12 10:25:53 EDT 2025
User: louis
Spectrometer: USB4F10415
Trigger mode: 4
Integration Time (sec): 3.000000E-2
Scans to average: 1
Electric dark correction enabled: true
Nonlinearity correction enabled: false
Boxcar width: 0
XAxis mode: Wavelengths
Number of Pixels in Spectrum: 3648
>>>>>Begin Spectral Data<<<<<
178.204	-63.66
178.424	-63.66
178.644	-63.66
178.864	-110.76
179.084	-47.27
179.304	-75.95
179.524	-12.46
179.744	-55.47
179.964	75.6
180.184	28.5
180.404	-22.7
180.624	10.07
180.844	75.6
181.064	-24.75
181.283	18.26
181.503	-6.31
181.723	-10.41
181.943	61.27
182.163	48.98
182.383	1.88
182.602	61.27
182.822	83.8
183.042	71.51
183.262	30.55
183.482	71.51
183.701	59.22
183.921	44.88
184.141	-0.17
184.361	100.18
184.58	5.97
184.8	26.45
185.02	14.17
185.239	106.32
185.459	65.36
185.679	59.22
185.898	8.02
186.118	87.89
186.338	53.08
186.557	16.21
186.777	51.03
186.997	63.32
187.216	20.31
187.436	100.18
187.655	20.31
187.875	161.62
188.095	48.98
188.314	110.42
188.534	75.6
188.753	-8.36
188.973	71.51
189.192	14.17
189.412	-14.51
189.631	81.75
189.851	59.22
190.07	77.65
190.29	-32.94
190.509	24.4
190.729	-4.27
190.948	18.26
191.168	143.19
191.387	46.93
191.607	46.93
191.826	59.22
192.045	63.32
192.265	26.45
192.484	8.02
192.704	14.17
192.923	-34.99
193.142	118.61
193.362	38.74
193.581	96.08
193.8	122.71
194.02	67.41
194.239	-22.7
194.458	-6.31
194.678	22.36
194.897	34.64
195.116	81.75
195.335	112.47
195.555	122.71
195.774	81.75
195.993	108.37
196.212	71.51
196.432	38.74
196.651	69.46
196.87	77.65
197.089	106.32
197.308	42.84
197.528	118.61
197.747	-14.51
197.966	81.75
198.185	81.75
198.404	28.5
198.623	135
198.842	69.46
199.062	-22.7
199.281	135
199.5	85.84
199.719	73.56
199.938	65.36
200.157	112.47
200.376	26.45
200.595	73.56
200.814	132.95
201.033	67.41
201.252	28.5
201.471	57.17
201.69	51.03
201.909	46.93
202.128	26.45
202.347	71.51
202.566	26.45
202.785	102.23
203.004	-14.51
203.223	128.85
203.442	30.55
203.661	61.27
203.879	1.88
204.098	55.12
204.317	28.5
204.536	91.99
204.755	30.55
204.974	75.6
205.193	73.56
205.411	87.89
205.63	61.27
205.849	71.51
206.068	81.75
206.287	38.74
206.505	59.22
206.724	46.93
206.943	12.12
207.162	-0.17
207.381	55.12
207.599	63.32
207.818	40.79
208.037	59.22
208.255	28.5
208.474	94.04
208.693	34.64
208.911	77.65
209.13	87.89
209.349	-34.99
209.567	63.32
209.786	124.76
210.005	116.56
210.223	32.6
210.442	5.97
210.661	5.97
210.879	114.52
211.098	87.89
211.316	40.79
211.535	59.22
211.753	-37.03
211.972	48.98
212.191	59.22
212.409	79.7
212.628	94.04
212.846	63.32
213.065	77.65
213.283	79.7
213.502	22.36
213.72	-39.08
213.938	91.99
214.157	44.88
214.375	106.32
214.594	77.65
214.812	18.26
215.031	46.93
215.249	-2.22
215.467	38.74
215.686	51.03
215.904	65.36
216.122	65.36
216.341	65.36
216.559	20.31
216.778	12.12
216.996	87.89
217.214	22.36
217.432	55.12
217.651	26.45
217.869	14.17
218.087	5.97
218.306	22.36
218.524	48.98
218.742	14.17
218.96	26.45
219.179	83.8
219.397	77.65
219.615	30.55
219.833	79.7
220.051	46.93
220.27	106.32
220.488	12.12
220.706	40.79
220.924	-39.08
221.142	120.66
221.36	14.17
221.578	63.32
221.796	48.98
222.015	34.64
222.233	53.08
222.451	-14.51
222.669	-0.17
222.887	143.19
223.105	40.79
223.323	61.27
223.541	1.88
223.759	26.45
223.977	3.93
224.195	67.41
224.413	5.97
224.631	71.51
224.849	100.18
225.067	87.89
225.285	18.26
225.503	30.55
225.721	30.55
225.939	69.46
226.157	118.61
226.375	186.19
226.592	40.79
226.81	57.17
227.028	96.08
227.246	61.27
227.464	53.08
227.682	69.46
227.9	94.04
228.117	51.03
228.335	-16.55
228.553	34.64
228.771	171.86
228.989	141.14
229.206	12.12
229.424	118.61
229.642	10.07
229.86	-51.37
230.077	71.51
230.295	-14.51
230.513	118.61
230.731	96.08
230.948	10.07
231.166	85.84
231.384	-30.89
231.601	73.56
231.819	44.88
232.037	102.23
232.254	34.64
232.472	71.51
232.689	32.6
232.907	71.51
233.125	30.55
233.342	-6.31
233.56	28.5
233.777	30.55
233.995	34.64
234.213	44.88
234.43	51.03
234.648	71.51
234.865	118.61
235.083	77.65
235.3	102.23
235.518	20.31
235.735	83.8
235.953	16.21
236.17	-2.22
236.388	38.74
236.605	38.74
236.822	65.36
237.04	100.18
237.257	22.36
237.475	28.5
237.692	16.21
237.909	91.99
238.127	5.97
238.344	110.42
238.562	71.51
238.779	-20.65
238.996	51.03
239.214	42.84
239.431	91.99
239.648	1.88
239.865	69.46
240.083	53.08
240.3	18.26
240.517	22.36
240.735	28.5
240.952	18.26
241.169	89.94
241.386	91.99
241.603	69.46
241.821	28.5
242.038	32.6
242.255	94.04
242.472	67.41
242.689	126.8
242.907	59.22
243.124	-18.6
243.341	14.17
243.558	55.12
243.775	75.6
243.992	22.36
244.209	96.08
244.426	161.62
244.643	38.74
244.86	5.97
245.078	114.52
245.295	10.07
245.512	77.65
245.729	28.5
245.946	40.79
246.163	-34.99
246.38	28.5
246.597	14.17
246.814	18.26
247.031	104.28
247.248	10.07
247.464	89.94
247.681	104.28
247.898	94.04
248.115	34.64
248.332	26.45
248.549	28.5
248.766	108.37
248.983	71.51
249.2	91.99
249.417	38.74
249.633	98.13
249.85	-2.22
250.067	-26.79
250.284	124.76
250.501	104.28
250.717	67.41
250.934	46.93
251.151	51.03
251.368	61.27
251.585	128.85
251.801	48.98
252.018	40.79
252.235	55.12
252.451	81.75
252.668	24.4
252.885	57.17
253.102	108.37
253.318	10.07
253.535	87.89
253.752	34.64
253.968	-6.31
254.185	89.94
254.401	57.17
254.618	147.28
254.835	-51.37
255.051	59.22
255.268	36.69
255.484	79.7
255.701	67.41
255.917	38.74
256.134	-18.6
256.351	71.51
256.567	8.02
256.784	3.93
257	44.88
257.217	69.46
257.433	55.12
257.65	67.41
257.866	83.8
258.082	-12.46
258.299	-28.84
258.515	10.07
258.732	-24.75
258.948	110.42
259.165	75.6
259.381	94.04
259.597	77.65
259.814	14.17
260.03	16.21
260.246	59.22
260.463	100.18
260.679	106.32
260.895	81.75
261.112	22.36
261.328	-12.46
261.544	38.74
261.761	96.08
261.977	-39.08
262.193	77.65
262.409	-12.46
262.626	22.36
262.842	63.32
263.058	59.22
263.274	110.42
263.49	106.32
263.707	34.64
263.923	112.47
264.139	-22.7
264.355	18.26
264.571	61.27
264.787	59.22
265.004	85.84
265.22	-26.79
265.436	83.8
265.652	30.55
265.868	28.5
266.084	79.7
266.3	114.52
266.516	22.36
266.732	112.47
266.948	57.17
267.164	40.79
267.38	40.79
267.596	26.45
267.812	65.36
268.028	-12.46
268.244	96.08
268.46	-51.37
268.676	18.26
268.892	96.08
269.108	28.5
269.324	69.46
269.54	12.12
269.756	71.51
269.972	14.17
270.188	32.6
270.403	-10.41
270.619	28.5
270.835	57.17
271.051	114.52
271.267	85.84
271.483	57.17
271.698	104.28
271.914	98.13
272.13	122.71
272.346	55.12
272.562	-6.31
272.777	87.89
272.993	36.69
273.209	40.79
273.425	81.75
273.64	18.26
273.856	51.03
274.072	42.84
274.287	28.5
274.503	77.65
274.719	87.89
274.934	28.5
275.15	22.36
275.366	91.99
275.581	10.07
275.797	44.88
276.012	24.4
276.228	34.64
276.444	96.08
276.659	69.46
276.875	71.51
277.09	26.45
277.306	51.03
277.521	91.99
277.737	100.18
277.952	57.17
278.168	77.65
278.383	-12.46
278.599	22.36
278.814	67.41
279.03	53.08
279.245	104.28
279.461	42.84
279.676	1.88
279.892	51.03
280.107	71.51
280.322	55.12
280.538	79.7
280.753	26.45
280.969	46.93
281.184	26.45
281.399	139.09
281.615	51.03
281.83	124.76
282.045	61.27
282.26	104.28
282.476	-2.22
282.691	151.38
282.906	63.32
283.122	26.45
283.337	-0.17
283.552	73.56
283.767	55.12
283.983	44.88
284.198	91.99
284.413	48.98
284.628	-26.79
284.843	169.81
285.058	14.17
285.274	-8.36
285.489	16.21
285.704	63.32
285.919	28.5
286.134	48.98
286.349	79.7
286.564	71.51
286.779	116.56
286.995	96.08
287.21	20.31
287.425	32.6
287.64	55.12
287.855	59.22
288.07	-37.03
288.285	71.51
288.5	94.04
288.715	-24.75
288.93	24.4
289.145	24.4
289.36	55.12
289.575	124.76
289.79	135
290.004	75.6
290.219	30.55
290.434	83.8
290.649	36.69
290.864	34.64
291.079	53.08
291.294	51.03
291.509	75.6
291.724	30.55
291.938	24.4
292.153	26.45
292.368	30.55
292.583	169.81
292.798	75.6
293.012	42.84
293.227	5.97
293.442	5.97
293.657	83.8
293.871	137.04
294.086	55.12
294.301	159.57
294.516	10.07
294.73	26.45
294.945	30.55
295.16	40.79
295.374	26.45
295.589	79.7
295.804	12.12
296.018	91.99
296.233	63.32
296.447	87.89
296.662	3.93
296.877	96.08
297.091	118.61
297.306	40.79
297.52	46.93
297.735	1.88
297.949	106.32
298.164	94.04
298.378	22.36
298.593	16.21
298.807	40.79
299.022	59.22
299.236	63.32
299.451	38.74
299.665	30.55
299.88	77.65
300.094	55.12
300.309	143.19
300.523	59.22
300.737	30.55
300.952	36.69
301.166	71.51
301.381	85.84
301.595	61.27
301.809	42.84
302.024	59.22
302.238	22.36
302.452	69.46
302.667	36.69
302.881	71.51
303.095	102.23
303.309	85.84
303.524	-26.79
303.738	73.56
303.952	22.36
304.166	120.66
304.381	42.84
304.595	112.47
304.809	69.46
305.023	26.45
305.237	18.26
305.452	36.69
305.666	100.18
305.88	108.37
306.094	5.97
306.308	53.08
306.522	104.28
306.736	57.17
306.95	89.94
307.164	26.45
307.379	8.02
307.593	16.21
307.807	153.43
308.021	26.45
308.235	87.89
308.449	5.97
308.663	24.4
308.877	96.08
309.091	81.75
309.305	130.9
309.519	20.31
309.733	83.8
309.947	1.88
310.161	14.17
310.374	22.36
310.588	63.32
310.802	28.5
311.016	51.03
311.23	89.94
311.444	22.36
311.658	42.84
311.872	63.32
312.085	94.04
312.299	102.23
312.513	42.84
312.727	63.32
312.941	12.12
313.154	110.42
313.368	59.22
313.582	26.45
313.796	75.6
314.009	94.04
314.223	55.12
314.437	48.98
314.651	87.89
314.864	14.17
315.078	55.12
315.292	55.12
315.505	165.71
315.719	28.5
315.933	67.41
316.146	14.17
316.36	42.84
316.573	94.04
316.787	96.08
317.001	94.04
317.214	98.13
317.428	-2.22
317.641	-6.31
317.855	46.93
318.068	46.93
318.282	96.08
318.495	96.08
318.709	110.42
318.922	22.36
319.136	73.56
319.349	141.14
319.563	34.64
319.776	110.42
319.99	20.31
320.203	89.94
320.417	32.6
320.63	22.36
320.843	124.76
321.057	55.12
321.27	32.6
321.483	-4.27
321.697	77.65
321.91	42.84
322.124	69.46
322.337	14.17
322.55	28.5
322.763	79.7
322.977	61.27
323.19	18.26
323.403	120.66
323.617	51.03
323.83	85.84
324.043	100.18
324.256	14.17
324.469	77.65
324.683	96.08
324.896	16.21
325.109	71.51
325.322	10.07
325.535	46.93
325.748	55.12
325.962	106.32
326.175	38.74
326.388	10.07
326.601	16.21
326.814	77.65
327.027	83.8
327.24	34.64
327.453	51.03
327.666	48.98
327.879	77.65
328.092	71.51
328.305	55.12
328.518	42.84
328.731	10.07
328.944	51.03
329.157	100.18
329.37	59.22
329.583	85.84
329.796	106.32
330.009	42.84
330.222	65.36
330.435	61.27
330.648	48.98
330.861	87.89
331.073	110.42
331.286	61.27
331.499	63.32
331.712	26.45
331.925	112.47
332.138	55.12
332.35	26.45
332.563	30.55
332.776	83.8
332.989	42.84
333.202	-20.65
333.414	73.56
333.627	38.74
333.84	-14.51
334.053	102.23
334.265	40.79
334.478	34.64
334.691	-14.51
334.903	73.56
335.116	-4.27
335.329	106.32
335.541	22.36
335.754	51.03
335.966	102.23
336.179	51.03
336.392	53.08
336.604	65.36
336.817	46.93
337.029	59.22
337.242	55.12
337.454	85.84
337.667	-2.22
337.88	46.93
338.092	65.36
338.305	153.43
338.517	30.55
338.729	63.32
338.942	100.18
339.154	14.17
339.367	75.6
339.579	116.56
339.792	40.79
340.004	89.94
340.217	55.12
340.429	96.08
340.641	77.65
340.854	96.08
341.066	26.45
341.278	10.07
341.491	137.04
341.703	-0.17
341.915	40.79
342.128	120.66
342.34	89.94
342.552	77.65
342.764	63.32
342.977	110.42
343.189	116.56
343.401	75.6
343.613	51.03
343.826	71.51
344.038	51.03
344.25	116.56
344.462	118.61
344.674	118.61
344.886	51.03
345.099	106.32
345.311	5.97
345.523	149.33
345.735	46.93
345.947	57.17
346.159	116.56
346.371	38.74
346.583	57.17
346.795	87.89
347.007	104.28
347.219	71.51
347.431	-4.27
347.643	96.08
347.855	48.98
348.067	51.03
348.279	14.17
348.491	34.64
348.703	51.03
348.915	83.8
349.127	18.26
349.339	46.93
349.551	87.89
349.763	59.22
349.975	34.64
350.187	44.88
350.399	91.99
350.61	173.91
350.822	36.69
351.034	75.6
351.246	28.5
351.458	100.18
351.669	30.55
351.881	-4.27
352.093	79.7
352.305	137.04
352.517	91.99
352.728	141.14
352.94	55.12
353.152	124.76
353.363	59.22
353.575	57.17
353.787	87.89
353.999	112.47
354.21	104.28
354.422	104.28
354.633	42.84
354.845	42.84
355.057	120.66
355.268	91.99
355.48	73.56
355.692	57.17
355.903	137.04
356.115	42.84
356.326	8.02
356.538	79.7
356.749	145.24
356.961	22.36
357.172	83.8
357.384	48.98
357.595	75.6
357.807	75.6
358.018	10.07
358.23	73.56
358.441	75.6
358.653	165.71
358.864	106.32
359.075	75.6
359.287	108.37
359.498	71.51
359.709	94.04
359.921	67.41
360.132	12.12
360.344	14.17
360.555	55.12
360.766	57.17
360.977	30.55
361.189	89.94
361.4	44.88
361.611	96.08
361.823	91.99
362.034	94.04
362.245	-47.27
362.456	48.98
362.667	143.19
362.879	81.75
363.09	55.12
363.301	65.36
363.512	63.32
363.723	28.5
363.935	87.89
364.146	94.04
364.357	5.97
364.568	1.88
364.779	-18.6
364.99	94.04
365.201	-2.22
365.412	87.89
365.623	30.55
365.834	96.08
366.045	128.85
366.256	59.22
366.467	69.46
366.678	51.03
366.889	28.5
367.1	42.84
367.311	38.74
367.522	108.37
367.733	79.7
367.944	112.47
368.155	71.51
368.366	75.6
368.577	98.13
368.788	65.36
368.999	44.88
369.209	44.88
369.42	171.86
369.631	161.62
369.842	28.5
370.053	55.12
370.264	79.7
370.474	-2.22
370.685	124.76
370.896	169.81
371.107	100.18
371.317	-18.6
371.528	28.5
371.739	34.64
371.95	48.98
372.16	130.9
372.371	89.94
372.582	51.03
372.792	110.42
373.003	-18.6
373.214	18.26
373.424	67.41
373.635	42.84
373.846	46.93
374.056	120.66
374.267	79.7
374.477	91.99
374.688	120.66
374.898	116.56
375.109	65.36
375.319	-6.31
375.53	75.6
375.74	126.8
375.951	36.69
376.161	91.99
376.372	67.41
376.582	67.41
376.793	16.21
377.003	38.74
377.214	106.32
377.424	130.9
377.635	53.08
377.845	96.08
378.055	40.79
378.266	83.8
378.476	100.18
378.686	87.89
378.897	77.65
379.107	85.84
379.317	-8.36
379.528	91.99
379.738	87.89
379.948	38.74
380.158	112.47
380.369	69.46
380.579	243.54
380.789	69.46
380.999	67.41
381.21	79.7
381.42	91.99
381.63	44.88
381.84	91.99
382.05	75.6
382.261	98.13
382.471	128.85
382.681	114.52
382.891	112.47
383.101	53.08
383.311	85.84
383.521	96.08
383.731	149.33
383.941	114.52
384.151	1.88
384.361	67.41
384.571	63.32
384.781	96.08
384.991	38.74
385.201	110.42
385.411	63.32
385.621	67.41
385.831	38.74
386.041	114.52
386.251	108.37
386.461	55.12
386.671	114.52
386.881	44.88
387.091	44.88
387.301	106.32
387.511	159.57
387.72	38.74
387.93	100.18
388.14	24.4
388.35	102.23
388.56	116.56
388.769	122.71
388.979	106.32
389.189	96.08
389.399	75.6
389.609	38.74
389.818	28.5
390.028	46.93
390.238	63.32
390.447	75.6
390.657	120.66
390.867	-10.41
391.076	36.69
391.286	157.52
391.496	46.93
391.705	65.36
391.915	130.9
392.125	102.23
392.334	38.74
392.544	149.33
392.753	91.99
392.963	30.55
393.172	87.89
393.382	42.84
393.591	104.28
393.801	67.41
394.01	145.24
394.22	91.99
394.429	128.85
394.639	79.7
394.848	255.83
395.058	94.04
395.267	120.66
395.477	100.18
395.686	87.89
395.895	141.14
396.105	106.32
396.314	100.18
396.524	71.51
396.733	110.42
396.942	124.76
397.152	89.94
397.361	55.12
397.57	147.28
397.78	120.66
397.989	145.24
398.198	165.71
398.407	159.57
398.617	69.46
398.826	141.14
399.035	118.61
399.244	85.84
399.453	155.47
399.663	173.91
399.872	83.8
400.081	67.41
400.29	180.05
400.499	124.76
400.708	147.28
400.917	79.7
401.127	22.36
401.336	77.65
401.545	190.29
401.754	79.7
401.963	71.51
402.172	161.62
402.381	89.94
402.59	126.8
402.799	118.61
403.008	112.47
403.217	167.76
403.426	194.39
403.635	94.04
403.844	79.7
404.053	96.08
404.262	155.47
404.471	200.53
404.68	216.91
404.888	126.8
405.097	223.06
405.306	130.9
405.515	147.28
405.724	163.67
405.933	229.2
406.142	149.33
406.35	175.95
406.559	231.25
406.768	192.34
406.977	194.39
407.185	241.49
407.394	171.86
407.603	184.15
407.812	227.15
408.02	259.92
408.229	130.9
408.438	214.87
408.646	175.95
408.855	233.3
409.064	241.49
409.272	200.53
409.481	284.5
409.69	202.58
409.898	208.72
410.107	218.96
410.315	270.16
410.524	255.83
410.733	304.98
410.941	309.07
411.15	333.65
411.358	339.79
411.567	380.75
411.775	313.17
411.984	407.38
412.192	403.28
412.401	407.38
412.609	425.81
412.818	438.09
413.026	393.04
413.234	380.75
413.443	479.05
413.651	470.86
413.86	499.53
414.068	495.44
414.276	472.91
414.485	479.05
414.693	556.88
414.901	614.22
415.11	556.88
415.318	657.23
415.526	665.42
415.734	638.8
415.943	677.71
416.151	675.66
416.359	657.23
416.567	716.62
416.776	776.01
416.984	812.87
417.192	847.69
417.4	816.97
417.608	816.97
417.817	943.94
418.025	931.66
418.233	989
418.441	984.9
418.649	1042.25
418.857	986.95
419.065	1038.15
419.273	1132.36
419.481	1148.74
419.689	1214.27
419.897	1300.29
420.105	1199.94
420.313	1359.68
420.521	1283.91
420.729	1322.82
420.937	1367.87
421.145	1392.45
421.353	1474.37
421.561	1541.95
421.769	1587.01
421.977	1670.97
422.185	1595.2
422.393	1828.67
422.601	1834.81
422.809	1799.99
423.017	1814.33
423.224	1922.87
423.432	1998.65
423.64	2031.41
423.848	2139.96
424.056	2174.77
424.263	2320.18
424.471	2406.19
424.679	2330.42
424.887	2477.87
425.094	2551.6
425.302	2551.6
425.51	2645.8
425.718	2733.87
425.925	2805.55
426.133	2815.79
426.341	3051.3
426.548	3159.85
426.756	3168.04
426.964	3106.6
427.171	3295.01
427.379	3438.37
427.586	3501.86
427.794	3487.52
428.001	3778.33
428.209	3798.81
428.417	3847.96
428.624	4144.92
428.832	4196.12
429.039	4063
429.247	4058.9
429.454	4468.5
429.662	4853.52
429.869	4474.64
430.076	4925.19
430.284	4544.27
430.491	5000.97
430.699	4994.83
430.906	5232.39
431.114	5191.43
431.321	5363.46
431.528	5670.65
431.736	5988.09
431.943	6199.03
432.15	5955.32
432.358	6186.74
432.565	6385.4
432.772	6248.18
432.979	6565.62
433.187	6721.26
433.394	6825.71
433.601	7126.76
433.808	7259.88
434.016	7149.29
434.223	7638.75
434.43	7904.99
434.637	7923.42
434.844	8509.14
435.052	8496.85
435.259	8259.29
435.466	8550.1
435.673	8228.57
435.88	8885.97
436.087	9246.41
436.294	9438.92
436.501	9213.64
436.708	9506.5
436.915	9834.18
437.122	10286.78
437.329	10057.4
437.537	10313.4
437.743	10413.75
437.95	10645.17
438.157	11138.73
438.364	11462.31
438.571	11634.34
438.778	11552.42
438.985	12885.65
439.192	11949.73
439.399	12424.86
439.606	12123.8
439.813	12678.8
440.02	13774.47
440.227	13352.59
440.433	13147.79
440.64	13665.92
440.847	13586.05
441.054	13854.34
441.261	14823.03
441.467	14722.68
441.674	14980.72
441.881	15472.23
442.088	15449.71
442.294	15255.15
442.501	15732.33
442.708	15812.2
442.914	16602.71
443.121	17483.34
443.328	16981.59
443.534	18136.64
443.741	17401.42
443.948	17190.48
444.154	18744.89
444.361	18236.99
444.568	18470.46
444.774	18351.68
444.981	18845.24
445.187	19359.28
445.394	20182.56
445.6	19908.13
445.807	21861.9
446.013	20620.83
446.22	21063.19
446.426	21919.24
446.633	22326.78
446.839	22666.75
447.046	21835.27
447.252	23240.18
447.459	22984.18
447.665	23264.75
447.871	24020.45
448.078	25103.83
448.284	23821.8
448.491	24602.08
448.697	25718.22
448.903	26119.62
449.11	26064.33
449.316	25478.61
449.522	25832.91
449.728	26541.5
449.935	26953.15
450.141	26672.57
450.347	27628.98
450.553	26447.3
450.76	26865.08
450.966	27782.57
451.172	27565.49
451.378	27661.74
451.584	27637.17
451.791	28388.77
451.997	27981.23
452.203	28476.83
452.409	28509.6
452.615	28163.5
452.821	27035.06
453.027	27063.74
453.233	28274.09
453.44	27215.29
453.646	27383.22
453.852	27458.99
454.058	27813.29
454.264	26936.76
454.47	27706.8
454.676	26961.34
454.882	28179.88
455.088	25249.24
455.294	25562.58
455.5	26158.53
455.705	26623.42
455.911	25294.29
456.117	24743.39
456.323	24509.92
456.529	23041.53
456.735	24120.81
456.941	23774.7
457.147	23328.24
457.352	22382.08
457.558	22244.87
457.764	22228.48
457.97	21685.77
458.176	21501.45
458.381	21413.39
458.587	20026.92
458.793	19951.14
458.999	19281.46
459.204	20618.78
459.41	20215.33
459.616	18751.03
459.821	18665.02
460.027	18574.91
460.233	18245.18
460.438	17569.35
460.644	17430.09
460.85	16854.61
461.055	16465.5
461.261	16408.15
461.466	15273.58
461.672	14739.06
461.878	15951.46
462.083	14743.16
462.289	14712.44
462.494	14442.1
462.7	14061.18
462.905	13366.92
463.111	13889.15
463.316	13788.8
463.522	13690.5
463.727	13612.68
463.932	13461.13
464.138	13481.61
464.343	13594.25
464.549	13125.26
464.754	13680.26
464.959	13477.51
465.165	13457.03
465.37	12928.66
465.575	12367.51
465.781	13059.73
465.986	13061.77
466.191	12572.31
466.397	12312.22
466.602	11916.96
466.807	12261.02
467.012	12385.94
467.218	12064.41
