Data from USB4F104151__37__10-22-13-104.txt Node

Date: Wed Mar 12 10:22:13 EDT 2025
User: louis
Spectrometer: USB4F10415
Trigger mode: 4
Integration Time (sec): 3.000000E-2
Scans to average: 1
Electric dark correction enabled: true
Nonlinearity correction enabled: false
Boxcar width: 0
XAxis mode: Wavelengths
Number of Pixels in Spectrum: 3648
>>>>>Begin Spectral Data<<<<<
178.204	-116.05
178.424	-116.05
178.644	-116.05
178.864	-152.92
179.084	-89.43
179.304	12.97
179.524	-17.75
179.744	53.93
179.964	35.5
180.184	-81.24
180.404	12.97
180.624	55.98
180.844	-44.37
181.064	10.92
181.283	39.59
181.503	-54.61
181.723	-23.89
181.943	-25.94
182.163	27.31
182.383	15.02
182.602	2.73
182.822	17.07
183.042	-27.99
183.262	-46.42
183.482	55.98
183.701	72.36
183.921	45.74
184.141	-32.08
184.361	-11.61
184.58	55.98
184.8	37.55
185.02	2.73
185.239	17.07
185.459	-40.28
185.679	78.51
185.898	2.73
186.118	29.35
186.338	4.78
186.557	4.78
186.777	39.59
186.997	21.16
187.216	-52.56
187.436	-32.08
187.655	6.83
187.875	53.93
188.095	21.16
188.314	-5.46
188.534	2.73
188.753	39.59
188.973	15.02
189.192	29.35
189.412	55.98
189.631	-48.47
189.851	-5.46
190.07	51.88
190.29	41.64
190.509	-21.85
190.729	-68.95
190.948	37.55
191.168	129.7
191.387	107.18
191.607	29.35
191.826	10.92
192.045	2.73
192.265	17.07
192.484	-54.61
192.704	-9.56
192.923	-11.61
193.142	-17.75
193.362	-7.51
193.581	78.51
193.8	31.4
194.02	19.11
194.239	-87.38
194.458	-23.89
194.678	-15.7
194.897	-30.04
195.116	-17.75
195.335	4.78
195.555	33.45
195.774	8.87
195.993	21.16
196.212	0.68
196.432	58.03
196.651	-27.99
196.87	-21.85
197.089	41.64
197.308	8.87
197.528	37.55
197.747	-21.85
197.966	-77.14
198.185	-23.89
198.404	84.65
198.623	-27.99
198.842	37.55
199.062	25.26
199.281	37.55
199.5	35.5
199.719	-48.47
199.938	-7.51
200.157	31.4
200.376	80.55
200.595	55.98
200.814	21.16
201.033	41.64
201.252	-23.89
201.471	12.97
201.69	-17.75
201.909	31.4
202.128	-19.8
202.347	41.64
202.566	0.68
202.785	-56.66
203.004	-97.62
203.223	62.12
203.442	17.07
203.661	41.64
203.879	41.64
204.098	-25.94
204.317	-42.32
204.536	25.26
204.755	-27.99
204.974	66.22
205.193	-21.85
205.411	76.46
205.63	-40.28
205.849	10.92
206.068	12.97
206.287	53.93
206.505	12.97
206.724	10.92
206.943	2.73
207.162	29.35
207.381	-5.46
207.599	4.78
207.818	-44.37
208.037	-1.37
208.255	-19.8
208.474	-42.32
208.693	29.35
208.911	96.94
209.13	15.02
209.349	62.12
209.567	17.07
209.786	-25.94
210.005	19.11
210.223	53.93
210.442	-17.75
210.661	17.07
210.879	101.03
211.098	-15.7
211.316	-27.99
211.535	21.16
211.753	37.55
211.972	-25.94
212.191	-19.8
212.409	90.79
212.628	45.74
212.846	-5.46
213.065	-46.42
213.283	29.35
213.502	6.83
213.72	29.35
213.938	64.17
214.157	-48.47
214.375	6.83
214.594	-52.56
214.812	35.5
215.031	25.26
215.249	-83.28
215.467	-19.8
215.686	-3.41
215.904	19.11
216.122	-15.7
216.341	55.98
216.559	-5.46
216.778	35.5
216.996	-9.56
217.214	-7.51
217.432	0.68
217.651	-38.23
217.869	-3.41
218.087	-38.23
218.306	-23.89
218.524	4.78
218.742	-58.71
218.96	17.07
219.179	-36.18
219.397	53.93
219.615	49.83
219.833	27.31
220.051	-21.85
220.27	105.13
220.488	-25.94
220.706	113.32
220.924	-17.75
221.142	-5.46
221.36	-13.65
221.578	60.07
221.796	41.64
222.015	84.65
222.233	-60.76
222.451	82.6
222.669	-46.42
222.887	47.79
223.105	86.7
223.323	-38.23
223.541	19.11
223.759	62.12
223.977	6.83
224.195	-5.46
224.413	12.97
224.631	6.83
224.849	-34.13
225.067	62.12
225.285	-36.18
225.503	-15.7
225.721	2.73
225.939	8.87
226.157	37.55
226.375	58.03
226.592	29.35
226.81	51.88
227.028	45.74
227.246	58.03
227.464	8.87
227.682	2.73
227.9	49.83
228.117	-7.51
228.335	19.11
228.553	-15.7
228.771	74.41
228.989	10.92
229.206	51.88
229.424	-9.56
229.642	55.98
229.86	-36.18
230.077	-21.85
230.295	45.74
230.513	19.11
230.731	82.6
230.948	51.88
231.166	0.68
231.384	19.11
231.601	8.87
231.819	41.64
232.037	10.92
232.254	-19.8
232.472	49.83
232.689	2.73
232.907	31.4
233.125	-64.85
233.342	4.78
233.56	-25.94
233.777	-36.18
233.995	-81.24
234.213	70.31
234.43	8.87
234.648	-30.04
234.865	29.35
235.083	68.27
235.3	6.83
235.518	107.18
235.735	45.74
235.953	105.13
236.17	-11.61
236.388	-50.52
236.605	53.93
236.822	111.27
237.04	-5.46
237.257	-46.42
237.475	64.17
237.692	15.02
237.909	53.93
238.127	-21.85
238.344	64.17
238.562	17.07
238.779	-77.14
238.996	-44.37
239.214	10.92
239.431	72.36
239.648	8.87
239.865	51.88
240.083	2.73
240.3	53.93
240.517	25.26
240.735	23.21
240.952	27.31
241.169	94.89
241.386	-19.8
241.603	-11.61
241.821	-23.89
242.038	55.98
242.255	78.51
242.472	19.11
242.689	25.26
242.907	82.6
243.124	51.88
243.341	-5.46
243.558	-48.47
243.775	-15.7
243.992	-27.99
244.209	39.59
244.426	19.11
244.643	0.68
244.86	39.59
245.078	45.74
245.295	29.35
245.512	21.16
245.729	-44.37
245.946	4.78
246.163	21.16
246.38	-21.85
246.597	15.02
246.814	-30.04
247.031	-105.81
247.248	29.35
247.464	-58.71
247.681	0.68
247.898	-11.61
248.115	78.51
248.332	2.73
248.549	-44.37
248.766	88.75
248.983	-11.61
249.2	-42.32
249.417	70.31
249.633	-11.61
249.85	43.69
250.067	-13.65
250.284	43.69
250.501	-25.94
250.717	4.78
250.934	-1.37
251.151	10.92
251.368	-21.85
251.585	-5.46
251.801	25.26
252.018	19.11
252.235	55.98
252.451	33.45
252.668	62.12
252.885	72.36
253.102	12.97
253.318	33.45
253.535	8.87
253.752	-3.41
253.968	19.11
254.185	-23.89
254.401	60.07
254.618	27.31
254.835	35.5
255.051	29.35
255.268	78.51
255.484	-5.46
255.701	17.07
255.917	0.68
256.134	-52.56
256.351	23.21
256.567	-44.37
256.784	29.35
257	39.59
257.217	62.12
257.433	-19.8
257.65	25.26
257.866	80.55
258.082	33.45
258.299	19.11
258.515	51.88
258.732	6.83
258.948	-23.89
259.165	-36.18
259.381	-68.95
259.597	17.07
259.814	-44.37
260.03	-11.61
260.246	-64.85
260.463	55.98
260.679	10.92
260.895	-30.04
261.112	-3.41
261.328	-79.19
261.544	21.16
261.761	103.08
261.977	17.07
262.193	10.92
262.409	53.93
262.626	-13.65
262.842	53.93
263.058	12.97
263.274	6.83
263.49	29.35
263.707	25.26
263.923	29.35
264.139	-13.65
264.355	8.87
264.571	25.26
264.787	0.68
265.004	76.46
265.22	51.88
265.436	-19.8
265.652	101.03
265.868	12.97
266.084	33.45
266.3	15.02
266.516	23.21
266.732	2.73
266.948	64.17
267.164	27.31
267.38	-13.65
267.596	10.92
267.812	103.08
268.028	-3.41
268.244	76.46
268.46	41.64
268.676	-30.04
268.892	4.78
269.108	76.46
269.324	64.17
269.54	19.11
269.756	10.92
269.972	10.92
270.188	-7.51
270.403	72.36
270.619	37.55
270.835	29.35
271.051	-30.04
271.267	-23.89
271.483	41.64
271.698	45.74
271.914	19.11
272.13	58.03
272.346	-15.7
272.562	4.78
272.777	-30.04
272.993	0.68
273.209	6.83
273.425	21.16
273.64	-95.57
273.856	66.22
274.072	51.88
274.287	35.5
274.503	19.11
274.719	17.07
274.934	-46.42
275.15	-68.95
275.366	25.26
275.581	10.92
275.797	-34.13
276.012	72.36
276.228	-54.61
276.444	-11.61
276.659	-1.37
276.875	-25.94
277.09	-3.41
277.306	-15.7
277.521	25.26
277.737	0.68
277.952	-5.46
278.168	31.4
278.383	37.55
278.599	103.08
278.814	72.36
279.03	-3.41
279.245	98.99
279.461	115.37
279.676	2.73
279.892	-3.41
280.107	51.88
280.322	-42.32
280.538	78.51
280.753	-23.89
280.969	19.11
281.184	-42.32
281.399	35.5
281.615	33.45
281.83	17.07
282.045	15.02
282.26	66.22
282.476	70.31
282.691	78.51
282.906	74.41
283.122	8.87
283.337	-46.42
283.552	27.31
283.767	-3.41
283.983	33.45
284.198	-52.56
284.413	103.08
284.628	0.68
284.843	70.31
285.058	25.26
285.274	17.07
285.489	-48.47
285.704	4.78
285.919	35.5
286.134	25.26
286.349	12.97
286.564	62.12
286.779	12.97
286.995	-3.41
287.21	-13.65
287.425	82.6
287.64	17.07
287.855	-40.28
288.07	-5.46
288.285	2.73
288.5	19.11
288.715	21.16
288.93	62.12
289.145	47.79
289.36	64.17
289.575	19.11
289.79	0.68
290.004	-5.46
290.219	4.78
290.434	-23.89
290.649	-85.33
290.864	33.45
291.079	25.26
291.294	-11.61
291.509	8.87
291.724	45.74
291.938	-42.32
292.153	90.79
292.368	80.55
292.583	55.98
292.798	37.55
293.012	53.93
293.227	-9.56
293.442	-48.47
293.657	64.17
293.871	10.92
294.086	23.21
294.301	41.64
294.516	25.26
294.73	35.5
294.945	43.69
295.16	21.16
295.374	98.99
295.589	70.31
295.804	-11.61
296.018	33.45
296.233	76.46
296.447	21.16
296.662	-34.13
296.877	68.27
297.091	62.12
297.306	17.07
297.52	-48.47
297.735	-32.08
297.949	33.45
298.164	45.74
298.378	33.45
298.593	-36.18
298.807	51.88
299.022	43.69
299.236	25.26
299.451	-21.85
299.665	29.35
299.88	35.5
300.094	-21.85
300.309	6.83
300.523	-32.08
300.737	37.55
300.952	12.97
301.166	55.98
301.381	12.97
301.595	-11.61
301.809	45.74
302.024	-7.51
302.238	21.16
302.452	117.42
302.667	-36.18
302.881	10.92
303.095	33.45
303.309	4.78
303.524	29.35
303.738	2.73
303.952	60.07
304.166	82.6
304.381	25.26
304.595	70.31
304.809	-19.8
305.023	29.35
305.237	39.59
305.452	-21.85
305.666	41.64
305.88	68.27
306.094	70.31
306.308	25.26
306.522	6.83
306.736	49.83
306.95	74.41
307.164	39.59
307.379	-15.7
307.593	47.79
307.807	58.03
308.021	72.36
308.235	37.55
308.449	-3.41
308.663	-9.56
308.877	37.55
309.091	10.92
309.305	-11.61
309.519	55.98
309.733	84.65
309.947	-32.08
310.161	103.08
310.374	15.02
310.588	137.9
310.802	-27.99
311.016	-1.37
311.23	21.16
311.444	51.88
311.658	-9.56
311.872	113.32
312.085	2.73
312.299	70.31
312.513	115.37
312.727	-11.61
312.941	10.92
313.154	70.31
313.368	55.98
313.582	37.55
313.796	33.45
314.009	19.11
314.223	0.68
314.437	68.27
314.651	43.69
314.864	29.35
315.078	64.17
315.292	-19.8
315.505	49.83
315.719	27.31
315.933	-17.75
316.146	-44.37
316.36	-38.23
316.573	49.83
316.787	78.51
317.001	15.02
317.214	0.68
317.428	19.11
317.641	4.78
317.855	58.03
318.068	62.12
318.282	0.68
318.495	62.12
318.709	-25.94
318.922	-23.89
319.136	41.64
319.349	62.12
319.563	25.26
319.776	72.36
319.99	-19.8
320.203	29.35
320.417	-27.99
320.63	19.11
320.843	29.35
321.057	53.93
321.27	-27.99
321.483	21.16
321.697	43.69
321.91	39.59
322.124	86.7
322.337	-42.32
322.55	12.97
322.763	0.68
322.977	31.4
323.19	53.93
323.403	70.31
323.617	66.22
323.83	55.98
324.043	-11.61
324.256	144.04
324.469	-23.89
324.683	64.17
324.896	17.07
325.109	53.93
325.322	-40.28
325.535	53.93
325.748	62.12
325.962	-36.18
326.175	35.5
326.388	78.51
326.601	21.16
326.814	62.12
327.027	6.83
327.24	-5.46
327.453	-21.85
327.666	4.78
327.879	-38.23
328.092	119.46
328.305	62.12
328.518	-30.04
328.731	-30.04
328.944	17.07
329.157	4.78
329.37	17.07
329.583	29.35
329.796	90.79
330.009	15.02
330.222	17.07
330.435	12.97
330.648	-7.51
330.861	70.31
331.073	-9.56
331.286	101.03
331.499	-15.7
331.712	-30.04
331.925	-13.65
332.138	53.93
332.35	49.83
332.563	0.68
332.776	119.46
332.989	29.35
333.202	31.4
333.414	62.12
333.627	-13.65
333.84	12.97
334.053	45.74
334.265	-1.37
334.478	29.35
334.691	-11.61
334.903	25.26
335.116	-3.41
335.329	-1.37
335.541	33.45
335.754	55.98
335.966	43.69
336.179	-44.37
336.392	29.35
336.604	39.59
336.817	72.36
337.029	62.12
337.242	29.35
337.454	12.97
337.667	19.11
337.88	84.65
338.092	2.73
338.305	47.79
338.517	21.16
338.729	53.93
338.942	19.11
339.154	-30.04
339.367	49.83
339.579	90.79
339.792	27.31
340.004	-3.41
340.217	29.35
340.429	49.83
340.641	-9.56
340.854	-25.94
341.066	39.59
341.278	70.31
341.491	31.4
341.703	29.35
341.915	-36.18
342.128	29.35
342.34	-15.7
342.552	17.07
342.764	51.88
342.977	15.02
343.189	35.5
343.401	37.55
343.613	25.26
343.826	53.93
344.038	41.64
344.25	51.88
344.462	58.03
344.674	-1.37
344.886	109.22
345.099	-7.51
345.311	33.45
345.523	49.83
345.735	33.45
345.947	66.22
346.159	23.21
346.371	62.12
346.583	123.56
346.795	45.74
347.007	17.07
347.219	62.12
347.431	21.16
347.643	51.88
347.855	66.22
348.067	70.31
348.279	-11.61
348.491	-21.85
348.703	49.83
348.915	55.98
349.127	0.68
349.339	53.93
349.551	21.16
349.763	68.27
349.975	12.97
350.187	70.31
350.399	41.64
350.61	37.55
350.822	-15.7
351.034	25.26
351.246	-19.8
351.458	109.22
351.669	64.17
351.881	31.4
352.093	49.83
352.305	72.36
352.517	62.12
352.728	62.12
352.94	27.31
353.152	70.31
353.363	-17.75
353.575	6.83
353.787	72.36
353.999	-3.41
354.21	21.16
354.422	-1.37
354.633	15.02
354.845	35.5
355.057	-3.41
355.268	51.88
355.48	53.93
355.692	33.45
355.903	68.27
356.115	49.83
356.326	-15.7
356.538	37.55
356.749	45.74
356.961	39.59
357.172	2.73
357.384	2.73
357.595	109.22
357.807	62.12
358.018	-5.46
358.23	25.26
358.441	84.65
358.653	58.03
358.864	-75.09
359.075	27.31
359.287	43.69
359.498	45.74
359.709	62.12
359.921	53.93
360.132	-13.65
360.344	-17.75
360.555	43.69
360.766	127.66
360.977	37.55
361.189	39.59
361.4	94.89
361.611	80.55
361.823	88.75
362.034	29.35
362.245	10.92
362.456	-13.65
362.667	6.83
362.879	74.41
363.09	31.4
363.301	49.83
363.512	90.79
363.723	-15.7
363.935	4.78
364.146	123.56
364.357	66.22
364.568	-7.51
364.779	-44.37
364.99	4.78
365.201	-23.89
365.412	29.35
365.623	49.83
365.834	47.79
366.045	29.35
366.256	49.83
366.467	101.03
366.678	84.65
366.889	17.07
367.1	92.84
367.311	12.97
367.522	-15.7
367.733	76.46
367.944	35.5
368.155	-5.46
368.366	74.41
368.577	39.59
368.788	27.31
368.999	101.03
369.209	53.93
369.42	127.66
369.631	133.8
369.842	27.31
370.053	4.78
370.264	-9.56
370.474	-38.23
370.685	10.92
370.896	53.93
371.107	68.27
371.317	90.79
371.528	-36.18
371.739	76.46
371.95	27.31
372.16	21.16
372.371	-15.7
372.582	121.51
372.792	-30.04
373.003	78.51
373.214	82.6
373.424	43.69
373.635	0.68
373.846	80.55
374.056	68.27
374.267	35.5
374.477	78.51
374.688	6.83
374.898	58.03
375.109	-3.41
375.319	-60.76
375.53	4.78
375.74	68.27
375.951	37.55
376.161	12.97
376.372	39.59
376.582	31.4
376.793	45.74
377.003	29.35
377.214	-27.99
377.424	74.41
377.635	43.69
377.845	123.56
378.055	70.31
378.266	23.21
378.476	10.92
378.686	62.12
378.897	-1.37
379.107	84.65
379.317	62.12
379.528	19.11
379.738	66.22
379.948	-5.46
380.158	144.04
380.369	-19.8
380.579	111.27
380.789	74.41
380.999	-13.65
381.21	27.31
381.42	86.7
381.63	4.78
381.84	78.51
382.05	60.07
382.261	78.51
382.471	51.88
382.681	35.5
382.891	119.46
383.101	86.7
383.311	2.73
383.521	62.12
383.731	35.5
383.941	72.36
384.151	62.12
384.361	2.73
384.571	43.69
384.781	51.88
384.991	70.31
385.201	55.98
385.411	41.64
385.621	23.21
385.831	86.7
386.041	58.03
386.251	39.59
386.461	29.35
386.671	-32.08
386.881	49.83
387.091	80.55
387.301	55.98
387.511	-25.94
387.72	62.12
387.93	37.55
388.14	-19.8
388.35	-3.41
388.56	103.08
388.769	53.93
388.979	98.99
389.189	58.03
389.399	-3.41
389.609	39.59
389.818	115.37
390.028	53.93
390.238	129.7
390.447	94.89
390.657	70.31
390.867	2.73
391.076	-36.18
391.286	86.7
391.496	19.11
391.705	111.27
391.915	98.99
392.125	27.31
392.334	68.27
392.544	62.12
392.753	4.78
392.963	21.16
393.172	90.79
393.382	66.22
393.591	82.6
393.801	45.74
394.01	119.46
394.22	86.7
394.429	37.55
394.639	84.65
394.848	53.93
395.058	58.03
395.267	78.51
395.477	109.22
395.686	84.65
395.895	119.46
396.105	209.58
396.314	29.35
396.524	129.7
396.733	80.55
396.942	60.07
397.152	133.8
397.361	103.08
397.57	84.65
397.78	86.7
397.989	158.38
398.198	176.81
398.407	84.65
398.617	146.09
398.826	123.56
399.035	146.09
399.244	133.8
399.453	82.6
399.663	154.28
399.872	144.04
400.081	127.66
400.29	152.23
400.499	119.46
400.708	160.42
400.917	193.19
401.127	27.31
401.336	78.51
401.545	144.04
401.754	70.31
401.963	131.75
402.172	127.66
402.381	78.51
402.59	115.37
402.799	148.14
403.008	139.94
403.217	115.37
403.426	164.52
403.635	109.22
403.844	154.28
404.053	168.62
404.262	160.42
404.471	164.52
404.68	201.38
404.888	178.86
405.097	160.42
405.306	166.57
405.515	225.96
405.724	127.66
405.933	185
406.142	336.55
406.35	133.8
406.559	193.19
406.768	193.19
406.977	246.44
407.185	248.49
407.394	201.38
407.603	236.2
407.812	273.06
408.02	287.4
408.229	176.81
408.438	314.02
408.646	221.86
408.855	199.34
409.064	187.05
409.272	318.12
409.481	387.75
409.69	348.84
409.898	379.56
410.107	377.51
410.315	410.28
410.524	336.55
410.733	430.76
410.941	389.8
411.15	496.29
411.358	477.86
411.567	604.83
411.775	477.86
411.984	473.76
412.192	475.81
412.401	518.82
412.609	590.5
412.818	645.79
413.026	664.22
413.234	588.45
413.443	637.6
413.651	674.46
413.86	668.32
414.068	656.03
414.276	725.66
414.485	709.28
414.693	785.05
414.901	879.26
415.11	856.73
415.318	889.5
415.526	926.36
415.734	938.65
415.943	1073.82
416.151	1018.52
416.359	971.42
416.567	1034.91
416.776	1149.59
416.984	1204.89
417.192	1368.73
417.4	1288.85
417.608	1249.94
417.817	1284.76
418.025	1333.91
418.233	1497.75
418.441	1409.69
418.649	1446.55
418.857	1741.46
419.065	1671.83
419.273	1610.39
419.481	1739.41
419.689	1831.57
419.897	1903.25
420.105	1958.54
420.313	1938.06
420.521	1950.35
420.729	1936.01
420.937	2155.15
421.145	2224.78
421.353	2392.71
421.561	2415.24
421.769	2550.4
421.977	2609.79
422.185	2540.16
422.393	2884.22
422.601	3039.87
422.809	2976.38
423.017	2902.65
423.224	3000.96
423.432	3220.09
423.64	3183.23
423.848	3609.2
424.056	3504.76
424.263	3465.85
424.471	3658.35
424.679	3601.01
424.887	3844.72
425.094	3914.35
425.302	3955.31
425.51	3981.93
425.718	4356.71
425.925	4325.99
426.133	4627.04
426.341	4772.45
426.548	5014.11
426.756	4880.99
426.964	5034.59
427.171	5182.04
427.379	5423.7
427.586	5655.12
427.794	5761.62
428.001	6036.05
428.209	6281.8
428.417	6208.08
428.624	6605.38
428.832	6642.25
429.039	6554.18
429.247	6687.3
429.454	7346.75
429.662	7770.68
429.869	7078.46
430.076	7844.4
430.284	7332.41
430.491	7770.68
430.699	8200.75
430.906	8213.04
431.114	8299.05
431.321	8761.89
431.528	8806.95
431.736	9261.6
431.943	9820.69
432.15	9474.59
432.358	9439.77
432.565	10117.65
432.772	10048.02
432.979	10504.71
433.187	10865.16
433.394	10805.77
433.601	11622.91
433.808	11604.47
434.016	11604.47
434.223	12100.08
434.43	12726.76
434.637	12519.92
434.844	13314.53
435.052	13511.13
435.259	13310.43
435.466	13658.59
435.673	13423.07
435.88	14428.62
436.087	15335.87
436.294	15018.44
436.501	14854.6
436.708	15102.4
436.915	15544.77
437.122	16409.01
437.329	16249.27
437.537	16523.69
437.743	17099.17
437.95	16890.28
438.157	17861.02
438.364	18289.04
438.571	18211.22
438.778	18391.44
438.985	20431.22
439.192	19073.42
439.399	20226.42
439.606	19294.6
439.813	20840.81
440.02	21965.15
440.227	21463.4
440.433	21246.31
440.64	22026.59
440.847	21795.17
441.054	22305.11
441.261	23845.18
441.467	23540.04
441.674	24082.75
441.881	24924.46
442.088	24838.45
442.294	24721.71
442.501	25338.15
442.708	25921.82
442.914	26761.49
443.121	27855.11
443.328	27279.63
443.534	28961.01
443.741	28401.91
443.948	27928.83
444.154	29937.89
444.361	29612.26
444.568	30046.43
444.774	29960.42
444.981	30390.49
445.187	31109.33
445.394	32417.98
445.6	31875.27
445.807	35127.44
446.013	33761.45
446.22	34035.88
446.426	35428.49
446.633	35797.13
446.839	36788.35
447.046	35109.01
447.252	37212.27
447.459	37302.39
447.665	37171.32
447.871	38811.74
448.078	40065.1
448.284	38301.79
448.491	39233.62
448.697	40982.59
448.903	41594.93
449.11	41582.64
449.316	40669.25
449.522	41515.06
449.728	43243.54
449.935	42807.33
450.141	42864.67
450.347	43730.96
450.553	42395.68
450.76	43247.64
450.966	44666.88
451.172	43477.01
451.378	44980.22
451.584	43950.09
451.791	44742.66
451.997	44703.74
452.203	45064.19
452.409	45426.68
452.615	44898.3
452.821	43579.41
453.027	43016.22
453.233	45529.08
453.44	42934.3
453.646	43825.17
453.852	44040.2
454.058	44689.41
454.264	43245.59
454.47	43976.72
454.676	42932.25
454.882	44537.86
455.088	40843.32
455.294	41181.24
455.5	41867.31
455.705	42186.79
455.911	40532.03
456.117	39759.95
456.323	39155.8
456.529	37238.9
456.735	38344.8
456.941	37419.12
457.147	37169.27
457.352	35944.58
457.558	35676.3
457.764	35473.55
457.97	34875.54
458.176	34265.25
458.381	34203.81
458.587	32293.05
458.793	32284.86
458.999	30951.63
459.204	33284.27
459.41	32078.02
459.616	29868.26
459.821	30122.21
460.027	29958.37
460.233	29245.68
460.438	28178.68
460.644	28248.32
460.85	27146.51
461.055	26450.2
461.261	26655
461.466	24408.37
461.672	23793.98
461.878	25383.21
462.083	23763.26
462.289	23361.86
462.494	23230.79
462.7	22266.2
462.905	21510.5
463.111	22346.07
463.316	22372.69
463.522	21893.47
463.727	21916
463.932	21993.82
464.138	21655.9
464.343	21768.54
464.549	21184.87
464.754	22114.65
464.959	21827.93
465.165	21438.82
465.37	20699.5
465.575	20177.27
465.781	20887.92
465.986	21029.23
466.191	20216.18
466.397	19980.67
