Data from USB4F104151__204__10-29-36-426.txt Node

Date: Wed Mar 12 10:29:36 EDT 2025
User: louis
Spectrometer: USB4F10415
Trigger mode: 4
Integration Time (sec): 3.000000E-2
Scans to average: 1
Electric dark correction enabled: true
Nonlinearity correction enabled: false
Boxcar width: 0
XAxis mode: Wavelengths
Number of Pixels in Spectrum: 3648
>>>>>Begin Spectral Data<<<<<
178.204	-175.78
178.424	-175.78
178.644	-175.78
178.864	-161.45
179.084	-157.35
179.304	2.39
179.524	0.34
179.744	2.39
179.964	12.63
180.184	-73.39
180.404	-48.81
180.624	6.49
180.844	69.97
181.064	26.96
181.283	61.78
181.503	-42.67
181.723	-18.09
181.943	-79.53
182.163	-22.19
182.383	-13.99
182.602	18.77
182.822	26.96
183.042	-22.19
183.262	-95.91
183.482	-18.09
183.701	-30.38
183.921	35.16
184.141	20.82
184.361	74.07
184.58	20.82
184.8	-57
185.02	-50.86
185.239	49.49
185.459	18.77
185.679	12.63
185.898	0.34
186.118	47.44
186.338	-67.24
186.557	110.93
186.777	-44.71
186.997	4.44
187.216	18.77
187.436	6.49
187.655	18.77
187.875	10.58
188.095	-7.85
188.314	-3.75
188.534	0.34
188.753	-11.95
188.973	35.16
189.192	31.06
189.412	16.73
189.631	72.02
189.851	33.11
190.07	84.31
190.29	-59.05
190.509	35.16
190.729	24.92
190.948	33.11
191.168	188.75
191.387	6.49
191.607	22.87
191.826	10.58
192.045	-1.71
192.265	-7.85
192.484	4.44
192.704	33.11
192.923	-16.04
193.142	65.88
193.362	-26.28
193.581	55.64
193.8	80.21
194.02	20.82
194.239	-48.81
194.458	22.87
194.678	24.92
194.897	-48.81
195.116	24.92
195.335	63.83
195.555	10.58
195.774	47.44
195.993	59.73
196.212	-3.75
196.432	6.49
196.651	39.25
196.87	0.34
197.089	65.88
197.308	-79.53
197.528	33.11
197.747	12.63
197.966	20.82
198.185	72.02
198.404	-1.71
198.623	84.31
198.842	-104.11
199.062	8.53
199.281	39.25
199.5	-46.76
199.719	24.92
199.938	80.21
200.157	14.68
200.376	-1.71
200.595	51.54
200.814	29.01
201.033	37.2
201.252	14.68
201.471	43.35
201.69	33.11
201.909	-5.8
202.128	74.07
202.347	24.92
202.566	0.34
202.785	-34.47
203.004	39.25
203.223	51.54
203.442	22.87
203.661	31.06
203.879	57.68
204.098	-16.04
204.317	-24.23
204.536	18.77
204.755	-40.62
204.974	-38.57
205.193	14.68
205.411	-44.71
205.63	-13.99
205.849	51.54
206.068	12.63
206.287	2.39
206.505	39.25
206.724	65.88
206.943	6.49
207.162	51.54
207.381	-7.85
207.599	-34.47
207.818	16.73
208.037	-16.04
208.255	14.68
208.474	-3.75
208.693	72.02
208.911	55.64
209.13	69.97
209.349	16.73
209.567	-40.62
209.786	76.12
210.005	39.25
210.223	-20.14
210.442	55.64
210.661	-46.76
210.879	8.53
211.098	59.73
211.316	-38.57
211.535	65.88
211.753	45.4
211.972	82.26
212.191	14.68
212.409	35.16
212.628	16.73
212.846	-18.09
213.065	35.16
213.283	63.83
213.502	53.59
213.72	8.53
213.938	-16.04
214.157	-11.95
214.375	31.06
214.594	-24.23
214.812	51.54
215.031	14.68
215.249	86.36
215.467	51.54
215.686	6.49
215.904	84.31
216.122	35.16
216.341	63.83
216.559	-22.19
216.778	8.53
216.996	24.92
217.214	8.53
217.432	6.49
217.651	-63.15
217.869	16.73
218.087	-3.75
218.306	-67.24
218.524	18.77
218.742	59.73
218.96	78.16
219.179	26.96
219.397	-18.09
219.615	117.08
219.833	8.53
220.051	-26.28
220.27	86.36
220.488	6.49
220.706	57.68
220.924	-59.05
221.142	55.64
221.36	33.11
221.578	59.73
221.796	20.82
222.015	-112.3
222.233	35.16
222.451	35.16
222.669	-50.86
222.887	-5.8
223.105	-9.9
223.323	26.96
223.541	22.87
223.759	37.2
223.977	43.35
224.195	76.12
224.413	-11.95
224.631	8.53
224.849	4.44
225.067	26.96
225.285	4.44
225.503	57.68
225.721	-50.86
225.939	45.4
226.157	10.58
226.375	26.96
226.592	-44.71
226.81	-42.67
227.028	61.78
227.246	92.5
227.464	18.77
227.682	-18.09
227.9	24.92
228.117	-18.09
228.335	-50.86
228.553	39.25
228.771	41.3
228.989	57.68
229.206	67.92
229.424	65.88
229.642	0.34
229.86	63.83
230.077	96.6
230.295	-32.43
230.513	59.73
230.731	55.64
230.948	63.83
231.166	49.49
231.384	-40.62
231.601	8.53
231.819	4.44
232.037	29.01
232.254	-38.57
232.472	-40.62
232.689	18.77
232.907	-18.09
233.125	90.45
233.342	-40.62
233.56	-38.57
233.777	76.12
233.995	18.77
234.213	53.59
234.43	45.4
234.648	8.53
234.865	-7.85
235.083	-26.28
235.3	-26.28
235.518	39.25
235.735	53.59
235.953	14.68
236.17	2.39
236.388	-67.24
236.605	18.77
236.822	22.87
237.04	4.44
237.257	-9.9
237.475	6.49
237.692	55.64
237.909	2.39
238.127	6.49
238.344	24.92
238.562	35.16
238.779	22.87
238.996	-5.8
239.214	-89.77
239.431	24.92
239.648	43.35
239.865	33.11
240.083	45.4
240.3	6.49
240.517	-48.81
240.735	14.68
240.952	35.16
241.169	26.96
241.386	0.34
241.603	102.74
241.821	-67.24
242.038	47.44
242.255	10.58
242.472	24.92
242.689	0.34
242.907	100.69
243.124	35.16
243.341	69.97
243.558	63.83
243.775	-22.19
243.992	-20.14
244.209	-22.19
244.426	10.58
244.643	92.5
244.86	8.53
245.078	35.16
245.295	78.16
245.512	12.63
245.729	-5.8
245.946	67.92
246.163	76.12
246.38	-13.99
246.597	-5.8
246.814	55.64
247.031	-40.62
247.248	108.88
247.464	10.58
247.681	-11.95
247.898	-16.04
248.115	2.39
248.332	-46.76
248.549	86.36
248.766	14.68
248.983	16.73
249.2	35.16
249.417	63.83
249.633	-34.47
249.85	39.25
250.067	10.58
250.284	22.87
250.501	53.59
250.717	31.06
250.934	-40.62
251.151	-9.9
251.368	41.3
251.585	96.6
251.801	10.58
252.018	8.53
252.235	43.35
252.451	65.88
252.668	20.82
252.885	76.12
253.102	22.87
253.318	-34.47
253.535	98.64
253.752	55.64
253.968	2.39
254.185	57.68
254.401	-1.71
254.618	47.44
254.835	-22.19
255.051	0.34
255.268	-7.85
255.484	20.82
255.701	31.06
255.917	39.25
256.134	43.35
256.351	37.2
256.567	-5.8
256.784	-28.33
257	-48.81
257.217	14.68
257.433	10.58
257.65	57.68
257.866	24.92
258.082	20.82
258.299	-18.09
258.515	45.4
258.732	35.16
258.948	0.34
259.165	12.63
259.381	53.59
259.597	49.49
259.814	4.44
260.03	-5.8
260.246	57.68
260.463	-3.75
260.679	43.35
260.895	39.25
261.112	39.25
261.328	59.73
261.544	37.2
261.761	26.96
261.977	18.77
262.193	-7.85
262.409	117.08
262.626	35.16
262.842	55.64
263.058	45.4
263.274	-11.95
263.49	6.49
263.707	55.64
263.923	82.26
264.139	-5.8
264.355	37.2
264.571	24.92
264.787	-1.71
265.004	59.73
265.22	35.16
265.436	-3.75
265.652	41.3
265.868	20.82
266.084	-7.85
266.3	18.77
266.516	-28.33
266.732	-5.8
266.948	35.16
267.164	26.96
267.38	24.92
267.596	39.25
267.812	45.4
268.028	59.73
268.244	-16.04
268.46	55.64
268.676	-26.28
268.892	10.58
269.108	-9.9
269.324	18.77
269.54	-13.99
269.756	39.25
269.972	-13.99
270.188	-26.28
270.403	-30.38
270.619	65.88
270.835	72.02
271.051	-5.8
271.267	88.4
271.483	20.82
271.698	-28.33
271.914	53.59
272.13	47.44
272.346	74.07
272.562	-5.8
272.777	18.77
272.993	39.25
273.209	-18.09
273.425	-1.71
273.64	45.4
273.856	-5.8
274.072	22.87
274.287	-13.99
274.503	37.2
274.719	49.49
274.934	8.53
275.15	-34.47
275.366	18.77
275.581	-26.28
275.797	76.12
276.012	90.45
276.228	29.01
276.444	55.64
276.659	31.06
276.875	-38.57
277.09	22.87
277.306	-36.52
277.521	22.87
277.737	2.39
277.952	2.39
278.168	31.06
278.383	16.73
278.599	12.63
278.814	16.73
279.03	-30.38
279.245	96.6
279.461	39.25
279.676	12.63
279.892	-7.85
280.107	35.16
280.322	-50.86
280.538	-22.19
280.753	2.39
280.969	69.97
281.184	12.63
281.399	-13.99
281.615	22.87
281.83	22.87
282.045	-32.43
282.26	-50.86
282.476	10.58
282.691	121.17
282.906	-30.38
283.122	-5.8
283.337	24.92
283.552	80.21
283.767	6.49
283.983	82.26
284.198	-28.33
284.413	76.12
284.628	-22.19
284.843	-22.19
285.058	108.88
285.274	22.87
285.489	18.77
285.704	14.68
285.919	-5.8
286.134	-9.9
286.349	14.68
286.564	14.68
286.779	72.02
286.995	31.06
287.21	-22.19
287.425	-5.8
287.64	10.58
287.855	26.96
288.07	-20.14
288.285	16.73
288.5	94.55
288.715	18.77
288.93	18.77
289.145	10.58
289.36	96.6
289.575	-22.19
289.79	20.82
290.004	-1.71
290.219	96.6
290.434	84.31
290.649	-30.38
290.864	72.02
291.079	-32.43
291.294	-9.9
291.509	-18.09
291.724	82.26
291.938	55.64
292.153	76.12
292.368	-7.85
292.583	14.68
292.798	26.96
293.012	41.3
293.227	78.16
293.442	20.82
293.657	35.16
293.871	72.02
294.086	67.92
294.301	10.58
294.516	-30.38
294.73	57.68
294.945	-5.8
295.16	22.87
295.374	12.63
295.589	55.64
295.804	-1.71
296.018	2.39
296.233	98.64
296.447	10.58
296.662	-9.9
296.877	43.35
297.091	31.06
297.306	74.07
297.52	29.01
297.735	108.88
297.949	41.3
298.164	41.3
298.378	78.16
298.593	4.44
298.807	0.34
299.022	100.69
299.236	125.27
299.451	12.63
299.665	18.77
299.88	-30.38
300.094	37.2
300.309	-3.75
300.523	37.2
300.737	-71.34
300.952	10.58
301.166	76.12
301.381	39.25
301.595	2.39
301.809	51.54
302.024	18.77
302.238	49.49
302.452	65.88
302.667	18.77
302.881	80.21
303.095	88.4
303.309	65.88
303.524	-11.95
303.738	82.26
303.952	-42.67
304.166	86.36
304.381	-5.8
304.595	61.78
304.809	-11.95
305.023	-32.43
305.237	49.49
305.452	-13.99
305.666	43.35
305.88	65.88
306.094	10.58
306.308	14.68
306.522	76.12
306.736	-5.8
306.95	12.63
307.164	86.36
307.379	-1.71
307.593	112.98
307.807	76.12
308.021	110.93
308.235	-34.47
308.449	29.01
308.663	-22.19
308.877	149.84
309.091	63.83
309.305	80.21
309.519	14.68
309.733	108.88
309.947	6.49
310.161	55.64
310.374	8.53
310.588	112.98
310.802	8.53
311.016	22.87
311.23	22.87
311.444	2.39
311.658	80.21
311.872	49.49
312.085	141.65
312.299	78.16
312.513	22.87
312.727	82.26
312.941	69.97
313.154	63.83
313.368	10.58
313.582	43.35
313.796	47.44
314.009	-7.85
314.223	61.78
314.437	45.4
314.651	69.97
314.864	4.44
315.078	-5.8
315.292	14.68
315.505	37.2
315.719	72.02
315.933	2.39
316.146	10.58
316.36	18.77
316.573	-11.95
316.787	82.26
317.001	90.45
317.214	2.39
317.428	33.11
317.641	-28.33
317.855	55.64
318.068	-7.85
318.282	33.11
318.495	0.34
318.709	31.06
318.922	-18.09
319.136	88.4
319.349	35.16
319.563	-9.9
319.776	84.31
319.99	-7.85
320.203	37.2
320.417	8.53
320.63	74.07
320.843	67.92
321.057	39.25
321.27	55.64
321.483	74.07
321.697	49.49
321.91	0.34
322.124	63.83
322.337	65.88
322.55	-24.23
322.763	18.77
322.977	47.44
323.19	16.73
323.403	0.34
323.617	41.3
323.83	-20.14
324.043	74.07
324.256	39.25
324.469	0.34
324.683	55.64
324.896	-13.99
325.109	29.01
325.322	-22.19
325.535	43.35
325.748	49.49
325.962	-11.95
326.175	80.21
326.388	59.73
326.601	76.12
326.814	63.83
327.027	18.77
327.24	92.5
327.453	-28.33
327.666	82.26
327.879	8.53
328.092	33.11
328.305	20.82
328.518	-9.9
328.731	74.07
328.944	33.11
329.157	51.54
329.37	61.78
329.583	82.26
329.796	51.54
330.009	8.53
330.222	26.96
330.435	6.49
330.648	98.64
330.861	6.49
331.073	51.54
331.286	67.92
331.499	69.97
331.712	-30.38
331.925	-22.19
332.138	-22.19
332.35	18.77
332.563	88.4
332.776	74.07
332.989	-13.99
333.202	43.35
333.414	-38.57
333.627	39.25
333.84	-9.9
334.053	-7.85
334.265	-22.19
334.478	47.44
334.691	51.54
334.903	-24.23
335.116	-24.23
335.329	47.44
335.541	92.5
335.754	57.68
335.966	43.35
336.179	102.74
336.392	10.58
336.604	51.54
336.817	67.92
337.029	51.54
337.242	76.12
337.454	39.25
337.667	65.88
337.88	4.44
338.092	-5.8
338.305	39.25
338.517	6.49
338.729	22.87
338.942	49.49
339.154	35.16
339.367	-16.04
339.579	10.58
339.792	41.3
340.004	63.83
340.217	47.44
340.429	49.49
340.641	-11.95
340.854	-1.71
341.066	10.58
341.278	49.49
341.491	119.12
341.703	31.06
341.915	-7.85
342.128	53.59
342.34	88.4
342.552	35.16
342.764	102.74
342.977	57.68
343.189	2.39
343.401	2.39
343.613	12.63
343.826	4.44
344.038	-13.99
344.25	39.25
344.462	-52.91
344.674	33.11
344.886	0.34
345.099	121.17
345.311	41.3
345.523	18.77
345.735	-65.19
345.947	12.63
346.159	88.4
346.371	8.53
346.583	26.96
346.795	65.88
347.007	51.54
347.219	59.73
347.431	-1.71
347.643	47.44
347.855	43.35
348.067	33.11
348.279	16.73
348.491	16.73
348.703	115.03
348.915	47.44
349.127	6.49
349.339	10.58
349.551	0.34
349.763	43.35
349.975	51.54
350.187	39.25
350.399	43.35
350.61	72.02
350.822	-7.85
351.034	61.78
351.246	51.54
351.458	82.26
351.669	24.92
351.881	67.92
352.093	90.45
352.305	39.25
352.517	-7.85
352.728	104.79
352.94	59.73
353.152	106.84
353.363	24.92
353.575	72.02
353.787	43.35
353.999	29.01
354.21	51.54
354.422	-30.38
354.633	57.68
354.845	115.03
355.057	51.54
355.268	18.77
355.48	47.44
355.692	-11.95
355.903	45.4
356.115	14.68
356.326	-24.23
356.538	78.16
356.749	18.77
356.961	45.4
357.172	104.79
357.384	-71.34
357.595	94.55
357.807	76.12
358.018	-1.71
358.23	-36.52
358.441	108.88
358.653	100.69
358.864	80.21
359.075	31.06
359.287	35.16
359.498	16.73
359.709	-22.19
359.921	35.16
360.132	47.44
360.344	26.96
360.555	43.35
360.766	63.83
360.977	-50.86
361.189	88.4
361.4	-32.43
361.611	72.02
361.823	76.12
362.034	92.5
362.245	2.39
362.456	18.77
362.667	16.73
362.879	127.32
363.09	22.87
363.301	63.83
363.512	-22.19
363.723	96.6
363.935	41.3
364.146	43.35
364.357	43.35
364.568	-16.04
364.779	35.16
364.99	74.07
365.201	-13.99
365.412	102.74
365.623	-83.63
365.834	35.16
366.045	35.16
366.256	37.2
366.467	24.92
366.678	41.3
366.889	164.18
367.1	112.98
367.311	92.5
367.522	26.96
367.733	16.73
367.944	-22.19
368.155	84.31
368.366	100.69
368.577	2.39
368.788	92.5
368.999	2.39
369.209	125.27
369.42	117.08
369.631	100.69
369.842	55.64
370.053	22.87
370.264	108.88
370.474	74.07
370.685	65.88
370.896	-5.8
371.107	33.11
371.317	53.59
371.528	57.68
371.739	84.31
371.95	55.64
372.16	76.12
372.371	16.73
372.582	29.01
372.792	84.31
373.003	74.07
373.214	31.06
373.424	26.96
373.635	26.96
373.846	104.79
374.056	55.64
374.267	72.02
374.477	31.06
374.688	51.54
374.898	31.06
375.109	22.87
375.319	37.2
375.53	108.88
375.74	121.17
375.951	39.25
376.161	33.11
376.372	4.44
376.582	10.58
376.793	59.73
377.003	26.96
377.214	69.97
377.424	12.63
377.635	63.83
377.845	41.3
378.055	141.65
378.266	51.54
378.476	63.83
378.686	26.96
378.897	-32.43
379.107	61.78
379.317	-30.38
379.528	41.3
379.738	16.73
379.948	-7.85
380.158	69.97
380.369	127.32
380.579	47.44
380.789	14.68
380.999	104.79
381.21	33.11
381.42	112.98
381.63	102.74
381.84	35.16
382.05	88.4
382.261	33.11
382.471	127.32
382.681	55.64
382.891	59.73
383.101	76.12
383.311	-48.81
383.521	65.88
383.731	59.73
383.941	108.88
384.151	112.98
384.361	69.97
384.571	14.68
384.781	12.63
384.991	51.54
385.201	129.36
385.411	55.64
385.621	76.12
385.831	74.07
386.041	6.49
386.251	57.68
386.461	88.4
386.671	51.54
386.881	139.6
387.091	102.74
387.301	59.73
387.511	57.68
387.72	104.79
387.93	129.36
388.14	16.73
388.35	35.16
388.56	84.31
388.769	53.59
388.979	82.26
389.189	35.16
389.399	84.31
389.609	69.97
389.818	41.3
390.028	24.92
390.238	96.6
390.447	59.73
390.657	104.79
390.867	67.92
391.076	47.44
391.286	72.02
391.496	82.26
391.705	65.88
391.915	67.92
392.125	72.02
392.334	72.02
392.544	98.64
392.753	24.92
392.963	59.73
393.172	45.4
393.382	65.88
393.591	158.03
393.801	2.39
394.01	160.08
394.22	57.68
394.429	106.84
394.639	14.68
394.848	94.55
395.058	147.8
395.267	82.26
395.477	88.4
395.686	123.22
395.895	121.17
396.105	131.41
396.314	139.6
396.524	76.12
396.733	158.03
396.942	104.79
397.152	149.84
397.361	100.69
397.57	80.21
397.78	63.83
397.989	57.68
398.198	108.88
398.407	63.83
398.617	125.27
398.826	84.31
399.035	43.35
399.244	43.35
399.453	94.55
399.663	147.8
399.872	166.23
400.081	98.64
400.29	117.08
400.499	67.92
400.708	76.12
400.917	104.79
401.127	76.12
401.336	127.32
401.545	117.08
401.754	162.13
401.963	186.71
402.172	123.22
402.381	139.6
402.59	125.27
402.799	149.84
403.008	203.09
403.217	137.56
403.426	76.12
403.635	98.64
403.844	198.99
404.053	102.74
404.262	90.45
404.471	192.85
404.68	151.89
404.888	155.99
405.097	106.84
405.306	153.94
405.515	198.99
405.724	158.03
405.933	221.52
406.142	190.8
406.35	186.71
406.559	172.37
406.768	182.61
406.977	219.47
407.185	248.15
407.394	295.25
407.603	233.81
407.812	264.53
408.02	305.49
408.229	313.68
408.438	221.52
408.646	297.3
408.855	313.68
409.064	305.49
409.272	325.97
409.481	350.54
409.69	313.68
409.898	301.39
410.107	457.04
410.315	399.7
410.524	373.07
410.733	348.5
410.941	346.45
411.15	399.7
411.358	461.13
411.567	524.62
411.775	502.09
411.984	471.37
412.192	495.95
412.401	473.42
412.609	663.88
412.818	581.96
413.026	594.25
413.234	608.59
413.443	629.07
413.651	649.55
413.86	627.02
414.068	805.19
414.276	782.67
414.485	880.97
414.693	797
414.901	850.25
415.11	846.15
415.318	930.12
415.526	880.97
415.734	1005.89
415.943	1044.81
416.151	966.98
416.359	1012.04
416.567	1093.96
416.776	1040.71
416.984	1106.24
417.192	1216.83
417.4	1261.89
417.608	1280.32
417.817	1151.3
418.025	1411.39
418.233	1298.75
418.441	1409.34
418.649	1499.45
418.857	1509.69
419.065	1657.15
419.273	1573.18
419.481	1599.8
419.689	1700.16
419.897	1952.06
420.105	2076.98
420.313	1968.44
420.521	2056.5
420.729	1947.96
420.937	2122.04
421.145	2240.82
421.353	2353.46
421.561	2425.14
421.769	2484.53
421.977	2605.36
422.185	2457.9
422.393	2693.42
422.601	2918.7
422.809	2847.02
423.017	2847.02
423.224	2961.7
423.432	3012.9
423.64	3092.77
423.848	3309.86
424.056	3320.1
424.263	3508.51
424.471	3588.38
424.679	3469.6
424.887	3854.62
425.094	3914.01
425.302	3918.11
425.51	4149.53
425.718	4202.77
425.925	4243.73
426.133	4456.72
426.341	4657.42
426.548	4929.8
426.756	4839.69
426.964	4903.18
427.171	5273.86
427.379	5396.74
427.586	5468.42
427.794	5599.49
428.001	5730.56
428.209	6138.1
428.417	5935.35
428.624	6580.46
428.832	6461.68
429.039	6482.16
429.247	6412.53
429.454	7114.98
429.662	7469.28
429.869	6998.25
430.076	7512.29
430.284	7244.01
430.491	7669.98
430.699	8089.82
430.906	7921.88
431.114	8304.85
431.321	8403.16
431.528	8706.26
431.736	9111.75
431.943	9652.42
432.15	9230.54
432.358	9423.05
432.565	9820.35
432.772	9904.32
432.979	10459.32
433.187	10686.64
433.394	10813.62
433.601	11458.73
433.808	11417.77
434.016	11428.01
434.223	11839.65
434.43	12822.67
434.637	12265.63
434.844	12957.84
435.052	13535.37
435.259	13240.46
435.466	13254.8
435.673	13183.12
435.88	14012.54
436.087	14596.21
436.294	14921.84
436.501	14432.38
436.708	14610.55
436.915	15233.13
437.122	16070.75
437.329	15908.96
437.537	16228.45
437.743	16595.03
437.95	16371.8
438.157	17461.32
438.364	17723.46
438.571	17864.77
438.778	17842.25
438.985	19970.08
439.192	18989.11
439.399	19501.1
439.606	18935.86
439.813	20109.35
440.02	21467.15
440.227	21135.38
440.433	20846.62
440.64	21418
440.847	21235.73
441.054	21776.39
441.261	23242.74
441.467	22757.37
441.674	23545.84
441.881	24166.37
442.088	23977.96
442.294	23963.62
442.501	24739.8
442.708	24971.22
442.914	25929.67
443.121	26949.56
443.328	26314.69
443.534	28233.64
443.741	27465.65
443.948	27086.78
444.154	29329.3
444.361	29005.72
444.568	29425.56
444.774	29327.25
444.981	29208.47
445.187	30138.25
445.394	31516.53
445.6	30994.3
445.807	34096.97
446.013	32534.37
446.22	33038.17
446.426	34541.38
446.633	34795.33
446.839	35946.29
447.046	33861.46
447.252	36034.35
447.459	36290.35
447.665	35819.31
447.871	37738.26
448.078	39649.02
448.284	36951.84
448.491	38106.9
448.697	39831.29
448.903	40380.14
449.11	40568.55
449.316	39755.51
449.522	40410.86
449.728	41397.98
449.935	41778.9
450.141	41498.33
450.347	43005.64
450.553	41324.25
450.76	42006.23
450.966	43273.92
451.172	42403.53
451.378	43448
451.584	42761.93
451.791	43667.13
451.997	43536.06
452.203	44349.1
452.409	44027.57
452.615	44086.96
452.821	42485.45
453.027	42008.28
453.233	44326.58
453.44	42073.81
453.646	42694.35
453.852	43179.71
454.058	43738.81
454.264	41942.74
454.47	43144.9
454.676	42129.11
454.882	43523.77
455.088	39544.57
455.294	40402.67
455.5	40609.51
455.705	41160.42
455.911	39452.41
456.117	38735.62
456.323	38436.62
456.529	36161.33
456.735	37506.84
456.941	36888.35
457.147	36208.43
457.352	35456.82
457.558	34516.81
457.764	34770.75
457.97	34150.22
458.176	33591.12
458.381	33341.27
458.587	31766.38
458.793	31641.46
458.999	29958.03
459.204	32272.23
459.41	31506.29
459.616	29304.73
459.821	29695.89
460.027	29269.91
460.233	28387.24
460.438	26918.84
460.644	27527.09
460.85	26382.27
461.055	25909.19
461.261	25722.83
461.466	24008.68
461.672	23408.62
461.878	24666.08
462.083	23201.78
462.289	22788.09
462.494	22902.78
462.7	21700.62
462.905	21209.11
463.111	21710.86
463.316	21940.23
463.522	21426.19
463.727	21078.04
463.932	21014.55
464.138	20961.3
464.343	21282.83
464.549	20830.23
464.754	21602.32
464.959	21071.89
465.165	20879.38
465.37	20078.63
465.575	19531.82
465.781	20555.8
465.986	20633.63
466.191	19681.32
466.397	19402.8
466.602	18296.89
466.807	19236.91
467.012	19263.54
467.218	19202.1
