Data from USB4F104151__16__10-21-14-850.txt Node

Date: Wed Mar 12 10:21:14 EDT 2025
User: louis
Spectrometer: USB4F10415
Trigger mode: 4
Integration Time (sec): 3.000000E-2
Scans to average: 1
Electric dark correction enabled: true
Nonlinearity correction enabled: false
Boxcar width: 0
XAxis mode: Wavelengths
Number of Pixels in Spectrum: 3648
>>>>>Begin Spectral Data<<<<<
178.204	-139.6
178.424	-139.6
178.644	-139.6
178.864	-39.25
179.084	-145.75
179.304	5.8
179.524	83.63
179.744	18.09
179.964	-2.39
180.184	13.99
180.404	34.47
180.624	-47.44
180.844	36.52
181.064	-41.3
181.283	-47.44
181.503	-10.58
181.723	-43.35
181.943	-10.58
182.163	-61.78
182.383	-51.54
182.602	-20.82
182.822	50.86
183.042	71.34
183.262	-14.68
183.482	7.85
183.701	18.09
183.921	24.23
184.141	-55.64
184.361	30.38
184.58	-0.34
184.8	5.8
185.02	-47.44
185.239	91.82
185.459	-22.87
185.679	71.34
185.898	5.8
186.118	-2.39
186.338	-24.92
186.557	20.14
186.777	-20.82
186.997	59.05
187.216	-20.82
187.436	54.95
187.655	16.04
187.875	-41.3
188.095	16.04
188.314	18.09
188.534	57
188.753	-26.96
188.973	16.04
189.192	9.9
189.412	-22.87
189.631	71.34
189.851	-26.96
190.07	75.43
190.29	24.23
190.509	-26.96
190.729	-20.82
190.948	30.38
191.168	77.48
191.387	-14.68
191.607	3.75
191.826	38.57
192.045	-2.39
192.265	18.09
192.484	-6.49
192.704	30.38
192.923	-24.92
193.142	28.33
193.362	-8.53
193.581	81.58
193.8	85.67
194.02	75.43
194.239	-24.92
194.458	24.23
194.678	40.62
194.897	44.71
195.116	28.33
195.335	75.43
195.555	18.09
195.774	61.1
195.993	54.95
196.212	-53.59
196.432	63.15
196.651	-8.53
196.87	34.47
197.089	134.82
197.308	50.86
197.528	46.76
197.747	13.99
197.966	16.04
198.185	54.95
198.404	18.09
198.623	-80.21
198.842	40.62
199.062	48.81
199.281	61.1
199.5	73.39
199.719	36.52
199.938	-29.01
200.157	48.81
200.376	3.75
200.595	-20.82
200.814	-2.39
201.033	-43.35
201.252	-22.87
201.471	61.1
201.69	28.33
201.909	-45.4
202.128	-20.82
202.347	128.68
202.566	18.09
202.785	20.14
203.004	-43.35
203.223	-2.39
203.442	57
203.661	13.99
203.879	28.33
204.098	36.52
204.317	5.8
204.536	5.8
204.755	9.9
204.974	-31.06
205.193	-0.34
205.411	-14.68
205.63	1.71
205.849	-8.53
206.068	67.24
206.287	18.09
206.505	-49.49
206.724	26.28
206.943	18.09
207.162	-74.07
207.381	30.38
207.599	-10.58
207.818	69.29
208.037	50.86
208.255	38.57
208.474	34.47
208.693	-31.06
208.911	-20.82
209.13	-12.63
209.349	-10.58
209.567	1.71
209.786	-41.3
210.005	-39.25
210.223	5.8
210.442	16.04
210.661	9.9
210.879	16.04
211.098	34.47
211.316	-10.58
211.535	16.04
211.753	-6.49
211.972	36.52
212.191	1.71
212.409	24.23
212.628	48.81
212.846	-10.58
213.065	28.33
213.283	46.76
213.502	36.52
213.72	87.72
213.938	22.19
214.157	22.19
214.375	9.9
214.594	-59.73
214.812	65.19
215.031	-39.25
215.249	-26.96
215.467	18.09
215.686	26.28
215.904	-2.39
216.122	16.04
216.341	54.95
216.559	26.28
216.778	-12.63
216.996	59.05
217.214	85.67
217.432	73.39
217.651	22.19
217.869	-6.49
218.087	73.39
218.306	40.62
218.524	32.43
218.742	5.8
218.96	-16.73
219.179	-26.96
219.397	26.28
219.615	38.57
219.833	-39.25
220.051	52.91
220.27	38.57
220.488	1.71
220.706	24.23
220.924	-18.77
221.142	-4.44
221.36	-14.68
221.578	24.23
221.796	-4.44
222.015	22.19
222.233	9.9
222.451	48.81
222.669	-49.49
222.887	59.05
223.105	-24.92
223.323	-29.01
223.541	1.71
223.759	100.01
223.977	-51.54
224.195	57
224.413	5.8
224.631	77.48
224.849	34.47
225.067	108.2
225.285	9.9
225.503	75.43
225.721	-59.73
225.939	75.43
226.157	-22.87
226.375	59.05
226.592	-49.49
226.81	-45.4
227.028	13.99
227.246	11.95
227.464	18.09
227.682	13.99
227.9	-26.96
228.117	108.2
228.335	57
228.553	30.38
228.771	32.43
228.989	5.8
229.206	18.09
229.424	71.34
229.642	59.05
229.86	18.09
230.077	63.15
230.295	7.85
230.513	71.34
230.731	85.67
230.948	38.57
231.166	73.39
231.384	20.14
231.601	65.19
231.819	44.71
232.037	48.81
232.254	-14.68
232.472	1.71
232.689	-47.44
232.907	83.63
233.125	54.95
233.342	46.76
233.56	18.09
233.777	-2.39
233.995	42.67
234.213	52.91
234.43	13.99
234.648	5.8
234.865	-2.39
235.083	65.19
235.3	-49.49
235.518	36.52
235.735	36.52
235.953	28.33
236.17	-20.82
236.388	22.19
236.605	-12.63
236.822	-14.68
237.04	100.01
237.257	-10.58
237.475	22.19
237.692	-74.07
237.909	75.43
238.127	-72.02
238.344	57
238.562	38.57
238.779	-22.87
238.996	-16.73
239.214	-8.53
239.431	83.63
239.648	5.8
239.865	-2.39
240.083	28.33
240.3	-47.44
240.517	-12.63
240.735	42.67
240.952	57
241.169	81.58
241.386	89.77
241.603	73.39
241.821	-45.4
242.038	-12.63
242.255	50.86
242.472	5.8
242.689	26.28
242.907	28.33
243.124	34.47
243.341	71.34
243.558	-16.73
243.775	38.57
243.992	-90.45
244.209	-4.44
244.426	71.34
244.643	89.77
244.86	-20.82
245.078	26.28
245.295	9.9
245.512	44.71
245.729	-45.4
245.946	120.49
246.163	-10.58
246.38	5.8
246.597	7.85
246.814	83.63
247.031	34.47
247.248	79.53
247.464	54.95
247.681	9.9
247.898	-37.2
248.115	18.09
248.332	44.71
248.549	22.19
248.766	114.34
248.983	9.9
249.2	32.43
249.417	63.15
249.633	40.62
249.85	97.96
250.067	1.71
250.284	-33.11
250.501	71.34
250.717	50.86
250.934	30.38
251.151	-33.11
251.368	-10.58
251.585	16.04
251.801	79.53
252.018	-43.35
252.235	-35.16
252.451	-31.06
252.668	34.47
252.885	71.34
253.102	87.72
253.318	69.29
253.535	67.24
253.752	44.71
253.968	13.99
254.185	42.67
254.401	5.8
254.618	100.01
254.835	30.38
255.051	3.75
255.268	38.57
255.484	11.95
255.701	-10.58
255.917	91.82
256.134	30.38
256.351	32.43
256.567	-10.58
256.784	34.47
257	22.19
257.217	-22.87
257.433	16.04
257.65	93.87
257.866	83.63
258.082	24.23
258.299	28.33
258.515	18.09
258.732	36.52
258.948	9.9
259.165	-20.82
259.381	61.1
259.597	54.95
259.814	-63.83
260.03	-31.06
260.246	-14.68
260.463	30.38
260.679	32.43
260.895	50.86
261.112	42.67
261.328	-31.06
261.544	-43.35
261.761	57
261.977	67.24
262.193	5.8
262.409	-0.34
262.626	-10.58
262.842	-63.83
263.058	-33.11
263.274	83.63
263.49	132.78
263.707	44.71
263.923	42.67
264.139	-59.73
264.355	13.99
264.571	7.85
264.787	22.19
265.004	57
265.22	-0.34
265.436	-14.68
265.652	9.9
265.868	132.78
266.084	22.19
266.3	-39.25
266.516	-14.68
266.732	3.75
266.948	1.71
267.164	-51.54
267.38	28.33
267.596	-24.92
267.812	34.47
268.028	26.28
268.244	9.9
268.46	87.72
268.676	-16.73
268.892	3.75
269.108	5.8
269.324	-22.87
269.54	-45.4
269.756	61.1
269.972	-39.25
270.188	65.19
270.403	-37.2
270.619	122.54
270.835	46.76
271.051	-39.25
271.267	-24.92
271.483	-10.58
271.698	40.62
271.914	85.67
272.13	-55.64
272.346	26.28
272.562	42.67
272.777	11.95
272.993	1.71
273.209	65.19
273.425	11.95
273.64	-26.96
273.856	57
274.072	-4.44
274.287	-41.3
274.503	63.15
274.719	42.67
274.934	13.99
275.15	67.24
275.366	16.04
275.581	16.04
275.797	116.39
276.012	73.39
276.228	22.19
276.444	32.43
276.659	-29.01
276.875	57
277.09	24.23
277.306	-18.77
277.521	73.39
277.737	75.43
277.952	9.9
278.168	54.95
278.383	-31.06
278.599	-2.39
278.814	44.71
279.03	-10.58
279.245	-33.11
279.461	54.95
279.676	30.38
279.892	-43.35
280.107	-26.96
280.322	-0.34
280.538	5.8
280.753	-72.02
280.969	67.24
281.184	7.85
281.399	126.63
281.615	7.85
281.83	30.38
282.045	-41.3
282.26	-8.53
282.476	5.8
282.691	11.95
282.906	-33.11
283.122	63.15
283.337	5.8
283.552	44.71
283.767	-8.53
283.983	26.28
284.198	38.57
284.413	-14.68
284.628	57
284.843	18.09
285.058	85.67
285.274	71.34
285.489	24.23
285.704	42.67
285.919	-65.88
286.134	-20.82
286.349	75.43
286.564	-0.34
286.779	59.05
286.995	77.48
287.21	20.14
287.425	40.62
287.64	1.71
287.855	34.47
288.07	-6.49
288.285	13.99
288.5	32.43
288.715	-20.82
288.93	87.72
289.145	42.67
289.36	46.76
289.575	18.09
289.79	81.58
290.004	28.33
290.219	-6.49
290.434	7.85
290.649	-8.53
290.864	-24.92
291.079	-2.39
291.294	91.82
291.509	-8.53
291.724	34.47
291.938	9.9
292.153	50.86
292.368	-39.25
292.583	44.71
292.798	120.49
293.012	-2.39
293.227	30.38
293.442	52.91
293.657	57
293.871	89.77
294.086	48.81
294.301	50.86
294.516	89.77
294.73	-4.44
294.945	50.86
295.16	-24.92
295.374	85.67
295.589	-26.96
295.804	32.43
296.018	24.23
296.233	34.47
296.447	44.71
296.662	5.8
296.877	73.39
297.091	42.67
297.306	26.28
297.52	-16.73
297.735	-12.63
297.949	-14.68
298.164	140.97
298.378	54.95
298.593	-37.2
298.807	18.09
299.022	18.09
299.236	67.24
299.451	95.91
299.665	30.38
299.88	5.8
300.094	67.24
300.309	-2.39
300.523	63.15
300.737	-22.87
300.952	38.57
301.166	40.62
301.381	-22.87
301.595	-8.53
301.809	34.47
302.024	75.43
302.238	36.52
302.452	81.58
302.667	24.23
302.881	69.29
303.095	9.9
303.309	3.75
303.524	-20.82
303.738	26.28
303.952	63.15
304.166	22.19
304.381	-8.53
304.595	116.39
304.809	7.85
305.023	-6.49
305.237	42.67
305.452	1.71
305.666	54.95
305.88	22.19
306.094	1.71
306.308	50.86
306.522	50.86
306.736	-4.44
306.95	83.63
307.164	-6.49
307.379	42.67
307.593	114.34
307.807	42.67
308.021	48.81
308.235	13.99
308.449	-43.35
308.663	-31.06
308.877	26.28
309.091	46.76
309.305	18.09
309.519	24.23
309.733	36.52
309.947	-0.34
310.161	30.38
310.374	42.67
310.588	95.91
310.802	-8.53
311.016	1.71
311.23	34.47
311.444	57
311.658	32.43
311.872	-2.39
312.085	50.86
312.299	46.76
312.513	36.52
312.727	24.23
312.941	5.8
313.154	-14.68
313.368	40.62
313.582	30.38
313.796	20.14
314.009	22.19
314.223	46.76
314.437	79.53
314.651	75.43
314.864	16.04
315.078	20.14
315.292	42.67
315.505	-49.49
315.719	-6.49
315.933	7.85
316.146	34.47
316.36	-10.58
316.573	38.57
316.787	-31.06
317.001	3.75
317.214	-16.73
317.428	7.85
317.641	-10.58
317.855	9.9
318.068	-12.63
318.282	75.43
318.495	18.09
318.709	40.62
318.922	-31.06
319.136	44.71
319.349	26.28
319.563	34.47
319.776	32.43
319.99	-35.16
320.203	28.33
320.417	9.9
320.63	48.81
320.843	71.34
321.057	50.86
321.27	-2.39
321.483	-6.49
321.697	32.43
321.91	93.87
322.124	57
322.337	63.15
322.55	65.19
322.763	48.81
322.977	-12.63
323.19	22.19
323.403	63.15
323.617	42.67
323.83	71.34
324.043	-18.77
324.256	9.9
324.469	-22.87
324.683	63.15
324.896	-18.77
325.109	106.15
325.322	-24.92
325.535	120.49
325.748	-8.53
325.962	54.95
326.175	108.2
326.388	11.95
326.601	89.77
326.814	91.82
327.027	91.82
327.24	106.15
327.453	26.28
327.666	36.52
327.879	61.1
328.092	67.24
328.305	38.57
328.518	-12.63
328.731	13.99
328.944	63.15
329.157	-2.39
329.37	54.95
329.583	-0.34
329.796	50.86
330.009	-35.16
330.222	63.15
330.435	79.53
330.648	54.95
330.861	93.87
331.073	3.75
331.286	5.8
331.499	59.05
331.712	59.05
331.925	13.99
332.138	24.23
332.35	-33.11
332.563	83.63
332.776	40.62
332.989	34.47
333.202	-29.01
333.414	24.23
333.627	42.67
333.84	22.19
334.053	67.24
334.265	-10.58
334.478	38.57
334.691	54.95
334.903	9.9
335.116	42.67
335.329	24.23
335.541	-45.4
335.754	73.39
335.966	9.9
336.179	-31.06
336.392	40.62
336.604	-8.53
336.817	110.25
337.029	54.95
337.242	16.04
337.454	57
337.667	-6.49
337.88	30.38
338.092	-6.49
338.305	22.19
338.517	5.8
338.729	112.3
338.942	46.76
339.154	38.57
339.367	-57.68
339.579	85.67
339.792	-137.56
340.004	42.67
340.217	73.39
340.429	69.29
340.641	-29.01
340.854	18.09
341.066	-10.58
341.278	116.39
341.491	114.34
341.703	24.23
341.915	-22.87
342.128	108.2
342.34	50.86
342.552	-57.68
342.764	-31.06
342.977	46.76
343.189	57
343.401	-10.58
343.613	-6.49
343.826	-0.34
344.038	-10.58
344.25	112.3
344.462	63.15
344.674	18.09
344.886	122.54
345.099	48.81
345.311	9.9
345.523	-49.49
345.735	-31.06
345.947	63.15
346.159	63.15
346.371	7.85
346.583	-43.35
346.795	71.34
347.007	42.67
347.219	30.38
347.431	97.96
347.643	124.58
347.855	48.81
348.067	50.86
348.279	-8.53
348.491	-41.3
348.703	63.15
348.915	77.48
349.127	61.1
349.339	89.77
349.551	13.99
349.763	-12.63
349.975	48.81
350.187	44.71
350.399	69.29
350.61	-2.39
350.822	-0.34
351.034	126.63
351.246	-59.73
351.458	38.57
351.669	34.47
351.881	71.34
352.093	73.39
352.305	71.34
352.517	26.28
352.728	65.19
352.94	63.15
353.152	13.99
353.363	-37.2
353.575	102.06
353.787	7.85
353.999	13.99
354.21	-6.49
354.422	18.09
354.633	93.87
354.845	81.58
355.057	32.43
355.268	54.95
355.48	124.58
355.692	-2.39
355.903	-43.35
356.115	42.67
356.326	34.47
356.538	130.73
356.749	52.91
356.961	91.82
357.172	52.91
357.384	-31.06
357.595	114.34
357.807	-8.53
358.018	-51.54
358.23	63.15
358.441	61.1
358.653	9.9
358.864	-51.54
359.075	83.63
359.287	38.57
359.498	97.96
359.709	106.15
359.921	1.71
360.132	32.43
360.344	57
360.555	-24.92
360.766	5.8
360.977	52.91
361.189	-0.34
361.4	-6.49
361.611	34.47
361.823	34.47
362.034	7.85
362.245	-51.54
362.456	-4.44
362.667	-0.34
362.879	-12.63
363.09	63.15
363.301	69.29
363.512	-57.68
363.723	5.8
363.935	42.67
364.146	155.3
364.357	40.62
364.568	104.11
364.779	-33.11
364.99	114.34
365.201	-6.49
365.412	30.38
365.623	28.33
365.834	-33.11
366.045	54.95
366.256	52.91
366.467	1.71
366.678	22.19
366.889	30.38
367.1	40.62
367.311	44.71
367.522	1.71
367.733	-59.73
367.944	124.58
368.155	-10.58
368.366	-47.44
368.577	34.47
368.788	48.81
368.999	3.75
369.209	22.19
369.42	52.91
369.631	140.97
369.842	38.57
370.053	57
370.264	83.63
370.474	-0.34
370.685	50.86
370.896	52.91
371.107	91.82
371.317	69.29
371.528	93.87
371.739	89.77
371.95	106.15
372.16	108.2
372.371	81.58
372.582	18.09
372.792	42.67
373.003	83.63
373.214	-4.44
373.424	30.38
373.635	20.14
373.846	24.23
374.056	-29.01
374.267	-2.39
374.477	73.39
374.688	-2.39
374.898	9.9
375.109	59.05
375.319	42.67
375.53	85.67
375.74	83.63
375.951	20.14
376.161	38.57
376.372	73.39
376.582	34.47
376.793	100.01
377.003	83.63
377.214	100.01
377.424	59.05
377.635	100.01
377.845	91.82
378.055	89.77
378.266	44.71
378.476	-12.63
378.686	30.38
378.897	36.52
379.107	73.39
379.317	112.3
379.528	24.23
379.738	69.29
379.948	71.34
380.158	13.99
380.369	11.95
380.579	13.99
380.789	38.57
380.999	91.82
381.21	-6.49
381.42	75.43
381.63	-20.82
381.84	91.82
382.05	38.57
382.261	38.57
382.471	50.86
382.681	50.86
382.891	34.47
383.101	85.67
383.311	5.8
383.521	59.05
383.731	95.91
383.941	42.67
384.151	48.81
384.361	42.67
384.571	24.23
384.781	54.95
384.991	116.39
385.201	57
385.411	18.09
385.621	34.47
385.831	67.24
386.041	81.58
386.251	100.01
386.461	79.53
386.671	67.24
386.881	28.33
387.091	22.19
387.301	75.43
387.511	100.01
387.72	24.23
387.93	87.72
388.14	-20.82
388.35	73.39
388.56	71.34
388.769	67.24
388.979	173.74
389.189	-33.11
389.399	75.43
389.609	104.11
389.818	108.2
390.028	83.63
390.238	22.19
390.447	110.25
390.657	44.71
390.867	67.24
391.076	59.05
391.286	-37.2
391.496	104.11
391.705	91.82
391.915	91.82
392.125	59.05
392.334	38.57
392.544	24.23
392.753	71.34
392.963	79.53
393.172	97.96
393.382	18.09
393.591	65.19
393.801	30.38
394.01	57
394.22	-4.44
394.429	1.71
394.639	7.85
394.848	106.15
395.058	153.26
395.267	32.43
395.477	102.06
395.686	161.45
395.895	163.5
396.105	110.25
396.314	77.48
396.524	59.05
396.733	67.24
396.942	169.64
397.152	149.16
397.361	71.34
397.57	87.72
397.78	77.48
397.989	69.29
398.198	83.63
398.407	165.54
398.617	42.67
398.826	120.49
399.035	102.06
399.244	83.63
399.453	87.72
399.663	126.63
399.872	214.7
400.081	95.91
400.29	91.82
400.499	110.25
400.708	108.2
400.917	97.96
401.127	73.39
401.336	122.54
401.545	157.35
401.754	59.05
401.963	151.21
402.172	116.39
402.381	65.19
402.59	118.44
402.799	42.67
403.008	108.2
403.217	120.49
403.426	112.3
403.635	52.91
403.844	165.54
404.053	104.11
404.262	155.3
404.471	188.07
404.68	122.54
404.888	186.02
405.097	73.39
405.306	132.78
405.515	181.93
405.724	204.46
405.933	216.74
406.142	202.41
406.35	220.84
406.559	210.6
406.768	161.45
406.977	190.12
407.185	226.98
407.394	212.65
407.603	214.7
407.812	282.28
408.02	231.08
408.229	255.65
408.438	239.27
408.646	282.28
408.855	231.08
409.064	239.27
409.272	210.6
409.481	370.34
409.69	261.8
409.898	304.81
410.107	370.34
410.315	329.38
410.524	378.53
410.733	308.9
410.941	345.77
411.15	409.25
411.358	394.92
411.567	495.27
411.775	421.54
411.984	462.5
412.192	476.84
412.401	472.74
412.609	538.27
412.818	515.75
413.026	534.18
413.234	640.67
413.443	566.95
413.651	560.8
413.86	728.74
414.068	661.15
414.276	738.98
414.485	593.57
414.693	646.82
414.901	747.17
415.11	763.55
415.318	738.98
415.526	802.46
415.734	876.19
415.943	878.24
416.151	915.1
416.359	972.44
416.567	808.61
416.776	960.16
416.984	1050.27
417.192	1123.99
417.4	1146.52
417.608	980.64
417.817	1203.86
418.025	1222.3
418.233	1257.11
418.441	1253.02
418.649	1205.91
418.857	1287.83
419.065	1388.18
419.273	1425.04
419.481	1531.54
419.689	1439.38
419.897	1664.66
420.105	1640.08
420.313	1666.71
420.521	1722
420.729	1861.26
420.937	1838.73
421.145	1842.83
421.353	1963.66
421.561	2070.16
421.769	2145.93
421.977	2225.8
422.185	2199.18
422.393	2543.24
422.601	2545.28
422.809	2475.65
423.017	2516.61
423.224	2526.85
423.432	2657.92
423.64	2702.98
423.848	3016.32
424.056	2889.34
424.263	3083.9
424.471	3184.25
424.679	3237.5
424.887	3343.99
425.094	3499.64
425.302	3632.76
425.51	3563.12
425.718	3630.71
425.925	3726.96
426.133	3915.37
426.341	4111.98
426.548	4234.86
426.756	4286.06
426.964	4435.56
427.171	4523.62
427.379	4720.23
427.586	4824.67
427.794	5006.94
428.001	5068.38
428.209	5426.78
428.417	5328.47
428.624	5727.83
428.832	5602.9
429.039	5680.72
429.247	5697.11
429.454	6248.01
429.662	6547.01
429.869	6223.44
430.076	6661.7
430.284	6461
430.491	6719.04
430.699	6964.8
430.906	7128.64
431.114	7226.94
431.321	7583.29
431.528	7530.04
431.736	8126
431.943	8484.39
432.15	8226.35
432.358	8279.6
432.565	8734.25
432.772	8793.64
432.979	9143.84
433.187	9514.52
433.394	9233.95
433.601	10063.38
433.808	10030.61
434.016	9793.05
434.223	10493.45
434.43	11013.63
434.637	10894.85
434.844	11673.08
435.052	11769.34
435.259	11404.8
435.466	11722.23
435.673	11640.31
435.88	12504.56
436.087	12961.25
436.294	12912.1
436.501	12731.88
436.708	12908.01
436.915	13688.28
437.122	13702.62
437.329	13936.09
437.537	14630.35
437.743	14507.47
437.95	14493.13
438.157	15402.43
438.364	15625.66
438.571	15748.54
438.778	15982.01
438.985	17235.36
439.192	16479.66
439.399	17231.27
439.606	16645.55
439.813	17894.81
440.02	18769.29
440.227	18247.06
440.433	18150.81
440.64	18892.17
440.847	18765.2
441.054	19146.12
441.261	20426.1
441.467	19971.45
441.674	20747.63
441.881	21452.13
442.088	21239.14
442.294	21163.37
442.501	21835.1
442.708	22160.73
442.914	23022.92
443.121	24022.33
443.328	23407.94
443.534	25115.95
443.741	24122.68
443.948	23948.61
444.154	25746.72
444.361	25396.52
444.568	25681.19
444.774	25679.14
444.981	25732.39
445.187	26572.05
445.394	27811.07
445.6	27434.25
445.807	29943.01
446.013	28423.42
446.22	29369.58
446.426	30571.74
446.633	30762.2
446.839	31691.98
447.046	30297.31
447.252	31892.68
447.459	32111.81
447.665	31702.21
447.871	33270.96
448.078	34563.23
448.284	32761.01
448.491	33373.36
448.697	34778.26
448.903	35445.9
449.11	35441.81
449.316	34616.47
449.522	35554.44
449.728	36344.96
449.935	36828.28
450.141	36662.4
450.347	37645.42
450.553	36435.07
450.76	36787.32
450.966	37885.03
451.172	37561.45
451.378	38169.7
451.584	37559.41
451.791	38143.08
451.997	37985.38
452.203	38884.44
452.409	38745.18
452.615	38476.9
452.821	37235.83
453.027	36867.19
453.233	38423.65
453.44	36805.75
453.646	37360.75
453.852	37272.69
454.058	38194.28
454.264	36631.68
454.47	37612.65
454.676	36861.05
454.882	37821.55
455.088	34796.7
455.294	34905.24
455.5	35398.8
455.705	35888.26
455.911	34466.97
456.117	34020.52
456.323	33158.32
456.529	31419.6
456.735	33092.79
456.941	32120
457.147	31431.88
457.352	30430.43
457.558	30264.54
457.764	29924.58
457.97	29379.82
458.176	28757.24
458.381	28980.46
458.587	27616.52
458.793	27593.99
458.999	26205.47
459.204	28220.67
459.41	26940.69
459.616	25457.96
459.821	25261.35
460.027	25357.61
460.233	24964.4
460.438	23506.24
460.644	23936.32
460.85	22572.37
461.055	22463.83
461.261	22185.3
461.466	20782.45
461.672	20047.22
461.878	21525.86
462.083	20010.36
462.289	19776.89
462.494	19557.76
462.7	18906.51
462.905	18355.6
463.111	18822.54
463.316	18845.07
463.522	18849.16
463.727	18625.93
463.932	18521.49
464.138	18558.35
464.343	18300.31
464.549	18036.12
464.754	18218.39
464.959	18402.71
465.165	17991.06
465.37	17530.27
465.575	16983.46
465.781	17632.67
465.986	17683.87
466.191	17321.38
466.397	16801.19
466.602	15955.38
466.807	16698.8
467.012	16776.62
467.218	16446.9
467.423	16272.82
467.628	16459.18
