Data from USB4F104151__4__10-20-07-778.txt Node

Date: Wed Mar 12 10:20:07 EDT 2025
User: louis
Spectrometer: USB4F10415
Trigger mode: 4
Integration Time (sec): 3.000000E-2
Scans to average: 1
Electric dark correction enabled: true
Nonlinearity correction enabled: false
Boxcar width: 0
XAxis mode: Wavelengths
Number of Pixels in Spectrum: 3648
>>>>>Begin Spectral Data<<<<<
178.204	-137.73
178.424	-137.73
178.644	-137.73
178.864	-111.1
179.084	-45.57
179.304	-20.99
179.524	5.63
179.744	11.78
179.964	40.45
180.184	-104.96
180.404	85.5
180.624	-43.52
180.844	-33.28
181.064	-25.09
181.283	32.26
181.503	-0.51
181.723	52.74
181.943	-57.86
182.163	69.12
182.383	73.21
182.602	97.79
182.822	7.68
183.042	-37.38
183.262	19.97
183.482	42.5
183.701	7.68
183.921	26.11
184.141	73.21
184.361	67.07
184.58	28.16
184.8	34.3
185.02	-61.95
185.239	15.87
185.459	19.97
185.679	11.78
185.898	-92.67
186.118	52.74
186.338	38.4
186.557	24.06
186.777	7.68
186.997	50.69
187.216	-20.99
187.436	32.26
187.655	24.06
187.875	19.97
188.095	-18.94
188.314	81.41
188.534	42.5
188.753	38.4
188.973	42.5
189.192	95.74
189.412	-18.94
189.631	26.11
189.851	77.31
190.07	81.41
190.29	-20.99
190.509	-18.94
190.729	-27.14
190.948	60.93
191.168	62.98
191.387	65.02
191.607	3.58
191.826	58.88
192.045	-18.94
192.265	65.02
192.484	34.3
192.704	42.5
192.923	-0.51
193.142	60.93
193.362	52.74
193.581	11.78
193.8	32.26
194.02	-37.38
194.239	19.97
194.458	110.08
194.678	28.16
194.897	118.27
195.116	34.3
195.335	65.02
195.555	81.41
195.774	-41.47
195.993	79.36
196.212	-41.47
196.432	30.21
196.651	-6.66
196.87	-14.85
197.089	110.08
197.308	22.02
197.528	-45.57
197.747	-33.28
197.966	7.68
198.185	36.35
198.404	48.64
198.623	13.82
198.842	56.83
199.062	5.63
199.281	54.78
199.5	71.17
199.719	-68.09
199.938	54.78
200.157	67.07
200.376	-31.23
200.595	62.98
200.814	97.79
201.033	56.83
201.252	22.02
201.471	44.54
201.69	52.74
201.909	75.26
202.128	73.21
202.347	81.41
202.566	52.74
202.785	-10.75
203.004	-37.38
203.223	122.37
203.442	50.69
203.661	-16.9
203.879	-41.47
204.098	142.85
204.317	-18.94
204.536	15.87
204.755	58.88
204.974	52.74
205.193	32.26
205.411	81.41
205.63	40.45
205.849	52.74
206.068	-43.52
206.287	32.26
206.505	75.26
206.724	9.73
206.943	54.78
207.162	-16.9
207.381	118.27
207.599	-35.33
207.818	-10.75
208.037	48.64
208.255	-18.94
208.474	15.87
208.693	13.82
208.911	34.3
209.13	15.87
209.349	69.12
209.567	79.36
209.786	79.36
210.005	52.74
210.223	89.6
210.442	5.63
210.661	-2.56
210.879	5.63
211.098	19.97
211.316	-23.04
211.535	-0.51
211.753	-2.56
211.972	69.12
212.191	-0.51
212.409	36.35
212.628	65.02
212.846	40.45
213.065	97.79
213.283	136.7
213.502	-0.51
213.72	15.87
213.938	24.06
214.157	116.22
214.375	-2.56
214.594	-8.7
214.812	114.17
215.031	-16.9
215.249	1.54
215.467	65.02
215.686	-2.56
215.904	112.13
216.122	-31.23
216.341	46.59
216.559	11.78
216.778	42.5
216.996	148.99
217.214	15.87
217.432	-0.51
217.651	65.02
217.869	77.31
218.087	34.3
218.306	9.73
218.524	83.45
218.742	-2.56
218.96	48.64
219.179	38.4
219.397	-12.8
219.615	56.83
219.833	26.11
220.051	65.02
220.27	67.07
220.488	-16.9
220.706	60.93
220.924	40.45
221.142	5.63
221.36	48.64
221.578	38.4
221.796	79.36
222.015	50.69
222.233	-35.33
222.451	87.55
222.669	11.78
222.887	-8.7
223.105	40.45
223.323	56.83
223.541	44.54
223.759	9.73
223.977	38.4
224.195	56.83
224.413	42.5
224.631	65.02
224.849	101.89
225.067	93.69
225.285	-10.75
225.503	15.87
225.721	17.92
225.939	56.83
226.157	46.59
226.375	48.64
226.592	48.64
226.81	19.97
227.028	30.21
227.246	134.65
227.464	-0.51
227.682	91.65
227.9	30.21
228.117	-8.7
228.335	69.12
228.553	19.97
228.771	19.97
228.989	24.06
229.206	81.41
229.424	28.16
229.642	15.87
229.86	-35.33
230.077	24.06
230.295	40.45
230.513	159.23
230.731	60.93
230.948	17.92
231.166	87.55
231.384	52.74
231.601	-12.8
231.819	71.17
232.037	62.98
232.254	-27.14
232.472	26.11
232.689	-59.9
232.907	114.17
233.125	-0.51
233.342	32.26
233.56	9.73
233.777	118.27
233.995	-43.52
234.213	77.31
234.43	65.02
234.648	48.64
234.865	38.4
235.083	40.45
235.3	19.97
235.518	52.74
235.735	38.4
235.953	54.78
236.17	7.68
236.388	9.73
236.605	5.63
236.822	81.41
237.04	-2.56
237.257	122.37
237.475	-25.09
237.692	62.98
237.909	-14.85
238.127	-25.09
238.344	5.63
238.562	9.73
238.779	48.64
238.996	40.45
239.214	44.54
239.431	42.5
239.648	38.4
239.865	7.68
240.083	1.54
240.3	50.69
240.517	-37.38
240.735	32.26
240.952	-0.51
241.169	116.22
241.386	15.87
241.603	40.45
241.821	-16.9
242.038	103.93
242.255	97.79
242.472	19.97
242.689	73.21
242.907	42.5
243.124	48.64
243.341	69.12
243.558	-10.75
243.775	-2.56
243.992	-16.9
244.209	5.63
244.426	13.82
244.643	38.4
244.86	-10.75
245.078	38.4
245.295	-29.18
245.512	93.69
245.729	24.06
245.946	71.17
246.163	38.4
246.38	52.74
246.597	56.83
246.814	-10.75
247.031	17.92
247.248	114.17
247.464	13.82
247.681	60.93
247.898	97.79
248.115	85.5
248.332	-18.94
248.549	24.06
248.766	89.6
248.983	83.45
249.2	36.35
249.417	56.83
249.633	28.16
249.85	44.54
250.067	34.3
250.284	52.74
250.501	85.5
250.717	26.11
250.934	-8.7
251.151	-27.14
251.368	52.74
251.585	15.87
251.801	13.82
252.018	44.54
252.235	-16.9
252.451	13.82
252.668	15.87
252.885	40.45
253.102	71.17
253.318	36.35
253.535	11.78
253.752	40.45
253.968	-8.7
254.185	-33.28
254.401	-12.8
254.618	71.17
254.835	-10.75
255.051	11.78
255.268	58.88
255.484	24.06
255.701	105.98
255.917	30.21
256.134	3.58
256.351	-4.61
256.567	-33.28
256.784	3.58
257	-57.86
257.217	146.94
257.433	-12.8
257.65	83.45
257.866	32.26
258.082	40.45
258.299	52.74
258.515	-0.51
258.732	5.63
258.948	1.54
259.165	5.63
259.381	40.45
259.597	22.02
259.814	50.69
260.03	40.45
260.246	-16.9
260.463	67.07
260.679	126.46
260.895	3.58
261.112	28.16
261.328	-4.61
261.544	44.54
261.761	146.94
261.977	-12.8
262.193	-6.66
262.409	69.12
262.626	28.16
262.842	93.69
263.058	-51.71
263.274	19.97
263.49	60.93
263.707	108.03
263.923	128.51
264.139	60.93
264.355	3.58
264.571	122.37
264.787	95.74
265.004	71.17
265.22	56.83
265.436	11.78
265.652	13.82
265.868	1.54
266.084	-0.51
266.3	56.83
266.516	52.74
266.732	-37.38
266.948	-29.18
267.164	-33.28
267.38	105.98
267.596	81.41
267.812	56.83
268.028	28.16
268.244	60.93
268.46	67.07
268.676	56.83
268.892	50.69
269.108	-16.9
269.324	58.88
269.54	13.82
269.756	87.55
269.972	22.02
270.188	17.92
270.403	56.83
270.619	-2.56
270.835	91.65
271.051	1.54
271.267	22.02
271.483	26.11
271.698	87.55
271.914	67.07
272.13	17.92
272.346	42.5
272.562	91.65
272.777	36.35
272.993	-31.23
273.209	9.73
273.425	75.26
273.64	69.12
273.856	1.54
274.072	-37.38
274.287	-20.99
274.503	17.92
274.719	79.36
274.934	48.64
275.15	46.59
275.366	-14.85
275.581	54.78
275.797	3.58
276.012	17.92
276.228	48.64
276.444	13.82
276.659	69.12
276.875	11.78
277.09	56.83
277.306	62.98
277.521	93.69
277.737	46.59
277.952	56.83
278.168	28.16
278.383	95.74
278.599	-4.61
278.814	85.5
279.03	7.68
279.245	52.74
279.461	11.78
279.676	28.16
279.892	-25.09
280.107	56.83
280.322	44.54
280.538	40.45
280.753	89.6
280.969	1.54
281.184	3.58
281.399	126.46
281.615	40.45
281.83	73.21
282.045	-14.85
282.26	-29.18
282.476	73.21
282.691	-41.47
282.906	-29.18
283.122	30.21
283.337	-0.51
283.552	60.93
283.767	52.74
283.983	17.92
284.198	-41.47
284.413	19.97
284.628	-53.76
284.843	38.4
285.058	40.45
285.274	97.79
285.489	5.63
285.704	87.55
285.919	22.02
286.134	24.06
286.349	65.02
286.564	-16.9
286.779	38.4
286.995	13.82
287.21	-25.09
287.425	42.5
287.64	65.02
287.855	40.45
288.07	40.45
288.285	93.69
288.5	15.87
288.715	60.93
288.93	81.41
289.145	17.92
289.36	146.94
289.575	-10.75
289.79	-20.99
290.004	11.78
290.219	3.58
290.434	54.78
290.649	-10.75
290.864	69.12
291.079	50.69
291.294	3.58
291.509	52.74
291.724	-0.51
291.938	-41.47
292.153	26.11
292.368	58.88
292.583	-43.52
292.798	97.79
293.012	73.21
293.227	54.78
293.442	7.68
293.657	32.26
293.871	62.98
294.086	-23.04
294.301	38.4
294.516	32.26
294.73	24.06
294.945	71.17
295.16	105.98
295.374	89.6
295.589	81.41
295.804	26.11
296.018	-0.51
296.233	77.31
296.447	28.16
296.662	-49.66
296.877	56.83
297.091	-4.61
297.306	36.35
297.52	-31.23
297.735	19.97
297.949	62.98
298.164	81.41
298.378	-18.94
298.593	26.11
298.807	-12.8
299.022	42.5
299.236	-14.85
299.451	19.97
299.665	60.93
299.88	110.08
300.094	42.5
300.309	46.59
300.523	32.26
300.737	-39.42
300.952	54.78
301.166	48.64
301.381	3.58
301.595	85.5
301.809	-0.51
302.024	-14.85
302.238	97.79
302.452	77.31
302.667	54.78
302.881	30.21
303.095	19.97
303.309	67.07
303.524	114.17
303.738	60.93
303.952	-6.66
304.166	24.06
304.381	24.06
304.595	171.52
304.809	19.97
305.023	17.92
305.237	1.54
305.452	1.54
305.666	77.31
305.88	-12.8
306.094	15.87
306.308	7.68
306.522	89.6
306.736	48.64
306.95	77.31
307.164	5.63
307.379	11.78
307.593	56.83
307.807	73.21
308.021	52.74
308.235	52.74
308.449	89.6
308.663	54.78
308.877	130.56
309.091	44.54
309.305	48.64
309.519	-41.47
309.733	105.98
309.947	-2.56
310.161	95.74
310.374	42.5
310.588	38.4
310.802	-33.28
311.016	3.58
311.23	103.93
311.444	32.26
311.658	32.26
311.872	36.35
312.085	13.82
312.299	30.21
312.513	75.26
312.727	79.36
312.941	1.54
313.154	97.79
313.368	32.26
313.582	85.5
313.796	11.78
314.009	-8.7
314.223	62.98
314.437	-20.99
314.651	40.45
314.864	-41.47
315.078	95.74
315.292	-23.04
315.505	-0.51
315.719	67.07
315.933	128.51
316.146	36.35
316.36	26.11
316.573	108.03
316.787	71.17
317.001	95.74
317.214	-29.18
317.428	42.5
317.641	44.54
317.855	62.98
318.068	48.64
318.282	-12.8
318.495	122.37
318.709	40.45
318.922	89.6
319.136	44.54
319.349	73.21
319.563	24.06
319.776	5.63
319.99	-12.8
320.203	77.31
320.417	32.26
320.63	50.69
320.843	108.03
321.057	15.87
321.27	-31.23
321.483	40.45
321.697	58.88
321.91	13.82
322.124	71.17
322.337	3.58
322.55	79.36
322.763	3.58
322.977	32.26
323.19	24.06
323.403	58.88
323.617	62.98
323.83	122.37
324.043	42.5
324.256	-16.9
324.469	24.06
324.683	87.55
324.896	36.35
325.109	28.16
325.322	26.11
325.535	56.83
325.748	62.98
325.962	75.26
326.175	44.54
326.388	-8.7
326.601	77.31
326.814	44.54
327.027	93.69
327.24	69.12
327.453	-29.18
327.666	62.98
327.879	-16.9
328.092	24.06
328.305	97.79
328.518	32.26
328.731	13.82
328.944	36.35
329.157	67.07
329.37	-45.57
329.583	62.98
329.796	132.61
330.009	62.98
330.222	97.79
330.435	13.82
330.648	-39.42
330.861	87.55
331.073	101.89
331.286	32.26
331.499	3.58
331.712	24.06
331.925	28.16
332.138	48.64
332.35	32.26
332.563	-16.9
332.776	81.41
332.989	-18.94
333.202	40.45
333.414	44.54
333.627	32.26
333.84	11.78
334.053	48.64
334.265	48.64
334.478	50.69
334.691	67.07
334.903	36.35
335.116	13.82
335.329	19.97
335.541	71.17
335.754	97.79
335.966	52.74
336.179	62.98
336.392	40.45
336.604	46.59
336.817	126.46
337.029	108.03
337.242	-74.24
337.454	32.26
337.667	81.41
337.88	3.58
338.092	9.73
338.305	60.93
338.517	-25.09
338.729	85.5
338.942	75.26
339.154	13.82
339.367	-10.75
339.579	52.74
339.792	52.74
340.004	75.26
340.217	-6.66
340.429	67.07
340.641	58.88
340.854	11.78
341.066	48.64
341.278	85.5
341.491	67.07
341.703	36.35
341.915	54.78
342.128	105.98
342.34	-4.61
342.552	26.11
342.764	73.21
342.977	7.68
343.189	79.36
343.401	62.98
343.613	71.17
343.826	75.26
344.038	-4.61
344.25	17.92
344.462	30.21
344.674	97.79
344.886	13.82
345.099	36.35
345.311	73.21
345.523	65.02
345.735	67.07
345.947	44.54
346.159	54.78
346.371	79.36
346.583	65.02
346.795	73.21
347.007	-33.28
347.219	99.84
347.431	50.69
347.643	112.13
347.855	36.35
348.067	56.83
348.279	48.64
348.491	13.82
348.703	38.4
348.915	38.4
349.127	-51.71
349.339	-0.51
349.551	24.06
349.763	58.88
349.975	95.74
350.187	52.74
350.399	28.16
350.61	9.73
350.822	54.78
351.034	71.17
351.246	-18.94
351.458	65.02
351.669	-6.66
351.881	56.83
352.093	85.5
352.305	103.93
352.517	56.83
352.728	114.17
352.94	7.68
353.152	40.45
353.363	1.54
353.575	58.88
353.787	85.5
353.999	19.97
354.21	101.89
354.422	-35.33
354.633	30.21
354.845	71.17
355.057	17.92
355.268	67.07
355.48	58.88
355.692	167.42
355.903	-47.62
356.115	-41.47
356.326	7.68
356.538	120.32
356.749	36.35
356.961	95.74
357.172	28.16
357.384	54.78
357.595	83.45
357.807	48.64
358.018	75.26
358.23	11.78
358.441	30.21
358.653	62.98
358.864	77.31
359.075	110.08
359.287	56.83
359.498	171.52
359.709	-20.99
359.921	40.45
360.132	48.64
360.344	81.41
360.555	46.59
360.766	26.11
360.977	30.21
361.189	87.55
361.4	-27.14
361.611	89.6
361.823	-53.76
362.034	114.17
362.245	-49.66
362.456	44.54
362.667	85.5
362.879	24.06
363.09	118.27
363.301	85.5
363.512	87.55
363.723	101.89
363.935	58.88
364.146	24.06
364.357	91.65
364.568	48.64
364.779	62.98
364.99	122.37
365.201	7.68
365.412	-8.7
365.623	3.58
365.834	81.41
366.045	58.88
366.256	50.69
366.467	54.78
366.678	81.41
366.889	81.41
367.1	71.17
367.311	81.41
367.522	48.64
367.733	40.45
367.944	71.17
368.155	48.64
368.366	34.3
368.577	71.17
368.788	71.17
368.999	13.82
369.209	87.55
369.42	132.61
369.631	71.17
369.842	110.08
370.053	34.3
370.264	81.41
370.474	42.5
370.685	103.93
370.896	69.12
371.107	79.36
371.317	48.64
371.528	24.06
371.739	60.93
371.95	173.57
372.16	77.31
372.371	32.26
372.582	99.84
372.792	50.69
373.003	52.74
373.214	24.06
373.424	81.41
373.635	91.65
373.846	48.64
374.056	5.63
374.267	60.93
374.477	69.12
374.688	136.7
374.898	56.83
375.109	62.98
375.319	85.5
375.53	87.55
375.74	91.65
375.951	81.41
376.161	9.73
376.372	1.54
376.582	-33.28
376.793	56.83
377.003	36.35
377.214	-8.7
377.424	79.36
377.635	19.97
377.845	71.17
378.055	146.94
378.266	75.26
378.476	-14.85
378.686	85.5
378.897	46.59
379.107	40.45
379.317	122.37
379.528	46.59
379.738	77.31
379.948	48.64
380.158	48.64
380.369	28.16
380.579	95.74
380.789	-8.7
380.999	120.32
381.21	81.41
381.42	110.08
381.63	-0.51
381.84	73.21
382.05	3.58
382.261	83.45
382.471	24.06
382.681	81.41
382.891	114.17
383.101	36.35
383.311	-10.75
383.521	28.16
383.731	15.87
383.941	65.02
384.151	7.68
384.361	-6.66
384.571	79.36
384.781	40.45
384.991	122.37
385.201	89.6
385.411	89.6
385.621	24.06
385.831	83.45
386.041	52.74
386.251	87.55
386.461	28.16
386.671	93.69
386.881	5.63
387.091	1.54
387.301	60.93
387.511	52.74
387.72	128.51
387.93	58.88
388.14	36.35
388.35	73.21
388.56	44.54
388.769	101.89
388.979	65.02
389.189	69.12
389.399	30.21
389.609	32.26
389.818	42.5
390.028	40.45
390.238	112.13
390.447	71.17
390.657	52.74
390.867	71.17
391.076	44.54
391.286	69.12
391.496	161.28
391.705	85.5
391.915	95.74
392.125	144.89
392.334	77.31
392.544	108.03
392.753	60.93
392.963	87.55
393.172	40.45
393.382	54.78
393.591	144.89
393.801	75.26
394.01	146.94
394.22	179.71
394.429	13.82
394.639	93.69
394.848	58.88
395.058	142.85
395.267	77.31
395.477	105.98
395.686	130.56
395.895	89.6
396.105	124.41
396.314	169.47
396.524	65.02
396.733	89.6
396.942	97.79
397.152	179.71
397.361	105.98
397.57	38.4
397.78	114.17
397.989	138.75
398.198	183.81
398.407	144.89
398.617	128.51
398.826	126.46
399.035	105.98
399.244	130.56
399.453	128.51
399.663	132.61
399.872	220.67
400.081	136.7
400.29	200.19
400.499	146.94
400.708	179.71
400.917	87.55
401.127	79.36
401.336	130.56
401.545	124.41
401.754	140.8
401.963	99.84
402.172	146.94
402.381	112.13
402.59	169.47
402.799	169.47
403.008	153.09
403.217	124.41
403.426	130.56
403.635	32.26
403.844	101.89
404.053	157.18
404.262	155.13
404.471	196.09
404.68	155.13
404.888	163.33
405.097	71.17
405.306	185.85
405.515	155.13
405.724	232.96
405.933	167.42
406.142	208.38
406.35	273.92
406.559	194.05
406.768	241.15
406.977	206.33
407.185	202.24
407.394	151.04
407.603	228.86
407.812	253.44
408.02	280.06
408.229	273.92
408.438	179.71
408.646	280.06
408.855	261.63
409.064	275.96
409.272	280.06
409.481	325.12
409.69	286.2
409.898	343.55
410.107	364.03
410.315	298.49
410.524	318.97
410.733	429.56
410.941	382.46
411.15	364.03
411.358	366.07
411.567	441.85
411.775	480.76
411.984	404.99
412.192	480.76
412.401	452.09
412.609	425.47
412.818	466.42
413.026	507.38
413.234	538.1
413.443	591.35
413.651	636.41
413.86	636.41
414.068	626.17
414.276	728.56
414.485	632.31
414.693	671.22
414.901	757.24
415.11	822.77
415.318	738.8
415.526	777.72
415.734	896.5
415.943	859.63
416.151	851.44
416.359	878.07
416.567	968.18
416.776	1023.47
416.984	1060.34
417.192	1105.39
417.4	953.84
417.608	1086.96
417.817	1058.29
418.025	1183.21
418.233	1338.86
418.441	1234.41
418.649	1191.41
418.857	1412.59
419.065	1404.39
419.273	1357.29
419.481	1494.51
419.689	1539.56
419.897	1641.96
420.105	1713.64
420.313	1664.49
420.521	1750.5
420.729	1752.55
420.937	1832.42
421.145	1818.08
421.353	2010.59
421.561	2059.74
421.769	2207.2
421.977	2260.45
422.185	2229.73
422.393	2391.52
422.601	2551.26
422.809	2493.91
423.017	2571.74
423.224	2653.66
423.432	2803.16
423.64	2770.39
423.848	2966.99
424.056	2754.01
424.263	3053.01
424.471	3120.59
424.679	3192.27
424.887	3513.8
425.094	3507.66
425.302	3526.09
425.51	3495.37
425.718	3608.01
425.925	3823.05
426.133	3751.37
426.341	3982.79
426.548	4148.67
426.756	4230.59
426.964	4371.9
427.171	4574.65
427.379	4718.01
427.586	4799.93
427.794	4922.8
428.001	5057.97
428.209	5457.32
428.417	5203.38
428.624	5537.2
428.832	5733.8
429.039	5766.57
429.247	5512.62
429.454	6186.4
429.662	6659.48
429.869	6249.89
430.076	6583.71
430.284	6434.21
430.491	6581.66
430.699	7040.4
430.906	7036.31
431.114	7200.15
431.321	7345.55
431.528	7576.97
431.736	8019.33
431.943	8547.71
432.15	8111.49
432.358	8375.68
432.565	8639.87
432.772	8617.34
432.979	9078.13
433.187	9170.29
433.394	9250.16
433.601	10046.82
433.808	10210.66
434.016	9860.46
434.223	10425.7
434.43	10956.12
434.637	10579.29
434.844	11507.02
435.052	11713.87
435.259	11459.92
435.466	11330.9
435.673	11468.11
435.88	12268.87
436.087	13114.68
436.294	13208.89
436.501	12569.92
436.708	12832.06
436.915	13186.36
437.122	13921.58
437.329	13735.21
437.537	14392.61
437.743	14345.51
437.95	14458.15
438.157	15168.79
438.364	15658.26
438.571	15478.04
438.778	15727.89
438.985	16991.48
439.192	16403.72
439.399	16997.63
439.606	16549.12
439.813	17448.18
440.02	18683.11
440.227	18306.28
440.433	18162.92
440.64	18738.4
440.847	18631.91
441.054	18914.53
441.261	20282.57
441.467	19954.9
441.674	20624.58
441.881	21470.39
442.088	20929.73
442.294	20872.39
442.501	21830.83
442.708	22031.54
442.914	23102.62
443.121	23516.31
443.328	23198.88
443.534	24624.26
443.741	23887
443.948	23471.26
444.154	25341.05
444.361	25099.39
444.568	25648.25
444.774	25359.49
444.981	25537.66
445.187	26502.25
445.394	27569.24
445.6	27151.46
445.807	29879.35
446.013	28390.48
446.22	29062.21
446.426	29828.15
446.633	30118.96
446.839	31120.42
447.046	30071.86
447.252	32033.82
447.459	31679.52
447.665	31681.56
447.871	32623.63
448.078	34165.75
448.284	32513.04
448.491	33418.24
448.697	34665.46
448.903	35238.89
449.11	35374.05
449.316	34628.59
449.522	35034.09
449.728	36621.27
449.935	36289.49
450.141	36398.04
450.347	37350.34
450.553	35918.81
450.76	36469.72
450.966	37725.12
451.172	37151.69
451.378	37974.97
451.584	37125.07
451.791	37852.09
451.997	37594.05
452.203	38452.15
452.409	38507.44
452.615	38403
452.821	36955.08
453.027	36688.85
453.233	38618.03
453.44	36580.31
453.646	37393.35
453.852	37354.44
454.058	37931.97
454.264	36608.98
454.47	37536.71
454.676	36522.96
454.882	37774.27
455.088	34227.19
455.294	35007.47
455.5	35204.07
455.705	35650.53
455.911	34341.88
456.117	33494.02
456.323	32971.78
456.529	31317.03
456.735	32619.53
456.941	31738.91
457.147	31239.2
457.352	30321.71
457.558	29926.46
457.764	30028.85
457.97	29410.37
458.176	28740.68
458.381	28894.28
458.587	27341.92
458.793	27585.63
458.999	26006.64
459.204	27528.28
459.41	27030.63
459.616	25619.58
459.821	25171.07
460.027	25003.14
460.233	24523.91
460.438	23370.91
460.644	23667.86
460.85	22652.07
461.055	22265
461.261	22138.03
461.466	20688.07
461.672	19977.42
461.878	21322.94
462.083	20165.84
462.289	19778.77
462.494	19563.73
462.7	18470.12
462.905	18046.19
463.111	18943.2
463.316	18935.01
463.522	18400.49
463.727	18408.68
463.932	18300.14
464.138	18267.37
464.343	18093.29
464.549	17917.17
464.754	18359.53
464.959	18246.89
465.165	18031.85
465.37	17409.27
465.575	17022.2
465.781	17681.65
465.986	17628.4
466.191	16737.54
466.397	16731.39
466.602	15854.86
466.807	16663.81
467.012	16635.14
467.218	16524.55
