Data from USB4F104151__113__10-24-56-826.txt Node

Date: Wed Mar 12 10:24:56 EDT 2025
User: louis
Spectrometer: USB4F10415
Trigger mode: 4
Integration Time (sec): 3.000000E-2
Scans to average: 1
Electric dark correction enabled: true
Nonlinearity correction enabled: false
Boxcar width: 0
XAxis mode: Wavelengths
Number of Pixels in Spectrum: 3648
>>>>>Begin Spectral Data<<<<<
178.204	-155.13
178.424	-155.13
178.644	-155.13
178.864	-138.75
179.084	-44.54
179.304	29.18
179.524	2.56
179.744	-7.68
179.964	-13.82
180.184	-3.58
180.404	-22.02
180.624	-11.78
180.844	4.61
181.064	-30.21
181.283	25.09
181.503	-15.87
181.723	43.52
181.943	-13.82
182.163	33.28
182.383	33.28
182.602	-11.78
182.822	37.38
183.042	8.7
183.262	-5.63
183.482	-5.63
183.701	-3.58
183.921	61.95
184.141	-11.78
184.361	80.38
184.58	41.47
184.8	74.24
185.02	-28.16
185.239	111.1
185.459	31.23
185.679	23.04
185.898	-40.45
186.118	14.85
186.338	-15.87
186.557	-3.58
186.777	35.33
186.997	64
187.216	51.71
187.436	94.72
187.655	137.73
187.875	14.85
188.095	16.9
188.314	-73.21
188.534	18.94
188.753	16.9
188.973	82.43
189.192	135.68
189.412	-24.06
189.631	39.42
189.851	102.91
190.07	74.24
190.29	-19.97
190.509	-48.64
190.729	53.76
190.948	49.66
191.168	102.91
191.387	119.29
191.607	16.9
191.826	23.04
192.045	-19.97
192.265	4.61
192.484	59.9
192.704	0.51
192.923	8.7
193.142	139.77
193.362	35.33
193.581	37.38
193.8	33.28
194.02	72.19
194.239	8.7
194.458	4.61
194.678	10.75
194.897	61.95
195.116	53.76
195.335	33.28
195.555	12.8
195.774	78.33
195.993	45.57
196.212	-11.78
196.432	-32.26
196.651	16.9
196.87	72.19
197.089	94.72
197.308	61.95
197.528	-19.97
197.747	14.85
197.966	113.15
198.185	92.67
198.404	-30.21
198.623	-5.63
198.842	8.7
199.062	10.75
199.281	49.66
199.5	-19.97
199.719	12.8
199.938	18.94
200.157	100.86
200.376	74.24
200.595	33.28
200.814	-5.63
201.033	49.66
201.252	45.57
201.471	37.38
201.69	45.57
201.909	59.9
202.128	6.66
202.347	61.95
202.566	35.33
202.785	-17.92
203.004	68.09
203.223	119.29
203.442	82.43
203.661	53.76
203.879	41.47
204.098	14.85
204.317	59.9
204.536	72.19
204.755	-1.54
204.974	61.95
205.193	33.28
205.411	102.91
205.63	45.57
205.849	37.38
206.068	10.75
206.287	49.66
206.505	96.77
206.724	78.33
206.943	29.18
207.162	4.61
207.381	70.14
207.599	2.56
207.818	-75.26
208.037	-26.11
208.255	61.95
208.474	117.25
208.693	59.9
208.911	53.76
209.13	59.9
209.349	35.33
209.567	74.24
209.786	49.66
210.005	61.95
210.223	27.14
210.442	25.09
210.661	51.71
210.879	-32.26
211.098	27.14
211.316	82.43
211.535	16.9
211.753	57.86
211.972	0.51
212.191	64
212.409	-7.68
212.628	25.09
212.846	12.8
213.065	72.19
213.283	31.23
213.502	74.24
213.72	20.99
213.938	2.56
214.157	-9.73
214.375	25.09
214.594	70.14
214.812	27.14
215.031	45.57
215.249	4.61
215.467	45.57
215.686	6.66
215.904	102.91
216.122	66.05
216.341	64
216.559	10.75
216.778	41.47
216.996	80.38
217.214	4.61
217.432	2.56
217.651	-77.31
217.869	57.86
218.087	-26.11
218.306	66.05
218.524	37.38
218.742	37.38
218.96	49.66
219.179	78.33
219.397	2.56
219.615	100.86
219.833	41.47
220.051	-58.88
220.27	4.61
220.488	92.67
220.706	49.66
220.924	64
221.142	57.86
221.36	-3.58
221.578	4.61
221.796	8.7
222.015	47.62
222.233	80.38
222.451	6.66
222.669	-58.88
222.887	-11.78
223.105	8.7
223.323	-32.26
223.541	43.52
223.759	31.23
223.977	51.71
224.195	86.53
224.413	64
224.631	98.81
224.849	70.14
225.067	8.7
225.285	27.14
225.503	4.61
225.721	-22.02
225.939	68.09
226.157	82.43
226.375	70.14
226.592	57.86
226.81	35.33
227.028	127.49
227.246	29.18
227.464	86.53
227.682	49.66
227.9	-1.54
228.117	84.48
228.335	20.99
228.553	31.23
228.771	27.14
228.989	6.66
229.206	29.18
229.424	-42.5
229.642	-69.12
229.86	-3.58
230.077	113.15
230.295	53.76
230.513	14.85
230.731	14.85
230.948	129.53
231.166	33.28
231.384	29.18
231.601	10.75
231.819	82.43
232.037	61.95
232.254	-40.45
232.472	0.51
232.689	86.53
232.907	57.86
233.125	27.14
233.342	31.23
233.56	33.28
233.777	-3.58
233.995	4.61
234.213	29.18
234.43	39.42
234.648	33.28
234.865	45.57
235.083	92.67
235.3	37.38
235.518	25.09
235.735	25.09
235.953	76.29
236.17	8.7
236.388	33.28
236.605	92.67
236.822	12.8
237.04	27.14
237.257	-24.06
237.475	-30.21
237.692	59.9
237.909	121.34
238.127	39.42
238.344	18.94
238.562	37.38
238.779	-52.74
238.996	29.18
239.214	45.57
239.431	53.76
239.648	53.76
239.865	66.05
240.083	107.01
240.3	16.9
240.517	119.29
240.735	8.7
240.952	115.2
241.169	94.72
241.386	0.51
241.603	29.18
241.821	35.33
242.038	74.24
242.255	43.52
242.472	8.7
242.689	53.76
242.907	47.62
243.124	-22.02
243.341	23.04
243.558	14.85
243.775	80.38
243.992	-1.54
244.209	-17.92
244.426	-3.58
244.643	20.99
244.86	76.29
245.078	43.52
245.295	8.7
245.512	37.38
245.729	20.99
245.946	-28.16
246.163	88.57
246.38	82.43
246.597	53.76
246.814	-24.06
247.031	66.05
247.248	49.66
247.464	-17.92
247.681	82.43
247.898	100.86
248.115	45.57
248.332	45.57
248.549	74.24
248.766	86.53
248.983	82.43
249.2	37.38
249.417	16.9
249.633	31.23
249.85	61.95
250.067	25.09
250.284	-9.73
250.501	2.56
250.717	-22.02
250.934	0.51
251.151	74.24
251.368	76.29
251.585	90.62
251.801	33.28
252.018	-44.54
252.235	0.51
252.451	51.71
252.668	25.09
252.885	20.99
253.102	55.81
253.318	84.48
253.535	45.57
253.752	12.8
253.968	31.23
254.185	-40.45
254.401	47.62
254.618	76.29
254.835	4.61
255.051	18.94
255.268	-38.4
255.484	-9.73
255.701	-7.68
255.917	78.33
256.134	23.04
256.351	12.8
256.567	-52.74
256.784	45.57
257	0.51
257.217	53.76
257.433	2.56
257.65	70.14
257.866	115.2
258.082	27.14
258.299	18.94
258.515	51.71
258.732	84.48
258.948	23.04
259.165	51.71
259.381	23.04
259.597	-17.92
259.814	-17.92
260.03	31.23
260.246	100.86
260.463	70.14
260.679	55.81
260.895	111.1
261.112	66.05
261.328	109.05
261.544	94.72
261.761	178.69
261.977	-5.63
262.193	-3.58
262.409	43.52
262.626	68.09
262.842	29.18
263.058	-36.35
263.274	100.86
263.49	12.8
263.707	66.05
263.923	14.85
264.139	45.57
264.355	-38.4
264.571	49.66
264.787	57.86
265.004	64
265.22	16.9
265.436	20.99
265.652	-40.45
265.868	53.76
266.084	35.33
266.3	86.53
266.516	31.23
266.732	64
266.948	2.56
267.164	16.9
267.38	113.15
267.596	41.47
267.812	10.75
268.028	33.28
268.244	-46.59
268.46	92.67
268.676	18.94
268.892	33.28
269.108	-40.45
269.324	-13.82
269.54	-9.73
269.756	39.42
269.972	-3.58
270.188	16.9
270.403	6.66
270.619	33.28
270.835	-5.63
271.051	70.14
271.267	25.09
271.483	18.94
271.698	70.14
271.914	90.62
272.13	53.76
272.346	20.99
272.562	20.99
272.777	20.99
272.993	-40.45
273.209	-9.73
273.425	107.01
273.64	0.51
273.856	25.09
274.072	55.81
274.287	29.18
274.503	-1.54
274.719	6.66
274.934	-15.87
275.15	43.52
275.366	37.38
275.581	43.52
275.797	20.99
276.012	12.8
276.228	70.14
276.444	33.28
276.659	74.24
276.875	-44.54
277.09	57.86
277.306	57.86
277.521	170.49
277.737	70.14
277.952	66.05
278.168	61.95
278.383	-5.63
278.599	16.9
278.814	45.57
279.03	27.14
279.245	78.33
279.461	-60.93
279.676	14.85
279.892	14.85
280.107	-19.97
280.322	-11.78
280.538	127.49
280.753	4.61
280.969	25.09
281.184	-11.78
281.399	107.01
281.615	16.9
281.83	-7.68
282.045	29.18
282.26	53.76
282.476	59.9
282.691	98.81
282.906	25.09
283.122	43.52
283.337	78.33
283.552	-28.16
283.767	29.18
283.983	74.24
284.198	-9.73
284.413	18.94
284.628	-44.54
284.843	25.09
285.058	57.86
285.274	-11.78
285.489	8.7
285.704	20.99
285.919	0.51
286.134	-7.68
286.349	64
286.564	51.71
286.779	29.18
286.995	4.61
287.21	-5.63
287.425	59.9
287.64	-28.16
287.855	16.9
288.07	66.05
288.285	10.75
288.5	41.47
288.715	88.57
288.93	0.51
289.145	53.76
289.36	66.05
289.575	10.75
289.79	12.8
290.004	25.09
290.219	92.67
290.434	-28.16
290.649	8.7
290.864	0.51
291.079	53.76
291.294	70.14
291.509	18.94
291.724	-9.73
291.938	43.52
292.153	39.42
292.368	59.9
292.583	37.38
292.798	35.33
293.012	6.66
293.227	39.42
293.442	-3.58
293.657	37.38
293.871	68.09
294.086	-22.02
294.301	86.53
294.516	39.42
294.73	4.61
294.945	76.29
295.16	-28.16
295.374	-11.78
295.589	31.23
295.804	61.95
296.018	25.09
296.233	55.81
296.447	12.8
296.662	53.76
296.877	82.43
297.091	-3.58
297.306	35.33
297.52	16.9
297.735	78.33
297.949	53.76
298.164	57.86
298.378	29.18
298.593	-3.58
298.807	25.09
299.022	41.47
299.236	45.57
299.451	82.43
299.665	74.24
299.88	-69.12
300.094	-7.68
300.309	20.99
300.523	82.43
300.737	66.05
300.952	8.7
301.166	0.51
301.381	98.81
301.595	51.71
301.809	29.18
302.024	86.53
302.238	68.09
302.452	98.81
302.667	12.8
302.881	113.15
303.095	59.9
303.309	10.75
303.524	37.38
303.738	57.86
303.952	12.8
304.166	55.81
304.381	66.05
304.595	-1.54
304.809	12.8
305.023	16.9
305.237	-5.63
305.452	98.81
305.666	0.51
305.88	74.24
306.094	59.9
306.308	-15.87
306.522	131.58
306.736	51.71
306.95	86.53
307.164	37.38
307.379	-15.87
307.593	80.38
307.807	23.04
308.021	23.04
308.235	64
308.449	14.85
308.663	37.38
308.877	90.62
309.091	2.56
309.305	51.71
309.519	33.28
309.733	-26.11
309.947	18.94
310.161	-36.35
310.374	33.28
310.588	-11.78
310.802	20.99
311.016	12.8
311.23	-11.78
311.444	61.95
311.658	23.04
311.872	80.38
312.085	29.18
312.299	107.01
312.513	98.81
312.727	47.62
312.941	12.8
313.154	74.24
313.368	-15.87
313.582	53.76
313.796	27.14
314.009	96.77
314.223	20.99
314.437	70.14
314.651	25.09
314.864	35.33
315.078	33.28
315.292	55.81
315.505	31.23
315.719	27.14
315.933	20.99
316.146	-15.87
316.36	-5.63
316.573	55.81
316.787	111.1
317.001	29.18
317.214	-22.02
317.428	33.28
317.641	53.76
317.855	12.8
318.068	33.28
318.282	45.57
318.495	64
318.709	-3.58
318.922	41.47
319.136	78.33
319.349	20.99
319.563	61.95
319.776	-5.63
319.99	12.8
320.203	102.91
320.417	74.24
320.63	37.38
320.843	68.09
321.057	4.61
321.27	53.76
321.483	82.43
321.697	86.53
321.91	41.47
322.124	33.28
322.337	86.53
322.55	20.99
322.763	41.47
322.977	55.81
323.19	76.29
323.403	20.99
323.617	10.75
323.83	70.14
324.043	31.23
324.256	37.38
324.469	27.14
324.683	70.14
324.896	35.33
325.109	45.57
325.322	4.61
325.535	121.34
325.748	82.43
325.962	68.09
326.175	-24.06
326.388	43.52
326.601	0.51
326.814	53.76
327.027	6.66
327.24	74.24
327.453	-52.74
327.666	51.71
327.879	57.86
328.092	90.62
328.305	72.19
328.518	59.9
328.731	68.09
328.944	4.61
329.157	45.57
329.37	-34.3
329.583	66.05
329.796	45.57
330.009	39.42
330.222	102.91
330.435	100.86
330.648	72.19
330.861	53.76
331.073	31.23
331.286	49.66
331.499	-3.58
331.712	-19.97
331.925	43.52
332.138	41.47
332.35	-36.35
332.563	39.42
332.776	64
332.989	20.99
333.202	41.47
333.414	78.33
333.627	84.48
333.84	-44.54
334.053	20.99
334.265	29.18
334.478	64
334.691	37.38
334.903	102.91
335.116	-11.78
335.329	29.18
335.541	12.8
335.754	117.25
335.966	-1.54
336.179	-36.35
336.392	4.61
336.604	61.95
336.817	80.38
337.029	23.04
337.242	76.29
337.454	82.43
337.667	51.71
337.88	41.47
338.092	78.33
338.305	-38.4
338.517	29.18
338.729	45.57
338.942	0.51
339.154	49.66
339.367	10.75
339.579	37.38
339.792	66.05
340.004	43.52
340.217	102.91
340.429	74.24
340.641	43.52
340.854	49.66
341.066	4.61
341.278	49.66
341.491	131.58
341.703	8.7
341.915	66.05
342.128	100.86
342.34	20.99
342.552	8.7
342.764	111.1
342.977	-1.54
343.189	16.9
343.401	125.44
343.613	29.18
343.826	16.9
344.038	-22.02
344.25	16.9
344.462	2.56
344.674	107.01
344.886	25.09
345.099	80.38
345.311	80.38
345.523	16.9
345.735	-5.63
345.947	86.53
346.159	27.14
346.371	45.57
346.583	37.38
346.795	109.05
347.007	2.56
347.219	45.57
347.431	8.7
347.643	43.52
347.855	-17.92
348.067	49.66
348.279	27.14
348.491	55.81
348.703	43.52
348.915	37.38
349.127	-17.92
349.339	61.95
349.551	-42.5
349.763	84.48
349.975	53.76
350.187	119.29
350.399	57.86
350.61	121.34
350.822	-42.5
351.034	20.99
351.246	43.52
351.458	74.24
351.669	68.09
351.881	53.76
352.093	113.15
352.305	150.01
352.517	72.19
352.728	29.18
352.94	37.38
353.152	68.09
353.363	-11.78
353.575	102.91
353.787	88.57
353.999	-30.21
354.21	33.28
354.422	12.8
354.633	107.01
354.845	133.63
355.057	25.09
355.268	88.57
355.48	-11.78
355.692	37.38
355.903	47.62
356.115	92.67
356.326	-5.63
356.538	104.96
356.749	68.09
356.961	72.19
357.172	10.75
357.384	25.09
357.595	66.05
357.807	66.05
358.018	90.62
358.23	-11.78
358.441	117.25
358.653	45.57
358.864	59.9
359.075	82.43
359.287	35.33
359.498	-9.73
359.709	84.48
359.921	78.33
360.132	4.61
360.344	64
360.555	78.33
360.766	37.38
360.977	0.51
361.189	107.01
361.4	51.71
361.611	55.81
361.823	70.14
362.034	70.14
362.245	86.53
362.456	41.47
362.667	55.81
362.879	4.61
363.09	59.9
363.301	74.24
363.512	70.14
363.723	98.81
363.935	-3.58
364.146	94.72
364.357	12.8
364.568	76.29
364.779	37.38
364.99	84.48
365.201	4.61
365.412	25.09
365.623	109.05
365.834	35.33
366.045	31.23
366.256	20.99
366.467	90.62
366.678	37.38
366.889	74.24
367.1	70.14
367.311	70.14
367.522	-40.45
367.733	53.76
367.944	84.48
368.155	107.01
368.366	86.53
368.577	90.62
368.788	92.67
368.999	27.14
369.209	53.76
369.42	127.49
369.631	180.73
369.842	78.33
370.053	29.18
370.264	107.01
370.474	37.38
370.685	37.38
370.896	76.29
371.107	41.47
371.317	139.77
371.528	18.94
371.739	76.29
371.95	33.28
372.16	20.99
372.371	35.33
372.582	-11.78
372.792	102.91
373.003	8.7
373.214	121.34
373.424	20.99
373.635	-15.87
373.846	109.05
374.056	6.66
374.267	57.86
374.477	51.71
374.688	127.49
374.898	76.29
375.109	74.24
375.319	27.14
375.53	70.14
375.74	43.52
375.951	61.95
376.161	115.2
376.372	72.19
376.582	23.04
376.793	109.05
377.003	-28.16
377.214	80.38
377.424	102.91
377.635	57.86
377.845	20.99
378.055	135.68
378.266	82.43
378.476	61.95
378.686	25.09
378.897	154.11
379.107	29.18
379.317	51.71
379.528	-11.78
379.738	37.38
379.948	-79.36
380.158	90.62
380.369	29.18
380.579	55.81
380.789	16.9
380.999	45.57
381.21	98.81
381.42	66.05
381.63	20.99
381.84	74.24
382.05	27.14
382.261	109.05
382.471	-7.68
382.681	10.75
382.891	59.9
383.101	88.57
383.311	66.05
383.521	35.33
383.731	70.14
383.941	76.29
384.151	53.76
384.361	47.62
384.571	104.96
384.781	102.91
384.991	18.94
385.201	152.06
385.411	80.38
385.621	100.86
385.831	94.72
386.041	78.33
386.251	29.18
386.461	100.86
386.671	57.86
386.881	-5.63
387.091	59.9
387.301	70.14
387.511	41.47
387.72	125.44
387.93	117.25
388.14	-13.82
388.35	137.73
388.56	102.91
388.769	127.49
388.979	45.57
389.189	121.34
389.399	119.29
389.609	121.34
389.818	35.33
390.028	96.77
390.238	121.34
390.447	107.01
390.657	74.24
390.867	25.09
391.076	68.09
391.286	111.1
391.496	70.14
391.705	51.71
391.915	47.62
392.125	141.82
392.334	45.57
392.544	10.75
392.753	78.33
392.963	-3.58
393.172	82.43
393.382	12.8
393.591	139.77
393.801	68.09
394.01	29.18
394.22	115.2
394.429	16.9
394.639	74.24
394.848	37.38
395.058	55.81
395.267	98.81
395.477	39.42
395.686	41.47
395.895	127.49
396.105	160.25
396.314	107.01
396.524	164.35
396.733	92.67
396.942	166.4
397.152	141.82
397.361	107.01
397.57	90.62
397.78	102.91
397.989	35.33
398.198	154.11
398.407	45.57
398.617	111.1
398.826	178.69
399.035	129.53
399.244	29.18
399.453	180.73
399.663	125.44
399.872	86.53
400.081	135.68
400.29	182.78
400.499	49.66
400.708	186.88
400.917	100.86
401.127	123.39
401.336	14.85
401.545	225.79
401.754	102.91
401.963	164.35
402.172	119.29
402.381	135.68
402.59	137.73
402.799	133.63
403.008	205.31
403.217	127.49
403.426	215.55
403.635	74.24
403.844	160.25
404.053	143.87
404.262	127.49
404.471	197.12
404.68	123.39
404.888	131.58
405.097	98.81
405.306	190.97
405.515	215.55
405.724	154.11
405.933	190.97
406.142	188.93
406.35	193.02
406.559	211.45
406.768	205.31
406.977	260.6
407.185	203.26
407.394	203.26
407.603	197.12
407.812	279.04
408.02	313.85
408.229	244.22
408.438	315.9
408.646	170.49
408.855	256.51
409.064	363
409.272	229.88
409.481	348.67
409.69	272.89
409.898	303.61
410.107	348.67
410.315	430.59
410.524	303.61
410.733	381.43
410.941	373.24
411.15	418.3
411.358	410.11
411.567	440.83
411.775	489.98
411.984	430.59
412.192	504.31
412.401	590.33
412.609	524.79
412.818	463.35
413.026	508.41
413.234	688.63
413.443	672.25
413.651	631.29
413.86	696.82
414.068	676.34
414.276	709.11
414.485	700.92
414.693	717.3
414.901	856.56
415.11	797.17
415.318	831.99
415.526	846.32
415.734	891.38
415.943	926.19
416.151	991.73
416.359	872.95
416.567	895.47
416.776	877.04
416.984	1151.47
417.192	1153.52
417.4	1124.85
417.608	1020.4
417.817	1202.67
418.025	1237.49
418.233	1276.4
418.441	1305.07
418.649	1331.69
418.857	1423.85
419.065	1376.75
419.273	1427.95
419.481	1477.1
419.689	1591.78
419.897	1675.75
420.105	1833.44
420.313	1665.51
420.521	1806.82
420.729	1847.78
420.937	1864.16
421.145	1941.99
421.353	2009.57
421.561	2144.74
421.769	2275.81
421.977	2142.69
422.185	2298.33
422.393	2345.44
422.601	2415.07
422.809	2578.9
423.017	2572.76
423.224	2650.58
423.432	2761.17
423.64	2841.04
423.848	3105.23
424.056	2939.35
424.263	3215.82
424.471	3201.49
424.679	3264.97
424.887	3418.57
425.094	3484.11
425.302	3568.07
425.51	3592.65
425.718	3848.65
425.925	3834.31
426.133	3953.09
426.341	4239.81
426.548	4370.88
426.756	4348.35
426.964	4295.1
427.171	4622.78
427.379	4860.34
427.586	4823.48
427.794	5104.05
428.001	5280.18
428.209	5355.95
428.417	5310.89
428.624	5767.59
428.832	5661.1
429.039	5753.26
429.247	5683.63
429.454	6298.02
429.662	6701.47
429.869	6496.67
430.076	6656.41
430.284	6578.59
430.491	6767
430.699	7221.65
430.906	7115.16
431.114	7352.72
431.321	7588.24
431.528	7760.27
431.736	8300.93
431.943	8612.22
432.15	8204.67
432.358	8573.31
432.565	8774.01
432.772	8767.87
432.979	9122.16
433.187	9421.17
433.394	9658.73
433.601	10066.28
433.808	10183.01
434.016	10076.52
434.223	10672.48
434.43	11057.5
434.637	10852.7
434.844	11581.78
435.052	12069.19
435.259	11819.34
435.466	11811.15
435.673	11622.73
435.88	12448.07
436.087	13136.18
436.294	13242.68
436.501	13179.19
436.708	13295.93
436.915	13715.76
437.122	14100.78
437.329	14035.24
437.537	14387.49
437.743	14977.31
437.95	14659.87
438.157	15616.27
438.364	16081.16
438.571	16019.72
438.778	16091.4
438.985	17467.64
439.192	16666.88
439.399	17090.81
439.606	16851.2
439.813	17871.09
440.02	18880.74
440.227	18653.41
440.433	18274.54
440.64	19095.77
440.847	18755.81
441.054	19484.89
441.261	20816.07
441.467	20162.76
441.674	20691.14
441.881	21592.25
442.088	21440.7
442.294	21254.33
442.501	21950.64
442.708	22317.23
442.914	23031.97
443.121	24539.27
443.328	23607.45
443.534	25249.92
443.741	24170.64
443.948	24066.19
444.154	26056.82
444.361	25534.59
444.568	25950.32
444.774	25925.75
444.981	26337.39
445.187	27076.71
445.394	28270.67
445.6	27797.59
445.807	30251.06
446.013	29231.17
446.22	29485.12
446.426	30916.65
446.633	30982.18
446.839	32247.83
447.046	30189.62
447.252	32405.52
447.459	32374.8
447.665	32124.95
447.871	33247.24
448.078	34856.94
448.284	33060.87
448.491	34357.24
448.697	35282.92
448.903	35977.18
449.11	36308.95
449.316	35379.17
449.522	35932.12
449.728	37060.55
449.935	37068.75
450.141	37246.92
450.347	38072.25
450.553	36708.3
450.76	37457.86
450.966	38481.84
451.172	37961.66
451.378	39063.47
451.584	38182.84
451.791	38848.43
451.997	38358.97
452.203	39473.06
452.409	39442.34
452.615	39274.41
452.821	37697.47
453.027	37457.86
453.233	39374.76
453.44	37291.97
453.646	38041.53
453.852	38166.46
454.058	39192.49
454.264	37543.88
454.47	38098.87
454.676	37846.97
454.882	38522.8
455.088	35049.45
455.294	35663.84
455.5	36489.17
455.705	36642.77
455.911	35026.92
456.117	34281.46
456.323	33513.47
456.529	32114.71
456.735	33155.08
456.941	32690.19
457.147	32149.53
457.352	31258.66
457.558	30738.47
457.764	30859.31
457.97	30267.44
458.176	29620.28
458.381	29724.73
458.587	28194.9
458.793	28172.37
458.999	26234.99
459.204	28194.9
459.41	27646.04
459.616	25888.88
459.821	25817.21
460.027	25712.76
460.233	25340.03
460.438	24184.97
460.644	24436.88
460.85	23173.28
461.055	22931.62
461.261	23050.4
461.466	21035.2
461.672	20502.73
461.878	21924.02
462.083	20547.78
462.289	20271.31
462.494	19771.6
462.7	19032.29
462.905	18559.2
463.111	19161.31
463.316	19552.47
463.522	18651.36
463.727	19009.76
463.932	18850.02
464.138	18872.54
464.343	18622.69
464.549	18176.23
464.754	18946.27
464.959	18979.04
465.165	18610.4
465.37	17682.67
465.575	17064.19
465.781	17922.29
465.986	18211.05
466.191	17346.81
466.397	16767.23
466.602	16484.61
466.807	16824.58
467.012	16982.27
467.218	16568.58
467.423	16521.48
467.628	16693.51
