Data from USB4F104151__186__10-27-56-387.txt Node

Date: Wed Mar 12 10:27:56 EDT 2025
User: louis
Spectrometer: USB4F10415
Trigger mode: 4
Integration Time (sec): 3.000000E-2
Scans to average: 1
Electric dark correction enabled: true
Nonlinearity correction enabled: false
Boxcar width: 0
XAxis mode: Wavelengths
Number of Pixels in Spectrum: 3648
>>>>>Begin Spectral Data<<<<<
178.204	-195.75
178.424	-195.75
178.644	-195.75
178.864	-54.44
179.084	-113.83
179.304	-3.24
179.524	2.9
179.744	-27.82
179.964	4.95
180.184	-81.07
180.404	-5.29
180.624	50
180.844	-3.24
181.064	-42.15
181.283	17.24
181.503	35.67
181.723	52.05
181.943	-58.54
182.163	60.24
182.383	-25.77
182.602	60.24
182.822	-36.01
183.042	-27.82
183.262	-40.11
183.482	11.09
183.701	35.67
183.921	31.57
184.141	33.62
184.361	13.14
184.58	-31.91
184.8	17.24
185.02	-17.58
185.239	17.24
185.459	35.67
185.679	29.52
185.898	-50.35
186.118	4.95
186.338	13.14
186.557	-21.67
186.777	-19.63
186.997	-48.3
187.216	41.81
187.436	25.43
187.655	9.05
187.875	50
188.095	68.44
188.314	86.87
188.534	27.48
188.753	-11.43
188.973	54.1
189.192	47.96
189.412	15.19
189.631	43.86
189.851	45.91
190.07	101.2
190.29	15.19
190.509	80.72
190.729	-21.67
190.948	123.73
191.168	113.49
191.387	62.29
191.607	-27.82
191.826	0.85
192.045	15.19
192.265	0.85
192.484	35.67
192.704	0.85
192.923	60.24
193.142	84.82
193.362	43.86
193.581	58.2
193.8	27.48
194.02	29.52
194.239	60.24
194.458	62.29
194.678	66.39
194.897	72.53
195.116	13.14
195.335	29.52
195.555	-9.39
195.774	33.62
195.993	13.14
196.212	39.76
196.432	-3.24
196.651	17.24
196.87	41.81
197.089	37.72
197.308	45.91
197.528	72.53
197.747	-19.63
197.966	17.24
198.185	11.09
198.404	37.72
198.623	11.09
198.842	54.1
199.062	58.2
199.281	103.25
199.5	52.05
199.719	119.64
199.938	93.01
200.157	70.48
200.376	-21.67
200.595	21.33
200.814	-13.48
201.033	-23.72
201.252	-1.19
201.471	86.87
201.69	35.67
201.909	-23.72
202.128	-29.87
202.347	-3.24
202.566	-25.77
202.785	37.72
203.004	39.76
203.223	90.96
203.442	45.91
203.661	29.52
203.879	19.29
204.098	-11.43
204.317	-27.82
204.536	9.05
204.755	74.58
204.974	13.14
205.193	-3.24
205.411	86.87
205.63	56.15
205.849	33.62
206.068	90.96
206.287	17.24
206.505	41.81
206.724	23.38
206.943	0.85
207.162	23.38
207.381	-7.34
207.599	37.72
207.818	-21.67
208.037	17.24
208.255	39.76
208.474	33.62
208.693	25.43
208.911	111.44
209.13	97.11
209.349	7
209.567	-3.24
209.786	11.09
210.005	-1.19
210.223	9.05
210.442	-56.49
210.661	54.1
210.879	11.09
211.098	35.67
211.316	64.34
211.535	-11.43
211.753	29.52
211.972	58.2
212.191	62.29
212.409	13.14
212.628	19.29
212.846	-56.49
213.065	47.96
213.283	31.57
213.502	-31.91
213.72	64.34
213.938	-3.24
214.157	-74.92
214.375	-3.24
214.594	41.81
214.812	54.1
215.031	7
215.249	4.95
215.467	115.54
215.686	-60.59
215.904	43.86
216.122	9.05
216.341	74.58
216.559	19.29
216.778	37.72
216.996	29.52
217.214	60.24
217.432	-11.43
217.651	56.15
217.869	25.43
218.087	17.24
218.306	-11.43
218.524	25.43
218.742	35.67
218.96	11.09
219.179	-9.39
219.397	25.43
219.615	13.14
219.833	76.63
220.051	-9.39
220.27	113.49
220.488	-52.39
220.706	70.48
220.924	-7.34
221.142	-27.82
221.36	-5.29
221.578	76.63
221.796	-66.73
222.015	50
222.233	-17.58
222.451	115.54
222.669	-27.82
222.887	64.34
223.105	-5.29
223.323	-7.34
223.541	58.2
223.759	43.86
223.977	-62.63
224.195	133.97
224.413	17.24
224.631	19.29
224.849	54.1
225.067	58.2
225.285	35.67
225.503	52.05
225.721	2.9
225.939	0.85
226.157	-31.91
226.375	111.44
226.592	0.85
226.81	-56.49
227.028	95.06
227.246	17.24
227.464	31.57
227.682	62.29
227.9	-11.43
228.117	111.44
228.335	-3.24
228.553	54.1
228.771	13.14
228.989	62.29
229.206	7
229.424	-62.63
229.642	43.86
229.86	-15.53
230.077	-15.53
230.295	25.43
230.513	127.83
230.731	2.9
230.948	-23.72
231.166	33.62
231.384	70.48
231.601	0.85
231.819	-58.54
232.037	-7.34
232.254	-40.11
232.472	-3.24
232.689	-52.39
232.907	54.1
233.125	37.72
233.342	0.85
233.56	-60.59
233.777	-3.24
233.995	27.48
234.213	4.95
234.43	41.81
234.648	21.33
234.865	56.15
235.083	23.38
235.3	15.19
235.518	78.68
235.735	-3.24
235.953	54.1
236.17	-7.34
236.388	50
236.605	41.81
236.822	58.2
237.04	80.72
237.257	-46.25
237.475	25.43
237.692	11.09
237.909	-40.11
238.127	0.85
238.344	58.2
238.562	-21.67
238.779	60.24
238.996	-52.39
239.214	31.57
239.431	45.91
239.648	-29.87
239.865	62.29
240.083	-13.48
240.3	41.81
240.517	-19.63
240.735	78.68
240.952	47.96
241.169	39.76
241.386	88.92
241.603	11.09
241.821	2.9
242.038	-11.43
242.255	54.1
242.472	21.33
242.689	-7.34
242.907	82.77
243.124	-29.87
243.341	105.3
243.558	7
243.775	-1.19
243.992	-44.2
244.209	-11.43
244.426	58.2
244.643	142.16
244.86	25.43
245.078	60.24
245.295	43.86
245.512	-33.96
245.729	37.72
245.946	35.67
246.163	37.72
246.38	41.81
246.597	-19.63
246.814	9.05
247.031	2.9
247.248	47.96
247.464	54.1
247.681	17.24
247.898	78.68
248.115	-1.19
248.332	47.96
248.549	99.16
248.766	50
248.983	41.81
249.2	64.34
249.417	-3.24
249.633	-29.87
249.85	19.29
250.067	13.14
250.284	-15.53
250.501	62.29
250.717	45.91
250.934	68.44
251.151	33.62
251.368	19.29
251.585	66.39
251.801	-9.39
252.018	13.14
252.235	-19.63
252.451	-44.2
252.668	-23.72
252.885	62.29
253.102	0.85
253.318	27.48
253.535	66.39
253.752	70.48
253.968	-46.25
254.185	-52.39
254.401	58.2
254.618	33.62
254.835	4.95
255.051	58.2
255.268	62.29
255.484	45.91
255.701	25.43
255.917	115.54
256.134	-54.44
256.351	-3.24
256.567	39.76
256.784	15.19
257	39.76
257.217	15.19
257.433	25.43
257.65	45.91
257.866	70.48
258.082	15.19
258.299	52.05
258.515	88.92
258.732	9.05
258.948	33.62
259.165	58.2
259.381	-11.43
259.597	125.78
259.814	54.1
260.03	9.05
260.246	31.57
260.463	37.72
260.679	29.52
260.895	56.15
261.112	-44.2
261.328	19.29
261.544	-31.91
261.761	29.52
261.977	0.85
262.193	-40.11
262.409	-11.43
262.626	21.33
262.842	25.43
263.058	25.43
263.274	86.87
263.49	-9.39
263.707	-23.72
263.923	56.15
264.139	15.19
264.355	13.14
264.571	68.44
264.787	-36.01
265.004	13.14
265.22	17.24
265.436	56.15
265.652	-17.58
265.868	43.86
266.084	-72.87
266.3	103.25
266.516	-42.15
266.732	-27.82
266.948	37.72
267.164	82.77
267.38	13.14
267.596	31.57
267.812	17.24
268.028	37.72
268.244	-3.24
268.46	-40.11
268.676	-11.43
268.892	84.82
269.108	-11.43
269.324	-19.63
269.54	-50.35
269.756	50
269.972	-52.39
270.188	29.52
270.403	37.72
270.619	25.43
270.835	-33.96
271.051	58.2
271.267	19.29
271.483	88.92
271.698	-25.77
271.914	35.67
272.13	2.9
272.346	66.39
272.562	68.44
272.777	27.48
272.993	54.1
273.209	90.96
273.425	45.91
273.64	25.43
273.856	-27.82
274.072	37.72
274.287	45.91
274.503	27.48
274.719	13.14
274.934	-29.87
275.15	-60.59
275.366	50
275.581	9.05
275.797	50
276.012	21.33
276.228	70.48
276.444	62.29
276.659	19.29
276.875	35.67
277.09	39.76
277.306	-68.78
277.521	11.09
277.737	35.67
277.952	35.67
278.168	7
278.383	86.87
278.599	50
278.814	27.48
279.03	-3.24
279.245	25.43
279.461	37.72
279.676	-3.24
279.892	0.85
280.107	7
280.322	-7.34
280.538	33.62
280.753	-60.59
280.969	54.1
281.184	4.95
281.399	82.77
281.615	41.81
281.83	60.24
282.045	2.9
282.26	-3.24
282.476	43.86
282.691	82.77
282.906	-42.15
283.122	-50.35
283.337	-29.87
283.552	41.81
283.767	-58.54
283.983	144.21
284.198	29.52
284.413	103.25
284.628	9.05
284.843	41.81
285.058	23.38
285.274	78.68
285.489	-13.48
285.704	84.82
285.919	-3.24
286.134	35.67
286.349	80.72
286.564	-11.43
286.779	74.58
286.995	13.14
287.21	-21.67
287.425	39.76
287.64	43.86
287.855	0.85
288.07	25.43
288.285	-3.24
288.5	43.86
288.715	21.33
288.93	23.38
289.145	4.95
289.36	138.07
289.575	58.2
289.79	25.43
290.004	64.34
290.219	82.77
290.434	33.62
290.649	43.86
290.864	-7.34
291.079	52.05
291.294	-21.67
291.509	60.24
291.724	19.29
291.938	4.95
292.153	25.43
292.368	21.33
292.583	-19.63
292.798	95.06
293.012	93.01
293.227	62.29
293.442	-5.29
293.657	56.15
293.871	2.9
294.086	-66.73
294.301	39.76
294.516	60.24
294.73	129.88
294.945	-5.29
295.16	-3.24
295.374	37.72
295.589	142.16
295.804	35.67
296.018	-21.67
296.233	33.62
296.447	58.2
296.662	-7.34
296.877	4.95
297.091	78.68
297.306	50
297.52	-48.3
297.735	29.52
297.949	-5.29
298.164	101.2
298.378	74.58
298.593	25.43
298.807	-74.92
299.022	66.39
299.236	64.34
299.451	27.48
299.665	-46.25
299.88	27.48
300.094	111.44
300.309	82.77
300.523	19.29
300.737	33.62
300.952	72.53
301.166	-17.58
301.381	27.48
301.595	2.9
301.809	-29.87
302.024	-54.44
302.238	45.91
302.452	76.63
302.667	2.9
302.881	13.14
303.095	21.33
303.309	19.29
303.524	-33.96
303.738	-36.01
303.952	25.43
304.166	64.34
304.381	17.24
304.595	74.58
304.809	103.25
305.023	-7.34
305.237	37.72
305.452	-25.77
305.666	21.33
305.88	115.54
306.094	2.9
306.308	7
306.522	121.68
306.736	4.95
306.95	-1.19
307.164	47.96
307.379	11.09
307.593	115.54
307.807	107.35
308.021	70.48
308.235	76.63
308.449	-31.91
308.663	60.24
308.877	19.29
309.091	68.44
309.305	90.96
309.519	21.33
309.733	68.44
309.947	13.14
310.161	2.9
310.374	41.81
310.588	37.72
310.802	27.48
311.016	64.34
311.23	50
311.444	23.38
311.658	-7.34
311.872	82.77
312.085	76.63
312.299	45.91
312.513	107.35
312.727	70.48
312.941	11.09
313.154	19.29
313.368	62.29
313.582	39.76
313.796	52.05
314.009	0.85
314.223	72.53
314.437	74.58
314.651	62.29
314.864	78.68
315.078	23.38
315.292	93.01
315.505	-31.91
315.719	35.67
315.933	25.43
316.146	43.86
316.36	-7.34
316.573	72.53
316.787	90.96
317.001	66.39
317.214	-46.25
317.428	90.96
317.641	-1.19
317.855	-7.34
318.068	9.05
318.282	11.09
318.495	80.72
318.709	107.35
318.922	45.91
319.136	47.96
319.349	90.96
319.563	95.06
319.776	33.62
319.99	-21.67
320.203	19.29
320.417	9.05
320.63	62.29
320.843	90.96
321.057	66.39
321.27	93.01
321.483	62.29
321.697	17.24
321.91	43.86
322.124	78.68
322.337	99.16
322.55	-50.35
322.763	45.91
322.977	62.29
323.19	-13.48
323.403	27.48
323.617	17.24
323.83	17.24
324.043	31.57
324.256	54.1
324.469	35.67
324.683	125.78
324.896	33.62
325.109	4.95
325.322	33.62
325.535	103.25
325.748	103.25
325.962	-11.43
326.175	23.38
326.388	70.48
326.601	9.05
326.814	72.53
327.027	99.16
327.24	97.11
327.453	-56.49
327.666	99.16
327.879	80.72
328.092	35.67
328.305	64.34
328.518	-48.3
328.731	70.48
328.944	35.67
329.157	68.44
329.37	86.87
329.583	66.39
329.796	19.29
330.009	39.76
330.222	29.52
330.435	123.73
330.648	125.78
330.861	-21.67
331.073	-13.48
331.286	23.38
331.499	11.09
331.712	37.72
331.925	-17.58
332.138	-19.63
332.35	27.48
332.563	-9.39
332.776	60.24
332.989	-36.01
333.202	45.91
333.414	99.16
333.627	33.62
333.84	0.85
334.053	9.05
334.265	41.81
334.478	13.14
334.691	-52.39
334.903	45.91
335.116	-70.83
335.329	-13.48
335.541	58.2
335.754	66.39
335.966	29.52
336.179	72.53
336.392	35.67
336.604	35.67
336.817	86.87
337.029	78.68
337.242	50
337.454	29.52
337.667	-7.34
337.88	60.24
338.092	86.87
338.305	80.72
338.517	13.14
338.729	80.72
338.942	62.29
339.154	23.38
339.367	-23.72
339.579	21.33
339.792	-33.96
340.004	56.15
340.217	43.86
340.429	50
340.641	-19.63
340.854	-36.01
341.066	-40.11
341.278	66.39
341.491	70.48
341.703	54.1
341.915	0.85
342.128	25.43
342.34	7
342.552	19.29
342.764	35.67
342.977	0.85
343.189	47.96
343.401	45.91
343.613	-60.59
343.826	60.24
344.038	-9.39
344.25	33.62
344.462	-27.82
344.674	60.24
344.886	50
345.099	25.43
345.311	0.85
345.523	52.05
345.735	-3.24
345.947	-29.87
346.159	43.86
346.371	-1.19
346.583	70.48
346.795	117.59
347.007	0.85
347.219	60.24
347.431	15.19
347.643	60.24
347.855	35.67
348.067	13.14
348.279	19.29
348.491	25.43
348.703	17.24
348.915	62.29
349.127	-52.39
349.339	93.01
349.551	39.76
349.763	19.29
349.975	27.48
350.187	88.92
350.399	37.72
350.61	27.48
350.822	43.86
351.034	64.34
351.246	39.76
351.458	41.81
351.669	68.44
351.881	74.58
352.093	66.39
352.305	4.95
352.517	-19.63
352.728	111.44
352.94	27.48
353.152	90.96
353.363	-1.19
353.575	93.01
353.787	78.68
353.999	39.76
354.21	52.05
354.422	-72.87
354.633	52.05
354.845	27.48
355.057	50
355.268	4.95
355.48	58.2
355.692	82.77
355.903	45.91
356.115	13.14
356.326	2.9
356.538	119.64
356.749	82.77
356.961	62.29
357.172	7
357.384	15.19
357.595	52.05
357.807	33.62
358.018	68.44
358.23	86.87
358.441	50
358.653	56.15
358.864	33.62
359.075	21.33
359.287	86.87
359.498	97.11
359.709	33.62
359.921	50
360.132	41.81
360.344	-48.3
360.555	66.39
360.766	39.76
360.977	74.58
361.189	68.44
361.4	33.62
361.611	62.29
361.823	70.48
362.034	39.76
362.245	-44.2
362.456	58.2
362.667	45.91
362.879	93.01
363.09	97.11
363.301	45.91
363.512	72.53
363.723	-15.53
363.935	11.09
364.146	47.96
364.357	45.91
364.568	70.48
364.779	84.82
364.99	93.01
365.201	27.48
365.412	54.1
365.623	31.57
365.834	31.57
366.045	103.25
366.256	25.43
366.467	60.24
366.678	0.85
366.889	-29.87
367.1	-13.48
367.311	60.24
367.522	-1.19
367.733	78.68
367.944	-1.19
368.155	27.48
368.366	25.43
368.577	23.38
368.788	52.05
368.999	-95.4
369.209	62.29
369.42	93.01
369.631	156.5
369.842	58.2
370.053	45.91
370.264	31.57
370.474	86.87
370.685	123.73
370.896	60.24
371.107	47.96
371.317	60.24
371.528	93.01
371.739	58.2
371.95	23.38
372.16	64.34
372.371	-9.39
372.582	-19.63
372.792	11.09
373.003	4.95
373.214	27.48
373.424	-11.43
373.635	-9.39
373.846	76.63
374.056	90.96
374.267	-5.29
374.477	25.43
374.688	29.52
374.898	17.24
375.109	90.96
375.319	74.58
375.53	58.2
375.74	80.72
375.951	0.85
376.161	-31.91
376.372	72.53
376.582	41.81
376.793	29.52
377.003	82.77
377.214	35.67
377.424	37.72
377.635	33.62
377.845	101.2
378.055	56.15
378.266	70.48
378.476	7
378.686	23.38
378.897	-29.87
379.107	47.96
379.317	56.15
379.528	-3.24
379.738	107.35
379.948	39.76
380.158	93.01
380.369	19.29
380.579	0.85
380.789	50
380.999	62.29
381.21	129.88
381.42	13.14
381.63	31.57
381.84	-36.01
382.05	-3.24
382.261	140.12
382.471	25.43
382.681	19.29
382.891	54.1
383.101	68.44
383.311	56.15
383.521	7
383.731	27.48
383.941	50
384.151	64.34
384.361	31.57
384.571	60.24
384.781	52.05
384.991	115.54
385.201	80.72
385.411	56.15
385.621	31.57
385.831	131.92
386.041	93.01
386.251	52.05
386.461	70.48
386.671	31.57
386.881	11.09
387.091	78.68
387.301	45.91
387.511	-31.91
387.72	58.2
387.93	-1.19
388.14	-15.53
388.35	35.67
388.56	-1.19
388.769	47.96
388.979	37.72
389.189	43.86
389.399	109.4
389.609	35.67
389.818	78.68
390.028	25.43
390.238	82.77
390.447	54.1
390.657	56.15
390.867	13.14
391.076	62.29
391.286	62.29
391.496	33.62
391.705	19.29
391.915	103.25
392.125	123.73
392.334	19.29
392.544	37.72
392.753	11.09
392.963	56.15
393.172	82.77
393.382	50
393.591	113.49
393.801	140.12
394.01	66.39
394.22	72.53
394.429	25.43
394.639	99.16
394.848	84.82
395.058	115.54
395.267	52.05
395.477	111.44
395.686	101.2
395.895	90.96
396.105	39.76
396.314	88.92
396.524	56.15
396.733	25.43
396.942	86.87
397.152	140.12
397.361	129.88
397.57	93.01
397.78	72.53
397.989	74.58
398.198	158.55
398.407	70.48
398.617	60.24
398.826	62.29
399.035	37.72
399.244	54.1
399.453	113.49
399.663	131.92
399.872	115.54
400.081	47.96
400.29	125.78
400.499	78.68
400.708	82.77
400.917	58.2
401.127	115.54
401.336	58.2
401.545	144.21
401.754	127.83
401.963	152.4
402.172	43.86
402.381	113.49
402.59	37.72
402.799	168.79
403.008	133.97
403.217	213.84
403.426	138.07
403.635	70.48
403.844	101.2
404.053	168.79
404.262	99.16
404.471	115.54
404.68	156.5
404.888	121.68
405.097	50
405.306	142.16
405.515	144.21
405.724	217.94
405.933	150.36
406.142	199.51
406.35	168.79
406.559	123.73
406.768	109.4
406.977	222.03
407.185	140.12
407.394	203.6
407.603	150.36
407.812	160.59
408.02	271.19
408.229	207.7
408.438	189.27
408.646	213.84
408.855	213.84
409.064	262.99
409.272	258.9
409.481	246.61
409.69	201.55
409.898	160.59
410.107	246.61
410.315	328.53
410.524	252.75
410.733	349.01
410.941	295.76
411.15	353.1
411.358	283.47
411.567	371.54
411.775	387.92
411.984	371.54
412.192	455.5
412.401	357.2
412.609	492.37
412.818	377.68
413.026	478.03
413.234	500.56
413.443	443.21
413.651	506.7
413.86	504.65
414.068	584.52
414.276	531.28
414.485	562
414.693	584.52
414.901	648.01
415.11	598.86
415.318	639.82
415.526	699.21
415.734	721.74
415.943	750.41
416.151	861
416.359	758.6
416.567	750.41
416.776	838.47
416.984	889.67
417.192	863.05
417.4	865.1
417.608	928.58
417.817	940.87
418.025	955.21
418.233	1123.14
418.441	1110.85
418.649	1180.48
418.857	1184.58
419.065	1258.31
419.273	1237.83
419.481	1280.83
419.689	1366.85
419.897	1348.42
420.105	1434.43
420.313	1444.67
420.521	1389.38
420.729	1504.06
420.937	1608.51
421.145	1706.81
421.353	1706.81
421.561	1782.59
421.769	1905.46
421.977	1846.07
422.185	1921.85
422.393	1927.99
422.601	2149.17
422.809	2188.08
423.017	2122.55
423.224	2229.04
423.432	2216.76
423.64	2282.29
423.848	2448.18
424.056	2339.63
424.263	2614.06
424.471	2593.58
424.679	2609.97
424.887	2718.51
425.094	3013.42
425.302	2847.53
425.51	3167.01
425.718	3025.7
425.925	3228.45
426.133	3154.73
426.341	3408.67
426.548	3414.82
426.756	3558.18
426.964	3685.15
427.171	3951.39
427.379	3912.47
427.586	4023.06
427.794	4098.84
428.001	4309.78
428.209	4596.5
428.417	4569.87
428.624	4813.58
428.832	4616.97
429.039	4789
429.247	4801.29
429.454	4963.08
429.662	5597.95
429.869	5131.02
430.076	5550.85
430.284	5331.72
430.491	5540.61
430.699	5759.74
430.906	6009.59
431.114	6038.27
431.321	6060.79
431.528	6435.57
431.736	6691.57
431.943	7084.78
432.15	6695.66
432.358	6970.09
432.565	7195.37
432.772	7185.13
432.979	7561.95
433.187	7836.38
433.394	7779.04
433.601	8397.53
433.808	8229.59
434.016	8405.72
434.223	8610.51
434.43	9102.03
434.637	9011.92
434.844	9677.51
435.052	9874.11
435.259	9661.12
435.466	9689.79
435.673	9824.96
435.88	10367.67
436.087	10848.94
436.294	10834.61
436.501	10515.12
436.708	10924.72
436.915	11248.3
437.122	11653.8
437.329	11416.23
437.537	11979.42
437.743	12194.46
437.95	12151.45
438.157	12933.78
438.364	13202.06
438.571	13066.89
438.778	13027.98
438.985	14547.58
439.192	13890.18
439.399	14316.15
439.606	13992.58
439.813	14924.4
440.02	15721.06
440.227	15493.74
440.433	15272.56
440.64	15753.83
440.847	15714.92
441.054	15848.04
441.261	17111.63
441.467	16814.68
441.674	17377.87
441.881	17762.89
442.088	17556.04
442.294	17607.24
442.501	17801.8
442.708	18281.02
442.914	19159.6
443.121	19790.38
443.328	19456.56
443.534	20826.65
443.741	20300.32
443.948	19782.18
444.154	21482
444.361	21264.91
444.568	21291.54
444.774	21262.86
444.981	21678.6
445.187	22336
445.394	23392.75
445.6	22733.31
445.807	24797.66
446.013	23878.12
446.22	24406.5
446.426	25197.01
446.633	25539.02
446.839	26642.88
447.046	25604.56
447.252	26581.44
447.459	26399.17
447.665	26616.26
447.871	27464.11
448.078	28895.64
448.284	27359.67
448.491	27961.77
448.697	29153.69
448.903	29712.78
449.11	30249.35
449.316	28967.32
449.522	29987.21
449.728	30296.46
449.935	30763.39
450.141	30517.64
450.347	31168.89
450.553	30443.91
450.76	30734.72
450.966	31414.65
451.172	31447.41
451.378	32084.33
451.584	31558
451.791	32188.78
451.997	32121.2
452.203	32526.69
452.409	32489.83
452.615	32135.53
452.821	31256.95
453.027	30960
453.233	32129.39
453.44	30751.1
453.646	31953.26
453.852	31826.29
454.058	32061.8
454.264	30824.83
454.47	31596.92
454.676	30738.82
454.882	31988.08
455.088	29153.69
455.294	29237.66
455.5	29819.28
455.705	29950.35
455.911	28864.92
456.117	28432.8
456.323	28359.08
456.529	26458.56
456.735	27595.18
456.941	26669.5
457.147	26558.91
457.352	25643.47
457.558	25258.45
457.764	25360.85
457.97	24986.07
458.176	24254.95
458.381	24422.88
458.587	22880.76
458.793	22866.42
458.999	21643.79
459.204	23366.13
459.41	22823.42
459.616	21164.56
459.821	21301.78
460.027	21250.58
460.233	21070.36
460.438	19849.77
460.644	20222.5
460.85	19112.5
461.055	18805.3
461.261	18840.12
461.466	17375.82
461.672	16720.47
461.878	18104.9
462.083	16708.18
462.289	16505.43
462.494	16206.43
462.7	15610.47
462.905	15168.11
463.111	15735.4
463.316	15880.8
463.522	15575.66
463.727	15323.76
463.932	15303.28
464.138	15620.71
464.343	15239.79
464.549	14985.84
464.754	15460.97
464.959	15237.74
465.165	15184.49
465.37	14641.78
465.575	14234.24
465.781	14787.19
465.986	14748.28
466.191	14516.86
466.397	13951.62
466.602	13345.42
466.807	14023.3
467.012	13730.44
467.218	13912.71
467.423	13566.6
467.628	13838.98
467.833	14396.03
468.038	13904.51
468.244	13271.69
468.449	14078.59
468.654	13521.54
