Data from USB4F104151__179__10-27-50-537.txt Node

Date: Wed Mar 12 10:27:50 EDT 2025
User: louis
Spectrometer: USB4F10415
Trigger mode: 4
Integration Time (sec): 3.000000E-2
Scans to average: 1
Electric dark correction enabled: true
Nonlinearity correction enabled: false
Boxcar width: 0
XAxis mode: Wavelengths
Number of Pixels in Spectrum: 3648
>>>>>Begin Spectral Data<<<<<
178.204	-121.17
178.424	-121.17
178.644	-121.17
178.864	-141.65
179.084	-88.4
179.304	11.95
179.524	-18.77
179.744	24.23
179.964	59.05
180.184	30.38
180.404	26.28
180.624	-2.39
180.844	-47.44
181.064	-14.68
181.283	-61.78
181.503	-41.3
181.723	34.47
181.943	-63.83
182.163	32.43
182.383	61.1
182.602	52.91
182.822	-12.63
183.042	34.47
183.262	-51.54
183.482	50.86
183.701	-18.77
183.921	-2.39
184.141	-72.02
184.361	52.91
184.58	30.38
184.8	-41.3
185.02	-51.54
185.239	-55.64
185.459	-35.16
185.679	44.71
185.898	-98.64
186.118	54.95
186.338	38.57
186.557	54.95
186.777	-14.68
186.997	-4.44
187.216	-47.44
187.436	-14.68
187.655	13.99
187.875	-20.82
188.095	26.28
188.314	32.43
188.534	7.85
188.753	-35.16
188.973	-0.34
189.192	9.9
189.412	26.28
189.631	-29.01
189.851	18.09
190.07	67.24
190.29	-55.64
190.509	-43.35
190.729	-72.02
190.948	57
191.168	95.91
191.387	138.92
191.607	57
191.826	-22.87
192.045	-26.96
192.265	-18.77
192.484	-4.44
192.704	16.04
192.923	-26.96
193.142	59.05
193.362	9.9
193.581	32.43
193.8	18.09
194.02	59.05
194.239	1.71
194.458	1.71
194.678	67.24
194.897	63.15
195.116	32.43
195.335	-0.34
195.555	18.09
195.774	-33.11
195.993	-10.58
196.212	16.04
196.432	-14.68
196.651	-26.96
196.87	1.71
197.089	97.96
197.308	106.15
197.528	13.99
197.747	-2.39
197.966	7.85
198.185	83.63
198.404	77.48
198.623	-20.82
198.842	9.9
199.062	40.62
199.281	52.91
199.5	30.38
199.719	85.67
199.938	-49.49
200.157	48.81
200.376	9.9
200.595	7.85
200.814	-2.39
201.033	63.15
201.252	-53.59
201.471	38.57
201.69	81.58
201.909	-10.58
202.128	-31.06
202.347	52.91
202.566	20.14
202.785	-80.21
203.004	-8.53
203.223	145.06
203.442	-53.59
203.661	34.47
203.879	110.25
204.098	46.76
204.317	3.75
204.536	61.1
204.755	1.71
204.974	61.1
205.193	-10.58
205.411	63.15
205.63	-26.96
205.849	7.85
206.068	-0.34
206.287	-22.87
206.505	-53.59
206.724	-2.39
206.943	46.76
207.162	-6.49
207.381	28.33
207.599	1.71
207.818	63.15
208.037	-24.92
208.255	24.23
208.474	-2.39
208.693	18.09
208.911	-96.6
209.13	-4.44
209.349	-43.35
209.567	18.09
209.786	75.43
210.005	30.38
210.223	52.91
210.442	-72.02
210.661	18.09
210.879	44.71
211.098	13.99
211.316	30.38
211.535	1.71
211.753	54.95
211.972	54.95
212.191	-41.3
212.409	-16.73
212.628	38.57
212.846	-43.35
213.065	44.71
213.283	46.76
213.502	-29.01
213.72	-39.25
213.938	-69.97
214.157	59.05
214.375	11.95
214.594	13.99
214.812	-43.35
215.031	57
215.249	-84.31
215.467	20.14
215.686	100.01
215.904	-29.01
216.122	71.34
216.341	-18.77
216.559	46.76
216.778	7.85
216.996	26.28
217.214	34.47
217.432	9.9
217.651	52.91
217.869	-0.34
218.087	-2.39
218.306	7.85
218.524	13.99
218.742	20.14
218.96	112.3
219.179	38.57
219.397	36.52
219.615	59.05
219.833	26.28
220.051	52.91
220.27	-14.68
220.488	-16.73
220.706	18.09
220.924	1.71
221.142	1.71
221.36	13.99
221.578	28.33
221.796	-2.39
222.015	-6.49
222.233	18.09
222.451	75.43
222.669	-39.25
222.887	71.34
223.105	83.63
223.323	-14.68
223.541	-78.16
223.759	63.15
223.977	-14.68
224.195	77.48
224.413	24.23
224.631	16.04
224.849	54.95
225.067	93.87
225.285	-18.77
225.503	13.99
225.721	-67.92
225.939	-41.3
226.157	69.29
226.375	124.58
226.592	38.57
226.81	32.43
227.028	32.43
227.246	122.54
227.464	22.19
227.682	13.99
227.9	18.09
228.117	59.05
228.335	28.33
228.553	7.85
228.771	5.8
228.989	-16.73
229.206	122.54
229.424	18.09
229.642	71.34
229.86	-8.53
230.077	-20.82
230.295	3.75
230.513	-6.49
230.731	5.8
230.948	5.8
231.166	30.38
231.384	67.24
231.601	7.85
231.819	5.8
232.037	3.75
232.254	-2.39
232.472	-65.88
232.689	32.43
232.907	38.57
233.125	11.95
233.342	9.9
233.56	-45.4
233.777	40.62
233.995	28.33
234.213	-14.68
234.43	75.43
234.648	-6.49
234.865	61.1
235.083	1.71
235.3	13.99
235.518	-22.87
235.735	44.71
235.953	24.23
236.17	18.09
236.388	-24.92
236.605	20.14
236.822	7.85
237.04	20.14
237.257	-22.87
237.475	32.43
237.692	-14.68
237.909	-24.92
238.127	-39.25
238.344	77.48
238.562	32.43
238.779	-61.78
238.996	18.09
239.214	1.71
239.431	30.38
239.648	57
239.865	18.09
240.083	1.71
240.3	-55.64
240.517	-55.64
240.735	-8.53
240.952	44.71
241.169	-29.01
241.386	65.19
241.603	24.23
241.821	26.28
242.038	9.9
242.255	-20.82
242.472	-43.35
242.689	-31.06
242.907	22.19
243.124	-10.58
243.341	-20.82
243.558	26.28
243.775	46.76
243.992	-51.54
244.209	-0.34
244.426	100.01
244.643	3.75
244.86	9.9
245.078	52.91
245.295	-18.77
245.512	24.23
245.729	11.95
245.946	83.63
246.163	97.96
246.38	3.75
246.597	-0.34
246.814	73.39
247.031	-14.68
247.248	67.24
247.464	106.15
247.681	24.23
247.898	48.81
248.115	59.05
248.332	28.33
248.549	83.63
248.766	11.95
248.983	-8.53
249.2	-24.92
249.417	50.86
249.633	-31.06
249.85	3.75
250.067	-6.49
250.284	-14.68
250.501	32.43
250.717	50.86
250.934	-35.16
251.151	38.57
251.368	-24.92
251.585	-0.34
251.801	-2.39
252.018	-22.87
252.235	34.47
252.451	-43.35
252.668	-29.01
252.885	97.96
253.102	26.28
253.318	-33.11
253.535	-33.11
253.752	-20.82
253.968	20.14
254.185	-10.58
254.401	-2.39
254.618	54.95
254.835	-29.01
255.051	75.43
255.268	-26.96
255.484	-43.35
255.701	57
255.917	100.01
256.134	-51.54
256.351	26.28
256.567	38.57
256.784	24.23
257	-6.49
257.217	18.09
257.433	59.05
257.65	13.99
257.866	18.09
258.082	13.99
258.299	40.62
258.515	71.34
258.732	48.81
258.948	-22.87
259.165	34.47
259.381	20.14
259.597	5.8
259.814	30.38
260.03	48.81
260.246	40.62
260.463	9.9
260.679	26.28
260.895	-33.11
261.112	28.33
261.328	-41.3
261.544	-29.01
261.761	1.71
261.977	-20.82
262.193	-29.01
262.409	57
262.626	-16.73
262.842	-0.34
263.058	26.28
263.274	85.67
263.49	26.28
263.707	28.33
263.923	69.29
264.139	-16.73
264.355	77.48
264.571	54.95
264.787	22.19
265.004	128.68
265.22	124.58
265.436	1.71
265.652	-41.3
265.868	32.43
266.084	-51.54
266.3	71.34
266.516	-2.39
266.732	-45.4
266.948	-39.25
267.164	9.9
267.38	32.43
267.596	-31.06
267.812	95.91
268.028	48.81
268.244	-33.11
268.46	32.43
268.676	42.67
268.892	-14.68
269.108	-37.2
269.324	85.67
269.54	24.23
269.756	61.1
269.972	-22.87
270.188	22.19
270.403	-14.68
270.619	-35.16
270.835	5.8
271.051	20.14
271.267	-6.49
271.483	1.71
271.698	-8.53
271.914	-49.49
272.13	50.86
272.346	13.99
272.562	34.47
272.777	91.82
272.993	-18.77
273.209	-43.35
273.425	48.81
273.64	28.33
273.856	26.28
274.072	-4.44
274.287	-39.25
274.503	28.33
274.719	128.68
274.934	-90.45
275.15	-16.73
275.366	-6.49
275.581	-72.02
275.797	42.67
276.012	-14.68
276.228	9.9
276.444	22.19
276.659	50.86
276.875	16.04
277.09	-14.68
277.306	24.23
277.521	16.04
277.737	9.9
277.952	81.58
278.168	48.81
278.383	50.86
278.599	42.67
278.814	36.52
279.03	18.09
279.245	57
279.461	40.62
279.676	59.05
279.892	75.43
280.107	-18.77
280.322	-16.73
280.538	79.53
280.753	28.33
280.969	-0.34
281.184	38.57
281.399	30.38
281.615	-16.73
281.83	-0.34
282.045	20.14
282.26	44.71
282.476	13.99
282.691	54.95
282.906	-2.39
283.122	1.71
283.337	-43.35
283.552	28.33
283.767	-0.34
283.983	34.47
284.198	11.95
284.413	54.95
284.628	52.91
284.843	13.99
285.058	38.57
285.274	-55.64
285.489	67.24
285.704	28.33
285.919	3.75
286.134	20.14
286.349	11.95
286.564	79.53
286.779	9.9
286.995	-63.83
287.21	-45.4
287.425	40.62
287.64	3.75
287.855	73.39
288.07	-37.2
288.285	85.67
288.5	26.28
288.715	114.34
288.93	122.54
289.145	-10.58
289.36	73.39
289.575	-16.73
289.79	30.38
290.004	-20.82
290.219	95.91
290.434	42.67
290.649	48.81
290.864	40.62
291.079	-24.92
291.294	106.15
291.509	-31.06
291.724	5.8
291.938	34.47
292.153	63.15
292.368	-35.16
292.583	59.05
292.798	1.71
293.012	-4.44
293.227	-4.44
293.442	36.52
293.657	83.63
293.871	65.19
294.086	-18.77
294.301	57
294.516	24.23
294.73	54.95
294.945	-63.83
295.16	1.71
295.374	57
295.589	42.67
295.804	30.38
296.018	46.76
296.233	83.63
296.447	26.28
296.662	-33.11
296.877	52.91
297.091	75.43
297.306	79.53
297.52	24.23
297.735	22.19
297.949	9.9
298.164	59.05
298.378	28.33
298.593	-69.97
298.807	-63.83
299.022	-16.73
299.236	63.15
299.451	-57.68
299.665	-0.34
299.88	9.9
300.094	3.75
300.309	-2.39
300.523	-2.39
300.737	5.8
300.952	16.04
301.166	65.19
301.381	95.91
301.595	-6.49
301.809	5.8
302.024	22.19
302.238	-33.11
302.452	73.39
302.667	-37.2
302.881	75.43
303.095	28.33
303.309	-0.34
303.524	-20.82
303.738	42.67
303.952	-39.25
304.166	63.15
304.381	-88.4
304.595	61.1
304.809	7.85
305.023	134.82
305.237	5.8
305.452	34.47
305.666	67.24
305.88	71.34
306.094	16.04
306.308	59.05
306.522	54.95
306.736	67.24
306.95	63.15
307.164	3.75
307.379	11.95
307.593	83.63
307.807	46.76
308.021	-16.73
308.235	-6.49
308.449	20.14
308.663	5.8
308.877	153.26
309.091	30.38
309.305	48.81
309.519	-47.44
309.733	34.47
309.947	44.71
310.161	50.86
310.374	9.9
310.588	40.62
310.802	-6.49
311.016	3.75
311.23	71.34
311.444	13.99
311.658	30.38
311.872	30.38
312.085	42.67
312.299	81.58
312.513	36.52
312.727	30.38
312.941	11.95
313.154	-22.87
313.368	-29.01
313.582	22.19
313.796	-39.25
314.009	42.67
314.223	89.77
314.437	11.95
314.651	-20.82
314.864	36.52
315.078	54.95
315.292	36.52
315.505	-0.34
315.719	-16.73
315.933	-8.53
316.146	63.15
316.36	-24.92
316.573	16.04
316.787	16.04
317.001	65.19
317.214	-22.87
317.428	-2.39
317.641	63.15
317.855	30.38
318.068	57
318.282	50.86
318.495	79.53
318.709	48.81
318.922	7.85
319.136	7.85
319.349	11.95
319.563	30.38
319.776	28.33
319.99	-10.58
320.203	46.76
320.417	26.28
320.63	65.19
320.843	28.33
321.057	20.14
321.27	65.19
321.483	-8.53
321.697	26.28
321.91	54.95
322.124	71.34
322.337	-6.49
322.55	20.14
322.763	81.58
322.977	-16.73
323.19	57
323.403	63.15
323.617	-39.25
323.83	36.52
324.043	24.23
324.256	59.05
324.469	48.81
324.683	38.57
324.896	9.9
325.109	71.34
325.322	-29.01
325.535	28.33
325.748	38.57
325.962	13.99
326.175	9.9
326.388	38.57
326.601	-12.63
326.814	-2.39
327.027	32.43
327.24	48.81
327.453	9.9
327.666	18.09
327.879	100.01
328.092	30.38
328.305	-31.06
328.518	5.8
328.731	-10.58
328.944	5.8
329.157	-26.96
329.37	18.09
329.583	89.77
329.796	28.33
330.009	46.76
330.222	32.43
330.435	22.19
330.648	24.23
330.861	26.28
331.073	-31.06
331.286	108.2
331.499	61.1
331.712	52.91
331.925	-10.58
332.138	-33.11
332.35	65.19
332.563	38.57
332.776	50.86
332.989	-115.03
333.202	-2.39
333.414	-12.63
333.627	30.38
333.84	34.47
334.053	3.75
334.265	-2.39
334.478	22.19
334.691	24.23
334.903	26.28
335.116	-0.34
335.329	7.85
335.541	-0.34
335.754	65.19
335.966	3.75
336.179	9.9
336.392	-2.39
336.604	32.43
336.817	52.91
337.029	24.23
337.242	3.75
337.454	63.15
337.667	22.19
337.88	50.86
338.092	-0.34
338.305	26.28
338.517	-57.68
338.729	11.95
338.942	40.62
339.154	100.01
339.367	7.85
339.579	71.34
339.792	38.57
340.004	-16.73
340.217	85.67
340.429	-67.92
340.641	-63.83
340.854	3.75
341.066	40.62
341.278	46.76
341.491	73.39
341.703	63.15
341.915	24.23
342.128	44.71
342.34	13.99
342.552	67.24
342.764	48.81
342.977	32.43
343.189	46.76
343.401	16.04
343.613	24.23
343.826	13.99
344.038	-12.63
344.25	-18.77
344.462	34.47
344.674	-12.63
344.886	-26.96
345.099	50.86
345.311	24.23
345.523	18.09
345.735	-35.16
345.947	83.63
346.159	32.43
346.371	54.95
346.583	-12.63
346.795	57
347.007	-22.87
347.219	42.67
347.431	1.71
347.643	18.09
347.855	-31.06
348.067	26.28
348.279	-24.92
348.491	61.1
348.703	36.52
348.915	1.71
349.127	24.23
349.339	59.05
349.551	-41.3
349.763	28.33
349.975	42.67
350.187	16.04
350.399	40.62
350.61	11.95
350.822	-0.34
351.034	18.09
351.246	46.76
351.458	46.76
351.669	5.8
351.881	97.96
352.093	75.43
352.305	69.29
352.517	-31.06
352.728	61.1
352.94	28.33
353.152	-0.34
353.363	-22.87
353.575	52.91
353.787	77.48
353.999	83.63
354.21	97.96
354.422	-2.39
354.633	22.19
354.845	1.71
355.057	5.8
355.268	26.28
355.48	44.71
355.692	63.15
355.903	34.47
356.115	28.33
356.326	-43.35
356.538	108.2
356.749	40.62
356.961	32.43
357.172	38.57
357.384	24.23
357.595	59.05
357.807	87.72
358.018	-86.36
358.23	57
358.441	42.67
358.653	-4.44
358.864	42.67
359.075	59.05
359.287	40.62
359.498	104.11
359.709	24.23
359.921	-65.88
360.132	-6.49
360.344	1.71
360.555	81.58
360.766	20.14
360.977	40.62
361.189	83.63
361.4	-49.49
361.611	36.52
361.823	28.33
362.034	81.58
362.245	-57.68
362.456	32.43
362.667	30.38
362.879	61.1
363.09	104.11
363.301	89.77
363.512	-2.39
363.723	1.71
363.935	20.14
364.146	46.76
364.357	91.82
364.568	5.8
364.779	48.81
364.99	38.57
365.201	71.34
365.412	9.9
365.623	-65.88
365.834	-4.44
366.045	-4.44
366.256	30.38
366.467	-14.68
366.678	40.62
366.889	34.47
367.1	79.53
367.311	22.19
367.522	18.09
367.733	38.57
367.944	93.87
368.155	73.39
368.366	28.33
368.577	40.62
368.788	40.62
368.999	13.99
369.209	63.15
369.42	106.15
369.631	59.05
369.842	32.43
370.053	-8.53
370.264	18.09
370.474	128.68
370.685	40.62
370.896	38.57
371.107	91.82
371.317	73.39
371.528	20.14
371.739	42.67
371.95	42.67
372.16	30.38
372.371	9.9
372.582	40.62
372.792	48.81
373.003	38.57
373.214	32.43
373.424	34.47
373.635	63.15
373.846	26.28
374.056	40.62
374.267	-20.82
374.477	52.91
374.688	13.99
374.898	-6.49
375.109	48.81
375.319	22.19
375.53	63.15
375.74	1.71
375.951	5.8
376.161	46.76
376.372	46.76
376.582	1.71
376.793	32.43
377.003	95.91
377.214	20.14
377.424	40.62
377.635	-0.34
377.845	42.67
378.055	108.2
378.266	-47.44
378.476	63.15
378.686	20.14
378.897	91.82
379.107	-31.06
379.317	89.77
379.528	-0.34
379.738	89.77
379.948	24.23
380.158	69.29
380.369	46.76
380.579	38.57
380.789	30.38
380.999	42.67
381.21	30.38
381.42	177.83
381.63	-6.49
381.84	-10.58
382.05	79.53
382.261	77.48
382.471	79.53
382.681	50.86
382.891	38.57
383.101	13.99
383.311	28.33
383.521	32.43
383.731	26.28
383.941	63.15
384.151	48.81
384.361	30.38
384.571	75.43
384.781	140.97
384.991	95.91
385.201	38.57
385.411	26.28
385.621	93.87
385.831	54.95
386.041	59.05
386.251	28.33
386.461	3.75
386.671	32.43
386.881	1.71
387.091	1.71
387.301	97.96
387.511	13.99
387.72	3.75
387.93	50.86
388.14	20.14
388.35	7.85
388.56	73.39
388.769	106.15
388.979	106.15
389.189	71.34
389.399	26.28
389.609	63.15
389.818	16.04
390.028	83.63
390.238	38.57
390.447	54.95
390.657	95.91
390.867	69.29
391.076	9.9
391.286	3.75
391.496	79.53
391.705	48.81
391.915	18.09
392.125	89.77
392.334	3.75
392.544	59.05
392.753	71.34
392.963	34.47
393.172	-4.44
393.382	38.57
393.591	118.44
393.801	24.23
394.01	95.91
394.22	46.76
394.429	22.19
394.639	52.91
394.848	38.57
395.058	85.67
395.267	20.14
395.477	38.57
395.686	50.86
395.895	93.87
396.105	114.34
396.314	102.06
396.524	112.3
396.733	83.63
396.942	149.16
397.152	87.72
397.361	52.91
397.57	134.82
397.78	16.04
397.989	71.34
398.198	179.88
398.407	75.43
398.617	106.15
398.826	59.05
399.035	65.19
399.244	128.68
399.453	134.82
399.663	13.99
399.872	124.58
400.081	28.33
400.29	89.77
400.499	57
400.708	83.63
400.917	34.47
401.127	34.47
401.336	69.29
401.545	145.06
401.754	81.58
401.963	165.54
402.172	130.73
402.381	63.15
402.59	54.95
402.799	61.1
403.008	157.35
403.217	124.58
403.426	108.2
403.635	124.58
403.844	48.81
404.053	153.26
404.262	83.63
404.471	159.4
404.68	157.35
404.888	65.19
405.097	194.22
405.306	104.11
405.515	83.63
405.724	7.85
405.933	149.16
406.142	95.91
406.35	71.34
406.559	167.59
406.768	208.55
406.977	165.54
407.185	89.77
407.394	222.89
407.603	95.91
407.812	153.26
408.02	173.74
408.229	200.36
408.438	149.16
408.646	177.83
408.855	138.92
409.064	255.65
409.272	179.88
409.481	231.08
409.69	241.32
409.898	206.5
410.107	239.27
410.315	313
410.524	186.02
410.733	265.89
410.941	222.89
411.15	231.08
411.358	306.85
411.567	306.85
411.775	302.76
411.984	329.38
412.192	358.05
412.401	356.01
412.609	321.19
412.818	382.63
413.026	376.48
413.234	399.01
413.443	417.44
413.651	439.97
413.86	411.3
414.068	415.4
414.276	532.13
414.485	456.36
414.693	474.79
414.901	421.54
415.11	534.18
415.318	542.37
415.526	521.89
415.734	669.34
415.943	546.47
416.151	599.71
416.359	614.05
416.567	689.82
416.776	708.26
416.984	812.7
417.192	751.26
417.4	669.34
417.608	777.89
417.817	833.18
418.025	855.71
418.233	927.39
418.441	841.37
418.649	931.48
418.857	1001.12
419.065	968.35
419.273	958.11
419.481	1107.61
419.689	1064.6
419.897	1144.47
420.105	1183.38
420.313	1232.54
420.521	1287.83
420.729	1291.93
420.937	1269.4
421.145	1341.08
421.353	1427.09
421.561	1537.68
421.769	1484.44
421.977	1558.16
422.185	1523.35
422.393	1631.89
422.601	1715.86
422.809	1703.57
423.017	1844.88
423.224	1824.4
423.432	1990.28
423.64	1873.55
423.848	2029.2
424.056	1943.18
424.263	2197.13
424.471	2162.31
424.679	2254.47
424.887	2264.71
425.094	2446.98
425.302	2418.31
425.51	2580.1
425.718	2625.15
425.925	2530.95
426.133	2770.56
426.341	2909.82
426.548	2999.93
426.756	2946.69
426.964	2989.69
427.171	3184.25
427.379	3335.8
427.586	3331.7
427.794	3448.44
428.001	3688.05
428.209	3696.24
428.417	3847.79
428.624	4032.11
428.832	4038.25
429.039	3956.33
429.247	4157.04
429.454	4359.78
429.662	4732.51
429.869	4357.74
430.076	4517.48
430.284	4482.66
430.491	4783.71
430.699	5033.57
430.906	4945.5
431.114	5002.85
431.321	5211.74
431.528	5404.25
431.736	5781.07
431.943	6014.54
432.15	5779.03
432.358	5768.79
432.565	6129.23
432.772	6067.79
432.979	6399.56
433.187	6731.33
433.394	6596.17
433.601	7171.65
433.808	7020.1
434.016	6981.18
434.223	7196.22
434.43	7775.8
434.637	7527.99
434.844	7898.67
435.052	8138.29
435.259	8191.53
435.466	8156.72
435.673	7861.81
435.88	8787.49
436.087	9006.63
436.294	9084.45
436.501	8640.04
436.708	9059.87
436.915	9451.03
437.122	9840.15
437.329	9711.13
437.537	10116.62
437.743	10268.17
437.95	10065.43
438.157	10712.58
438.364	11003.39
438.571	10954.24
438.778	10812.93
438.985	12021.24
439.192	11691.51
439.399	12092.91
439.606	11589.11
439.813	12391.92
440.02	13092.32
440.227	12991.97
440.433	12729.83
440.64	13260.26
440.847	12955.11
441.054	13616.6
441.261	14360.02
441.467	14204.37
441.674	14415.31
441.881	14665.16
442.088	14716.36
442.294	14648.78
442.501	15128
442.708	15244.74
442.914	16039.35
443.121	16903.59
443.328	16313.78
443.534	17429.92
443.741	16833.96
443.948	16653.74
444.154	17980.82
444.361	17665.44
444.568	18001.3
444.774	18048.41
444.981	18029.98
445.187	18670.99
445.394	19559.81
445.6	19094.92
445.807	21046.63
446.013	20180.34
446.22	20290.93
446.426	21427.56
446.633	21304.68
446.839	22023.51
447.046	21429.6
447.252	22261.08
447.459	22566.23
447.665	22402.39
447.871	23127.37
448.078	23907.65
448.284	22979.92
448.491	23479.62
448.697	24730.93
448.903	25242.92
449.11	24862
449.316	24692.02
449.522	25384.23
449.728	25634.08
449.935	25380.14
450.141	25720.1
450.347	26236.19
450.553	25511.21
450.76	25799.97
450.966	26744.08
451.172	26232.09
451.378	26701.08
451.584	26021.15
451.791	27014.41
451.997	26936.59
452.203	27376.9
452.409	27516.17
452.615	27297.03
452.821	26064.16
453.027	25988.38
453.233	27202.83
453.44	25998.62
453.646	26393.88
453.852	26357.02
454.058	26780.95
454.264	25842.98
454.47	26191.13
454.676	25847.07
454.882	26850.58
455.088	24278.33
455.294	24786.22
455.5	24775.98
455.705	25161
455.911	24390.97
456.117	23708.99
456.323	23344.45
456.529	22134.1
456.735	22965.58
456.941	22293.85
457.147	22351.19
457.352	21546.34
457.558	21370.21
457.764	21212.52
457.97	20950.38
458.176	20434.29
458.381	20163.96
458.587	19344.77
458.793	19533.18
458.999	18300.31
459.204	19617.15
459.41	19215.75
459.616	17884.57
459.821	17931.67
460.027	17827.23
460.233	17403.3
460.438	16764.33
460.644	16635.31
460.85	15965.62
461.055	15846.84
461.261	15744.44
461.466	14464.46
461.672	14128.6
461.878	15285.7
462.083	14390.74
462.289	13800.92
462.494	13436.38
462.7	13041.12
462.905	12727.78
463.111	13219.3
463.316	13202.91
463.522	13106.66
463.727	13329.89
463.932	13178.34
464.138	12596.71
464.343	13116.9
464.549	12719.59
464.754	12957.16
464.959	13075.94
465.165	12908.01
465.37	12113.39
465.575	11804.15
465.781	12418.54
465.986	12588.52
466.191	11988.47
466.397	11742.71
466.602	11302.4
466.807	11550.2
467.012	11873.78
467.218	11591.16
467.423	11335.17
467.628	11623.93
467.833	11974.13
468.038	11412.99
