Data from USB4F104151__52__10-23-42-374.txt Node

Date: Wed Mar 12 10:23:42 EDT 2025
User: louis
Spectrometer: USB4F10415
Trigger mode: 4
Integration Time (sec): 3.000000E-2
Scans to average: 1
Electric dark correction enabled: true
Nonlinearity correction enabled: false
Boxcar width: 0
XAxis mode: Wavelengths
Number of Pixels in Spectrum: 3648
>>>>>Begin Spectral Data<<<<<
178.204	-94.55
178.424	-94.55
178.644	-94.55
178.864	-160.08
179.084	-41.3
179.304	-76.12
179.524	16.04
179.744	42.67
179.964	-12.63
180.184	-59.73
180.404	1.71
180.624	-6.49
180.844	13.99
181.064	20.14
181.283	52.91
181.503	36.52
181.723	-29.01
181.943	-20.82
182.163	-41.3
182.383	28.33
182.602	48.81
182.822	63.15
183.042	9.9
183.262	22.19
183.482	32.43
183.701	-37.2
183.921	-8.53
184.141	38.57
184.361	44.71
184.58	1.71
184.8	44.71
185.02	36.52
185.239	22.19
185.459	26.28
185.679	18.09
185.898	-82.26
186.118	20.14
186.338	36.52
186.557	52.91
186.777	36.52
186.997	44.71
187.216	-39.25
187.436	20.14
187.655	59.05
187.875	32.43
188.095	-16.73
188.314	9.9
188.534	54.95
188.753	-16.73
188.973	65.19
189.192	81.58
189.412	9.9
189.631	28.33
189.851	16.04
190.07	18.09
190.29	22.19
190.509	-29.01
190.729	3.75
190.948	-14.68
191.168	89.77
191.387	-20.82
191.607	-96.6
191.826	87.72
192.045	3.75
192.265	59.05
192.484	18.09
192.704	97.96
192.923	-33.11
193.142	-4.44
193.362	16.04
193.581	30.38
193.8	44.71
194.02	77.48
194.239	11.95
194.458	44.71
194.678	-67.92
194.897	102.06
195.116	32.43
195.335	11.95
195.555	67.24
195.774	-24.92
195.993	-12.63
196.212	18.09
196.432	3.75
196.651	-8.53
196.87	59.05
197.089	151.21
197.308	34.47
197.528	5.8
197.747	1.71
197.966	7.85
198.185	40.62
198.404	30.38
198.623	52.91
198.842	34.47
199.062	73.39
199.281	30.38
199.5	-20.82
199.719	102.06
199.938	24.23
200.157	-35.16
200.376	42.67
200.595	57
200.814	-6.49
201.033	24.23
201.252	9.9
201.471	1.71
201.69	85.67
201.909	-39.25
202.128	-12.63
202.347	71.34
202.566	20.14
202.785	-12.63
203.004	7.85
203.223	100.01
203.442	61.1
203.661	71.34
203.879	81.58
204.098	57
204.317	-4.44
204.536	22.19
204.755	-14.68
204.974	67.24
205.193	-41.3
205.411	97.96
205.63	42.67
205.849	42.67
206.068	16.04
206.287	18.09
206.505	93.87
206.724	5.8
206.943	-24.92
207.162	-33.11
207.381	61.1
207.599	7.85
207.818	9.9
208.037	42.67
208.255	46.76
208.474	-37.2
208.693	44.71
208.911	7.85
209.13	-10.58
209.349	52.91
209.567	61.1
209.786	75.43
210.005	44.71
210.223	97.96
210.442	-102.74
210.661	34.47
210.879	52.91
211.098	-0.34
211.316	77.48
211.535	46.76
211.753	89.77
211.972	46.76
212.191	52.91
212.409	54.95
212.628	-29.01
212.846	-39.25
213.065	95.91
213.283	-39.25
213.502	11.95
213.72	89.77
213.938	44.71
214.157	30.38
214.375	24.23
214.594	-33.11
214.812	22.19
215.031	73.39
215.249	-14.68
215.467	-16.73
215.686	13.99
215.904	34.47
216.122	16.04
216.341	32.43
216.559	9.9
216.778	91.82
216.996	77.48
217.214	-29.01
217.432	83.63
217.651	-16.73
217.869	24.23
218.087	-2.39
218.306	-24.92
218.524	126.63
218.742	-12.63
218.96	-14.68
219.179	44.71
219.397	57
219.615	77.48
219.833	75.43
220.051	-74.07
220.27	36.52
220.488	54.95
220.706	-8.53
220.924	87.72
221.142	16.04
221.36	1.71
221.578	1.71
221.796	69.29
222.015	-0.34
222.233	9.9
222.451	104.11
222.669	69.29
222.887	20.14
223.105	-18.77
223.323	57
223.541	-35.16
223.759	42.67
223.977	-45.4
224.195	65.19
224.413	67.24
224.631	20.14
224.849	32.43
225.067	22.19
225.285	-14.68
225.503	24.23
225.721	-16.73
225.939	63.15
226.157	50.86
226.375	106.15
226.592	3.75
226.81	75.43
227.028	24.23
227.246	42.67
227.464	24.23
227.682	-45.4
227.9	65.19
228.117	40.62
228.335	28.33
228.553	46.76
228.771	20.14
228.989	77.48
229.206	81.58
229.424	75.43
229.642	-24.92
229.86	-12.63
230.077	13.99
230.295	24.23
230.513	3.75
230.731	54.95
230.948	44.71
231.166	54.95
231.384	-6.49
231.601	13.99
231.819	-8.53
232.037	57
232.254	1.71
232.472	36.52
232.689	9.9
232.907	143.02
233.125	-12.63
233.342	-4.44
233.56	-4.44
233.777	-4.44
233.995	59.05
234.213	44.71
234.43	87.72
234.648	28.33
234.865	67.24
235.083	52.91
235.3	-4.44
235.518	61.1
235.735	9.9
235.953	7.85
236.17	44.71
236.388	16.04
236.605	-12.63
236.822	16.04
237.04	32.43
237.257	-4.44
237.475	-12.63
237.692	73.39
237.909	-8.53
238.127	-8.53
238.344	32.43
238.562	83.63
238.779	-6.49
238.996	46.76
239.214	52.91
239.431	75.43
239.648	-10.58
239.865	81.58
240.083	50.86
240.3	-18.77
240.517	48.81
240.735	20.14
240.952	50.86
241.169	36.52
241.386	-6.49
241.603	40.62
241.821	28.33
242.038	42.67
242.255	18.09
242.472	46.76
242.689	18.09
242.907	149.16
243.124	32.43
243.341	9.9
243.558	-6.49
243.775	3.75
243.992	36.52
244.209	42.67
244.426	124.58
244.643	36.52
244.86	85.67
245.078	54.95
245.295	42.67
245.512	36.52
245.729	83.63
245.946	-20.82
246.163	34.47
246.38	48.81
246.597	61.1
246.814	20.14
247.031	-41.3
247.248	67.24
247.464	-6.49
247.681	26.28
247.898	59.05
248.115	61.1
248.332	9.9
248.549	83.63
248.766	32.43
248.983	48.81
249.2	44.71
249.417	116.39
249.633	44.71
249.85	-2.39
250.067	-39.25
250.284	89.77
250.501	36.52
250.717	3.75
250.934	-22.87
251.151	48.81
251.368	20.14
251.585	110.25
251.801	26.28
252.018	-10.58
252.235	-0.34
252.451	26.28
252.668	18.09
252.885	95.91
253.102	50.86
253.318	85.67
253.535	-33.11
253.752	50.86
253.968	71.34
254.185	13.99
254.401	24.23
254.618	32.43
254.835	-16.73
255.051	126.63
255.268	52.91
255.484	32.43
255.701	32.43
255.917	54.95
256.134	-31.06
256.351	73.39
256.567	16.04
256.784	69.29
257	11.95
257.217	79.53
257.433	13.99
257.65	34.47
257.866	20.14
258.082	93.87
258.299	28.33
258.515	87.72
258.732	13.99
258.948	16.04
259.165	20.14
259.381	13.99
259.597	54.95
259.814	54.95
260.03	83.63
260.246	71.34
260.463	-45.4
260.679	44.71
260.895	22.19
261.112	-37.2
261.328	36.52
261.544	-22.87
261.761	87.72
261.977	13.99
262.193	24.23
262.409	128.68
262.626	18.09
262.842	81.58
263.058	9.9
263.274	-26.96
263.49	77.48
263.707	81.58
263.923	-33.11
264.139	-96.6
264.355	52.91
264.571	16.04
264.787	48.81
265.004	116.39
265.22	50.86
265.436	44.71
265.652	11.95
265.868	54.95
266.084	1.71
266.3	13.99
266.516	26.28
266.732	50.86
266.948	26.28
267.164	-12.63
267.38	89.77
267.596	-4.44
267.812	77.48
268.028	73.39
268.244	93.87
268.46	42.67
268.676	26.28
268.892	57
269.108	75.43
269.324	-33.11
269.54	16.04
269.756	-12.63
269.972	79.53
270.188	34.47
270.403	59.05
270.619	3.75
270.835	-6.49
271.051	-10.58
271.267	61.1
271.483	106.15
271.698	34.47
271.914	57
272.13	73.39
272.346	-43.35
272.562	11.95
272.777	67.24
272.993	-6.49
273.209	-55.64
273.425	11.95
273.64	-8.53
273.856	-31.06
274.072	75.43
274.287	-2.39
274.503	89.77
274.719	50.86
274.934	18.09
275.15	18.09
275.366	-20.82
275.581	48.81
275.797	93.87
276.012	1.71
276.228	52.91
276.444	-12.63
276.659	20.14
276.875	-74.07
277.09	-4.44
277.306	50.86
277.521	79.53
277.737	18.09
277.952	102.06
278.168	-8.53
278.383	44.71
278.599	-22.87
278.814	57
279.03	11.95
279.245	52.91
279.461	22.19
279.676	7.85
279.892	57
280.107	52.91
280.322	3.75
280.538	-31.06
280.753	-10.58
280.969	59.05
281.184	-2.39
281.399	59.05
281.615	32.43
281.83	79.53
282.045	-53.59
282.26	26.28
282.476	9.9
282.691	100.01
282.906	79.53
283.122	16.04
283.337	1.71
283.552	44.71
283.767	48.81
283.983	59.05
284.198	-2.39
284.413	59.05
284.628	-22.87
284.843	28.33
285.058	44.71
285.274	26.28
285.489	-37.2
285.704	36.52
285.919	20.14
286.134	26.28
286.349	-29.01
286.564	20.14
286.779	-24.92
286.995	-4.44
287.21	-6.49
287.425	79.53
287.64	48.81
287.855	73.39
288.07	-4.44
288.285	145.06
288.5	38.57
288.715	73.39
288.93	-18.77
289.145	28.33
289.36	85.67
289.575	32.43
289.79	69.29
290.004	73.39
290.219	79.53
290.434	59.05
290.649	9.9
290.864	36.52
291.079	48.81
291.294	22.19
291.509	-53.59
291.724	40.62
291.938	-33.11
292.153	71.34
292.368	63.15
292.583	28.33
292.798	63.15
293.012	-22.87
293.227	-6.49
293.442	69.29
293.657	73.39
293.871	40.62
294.086	73.39
294.301	73.39
294.516	-2.39
294.73	75.43
294.945	-69.97
295.16	102.06
295.374	155.3
295.589	171.69
295.804	28.33
296.018	9.9
296.233	-37.2
296.447	24.23
296.662	44.71
296.877	97.96
297.091	26.28
297.306	-31.06
297.52	87.72
297.735	-6.49
297.949	3.75
298.164	83.63
298.378	32.43
298.593	3.75
298.807	-2.39
299.022	138.92
299.236	44.71
299.451	7.85
299.665	-4.44
299.88	40.62
300.094	-18.77
300.309	50.86
300.523	42.67
300.737	52.91
300.952	24.23
301.166	-12.63
301.381	-0.34
301.595	1.71
301.809	46.76
302.024	11.95
302.238	1.71
302.452	18.09
302.667	40.62
302.881	24.23
303.095	89.77
303.309	65.19
303.524	28.33
303.738	52.91
303.952	-14.68
304.166	11.95
304.381	-18.77
304.595	124.58
304.809	28.33
305.023	81.58
305.237	30.38
305.452	52.91
305.666	54.95
305.88	30.38
306.094	36.52
306.308	16.04
306.522	83.63
306.736	59.05
306.95	18.09
307.164	-29.01
307.379	26.28
307.593	42.67
307.807	100.01
308.021	26.28
308.235	77.48
308.449	9.9
308.663	36.52
308.877	147.11
309.091	-18.77
309.305	38.57
309.519	11.95
309.733	32.43
309.947	38.57
310.161	81.58
310.374	69.29
310.588	7.85
310.802	16.04
311.016	-67.92
311.23	61.1
311.444	77.48
311.658	18.09
311.872	30.38
312.085	65.19
312.299	120.49
312.513	85.67
312.727	24.23
312.941	34.47
313.154	-37.2
313.368	24.23
313.582	20.14
313.796	36.52
314.009	-4.44
314.223	79.53
314.437	36.52
314.651	26.28
314.864	28.33
315.078	34.47
315.292	13.99
315.505	7.85
315.719	42.67
315.933	59.05
316.146	-49.49
316.36	73.39
316.573	77.48
316.787	40.62
317.001	59.05
317.214	-12.63
317.428	-29.01
317.641	-0.34
317.855	26.28
318.068	81.58
318.282	85.67
318.495	91.82
318.709	95.91
318.922	36.52
319.136	42.67
319.349	-2.39
319.563	22.19
319.776	22.19
319.99	5.8
320.203	32.43
320.417	30.38
320.63	48.81
320.843	69.29
321.057	73.39
321.27	-24.92
321.483	28.33
321.697	24.23
321.91	-10.58
322.124	22.19
322.337	52.91
322.55	-26.96
322.763	59.05
322.977	5.8
323.19	61.1
323.403	57
323.617	32.43
323.83	124.58
324.043	-8.53
324.256	61.1
324.469	9.9
324.683	40.62
324.896	1.71
325.109	52.91
325.322	24.23
325.535	77.48
325.748	50.86
325.962	-4.44
326.175	116.39
326.388	108.2
326.601	28.33
326.814	3.75
327.027	50.86
327.24	69.29
327.453	-8.53
327.666	61.1
327.879	26.28
328.092	116.39
328.305	30.38
328.518	73.39
328.731	16.04
328.944	75.43
329.157	61.1
329.37	-4.44
329.583	67.24
329.796	16.04
330.009	-63.83
330.222	61.1
330.435	18.09
330.648	54.95
330.861	110.25
331.073	-37.2
331.286	16.04
331.499	77.48
331.712	26.28
331.925	46.76
332.138	48.81
332.35	89.77
332.563	-14.68
332.776	32.43
332.989	46.76
333.202	13.99
333.414	44.71
333.627	130.73
333.84	83.63
334.053	69.29
334.265	87.72
334.478	18.09
334.691	-20.82
334.903	-12.63
335.116	-10.58
335.329	44.71
335.541	122.54
335.754	110.25
335.966	48.81
336.179	-33.11
336.392	75.43
336.604	3.75
336.817	75.43
337.029	-6.49
337.242	69.29
337.454	7.85
337.667	-29.01
337.88	36.52
338.092	-12.63
338.305	44.71
338.517	57
338.729	91.82
338.942	95.91
339.154	32.43
339.367	52.91
339.579	48.81
339.792	61.1
340.004	-41.3
340.217	89.77
340.429	-10.58
340.641	42.67
340.854	85.67
341.066	50.86
341.278	69.29
341.491	1.71
341.703	30.38
341.915	36.52
342.128	97.96
342.34	87.72
342.552	97.96
342.764	32.43
342.977	57
343.189	73.39
343.401	69.29
343.613	48.81
343.826	26.28
344.038	40.62
344.25	67.24
344.462	77.48
344.674	-16.73
344.886	-12.63
345.099	71.34
345.311	18.09
345.523	16.04
345.735	7.85
345.947	9.9
346.159	-20.82
346.371	61.1
346.583	61.1
346.795	77.48
347.007	9.9
347.219	79.53
347.431	-4.44
347.643	75.43
347.855	-74.07
348.067	77.48
348.279	7.85
348.491	67.24
348.703	-6.49
348.915	100.01
349.127	40.62
349.339	36.52
349.551	24.23
349.763	95.91
349.975	-6.49
350.187	104.11
350.399	36.52
350.61	73.39
350.822	116.39
351.034	69.29
351.246	46.76
351.458	89.77
351.669	67.24
351.881	69.29
352.093	46.76
352.305	38.57
352.517	57
352.728	46.76
352.94	89.77
353.152	38.57
353.363	48.81
353.575	54.95
353.787	112.3
353.999	118.44
354.21	95.91
354.422	38.57
354.633	89.77
354.845	40.62
355.057	-4.44
355.268	120.49
355.48	104.11
355.692	36.52
355.903	44.71
356.115	54.95
356.326	32.43
356.538	163.5
356.749	26.28
356.961	50.86
357.172	7.85
357.384	40.62
357.595	93.87
357.807	36.52
358.018	-53.59
358.23	83.63
358.441	48.81
358.653	-24.92
358.864	44.71
359.075	36.52
359.287	26.28
359.498	77.48
359.709	116.39
359.921	28.33
360.132	89.77
360.344	28.33
360.555	-39.25
360.766	30.38
360.977	77.48
361.189	34.47
361.4	-31.06
361.611	65.19
361.823	93.87
362.034	65.19
362.245	18.09
362.456	67.24
362.667	91.82
362.879	65.19
363.09	79.53
363.301	57
363.512	44.71
363.723	116.39
363.935	16.04
364.146	153.26
364.357	83.63
364.568	71.34
364.779	50.86
364.99	85.67
365.201	-6.49
365.412	54.95
365.623	9.9
365.834	42.67
366.045	-18.77
366.256	36.52
366.467	30.38
366.678	34.47
366.889	30.38
367.1	40.62
367.311	67.24
367.522	28.33
367.733	24.23
367.944	40.62
368.155	16.04
368.366	44.71
368.577	104.11
368.788	48.81
368.999	63.15
369.209	61.1
369.42	132.78
369.631	138.92
369.842	91.82
370.053	48.81
370.264	20.14
370.474	57
370.685	-14.68
370.896	91.82
371.107	110.25
371.317	52.91
371.528	-33.11
371.739	42.67
371.95	81.58
372.16	57
372.371	102.06
372.582	57
372.792	46.76
373.003	59.05
373.214	100.01
373.424	106.15
373.635	-4.44
373.846	69.29
374.056	54.95
374.267	100.01
374.477	57
374.688	75.43
374.898	42.67
375.109	63.15
375.319	61.1
375.53	126.63
375.74	40.62
375.951	28.33
376.161	-4.44
376.372	97.96
376.582	36.52
376.793	11.95
377.003	-12.63
377.214	9.9
377.424	32.43
377.635	54.95
377.845	32.43
378.055	46.76
378.266	5.8
378.476	36.52
378.686	57
378.897	116.39
379.107	11.95
379.317	-14.68
379.528	71.34
379.738	116.39
379.948	65.19
380.158	26.28
380.369	20.14
380.579	130.73
380.789	73.39
380.999	30.38
381.21	114.34
381.42	106.15
381.63	73.39
381.84	85.67
382.05	73.39
382.261	124.58
382.471	-16.73
382.681	100.01
382.891	11.95
383.101	32.43
383.311	63.15
383.521	63.15
383.731	59.05
383.941	138.92
384.151	61.1
384.361	61.1
384.571	97.96
384.781	85.67
384.991	114.34
385.201	255.65
385.411	108.2
385.621	57
385.831	75.43
386.041	18.09
386.251	34.47
386.461	100.01
386.671	13.99
386.881	104.11
387.091	57
387.301	108.2
387.511	73.39
387.72	100.01
387.93	122.54
388.14	20.14
388.35	85.67
388.56	126.63
388.769	134.82
388.979	65.19
389.189	97.96
389.399	61.1
389.609	30.38
389.818	89.77
390.028	28.33
390.238	3.75
390.447	108.2
390.657	46.76
390.867	16.04
391.076	112.3
391.286	52.91
391.496	40.62
391.705	106.15
391.915	161.45
392.125	106.15
392.334	52.91
392.544	122.54
392.753	143.02
392.963	44.71
393.172	143.02
393.382	48.81
393.591	134.82
393.801	69.29
394.01	40.62
394.22	132.78
394.429	20.14
394.639	132.78
394.848	161.45
395.058	81.58
395.267	85.67
395.477	71.34
395.686	130.73
395.895	87.72
396.105	206.5
396.314	140.97
396.524	151.21
396.733	97.96
396.942	126.63
397.152	85.67
397.361	130.73
397.57	138.92
397.78	48.81
397.989	50.86
398.198	116.39
398.407	147.11
398.617	114.34
398.826	65.19
399.035	77.48
399.244	165.54
399.453	151.21
399.663	155.3
399.872	87.72
400.081	122.54
400.29	140.97
400.499	59.05
400.708	188.07
400.917	149.16
401.127	102.06
401.336	181.93
401.545	138.92
401.754	157.35
401.963	138.92
402.172	122.54
402.381	59.05
402.59	122.54
402.799	159.4
403.008	151.21
403.217	204.46
403.426	153.26
403.635	159.4
403.844	151.21
404.053	81.58
404.262	200.36
404.471	226.98
404.68	183.98
404.888	149.16
405.097	116.39
405.306	171.69
405.515	208.55
405.724	198.31
405.933	220.84
406.142	212.65
406.35	280.23
406.559	153.26
406.768	212.65
406.977	198.31
407.185	302.76
407.394	212.65
407.603	171.69
407.812	257.7
408.02	296.61
408.229	269.99
408.438	298.66
408.646	269.99
408.855	241.32
409.064	353.96
409.272	265.89
409.481	302.76
409.69	347.81
409.898	282.28
410.107	286.37
410.315	378.53
410.524	313
410.733	376.48
410.941	431.78
411.15	392.87
411.358	489.12
411.567	485.03
411.775	460.45
411.984	501.41
412.192	579.23
412.401	505.51
412.609	536.23
412.818	640.67
413.026	597.67
413.234	528.03
413.443	614.05
413.651	609.95
413.86	622.24
414.068	716.45
414.276	781.98
414.485	767.65
414.693	796.32
414.901	845.47
415.11	874.14
415.318	896.67
415.526	878.24
415.734	935.58
415.943	958.11
416.151	956.06
416.359	1001.12
416.567	1017.5
416.776	1076.89
416.984	1076.89
417.192	1224.34
417.4	1216.15
417.608	1263.26
417.817	1181.34
418.025	1341.08
418.233	1457.81
418.441	1379.99
418.649	1453.72
418.857	1519.25
419.065	1574.55
419.273	1502.87
419.481	1570.45
419.689	1701.52
419.897	1719.95
420.105	1842.83
420.313	1998.48
420.521	1894.03
420.729	1922.7
420.937	2035.34
421.145	2096.78
421.353	2285.19
421.561	2379.4
421.769	2428.55
421.977	2469.51
422.185	2373.25
422.393	2631.3
422.601	2731.65
422.809	2655.87
423.017	2838.14
423.224	2809.47
423.432	2961.02
423.64	3028.6
423.848	3233.4
424.056	3182.2
424.263	3374.71
424.471	3411.57
424.679	3524.21
424.887	3485.3
425.094	3749.49
425.302	3864.18
425.51	3874.42
425.718	4066.92
425.925	4081.26
426.133	4349.54
426.341	4419.18
426.548	4648.55
426.756	4707.94
426.964	4771.43
427.171	4951.65
427.379	5041.76
427.586	5168.73
427.794	5402.2
428.001	5656.15
428.209	5752.4
428.417	5748.31
428.624	6192.72
428.832	6051.41
429.039	6110.8
429.247	6268.49
429.454	6819.39
429.662	7179.84
429.869	6901.31
430.076	7165.5
430.284	7024.19
430.491	7327.29
430.699	7722.55
430.906	7876.15
431.114	8005.17
431.321	8023.6
431.528	8091.18
431.736	8844.84
431.943	9336.35
432.15	9004.58
432.358	9033.25
432.565	9451.03
432.772	9344.54
432.979	10061.33
433.187	10223.12
433.394	10198.54
433.601	10911.24
433.808	10950.15
434.016	10839.56
434.223	11318.78
434.43	12099.06
434.637	11644.41
434.844	12502.51
435.052	12518.89
435.259	12860.9
435.466	12699.11
435.673	12701.16
435.88	13518.3
436.087	14083.54
436.294	14106.07
436.501	13735.39
436.708	14030.29
436.915	14556.62
437.122	15369.66
437.329	15041.99
437.537	15662.52
437.743	15949.24
437.95	15699.39
438.157	16606.64
438.364	17098.15
438.571	17092.01
438.778	17075.62
438.985	18417.04
439.192	18150.81
439.399	18632.08
439.606	18355.6
439.813	19248.52
440.02	20438.39
440.227	19824
440.433	20063.61
440.64	20622.7
440.847	20333.94
441.054	21056.87
441.261	22271.32
441.467	21818.72
441.674	22386.01
441.881	23065.93
442.088	23184.71
442.294	22807.89
442.501	23559.49
442.708	23917.89
442.914	25181.48
443.121	25761.06
443.328	25249.07
443.534	27106.57
443.741	26541.33
443.948	25924.9
444.154	27612.42
444.361	27614.47
444.568	27688.2
444.774	27684.1
444.981	28355.83
445.187	28808.44
445.394	30266.59
445.6	29586.66
445.807	32527.55
446.013	31270.09
446.22	31915.2
446.426	32853.17
446.633	32965.81
446.839	34352.29
447.046	32851.13
447.252	35017.88
447.459	34813.08
447.665	34864.28
447.871	36199.55
448.078	37583.98
448.284	35906.69
448.491	36848.76
448.697	38100.07
448.903	38534.24
449.11	38706.27
449.316	37893.22
449.522	38904.92
449.728	40000.58
449.935	40084.55
450.141	39933
450.347	41190.45
450.553	39681.1
450.76	40240.2
450.966	41202.74
451.172	41129.02
451.378	41993.26
451.584	40938.55
451.791	42120.23
451.997	41999.4
452.203	42542.11
452.409	42492.96
452.615	41825.32
452.821	40690.75
453.027	40115.27
453.233	41917.48
453.44	40522.82
453.646	40862.78
453.852	41131.06
454.058	41792.56
454.264	40752.19
454.47	41534.51
454.676	40221.76
454.882	41489.46
455.088	37852.27
455.294	38386.78
455.5	38853.72
455.705	39099.48
455.911	38026.34
456.117	36967.54
456.323	36488.32
456.529	34509.98
456.735	35918.98
456.941	35296.4
457.147	34651.29
457.352	33133.75
457.558	33064.11
457.764	33279.15
457.97	32609.47
458.176	31995.07
458.381	31616.2
458.587	30285.02
458.793	29900
458.999	28380.41
459.204	30989.52
459.41	30108.9
459.616	28081.41
459.821	28108.03
460.027	27972.86
460.233	27200.78
460.438	25822.5
460.644	26336.54
460.85	25300.26
461.055	24706.35
461.261	24786.22
461.466	22947.15
461.672	22160.73
461.878	24067.39
462.083	22345.05
462.289	21798.24
462.494	21632.35
462.7	20753.77
462.905	20028.79
463.111	20612.46
463.316	20952.43
463.522	20379
463.727	20370.8
463.932	20309.36
464.138	20313.46
464.343	20194.68
464.549	19666.3
464.754	20301.17
464.959	20127.1
465.165	20059.51
465.37	19316.1
465.575	18851.21
465.781	19475.84
465.986	19475.84
466.191	18929.03
466.397	18308.5
466.602	17595.81
466.807	18263.44
467.012	18636.17
467.218	18240.92
467.423	17851.8
467.628	18091.41
