Data from USB4F104151__165__10-27-16-281.txt Node

Date: Wed Mar 12 10:27:16 EDT 2025
User: louis
Spectrometer: USB4F10415
Trigger mode: 4
Integration Time (sec): 3.000000E-2
Scans to average: 1
Electric dark correction enabled: true
Nonlinearity correction enabled: false
Boxcar width: 0
XAxis mode: Wavelengths
Number of Pixels in Spectrum: 3648
>>>>>Begin Spectral Data<<<<<
178.204	-140.97
178.424	-140.97
178.644	-140.97
178.864	-128.68
179.084	-126.63
179.304	43.35
179.524	4.44
179.744	14.68
179.964	10.58
180.184	-42.67
180.404	20.82
180.624	-24.23
180.844	2.39
181.064	-79.53
181.283	8.53
181.503	-22.19
181.723	63.83
181.943	-54.95
182.163	78.16
182.383	65.88
182.602	-26.28
182.822	-102.06
183.042	39.25
183.262	61.78
183.482	29.01
183.701	12.63
183.921	-67.24
184.141	-54.95
184.361	129.36
184.58	16.73
184.8	67.92
185.02	26.96
185.239	55.64
185.459	37.2
185.679	-11.95
185.898	-28.33
186.118	112.98
186.338	39.25
186.557	88.4
186.777	6.49
186.997	-30.38
187.216	-46.76
187.436	35.16
187.655	82.26
187.875	0.34
188.095	24.92
188.314	14.68
188.534	-18.09
188.753	20.82
188.973	-3.75
189.192	22.87
189.412	-1.71
189.631	29.01
189.851	4.44
190.07	117.08
190.29	16.73
190.509	-9.9
190.729	-9.9
190.948	-18.09
191.168	94.55
191.387	47.44
191.607	-5.8
191.826	67.92
192.045	31.06
192.265	-20.14
192.484	-11.95
192.704	-38.57
192.923	-52.91
193.142	6.49
193.362	-1.71
193.581	-7.85
193.8	22.87
194.02	0.34
194.239	2.39
194.458	39.25
194.678	0.34
194.897	-24.23
195.116	-57
195.335	-22.19
195.555	-30.38
195.774	-32.43
195.993	-1.71
196.212	6.49
196.432	-5.8
196.651	-11.95
196.87	14.68
197.089	26.96
197.308	39.25
197.528	-67.24
197.747	-5.8
197.966	29.01
198.185	55.64
198.404	24.92
198.623	6.49
198.842	-9.9
199.062	69.97
199.281	43.35
199.5	20.82
199.719	-3.75
199.938	53.59
200.157	16.73
200.376	12.63
200.595	-20.14
200.814	43.35
201.033	41.3
201.252	37.2
201.471	-34.47
201.69	4.44
201.909	24.92
202.128	80.21
202.347	29.01
202.566	4.44
202.785	-73.39
203.004	-3.75
203.223	78.16
203.442	10.58
203.661	-16.04
203.879	22.87
204.098	29.01
204.317	-20.14
204.536	51.54
204.755	-40.62
204.974	18.77
205.193	35.16
205.411	35.16
205.63	-7.85
205.849	10.58
206.068	-9.9
206.287	22.87
206.505	45.4
206.724	6.49
206.943	-7.85
207.162	-5.8
207.381	6.49
207.599	-18.09
207.818	14.68
208.037	22.87
208.255	-54.95
208.474	33.11
208.693	-18.09
208.911	-20.14
209.13	4.44
209.349	-32.43
209.567	-32.43
209.786	67.92
210.005	-20.14
210.223	16.73
210.442	4.44
210.661	72.02
210.879	-13.99
211.098	43.35
211.316	43.35
211.535	57.68
211.753	14.68
211.972	51.54
212.191	69.97
212.409	18.77
212.628	-11.95
212.846	37.2
213.065	-26.28
213.283	67.92
213.502	14.68
213.72	2.39
213.938	18.77
214.157	-3.75
214.375	16.73
214.594	-54.95
214.812	-5.8
215.031	18.77
215.249	2.39
215.467	43.35
215.686	24.92
215.904	55.64
216.122	29.01
216.341	18.77
216.559	-24.23
216.778	53.59
216.996	2.39
217.214	-22.19
217.432	22.87
217.651	-3.75
217.869	10.58
218.087	10.58
218.306	78.16
218.524	63.83
218.742	-30.38
218.96	45.4
219.179	-50.86
219.397	-34.47
219.615	53.59
219.833	-7.85
220.051	24.92
220.27	-7.85
220.488	29.01
220.706	-40.62
220.924	29.01
221.142	-20.14
221.36	110.93
221.578	-7.85
221.796	16.73
222.015	31.06
222.233	-18.09
222.451	49.49
222.669	-30.38
222.887	57.68
223.105	18.77
223.323	10.58
223.541	-44.71
223.759	-59.05
223.977	-7.85
224.195	80.21
224.413	119.12
224.631	-18.09
224.849	-9.9
225.067	63.83
225.285	72.02
225.503	39.25
225.721	-52.91
225.939	12.63
226.157	6.49
226.375	41.3
226.592	-57
226.81	-13.99
227.028	49.49
227.246	86.36
227.464	96.6
227.682	39.25
227.9	-59.05
228.117	12.63
228.335	20.82
228.553	2.39
228.771	4.44
228.989	6.49
229.206	6.49
229.424	53.59
229.642	-52.91
229.86	43.35
230.077	74.07
230.295	31.06
230.513	0.34
230.731	37.2
230.948	63.83
231.166	59.73
231.384	-18.09
231.601	-59.05
231.819	102.74
232.037	-22.19
232.254	4.44
232.472	37.2
232.689	47.44
232.907	43.35
233.125	29.01
233.342	10.58
233.56	-13.99
233.777	63.83
233.995	14.68
234.213	88.4
234.43	20.82
234.648	41.3
234.865	-16.04
235.083	18.77
235.3	37.2
235.518	35.16
235.735	49.49
235.953	22.87
236.17	35.16
236.388	4.44
236.605	20.82
236.822	-22.19
237.04	59.73
237.257	16.73
237.475	14.68
237.692	26.96
237.909	33.11
238.127	-36.52
238.344	55.64
238.562	53.59
238.779	31.06
238.996	39.25
239.214	-1.71
239.431	47.44
239.648	-57
239.865	37.2
240.083	16.73
240.3	45.4
240.517	-30.38
240.735	55.64
240.952	94.55
241.169	59.73
241.386	49.49
241.603	20.82
241.821	-7.85
242.038	57.68
242.255	-20.14
242.472	24.92
242.689	39.25
242.907	35.16
243.124	47.44
243.341	51.54
243.558	53.59
243.775	14.68
243.992	10.58
244.209	76.12
244.426	26.96
244.643	12.63
244.86	43.35
245.078	43.35
245.295	12.63
245.512	8.53
245.729	-79.53
245.946	4.44
246.163	-38.57
246.38	2.39
246.597	6.49
246.814	-9.9
247.031	-67.24
247.248	4.44
247.464	31.06
247.681	31.06
247.898	33.11
248.115	-11.95
248.332	8.53
248.549	-18.09
248.766	88.4
248.983	2.39
249.2	-11.95
249.417	22.87
249.633	-32.43
249.85	-11.95
250.067	-5.8
250.284	53.59
250.501	18.77
250.717	-38.57
250.934	-54.95
251.151	41.3
251.368	-18.09
251.585	26.96
251.801	16.73
252.018	2.39
252.235	-24.23
252.451	-30.38
252.668	-1.71
252.885	49.49
253.102	-38.57
253.318	-3.75
253.535	14.68
253.752	-9.9
253.968	14.68
254.185	-1.71
254.401	-79.53
254.618	10.58
254.835	-16.04
255.051	61.78
255.268	35.16
255.484	-18.09
255.701	-30.38
255.917	33.11
256.134	35.16
256.351	-54.95
256.567	4.44
256.784	-7.85
257	-7.85
257.217	18.77
257.433	6.49
257.65	61.78
257.866	-7.85
258.082	-1.71
258.299	2.39
258.515	12.63
258.732	6.49
258.948	8.53
259.165	8.53
259.381	6.49
259.597	4.44
259.814	33.11
260.03	72.02
260.246	47.44
260.463	10.58
260.679	43.35
260.895	8.53
261.112	55.64
261.328	-9.9
261.544	47.44
261.761	59.73
261.977	29.01
262.193	-18.09
262.409	31.06
262.626	26.96
262.842	0.34
263.058	-67.24
263.274	47.44
263.49	18.77
263.707	39.25
263.923	22.87
264.139	45.4
264.355	59.73
264.571	55.64
264.787	14.68
265.004	-5.8
265.22	-28.33
265.436	65.88
265.652	31.06
265.868	55.64
266.084	8.53
266.3	-9.9
266.516	35.16
266.732	39.25
266.948	76.12
267.164	-20.14
267.38	78.16
267.596	20.82
267.812	37.2
268.028	4.44
268.244	43.35
268.46	29.01
268.676	-54.95
268.892	-28.33
269.108	43.35
269.324	43.35
269.54	-59.05
269.756	80.21
269.972	-46.76
270.188	-100.01
270.403	6.49
270.619	4.44
270.835	31.06
271.051	10.58
271.267	-18.09
271.483	12.63
271.698	49.49
271.914	-1.71
272.13	55.64
272.346	-42.67
272.562	35.16
272.777	-18.09
272.993	41.3
273.209	45.4
273.425	-7.85
273.64	-20.14
273.856	-28.33
274.072	-3.75
274.287	-54.95
274.503	-5.8
274.719	6.49
274.934	-11.95
275.15	41.3
275.366	-34.47
275.581	22.87
275.797	0.34
276.012	14.68
276.228	35.16
276.444	33.11
276.659	76.12
276.875	-20.14
277.09	80.21
277.306	-24.23
277.521	45.4
277.737	0.34
277.952	22.87
278.168	43.35
278.383	80.21
278.599	47.44
278.814	94.55
279.03	-18.09
279.245	31.06
279.461	53.59
279.676	78.16
279.892	-9.9
280.107	2.39
280.322	-26.28
280.538	96.6
280.753	-32.43
280.969	125.27
281.184	4.44
281.399	61.78
281.615	12.63
281.83	-13.99
282.045	-13.99
282.26	-16.04
282.476	-5.8
282.691	41.3
282.906	-11.95
283.122	-11.95
283.337	69.97
283.552	22.87
283.767	14.68
283.983	-20.14
284.198	63.83
284.413	76.12
284.628	0.34
284.843	12.63
285.058	-20.14
285.274	108.88
285.489	-65.19
285.704	2.39
285.919	-61.1
286.134	-1.71
286.349	74.07
286.564	-20.14
286.779	10.58
286.995	10.58
287.21	45.4
287.425	2.39
287.64	59.73
287.855	31.06
288.07	-71.34
288.285	55.64
288.5	-18.09
288.715	-5.8
288.93	-34.47
289.145	29.01
289.36	92.5
289.575	26.96
289.79	-54.95
290.004	33.11
290.219	-44.71
290.434	2.39
290.649	0.34
290.864	-26.28
291.079	4.44
291.294	61.78
291.509	14.68
291.724	-9.9
291.938	49.49
292.153	26.96
292.368	2.39
292.583	-5.8
292.798	2.39
293.012	-20.14
293.227	4.44
293.442	-67.24
293.657	-9.9
293.871	55.64
294.086	67.92
294.301	24.92
294.516	39.25
294.73	72.02
294.945	-44.71
295.16	-26.28
295.374	63.83
295.589	45.4
295.804	-22.19
296.018	112.98
296.233	-9.9
296.447	14.68
296.662	16.73
296.877	20.82
297.091	-52.91
297.306	-5.8
297.52	-46.76
297.735	2.39
297.949	143.7
298.164	8.53
298.378	-54.95
298.593	0.34
298.807	4.44
299.022	72.02
299.236	43.35
299.451	18.77
299.665	-63.15
299.88	55.64
300.094	63.83
300.309	41.3
300.523	65.88
300.737	31.06
300.952	45.4
301.166	-13.99
301.381	20.82
301.595	53.59
301.809	-42.67
302.024	26.96
302.238	-46.76
302.452	29.01
302.667	-13.99
302.881	96.6
303.095	-7.85
303.309	69.97
303.524	-30.38
303.738	-26.28
303.952	2.39
304.166	35.16
304.381	-24.23
304.595	112.98
304.809	-36.52
305.023	82.26
305.237	14.68
305.452	39.25
305.666	45.4
305.88	31.06
306.094	10.58
306.308	-5.8
306.522	18.77
306.736	67.92
306.95	-5.8
307.164	-54.95
307.379	20.82
307.593	51.54
307.807	80.21
308.021	-1.71
308.235	24.92
308.449	-9.9
308.663	10.58
308.877	10.58
309.091	-63.15
309.305	35.16
309.519	18.77
309.733	-13.99
309.947	10.58
310.161	72.02
310.374	53.59
310.588	-5.8
310.802	-36.52
311.016	72.02
311.23	31.06
311.444	26.96
311.658	39.25
311.872	31.06
312.085	98.64
312.299	10.58
312.513	4.44
312.727	-3.75
312.941	-28.33
313.154	10.58
313.368	14.68
313.582	72.02
313.796	-22.19
314.009	10.58
314.223	-11.95
314.437	137.56
314.651	-22.19
314.864	-11.95
315.078	45.4
315.292	2.39
315.505	-36.52
315.719	-22.19
315.933	41.3
316.146	-7.85
316.36	20.82
316.573	4.44
316.787	-1.71
317.001	53.59
317.214	-46.76
317.428	39.25
317.641	4.44
317.855	2.39
318.068	22.87
318.282	-1.71
318.495	104.79
318.709	-11.95
318.922	31.06
319.136	14.68
319.349	4.44
319.563	76.12
319.776	45.4
319.99	37.2
320.203	35.16
320.417	43.35
320.63	24.92
320.843	55.64
321.057	-36.52
321.27	20.82
321.483	12.63
321.697	14.68
321.91	53.59
322.124	37.2
322.337	63.83
322.55	20.82
322.763	104.79
322.977	90.45
323.19	47.44
323.403	-9.9
323.617	22.87
323.83	80.21
324.043	10.58
324.256	-22.19
324.469	-9.9
324.683	59.73
324.896	-20.14
325.109	45.4
325.322	-57
325.535	63.83
325.748	12.63
325.962	14.68
326.175	14.68
326.388	43.35
326.601	33.11
326.814	-34.47
327.027	14.68
327.24	26.96
327.453	45.4
327.666	33.11
327.879	39.25
328.092	26.96
328.305	29.01
328.518	18.77
328.731	-9.9
328.944	2.39
329.157	26.96
329.37	35.16
329.583	82.26
329.796	10.58
330.009	-46.76
330.222	39.25
330.435	26.96
330.648	92.5
330.861	63.83
331.073	26.96
331.286	45.4
331.499	63.83
331.712	-44.71
331.925	22.87
332.138	14.68
332.35	86.36
332.563	-3.75
332.776	65.88
332.989	-54.95
333.202	31.06
333.414	2.39
333.627	20.82
333.84	35.16
334.053	29.01
334.265	76.12
334.478	29.01
334.691	-13.99
334.903	47.44
335.116	-28.33
335.329	2.39
335.541	29.01
335.754	24.92
335.966	-20.14
336.179	12.63
336.392	63.83
336.604	57.68
336.817	69.97
337.029	18.77
337.242	-28.33
337.454	59.73
337.667	61.78
337.88	-9.9
338.092	-5.8
338.305	31.06
338.517	-34.47
338.729	100.69
338.942	4.44
339.154	39.25
339.367	-1.71
339.579	18.77
339.792	-26.28
340.004	33.11
340.217	-54.95
340.429	26.96
340.641	-9.9
340.854	4.44
341.066	-9.9
341.278	88.4
341.491	55.64
341.703	41.3
341.915	-87.72
342.128	2.39
342.34	31.06
342.552	-59.05
342.764	2.39
342.977	-1.71
343.189	35.16
343.401	22.87
343.613	-32.43
343.826	-18.09
344.038	-34.47
344.25	16.73
344.462	-52.91
344.674	14.68
344.886	121.17
345.099	-32.43
345.311	2.39
345.523	72.02
345.735	-3.75
345.947	26.96
346.159	-3.75
346.371	4.44
346.583	-9.9
346.795	182.61
347.007	65.88
347.219	117.08
347.431	-40.62
347.643	65.88
347.855	12.63
348.067	110.93
348.279	24.92
348.491	43.35
348.703	0.34
348.915	-9.9
349.127	20.82
349.339	14.68
349.551	-48.81
349.763	-28.33
349.975	57.68
350.187	35.16
350.399	-9.9
350.61	-40.62
350.822	-30.38
351.034	53.59
351.246	78.16
351.458	63.83
351.669	29.01
351.881	106.84
352.093	45.4
352.305	67.92
352.517	43.35
352.728	69.97
352.94	8.53
353.152	37.2
353.363	10.58
353.575	16.73
353.787	72.02
353.999	4.44
354.21	49.49
354.422	2.39
354.633	10.58
354.845	67.92
355.057	24.92
355.268	12.63
355.48	121.17
355.692	72.02
355.903	37.2
356.115	8.53
356.326	-22.19
356.538	129.36
356.749	22.87
356.961	63.83
357.172	12.63
357.384	53.59
357.595	143.7
357.807	43.35
358.018	37.2
358.23	80.21
358.441	49.49
358.653	80.21
358.864	-20.14
359.075	-26.28
359.287	33.11
359.498	117.08
359.709	47.44
359.921	41.3
360.132	41.3
360.344	39.25
360.555	16.73
360.766	20.82
360.977	14.68
361.189	18.77
361.4	31.06
361.611	14.68
361.823	49.49
362.034	14.68
362.245	33.11
362.456	12.63
362.667	-11.95
362.879	37.2
363.09	78.16
363.301	63.83
363.512	-52.91
363.723	-34.47
363.935	67.92
364.146	78.16
364.357	31.06
364.568	110.93
364.779	-34.47
364.99	106.84
365.201	80.21
365.412	65.88
365.623	67.92
365.834	22.87
366.045	26.96
366.256	39.25
366.467	61.78
366.678	-5.8
366.889	53.59
367.1	59.73
367.311	129.36
367.522	43.35
367.733	92.5
367.944	84.31
368.155	80.21
368.366	-3.75
368.577	-9.9
368.788	65.88
368.999	35.16
369.209	72.02
369.42	80.21
369.631	80.21
369.842	55.64
370.053	26.96
370.264	14.68
370.474	24.92
370.685	45.4
370.896	61.78
371.107	18.77
371.317	55.64
371.528	47.44
371.739	96.6
371.95	22.87
372.16	51.54
372.371	39.25
372.582	80.21
372.792	35.16
373.003	-22.19
373.214	-1.71
373.424	43.35
373.635	-11.95
373.846	82.26
374.056	86.36
374.267	117.08
374.477	10.58
374.688	88.4
374.898	67.92
375.109	39.25
375.319	61.78
375.53	47.44
375.74	72.02
375.951	39.25
376.161	14.68
376.372	96.6
376.582	45.4
376.793	22.87
377.003	37.2
377.214	16.73
377.424	-16.04
377.635	18.77
377.845	59.73
378.055	78.16
378.266	-18.09
378.476	69.97
378.686	59.73
378.897	-1.71
379.107	10.58
379.317	29.01
379.528	35.16
379.738	129.36
379.948	12.63
380.158	63.83
380.369	26.96
380.579	12.63
380.789	16.73
380.999	67.92
381.21	49.49
381.42	123.22
381.63	12.63
381.84	26.96
382.05	6.49
382.261	-24.23
382.471	72.02
382.681	55.64
382.891	131.41
383.101	26.96
383.311	-30.38
383.521	14.68
383.731	55.64
383.941	96.6
384.151	45.4
384.361	22.87
384.571	53.59
384.781	41.3
384.991	69.97
385.201	160.08
385.411	49.49
385.621	123.22
385.831	-38.57
386.041	26.96
386.251	-32.43
386.461	24.92
386.671	59.73
386.881	41.3
387.091	-20.14
387.301	14.68
387.511	14.68
387.72	-11.95
387.93	26.96
388.14	37.2
388.35	26.96
388.56	78.16
388.769	80.21
388.979	55.64
389.189	20.82
389.399	22.87
389.609	-11.95
389.818	72.02
390.028	92.5
390.238	20.82
390.447	59.73
390.657	26.96
390.867	47.44
391.076	4.44
391.286	51.54
391.496	98.64
391.705	76.12
391.915	72.02
392.125	16.73
392.334	-65.19
392.544	80.21
392.753	12.63
392.963	96.6
393.172	78.16
393.382	26.96
393.591	88.4
393.801	63.83
394.01	86.36
394.22	76.12
394.429	45.4
394.639	84.31
394.848	96.6
395.058	86.36
395.267	59.73
395.477	65.88
395.686	121.17
395.895	135.51
396.105	96.6
396.314	76.12
396.524	65.88
396.733	47.44
396.942	45.4
397.152	39.25
397.361	2.39
397.57	-11.95
397.78	39.25
397.989	63.83
398.198	145.75
398.407	80.21
398.617	65.88
398.826	69.97
399.035	94.55
399.244	96.6
399.453	129.36
399.663	121.17
399.872	115.03
400.081	59.73
400.29	117.08
400.499	53.59
400.708	84.31
400.917	110.93
401.127	104.79
401.336	110.93
401.545	172.37
401.754	61.78
401.963	127.32
402.172	29.01
402.381	133.46
402.59	26.96
402.799	127.32
403.008	151.89
403.217	108.88
403.426	55.64
403.635	55.64
403.844	63.83
404.053	141.65
404.262	74.07
404.471	59.73
404.68	55.64
404.888	98.64
405.097	115.03
405.306	145.75
405.515	84.31
405.724	149.84
405.933	190.8
406.142	125.27
406.35	186.71
406.559	190.8
406.768	121.17
406.977	198.99
407.185	127.32
407.394	246.1
407.603	182.61
407.812	178.51
408.02	231.76
408.229	137.56
408.438	158.03
408.646	201.04
408.855	182.61
409.064	209.23
409.272	180.56
409.481	258.39
409.69	141.65
409.898	227.67
410.107	299.34
410.315	231.76
410.524	282.96
410.733	309.58
410.941	256.34
411.15	319.82
411.358	319.82
411.567	366.93
411.775	350.54
411.984	334.16
412.192	321.87
412.401	409.94
412.609	420.17
412.818	434.51
413.026	420.17
413.234	444.75
413.443	471.37
413.651	483.66
413.86	491.85
414.068	498
414.276	561.48
414.485	477.52
414.693	598.35
414.901	598.35
415.11	713.03
415.318	616.78
415.526	680.27
415.734	678.22
415.943	635.21
416.151	680.27
416.359	710.99
416.567	676.17
416.776	717.13
416.984	858.44
417.192	842.06
417.4	821.58
417.608	842.06
417.817	936.26
418.025	966.98
418.233	1061.19
418.441	966.98
418.649	923.98
418.857	1071.43
419.065	1110.34
419.273	1114.44
419.481	1192.26
419.689	1218.88
419.897	1321.28
420.105	1235.27
420.313	1319.23
420.521	1478.97
420.729	1497.41
420.937	1468.73
421.145	1470.78
421.353	1587.52
421.561	1702.2
421.769	1632.57
421.977	1667.39
422.185	1784.12
422.393	1913.14
422.601	1954.1
422.809	1919.29
423.017	1896.76
423.224	2107.7
423.432	2136.37
423.64	2150.71
423.848	2371.89
424.056	2341.17
424.263	2511.15
424.471	2398.51
424.679	2509.1
424.887	2595.12
425.094	2695.47
425.302	2722.09
425.51	2748.72
425.718	2890.03
425.925	3049.77
426.133	3041.57
426.341	3219.75
426.548	3445.02
426.756	3406.11
426.964	3352.87
427.171	3621.15
427.379	3725.6
427.586	3750.17
427.794	3873.05
428.001	3891.48
428.209	4167.96
428.417	4167.96
428.624	4479.25
428.832	4460.82
429.039	4434.19
429.247	4284.69
429.454	4729.1
429.662	5146.89
429.869	4655.37
430.076	5234.95
430.284	4970.76
430.491	5216.52
430.699	5597.44
430.906	5560.58
431.114	5611.78
431.321	5863.68
431.528	5839.1
431.736	6373.62
431.943	6553.84
432.15	6473.97
432.358	6516.98
432.565	6813.93
432.772	6738.16
432.979	7215.34
433.187	7350.5
433.394	7244.01
433.601	7721.18
433.808	7846.11
434.016	7796.96
434.223	8132.83
434.43	8601.81
434.637	8296.66
434.844	8829.13
435.052	9187.53
435.259	9099.47
435.466	8978.64
435.673	8827.09
435.88	9685.19
436.087	10229.95
436.294	10176.7
436.501	9943.23
436.708	10315.96
436.915	10512.56
437.122	11036.84
437.329	10993.84
437.537	11370.66
437.743	11632.8
437.95	11354.28
438.157	11925.66
438.364	12310.68
438.571	12175.52
438.778	12277.91
438.985	13727.88
439.192	12882.06
439.399	13344.91
439.606	13121.68
439.813	13885.57
440.02	14545.02
440.227	14395.51
440.433	14327.93
440.64	14839.92
440.847	14590.07
441.054	14887.03
441.261	16124
441.467	15781.99
441.674	15972.45
441.881	16437.34
442.088	16517.21
442.294	16549.98
442.501	16883.8
442.708	17322.06
442.914	17977.41
443.121	18823.22
443.328	17940.55
443.534	19789.86
443.741	18839.61
443.948	18708.54
444.154	20113.44
444.361	19695.66
444.568	19503.15
444.774	19693.61
444.981	19920.93
445.187	20650.01
445.394	21954.57
445.6	21295.12
445.807	23687.15
446.013	22595.58
446.22	22951.93
446.426	23832.55
446.633	23973.86
446.839	24674.27
447.046	23572.46
447.252	24858.59
447.459	25124.82
447.665	24795.1
447.871	26036.17
448.078	27099.06
448.284	25808.84
448.491	26554.3
448.697	27516.85
448.903	28223.4
449.11	27836.33
449.316	27221.94
449.522	27942.83
449.728	28596.13
449.935	28970.91
450.141	29185.94
450.347	29243.29
450.553	28526.5
450.76	28510.11
450.966	29370.26
451.172	29274.01
451.378	30150.54
451.584	29429.65
451.791	30336.9
451.997	29704.08
452.203	30637.95
452.409	30199.69
452.615	30535.56
452.821	28874.65
453.027	28872.6
453.233	30181.26
453.44	29200.28
453.646	29384.6
453.852	29519.76
454.058	29890.45
454.264	28798.88
454.47	29472.66
454.676	28676
454.882	29560.72
455.088	26947.51
455.294	27592.62
455.5	27799.47
455.705	28086.18
455.911	27424.69
456.117	26765.24
456.323	26261.44
456.529	24506.34
456.735	25538.51
456.941	24940.5
457.147	24385.51
457.352	24055.78
457.558	23742.44
457.764	23678.96
457.97	23117.81
458.176	22855.67
458.381	22857.72
458.587	21583.88
458.793	21510.16
458.999	20262.94
459.204	21725.19
459.41	21329.94
459.616	19943.46
459.821	20162.59
460.027	20152.35
460.233	19353.65
460.438	18595.9
460.644	18726.97
460.85	18088
461.055	17688.65
461.261	17518.67
461.466	16457.82
461.672	15763.56
461.878	17016.91
462.083	15843.43
462.289	15558.76
462.494	15437.93
462.7	14647.41
462.905	14442.62
463.111	14819.44
463.316	14909.55
463.522	14289.02
463.727	14702.71
463.932	14342.27
464.138	14383.23
464.343	14362.75
464.549	14143.61
464.754	14305.4
464.959	14489.72
465.165	14358.65
465.37	13750.4
465.575	13176.97
465.781	13717.64
465.986	14006.4
466.191	13490.31
466.397	13080.72
466.602	12679.32
466.807	13035.66
467.012	13088.91
467.218	13019.28
467.423	12863.63
467.628	12808.34
467.833	13504.65
