Data from USB4F104151__110__10-24-51-487.txt Node

Date: Wed Mar 12 10:24:51 EDT 2025
User: louis
Spectrometer: USB4F10415
Trigger mode: 4
Integration Time (sec): 3.000000E-2
Scans to average: 1
Electric dark correction enabled: true
Nonlinearity correction enabled: false
Boxcar width: 0
XAxis mode: Wavelengths
Number of Pixels in Spectrum: 3648
>>>>>Begin Spectral Data<<<<<
178.204	-139.94
178.424	-139.94
178.644	-139.94
178.864	-129.7
179.084	-62.12
179.304	1.37
179.524	-23.21
179.744	5.46
179.964	-39.59
180.184	-62.12
180.404	30.04
180.624	40.28
180.844	17.75
181.064	1.37
181.283	30.04
181.503	1.37
181.723	-2.73
181.943	-60.07
182.163	66.9
182.383	-15.02
182.602	25.94
182.822	32.08
183.042	-31.4
183.262	-29.35
183.482	34.13
183.701	25.94
183.921	-15.02
184.141	7.51
184.361	38.23
184.58	38.23
184.8	30.04
185.02	25.94
185.239	36.18
185.459	48.47
185.679	9.56
185.898	30.04
186.118	77.14
186.338	34.13
186.557	-58.03
186.777	50.52
186.997	19.8
187.216	-43.69
187.436	107.86
187.655	54.61
187.875	87.38
188.095	5.46
188.314	40.28
188.534	-19.11
188.753	-2.73
188.973	-0.68
189.192	46.42
189.412	-10.92
189.631	23.89
189.851	50.52
190.07	87.38
190.29	-51.88
190.509	68.95
190.729	40.28
190.948	87.38
191.168	122.2
191.387	38.23
191.607	105.81
191.826	-2.73
192.045	42.32
192.265	66.9
192.484	13.65
192.704	73.04
192.923	46.42
193.142	77.14
193.362	-31.4
193.581	77.14
193.8	30.04
194.02	1.37
194.239	-8.87
194.458	71
194.678	11.61
194.897	25.94
195.116	58.71
195.335	30.04
195.555	-10.92
195.774	11.61
195.993	23.89
196.212	17.75
196.432	21.85
196.651	89.43
196.87	5.46
197.089	66.9
197.308	9.56
197.528	48.47
197.747	-45.74
197.966	5.46
198.185	-33.45
198.404	38.23
198.623	7.51
198.842	-15.02
199.062	77.14
199.281	46.42
199.5	-19.11
199.719	62.8
199.938	-17.07
200.157	-27.31
200.376	77.14
200.595	21.85
200.814	17.75
201.033	36.18
201.252	75.09
201.471	-19.11
201.69	91.48
201.909	42.32
202.128	27.99
202.347	-23.21
202.566	-0.68
202.785	30.04
203.004	17.75
203.223	79.19
203.442	30.04
203.661	-41.64
203.879	34.13
204.098	34.13
204.317	25.94
204.536	93.52
204.755	50.52
204.974	60.76
205.193	38.23
205.411	54.61
205.63	66.9
205.849	54.61
206.068	34.13
206.287	73.04
206.505	9.56
206.724	58.71
206.943	32.08
207.162	9.56
207.381	15.7
207.599	42.32
207.818	40.28
208.037	17.75
208.255	34.13
208.474	40.28
208.693	19.8
208.911	103.76
209.13	-6.83
209.349	52.56
209.567	-17.07
209.786	93.52
210.005	58.71
210.223	7.51
210.442	-58.03
210.661	9.56
210.879	7.51
211.098	-39.59
211.316	42.32
211.535	44.37
211.753	48.47
211.972	25.94
212.191	5.46
212.409	81.24
212.628	124.24
212.846	42.32
213.065	75.09
213.283	21.85
213.502	-10.92
213.72	30.04
213.938	64.85
214.157	-0.68
214.375	-15.02
214.594	52.56
214.812	54.61
215.031	34.13
215.249	38.23
215.467	-49.83
215.686	-2.73
215.904	75.09
216.122	13.65
216.341	134.48
216.559	97.62
216.778	-15.02
216.996	25.94
217.214	87.38
217.432	1.37
217.651	50.52
217.869	-27.31
218.087	1.37
218.306	73.04
218.524	19.8
218.742	48.47
218.96	46.42
219.179	38.23
219.397	56.66
219.615	77.14
219.833	62.8
220.051	38.23
220.27	7.51
220.488	42.32
220.706	79.19
220.924	71
221.142	30.04
221.36	15.7
221.578	56.66
221.796	58.71
222.015	136.53
222.233	9.56
222.451	79.19
222.669	95.57
222.887	25.94
223.105	50.52
223.323	34.13
223.541	-39.59
223.759	56.66
223.977	64.85
224.195	83.28
224.413	46.42
224.631	19.8
224.849	-0.68
225.067	66.9
225.285	23.89
225.503	27.99
225.721	-88.75
225.939	1.37
226.157	21.85
226.375	44.37
226.592	25.94
226.81	54.61
227.028	13.65
227.246	99.67
227.464	15.7
227.682	54.61
227.9	-25.26
228.117	15.7
228.335	-8.87
228.553	19.8
228.771	25.94
228.989	-37.55
229.206	-15.02
229.424	17.75
229.642	-8.87
229.86	-45.74
230.077	64.85
230.295	107.86
230.513	23.89
230.731	105.81
230.948	93.52
231.166	116.05
231.384	54.61
231.601	5.46
231.819	52.56
232.037	46.42
232.254	-55.98
232.472	91.48
232.689	38.23
232.907	27.99
233.125	34.13
233.342	58.71
233.56	19.8
233.777	71
233.995	15.7
234.213	95.57
234.43	21.85
234.648	48.47
234.865	30.04
235.083	-33.45
235.3	-8.87
235.518	101.72
235.735	87.38
235.953	122.2
236.17	58.71
236.388	13.65
236.605	36.18
236.822	17.75
237.04	3.41
237.257	-17.07
237.475	23.89
237.692	25.94
237.909	66.9
238.127	62.8
238.344	66.9
238.562	83.28
238.779	62.8
238.996	-10.92
239.214	54.61
239.431	87.38
239.648	3.41
239.865	17.75
240.083	83.28
240.3	77.14
240.517	5.46
240.735	23.89
240.952	48.47
241.169	66.9
241.386	48.47
241.603	99.67
241.821	-51.88
242.038	105.81
242.255	66.9
242.472	-8.87
242.689	75.09
242.907	25.94
243.124	19.8
243.341	93.52
243.558	79.19
243.775	-0.68
243.992	-31.4
244.209	13.65
244.426	122.2
244.643	107.86
244.86	-15.02
245.078	99.67
245.295	-76.46
245.512	36.18
245.729	42.32
245.946	60.76
246.163	68.95
246.38	5.46
246.597	27.99
246.814	62.8
247.031	-4.78
247.248	23.89
247.464	126.29
247.681	34.13
247.898	89.43
248.115	21.85
248.332	21.85
248.549	93.52
248.766	105.81
248.983	15.7
249.2	81.24
249.417	21.85
249.633	11.61
249.85	-6.83
250.067	30.04
250.284	36.18
250.501	97.62
250.717	30.04
250.934	-21.16
251.151	-12.97
251.368	25.94
251.585	116.05
251.801	50.52
252.018	5.46
252.235	17.75
252.451	-33.45
252.668	5.46
252.885	23.89
253.102	11.61
253.318	-23.21
253.535	34.13
253.752	73.04
253.968	21.85
254.185	13.65
254.401	25.94
254.618	68.95
254.835	34.13
255.051	105.81
255.268	11.61
255.484	-2.73
255.701	71
255.917	111.96
256.134	81.24
256.351	58.71
256.567	52.56
256.784	73.04
257	-27.31
257.217	89.43
257.433	83.28
257.65	152.92
257.866	-31.4
258.082	-15.02
258.299	30.04
258.515	17.75
258.732	38.23
258.948	-17.07
259.165	79.19
259.381	32.08
259.597	44.37
259.814	-6.83
260.03	73.04
260.246	75.09
260.463	40.28
260.679	50.52
260.895	50.52
261.112	40.28
261.328	27.99
261.544	9.56
261.761	66.9
261.977	1.37
262.193	27.99
262.409	64.85
262.626	91.48
262.842	23.89
263.058	30.04
263.274	71
263.49	23.89
263.707	17.75
263.923	3.41
264.139	-15.02
264.355	62.8
264.571	75.09
264.787	32.08
265.004	71
265.22	111.96
265.436	34.13
265.652	5.46
265.868	75.09
266.084	-39.59
266.3	58.71
266.516	9.56
266.732	30.04
266.948	-8.87
267.164	9.56
267.38	36.18
267.596	-23.21
267.812	32.08
268.028	68.95
268.244	30.04
268.46	81.24
268.676	122.2
268.892	48.47
269.108	21.85
269.324	56.66
269.54	87.38
269.756	32.08
269.972	-64.17
270.188	-0.68
270.403	-0.68
270.619	7.51
270.835	1.37
271.051	-23.21
271.267	-10.92
271.483	71
271.698	46.42
271.914	38.23
272.13	-15.02
272.346	58.71
272.562	66.9
272.777	50.52
272.993	42.32
273.209	-41.64
273.425	97.62
273.64	-19.11
273.856	81.24
274.072	21.85
274.287	9.56
274.503	48.47
274.719	66.9
274.934	1.37
275.15	-12.97
275.366	85.33
275.581	-51.88
275.797	54.61
276.012	11.61
276.228	60.76
276.444	30.04
276.659	118.1
276.875	68.95
277.09	32.08
277.306	32.08
277.521	34.13
277.737	85.33
277.952	54.61
278.168	77.14
278.383	93.52
278.599	-8.87
278.814	99.67
279.03	-12.97
279.245	5.46
279.461	19.8
279.676	73.04
279.892	-55.98
280.107	-17.07
280.322	99.67
280.538	66.9
280.753	73.04
280.969	40.28
281.184	46.42
281.399	71
281.615	42.32
281.83	95.57
282.045	-27.31
282.26	27.99
282.476	9.56
282.691	62.8
282.906	75.09
283.122	152.92
283.337	9.56
283.552	34.13
283.767	30.04
283.983	9.56
284.198	48.47
284.413	116.05
284.628	54.61
284.843	68.95
285.058	3.41
285.274	38.23
285.489	-4.78
285.704	46.42
285.919	5.46
286.134	50.52
286.349	40.28
286.564	101.72
286.779	64.85
286.995	25.94
287.21	34.13
287.425	-12.97
287.64	34.13
287.855	-17.07
288.07	-39.59
288.285	116.05
288.5	7.51
288.715	75.09
288.93	68.95
289.145	-64.17
289.36	23.89
289.575	75.09
289.79	58.71
290.004	87.38
290.219	5.46
290.434	-4.78
290.649	105.81
290.864	19.8
291.079	101.72
291.294	-35.5
291.509	83.28
291.724	36.18
291.938	25.94
292.153	99.67
292.368	34.13
292.583	13.65
292.798	66.9
293.012	25.94
293.227	-4.78
293.442	25.94
293.657	42.32
293.871	95.57
294.086	-17.07
294.301	38.23
294.516	66.9
294.73	-17.07
294.945	25.94
295.16	23.89
295.374	48.47
295.589	71
295.804	9.56
296.018	25.94
296.233	99.67
296.447	15.7
296.662	19.8
296.877	50.52
297.091	9.56
297.306	73.04
297.52	9.56
297.735	38.23
297.949	50.52
298.164	13.65
298.378	21.85
298.593	81.24
298.807	62.8
299.022	83.28
299.236	71
299.451	40.28
299.665	34.13
299.88	-23.21
300.094	5.46
300.309	13.65
300.523	38.23
300.737	-27.31
300.952	-31.4
301.166	1.37
301.381	11.61
301.595	52.56
301.809	58.71
302.024	21.85
302.238	42.32
302.452	7.51
302.667	3.41
302.881	77.14
303.095	50.52
303.309	83.28
303.524	81.24
303.738	66.9
303.952	46.42
304.166	71
304.381	21.85
304.595	99.67
304.809	77.14
305.023	81.24
305.237	11.61
305.452	-15.02
305.666	79.19
305.88	64.85
306.094	13.65
306.308	-31.4
306.522	91.48
306.736	68.95
306.95	42.32
307.164	68.95
307.379	27.99
307.593	103.76
307.807	60.76
308.021	97.62
308.235	64.85
308.449	36.18
308.663	75.09
308.877	109.91
309.091	36.18
309.305	56.66
309.519	87.38
309.733	81.24
309.947	-35.5
310.161	-10.92
310.374	23.89
310.588	64.85
310.802	58.71
311.016	38.23
311.23	71
311.444	50.52
311.658	48.47
311.872	17.75
312.085	122.2
312.299	79.19
312.513	75.09
312.727	54.61
312.941	-51.88
313.154	85.33
313.368	-19.11
313.582	40.28
313.796	83.28
314.009	1.37
314.223	38.23
314.437	42.32
314.651	30.04
314.864	38.23
315.078	58.71
315.292	17.75
315.505	-8.87
315.719	73.04
315.933	99.67
316.146	3.41
316.36	32.08
316.573	40.28
316.787	46.42
317.001	58.71
317.214	13.65
317.428	46.42
317.641	71
317.855	19.8
318.068	91.48
318.282	30.04
318.495	111.96
318.709	54.61
318.922	15.7
319.136	103.76
319.349	87.38
319.563	9.56
319.776	64.85
319.99	13.65
320.203	30.04
320.417	99.67
320.63	99.67
320.843	44.37
321.057	58.71
321.27	58.71
321.483	75.09
321.697	17.75
321.91	-2.73
322.124	9.56
322.337	36.18
322.55	-6.83
322.763	-17.07
322.977	-2.73
323.19	21.85
323.403	50.52
323.617	27.99
323.83	79.19
324.043	32.08
324.256	50.52
324.469	-17.07
324.683	27.99
324.896	30.04
325.109	95.57
325.322	-25.26
325.535	42.32
325.748	38.23
325.962	52.56
326.175	58.71
326.388	50.52
326.601	116.05
326.814	105.81
327.027	17.75
327.24	79.19
327.453	11.61
327.666	165.2
327.879	132.44
328.092	120.15
328.305	-55.98
328.518	54.61
328.731	44.37
328.944	-10.92
329.157	66.9
329.37	9.56
329.583	105.81
329.796	120.15
330.009	1.37
330.222	99.67
330.435	40.28
330.648	5.46
330.861	48.47
331.073	3.41
331.286	75.09
331.499	56.66
331.712	17.75
331.925	107.86
332.138	124.24
332.35	105.81
332.563	50.52
332.776	77.14
332.989	-6.83
333.202	62.8
333.414	50.52
333.627	83.28
333.84	-6.83
334.053	54.61
334.265	9.56
334.478	23.89
334.691	-21.16
334.903	44.37
335.116	17.75
335.329	9.56
335.541	91.48
335.754	136.53
335.966	-39.59
336.179	77.14
336.392	-58.03
336.604	54.61
336.817	54.61
337.029	56.66
337.242	15.7
337.454	38.23
337.667	-2.73
337.88	138.58
338.092	56.66
338.305	17.75
338.517	71
338.729	128.34
338.942	50.52
339.154	118.1
339.367	27.99
339.579	-15.02
339.792	48.47
340.004	38.23
340.217	75.09
340.429	91.48
340.641	23.89
340.854	87.38
341.066	66.9
341.278	73.04
341.491	73.04
341.703	36.18
341.915	105.81
342.128	83.28
342.34	46.42
342.552	66.9
342.764	99.67
342.977	34.13
343.189	23.89
343.401	42.32
343.613	81.24
343.826	101.72
344.038	21.85
344.25	-19.11
344.462	-39.59
344.674	71
344.886	25.94
345.099	62.8
345.311	30.04
345.523	-12.97
345.735	54.61
345.947	58.71
346.159	66.9
346.371	60.76
346.583	64.85
346.795	97.62
347.007	32.08
347.219	75.09
347.431	62.8
347.643	60.76
347.855	19.8
348.067	66.9
348.279	95.57
348.491	73.04
348.703	71
348.915	7.51
349.127	107.86
349.339	42.32
349.551	83.28
349.763	48.47
349.975	128.34
350.187	73.04
350.399	95.57
350.61	17.75
350.822	75.09
351.034	42.32
351.246	48.47
351.458	50.52
351.669	25.94
351.881	50.52
352.093	77.14
352.305	85.33
352.517	58.71
352.728	66.9
352.94	9.56
353.152	-31.4
353.363	19.8
353.575	5.46
353.787	68.95
353.999	21.85
354.21	154.96
354.422	52.56
354.633	56.66
354.845	50.52
355.057	52.56
355.268	144.72
355.48	19.8
355.692	7.51
355.903	1.37
356.115	71
356.326	11.61
356.538	79.19
356.749	-19.11
356.961	13.65
357.172	9.56
357.384	9.56
357.595	73.04
357.807	105.81
358.018	66.9
358.23	66.9
358.441	58.71
358.653	21.85
358.864	7.51
359.075	13.65
359.287	87.38
359.498	91.48
359.709	38.23
359.921	107.86
360.132	-17.07
360.344	13.65
360.555	58.71
360.766	75.09
360.977	38.23
361.189	81.24
361.4	40.28
361.611	46.42
361.823	25.94
362.034	3.41
362.245	-49.83
362.456	62.8
362.667	91.48
362.879	-6.83
363.09	83.28
363.301	58.71
363.512	109.91
363.723	56.66
363.935	-0.68
364.146	83.28
364.357	64.85
364.568	111.96
364.779	77.14
364.99	66.9
365.201	-37.55
365.412	9.56
365.623	5.46
365.834	7.51
366.045	34.13
366.256	58.71
366.467	17.75
366.678	150.87
366.889	58.71
367.1	107.86
367.311	46.42
367.522	30.04
367.733	103.76
367.944	75.09
368.155	73.04
368.366	9.56
368.577	68.95
368.788	95.57
368.999	77.14
369.209	66.9
369.42	30.04
369.631	85.33
369.842	-10.92
370.053	36.18
370.264	99.67
370.474	7.51
370.685	40.28
370.896	77.14
371.107	111.96
371.317	34.13
371.528	11.61
371.739	165.2
371.95	32.08
372.16	23.89
372.371	40.28
372.582	77.14
372.792	120.15
373.003	66.9
373.214	44.37
373.424	5.46
373.635	66.9
373.846	71
374.056	71
374.267	95.57
374.477	19.8
374.688	-2.73
374.898	5.46
375.109	64.85
375.319	60.76
375.53	38.23
375.74	66.9
375.951	73.04
376.161	64.85
376.372	71
376.582	64.85
376.793	50.52
377.003	42.32
377.214	50.52
377.424	116.05
377.635	75.09
377.845	122.2
378.055	99.67
378.266	58.71
378.476	-68.27
378.686	25.94
378.897	87.38
379.107	34.13
379.317	107.86
379.528	-15.02
379.738	68.95
379.948	58.71
380.158	32.08
380.369	58.71
380.579	-15.02
380.789	25.94
380.999	130.39
381.21	81.24
381.42	97.62
381.63	5.46
381.84	83.28
382.05	99.67
382.261	93.52
382.471	107.86
382.681	64.85
382.891	95.57
383.101	34.13
383.311	13.65
383.521	13.65
383.731	-0.68
383.941	118.1
384.151	60.76
384.361	101.72
384.571	66.9
384.781	34.13
384.991	77.14
385.201	116.05
385.411	107.86
385.621	64.85
385.831	79.19
386.041	157.01
386.251	25.94
386.461	116.05
386.671	1.37
386.881	48.47
387.091	7.51
387.301	79.19
387.511	154.96
387.72	89.43
387.93	21.85
388.14	48.47
388.35	109.91
388.56	75.09
388.769	56.66
388.979	122.2
389.189	50.52
389.399	19.8
389.609	25.94
389.818	93.52
390.028	75.09
390.238	75.09
390.447	30.04
390.657	58.71
390.867	40.28
391.076	-8.87
391.286	120.15
391.496	44.37
391.705	91.48
391.915	42.32
392.125	146.77
392.334	101.72
392.544	111.96
392.753	97.62
392.963	66.9
393.172	25.94
393.382	40.28
393.591	99.67
393.801	30.04
394.01	114
394.22	23.89
394.429	87.38
394.639	13.65
394.848	109.91
395.058	116.05
395.267	25.94
395.477	34.13
395.686	99.67
395.895	138.58
396.105	34.13
396.314	148.82
396.524	144.72
396.733	73.04
396.942	124.24
397.152	144.72
397.361	105.81
397.57	109.91
397.78	138.58
397.989	107.86
398.198	212.31
398.407	173.39
398.617	122.2
398.826	185.68
399.035	60.76
399.244	99.67
399.453	52.56
399.663	111.96
399.872	187.73
400.081	36.18
400.29	136.53
400.499	83.28
400.708	128.34
400.917	130.39
401.127	157.01
401.336	66.9
401.545	197.97
401.754	124.24
401.963	167.25
402.172	75.09
402.381	124.24
402.59	107.86
402.799	152.92
403.008	64.85
403.217	148.82
403.426	148.82
403.635	111.96
403.844	136.53
404.053	103.76
404.262	99.67
404.471	175.44
404.68	128.34
404.888	150.87
405.097	128.34
405.306	144.72
405.515	230.74
405.724	122.2
405.933	179.54
406.142	183.63
406.35	197.97
406.559	218.45
406.768	226.64
406.977	202.07
407.185	165.2
407.394	222.55
407.603	253.27
407.812	232.79
408.02	238.93
408.229	259.41
408.438	224.59
408.646	275.79
408.855	240.98
409.064	208.21
409.272	326.99
409.481	341.33
409.69	195.92
409.898	292.18
410.107	347.47
410.315	286.03
410.524	279.89
410.733	408.91
410.941	386.38
411.15	372.05
411.358	417.1
411.567	492.88
411.775	433.49
411.984	456.01
412.192	443.73
412.401	464.21
412.609	464.21
412.818	509.26
413.026	480.59
413.234	533.84
413.443	476.49
413.651	646.48
413.86	607.56
414.068	646.48
414.276	714.06
414.485	619.85
414.693	677.19
414.901	771.4
415.11	662.86
415.318	601.42
415.526	781.64
415.734	793.93
415.943	836.94
416.151	867.66
416.359	873.8
416.567	896.33
416.776	927.05
416.984	1074.5
417.192	992.58
417.4	1006.92
417.608	976.2
417.817	1213.76
418.025	1148.23
418.233	1121.6
418.441	1189.19
418.649	1207.62
418.857	1303.87
419.065	1328.45
419.273	1379.65
419.481	1418.56
419.689	1490.24
419.897	1656.12
420.105	1590.59
420.313	1733.95
420.521	1707.32
420.729	1701.18
420.937	1801.53
421.145	1799.48
421.353	1942.84
421.561	2131.25
421.769	2028.85
421.977	2118.97
422.185	2000.18
422.393	2309.43
422.601	2417.97
422.809	2223.41
423.017	2473.26
423.224	2536.75
423.432	2538.8
423.64	2702.64
423.848	2735.4
424.056	2811.18
424.263	2983.21
424.471	2966.82
424.679	3020.07
424.887	3126.57
425.094	3382.56
425.302	3396.9
425.51	3415.33
425.718	3546.4
425.925	3620.13
426.133	3708.19
426.341	3906.84
426.548	4113.69
426.756	4220.18
426.964	4111.64
427.171	4392.21
427.379	4467.99
427.586	4631.82
427.794	4746.51
428.001	4859.15
428.209	5225.73
428.417	4965.64
428.624	5397.76
428.832	5405.95
429.039	5371.14
429.247	5254.41
429.454	5919.99
429.662	6391.03
429.869	5872.89
430.076	6305.01
430.284	6059.26
430.491	6370.55
430.699	6868.2
430.906	6841.58
431.114	6931.69
431.321	7093.48
431.528	7466.21
431.736	7734.5
431.943	8111.32
432.15	7718.11
432.358	7855.33
432.565	8123.61
432.772	8203.48
432.979	8668.37
433.187	8885.45
433.394	8926.41
433.601	9524.42
433.808	9503.94
434.016	9452.74
434.223	9862.33
434.43	10443.96
434.637	10288.31
434.844	10771.63
435.052	11183.27
435.259	11023.53
435.466	11150.51
435.673	10898.61
435.88	11803.81
436.087	12311.71
436.294	12174.49
436.501	11930.78
436.708	12319.9
436.915	12709.01
437.122	13155.47
437.329	13180.04
437.537	13722.76
437.743	13855.87
437.95	13776
438.157	14437.5
438.364	15000.69
438.571	14849.14
438.778	14875.76
438.985	16378.97
439.192	15713.38
439.399	16106.59
439.606	15785.06
439.813	16645.21
440.02	17888.32
440.227	17572.94
440.433	17370.19
440.64	17935.43
440.847	17591.37
441.054	18099.27
441.261	19498.03
441.467	19145.78
441.674	19502.12
441.881	20251.68
442.088	20157.47
442.294	20048.93
442.501	20587.55
442.708	21064.72
442.914	21720.07
443.121	23315.44
443.328	21888.01
443.534	23401.46
443.741	22758.39
443.948	22373.38
444.154	24347.62
444.361	24056.81
444.568	24161.25
444.774	24613.85
444.981	24282.08
445.187	25568.21
445.394	26254.28
445.6	25791.44
445.807	28386.21
446.013	27507.63
446.22	27722.67
446.426	28971.93
446.633	29008.79
446.839	29850.51
447.046	28668.83
447.252	30051.21
447.459	30247.82
447.665	30053.26
447.871	31480.69
448.078	33096.54
448.284	31163.26
448.491	32058.22
448.697	33209.18
448.903	33758.03
449.11	33715.03
449.316	33422.17
449.522	34040.65
449.728	34925.38
449.935	35162.94
450.141	34548.55
450.347	35490.62
450.553	34362.18
450.76	34814.79
450.966	35904.31
451.172	35601.21
451.378	36260.65
451.584	35676.98
451.791	36213.55
451.997	36363.05
452.203	36717.35
452.409	36877.09
452.615	36762.4
452.821	35302.2
453.027	34984.77
453.233	36823.84
453.44	35185.47
453.646	35666.74
453.852	35664.69
454.058	36338.47
454.264	34845.51
454.47	35973.94
454.676	35005.25
454.882	36174.64
455.088	33237.85
455.294	33438.55
455.5	33680.21
455.705	34462.54
455.911	33086.3
456.117	32172.91
456.323	32115.56
456.529	30440.32
456.735	31513.46
456.941	30727.04
457.147	30004.11
457.352	28976.03
457.558	28707.74
457.764	28664.74
457.97	28507.04
458.176	27737.01
458.381	27532.21
458.587	26057.67
458.793	26336.2
458.999	24933.34
459.204	26698.69
459.41	25875.4
459.616	24224.74
459.821	24519.65
460.027	24126.44
460.233	23540.72
460.438	22508.54
460.644	22795.26
460.85	21662.73
461.055	21486.61
461.261	21355.54
461.466	19854.37
461.672	19022.9
461.878	20747.29
462.083	19043.38
462.289	18945.08
462.494	18734.14
462.7	17945.67
462.905	17613.9
463.111	18144.32
463.316	18039.87
463.522	17771.59
463.727	17816.65
463.932	17644.62
464.138	17499.21
464.343	17615.94
464.549	17124.43
464.754	17984.58
464.959	17359.95
465.165	17130.58
465.37	16622.68
465.575	16252
465.781	16884.82
465.986	16915.54
466.191	16409.69
466.397	15678.57
466.602	15266.92
466.807	16055.39
467.012	15856.74
467.218	15746.15
467.423	15441
467.628	15656.04
467.833	16397.4
468.038	15567.98
468.244	15189.1
