Data from USB4F104151__233__10-30-26-220.txt Node

Date: Wed Mar 12 10:30:26 EDT 2025
User: louis
Spectrometer: USB4F10415
Trigger mode: 4
Integration Time (sec): 3.000000E-2
Scans to average: 1
Electric dark correction enabled: true
Nonlinearity correction enabled: false
Boxcar width: 0
XAxis mode: Wavelengths
Number of Pixels in Spectrum: 3648
>>>>>Begin Spectral Data<<<<<
178.204	-96.43
178.424	-96.43
178.644	-96.43
178.864	-77.99
179.084	-139.43
179.304	-12.46
179.524	-53.42
179.744	-4.27
179.964	-37.03
180.184	-22.7
180.404	44.88
180.624	-12.46
180.844	14.17
181.064	1.88
181.283	57.17
181.503	26.45
181.723	-2.22
181.943	-57.51
182.163	85.84
182.383	59.22
182.602	-49.32
182.822	34.64
183.042	-10.41
183.262	61.27
183.482	38.74
183.701	81.75
183.921	20.31
184.141	-37.03
184.361	102.23
184.58	51.03
184.8	12.12
185.02	34.64
185.239	100.18
185.459	-14.51
185.679	34.64
185.898	-8.36
186.118	114.52
186.338	32.6
186.557	40.79
186.777	1.88
186.997	32.6
187.216	44.88
187.436	79.7
187.655	36.69
187.875	24.4
188.095	69.46
188.314	73.56
188.534	16.21
188.753	12.12
188.973	-4.27
189.192	79.7
189.412	22.36
189.631	8.02
189.851	20.31
190.07	67.41
190.29	53.08
190.509	20.31
190.729	30.55
190.948	32.6
191.168	118.61
191.387	61.27
191.607	30.55
191.826	73.56
192.045	40.79
192.265	10.07
192.484	75.6
192.704	16.21
192.923	130.9
193.142	53.08
193.362	32.6
193.581	61.27
193.8	77.65
194.02	5.97
194.239	-20.65
194.458	-22.7
194.678	94.04
194.897	53.08
195.116	20.31
195.335	-16.55
195.555	12.12
195.774	20.31
195.993	22.36
196.212	20.31
196.432	-30.89
196.651	57.17
196.87	57.17
197.089	-16.55
197.308	79.7
197.528	59.22
197.747	36.69
197.966	48.98
198.185	75.6
198.404	18.26
198.623	118.61
198.842	-0.17
199.062	28.5
199.281	61.27
199.5	-0.17
199.719	63.32
199.938	18.26
200.157	69.46
200.376	59.22
200.595	81.75
200.814	51.03
201.033	-32.94
201.252	67.41
201.471	48.98
201.69	24.4
201.909	-12.46
202.128	1.88
202.347	51.03
202.566	94.04
202.785	-37.03
203.004	20.31
203.223	38.74
203.442	36.69
203.661	28.5
203.879	112.47
204.098	85.84
204.317	-0.17
204.536	75.6
204.755	53.08
204.974	24.4
205.193	3.93
205.411	57.17
205.63	-28.84
205.849	32.6
206.068	30.55
206.287	12.12
206.505	10.07
206.724	3.93
206.943	5.97
207.162	63.32
207.381	36.69
207.599	118.61
207.818	24.4
208.037	-37.03
208.255	18.26
208.474	122.71
208.693	-10.41
208.911	1.88
209.13	59.22
209.349	83.8
209.567	87.89
209.786	124.76
210.005	34.64
210.223	-14.51
210.442	14.17
210.661	48.98
210.879	-24.75
211.098	40.79
211.316	69.46
211.535	51.03
211.753	22.36
211.972	53.08
212.191	36.69
212.409	36.69
212.628	22.36
212.846	44.88
213.065	122.71
213.283	32.6
213.502	63.32
213.72	3.93
213.938	55.12
214.157	3.93
214.375	116.56
214.594	67.41
214.812	81.75
215.031	14.17
215.249	51.03
215.467	48.98
215.686	75.6
215.904	67.41
216.122	12.12
216.341	-12.46
216.559	55.12
216.778	116.56
216.996	1.88
217.214	-14.51
217.432	48.98
217.651	36.69
217.869	67.41
218.087	63.32
218.306	3.93
218.524	87.89
218.742	26.45
218.96	51.03
219.179	3.93
219.397	73.56
219.615	89.94
219.833	8.02
220.051	-0.17
220.27	-12.46
220.488	24.4
220.706	12.12
220.924	-8.36
221.142	18.26
221.36	44.88
221.578	55.12
221.796	28.5
222.015	24.4
222.233	63.32
222.451	112.47
222.669	-8.36
222.887	67.41
223.105	128.85
223.323	83.8
223.541	71.51
223.759	26.45
223.977	28.5
224.195	5.97
224.413	135
224.631	-34.99
224.849	3.93
225.067	46.93
225.285	30.55
225.503	-18.6
225.721	-30.89
225.939	28.5
226.157	71.51
226.375	-10.41
226.592	42.84
226.81	96.08
227.028	-18.6
227.246	53.08
227.464	65.36
227.682	28.5
227.9	16.21
228.117	53.08
228.335	38.74
228.553	96.08
228.771	12.12
228.989	96.08
229.206	20.31
229.424	-24.75
229.642	53.08
229.86	10.07
230.077	40.79
230.295	32.6
230.513	24.4
230.731	114.52
230.948	85.84
231.166	61.27
231.384	-6.31
231.601	28.5
231.819	55.12
232.037	12.12
232.254	40.79
232.472	14.17
232.689	-20.65
232.907	28.5
233.125	-28.84
233.342	59.22
233.56	34.64
233.777	-39.08
233.995	12.12
234.213	18.26
234.43	48.98
234.648	55.12
234.865	-47.27
235.083	94.04
235.3	-22.7
235.518	1.88
235.735	98.13
235.953	87.89
236.17	-28.84
236.388	57.17
236.605	-55.47
236.822	38.74
237.04	79.7
237.257	34.64
237.475	-8.36
237.692	3.93
237.909	36.69
238.127	32.6
238.344	85.84
238.562	91.99
238.779	-22.7
238.996	69.46
239.214	77.65
239.431	12.12
239.648	-47.27
239.865	20.31
240.083	57.17
240.3	42.84
240.517	-6.31
240.735	89.94
240.952	44.88
241.169	77.65
241.386	44.88
241.603	73.56
241.821	57.17
242.038	26.45
242.255	36.69
242.472	87.89
242.689	65.36
242.907	34.64
243.124	-26.79
243.341	22.36
243.558	-28.84
243.775	-45.23
243.992	-45.23
244.209	75.6
244.426	96.08
244.643	5.97
244.86	36.69
245.078	94.04
245.295	59.22
245.512	-8.36
245.729	-24.75
245.946	61.27
246.163	59.22
246.38	24.4
246.597	42.84
246.814	-4.27
247.031	67.41
247.248	63.32
247.464	67.41
247.681	16.21
247.898	-8.36
248.115	12.12
248.332	14.17
248.549	139.09
248.766	110.42
248.983	12.12
249.2	44.88
249.417	40.79
249.633	-2.22
249.85	51.03
250.067	51.03
250.284	30.55
250.501	28.5
250.717	89.94
250.934	18.26
251.151	-4.27
251.368	48.98
251.585	77.65
251.801	44.88
252.018	38.74
252.235	114.52
252.451	-55.47
252.668	16.21
252.885	65.36
253.102	-75.95
253.318	61.27
253.535	10.07
253.752	67.41
253.968	44.88
254.185	-18.6
254.401	104.28
254.618	151.38
254.835	-12.46
255.051	36.69
255.268	67.41
255.484	16.21
255.701	20.31
255.917	5.97
256.134	-10.41
256.351	102.23
256.567	12.12
256.784	46.93
257	16.21
257.217	48.98
257.433	44.88
257.65	38.74
257.866	-6.31
258.082	36.69
258.299	42.84
258.515	73.56
258.732	24.4
258.948	-22.7
259.165	67.41
259.381	36.69
259.597	91.99
259.814	-16.55
260.03	-28.84
260.246	46.93
260.463	53.08
260.679	42.84
260.895	8.02
261.112	44.88
261.328	-20.65
261.544	36.69
261.761	40.79
261.977	22.36
262.193	63.32
262.409	63.32
262.626	8.02
262.842	77.65
263.058	-20.65
263.274	-41.13
263.49	48.98
263.707	46.93
263.923	69.46
264.139	-14.51
264.355	51.03
264.571	85.84
264.787	98.13
265.004	83.8
265.22	96.08
265.436	12.12
265.652	77.65
265.868	20.31
266.084	-96.43
266.3	34.64
266.516	24.4
266.732	51.03
266.948	34.64
267.164	53.08
267.38	40.79
267.596	-49.32
267.812	77.65
268.028	96.08
268.244	-24.75
268.46	20.31
268.676	14.17
268.892	3.93
269.108	-10.41
269.324	-12.46
269.54	-4.27
269.756	8.02
269.972	-30.89
270.188	100.18
270.403	-4.27
270.619	16.21
270.835	81.75
271.051	26.45
271.267	69.46
271.483	22.36
271.698	38.74
271.914	-41.13
272.13	114.52
272.346	-2.22
272.562	40.79
272.777	44.88
272.993	67.41
273.209	61.27
273.425	124.76
273.64	51.03
273.856	55.12
274.072	20.31
274.287	53.08
274.503	65.36
274.719	75.6
274.934	-12.46
275.15	-69.8
275.366	57.17
275.581	8.02
275.797	100.18
276.012	94.04
276.228	77.65
276.444	51.03
276.659	110.42
276.875	75.6
277.09	46.93
277.306	51.03
277.521	55.12
277.737	89.94
277.952	55.12
278.168	100.18
278.383	12.12
278.599	3.93
278.814	94.04
279.03	44.88
279.245	73.56
279.461	30.55
279.676	102.23
279.892	-14.51
280.107	73.56
280.322	75.6
280.538	118.61
280.753	85.84
280.969	79.7
281.184	32.6
281.399	85.84
281.615	51.03
281.83	102.23
282.045	57.17
282.26	-26.79
282.476	108.37
282.691	87.89
282.906	55.12
283.122	55.12
283.337	-4.27
283.552	102.23
283.767	38.74
283.983	34.64
284.198	61.27
284.413	-4.27
284.628	-4.27
284.843	55.12
285.058	-8.36
285.274	24.4
285.489	8.02
285.704	-24.75
285.919	34.64
286.134	-4.27
286.349	36.69
286.564	12.12
286.779	151.38
286.995	10.07
287.21	18.26
287.425	3.93
287.64	16.21
287.855	69.46
288.07	5.97
288.285	36.69
288.5	38.74
288.715	69.46
288.93	77.65
289.145	10.07
289.36	112.47
289.575	8.02
289.79	71.51
290.004	75.6
290.219	30.55
290.434	38.74
290.649	36.69
290.864	-0.17
291.079	-0.17
291.294	147.28
291.509	48.98
291.724	53.08
291.938	-4.27
292.153	81.75
292.368	12.12
292.583	16.21
292.798	38.74
293.012	73.56
293.227	-4.27
293.442	-22.7
293.657	106.32
293.871	77.65
294.086	61.27
294.301	42.84
294.516	16.21
294.73	14.17
294.945	12.12
295.16	53.08
295.374	94.04
295.589	48.98
295.804	-8.36
296.018	-4.27
296.233	94.04
296.447	102.23
296.662	40.79
296.877	18.26
297.091	118.61
297.306	18.26
297.52	30.55
297.735	5.97
297.949	94.04
298.164	104.28
298.378	8.02
298.593	8.02
298.807	-4.27
299.022	94.04
299.236	30.55
299.451	55.12
299.665	48.98
299.88	79.7
300.094	28.5
300.309	118.61
300.523	30.55
300.737	53.08
300.952	34.64
301.166	32.6
301.381	42.84
301.595	28.5
301.809	44.88
302.024	55.12
302.238	32.6
302.452	79.7
302.667	81.75
302.881	75.6
303.095	36.69
303.309	57.17
303.524	38.74
303.738	26.45
303.952	-6.31
304.166	24.4
304.381	5.97
304.595	73.56
304.809	-39.08
305.023	-18.6
305.237	22.36
305.452	51.03
305.666	51.03
305.88	69.46
306.094	14.17
306.308	75.6
306.522	3.93
306.736	102.23
306.95	114.52
307.164	-4.27
307.379	40.79
307.593	8.02
307.807	28.5
308.021	110.42
308.235	75.6
308.449	34.64
308.663	22.36
308.877	44.88
309.091	135
309.305	100.18
309.519	48.98
309.733	94.04
309.947	40.79
310.161	16.21
310.374	87.89
310.588	73.56
310.802	73.56
311.016	100.18
311.23	122.71
311.444	-37.03
311.658	10.07
311.872	120.66
312.085	57.17
312.299	77.65
312.513	14.17
312.727	61.27
312.941	24.4
313.154	100.18
313.368	30.55
313.582	57.17
313.796	42.84
314.009	61.27
314.223	91.99
314.437	65.36
314.651	-14.51
314.864	40.79
315.078	128.85
315.292	24.4
315.505	28.5
315.719	32.6
315.933	40.79
316.146	-14.51
316.36	32.6
316.573	40.79
316.787	120.66
317.001	81.75
317.214	16.21
317.428	28.5
317.641	24.4
317.855	24.4
318.068	118.61
318.282	61.27
318.495	71.51
318.709	102.23
318.922	30.55
319.136	89.94
319.349	65.36
319.563	-2.22
319.776	36.69
319.99	-28.84
320.203	69.46
320.417	46.93
320.63	71.51
320.843	139.09
321.057	79.7
321.27	5.97
321.483	71.51
321.697	77.65
321.91	61.27
322.124	59.22
322.337	34.64
322.55	18.26
322.763	-24.75
322.977	81.75
323.19	44.88
323.403	36.69
323.617	77.65
323.83	79.7
324.043	104.28
324.256	1.88
324.469	57.17
324.683	71.51
324.896	69.46
325.109	53.08
325.322	46.93
325.535	-22.7
325.748	48.98
325.962	14.17
326.175	16.21
326.388	61.27
326.601	16.21
326.814	-32.94
327.027	53.08
327.24	91.99
327.453	-24.75
327.666	65.36
327.879	96.08
328.092	94.04
328.305	106.32
328.518	79.7
328.731	67.41
328.944	-0.17
329.157	51.03
329.37	77.65
329.583	98.13
329.796	83.8
330.009	24.4
330.222	28.5
330.435	22.36
330.648	-8.36
330.861	42.84
331.073	75.6
331.286	34.64
331.499	61.27
331.712	73.56
331.925	30.55
332.138	-26.79
332.35	126.8
332.563	67.41
332.776	91.99
332.989	26.45
333.202	44.88
333.414	73.56
333.627	30.55
333.84	69.46
334.053	100.18
334.265	75.6
334.478	116.56
334.691	96.08
334.903	-18.6
335.116	36.69
335.329	135
335.541	61.27
335.754	120.66
335.966	-12.46
336.179	16.21
336.392	18.26
336.604	85.84
336.817	40.79
337.029	48.98
337.242	63.32
337.454	36.69
337.667	46.93
337.88	67.41
338.092	-16.55
338.305	-4.27
338.517	-28.84
338.729	94.04
338.942	67.41
339.154	-22.7
339.367	36.69
339.579	32.6
339.792	75.6
340.004	130.9
340.217	53.08
340.429	110.42
340.641	10.07
340.854	63.32
341.066	-2.22
341.278	153.43
341.491	77.65
341.703	65.36
341.915	-30.89
342.128	67.41
342.34	14.17
342.552	67.41
342.764	-8.36
342.977	28.5
343.189	81.75
343.401	55.12
343.613	-4.27
343.826	51.03
344.038	-4.27
344.25	98.13
344.462	42.84
344.674	44.88
344.886	73.56
345.099	53.08
345.311	-10.41
345.523	-24.75
345.735	-24.75
345.947	3.93
346.159	-2.22
346.371	26.45
346.583	-4.27
346.795	106.32
347.007	51.03
347.219	59.22
347.431	59.22
347.643	28.5
347.855	61.27
348.067	94.04
348.279	69.46
348.491	75.6
348.703	36.69
348.915	51.03
349.127	36.69
349.339	16.21
349.551	40.79
349.763	77.65
349.975	12.12
350.187	102.23
350.399	89.94
350.61	-49.32
350.822	16.21
351.034	38.74
351.246	48.98
351.458	77.65
351.669	106.32
351.881	67.41
352.093	73.56
352.305	-2.22
352.517	20.31
352.728	73.56
352.94	48.98
353.152	94.04
353.363	104.28
353.575	128.85
353.787	96.08
353.999	24.4
354.21	89.94
354.422	40.79
354.633	-20.65
354.845	30.55
355.057	34.64
355.268	94.04
355.48	77.65
355.692	16.21
355.903	-4.27
356.115	40.79
356.326	122.71
356.538	89.94
356.749	94.04
356.961	89.94
357.172	-39.08
357.384	36.69
357.595	38.74
357.807	57.17
358.018	1.88
358.23	53.08
358.441	55.12
358.653	53.08
358.864	34.64
359.075	30.55
359.287	44.88
359.498	69.46
359.709	34.64
359.921	-0.17
360.132	77.65
360.344	-10.41
360.555	46.93
360.766	63.32
360.977	44.88
361.189	75.6
361.4	40.79
361.611	48.98
361.823	-26.79
362.034	98.13
362.245	48.98
362.456	51.03
362.667	44.88
362.879	14.17
363.09	18.26
363.301	63.32
363.512	32.6
363.723	98.13
363.935	51.03
364.146	18.26
364.357	89.94
364.568	22.36
364.779	77.65
364.99	98.13
365.201	46.93
365.412	46.93
365.623	120.66
365.834	71.51
366.045	24.4
366.256	87.89
366.467	46.93
366.678	10.07
366.889	73.56
367.1	65.36
367.311	32.6
367.522	30.55
367.733	100.18
367.944	53.08
368.155	61.27
368.366	130.9
368.577	28.5
368.788	75.6
368.999	26.45
369.209	24.4
369.42	124.76
369.631	34.64
369.842	46.93
370.053	32.6
370.264	98.13
370.474	51.03
370.685	69.46
370.896	-0.17
371.107	110.42
371.317	69.46
371.528	51.03
371.739	42.84
371.95	65.36
372.16	46.93
372.371	75.6
372.582	73.56
372.792	28.5
373.003	73.56
373.214	135
373.424	55.12
373.635	61.27
373.846	167.76
374.056	14.17
374.267	77.65
374.477	83.8
374.688	110.42
374.898	71.51
375.109	40.79
375.319	61.27
375.53	32.6
375.74	28.5
375.951	26.45
376.161	61.27
376.372	145.24
376.582	34.64
376.793	67.41
377.003	34.64
377.214	-28.84
377.424	46.93
377.635	42.84
377.845	12.12
378.055	98.13
378.266	69.46
378.476	89.94
378.686	96.08
378.897	24.4
379.107	89.94
379.317	153.43
379.528	55.12
379.738	69.46
379.948	135
380.158	34.64
380.369	75.6
380.579	51.03
380.789	36.69
380.999	61.27
381.21	110.42
381.42	120.66
381.63	51.03
381.84	102.23
382.05	73.56
382.261	51.03
382.471	96.08
382.681	34.64
382.891	61.27
383.101	143.19
383.311	110.42
383.521	61.27
383.731	120.66
383.941	53.08
384.151	53.08
384.361	186.19
384.571	69.46
384.781	106.32
384.991	143.19
385.201	130.9
385.411	32.6
385.621	83.8
385.831	59.22
386.041	87.89
386.251	98.13
386.461	98.13
386.671	40.79
386.881	59.22
387.091	-6.31
387.301	91.99
387.511	155.47
387.72	61.27
387.93	1.88
388.14	48.98
388.35	65.36
388.56	139.09
388.769	85.84
388.979	75.6
389.189	77.65
389.399	46.93
389.609	75.6
389.818	85.84
390.028	112.47
390.238	83.8
390.447	59.22
390.657	110.42
390.867	106.32
391.076	18.26
391.286	126.8
391.496	55.12
391.705	116.56
391.915	108.37
392.125	94.04
392.334	20.31
392.544	81.75
392.753	114.52
392.963	69.46
393.172	114.52
393.382	77.65
393.591	87.89
393.801	106.32
394.01	139.09
394.22	46.93
394.429	-8.36
394.639	163.67
394.848	81.75
395.058	65.36
395.267	81.75
395.477	65.36
395.686	96.08
395.895	165.71
396.105	139.09
396.314	61.27
396.524	69.46
396.733	-12.46
396.942	178
397.152	83.8
397.361	91.99
397.57	155.47
397.78	98.13
397.989	155.47
398.198	108.37
398.407	65.36
398.617	96.08
398.826	98.13
399.035	147.28
399.244	165.71
399.453	180.05
399.663	182.1
399.872	173.91
400.081	116.56
400.29	110.42
400.499	77.65
400.708	38.74
400.917	91.99
401.127	163.67
401.336	81.75
401.545	163.67
401.754	200.53
401.963	139.09
402.172	175.95
402.381	85.84
402.59	73.56
402.799	89.94
403.008	147.28
403.217	116.56
403.426	135
403.635	106.32
403.844	120.66
404.053	221.01
404.262	159.57
404.471	221.01
404.68	163.67
404.888	161.62
405.097	167.76
405.306	143.19
405.515	190.29
405.724	196.43
405.933	192.34
406.142	245.59
406.35	266.07
406.559	153.43
406.768	235.35
406.977	202.58
407.185	225.11
407.394	216.91
407.603	159.57
407.812	221.01
408.02	227.15
408.229	210.77
408.438	266.07
408.646	276.31
408.855	259.92
409.064	241.49
409.272	335.7
409.481	378.7
409.69	298.83
409.898	307.02
410.107	388.94
410.315	360.27
410.524	335.7
410.733	464.72
410.941	372.56
411.15	425.81
411.358	450.38
411.567	474.96
411.775	456.53
411.984	372.56
412.192	440.14
412.401	515.92
412.609	515.92
412.818	530.25
413.026	552.78
413.234	499.53
413.443	585.55
413.651	655.18
413.86	585.55
414.068	651.08
414.276	683.85
414.485	642.89
414.693	747.34
414.901	714.57
415.11	821.06
415.318	769.87
415.526	786.25
415.734	819.02
415.943	859.98
416.151	851.78
416.359	972.61
416.567	929.61
416.776	1029.96
416.984	1126.21
417.192	1120.07
417.4	1085.25
417.608	1099.59
417.817	1179.46
418.025	1249.09
418.233	1378.11
418.441	1288
418.649	1316.67
418.857	1378.11
419.065	1494.85
419.273	1441.6
419.481	1568.57
419.689	1541.95
419.897	1640.25
420.105	1625.92
420.313	1812.28
420.521	1828.67
420.729	1795.9
420.937	1896.25
421.145	1967.93
421.353	2010.93
421.561	2328.37
421.769	2182.96
421.977	2309.94
422.185	2203.44
422.393	2400.05
422.601	2602.8
422.809	2422.58
423.017	2410.29
423.224	2629.42
423.432	2719.53
423.64	2756.4
423.848	2938.66
424.056	2932.52
424.263	3102.5
424.471	3190.56
424.679	3116.84
424.887	3374.88
425.094	3401.51
425.302	3684.13
425.51	3684.13
425.718	3809.05
425.925	3843.87
426.133	3987.22
426.341	4183.83
426.548	4183.83
426.756	4335.38
426.964	4282.13
427.171	4691.73
427.379	4712.21
427.586	4855.56
427.794	4927.24
428.001	5197.57
428.209	5431.04
428.417	5381.89
428.624	5793.53
428.832	5730.05
429.039	5627.65
429.247	5539.58
429.454	6266.61
429.662	6528.75
429.869	6125.3
430.076	6594.29
430.284	6291.19
430.491	6805.23
430.699	7075.56
430.906	7098.09
431.114	7261.93
431.321	7411.43
431.528	7630.56
431.736	7954.14
431.943	8328.92
432.15	8105.69
432.358	8306.39
432.565	8687.31
432.772	8746.7
432.979	9187.02
433.187	9248.46
433.394	9709.25
433.601	10045.12
433.808	9952.96
434.016	10014.4
434.223	10444.47
434.43	10899.12
434.637	10735.28
434.844	11478.69
435.052	11507.37
435.259	11552.42
435.466	11538.09
435.673	11632.29
435.88	12498.58
436.087	12838.55
436.294	13117.07
436.501	12603.03
436.708	13059.73
436.915	13360.78
437.122	13966.98
437.329	13913.73
437.537	14425.72
437.743	14638.71
437.95	14583.41
438.157	15373.93
438.364	15877.73
438.571	15816.29
438.778	15957.6
438.985	17325.64
439.192	16662.1
439.399	17108.56
439.606	16561.75
439.813	17757.77
440.02	18953.78
440.227	18124.35
440.433	18249.28
440.64	18873.91
440.847	18767.41
441.054	19283.5
441.261	20508.19
441.467	20235.81
441.674	20755.99
441.881	21368.34
442.088	21022.23
442.294	20993.56
442.501	21650.95
442.708	21757.45
442.914	23016.95
443.121	24085.99
443.328	23309.81
443.534	24866.27
443.741	23741.93
443.948	23690.73
444.154	25636.3
444.361	25351.63
444.568	25505.23
444.774	25642.45
444.981	25841.1
445.187	26688.96
445.394	27688.37
445.6	27139.51
445.807	30023.05
446.013	28511.65
446.22	29021.59
446.426	30393.73
446.633	30174.6
446.839	31774.06
447.046	30238.09
447.252	31901.04
447.459	31862.13
447.665	31624.56
447.871	33256.79
448.078	34288.97
448.284	32322.92
448.491	33645.91
448.697	34809.15
448.903	35423.54
449.11	35609.91
449.316	35009.86
449.522	35579.19
449.728	36660.52
449.935	36922.66
450.141	36877.6
450.347	37348.64
450.553	36513.06
450.76	36875.55
450.966	37762.33
451.172	37455.13
451.378	38362.38
451.584	37688.6
451.791	38442.25
451.997	38544.65
452.203	38882.56
452.409	38882.56
452.615	38653.19
452.821	37225.76
453.027	37012.77
453.233	38630.66
453.44	37195.04
453.646	37844.24
453.852	37969.17
454.058	37901.59
454.264	37160.22
454.47	37602.58
454.676	36963.62
454.882	38366.48
455.088	34442.57
455.294	35374.39
455.5	35702.07
455.705	36298.03
455.911	34635.08
456.117	33563.99
456.323	33920.34
456.529	31917.42
456.735	33215.83
456.941	32068.97
457.147	31882.61
457.352	31016.32
457.558	30307.72
457.764	30590.34
457.97	29799.82
458.176	29408.66
458.381	29117.85
458.587	27866.54
458.793	27895.21
458.999	26572.22
459.204	28317.09
459.41	27426.23
459.616	25904.59
459.821	25591.25
460.027	25615.82
460.233	24966.62
460.438	23743.98
460.644	24147.43
460.85	22685.18
461.055	22834.68
461.261	22539.77
461.466	20608.54
461.672	20346.4
461.878	21902.86
462.083	20493.85
462.289	19844.65
462.494	19566.12
462.7	18925.11
462.905	18316.86
463.111	19029.55
463.316	19113.52
463.522	18820.66
463.727	18732.6
463.932	18503.23
464.138	18523.71
464.343	18611.77
464.549	17946.18
464.754	18865.72
464.959	18613.82
465.165	18601.53
465.37	17800.77
465.575	16940.63
465.781	17747.53
465.986	17874.5
466.191	17245.77
466.397	16852.56
466.602	16094.82
466.807	16723.54
467.012	16848.47
467.218	16571.99
467.423	16447.07
