Data from USB4F104151__234__10-30-26-543.txt Node

Date: Wed Mar 12 10:30:26 EDT 2025
User: louis
Spectrometer: USB4F10415
Trigger mode: 4
Integration Time (sec): 3.000000E-2
Scans to average: 1
Electric dark correction enabled: true
Nonlinearity correction enabled: false
Boxcar width: 0
XAxis mode: Wavelengths
Number of Pixels in Spectrum: 3648
>>>>>Begin Spectral Data<<<<<
178.204	-92.33
178.424	-92.33
178.644	-92.33
178.864	-174.25
179.084	-67.75
179.304	-22.7
179.524	26.45
179.744	71.51
179.964	-2.22
180.184	-104.62
180.404	8.02
180.624	51.03
180.844	-39.08
181.064	-26.79
181.283	-24.75
181.503	34.64
181.723	28.5
181.943	-30.89
182.163	61.27
182.383	-51.37
182.602	79.7
182.822	30.55
183.042	8.02
183.262	12.12
183.482	8.02
183.701	-16.55
183.921	-32.94
184.141	-18.6
184.361	22.36
184.58	38.74
184.8	-12.46
185.02	26.45
185.239	36.69
185.459	55.12
185.679	48.98
185.898	-0.17
186.118	91.99
186.338	10.07
186.557	83.8
186.777	-22.7
186.997	5.97
187.216	-39.08
187.436	44.88
187.655	46.93
187.875	110.42
188.095	-51.37
188.314	1.88
188.534	79.7
188.753	32.6
188.973	38.74
189.192	26.45
189.412	18.26
189.631	69.46
189.851	16.21
190.07	63.32
190.29	55.12
190.509	5.97
190.729	16.21
190.948	120.66
191.168	190.29
191.387	65.36
191.607	-12.46
191.826	26.45
192.045	34.64
192.265	38.74
192.484	-57.51
192.704	1.88
192.923	-30.89
193.142	63.32
193.362	102.23
193.581	63.32
193.8	98.13
194.02	65.36
194.239	38.74
194.458	48.98
194.678	14.17
194.897	-61.61
195.116	-90.28
195.335	-24.75
195.555	30.55
195.774	75.6
195.993	22.36
196.212	124.76
196.432	34.64
196.651	-14.51
196.87	-0.17
197.089	100.18
197.308	-37.03
197.528	48.98
197.747	-8.36
197.966	40.79
198.185	1.88
198.404	-0.17
198.623	40.79
198.842	61.27
199.062	26.45
199.281	145.24
199.5	24.4
199.719	-6.31
199.938	48.98
200.157	24.4
200.376	-18.6
200.595	44.88
200.814	-0.17
201.033	20.31
201.252	-20.65
201.471	81.75
201.69	-8.36
201.909	8.02
202.128	77.65
202.347	67.41
202.566	1.88
202.785	14.17
203.004	40.79
203.223	42.84
203.442	-30.89
203.661	-49.32
203.879	18.26
204.098	-28.84
204.317	5.97
204.536	34.64
204.755	63.32
204.974	26.45
205.193	-2.22
205.411	124.76
205.63	14.17
205.849	26.45
206.068	-0.17
206.287	24.4
206.505	18.26
206.724	-65.71
206.943	-8.36
207.162	44.88
207.381	51.03
207.599	26.45
207.818	-0.17
208.037	16.21
208.255	8.02
208.474	-8.36
208.693	26.45
208.911	-37.03
209.13	26.45
209.349	87.89
209.567	-6.31
209.786	91.99
210.005	57.17
210.223	-26.79
210.442	-28.84
210.661	32.6
210.879	87.89
211.098	26.45
211.316	81.75
211.535	51.03
211.753	30.55
211.972	-10.41
212.191	-2.22
212.409	-14.51
212.628	48.98
212.846	-39.08
213.065	63.32
213.283	55.12
213.502	79.7
213.72	-55.47
213.938	69.46
214.157	8.02
214.375	16.21
214.594	1.88
214.812	48.98
215.031	5.97
215.249	-0.17
215.467	53.08
215.686	8.02
215.904	26.45
216.122	46.93
216.341	46.93
216.559	63.32
216.778	22.36
216.996	63.32
217.214	28.5
217.432	-2.22
217.651	-28.84
217.869	-2.22
218.087	53.08
218.306	48.98
218.524	55.12
218.742	-53.42
218.96	55.12
219.179	-20.65
219.397	98.13
219.615	24.4
219.833	-67.75
220.051	-32.94
220.27	102.23
220.488	14.17
220.706	32.6
220.924	10.07
221.142	-10.41
221.36	73.56
221.578	1.88
221.796	46.93
222.015	65.36
222.233	-8.36
222.451	124.76
222.669	3.93
222.887	57.17
223.105	5.97
223.323	-4.27
223.541	-2.22
223.759	-24.75
223.977	-18.6
224.195	38.74
224.413	12.12
224.631	36.69
224.849	14.17
225.067	108.37
225.285	-8.36
225.503	42.84
225.721	20.31
225.939	3.93
226.157	-32.94
226.375	59.22
226.592	-8.36
226.81	18.26
227.028	36.69
227.246	116.56
227.464	42.84
227.682	-14.51
227.9	75.6
228.117	116.56
228.335	16.21
228.553	20.31
228.771	63.32
228.989	89.94
229.206	-39.08
229.424	42.84
229.642	-0.17
229.86	20.31
230.077	5.97
230.295	-18.6
230.513	-0.17
230.731	38.74
230.948	32.6
231.166	67.41
231.384	85.84
231.601	24.4
231.819	10.07
232.037	-34.99
232.254	5.97
232.472	-14.51
232.689	-0.17
232.907	61.27
233.125	65.36
233.342	46.93
233.56	5.97
233.777	-14.51
233.995	63.32
234.213	108.37
234.43	112.47
234.648	-8.36
234.865	130.9
235.083	1.88
235.3	-75.95
235.518	69.46
235.735	28.5
235.953	-8.36
236.17	63.32
236.388	46.93
236.605	-12.46
236.822	32.6
237.04	53.08
237.257	44.88
237.475	14.17
237.692	40.79
237.909	1.88
238.127	-14.51
238.344	-0.17
238.562	44.88
238.779	18.26
238.996	-77.99
239.214	59.22
239.431	10.07
239.648	57.17
239.865	59.22
240.083	61.27
240.3	-12.46
240.517	61.27
240.735	38.74
240.952	65.36
241.169	-49.32
241.386	46.93
241.603	48.98
241.821	-37.03
242.038	24.4
242.255	42.84
242.472	63.32
242.689	16.21
242.907	32.6
243.124	14.17
243.341	1.88
243.558	30.55
243.775	24.4
243.992	-0.17
244.209	1.88
244.426	85.84
244.643	30.55
244.86	-12.46
245.078	20.31
245.295	122.71
245.512	69.46
245.729	-10.41
245.946	124.76
246.163	30.55
246.38	-43.18
246.597	57.17
246.814	128.85
247.031	79.7
247.248	55.12
247.464	36.69
247.681	42.84
247.898	59.22
248.115	83.8
248.332	30.55
248.549	20.31
248.766	12.12
248.983	44.88
249.2	26.45
249.417	96.08
249.633	-4.27
249.85	153.43
250.067	38.74
250.284	22.36
250.501	32.6
250.717	126.8
250.934	-22.7
251.151	3.93
251.368	32.6
251.585	67.41
251.801	118.61
252.018	-37.03
252.235	44.88
252.451	32.6
252.668	3.93
252.885	-14.51
253.102	28.5
253.318	65.36
253.535	26.45
253.752	59.22
253.968	42.84
254.185	32.6
254.401	44.88
254.618	-26.79
254.835	14.17
255.051	16.21
255.268	46.93
255.484	75.6
255.701	36.69
255.917	-26.79
256.134	10.07
256.351	59.22
256.567	-26.79
256.784	-24.75
257	-55.47
257.217	75.6
257.433	40.79
257.65	-32.94
257.866	24.4
258.082	-14.51
258.299	-43.18
258.515	51.03
258.732	-34.99
258.948	-12.46
259.165	-2.22
259.381	1.88
259.597	91.99
259.814	-14.51
260.03	91.99
260.246	55.12
260.463	87.89
260.679	38.74
260.895	36.69
261.112	59.22
261.328	18.26
261.544	-14.51
261.761	73.56
261.977	16.21
262.193	-88.23
262.409	61.27
262.626	48.98
262.842	57.17
263.058	24.4
263.274	61.27
263.49	79.7
263.707	38.74
263.923	-32.94
264.139	5.97
264.355	59.22
264.571	71.51
264.787	-6.31
265.004	48.98
265.22	-18.6
265.436	-6.31
265.652	57.17
265.868	10.07
266.084	8.02
266.3	46.93
266.516	8.02
266.732	94.04
266.948	83.8
267.164	-41.13
267.38	-34.99
267.596	53.08
267.812	75.6
268.028	65.36
268.244	69.46
268.46	-0.17
268.676	55.12
268.892	55.12
269.108	51.03
269.324	36.69
269.54	-24.75
269.756	-0.17
269.972	20.31
270.188	24.4
270.403	10.07
270.619	65.36
270.835	100.18
271.051	-20.65
271.267	42.84
271.483	53.08
271.698	55.12
271.914	104.28
272.13	91.99
272.346	1.88
272.562	24.4
272.777	48.98
272.993	34.64
273.209	40.79
273.425	28.5
273.64	1.88
273.856	14.17
274.072	-28.84
274.287	10.07
274.503	67.41
274.719	61.27
274.934	53.08
275.15	36.69
275.366	55.12
275.581	16.21
275.797	34.64
276.012	46.93
276.228	10.07
276.444	-14.51
276.659	51.03
276.875	14.17
277.09	-6.31
277.306	34.64
277.521	48.98
277.737	-24.75
277.952	-43.18
278.168	-6.31
278.383	67.41
278.599	36.69
278.814	75.6
279.03	16.21
279.245	69.46
279.461	3.93
279.676	46.93
279.892	-32.94
280.107	32.6
280.322	-14.51
280.538	-0.17
280.753	20.31
280.969	10.07
281.184	18.26
281.399	61.27
281.615	67.41
281.83	42.84
282.045	-10.41
282.26	-45.23
282.476	16.21
282.691	10.07
282.906	36.69
283.122	57.17
283.337	63.32
283.552	57.17
283.767	46.93
283.983	30.55
284.198	24.4
284.413	69.46
284.628	-2.22
284.843	94.04
285.058	44.88
285.274	53.08
285.489	-0.17
285.704	65.36
285.919	-2.22
286.134	53.08
286.349	8.02
286.564	22.36
286.779	18.26
286.995	3.93
287.21	8.02
287.425	18.26
287.64	-6.31
287.855	-34.99
288.07	-6.31
288.285	16.21
288.5	5.97
288.715	-22.7
288.93	36.69
289.145	-2.22
289.36	59.22
289.575	-2.22
289.79	106.32
290.004	-18.6
290.219	8.02
290.434	10.07
290.649	91.99
290.864	32.6
291.079	34.64
291.294	-43.18
291.509	26.45
291.724	63.32
291.938	-39.08
292.153	-37.03
292.368	48.98
292.583	53.08
292.798	38.74
293.012	5.97
293.227	118.61
293.442	-30.89
293.657	-0.17
293.871	59.22
294.086	5.97
294.301	73.56
294.516	8.02
294.73	44.88
294.945	34.64
295.16	59.22
295.374	96.08
295.589	79.7
295.804	8.02
296.018	63.32
296.233	36.69
296.447	46.93
296.662	71.51
296.877	79.7
297.091	-10.41
297.306	-0.17
297.52	42.84
297.735	85.84
297.949	-2.22
298.164	51.03
298.378	116.56
298.593	-20.65
298.807	22.36
299.022	96.08
299.236	42.84
299.451	71.51
299.665	98.13
299.88	8.02
300.094	8.02
300.309	-12.46
300.523	-24.75
300.737	5.97
300.952	59.22
301.166	79.7
301.381	-75.95
301.595	-8.36
301.809	3.93
302.024	77.65
302.238	22.36
302.452	106.32
302.667	26.45
302.881	91.99
303.095	79.7
303.309	91.99
303.524	65.36
303.738	77.65
303.952	-2.22
304.166	63.32
304.381	30.55
304.595	53.08
304.809	-34.99
305.023	48.98
305.237	-0.17
305.452	26.45
305.666	3.93
305.88	122.71
306.094	59.22
306.308	22.36
306.522	8.02
306.736	22.36
306.95	20.31
307.164	10.07
307.379	-20.65
307.593	73.56
307.807	16.21
308.021	79.7
308.235	28.5
308.449	-0.17
308.663	59.22
308.877	89.94
309.091	98.13
309.305	-26.79
309.519	-2.22
309.733	10.07
309.947	83.8
310.161	12.12
310.374	42.84
310.588	79.7
310.802	-18.6
311.016	-4.27
311.23	53.08
311.444	59.22
311.658	89.94
311.872	83.8
312.085	67.41
312.299	132.95
312.513	81.75
312.727	16.21
312.941	26.45
313.154	51.03
313.368	55.12
313.582	67.41
313.796	51.03
314.009	-24.75
314.223	24.4
314.437	71.51
314.651	42.84
314.864	20.31
315.078	30.55
315.292	-71.85
315.505	-4.27
315.719	65.36
315.933	-16.55
316.146	53.08
316.36	112.47
316.573	16.21
316.787	14.17
317.001	83.8
317.214	-8.36
317.428	46.93
317.641	10.07
317.855	20.31
318.068	-4.27
318.282	-147.62
318.495	8.02
318.709	38.74
318.922	61.27
319.136	46.93
319.349	91.99
319.563	69.46
319.776	34.64
319.99	59.22
320.203	-39.08
320.417	63.32
320.63	34.64
320.843	83.8
321.057	-34.99
321.27	63.32
321.483	65.36
321.697	104.28
321.91	-0.17
322.124	67.41
322.337	-0.17
322.55	83.8
322.763	34.64
322.977	-14.51
323.19	53.08
323.403	53.08
323.617	83.8
323.83	100.18
324.043	-0.17
324.256	55.12
324.469	10.07
324.683	102.23
324.896	-26.79
325.109	51.03
325.322	51.03
325.535	5.97
325.748	14.17
325.962	-6.31
326.175	57.17
326.388	40.79
326.601	34.64
326.814	59.22
327.027	89.94
327.24	22.36
327.453	51.03
327.666	-14.51
327.879	42.84
328.092	81.75
328.305	61.27
328.518	34.64
328.731	42.84
328.944	26.45
329.157	34.64
329.37	34.64
329.583	22.36
329.796	69.46
330.009	3.93
330.222	44.88
330.435	26.45
330.648	12.12
330.861	-37.03
331.073	28.5
331.286	1.88
331.499	75.6
331.712	44.88
331.925	67.41
332.138	30.55
332.35	79.7
332.563	14.17
332.776	26.45
332.989	61.27
333.202	73.56
333.414	-57.51
333.627	22.36
333.84	18.26
334.053	46.93
334.265	51.03
334.478	-10.41
334.691	24.4
334.903	14.17
335.116	-41.13
335.329	-22.7
335.541	38.74
335.754	42.84
335.966	24.4
336.179	3.93
336.392	77.65
336.604	-8.36
336.817	89.94
337.029	106.32
337.242	63.32
337.454	-12.46
337.667	-43.18
337.88	89.94
338.092	94.04
338.305	32.6
338.517	61.27
338.729	51.03
338.942	81.75
339.154	55.12
339.367	-18.6
339.579	1.88
339.792	38.74
340.004	-12.46
340.217	-30.89
340.429	63.32
340.641	40.79
340.854	22.36
341.066	30.55
341.278	53.08
341.491	87.89
341.703	42.84
341.915	14.17
342.128	63.32
342.34	44.88
342.552	73.56
342.764	24.4
342.977	85.84
343.189	38.74
343.401	-4.27
343.613	28.5
343.826	-0.17
344.038	-39.08
344.25	3.93
344.462	-10.41
344.674	91.99
344.886	18.26
345.099	69.46
345.311	65.36
345.523	44.88
345.735	-47.27
345.947	1.88
346.159	-18.6
346.371	63.32
346.583	-30.89
346.795	135
347.007	-18.6
347.219	53.08
347.431	34.64
347.643	51.03
347.855	-8.36
348.067	91.99
348.279	-8.36
348.491	32.6
348.703	53.08
348.915	24.4
349.127	59.22
349.339	24.4
349.551	63.32
349.763	81.75
349.975	32.6
350.187	87.89
350.399	22.36
350.61	3.93
350.822	83.8
351.034	-4.27
351.246	57.17
351.458	-0.17
351.669	51.03
351.881	34.64
352.093	98.13
352.305	79.7
352.517	1.88
352.728	61.27
352.94	61.27
353.152	63.32
353.363	32.6
353.575	106.32
353.787	5.97
353.999	100.18
354.21	128.85
354.422	-43.18
354.633	94.04
354.845	83.8
355.057	106.32
355.268	75.6
355.48	73.56
355.692	65.36
355.903	-18.6
356.115	34.64
356.326	-22.7
356.538	104.28
356.749	87.89
356.961	75.6
357.172	73.56
357.384	89.94
357.595	-10.41
357.807	12.12
358.018	18.26
358.23	22.36
358.441	34.64
358.653	34.64
358.864	-2.22
359.075	73.56
359.287	24.4
359.498	42.84
359.709	83.8
359.921	38.74
360.132	10.07
360.344	-16.55
360.555	28.5
360.766	26.45
360.977	85.84
361.189	73.56
361.4	36.69
361.611	71.51
361.823	3.93
362.034	22.36
362.245	94.04
362.456	-14.51
362.667	77.65
362.879	59.22
363.09	57.17
363.301	12.12
363.512	75.6
363.723	55.12
363.935	10.07
364.146	91.99
364.357	65.36
364.568	32.6
364.779	-4.27
364.99	77.65
365.201	38.74
365.412	65.36
365.623	20.31
365.834	46.93
366.045	-4.27
366.256	77.65
366.467	63.32
366.678	94.04
366.889	18.26
367.1	65.36
367.311	5.97
367.522	-12.46
367.733	55.12
367.944	81.75
368.155	8.02
368.366	73.56
368.577	59.22
368.788	116.56
368.999	1.88
369.209	63.32
369.42	135
369.631	137.04
369.842	55.12
370.053	40.79
370.264	81.75
370.474	8.02
370.685	69.46
370.896	8.02
371.107	89.94
371.317	1.88
371.528	48.98
371.739	46.93
371.95	30.55
372.16	104.28
372.371	28.5
372.582	34.64
372.792	53.08
373.003	81.75
373.214	3.93
373.424	81.75
373.635	-71.85
373.846	81.75
374.056	36.69
374.267	44.88
374.477	30.55
374.688	32.6
374.898	65.36
375.109	81.75
375.319	73.56
375.53	87.89
375.74	83.8
375.951	-8.36
376.161	24.4
376.372	100.18
376.582	-28.84
376.793	108.37
377.003	51.03
377.214	46.93
377.424	67.41
377.635	112.47
377.845	55.12
378.055	53.08
378.266	48.98
378.476	124.76
378.686	89.94
378.897	77.65
379.107	10.07
379.317	40.79
379.528	5.97
379.738	53.08
379.948	61.27
380.158	5.97
380.369	73.56
380.579	81.75
380.789	77.65
380.999	108.37
381.21	108.37
381.42	63.32
381.63	73.56
381.84	67.41
382.05	1.88
382.261	81.75
382.471	81.75
382.681	26.45
382.891	75.6
383.101	44.88
383.311	16.21
383.521	22.36
383.731	65.36
383.941	48.98
384.151	71.51
384.361	79.7
384.571	38.74
384.781	55.12
384.991	126.8
385.201	91.99
385.411	85.84
385.621	55.12
385.831	42.84
386.041	1.88
386.251	18.26
386.461	175.95
386.671	18.26
386.881	106.32
387.091	116.56
387.301	98.13
387.511	38.74
387.72	120.66
387.93	20.31
388.14	26.45
388.35	34.64
388.56	26.45
388.769	114.52
388.979	59.22
389.189	42.84
389.399	122.71
389.609	106.32
389.818	128.85
390.028	28.5
390.238	79.7
390.447	34.64
390.657	83.8
390.867	48.98
391.076	36.69
391.286	26.45
391.496	53.08
391.705	81.75
391.915	89.94
392.125	46.93
392.334	65.36
392.544	100.18
392.753	73.56
392.963	100.18
393.172	126.8
393.382	26.45
393.591	71.51
393.801	42.84
394.01	83.8
394.22	83.8
394.429	75.6
394.639	55.12
394.848	110.42
395.058	65.36
395.267	81.75
395.477	137.04
395.686	130.9
395.895	157.52
396.105	122.71
396.314	81.75
396.524	118.61
396.733	96.08
396.942	108.37
397.152	106.32
397.361	147.28
397.57	128.85
397.78	55.12
397.989	102.23
398.198	108.37
398.407	75.6
398.617	173.91
398.826	96.08
399.035	100.18
399.244	98.13
399.453	157.52
399.663	145.24
399.872	124.76
400.081	18.26
400.29	83.8
400.499	108.37
400.708	157.52
400.917	98.13
401.127	192.34
401.336	75.6
401.545	139.09
401.754	157.52
401.963	141.14
402.172	71.51
402.381	114.52
402.59	178
402.799	165.71
403.008	210.77
403.217	67.41
403.426	155.47
403.635	89.94
403.844	157.52
404.053	184.15
404.262	122.71
404.471	169.81
404.68	137.04
404.888	208.72
405.097	165.71
405.306	110.42
405.515	89.94
405.724	141.14
405.933	192.34
406.142	184.15
406.35	186.19
406.559	184.15
406.768	268.11
406.977	243.54
407.185	253.78
407.394	272.21
407.603	186.19
407.812	243.54
408.02	331.6
408.229	261.97
408.438	298.83
408.646	282.45
408.855	307.02
409.064	366.42
409.272	307.02
409.481	304.98
409.69	345.94
409.898	329.55
410.107	372.56
410.315	382.8
410.524	403.28
410.733	448.33
410.941	378.7
411.15	329.55
411.358	366.42
411.567	454.48
411.775	386.9
411.984	534.35
412.192	468.81
412.401	485.2
412.609	593.74
412.818	536.4
413.026	589.64
413.234	524.11
413.443	649.04
413.651	546.64
413.86	567.12
414.068	653.13
414.276	765.77
414.485	683.85
414.693	675.66
414.901	796.49
415.11	730.95
415.318	835.4
415.526	786.25
415.734	778.06
415.943	943.94
416.151	968.52
416.359	788.3
416.567	937.8
416.776	1023.81
416.984	1165.12
417.192	1072.96
417.4	1124.16
417.608	1103.68
417.817	1091.4
418.025	1206.08
418.233	1384.26
418.441	1251.14
418.649	1288
418.857	1472.32
419.065	1478.46
419.273	1328.96
419.481	1396.54
419.689	1513.28
419.897	1636.16
420.105	1754.94
420.313	1693.5
420.521	1763.13
420.729	1744.7
420.937	1828.67
421.145	1877.82
421.353	2004.79
421.561	2230.07
421.769	2197.3
421.977	2232.12
422.185	2275.12
422.393	2395.95
422.601	2543.41
422.809	2508.59
423.017	2467.63
423.224	2572.08
423.432	2697
423.64	2713.39
423.848	2989.86
424.056	2940.71
424.263	3155.75
424.471	3139.37
424.679	3045.16
424.887	3383.07
425.094	3469.09
425.302	3487.52
425.51	3651.36
425.718	3804.96
425.925	3690.27
426.133	4034.33
426.341	4257.56
426.548	4364.05
426.756	4409.11
426.964	4431.63
427.171	4636.43
427.379	4749.07
427.586	4706.06
427.794	4878.09
428.001	5203.72
428.209	5572.35
428.417	5385.99
428.624	5668.61
428.832	5791.48
429.039	5512.96
429.247	5668.61
429.454	6192.89
429.662	6733.55
429.869	6244.09
430.076	6893.29
430.284	6358.77
430.491	6792.94
430.699	6954.73
430.906	7157.48
431.114	7378.66
431.321	7380.71
431.528	7519.97
431.736	8150.74
431.943	8324.82
432.15	8367.83
432.358	8337.11
432.565	8847.05
432.772	8517.33
432.979	9227.98
433.187	9348.81
433.394	9299.66
433.601	10073.79
433.808	10088.12
434.016	10028.73
434.223	10276.54
434.43	11093.68
434.637	10911.41
434.844	11212.46
435.052	11593.38
435.259	11726.5
435.466	11642.53
435.673	11667.11
435.88	12160.67
436.087	13131.4
436.294	12865.17
436.501	12869.26
436.708	13061.77
436.915	13409.93
437.122	14171.77
437.329	14069.37
437.537	14233.21
437.743	14659.19
437.95	14444.15
438.157	15335.02
438.364	15621.73
438.571	15595.11
438.778	15758.95
438.985	17292.88
439.192	16600.66
439.399	17153.62
439.606	16664.15
439.813	17716.81
440.02	18368.06
440.227	18380.35
440.433	18337.34
440.64	18984.5
440.847	18669.11
441.054	19166.77
441.261	20448.8
441.467	20088.35
441.674	20506.14
441.881	21286.42
442.088	21186.07
442.294	20991.51
442.501	21650.95
442.708	21966.34
442.914	22717.95
443.121	23604.72
443.328	23219.7
443.534	24770.01
443.741	24085.99
443.948	23631.34
444.154	25521.62
444.361	25288.15
444.568	25816.52
444.774	25361.87
444.981	25982.41
445.187	26885.56
445.394	27577.78
445.6	27415.99
445.807	29953.42
446.013	28913.05
446.22	29248.92
446.426	30166.41
446.633	30481.8
446.839	31257.98
447.046	30131.59
447.252	31892.85
447.459	31735.15
447.665	31686
447.871	33242.46
448.078	34528.58
448.284	32922.97
448.491	33738.07
448.697	34903.36
448.903	35392.83
449.11	35626.29
449.316	34594.12
449.522	35204.41
449.728	36738.34
449.935	36928.8
450.141	36574.5
450.347	37692.69
450.553	36302.12
450.76	36662.57
450.966	37494.04
451.172	37336.35
451.378	38577.42
451.584	37625.11
451.791	38530.31
451.997	38257.93
452.203	38984.96
452.409	38659.34
452.615	38292.75
452.821	37422.36
453.027	36701.48
453.233	38712.58
453.44	36857.12
453.646	37799.19
453.852	37637.4
454.058	38081.81
454.264	36871.46
454.47	37897.49
454.676	36918.56
454.882	38276.37
455.088	34712.9
455.294	35374.39
455.5	35493.18
455.705	36068.65
455.911	34463.05
456.117	34008.4
456.323	33586.52
456.529	31855.98
456.735	33389.91
456.941	32105.84
457.147	31597.94
457.352	30875.01
457.558	30219.66
457.764	30365.06
457.97	29939.08
458.176	28882.33
458.381	29398.42
458.587	27475.38
458.793	27680.17
458.999	25961.93
459.204	27913.64
459.41	27612.59
459.616	25867.72
459.821	25470.42
460.027	25595.34
460.233	25099.73
460.438	23709.16
460.644	23903.72
460.85	22873.59
461.055	22754.81
461.261	22390.27
461.466	20858.39
461.672	20055.59
461.878	21976.58
462.083	20174.37
462.289	19914.28
462.494	19592.75
462.7	18939.44
462.905	18499.13
463.111	19023.41
463.316	19332.65
463.522	18777.65
463.727	18921.01
463.932	18441.79
464.138	18439.74
464.343	18495.04
464.549	18067.01
464.754	18622.01
464.959	18269.76
465.165	18204.22
465.37	17725
465.575	17200.72
465.781	17962.56
465.986	17673.8
466.191	17219.15
466.397	16957.01
466.602	16238.17
466.807	16895.57
467.012	16811.6
467.218	16709.21
467.423	16307.8
467.628	16506.46
