Data from USB4F104151__257__10-39-52-348.txt Node

Date: Wed Mar 12 10:39:52 EDT 2025
User: louis
Spectrometer: USB4F10415
Trigger mode: 4
Integration Time (sec): 3.000000E-2
Scans to average: 1
Electric dark correction enabled: true
Nonlinearity correction enabled: false
Boxcar width: 0
XAxis mode: Wavelengths
Number of Pixels in Spectrum: 3648
>>>>>Begin Spectral Data<<<<<
178.204	-76.8
178.424	-76.8
178.644	-76.8
178.864	-152.57
179.084	-125.95
179.304	-54.27
179.524	-1.02
179.744	44.03
179.964	31.74
180.184	46.08
180.404	76.8
180.624	-46.08
180.844	-48.13
181.064	-37.89
181.283	27.65
181.503	-84.99
181.723	46.08
181.943	-9.22
182.163	13.31
182.383	-62.46
182.602	78.85
182.822	123.9
183.042	17.41
183.262	-1.02
183.482	64.51
183.701	-27.65
183.921	-13.31
184.141	52.22
184.361	13.31
184.58	80.89
184.8	9.22
185.02	25.6
185.239	134.14
185.459	5.12
185.679	78.85
185.898	58.37
186.118	109.57
186.338	3.07
186.557	70.65
186.777	17.41
186.997	17.41
187.216	80.89
187.436	23.55
187.655	107.52
187.875	68.61
188.095	-17.41
188.314	128
188.534	9.22
188.753	48.13
188.973	89.09
189.192	84.99
189.412	76.8
189.631	27.65
189.851	-5.12
190.07	44.03
190.29	1.02
190.509	-41.98
190.729	39.94
190.948	134.14
191.168	224.25
191.387	39.94
191.607	68.61
191.826	68.61
192.045	-1.02
192.265	23.55
192.484	-17.41
192.704	82.94
192.923	-25.6
193.142	109.57
193.362	31.74
193.581	103.42
193.8	41.98
194.02	15.36
194.239	-13.31
194.458	35.84
194.678	-1.02
194.897	76.8
195.116	9.22
195.335	25.6
195.555	33.79
195.774	46.08
195.993	74.75
196.212	-9.22
196.432	23.55
196.651	68.61
196.87	27.65
197.089	93.18
197.308	37.89
197.528	31.74
197.747	66.56
197.966	41.98
198.185	95.23
198.404	58.37
198.623	56.32
198.842	33.79
199.062	15.36
199.281	74.75
199.5	13.31
199.719	37.89
199.938	91.13
200.157	107.52
200.376	76.8
200.595	37.89
200.814	19.46
201.033	93.18
201.252	62.46
201.471	-21.5
201.69	111.61
201.909	27.65
202.128	54.27
202.347	29.7
202.566	15.36
202.785	66.56
203.004	-9.22
203.223	105.47
203.442	84.99
203.661	13.31
203.879	-11.26
204.098	31.74
204.317	3.07
204.536	125.95
204.755	56.32
204.974	-7.17
205.193	76.8
205.411	99.33
205.63	80.89
205.849	89.09
206.068	68.61
206.287	27.65
206.505	58.37
206.724	7.17
206.943	33.79
207.162	11.26
207.381	15.36
207.599	-13.31
207.818	50.18
208.037	50.18
208.255	37.89
208.474	91.13
208.693	11.26
208.911	29.7
209.13	48.13
209.349	19.46
209.567	-29.7
209.786	95.23
210.005	-27.65
210.223	62.46
210.442	19.46
210.661	50.18
210.879	84.99
211.098	48.13
211.316	93.18
211.535	44.03
211.753	-21.5
211.972	60.42
212.191	50.18
212.409	25.6
212.628	93.18
212.846	21.5
213.065	41.98
213.283	82.94
213.502	72.7
213.72	-3.07
213.938	1.02
214.157	5.12
214.375	76.8
214.594	54.27
214.812	41.98
215.031	-33.79
215.249	39.94
215.467	1.02
215.686	117.76
215.904	11.26
216.122	64.51
216.341	68.61
216.559	35.84
216.778	35.84
216.996	1.02
217.214	19.46
217.432	27.65
217.651	64.51
217.869	74.75
218.087	-35.84
218.306	64.51
218.524	80.89
218.742	-39.94
218.96	128
219.179	68.61
219.397	-17.41
219.615	56.32
219.833	27.65
220.051	48.13
220.27	29.7
220.488	31.74
220.706	54.27
220.924	-9.22
221.142	56.32
221.36	37.89
221.578	-31.74
221.796	44.03
222.015	48.13
222.233	44.03
222.451	113.66
222.669	15.36
222.887	97.28
223.105	23.55
223.323	-17.41
223.541	37.89
223.759	35.84
223.977	72.7
224.195	33.79
224.413	117.76
224.631	80.89
224.849	25.6
225.067	107.52
225.285	-9.22
225.503	107.52
225.721	-58.37
225.939	93.18
226.157	76.8
226.375	128
226.592	62.46
226.81	66.56
227.028	78.85
227.246	62.46
227.464	-1.02
227.682	41.98
227.9	52.22
228.117	50.18
228.335	19.46
228.553	91.13
228.771	91.13
228.989	52.22
229.206	84.99
229.424	50.18
229.642	31.74
229.86	41.98
230.077	105.47
230.295	23.55
230.513	33.79
230.731	54.27
230.948	64.51
231.166	80.89
231.384	1.02
231.601	44.03
231.819	80.89
232.037	11.26
232.254	37.89
232.472	21.5
232.689	-9.22
232.907	64.51
233.125	56.32
233.342	25.6
233.56	3.07
233.777	27.65
233.995	35.84
234.213	48.13
234.43	93.18
234.648	52.22
234.865	31.74
235.083	68.61
235.3	9.22
235.518	78.85
235.735	21.5
235.953	44.03
236.17	17.41
236.388	-5.12
236.605	23.55
236.822	109.57
237.04	56.32
237.257	74.75
237.475	91.13
237.692	76.8
237.909	44.03
238.127	-25.6
238.344	48.13
238.562	66.56
238.779	-7.17
238.996	17.41
239.214	60.42
239.431	41.98
239.648	66.56
239.865	19.46
240.083	17.41
240.3	70.65
240.517	-13.31
240.735	52.22
240.952	48.13
241.169	99.33
241.386	56.32
241.603	66.56
241.821	58.37
242.038	25.6
242.255	25.6
242.472	117.76
242.689	56.32
242.907	68.61
243.124	41.98
243.341	62.46
243.558	23.55
243.775	41.98
243.992	44.03
244.209	115.71
244.426	64.51
244.643	1.02
244.86	58.37
245.078	37.89
245.295	89.09
245.512	39.94
245.729	-19.46
245.946	35.84
246.163	25.6
246.38	87.04
246.597	-1.02
246.814	33.79
247.031	58.37
247.248	56.32
247.464	93.18
247.681	95.23
247.898	15.36
248.115	50.18
248.332	52.22
248.549	138.24
248.766	66.56
248.983	35.84
249.2	-1.02
249.417	-7.17
249.633	-3.07
249.85	76.8
250.067	62.46
250.284	72.7
250.501	60.42
250.717	54.27
250.934	76.8
251.151	25.6
251.368	76.8
251.585	62.46
251.801	25.6
252.018	23.55
252.235	115.71
252.451	60.42
252.668	15.36
252.885	101.37
253.102	52.22
253.318	3.07
253.535	72.7
253.752	60.42
253.968	17.41
254.185	11.26
254.401	80.89
254.618	62.46
254.835	-39.94
255.051	91.13
255.268	64.51
255.484	95.23
255.701	41.98
255.917	78.85
256.134	1.02
256.351	64.51
256.567	35.84
256.784	60.42
257	17.41
257.217	52.22
257.433	62.46
257.65	25.6
257.866	37.89
258.082	21.5
258.299	54.27
258.515	27.65
258.732	17.41
258.948	-15.36
259.165	78.85
259.381	60.42
259.597	76.8
259.814	-25.6
260.03	25.6
260.246	-1.02
260.463	64.51
260.679	70.65
260.895	46.08
261.112	111.61
261.328	44.03
261.544	23.55
261.761	107.52
261.977	117.76
262.193	-27.65
262.409	27.65
262.626	56.32
262.842	19.46
263.058	23.55
263.274	123.9
263.49	56.32
263.707	35.84
263.923	113.66
264.139	-1.02
264.355	-1.02
264.571	44.03
264.787	39.94
265.004	39.94
265.22	-15.36
265.436	76.8
265.652	103.42
265.868	80.89
266.084	9.22
266.3	58.37
266.516	-17.41
266.732	80.89
266.948	60.42
267.164	39.94
267.38	76.8
267.596	107.52
267.812	183.29
268.028	-15.36
268.244	46.08
268.46	-25.6
268.676	37.89
268.892	7.17
269.108	58.37
269.324	78.85
269.54	-23.55
269.756	54.27
269.972	52.22
270.188	74.75
270.403	-15.36
270.619	144.38
270.835	68.61
271.051	56.32
271.267	54.27
271.483	89.09
271.698	107.52
271.914	109.57
272.13	29.7
272.346	29.7
272.562	35.84
272.777	93.18
272.993	25.6
273.209	-44.03
273.425	68.61
273.64	80.89
273.856	21.5
274.072	44.03
274.287	-15.36
274.503	60.42
274.719	7.17
274.934	17.41
275.15	33.79
275.366	60.42
275.581	103.42
275.797	60.42
276.012	3.07
276.228	44.03
276.444	87.04
276.659	111.61
276.875	-33.79
277.09	70.65
277.306	52.22
277.521	29.7
277.737	52.22
277.952	33.79
278.168	70.65
278.383	115.71
278.599	39.94
278.814	41.98
279.03	17.41
279.245	119.81
279.461	13.31
279.676	41.98
279.892	91.13
280.107	39.94
280.322	5.12
280.538	27.65
280.753	-3.07
280.969	48.13
281.184	99.33
281.399	87.04
281.615	19.46
281.83	117.76
282.045	-7.17
282.26	64.51
282.476	-29.7
282.691	46.08
282.906	97.28
283.122	-17.41
283.337	5.12
283.552	33.79
283.767	113.66
283.983	125.95
284.198	84.99
284.413	54.27
284.628	56.32
284.843	29.7
285.058	-1.02
285.274	23.55
285.489	-1.02
285.704	33.79
285.919	84.99
286.134	27.65
286.349	31.74
286.564	-3.07
286.779	103.42
286.995	54.27
287.21	23.55
287.425	68.61
287.64	66.56
287.855	117.76
288.07	-33.79
288.285	130.05
288.5	91.13
288.715	56.32
288.93	1.02
289.145	130.05
289.36	89.09
289.575	33.79
289.79	99.33
290.004	-7.17
290.219	21.5
290.434	95.23
290.649	-5.12
290.864	-29.7
291.079	-1.02
291.294	-3.07
291.509	142.33
291.724	27.65
291.938	78.85
292.153	58.37
292.368	64.51
292.583	109.57
292.798	39.94
293.012	97.28
293.227	-19.46
293.442	39.94
293.657	46.08
293.871	56.32
294.086	35.84
294.301	76.8
294.516	35.84
294.73	39.94
294.945	-62.46
295.16	105.47
295.374	56.32
295.589	52.22
295.804	19.46
296.018	19.46
296.233	113.66
296.447	44.03
296.662	29.7
296.877	76.8
297.091	82.94
297.306	68.61
297.52	37.89
297.735	17.41
297.949	56.32
298.164	64.51
298.378	41.98
298.593	132.09
298.807	19.46
299.022	54.27
299.236	80.89
299.451	29.7
299.665	70.65
299.88	31.74
300.094	68.61
300.309	50.18
300.523	68.61
300.737	7.17
300.952	60.42
301.166	60.42
301.381	19.46
301.595	82.94
301.809	89.09
302.024	82.94
302.238	105.47
302.452	130.05
302.667	9.22
302.881	113.66
303.095	78.85
303.309	72.7
303.524	3.07
303.738	9.22
303.952	13.31
304.166	7.17
304.381	11.26
304.595	144.38
304.809	70.65
305.023	105.47
305.237	76.8
305.452	56.32
305.666	56.32
305.88	3.07
306.094	87.04
306.308	84.99
306.522	11.26
306.736	111.61
306.95	44.03
307.164	113.66
307.379	80.89
307.593	84.99
307.807	37.89
308.021	44.03
308.235	60.42
308.449	29.7
308.663	58.37
308.877	99.33
309.091	41.98
309.305	82.94
309.519	-50.18
309.733	87.04
309.947	50.18
310.161	136.19
310.374	117.76
310.588	113.66
310.802	46.08
311.016	-15.36
311.23	119.81
311.444	142.33
311.658	-7.17
311.872	5.12
312.085	56.32
312.299	50.18
312.513	144.38
312.727	72.7
312.941	44.03
313.154	72.7
313.368	146.43
313.582	132.09
313.796	37.89
314.009	103.42
314.223	44.03
314.437	70.65
314.651	64.51
314.864	121.85
315.078	21.5
315.292	41.98
315.505	62.46
315.719	15.36
315.933	19.46
316.146	-1.02
316.36	3.07
316.573	93.18
316.787	56.32
317.001	87.04
317.214	29.7
317.428	31.74
317.641	101.37
317.855	-21.5
318.068	105.47
318.282	109.57
318.495	125.95
318.709	64.51
318.922	54.27
319.136	62.46
319.349	128
319.563	31.74
319.776	101.37
319.99	-3.07
320.203	78.85
320.417	91.13
320.63	35.84
320.843	130.05
321.057	66.56
321.27	72.7
321.483	19.46
321.697	54.27
321.91	136.19
322.124	140.29
322.337	103.42
322.55	3.07
322.763	-37.89
322.977	-13.31
323.19	89.09
323.403	76.8
323.617	119.81
323.83	93.18
324.043	-46.08
324.256	84.99
324.469	17.41
324.683	50.18
324.896	5.12
325.109	48.13
325.322	91.13
325.535	17.41
325.748	80.89
325.962	27.65
326.175	91.13
326.388	52.22
326.601	31.74
326.814	60.42
327.027	33.79
327.24	50.18
327.453	-13.31
327.666	68.61
327.879	19.46
328.092	78.85
328.305	52.22
328.518	11.26
328.731	97.28
328.944	48.13
329.157	95.23
329.37	87.04
329.583	66.56
329.796	56.32
330.009	31.74
330.222	93.18
330.435	33.79
330.648	62.46
330.861	93.18
331.073	37.89
331.286	89.09
331.499	115.71
331.712	78.85
331.925	97.28
332.138	52.22
332.35	-19.46
332.563	48.13
332.776	109.57
332.989	78.85
333.202	60.42
333.414	84.99
333.627	125.95
333.84	74.75
334.053	52.22
334.265	-19.46
334.478	-9.22
334.691	39.94
334.903	74.75
335.116	70.65
335.329	33.79
335.541	58.37
335.754	60.42
335.966	27.65
336.179	5.12
336.392	7.17
336.604	97.28
336.817	121.85
337.029	87.04
337.242	121.85
337.454	25.6
337.667	48.13
337.88	91.13
338.092	121.85
338.305	50.18
338.517	-9.22
338.729	19.46
338.942	117.76
339.154	19.46
339.367	21.5
339.579	7.17
339.792	33.79
340.004	89.09
340.217	33.79
340.429	97.28
340.641	-21.5
340.854	-23.55
341.066	103.42
341.278	109.57
341.491	105.47
341.703	87.04
341.915	-15.36
342.128	146.43
342.34	107.52
342.552	93.18
342.764	5.12
342.977	95.23
343.189	84.99
343.401	82.94
343.613	-15.36
343.826	31.74
344.038	101.37
344.25	27.65
344.462	3.07
344.674	87.04
344.886	19.46
345.099	121.85
345.311	25.6
345.523	54.27
345.735	-3.07
345.947	76.8
346.159	-5.12
346.371	31.74
346.583	52.22
346.795	152.57
347.007	48.13
347.219	39.94
347.431	31.74
347.643	56.32
347.855	27.65
348.067	84.99
348.279	58.37
348.491	95.23
348.703	76.8
348.915	105.47
349.127	23.55
349.339	56.32
349.551	74.75
349.763	93.18
349.975	109.57
350.187	146.43
350.399	41.98
350.61	58.37
350.822	-21.5
351.034	15.36
351.246	74.75
351.458	68.61
351.669	105.47
351.881	84.99
352.093	52.22
352.305	117.76
352.517	80.89
352.728	76.8
352.94	91.13
353.152	89.09
353.363	15.36
353.575	97.28
353.787	132.09
353.999	62.46
354.21	134.14
354.422	105.47
354.633	37.89
354.845	-46.08
355.057	41.98
355.268	64.51
355.48	56.32
355.692	-9.22
355.903	31.74
356.115	-13.31
356.326	68.61
356.538	140.29
356.749	121.85
356.961	78.85
357.172	101.37
357.384	15.36
357.595	146.43
357.807	15.36
358.018	19.46
358.23	87.04
358.441	99.33
358.653	142.33
358.864	39.94
359.075	56.32
359.287	50.18
359.498	138.24
359.709	56.32
359.921	7.17
360.132	115.71
360.344	72.7
360.555	50.18
360.766	109.57
360.977	60.42
361.189	105.47
361.4	44.03
361.611	76.8
361.823	78.85
362.034	93.18
362.245	62.46
362.456	82.94
362.667	80.89
362.879	132.09
363.09	64.51
363.301	123.9
363.512	50.18
363.723	19.46
363.935	87.04
364.146	68.61
364.357	31.74
364.568	95.23
364.779	76.8
364.99	89.09
365.201	35.84
365.412	60.42
365.623	21.5
365.834	93.18
366.045	35.84
366.256	89.09
366.467	46.08
366.678	50.18
366.889	156.67
367.1	103.42
367.311	62.46
367.522	70.65
367.733	72.7
367.944	97.28
368.155	87.04
368.366	109.57
368.577	64.51
368.788	35.84
368.999	-29.7
369.209	82.94
369.42	105.47
369.631	31.74
369.842	82.94
370.053	41.98
370.264	113.66
370.474	37.89
370.685	91.13
370.896	97.28
371.107	142.33
371.317	64.51
371.528	72.7
371.739	54.27
371.95	136.19
372.16	121.85
372.371	44.03
372.582	5.12
372.792	146.43
373.003	82.94
373.214	76.8
373.424	50.18
373.635	48.13
373.846	121.85
374.056	97.28
374.267	54.27
374.477	80.89
374.688	66.56
374.898	66.56
375.109	3.07
375.319	117.76
375.53	37.89
375.74	111.61
375.951	56.32
376.161	52.22
376.372	62.46
376.582	68.61
376.793	146.43
377.003	37.89
377.214	-33.79
377.424	121.85
377.635	142.33
377.845	39.94
378.055	113.66
378.266	52.22
378.476	62.46
378.686	5.12
378.897	54.27
379.107	89.09
379.317	31.74
379.528	7.17
379.738	23.55
379.948	13.31
380.158	84.99
380.369	52.22
380.579	17.41
380.789	72.7
380.999	144.38
381.21	87.04
381.42	152.57
381.63	121.85
381.84	93.18
382.05	78.85
382.261	142.33
382.471	39.94
382.681	19.46
382.891	173.05
383.101	150.53
383.311	76.8
383.521	76.8
383.731	99.33
383.941	117.76
384.151	29.7
384.361	62.46
384.571	99.33
384.781	154.62
384.991	39.94
385.201	164.86
385.411	119.81
385.621	50.18
385.831	68.61
386.041	41.98
386.251	119.81
386.461	48.13
386.671	113.66
386.881	76.8
387.091	37.89
387.301	58.37
387.511	60.42
387.72	89.09
387.93	140.29
388.14	52.22
388.35	74.75
388.56	179.2
388.769	78.85
388.979	109.57
389.189	33.79
389.399	84.99
389.609	91.13
389.818	31.74
390.028	91.13
390.238	62.46
390.447	107.52
390.657	52.22
390.867	60.42
391.076	50.18
391.286	68.61
391.496	177.15
391.705	103.42
391.915	130.05
392.125	89.09
392.334	113.66
392.544	52.22
392.753	89.09
392.963	84.99
393.172	44.03
393.382	39.94
393.591	148.48
393.801	132.09
394.01	117.76
394.22	123.9
394.429	84.99
394.639	107.52
394.848	134.14
395.058	134.14
395.267	211.96
395.477	138.24
395.686	107.52
395.895	146.43
396.105	156.67
396.314	58.37
396.524	123.9
396.733	146.43
396.942	205.82
397.152	207.87
397.361	150.53
397.57	177.15
397.78	107.52
397.989	148.48
398.198	197.63
398.407	164.86
398.617	136.19
398.826	140.29
399.035	80.89
399.244	154.62
399.453	197.63
399.663	146.43
399.872	177.15
400.081	136.19
400.29	224.25
400.499	150.53
400.708	191.49
400.917	80.89
401.127	84.99
401.336	93.18
401.545	222.2
401.754	181.25
401.963	181.25
402.172	201.72
402.381	109.57
402.59	224.25
402.799	105.47
403.008	156.67
403.217	224.25
403.426	191.49
403.635	183.29
403.844	84.99
404.053	173.05
404.262	132.09
404.471	173.05
404.68	166.91
404.888	158.72
405.097	109.57
405.306	144.38
405.515	158.72
405.724	238.59
405.933	242.68
406.142	244.73
406.35	289.79
406.559	287.74
406.768	228.35
406.977	324.6
407.185	363.51
407.394	347.13
407.603	336.89
407.812	379.9
408.02	375.8
408.229	310.27
408.438	271.36
408.646	248.83
408.855	330.75
409.064	377.85
409.272	375.8
409.481	359.42
409.69	365.56
409.898	371.71
410.107	474.1
410.315	467.96
410.524	531.45
410.733	478.2
410.941	547.83
411.15	445.43
411.358	463.86
411.567	545.78
411.775	582.65
411.984	588.79
412.192	656.37
412.401	582.65
412.609	644.09
412.818	672.76
413.026	596.98
413.234	568.31
413.443	689.14
413.651	748.53
413.86	891.89
414.068	871.41
414.276	803.83
414.485	805.88
414.693	863.22
414.901	1016.82
415.11	961.52
415.318	975.86
415.526	1025.01
415.734	1043.44
415.943	1137.65
416.151	1182.7
416.359	1129.45
416.567	1223.66
416.776	1145.84
416.984	1272.81
417.192	1342.44
417.4	1360.88
417.608	1356.78
417.817	1418.22
418.025	1567.72
418.233	1592.3
418.441	1493.99
418.649	1612.78
418.857	1793
419.065	1772.52
419.273	1770.47
419.481	1846.24
419.689	2010.08
419.897	2059.23
420.105	1979.36
420.313	2143.2
420.521	2288.61
420.729	2237.41
420.937	2274.27
421.145	2450.39
421.353	2550.75
421.561	2661.34
421.769	2784.21
421.977	2888.66
422.185	2870.23
422.393	2964.43
422.601	3187.66
422.809	3230.67
423.017	3193.81
423.224	3388.36
423.432	3525.58
423.64	3429.32
423.848	3840.97
424.056	3914.69
424.263	4049.86
424.471	3976.13
424.679	4117.44
424.887	4398.01
425.094	4500.41
425.302	4488.12
425.51	4604.86
425.718	4819.89
425.925	4789.17
426.133	5090.23
426.341	5268.4
426.548	5612.46
426.756	5370.8
426.964	5608.36
427.171	5929.89
427.379	6026.15
427.586	6224.8
427.794	6482.85
428.001	6859.67
428.209	7007.13
428.417	6990.74
428.624	7285.65
428.832	7406.48
429.039	7277.46
429.247	7330.7
429.454	8090.5
429.662	8358.78
429.869	8045.45
430.076	8733.56
430.284	8160.13
430.491	8690.56
430.699	9249.65
430.906	9208.69
431.114	9419.63
431.321	9661.29
431.528	10214.24
431.736	10584.93
431.943	11111.25
432.15	10779.48
432.358	10617.69
432.565	11440.98
432.772	11168.6
432.979	12043.08
433.187	11979.59
433.394	12303.17
433.601	13126.46
433.808	13030.2
434.016	13108.02
434.223	13572.91
434.43	14566.18
434.637	14007.08
434.844	14951.2
435.052	15252.25
435.259	15065.88
435.466	15362.84
435.673	14750.49
435.88	16167.69
436.087	16966.4
436.294	17296.12
436.501	16640.77
436.708	17029.88
436.915	17490.68
437.122	18414.31
437.329	18012.91
437.537	18658.02
437.743	19049.18
437.95	19167.96
438.157	20165.32
438.364	20812.48
438.571	20697.8
438.778	20695.75
438.985	22893.22
439.192	22395.56
439.399	22764.2
439.606	21877.43
439.813	23509.66
440.02	24754.82
440.227	24650.38
440.433	24072.85
440.64	24951.43
440.847	24865.41
441.054	25350.78
441.261	26948.2
441.467	26864.23
441.674	27320.93
441.881	28293.71
442.088	27880.02
442.294	27920.98
442.501	28746.31
442.708	29213.25
442.914	30624.3
443.121	31545.89
443.328	30429.74
443.534	33133.06
443.741	31904.28
443.948	31670.81
444.154	34310.64
444.361	33765.88
444.568	33970.68
444.774	33929.72
444.981	34429.43
445.187	35459.55
445.394	36930
445.6	36207.06
445.807	40090.01
446.013	38236.6
446.22	39100.84
446.426	40139.16
446.633	40505.75
446.839	41744.77
447.046	40071.58
447.252	42262.91
447.459	42318.2
447.665	42379.64
447.871	43716.96
448.078	45865.28
448.284	43776.36
448.491	44919.12
448.697	46387.52
448.903	46985.52
449.11	47606.06
449.316	46395.71
449.522	47012.15
449.728	48427.29
449.935	48746.78
450.141	48492.83
450.347	49676.55
450.553	48064.8
450.76	48279.84
450.966	49793.29
451.172	49344.78
451.378	49953.03
451.584	49303.82
451.791	50557.18
451.997	50116.87
452.203	50940.15
452.409	50737.4
452.615	50598.14
452.821	49066.26
453.027	48468.25
453.233	51046.65
453.44	48505.12
453.646	49090.83
453.852	48843.03
454.058	50362.62
454.264	48290.08
454.47	49090.83
454.676	48148.77
454.882	49545.48
455.088	45494.6
455.294	45576.52
455.5	46588.22
455.705	46551.35
455.911	44675.41
456.117	44271.96
456.323	43288.94
456.529	40972.69
456.735	42783.09
456.941	41437.58
457.147	40575.38
457.352	39676.32
457.558	39162.28
457.764	39215.53
457.97	38443.45
458.176	37472.71
458.381	37249.48
458.587	35420.64
458.793	35650.02
458.999	33788.41
459.204	36336.09
459.41	35121.64
459.616	32619.02
459.821	32928.27
460.027	32367.12
460.233	32168.47
460.438	30364.21
460.644	30671.4
460.85	29610.56
461.055	28920.39
461.261	28979.78
461.466	26892.9
461.672	26120.82
461.878	28123.73
462.083	25672.31
462.289	25541.24
462.494	25154.18
462.7	24162.96
462.905	23675.54
463.111	24394.38
463.316	24165.01
463.522	23804.56
463.727	24068.75
463.932	24119.95
464.138	23671.45
464.343	23581.34
464.549	22882.98
464.754	23796.37
464.959	23556.76
465.165	23499.42
465.37	22342.32
465.575	21983.92
465.781	22788.77
465.986	22842.02
466.191	22207.15
466.397	21940.91
466.602	20542.15
