Data from USB4F104151__260__10-39-53-819.txt Node

Date: Wed Mar 12 10:39:53 EDT 2025
User: louis
Spectrometer: USB4F10415
Trigger mode: 4
Integration Time (sec): 3.000000E-2
Scans to average: 1
Electric dark correction enabled: true
Nonlinearity correction enabled: false
Boxcar width: 0
XAxis mode: Wavelengths
Number of Pixels in Spectrum: 3648
>>>>>Begin Spectral Data<<<<<
178.204	-129.7
178.424	-129.7
178.644	-129.7
178.864	-158.38
179.084	-117.42
179.304	3.41
179.524	32.08
179.744	-21.16
179.964	25.94
180.184	-19.11
180.404	62.8
180.624	15.7
180.844	-70.31
181.064	-29.35
181.283	-21.16
181.503	13.65
181.723	7.51
181.943	-66.22
182.163	103.76
182.383	-35.5
182.602	21.85
182.822	105.81
183.042	11.61
183.262	19.8
183.482	30.04
183.701	38.23
183.921	5.46
184.141	-47.79
184.361	71
184.58	81.24
184.8	-31.4
185.02	48.47
185.239	42.32
185.459	-27.31
185.679	40.28
185.898	60.76
186.118	3.41
186.338	-35.5
186.557	38.23
186.777	42.32
186.997	-15.02
187.216	-0.68
187.436	75.09
187.655	9.56
187.875	9.56
188.095	68.95
188.314	75.09
188.534	85.33
188.753	23.89
188.973	62.8
189.192	56.66
189.412	19.8
189.631	-15.02
189.851	46.42
190.07	109.91
190.29	-41.64
190.509	27.99
190.729	21.85
190.948	66.9
191.168	126.29
191.387	58.71
191.607	81.24
191.826	64.85
192.045	54.61
192.265	50.52
192.484	52.56
192.704	25.94
192.923	-12.97
193.142	62.8
193.362	27.99
193.581	56.66
193.8	15.7
194.02	13.65
194.239	19.8
194.458	9.56
194.678	64.85
194.897	66.9
195.116	-6.83
195.335	54.61
195.555	19.8
195.774	77.14
195.993	48.47
196.212	-6.83
196.432	1.37
196.651	19.8
196.87	60.76
197.089	109.91
197.308	58.71
197.528	25.94
197.747	21.85
197.966	5.46
198.185	62.8
198.404	48.47
198.623	71
198.842	60.76
199.062	62.8
199.281	-10.92
199.5	-55.98
199.719	3.41
199.938	48.47
200.157	36.18
200.376	9.56
200.595	97.62
200.814	23.89
201.033	21.85
201.252	-0.68
201.471	105.81
201.69	42.32
201.909	32.08
202.128	83.28
202.347	44.37
202.566	-27.31
202.785	38.23
203.004	5.46
203.223	163.15
203.442	25.94
203.661	-68.27
203.879	71
204.098	-2.73
204.317	-2.73
204.536	34.13
204.755	50.52
204.974	52.56
205.193	7.51
205.411	36.18
205.63	77.14
205.849	48.47
206.068	32.08
206.287	32.08
206.505	32.08
206.724	58.71
206.943	-37.55
207.162	52.56
207.381	-21.16
207.599	1.37
207.818	99.67
208.037	19.8
208.255	60.76
208.474	3.41
208.693	62.8
208.911	46.42
209.13	3.41
209.349	-4.78
209.567	-12.97
209.786	27.99
210.005	101.72
210.223	50.52
210.442	17.75
210.661	13.65
210.879	23.89
211.098	-8.87
211.316	58.71
211.535	128.34
211.753	48.47
211.972	-8.87
212.191	-82.6
212.409	17.75
212.628	19.8
212.846	46.42
213.065	5.46
213.283	111.96
213.502	-31.4
213.72	21.85
213.938	-17.07
214.157	50.52
214.375	-6.83
214.594	42.32
214.812	32.08
215.031	-31.4
215.249	1.37
215.467	-35.5
215.686	64.85
215.904	75.09
216.122	21.85
216.341	52.56
216.559	56.66
216.778	21.85
216.996	34.13
217.214	34.13
217.432	21.85
217.651	38.23
217.869	-12.97
218.087	17.75
218.306	25.94
218.524	107.86
218.742	9.56
218.96	83.28
219.179	9.56
219.397	13.65
219.615	-23.21
219.833	85.33
220.051	34.13
220.27	62.8
220.488	-4.78
220.706	23.89
220.924	5.46
221.142	23.89
221.36	103.76
221.578	71
221.796	42.32
222.015	46.42
222.233	-84.65
222.451	27.99
222.669	5.46
222.887	42.32
223.105	-8.87
223.323	-37.55
223.541	40.28
223.759	60.76
223.977	42.32
224.195	32.08
224.413	40.28
224.631	71
224.849	44.37
225.067	101.72
225.285	5.46
225.503	62.8
225.721	-88.75
225.939	-2.73
226.157	124.24
226.375	120.15
226.592	11.61
226.81	48.47
227.028	91.48
227.246	13.65
227.464	101.72
227.682	89.43
227.9	66.9
228.117	66.9
228.335	-27.31
228.553	9.56
228.771	109.91
228.989	30.04
229.206	3.41
229.424	62.8
229.642	3.41
229.86	-17.07
230.077	15.7
230.295	68.95
230.513	52.56
230.731	38.23
230.948	91.48
231.166	136.53
231.384	-19.11
231.601	54.61
231.819	-12.97
232.037	54.61
232.254	-29.35
232.472	17.75
232.689	27.99
232.907	56.66
233.125	3.41
233.342	120.15
233.56	-37.55
233.777	30.04
233.995	32.08
234.213	89.43
234.43	11.61
234.648	-58.03
234.865	36.18
235.083	71
235.3	-19.11
235.518	54.61
235.735	60.76
235.953	95.57
236.17	-2.73
236.388	-35.5
236.605	27.99
236.822	66.9
237.04	54.61
237.257	71
237.475	5.46
237.692	30.04
237.909	77.14
238.127	19.8
238.344	-35.5
238.562	32.08
238.779	-72.36
238.996	79.19
239.214	71
239.431	50.52
239.648	44.37
239.865	13.65
240.083	19.8
240.3	42.32
240.517	34.13
240.735	64.85
240.952	89.43
241.169	64.85
241.386	44.37
241.603	-29.35
241.821	-45.74
242.038	13.65
242.255	66.9
242.472	56.66
242.689	13.65
242.907	83.28
243.124	75.09
243.341	54.61
243.558	30.04
243.775	27.99
243.992	-10.92
244.209	89.43
244.426	25.94
244.643	44.37
244.86	64.85
245.078	21.85
245.295	38.23
245.512	58.71
245.729	36.18
245.946	38.23
246.163	11.61
246.38	-2.73
246.597	27.99
246.814	-10.92
247.031	19.8
247.248	79.19
247.464	11.61
247.681	54.61
247.898	11.61
248.115	62.8
248.332	50.52
248.549	120.15
248.766	13.65
248.983	27.99
249.2	48.47
249.417	3.41
249.633	25.94
249.85	81.24
250.067	83.28
250.284	44.37
250.501	52.56
250.717	44.37
250.934	32.08
251.151	21.85
251.368	19.8
251.585	44.37
251.801	85.33
252.018	-41.64
252.235	7.51
252.451	30.04
252.668	-43.69
252.885	130.39
253.102	-2.73
253.318	15.7
253.535	25.94
253.752	17.75
253.968	11.61
254.185	42.32
254.401	13.65
254.618	-4.78
254.835	-31.4
255.051	83.28
255.268	56.66
255.484	3.41
255.701	34.13
255.917	54.61
256.134	-19.11
256.351	-6.83
256.567	27.99
256.784	23.89
257	-12.97
257.217	25.94
257.433	75.09
257.65	126.29
257.866	50.52
258.082	15.7
258.299	-29.35
258.515	101.72
258.732	-35.5
258.948	15.7
259.165	-10.92
259.381	5.46
259.597	42.32
259.814	23.89
260.03	34.13
260.246	-4.78
260.463	23.89
260.679	85.33
260.895	-2.73
261.112	91.48
261.328	30.04
261.544	-49.83
261.761	140.63
261.977	19.8
262.193	-35.5
262.409	52.56
262.626	-17.07
262.842	56.66
263.058	1.37
263.274	64.85
263.49	71
263.707	25.94
263.923	56.66
264.139	52.56
264.355	5.46
264.571	116.05
264.787	11.61
265.004	66.9
265.22	42.32
265.436	11.61
265.652	-66.22
265.868	50.52
266.084	-43.69
266.3	46.42
266.516	21.85
266.732	34.13
266.948	73.04
267.164	54.61
267.38	-21.16
267.596	44.37
267.812	83.28
268.028	103.76
268.244	-37.55
268.46	25.94
268.676	77.14
268.892	85.33
269.108	21.85
269.324	-2.73
269.54	-6.83
269.756	52.56
269.972	-25.26
270.188	-0.68
270.403	-33.45
270.619	1.37
270.835	97.62
271.051	50.52
271.267	58.71
271.483	17.75
271.698	32.08
271.914	-23.21
272.13	81.24
272.346	-6.83
272.562	77.14
272.777	-17.07
272.993	54.61
273.209	42.32
273.425	-2.73
273.64	23.89
273.856	-2.73
274.072	5.46
274.287	15.7
274.503	19.8
274.719	34.13
274.934	-72.36
275.15	-2.73
275.366	87.38
275.581	62.8
275.797	-19.11
276.012	44.37
276.228	36.18
276.444	-15.02
276.659	89.43
276.875	-60.07
277.09	42.32
277.306	7.51
277.521	17.75
277.737	71
277.952	-0.68
278.168	30.04
278.383	30.04
278.599	38.23
278.814	-6.83
279.03	68.95
279.245	71
279.461	62.8
279.676	62.8
279.892	7.51
280.107	27.99
280.322	48.47
280.538	-6.83
280.753	-39.59
280.969	50.52
281.184	19.8
281.399	62.8
281.615	27.99
281.83	116.05
282.045	3.41
282.26	50.52
282.476	5.46
282.691	122.2
282.906	-29.35
283.122	56.66
283.337	44.37
283.552	85.33
283.767	-21.16
283.983	68.95
284.198	-6.83
284.413	36.18
284.628	25.94
284.843	52.56
285.058	54.61
285.274	21.85
285.489	30.04
285.704	58.71
285.919	-19.11
286.134	30.04
286.349	-23.21
286.564	38.23
286.779	3.41
286.995	30.04
287.21	56.66
287.425	107.86
287.64	-8.87
287.855	36.18
288.07	7.51
288.285	50.52
288.5	5.46
288.715	34.13
288.93	15.7
289.145	118.1
289.36	30.04
289.575	42.32
289.79	103.76
290.004	11.61
290.219	73.04
290.434	52.56
290.649	27.99
290.864	13.65
291.079	93.52
291.294	-15.02
291.509	25.94
291.724	83.28
291.938	109.91
292.153	25.94
292.368	34.13
292.583	52.56
292.798	83.28
293.012	19.8
293.227	54.61
293.442	23.89
293.657	40.28
293.871	27.99
294.086	40.28
294.301	81.24
294.516	73.04
294.73	66.9
294.945	-4.78
295.16	9.56
295.374	5.46
295.589	68.95
295.804	-27.31
296.018	1.37
296.233	50.52
296.447	40.28
296.662	120.15
296.877	101.72
297.091	46.42
297.306	-8.87
297.52	48.47
297.735	23.89
297.949	38.23
298.164	66.9
298.378	13.65
298.593	5.46
298.807	-43.69
299.022	64.85
299.236	85.33
299.451	27.99
299.665	9.56
299.88	138.58
300.094	62.8
300.309	50.52
300.523	36.18
300.737	1.37
300.952	36.18
301.166	44.37
301.381	13.65
301.595	62.8
301.809	30.04
302.024	36.18
302.238	30.04
302.452	71
302.667	23.89
302.881	126.29
303.095	-6.83
303.309	89.43
303.524	-27.31
303.738	-53.93
303.952	5.46
304.166	99.67
304.381	-31.4
304.595	-6.83
304.809	60.76
305.023	27.99
305.237	56.66
305.452	91.48
305.666	-45.74
305.88	46.42
306.094	-8.87
306.308	25.94
306.522	11.61
306.736	75.09
306.95	62.8
307.164	7.51
307.379	-21.16
307.593	66.9
307.807	83.28
308.021	66.9
308.235	23.89
308.449	73.04
308.663	-6.83
308.877	46.42
309.091	91.48
309.305	46.42
309.519	21.85
309.733	56.66
309.947	-4.78
310.161	101.72
310.374	11.61
310.588	124.24
310.802	54.61
311.016	38.23
311.23	83.28
311.444	-4.78
311.658	60.76
311.872	42.32
312.085	83.28
312.299	52.56
312.513	21.85
312.727	83.28
312.941	19.8
313.154	5.46
313.368	56.66
313.582	54.61
313.796	48.47
314.009	23.89
314.223	48.47
314.437	52.56
314.651	109.91
314.864	27.99
315.078	62.8
315.292	-15.02
315.505	27.99
315.719	79.19
315.933	91.48
316.146	25.94
316.36	-35.5
316.573	48.47
316.787	9.56
317.001	118.1
317.214	50.52
317.428	75.09
317.641	66.9
317.855	77.14
318.068	136.53
318.282	105.81
318.495	52.56
318.709	99.67
318.922	60.76
319.136	44.37
319.349	54.61
319.563	40.28
319.776	9.56
319.99	46.42
320.203	54.61
320.417	9.56
320.63	23.89
320.843	66.9
321.057	23.89
321.27	15.7
321.483	144.72
321.697	111.96
321.91	-21.16
322.124	-19.11
322.337	30.04
322.55	-8.87
322.763	-8.87
322.977	25.94
323.19	34.13
323.403	40.28
323.617	13.65
323.83	103.76
324.043	68.95
324.256	40.28
324.469	58.71
324.683	81.24
324.896	7.51
325.109	38.23
325.322	-31.4
325.535	122.2
325.748	66.9
325.962	19.8
326.175	95.57
326.388	36.18
326.601	66.9
326.814	128.34
327.027	79.19
327.24	93.52
327.453	34.13
327.666	99.67
327.879	36.18
328.092	34.13
328.305	17.75
328.518	79.19
328.731	-2.73
328.944	103.76
329.157	42.32
329.37	21.85
329.583	101.72
329.796	111.96
330.009	27.99
330.222	89.43
330.435	17.75
330.648	75.09
330.861	66.9
331.073	73.04
331.286	62.8
331.499	38.23
331.712	3.41
331.925	23.89
332.138	118.1
332.35	77.14
332.563	36.18
332.776	103.76
332.989	-37.55
333.202	52.56
333.414	-0.68
333.627	54.61
333.84	13.65
334.053	11.61
334.265	23.89
334.478	3.41
334.691	64.85
334.903	46.42
335.116	-0.68
335.329	34.13
335.541	73.04
335.754	114
335.966	21.85
336.179	60.76
336.392	46.42
336.604	-10.92
336.817	60.76
337.029	81.24
337.242	91.48
337.454	107.86
337.667	1.37
337.88	79.19
338.092	77.14
338.305	105.81
338.517	58.71
338.729	25.94
338.942	132.44
339.154	46.42
339.367	-12.97
339.579	93.52
339.792	11.61
340.004	30.04
340.217	40.28
340.429	36.18
340.641	17.75
340.854	77.14
341.066	17.75
341.278	11.61
341.491	118.1
341.703	34.13
341.915	11.61
342.128	73.04
342.34	-35.5
342.552	25.94
342.764	128.34
342.977	64.85
343.189	-4.78
343.401	101.72
343.613	73.04
343.826	64.85
344.038	58.71
344.25	58.71
344.462	-2.73
344.674	64.85
344.886	25.94
345.099	42.32
345.311	50.52
345.523	48.47
345.735	5.46
345.947	-19.11
346.159	62.8
346.371	62.8
346.583	85.33
346.795	71
347.007	87.38
347.219	1.37
347.431	13.65
347.643	136.53
347.855	66.9
348.067	25.94
348.279	25.94
348.491	-17.07
348.703	-33.45
348.915	-6.83
349.127	75.09
349.339	27.99
349.551	62.8
349.763	66.9
349.975	30.04
350.187	105.81
350.399	97.62
350.61	142.68
350.822	71
351.034	34.13
351.246	38.23
351.458	71
351.669	107.86
351.881	71
352.093	-37.55
352.305	91.48
352.517	23.89
352.728	109.91
352.94	3.41
353.152	58.71
353.363	54.61
353.575	56.66
353.787	120.15
353.999	56.66
354.21	44.37
354.422	58.71
354.633	13.65
354.845	-15.02
355.057	83.28
355.268	-51.88
355.48	64.85
355.692	68.95
355.903	73.04
356.115	1.37
356.326	-0.68
356.538	-0.68
356.749	32.08
356.961	52.56
357.172	54.61
357.384	23.89
357.595	157.01
357.807	79.19
358.018	101.72
358.23	109.91
358.441	114
358.653	27.99
358.864	15.7
359.075	-51.88
359.287	30.04
359.498	87.38
359.709	105.81
359.921	52.56
360.132	17.75
360.344	91.48
360.555	68.95
360.766	13.65
360.977	52.56
361.189	101.72
361.4	81.24
361.611	97.62
361.823	-19.11
362.034	81.24
362.245	99.67
362.456	13.65
362.667	30.04
362.879	52.56
363.09	27.99
363.301	58.71
363.512	68.95
363.723	17.75
363.935	21.85
364.146	54.61
364.357	-12.97
364.568	66.9
364.779	-21.16
364.99	71
365.201	-8.87
365.412	105.81
365.623	36.18
365.834	30.04
366.045	107.86
366.256	83.28
366.467	17.75
366.678	120.15
366.889	21.85
367.1	9.56
367.311	103.76
367.522	54.61
367.733	114
367.944	21.85
368.155	-6.83
368.366	-2.73
368.577	75.09
368.788	36.18
368.999	97.62
369.209	83.28
369.42	99.67
369.631	77.14
369.842	122.2
370.053	32.08
370.264	75.09
370.474	58.71
370.685	52.56
370.896	85.33
371.107	91.48
371.317	-35.5
371.528	99.67
371.739	21.85
371.95	87.38
372.16	116.05
372.371	42.32
372.582	46.42
372.792	25.94
373.003	50.52
373.214	103.76
373.424	120.15
373.635	62.8
373.846	107.86
374.056	-8.87
374.267	30.04
374.477	95.57
374.688	62.8
374.898	44.37
375.109	109.91
375.319	50.52
375.53	105.81
375.74	50.52
375.951	81.24
376.161	99.67
376.372	91.48
376.582	21.85
376.793	89.43
377.003	-8.87
377.214	81.24
377.424	5.46
377.635	73.04
377.845	-0.68
378.055	71
378.266	11.61
378.476	1.37
378.686	68.95
378.897	-6.83
379.107	83.28
379.317	114
379.528	103.76
379.738	122.2
379.948	101.72
380.158	101.72
380.369	124.24
380.579	89.43
380.789	87.38
380.999	109.91
381.21	97.62
381.42	77.14
381.63	97.62
381.84	34.13
382.05	-4.78
382.261	85.33
382.471	71
382.681	1.37
382.891	169.3
383.101	46.42
383.311	11.61
383.521	52.56
383.731	83.28
383.941	62.8
384.151	75.09
384.361	87.38
384.571	81.24
384.781	34.13
384.991	95.57
385.201	34.13
385.411	93.52
385.621	11.61
385.831	54.61
386.041	91.48
386.251	132.44
386.461	64.85
386.671	5.46
386.881	1.37
387.091	81.24
387.301	23.89
387.511	58.71
387.72	23.89
387.93	25.94
388.14	79.19
388.35	64.85
388.56	62.8
388.769	73.04
388.979	79.19
389.189	23.89
389.399	36.18
389.609	85.33
389.818	99.67
390.028	25.94
390.238	58.71
390.447	38.23
390.657	42.32
390.867	3.41
391.076	50.52
391.286	64.85
391.496	87.38
391.705	167.25
391.915	120.15
392.125	48.47
392.334	58.71
392.544	73.04
392.753	85.33
392.963	19.8
393.172	91.48
393.382	105.81
393.591	68.95
393.801	15.7
394.01	142.68
394.22	103.76
394.429	111.96
394.639	105.81
394.848	107.86
395.058	85.33
395.267	58.71
395.477	93.52
395.686	77.14
395.895	161.11
396.105	228.69
396.314	175.44
396.524	71
396.733	87.38
396.942	99.67
397.152	175.44
397.361	109.91
397.57	58.71
397.78	81.24
397.989	95.57
398.198	157.01
398.407	122.2
398.617	148.82
398.826	214.35
399.035	87.38
399.244	83.28
399.453	189.78
399.663	114
399.872	204.11
400.081	124.24
400.29	93.52
400.499	132.44
400.708	183.63
400.917	140.63
401.127	136.53
401.336	128.34
401.545	179.54
401.754	165.2
401.963	130.39
402.172	157.01
402.381	128.34
402.59	75.09
402.799	146.77
403.008	228.69
403.217	208.21
403.426	128.34
403.635	154.96
403.844	173.39
404.053	142.68
404.262	150.87
404.471	152.91
404.68	191.83
404.888	183.63
405.097	165.2
405.306	197.97
405.515	189.78
405.724	157.01
405.933	173.39
406.142	230.74
406.35	271.7
406.559	236.88
406.768	247.12
406.977	283.98
407.185	277.84
407.394	212.31
407.603	193.87
407.812	283.98
408.02	308.56
408.229	316.75
408.438	290.13
408.646	255.31
408.855	304.46
409.064	341.33
409.272	324.94
409.481	456.01
409.69	351.57
409.898	320.85
410.107	404.82
410.315	499.02
410.524	408.91
410.733	402.77
410.941	402.77
411.15	398.67
411.358	535.89
411.567	539.98
411.775	476.49
411.984	546.12
412.192	591.18
412.401	613.71
412.609	705.87
412.818	683.34
413.026	666.96
413.234	685.39
413.443	660.81
413.651	744.78
413.86	730.44
414.068	900.42
414.276	812.36
414.485	808.27
414.693	912.71
414.901	955.72
415.11	1033.54
415.318	972.1
415.526	949.57
415.734	1013.06
415.943	1060.17
416.151	1068.36
416.359	1197.38
416.567	1228.1
416.776	1199.43
416.984	1312.07
417.192	1410.37
417.4	1387.84
417.608	1385.79
417.817	1457.47
418.025	1486.14
418.233	1606.97
418.441	1473.85
418.649	1662.27
418.857	1885.5
419.065	1766.71
419.273	1842.49
419.481	1858.87
419.689	2092.34
419.897	2118.97
420.105	2258.23
420.313	2123.06
420.521	2274.61
420.729	2317.62
420.937	2194.74
421.145	2471.22
421.353	2657.58
421.561	2710.83
421.769	2659.63
421.977	2845.99
422.185	2852.14
422.393	3056.93
422.601	3161.38
422.809	3020.07
423.017	3249.44
423.224	3259.68
423.432	3415.33
423.64	3501.34
423.848	3845.4
424.056	3730.72
424.263	4009.24
424.471	3992.86
424.679	4044.06
424.887	4416.79
425.094	4488.46
425.302	4594.96
425.51	4619.53
425.718	4736.27
425.925	4773.13
426.133	4955.4
426.341	5401.86
426.548	5514.5
426.756	5537.02
426.964	5551.36
427.171	5952.76
427.379	6200.57
427.586	6270.2
427.794	6481.14
428.001	6620.4
428.209	6872.3
428.417	6876.4
428.624	7466.21
428.832	7265.51
429.039	7322.85
429.247	7259.37
429.454	8291.54
429.662	8619.22
429.869	8131.8
430.076	8391.89
430.284	8271.06
430.491	8735.95
430.699	9198.79
430.906	9110.73
431.114	9297.1
431.321	9794.75
431.528	9950.4
431.736	10710.19
431.943	11027.63
432.15	10601.65
432.358	10722.48
432.565	11451.56
432.772	11297.96
432.979	11838.62
433.187	12317.85
433.394	12389.53
433.601	13180.04
433.808	13053.07
434.016	13130.89
434.223	13546.63
434.43	14535.8
434.637	14095.49
434.844	14959.73
435.052	15221.87
435.259	15361.13
435.466	15418.47
435.673	15309.93
435.88	16372.83
436.087	17032.27
436.294	17405
436.501	16622.68
436.708	17124.43
436.915	17585.22
437.122	18621.5
437.329	18551.87
437.537	19205.17
437.743	18963.51
437.95	19248.18
438.157	20071.46
438.364	20993.04
438.571	20802.58
438.778	21113.88
438.985	23075.83
439.192	22203.39
439.399	22969.33
439.606	22316.03
439.813	23223.28
440.02	24781.79
440.227	24351.71
440.433	24282.08
440.64	25162.71
440.847	24890.33
441.054	25699.28
441.261	26934.2
441.467	26805.18
441.674	27409.33
441.881	28251.05
442.088	28281.77
442.294	27933.61
442.501	28920.73
442.708	29164.44
442.914	30479.24
443.121	31695.73
443.328	31257.46
443.534	32789.34
443.741	32498.53
443.948	31816.56
444.154	34376.52
444.361	33540.95
444.568	34274.12
444.774	34163.53
444.981	34523.97
445.187	35564.34
445.394	36846.37
445.6	36678.44
445.807	39928.56
446.013	38069.01
446.22	39217.92
446.426	40325.87
446.633	40626.92
446.839	42068.69
447.046	40321.77
447.252	42777.29
447.459	42746.57
447.665	42121.94
447.871	44030.65
448.078	46242.45
448.284	43725.5
448.491	44980.9
448.697	46414.48
448.903	47475.33
449.11	47008.39
449.316	46729.87
449.522	47737.47
449.728	48421.49
449.935	48880.24
450.141	48839.28
450.347	49793.63
450.553	48030.33
450.76	49015.4
450.966	50211.42
451.172	49142.38
451.378	50365.01
451.584	49668.7
451.791	50827.85
451.997	50668.11
452.203	51345.99
452.409	51307.08
452.615	50926.16
452.821	49308.26
453.027	48507.51
453.233	50831.95
453.44	48781.93
453.646	49656.42
453.852	49404.52
454.058	50135.64
454.264	48433.78
454.47	49134.18
454.676	48339.57
454.882	49867.36
455.088	45253.28
455.294	45918.87
455.5	46611.09
455.705	47098.5
455.911	45120.16
456.117	43911.86
456.323	43424.45
456.529	41026.28
456.735	42646.22
456.941	41597.66
457.147	40887.01
457.352	39570.17
457.558	39785.21
457.764	39162.62
457.97	38535.95
458.176	37776.15
458.381	37864.21
458.587	35838.77
458.793	35687.22
458.999	33682.26
459.204	36412.2
459.41	35019.58
459.616	33014.62
459.821	32854.88
460.027	32676.71
460.233	32172.91
460.438	30327.69
460.644	31343.48
460.85	29424.53
461.055	28816.29
461.261	29049.75
461.466	26917.82
461.672	25924.55
461.878	27761.58
462.083	25807.82
462.289	25625.55
462.494	25359.31
462.7	24380.39
462.905	23878.63
463.111	24732.64
463.316	24681.44
463.522	24124.39
463.727	24421.34
463.932	24069.09
464.138	23512.05
464.343	23528.43
464.549	23194.61
464.754	23919.59
464.959	23665.64
465.165	23696.36
465.37	22535.17
465.575	22205.44
465.781	23131.12
465.986	23137.27
466.191	22273.03
466.397	21976.07
466.602	20691.99
466.807	21396.49
467.012	21670.92
467.218	21365.78
467.423	21232.66
467.628	21406.73
467.833	22520.83
