Data from USB4F104151__39__10-22-39-261.txt Node

Date: Wed Mar 12 10:22:39 EDT 2025
User: louis
Spectrometer: USB4F10415
Trigger mode: 4
Integration Time (sec): 3.000000E-2
Scans to average: 1
Electric dark correction enabled: true
Nonlinearity correction enabled: false
Boxcar width: 0
XAxis mode: Wavelengths
Number of Pixels in Spectrum: 3648
>>>>>Begin Spectral Data<<<<<
178.204	-85.33
178.424	-85.33
178.644	-85.33
178.864	-64.85
179.084	-116.05
179.304	-32.08
179.524	8.87
179.744	-13.65
179.964	37.55
180.184	25.26
180.404	6.83
180.624	-62.8
180.844	41.64
181.064	0.68
181.283	4.78
181.503	27.31
181.723	-44.37
181.943	-87.38
182.163	101.03
182.383	8.87
182.602	-32.08
182.822	-19.8
183.042	88.75
183.262	-7.51
183.482	-7.51
183.701	49.83
183.921	37.55
184.141	12.97
184.361	70.31
184.58	10.92
184.8	27.31
185.02	45.74
185.239	51.88
185.459	53.93
185.679	51.88
185.898	-13.65
186.118	150.18
186.338	41.64
186.557	43.69
186.777	58.03
186.997	-30.04
187.216	29.35
187.436	86.7
187.655	82.6
187.875	58.03
188.095	21.16
188.314	19.11
188.534	121.51
188.753	19.11
188.973	23.21
189.192	15.02
189.412	68.27
189.631	105.13
189.851	33.45
190.07	146.09
190.29	-27.99
190.509	31.4
190.729	51.88
190.948	33.45
191.168	144.04
191.387	109.23
191.607	-23.89
191.826	0.68
192.045	25.26
192.265	-7.51
192.484	-52.56
192.704	94.89
192.923	-5.46
193.142	119.46
193.362	25.26
193.581	119.46
193.8	47.79
194.02	62.12
194.239	-13.65
194.458	60.07
194.678	111.27
194.897	37.55
195.116	51.88
195.335	70.31
195.555	4.78
195.774	-34.13
195.993	37.55
196.212	47.79
196.432	31.4
196.651	47.79
196.87	62.12
197.089	135.85
197.308	23.21
197.528	4.78
197.747	35.5
197.966	-13.65
198.185	78.51
198.404	21.16
198.623	72.36
198.842	-11.61
199.062	58.03
199.281	58.03
199.5	35.5
199.719	17.07
199.938	76.46
200.157	21.16
200.376	58.03
200.595	53.93
200.814	86.7
201.033	94.89
201.252	10.92
201.471	15.02
201.69	66.22
201.909	62.12
202.128	10.92
202.347	88.75
202.566	-5.46
202.785	-3.41
203.004	-7.51
203.223	148.14
203.442	41.64
203.661	6.83
203.879	-13.65
204.098	66.22
204.317	-13.65
204.536	41.64
204.755	70.31
204.974	76.46
205.193	39.59
205.411	103.08
205.63	78.51
205.849	45.74
206.068	70.31
206.287	90.79
206.505	49.83
206.724	49.83
206.943	0.68
207.162	6.83
207.381	-11.61
207.599	12.97
207.818	49.83
208.037	90.79
208.255	70.31
208.474	58.03
208.693	-11.61
208.911	45.74
209.13	-23.89
209.349	43.69
209.567	-5.46
209.786	62.12
210.005	37.55
210.223	-48.47
210.442	-27.99
210.661	74.41
210.879	41.64
211.098	23.21
211.316	23.21
211.535	115.37
211.753	70.31
211.972	53.93
212.191	4.78
212.409	45.74
212.628	29.35
212.846	43.69
213.065	37.55
213.283	8.87
213.502	115.37
213.72	4.78
213.938	33.45
214.157	25.26
214.375	-1.37
214.594	0.68
214.812	131.75
215.031	119.46
215.249	58.03
215.467	72.36
215.686	72.36
215.904	21.16
216.122	15.02
216.341	109.23
216.559	49.83
216.778	98.99
216.996	111.27
217.214	78.51
217.432	47.79
217.651	21.16
217.869	-7.51
218.087	4.78
218.306	0.68
218.524	60.07
218.742	-46.42
218.96	47.79
219.179	17.07
219.397	53.93
219.615	127.66
219.833	49.83
220.051	47.79
220.27	68.27
220.488	90.79
220.706	92.84
220.924	45.74
221.142	62.12
221.36	-38.23
221.578	60.07
221.796	19.11
222.015	4.78
222.233	117.42
222.451	37.55
222.669	-15.7
222.887	-13.65
223.105	-62.8
223.323	-27.99
223.541	-3.41
223.759	0.68
223.977	4.78
224.195	51.88
224.413	47.79
224.631	29.35
224.849	29.35
225.067	58.03
225.285	27.31
225.503	66.22
225.721	-66.9
225.939	62.12
226.157	68.27
226.375	127.66
226.592	53.93
226.81	105.13
227.028	-11.61
227.246	111.27
227.464	62.12
227.682	-9.56
227.9	96.94
228.117	58.03
228.335	45.74
228.553	86.7
228.771	86.7
228.989	70.31
229.206	-23.89
229.424	-13.65
229.642	68.27
229.86	15.02
230.077	60.07
230.295	-11.61
230.513	80.55
230.731	23.21
230.948	117.42
231.166	76.46
231.384	-44.37
231.601	47.79
231.819	68.27
232.037	-48.47
232.254	-38.23
232.472	94.89
232.689	55.98
232.907	4.78
233.125	74.41
233.342	17.07
233.56	70.31
233.777	17.07
233.995	53.93
234.213	31.4
234.43	53.93
234.648	-3.41
234.865	29.35
235.083	66.22
235.3	-68.95
235.518	55.98
235.735	129.7
235.953	64.17
236.17	33.45
236.388	31.4
236.605	64.17
236.822	49.83
237.04	72.36
237.257	8.87
237.475	37.55
237.692	90.79
237.909	27.31
238.127	115.37
238.344	86.7
238.562	94.89
238.779	92.84
238.996	107.18
239.214	35.5
239.431	43.69
239.648	12.97
239.865	49.83
240.083	25.26
240.3	80.55
240.517	21.16
240.735	21.16
240.952	43.69
241.169	41.64
241.386	78.51
241.603	8.87
241.821	49.83
242.038	55.98
242.255	109.23
242.472	6.83
242.689	35.5
242.907	64.17
243.124	111.27
243.341	12.97
243.558	0.68
243.775	90.79
243.992	37.55
244.209	123.56
244.426	53.93
244.643	10.92
244.86	78.51
245.078	-17.75
245.295	8.87
245.512	2.73
245.729	-19.8
245.946	70.31
246.163	8.87
246.38	43.69
246.597	86.7
246.814	78.51
247.031	92.84
247.248	41.64
247.464	-9.56
247.681	35.5
247.898	58.03
248.115	47.79
248.332	19.11
248.549	68.27
248.766	80.55
248.983	39.59
249.2	33.45
249.417	39.59
249.633	21.16
249.85	90.79
250.067	-13.65
250.284	23.21
250.501	39.59
250.717	123.56
250.934	-42.32
251.151	2.73
251.368	68.27
251.585	74.41
251.801	45.74
252.018	-44.37
252.235	94.89
252.451	49.83
252.668	0.68
252.885	76.46
253.102	-52.56
253.318	72.36
253.535	51.88
253.752	70.31
253.968	0.68
254.185	-11.61
254.401	12.97
254.618	101.03
254.835	0.68
255.051	60.07
255.268	58.03
255.484	88.75
255.701	39.59
255.917	23.21
256.134	-11.61
256.351	23.21
256.567	12.97
256.784	45.74
257	15.02
257.217	41.64
257.433	74.41
257.65	45.74
257.866	33.45
258.082	60.07
258.299	8.87
258.515	41.64
258.732	21.16
258.948	4.78
259.165	41.64
259.381	-40.28
259.597	27.31
259.814	8.87
260.03	-3.41
260.246	-15.7
260.463	119.46
260.679	66.22
260.895	-27.99
261.112	23.21
261.328	43.69
261.544	8.87
261.761	105.13
261.977	19.11
262.193	0.68
262.409	117.42
262.626	45.74
262.842	21.16
263.058	45.74
263.274	139.94
263.49	37.55
263.707	-34.13
263.923	-46.42
264.139	-44.37
264.355	49.83
264.571	88.75
264.787	17.07
265.004	66.22
265.22	72.36
265.436	39.59
265.652	-5.46
265.868	12.97
266.084	53.93
266.3	51.88
266.516	35.5
266.732	25.26
266.948	-3.41
267.164	17.07
267.38	41.64
267.596	80.55
267.812	4.78
268.028	70.31
268.244	37.55
268.46	37.55
268.676	94.89
268.892	51.88
269.108	49.83
269.324	64.17
269.54	8.87
269.756	2.73
269.972	41.64
270.188	6.83
270.403	45.74
270.619	33.45
270.835	12.97
271.051	107.18
271.267	43.69
271.483	47.79
271.698	86.7
271.914	35.5
272.13	62.12
272.346	33.45
272.562	37.55
272.777	117.42
272.993	2.73
273.209	47.79
273.425	74.41
273.64	-48.47
273.856	68.27
274.072	35.5
274.287	68.27
274.503	66.22
274.719	-17.75
274.934	92.84
275.15	2.73
275.366	55.98
275.581	45.74
275.797	82.6
276.012	115.37
276.228	47.79
276.444	86.7
276.659	185
276.875	-1.37
277.09	-46.42
277.306	35.5
277.521	98.99
277.737	51.88
277.952	121.51
278.168	49.83
278.383	27.31
278.599	33.45
278.814	51.88
279.03	98.99
279.245	43.69
279.461	60.07
279.676	51.88
279.892	53.93
280.107	29.35
280.322	66.22
280.538	-9.56
280.753	70.31
280.969	90.79
281.184	64.17
281.399	74.41
281.615	27.31
281.83	103.08
282.045	6.83
282.26	47.79
282.476	98.99
282.691	78.51
282.906	37.55
283.122	25.26
283.337	25.26
283.552	27.31
283.767	27.31
283.983	113.32
284.198	-13.65
284.413	49.83
284.628	15.02
284.843	92.84
285.058	68.27
285.274	45.74
285.489	76.46
285.704	27.31
285.919	37.55
286.134	29.35
286.349	123.56
286.564	4.78
286.779	45.74
286.995	37.55
287.21	62.12
287.425	68.27
287.64	-21.84
287.855	92.84
288.07	29.35
288.285	21.16
288.5	111.27
288.715	10.92
288.93	62.12
289.145	2.73
289.36	105.13
289.575	47.79
289.79	33.45
290.004	64.17
290.219	86.7
290.434	58.03
290.649	39.59
290.864	12.97
291.079	117.42
291.294	6.83
291.509	8.87
291.724	45.74
291.938	78.51
292.153	84.65
292.368	31.4
292.583	10.92
292.798	117.42
293.012	41.64
293.227	53.93
293.442	60.07
293.657	43.69
293.871	47.79
294.086	53.93
294.301	109.23
294.516	82.6
294.73	17.07
294.945	55.98
295.16	101.03
295.374	51.88
295.589	105.13
295.804	62.12
296.018	64.17
296.233	131.75
296.447	62.12
296.662	29.35
296.877	107.18
297.091	53.93
297.306	70.31
297.52	37.55
297.735	88.75
297.949	41.64
298.164	-3.41
298.378	64.17
298.593	103.08
298.807	0.68
299.022	82.6
299.236	129.7
299.451	68.27
299.665	35.5
299.88	-11.61
300.094	80.55
300.309	47.79
300.523	72.36
300.737	62.12
300.952	115.37
301.166	21.16
301.381	51.88
301.595	21.16
301.809	70.31
302.024	62.12
302.238	29.35
302.452	74.41
302.667	53.93
302.881	82.6
303.095	78.51
303.309	41.64
303.524	19.11
303.738	70.31
303.952	-27.99
304.166	62.12
304.381	45.74
304.595	60.07
304.809	94.89
305.023	19.11
305.237	45.74
305.452	8.87
305.666	53.93
305.88	33.45
306.094	82.6
306.308	45.74
306.522	70.31
306.736	21.16
306.95	35.5
307.164	41.64
307.379	86.7
307.593	111.27
307.807	60.07
308.021	146.09
308.235	68.27
308.449	21.16
308.663	37.55
308.877	78.51
309.091	2.73
309.305	70.31
309.519	41.64
309.733	92.84
309.947	4.78
310.161	62.12
310.374	66.22
310.588	94.89
310.802	21.16
311.016	86.7
311.23	94.89
311.444	37.55
311.658	45.74
311.872	101.03
312.085	160.42
312.299	66.22
312.513	17.07
312.727	82.6
312.941	64.17
313.154	6.83
313.368	119.46
313.582	43.69
313.796	-15.7
314.009	-30.04
314.223	62.12
314.437	19.11
314.651	39.59
314.864	37.55
315.078	-36.18
315.292	76.46
315.505	-3.41
315.719	15.02
315.933	66.22
316.146	-27.99
316.36	31.4
316.573	8.87
316.787	49.83
317.001	-5.46
317.214	51.88
317.428	37.55
317.641	17.07
317.855	27.31
318.068	47.79
318.282	68.27
318.495	49.83
318.709	53.93
318.922	47.79
319.136	80.55
319.349	70.31
319.563	49.83
319.776	90.79
319.99	68.27
320.203	84.65
320.417	66.22
320.63	21.16
320.843	72.36
321.057	43.69
321.27	8.87
321.483	66.22
321.697	70.31
321.91	72.36
322.124	103.08
322.337	21.16
322.55	6.83
322.763	96.94
322.977	78.51
323.19	29.35
323.403	68.27
323.617	-40.28
323.83	86.7
324.043	35.5
324.256	51.88
324.469	60.07
324.683	101.03
324.896	60.07
325.109	115.37
325.322	47.79
325.535	62.12
325.748	58.03
325.962	12.97
326.175	23.21
326.388	68.27
326.601	41.64
326.814	-1.37
327.027	8.87
327.24	94.89
327.453	131.75
327.666	29.35
327.879	4.78
328.092	41.64
328.305	62.12
328.518	109.23
328.731	25.26
328.944	33.45
329.157	19.11
329.37	45.74
329.583	88.75
329.796	119.46
330.009	2.73
330.222	6.83
330.435	58.03
330.648	86.7
330.861	0.68
331.073	-17.75
331.286	70.31
331.499	-23.89
331.712	103.08
331.925	68.27
332.138	45.74
332.35	84.65
332.563	60.07
332.776	92.84
332.989	25.26
333.202	-34.13
333.414	111.27
333.627	72.36
333.84	29.35
334.053	66.22
334.265	31.4
334.478	2.73
334.691	53.93
334.903	96.94
335.116	53.93
335.329	60.07
335.541	68.27
335.754	103.08
335.966	86.7
336.179	58.03
336.392	60.07
336.604	12.97
336.817	68.27
337.029	80.55
337.242	47.79
337.454	66.22
337.667	74.41
337.88	82.6
338.092	49.83
338.305	109.23
338.517	70.31
338.729	45.74
338.942	109.23
339.154	103.08
339.367	15.02
339.579	92.84
339.792	74.41
340.004	123.56
340.217	29.35
340.429	47.79
340.641	45.74
340.854	94.89
341.066	53.93
341.278	49.83
341.491	53.93
341.703	45.74
341.915	58.03
342.128	37.55
342.34	98.99
342.552	8.87
342.764	25.26
342.977	45.74
343.189	41.64
343.401	17.07
343.613	39.59
343.826	41.64
344.038	98.99
344.25	21.16
344.462	53.93
344.674	53.93
344.886	113.32
345.099	111.27
345.311	94.89
345.523	41.64
345.735	-42.32
345.947	80.55
346.159	35.5
346.371	-7.51
346.583	21.16
346.795	111.27
347.007	86.7
347.219	72.36
347.431	33.45
347.643	60.07
347.855	12.97
348.067	70.31
348.279	21.16
348.491	-11.61
348.703	125.61
348.915	86.7
349.127	-27.99
349.339	58.03
349.551	84.65
349.763	12.97
349.975	86.7
350.187	86.7
350.399	47.79
350.61	74.41
350.822	6.83
351.034	53.93
351.246	86.7
351.458	45.74
351.669	113.32
351.881	90.79
352.093	96.94
352.305	82.6
352.517	62.12
352.728	119.46
352.94	29.35
353.152	90.79
353.363	-23.89
353.575	80.55
353.787	141.99
353.999	60.07
354.21	94.89
354.422	49.83
354.633	39.59
354.845	86.7
355.057	21.16
355.268	76.46
355.48	35.5
355.692	86.7
355.903	4.78
356.115	35.5
356.326	-25.94
356.538	39.59
356.749	137.9
356.961	119.46
357.172	6.83
357.384	29.35
357.595	53.93
357.807	86.7
358.018	70.31
358.23	78.51
358.441	94.89
358.653	68.27
358.864	82.6
359.075	4.78
359.287	70.31
359.498	43.69
359.709	53.93
359.921	135.85
360.132	41.64
360.344	25.26
360.555	27.31
360.766	68.27
360.977	17.07
361.189	121.51
361.4	84.65
361.611	170.66
361.823	107.18
362.034	115.37
362.245	45.74
362.456	88.75
362.667	37.55
362.879	19.11
363.09	2.73
363.301	92.84
363.512	35.5
363.723	70.31
363.935	37.55
364.146	58.03
364.357	39.59
364.568	41.64
364.779	41.64
364.99	129.7
365.201	51.88
365.412	29.35
365.623	19.11
365.834	64.17
366.045	29.35
366.256	0.68
366.467	58.03
366.678	12.97
366.889	103.08
367.1	51.88
367.311	105.13
367.522	60.07
367.733	133.8
367.944	96.94
368.155	70.31
368.366	123.56
368.577	92.84
368.788	70.31
368.999	-13.65
369.209	35.5
369.42	62.12
369.631	80.55
369.842	51.88
370.053	76.46
370.264	41.64
370.474	37.55
370.685	39.59
370.896	55.98
371.107	47.79
371.317	96.94
371.528	19.11
371.739	78.51
371.95	94.89
372.16	113.32
372.371	31.4
372.582	64.17
372.792	66.22
373.003	109.23
373.214	74.41
373.424	144.04
373.635	92.84
373.846	45.74
374.056	25.26
374.267	125.61
374.477	27.31
374.688	96.94
374.898	60.07
375.109	58.03
375.319	25.26
375.53	111.27
375.74	68.27
375.951	8.87
376.161	49.83
376.372	80.55
376.582	98.99
376.793	107.18
377.003	35.5
377.214	4.78
377.424	33.45
377.635	111.27
377.845	62.12
378.055	78.51
378.266	4.78
378.476	45.74
378.686	105.13
378.897	47.79
379.107	53.93
379.317	60.07
379.528	2.73
379.738	139.94
379.948	33.45
380.158	78.51
380.369	105.13
380.579	135.85
380.789	117.42
380.999	88.75
381.21	160.42
381.42	148.14
381.63	29.35
381.84	107.18
382.05	105.13
382.261	62.12
382.471	166.57
382.681	98.99
382.891	82.6
383.101	21.16
383.311	68.27
383.521	37.55
383.731	49.83
383.941	127.66
384.151	37.55
384.361	82.6
384.571	86.7
384.781	125.61
384.991	127.66
385.201	70.31
385.411	156.33
385.621	76.46
385.831	94.89
386.041	98.99
386.251	152.23
386.461	82.6
386.671	115.37
386.881	51.88
387.091	152.23
387.301	94.89
387.511	51.88
387.72	111.27
387.93	45.74
388.14	21.16
388.35	58.03
388.56	-11.61
388.769	125.61
388.979	27.31
389.189	107.18
389.399	68.27
389.609	92.84
389.818	148.14
390.028	154.28
390.238	117.42
390.447	86.7
390.657	111.27
390.867	62.12
391.076	53.93
391.286	86.7
391.496	29.35
391.705	12.97
391.915	119.46
392.125	76.46
392.334	51.88
392.544	92.84
392.753	86.7
392.963	107.18
393.172	105.13
393.382	86.7
393.591	141.99
393.801	19.11
394.01	123.56
394.22	66.22
394.429	43.69
394.639	58.03
394.848	127.66
395.058	86.7
395.267	35.5
395.477	101.03
395.686	90.79
395.895	205.48
396.105	193.19
396.314	162.47
396.524	111.27
396.733	78.51
396.942	78.51
397.152	131.75
397.361	152.23
397.57	84.65
397.78	72.36
397.989	150.18
398.198	217.77
398.407	168.62
398.617	174.76
398.826	92.84
399.035	86.7
399.244	141.99
399.453	127.66
399.663	107.18
399.872	189.1
400.081	146.09
400.29	133.8
400.499	111.27
400.708	125.61
400.917	62.12
401.127	105.13
401.336	123.56
401.545	205.48
401.754	162.47
401.963	154.28
402.172	78.51
402.381	189.1
402.59	164.52
402.799	148.14
403.008	201.38
403.217	174.76
403.426	219.82
403.635	139.94
403.844	62.12
404.053	174.76
404.262	168.62
404.471	225.96
404.68	115.37
404.888	195.24
405.097	123.56
405.306	168.62
405.515	201.38
405.724	232.1
405.933	201.38
406.142	141.99
406.35	178.86
406.559	197.29
406.768	258.73
406.977	262.82
407.185	246.44
407.394	232.1
407.603	215.72
407.812	205.48
408.02	277.16
408.229	332.45
408.438	283.3
408.646	273.06
408.855	262.82
409.064	311.97
409.272	291.49
409.481	397.99
409.69	348.84
409.898	328.36
410.107	414.37
410.315	326.31
410.524	363.17
410.733	365.22
410.941	375.46
411.15	500.39
411.358	379.56
411.567	512.67
411.775	447.14
411.984	498.34
412.192	471.72
412.401	533.15
412.609	473.76
412.818	594.59
413.026	623.27
413.234	508.58
413.443	522.91
413.651	617.12
413.86	633.51
414.068	740
414.276	670.37
414.485	696.99
414.693	662.18
414.901	776.86
415.11	764.58
415.318	778.91
415.526	746.14
415.734	877.21
415.943	942.75
416.151	967.32
416.359	907.93
416.567	1030.81
416.776	1069.72
416.984	1061.53
417.192	1141.4
417.4	1069.72
417.608	1147.55
417.817	1149.59
418.025	1233.56
418.233	1278.62
418.441	1192.6
418.649	1356.44
418.857	1421.97
419.065	1434.26
419.273	1346.2
419.481	1473.17
419.689	1608.34
419.897	1659.54
420.105	1718.93
420.313	1794.7
420.521	1700.5
420.729	1759.89
420.937	1841.81
421.145	1778.32
421.353	2087.56
421.561	2062.99
421.769	2108.04
421.977	2261.64
422.185	2269.83
422.393	2290.31
422.601	2523.78
422.809	2515.59
423.017	2544.26
423.224	2542.21
423.432	2652.8
423.64	2732.67
423.848	2937.47
424.056	2957.95
424.263	3166.84
424.471	3179.13
424.679	3168.89
424.887	3377.78
425.094	3408.5
425.302	3545.72
425.51	3678.83
425.718	3721.84
425.925	3805.81
426.133	3949.17
426.341	4039.28
426.548	4233.83
426.756	4194.92
426.964	4194.92
427.171	4555.37
427.379	4483.69
427.586	4678.24
427.794	4973.15
428.001	5169.76
428.209	5425.75
428.417	5223
428.624	5601.88
428.832	5571.16
429.039	5640.79
429.247	5798.48
429.454	6040.14
429.662	6619.72
429.869	6167.12
430.076	6556.23
430.284	6402.63
430.491	6576.71
430.699	6974.02
430.906	7014.98
431.114	6992.45
431.321	7367.23
431.528	7547.45
431.736	8139.31
431.943	8292.91
432.15	8270.38
432.358	8364.59
432.565	8604.2
432.772	8454.7
432.979	9120.29
433.187	9155.1
433.394	9296.41
433.601	9810.45
433.808	9968.15
434.016	9816.6
434.223	10224.14
434.43	11051.52
434.637	10707.46
434.844	11278.85
435.052	11528.7
435.259	11295.23
435.466	11624.95
435.673	11446.78
435.88	11952.63
436.087	12769.77
436.294	12888.55
436.501	12614.12
436.708	12794.34
436.915	13138.4
437.122	13609.43
437.329	13627.87
437.537	14369.23
437.743	14397.9
437.95	14150.1
438.157	15178.18
438.364	15360.45
438.571	15462.85
438.778	15595.96
438.985	17000.87
439.192	16409.01
439.399	16943.53
439.606	16609.71
439.813	17267.11
440.02	18405.78
440.227	18090.39
440.433	17936.79
440.64	18610.57
440.847	18385.3
441.054	18817.42
441.261	19970.43
441.467	20228.47
441.674	20373.88
441.881	20853.1
442.088	21094.76
442.294	20762.99
442.501	21207.4
442.708	21684.58
442.914	22485.33
443.121	23634.24
443.328	22913.36
443.534	24432.95
443.741	23505.22
443.948	23423.3
444.154	25413.93
444.361	24901.93
444.568	25102.64
444.774	25098.54
444.981	25588
445.187	26446.1
445.394	27269.39
445.6	26958.1
445.807	29378.79
446.013	28096.77
446.22	28842.23
446.426	29688.04
446.633	29939.94
446.839	31027.41
447.046	29706.47
447.252	31482.06
447.459	31574.22
447.665	31342.8
447.871	32741.56
448.078	33855.65
448.284	32196.8
448.491	32927.92
448.697	34175.14
448.903	34998.42
449.11	34834.58
449.316	34199.71
449.522	35172.5
449.728	36032.64
449.935	36167.81
450.141	36141.19
450.347	36851.83
450.553	35819.66
450.76	36411.52
450.966	37519.47
451.172	36903.03
451.378	38000.74
451.584	37001.33
451.791	38174.82
451.997	37740.65
452.203	38238.31
452.409	38213.73
452.615	38043.75
452.821	36413.57
453.027	36311.17
453.233	38154.34
453.44	36583.55
453.646	36819.06
453.852	37445.74
454.058	37687.4
454.264	36585.6
454.47	37247.09
454.676	36194.43
454.882	37331.06
455.088	34261.15
455.294	34556.06
455.5	35258.51
455.705	35377.29
455.911	34058.4
456.117	33638.57
456.323	33056.95
456.529	31324.36
456.735	32223.42
456.941	32032.96
457.147	31135.95
457.352	30036.19
457.558	29690.09
457.764	29739.24
457.97	29368.55
458.176	28512.5
458.381	28821.75
458.587	26947.86
458.793	27275.53
458.999	25950.49
459.204	27883.78
459.41	26970.38
459.616	25139.5
459.821	25268.52
460.027	24682.8
460.233	24457.53
460.438	23329.09
460.644	23501.12
460.85	22565.2
461.055	22292.82
461.261	22137.18
461.466	20552.05
461.672	19825.02
461.878	21604.7
462.083	19919.23
462.289	19812.73
462.494	19360.13
462.7	18665.87
462.905	17920.41
463.111	18667.92
463.316	18717.07
463.522	18295.19
463.727	18649.49
463.932	18338.19
464.138	18321.81
464.343	18532.75
464.549	17785.24
464.754	18332.05
464.959	18110.87
465.165	18016.66
465.37	17267.11
465.575	16814.51
465.781	17424.8
465.986	17559.97
466.191	16984.49
466.397	16705.96
466.602	15944.12
466.807	16255.41
467.012	16492.97
467.218	16368.05
