Data from USB4F104151__98__10-24-40-088.txt Node

Date: Wed Mar 12 10:24:40 EDT 2025
User: louis
Spectrometer: USB4F10415
Trigger mode: 4
Integration Time (sec): 3.000000E-2
Scans to average: 1
Electric dark correction enabled: true
Nonlinearity correction enabled: false
Boxcar width: 0
XAxis mode: Wavelengths
Number of Pixels in Spectrum: 3648
>>>>>Begin Spectral Data<<<<<
178.204	-93.87
178.424	-93.87
178.644	-93.87
178.864	-106.15
179.084	-151.21
179.304	-52.91
179.524	-18.09
179.744	-20.14
179.964	18.77
180.184	35.16
180.404	-34.47
180.624	35.16
180.844	14.68
181.064	65.88
181.283	-42.67
181.503	0.34
181.723	-1.71
181.943	0.34
182.163	153.94
182.383	8.53
182.602	80.21
182.822	51.54
183.042	67.92
183.262	94.55
183.482	33.11
183.701	0.34
183.921	14.68
184.141	24.92
184.361	121.17
184.58	41.3
184.8	86.36
185.02	6.49
185.239	98.64
185.459	-16.04
185.679	112.98
185.898	10.58
186.118	37.2
186.338	72.02
186.557	59.73
186.777	20.82
186.997	53.59
187.216	63.83
187.436	123.22
187.655	49.49
187.875	72.02
188.095	22.87
188.314	112.98
188.534	18.77
188.753	-16.04
188.973	88.4
189.192	94.55
189.412	51.54
189.631	96.6
189.851	16.73
190.07	24.92
190.29	-22.19
190.509	51.54
190.729	51.54
190.948	104.79
191.168	49.49
191.387	100.69
191.607	-5.8
191.826	59.73
192.045	45.4
192.265	-40.62
192.484	51.54
192.704	43.35
192.923	39.25
193.142	69.97
193.362	74.07
193.581	18.77
193.8	72.02
194.02	10.58
194.239	51.54
194.458	24.92
194.678	10.58
194.897	45.4
195.116	94.55
195.335	26.96
195.555	43.35
195.774	33.11
195.993	49.49
196.212	-26.28
196.432	33.11
196.651	4.44
196.87	-3.75
197.089	74.07
197.308	72.02
197.528	67.92
197.747	-5.8
197.966	88.4
198.185	78.16
198.404	22.87
198.623	10.58
198.842	45.4
199.062	88.4
199.281	-28.33
199.5	6.49
199.719	51.54
199.938	39.25
200.157	39.25
200.376	41.3
200.595	76.12
200.814	-16.04
201.033	72.02
201.252	74.07
201.471	45.4
201.69	-7.85
201.909	69.97
202.128	29.01
202.347	90.45
202.566	14.68
202.785	14.68
203.004	10.58
203.223	141.65
203.442	-22.19
203.661	14.68
203.879	51.54
204.098	94.55
204.317	-9.9
204.536	100.69
204.755	51.54
204.974	72.02
205.193	37.2
205.411	82.26
205.63	63.83
205.849	26.96
206.068	20.82
206.287	-7.85
206.505	162.13
206.724	24.92
206.943	76.12
207.162	-34.47
207.381	-9.9
207.599	65.88
207.818	43.35
208.037	78.16
208.255	16.73
208.474	72.02
208.693	72.02
208.911	112.98
209.13	100.69
209.349	-9.9
209.567	31.06
209.786	0.34
210.005	22.87
210.223	59.73
210.442	10.58
210.661	14.68
210.879	76.12
211.098	69.97
211.316	94.55
211.535	0.34
211.753	18.77
211.972	35.16
212.191	59.73
212.409	39.25
212.628	76.12
212.846	26.96
213.065	16.73
213.283	80.21
213.502	51.54
213.72	0.34
213.938	16.73
214.157	31.06
214.375	72.02
214.594	6.49
214.812	16.73
215.031	10.58
215.249	43.35
215.467	8.53
215.686	63.83
215.904	53.59
216.122	35.16
216.341	72.02
216.559	47.44
216.778	92.5
216.996	82.26
217.214	6.49
217.432	10.58
217.651	39.25
217.869	26.96
218.087	53.59
218.306	41.3
218.524	76.12
218.742	-3.75
218.96	63.83
219.179	4.44
219.397	37.2
219.615	76.12
219.833	41.3
220.051	-1.71
220.27	90.45
220.488	90.45
220.706	-30.38
220.924	-26.28
221.142	-18.09
221.36	47.44
221.578	72.02
221.796	108.88
222.015	14.68
222.233	63.83
222.451	82.26
222.669	18.77
222.887	72.02
223.105	14.68
223.323	29.01
223.541	31.06
223.759	47.44
223.977	10.58
224.195	8.53
224.413	82.26
224.631	90.45
224.849	51.54
225.067	72.02
225.285	41.3
225.503	47.44
225.721	-20.14
225.939	51.54
226.157	39.25
226.375	102.74
226.592	51.54
226.81	47.44
227.028	115.03
227.246	61.78
227.464	-20.14
227.682	80.21
227.9	61.78
228.117	98.64
228.335	92.5
228.553	55.64
228.771	10.58
228.989	14.68
229.206	72.02
229.424	26.96
229.642	35.16
229.86	14.68
230.077	72.02
230.295	47.44
230.513	72.02
230.731	29.01
230.948	31.06
231.166	59.73
231.384	35.16
231.601	45.4
231.819	88.4
232.037	-57
232.254	10.58
232.472	57.68
232.689	2.39
232.907	82.26
233.125	55.64
233.342	-1.71
233.56	61.78
233.777	59.73
233.995	18.77
234.213	90.45
234.43	39.25
234.648	0.34
234.865	26.96
235.083	74.07
235.3	2.39
235.518	57.68
235.735	67.92
235.953	43.35
236.17	49.49
236.388	18.77
236.605	49.49
236.822	88.4
237.04	-24.23
237.257	143.7
237.475	10.58
237.692	86.36
237.909	39.25
238.127	24.92
238.344	112.98
238.562	35.16
238.779	-5.8
238.996	72.02
239.214	72.02
239.431	123.22
239.648	8.53
239.865	6.49
240.083	-26.28
240.3	0.34
240.517	12.63
240.735	59.73
240.952	8.53
241.169	65.88
241.386	69.97
241.603	-13.99
241.821	51.54
242.038	102.74
242.255	49.49
242.472	18.77
242.689	22.87
242.907	65.88
243.124	-36.52
243.341	-36.52
243.558	69.97
243.775	-28.33
243.992	0.34
244.209	80.21
244.426	102.74
244.643	84.31
244.86	-52.91
245.078	80.21
245.295	41.3
245.512	84.31
245.729	-9.9
245.946	-32.43
246.163	69.97
246.38	104.79
246.597	31.06
246.814	-13.99
247.031	55.64
247.248	29.01
247.464	18.77
247.681	8.53
247.898	12.63
248.115	67.92
248.332	90.45
248.549	84.31
248.766	84.31
248.983	37.2
249.2	24.92
249.417	35.16
249.633	6.49
249.85	53.59
250.067	37.2
250.284	96.6
250.501	29.01
250.717	4.44
250.934	24.92
251.151	61.78
251.368	72.02
251.585	100.69
251.801	65.88
252.018	39.25
252.235	82.26
252.451	24.92
252.668	53.59
252.885	104.79
253.102	106.84
253.318	-18.09
253.535	45.4
253.752	10.58
253.968	49.49
254.185	18.77
254.401	72.02
254.618	100.69
254.835	22.87
255.051	-3.75
255.268	-1.71
255.484	16.73
255.701	-59.05
255.917	84.31
256.134	37.2
256.351	22.87
256.567	69.97
256.784	33.11
257	57.68
257.217	123.22
257.433	57.68
257.65	0.34
257.866	80.21
258.082	22.87
258.299	67.92
258.515	49.49
258.732	-16.04
258.948	-20.14
259.165	16.73
259.381	-20.14
259.597	-5.8
259.814	61.78
260.03	-1.71
260.246	39.25
260.463	39.25
260.679	61.78
260.895	55.64
261.112	76.12
261.328	16.73
261.544	-5.8
261.761	155.99
261.977	49.49
262.193	4.44
262.409	57.68
262.626	33.11
262.842	-75.43
263.058	-7.85
263.274	69.97
263.49	37.2
263.707	115.03
263.923	18.77
264.139	-38.57
264.355	-16.04
264.571	57.68
264.787	78.16
265.004	84.31
265.22	76.12
265.436	-16.04
265.652	65.88
265.868	92.5
266.084	26.96
266.3	26.96
266.516	16.73
266.732	2.39
266.948	59.73
267.164	29.01
267.38	31.06
267.596	0.34
267.812	112.98
268.028	78.16
268.244	-5.8
268.46	26.96
268.676	47.44
268.892	31.06
269.108	55.64
269.324	39.25
269.54	35.16
269.756	127.32
269.972	59.73
270.188	26.96
270.403	10.58
270.619	119.12
270.835	141.65
271.051	-50.86
271.267	29.01
271.483	8.53
271.698	90.45
271.914	10.58
272.13	31.06
272.346	18.77
272.562	47.44
272.777	112.98
272.993	76.12
273.209	57.68
273.425	-5.8
273.64	129.36
273.856	90.45
274.072	78.16
274.287	-73.39
274.503	102.74
274.719	96.6
274.934	61.78
275.15	86.36
275.366	63.83
275.581	78.16
275.797	74.07
276.012	-24.23
276.228	78.16
276.444	18.77
276.659	24.92
276.875	22.87
277.09	10.58
277.306	63.83
277.521	57.68
277.737	-9.9
277.952	88.4
278.168	82.26
278.383	31.06
278.599	47.44
278.814	16.73
279.03	4.44
279.245	100.69
279.461	29.01
279.676	117.08
279.892	55.64
280.107	-18.09
280.322	35.16
280.538	57.68
280.753	72.02
280.969	74.07
281.184	43.35
281.399	139.6
281.615	2.39
281.83	39.25
282.045	-26.28
282.26	51.54
282.476	72.02
282.691	143.7
282.906	16.73
283.122	31.06
283.337	26.96
283.552	82.26
283.767	26.96
283.983	112.98
284.198	22.87
284.413	92.5
284.628	-1.71
284.843	26.96
285.058	133.46
285.274	115.03
285.489	16.73
285.704	57.68
285.919	6.49
286.134	86.36
286.349	39.25
286.564	92.5
286.779	37.2
286.995	29.01
287.21	31.06
287.425	59.73
287.64	33.11
287.855	39.25
288.07	0.34
288.285	26.96
288.5	84.31
288.715	37.2
288.93	-30.38
289.145	33.11
289.36	26.96
289.575	18.77
289.79	47.44
290.004	41.3
290.219	39.25
290.434	112.98
290.649	0.34
290.864	57.68
291.079	14.68
291.294	10.58
291.509	-20.14
291.724	26.96
291.938	-16.04
292.153	82.26
292.368	98.64
292.583	39.25
292.798	119.12
293.012	18.77
293.227	35.16
293.442	-9.9
293.657	4.44
293.871	123.22
294.086	-26.28
294.301	137.56
294.516	88.4
294.73	39.25
294.945	35.16
295.16	-24.23
295.374	6.49
295.589	90.45
295.804	37.2
296.018	33.11
296.233	98.64
296.447	47.44
296.662	22.87
296.877	78.16
297.091	94.55
297.306	53.59
297.52	14.68
297.735	31.06
297.949	2.39
298.164	76.12
298.378	39.25
298.593	4.44
298.807	37.2
299.022	37.2
299.236	24.92
299.451	43.35
299.665	100.69
299.88	108.88
300.094	84.31
300.309	98.64
300.523	55.64
300.737	41.3
300.952	24.92
301.166	-13.99
301.381	8.53
301.595	80.21
301.809	6.49
302.024	35.16
302.238	41.3
302.452	84.31
302.667	6.49
302.881	100.69
303.095	112.98
303.309	88.4
303.524	39.25
303.738	37.2
303.952	49.49
304.166	92.5
304.381	14.68
304.595	155.99
304.809	4.44
305.023	135.51
305.237	16.73
305.452	82.26
305.666	37.2
305.88	141.65
306.094	35.16
306.308	80.21
306.522	37.2
306.736	61.78
306.95	51.54
307.164	33.11
307.379	22.87
307.593	65.88
307.807	108.88
308.021	43.35
308.235	31.06
308.449	-5.8
308.663	-16.04
308.877	102.74
309.091	51.54
309.305	24.92
309.519	-24.23
309.733	41.3
309.947	72.02
310.161	55.64
310.374	22.87
310.588	10.58
310.802	51.54
311.016	-3.75
311.23	31.06
311.444	57.68
311.658	-11.95
311.872	-38.57
312.085	123.22
312.299	78.16
312.513	100.69
312.727	2.39
312.941	18.77
313.154	51.54
313.368	-13.99
313.582	24.92
313.796	47.44
314.009	35.16
314.223	55.64
314.437	24.92
314.651	63.83
314.864	67.92
315.078	39.25
315.292	20.82
315.505	2.39
315.719	10.58
315.933	55.64
316.146	18.77
316.36	33.11
316.573	6.49
316.787	49.49
317.001	88.4
317.214	-73.39
317.428	96.6
317.641	-48.81
317.855	26.96
318.068	10.58
318.282	100.69
318.495	102.74
318.709	8.53
318.922	-7.85
319.136	72.02
319.349	39.25
319.563	80.21
319.776	39.25
319.99	49.49
320.203	-34.47
320.417	76.12
320.63	-9.9
320.843	135.51
321.057	4.44
321.27	39.25
321.483	82.26
321.697	125.27
321.91	67.92
322.124	69.97
322.337	53.59
322.55	24.92
322.763	53.59
322.977	12.63
323.19	26.96
323.403	-50.86
323.617	84.31
323.83	47.44
324.043	2.39
324.256	29.01
324.469	102.74
324.683	57.68
324.896	61.78
325.109	74.07
325.322	18.77
325.535	63.83
325.748	92.5
325.962	72.02
326.175	69.97
326.388	55.64
326.601	76.12
326.814	69.97
327.027	51.54
327.24	20.82
327.453	6.49
327.666	49.49
327.879	76.12
328.092	8.53
328.305	-20.14
328.518	16.73
328.731	24.92
328.944	65.88
329.157	24.92
329.37	-9.9
329.583	59.73
329.796	84.31
330.009	-46.76
330.222	26.96
330.435	12.63
330.648	45.4
330.861	67.92
331.073	94.55
331.286	31.06
331.499	20.82
331.712	2.39
331.925	57.68
332.138	8.53
332.35	-13.99
332.563	2.39
332.776	135.51
332.989	55.64
333.202	12.63
333.414	-5.8
333.627	-3.75
333.84	24.92
334.053	37.2
334.265	55.64
334.478	63.83
334.691	10.58
334.903	110.93
335.116	35.16
335.329	39.25
335.541	26.96
335.754	121.17
335.966	92.5
336.179	96.6
336.392	31.06
336.604	104.79
336.817	108.88
337.029	49.49
337.242	16.73
337.454	57.68
337.667	-32.43
337.88	121.17
338.092	55.64
338.305	129.36
338.517	47.44
338.729	125.27
338.942	65.88
339.154	57.68
339.367	51.54
339.579	31.06
339.792	117.08
340.004	131.41
340.217	31.06
340.429	18.77
340.641	4.44
340.854	76.12
341.066	10.58
341.278	20.82
341.491	74.07
341.703	31.06
341.915	49.49
342.128	63.83
342.34	8.53
342.552	14.68
342.764	55.64
342.977	12.63
343.189	-1.71
343.401	98.64
343.613	45.4
343.826	59.73
344.038	31.06
344.25	39.25
344.462	-40.62
344.674	-46.76
344.886	76.12
345.099	51.54
345.311	41.3
345.523	65.88
345.735	55.64
345.947	43.35
346.159	82.26
346.371	63.83
346.583	20.82
346.795	123.22
347.007	43.35
347.219	16.73
347.431	-11.95
347.643	72.02
347.855	100.69
348.067	-5.8
348.279	139.6
348.491	121.17
348.703	59.73
348.915	51.54
349.127	-13.99
349.339	84.31
349.551	98.64
349.763	4.44
349.975	49.49
350.187	110.93
350.399	119.12
350.61	102.74
350.822	139.6
351.034	72.02
351.246	117.08
351.458	47.44
351.669	-5.8
351.881	82.26
352.093	59.73
352.305	98.64
352.517	37.2
352.728	145.75
352.94	24.92
353.152	74.07
353.363	35.16
353.575	72.02
353.787	69.97
353.999	72.02
354.21	35.16
354.422	37.2
354.633	72.02
354.845	78.16
355.057	6.49
355.268	39.25
355.48	86.36
355.692	88.4
355.903	90.45
356.115	22.87
356.326	-50.86
356.538	6.49
356.749	29.01
356.961	57.68
357.172	63.83
357.384	53.59
357.595	104.79
357.807	115.03
358.018	84.31
358.23	65.88
358.441	26.96
358.653	92.5
358.864	84.31
359.075	16.73
359.287	90.45
359.498	57.68
359.709	53.59
359.921	59.73
360.132	10.58
360.344	100.69
360.555	-1.71
360.766	74.07
360.977	47.44
361.189	41.3
361.4	18.77
361.611	121.17
361.823	131.41
362.034	133.46
362.245	16.73
362.456	53.59
362.667	166.23
362.879	76.12
363.09	37.2
363.301	-3.75
363.512	74.07
363.723	98.64
363.935	26.96
364.146	26.96
364.357	45.4
364.568	100.69
364.779	26.96
364.99	78.16
365.201	35.16
365.412	57.68
365.623	20.82
365.834	65.88
366.045	94.55
366.256	121.17
366.467	39.25
366.678	127.32
366.889	90.45
367.1	31.06
367.311	53.59
367.522	90.45
367.733	18.77
367.944	35.16
368.155	80.21
368.366	88.4
368.577	39.25
368.788	102.74
368.999	57.68
369.209	37.2
369.42	67.92
369.631	108.88
369.842	59.73
370.053	18.77
370.264	16.73
370.474	104.79
370.685	35.16
370.896	80.21
371.107	104.79
371.317	12.63
371.528	35.16
371.739	84.31
371.95	63.83
372.16	100.69
372.371	-30.38
372.582	37.2
372.792	78.16
373.003	63.83
373.214	104.79
373.424	123.22
373.635	35.16
373.846	72.02
374.056	45.4
374.267	-9.9
374.477	29.01
374.688	92.5
374.898	67.92
375.109	100.69
375.319	47.44
375.53	100.69
375.74	-5.8
375.951	143.7
376.161	37.2
376.372	100.69
376.582	24.92
376.793	100.69
377.003	78.16
377.214	80.21
377.424	18.77
377.635	39.25
377.845	20.82
378.055	92.5
378.266	106.84
378.476	41.3
378.686	41.3
378.897	112.98
379.107	47.44
379.317	72.02
379.528	67.92
379.738	147.8
379.948	63.83
380.158	35.16
380.369	55.64
380.579	10.58
380.789	76.12
380.999	84.31
381.21	92.5
381.42	129.36
381.63	18.77
381.84	-38.57
382.05	43.35
382.261	51.54
382.471	57.68
382.681	84.31
382.891	133.46
383.101	90.45
383.311	53.59
383.521	104.79
383.731	49.49
383.941	39.25
384.151	20.82
384.361	82.26
384.571	63.83
384.781	33.11
384.991	88.4
385.201	115.03
385.411	39.25
385.621	26.96
385.831	92.5
386.041	69.97
386.251	153.94
386.461	94.55
386.671	51.54
386.881	4.44
387.091	41.3
387.301	39.25
387.511	61.78
387.72	31.06
387.93	43.35
388.14	51.54
388.35	47.44
388.56	67.92
388.769	102.74
388.979	98.64
389.189	-9.9
389.399	88.4
389.609	102.74
389.818	137.56
390.028	39.25
390.238	63.83
390.447	61.78
390.657	51.54
390.867	145.75
391.076	176.47
391.286	65.88
391.496	104.79
391.705	86.36
391.915	55.64
392.125	141.65
392.334	22.87
392.544	133.46
392.753	69.97
392.963	94.55
393.172	74.07
393.382	65.88
393.591	168.27
393.801	33.11
394.01	80.21
394.22	141.65
394.429	104.79
394.639	74.07
394.848	94.55
395.058	10.58
395.267	18.77
395.477	104.79
395.686	86.36
395.895	110.93
396.105	155.99
396.314	94.55
396.524	100.69
396.733	149.84
396.942	67.92
397.152	135.51
397.361	88.4
397.57	0.34
397.78	166.23
397.989	94.55
398.198	139.6
398.407	121.17
398.617	147.8
398.826	102.74
399.035	198.99
399.244	182.61
399.453	106.84
399.663	108.88
399.872	63.83
400.081	55.64
400.29	188.75
400.499	88.4
400.708	110.93
400.917	80.21
401.127	69.97
401.336	55.64
401.545	188.75
401.754	63.83
401.963	98.64
402.172	153.94
402.381	172.37
402.59	180.56
402.799	108.88
403.008	188.75
403.217	203.09
403.426	94.55
403.635	135.51
403.844	145.75
404.053	84.31
404.262	196.95
404.471	242
404.68	153.94
404.888	166.23
405.097	112.98
405.306	194.9
405.515	176.47
405.724	100.69
405.933	190.8
406.142	219.47
406.35	198.99
406.559	149.84
406.768	180.56
406.977	203.09
407.185	217.43
407.394	190.8
407.603	227.67
407.812	285.01
408.02	231.76
408.229	256.34
408.438	285.01
408.646	264.53
408.855	248.15
409.064	293.2
409.272	205.14
409.481	321.87
409.69	371.02
409.898	360.78
410.107	289.1
410.315	305.49
410.524	285.01
410.733	366.93
410.941	248.15
411.15	493.9
411.358	325.97
411.567	465.23
411.775	436.56
411.984	418.13
412.192	467.28
412.401	446.8
412.609	506.19
412.818	428.37
413.026	510.29
413.234	604.49
413.443	545.1
413.651	616.78
413.86	557.39
414.068	635.21
414.276	655.69
414.485	741.71
414.693	672.08
414.901	731.47
415.11	794.95
415.318	729.42
415.526	725.32
415.734	756.04
415.943	821.58
416.151	911.69
416.359	856.39
416.567	831.82
416.776	952.65
416.984	1055.05
417.192	1100.1
417.4	1014.09
417.608	1085.76
417.817	1067.33
418.025	1186.12
418.233	1151.3
418.441	1149.25
418.649	1210.69
418.857	1343.81
419.065	1380.67
419.273	1315.14
419.481	1442.11
419.689	1468.73
419.897	1601.85
420.105	1681.72
420.313	1620.28
420.521	1702.2
420.729	1728.83
420.937	1722.68
421.145	1880.38
421.353	1917.24
421.561	1898.81
421.769	2056.5
421.977	2119.99
422.185	2076.98
422.393	2179.38
422.601	2414.9
422.809	2382.13
423.017	2296.11
423.224	2410.8
423.432	2668.84
423.64	2605.36
423.848	2844.97
424.056	2758.96
424.263	2984.23
424.471	2896.17
424.679	2920.74
424.887	3148.07
425.094	3164.45
425.302	3154.21
425.51	3410.21
425.718	3434.78
425.925	3512.61
426.133	3647.77
426.341	3967.26
426.548	4016.41
426.756	4098.33
426.964	4083.99
427.171	4542.74
427.379	4415.76
427.586	4559.12
427.794	4772.11
428.001	4878.6
428.209	5030.15
428.417	4999.43
428.624	5300.48
428.832	5138.69
429.039	5228.81
429.247	5241.09
429.454	5728.51
429.662	6043.9
429.869	5626.11
430.076	6215.93
430.284	5816.57
430.491	6260.98
430.699	6650.1
430.906	6521.07
431.114	6572.27
431.321	7020.78
431.528	6881.52
431.736	7457
431.943	7786.72
432.15	7565.54
432.358	7817.44
432.565	7973.08
432.772	8360.15
432.979	8618.19
433.187	8562.9
433.394	8605.91
433.601	9412.81
433.808	9439.43
434.016	9263.3
434.223	9865.41
434.43	10166.46
434.637	9818.3
434.844	10565.81
435.052	10895.54
435.259	10754.23
435.466	10807.47
435.673	10668.21
435.88	11436.2
436.087	12142.75
436.294	12107.93
436.501	11663.52
436.708	12036.25
436.915	12404.89
437.122	13021.33
437.329	12841.11
437.537	13240.46
437.743	13381.77
437.95	13568.13
438.157	13981.82
438.364	14547.06
438.571	14612.6
438.778	14661.75
438.985	16027.74
439.192	15581.29
439.399	15923.3
439.606	15401.07
439.813	16220.25
440.02	17537.1
440.227	16994.39
440.433	16810.07
440.64	17606.73
440.847	17444.94
441.054	17870.92
441.261	18876.47
441.467	18481.21
441.674	19111.99
441.881	19595.31
442.088	19617.83
442.294	19666.99
442.501	19865.64
442.708	20647.96
442.914	21303.31
443.121	21925.89
443.328	21508.11
443.534	23007.22
443.741	22290.43
443.948	22185.99
444.154	23705.58
444.361	23539.69
444.568	23535.6
444.774	23670.76
444.981	23902.18
445.187	24526.82
445.394	25618.38
445.6	25241.56
445.807	27682.73
446.013	26238.92
446.22	26793.92
446.426	27946.92
446.633	28491.68
446.839	29044.63
447.046	28116.9
447.252	29585.3
447.459	29183.9
447.665	28921.76
447.871	30633.86
448.078	31711.09
448.284	30476.16
448.491	31283.06
448.697	32294.76
448.903	32831.33
449.11	33298.27
449.316	32692.07
449.522	33054.56
449.728	34000.72
449.935	34240.33
450.141	33980.24
450.347	34764.61
450.553	33560.41
450.76	34185.04
450.966	35309.37
451.172	34639.68
451.378	35505.98
451.584	34920.26
451.791	35503.93
451.997	35258.17
452.203	36212.52
452.409	36052.78
452.615	36202.28
452.821	34639.68
453.027	33908.56
453.233	35794.74
453.44	34506.57
453.646	34457.42
453.852	34731.84
454.058	35557.17
454.264	34217.8
454.47	34555.72
454.676	34094.93
454.882	35114.81
455.088	32120.68
455.294	32454.5
455.5	33136.48
455.705	33525.59
455.911	31862.64
456.117	31258.49
456.323	31111.03
456.529	29253.53
456.735	30590.85
456.941	29714.32
457.147	29054.87
457.352	28174.25
457.558	27584.43
457.764	28155.82
457.97	27520.95
458.176	26824.64
458.381	26855.36
458.587	25470.93
458.793	25573.33
458.999	24238.05
459.204	25921.48
459.41	25505.74
459.616	23744.49
459.821	23406.58
460.027	23504.88
460.233	22923.26
460.438	21970.95
460.644	22513.66
460.85	21172.24
461.055	20949.01
461.261	20848.66
461.466	19208.24
461.672	18686.01
461.878	19892.26
462.083	18745.4
462.289	18233.41
462.494	17920.07
462.7	17576.01
462.905	16881.75
463.111	17700.94
463.316	17399.88
463.522	17143.89
463.727	17258.57
463.932	17078.35
464.138	16937.04
464.343	17201.23
464.549	16470.11
464.754	17489.99
464.959	17147.98
465.165	16822.36
465.37	16296.03
465.575	15538.28
465.781	16470.11
465.986	16433.24
466.191	15818.85
466.397	15646.82
466.602	14841.97
466.807	15265.9
467.012	15609.96
467.218	15517.8
467.423	15009.9
467.628	15259.76
