Data from USB4F104151__202__10-29-35-496.txt Node

Date: Wed Mar 12 10:29:35 EDT 2025
User: louis
Spectrometer: USB4F10415
Trigger mode: 4
Integration Time (sec): 3.000000E-2
Scans to average: 1
Electric dark correction enabled: true
Nonlinearity correction enabled: false
Boxcar width: 0
XAxis mode: Wavelengths
Number of Pixels in Spectrum: 3648
>>>>>Begin Spectral Data<<<<<
178.204	-57.17
178.424	-57.17
178.644	-57.17
178.864	-139.09
179.084	-106.32
179.304	26.79
179.524	63.66
179.744	37.03
179.964	-59.22
180.184	-1.88
180.404	14.51
180.624	-38.74
180.844	53.42
181.064	-18.26
181.283	-24.4
181.503	-22.36
181.723	-30.55
181.943	-44.88
182.163	16.55
182.383	18.6
182.602	43.18
182.822	26.79
183.042	61.61
183.262	-71.51
183.482	-53.08
183.701	-10.07
183.921	24.75
184.141	-22.36
184.361	121
184.58	12.46
184.8	-26.45
185.02	-18.26
185.239	45.23
185.459	-14.17
185.679	2.22
185.898	0.17
186.118	24.75
186.338	34.99
186.557	-32.6
186.777	-30.55
186.997	-91.99
187.216	-67.41
187.436	-30.55
187.655	65.71
187.875	75.95
188.095	-34.64
188.314	41.13
188.534	-5.97
188.753	-18.26
188.973	47.27
189.192	88.23
189.412	-34.64
189.631	-18.26
189.851	-57.17
190.07	-24.4
190.29	-57.17
190.509	0.17
190.729	39.08
190.948	94.38
191.168	98.47
191.387	59.56
191.607	16.55
191.826	-22.36
192.045	-1.88
192.265	-12.12
192.484	-16.21
192.704	84.14
192.923	10.41
193.142	57.51
193.362	16.55
193.581	-5.97
193.8	-1.88
194.02	-26.45
194.239	37.03
194.458	14.51
194.678	14.51
194.897	-1.88
195.116	-18.26
195.335	51.37
195.555	-5.97
195.774	34.99
195.993	53.42
196.212	10.41
196.432	-69.46
196.651	28.84
196.87	-10.07
197.089	39.08
197.308	-18.26
197.528	32.94
197.747	-32.6
197.966	37.03
198.185	-34.64
198.404	34.99
198.623	6.31
198.842	92.33
199.062	63.66
199.281	82.09
199.5	-59.22
199.719	28.84
199.938	6.31
200.157	2.22
200.376	-51.03
200.595	22.7
200.814	10.41
201.033	18.6
201.252	57.51
201.471	-32.6
201.69	16.55
201.909	-8.02
202.128	6.31
202.347	-1.88
202.566	-16.21
202.785	-8.02
203.004	24.75
203.223	63.66
203.442	0.17
203.661	57.51
203.879	41.13
204.098	-34.64
204.317	-1.88
204.536	71.85
204.755	-24.4
204.974	18.6
205.193	-20.31
205.411	110.76
205.63	32.94
205.849	-10.07
206.068	-79.7
206.287	14.51
206.505	80.04
206.724	10.41
206.943	-16.21
207.162	16.55
207.381	-40.79
207.599	-5.97
207.818	-34.64
208.037	-20.31
208.255	8.36
208.474	20.65
208.693	14.51
208.911	-51.03
209.13	-59.22
209.349	49.32
209.567	-5.97
209.786	59.56
210.005	-24.4
210.223	51.37
210.442	30.89
210.661	53.42
210.879	2.22
211.098	53.42
211.316	34.99
211.535	116.9
211.753	-5.97
211.972	86.19
212.191	-5.97
212.409	-51.03
212.628	-46.93
212.846	4.27
213.065	12.46
213.283	61.61
213.502	-42.84
213.72	-26.45
213.938	34.99
214.157	6.31
214.375	10.41
214.594	6.31
214.812	-10.07
215.031	-22.36
215.249	-16.21
215.467	47.27
215.686	67.75
215.904	14.51
216.122	39.08
216.341	88.23
216.559	-8.02
216.778	43.18
216.996	55.47
217.214	-30.55
217.432	37.03
217.651	30.89
217.869	16.55
218.087	-57.17
218.306	26.79
218.524	22.7
218.742	39.08
218.96	6.31
219.179	-34.64
219.397	32.94
219.615	45.23
219.833	30.89
220.051	-16.21
220.27	-5.97
220.488	-5.97
220.706	-16.21
220.924	-67.41
221.142	-1.88
221.36	-34.64
221.578	96.43
221.796	-22.36
222.015	30.89
222.233	28.84
222.451	51.37
222.669	37.03
222.887	-67.41
223.105	0.17
223.323	-57.17
223.541	-44.88
223.759	0.17
223.977	-1.88
224.195	14.51
224.413	24.75
224.631	22.7
224.849	32.94
225.067	-38.74
225.285	18.6
225.503	-8.02
225.721	-106.32
225.939	53.42
226.157	18.6
226.375	75.95
226.592	-1.88
226.81	57.51
227.028	82.09
227.246	14.51
227.464	8.36
227.682	49.32
227.9	8.36
228.117	-22.36
228.335	61.61
228.553	18.6
228.771	41.13
228.989	18.6
229.206	30.89
229.424	-14.17
229.642	18.6
229.86	32.94
230.077	-10.07
230.295	10.41
230.513	100.52
230.731	-24.4
230.948	45.23
231.166	106.67
231.384	20.65
231.601	-51.03
231.819	20.65
232.037	0.17
232.254	18.6
232.472	43.18
232.689	-30.55
232.907	57.51
233.125	-16.21
233.342	18.6
233.56	-26.45
233.777	24.75
233.995	8.36
234.213	53.42
234.43	37.03
234.648	-8.02
234.865	22.7
235.083	-1.88
235.3	-46.93
235.518	26.79
235.735	34.99
235.953	145.58
236.17	6.31
236.388	-14.17
236.605	41.13
236.822	69.8
237.04	6.31
237.257	45.23
237.475	-77.65
237.692	41.13
237.909	90.28
238.127	30.89
238.344	22.7
238.562	-12.12
238.779	-3.93
238.996	-5.97
239.214	-32.6
239.431	84.14
239.648	-24.4
239.865	41.13
240.083	6.31
240.3	-24.4
240.517	-36.69
240.735	-5.97
240.952	86.19
241.169	-12.12
241.386	18.6
241.603	-14.17
241.821	-28.5
242.038	-1.88
242.255	51.37
242.472	45.23
242.689	47.27
242.907	41.13
243.124	16.55
243.341	0.17
243.558	-24.4
243.775	6.31
243.992	2.22
244.209	-18.26
244.426	39.08
244.643	47.27
244.86	26.79
245.078	43.18
245.295	-34.64
245.512	30.89
245.729	10.41
245.946	34.99
246.163	6.31
246.38	-14.17
246.597	-30.55
246.814	20.65
247.031	22.7
247.248	67.75
247.464	49.32
247.681	12.46
247.898	-10.07
248.115	26.79
248.332	51.37
248.549	45.23
248.766	26.79
248.983	8.36
249.2	82.09
249.417	6.31
249.633	8.36
249.85	8.36
250.067	-14.17
250.284	-3.93
250.501	24.75
250.717	67.75
250.934	-26.45
251.151	43.18
251.368	-30.55
251.585	86.19
251.801	-5.97
252.018	26.79
252.235	55.47
252.451	34.99
252.668	-22.36
252.885	30.89
253.102	2.22
253.318	-32.6
253.535	-89.94
253.752	-44.88
253.968	22.7
254.185	22.7
254.401	53.42
254.618	71.85
254.835	-36.69
255.051	-22.36
255.268	-20.31
255.484	-30.55
255.701	-36.69
255.917	71.85
256.134	-44.88
256.351	-63.32
256.567	-3.93
256.784	-8.02
257	71.85
257.217	43.18
257.433	80.04
257.65	-14.17
257.866	65.71
258.082	20.65
258.299	-18.26
258.515	-8.02
258.732	-24.4
258.948	14.51
259.165	-8.02
259.381	-20.31
259.597	-14.17
259.814	-20.31
260.03	-36.69
260.246	12.46
260.463	18.6
260.679	45.23
260.895	-34.64
261.112	18.6
261.328	-10.07
261.544	-42.84
261.761	73.9
261.977	26.79
262.193	20.65
262.409	-26.45
262.626	10.41
262.842	49.32
263.058	-40.79
263.274	-3.93
263.49	10.41
263.707	-22.36
263.923	6.31
264.139	-40.79
264.355	57.51
264.571	94.38
264.787	28.84
265.004	2.22
265.22	30.89
265.436	-30.55
265.652	26.79
265.868	123.05
266.084	30.89
266.3	12.46
266.516	12.46
266.732	2.22
266.948	67.75
267.164	55.47
267.38	8.36
267.596	32.94
267.812	82.09
268.028	43.18
268.244	34.99
268.46	18.6
268.676	28.84
268.892	63.66
269.108	-8.02
269.324	14.51
269.54	30.89
269.756	106.67
269.972	39.08
270.188	51.37
270.403	-5.97
270.619	32.94
270.835	26.79
271.051	18.6
271.267	-38.74
271.483	-30.55
271.698	43.18
271.914	26.79
272.13	10.41
272.346	32.94
272.562	-46.93
272.777	67.75
272.993	55.47
273.209	43.18
273.425	-26.45
273.64	-1.88
273.856	43.18
274.072	32.94
274.287	12.46
274.503	49.32
274.719	55.47
274.934	45.23
275.15	-44.88
275.366	14.51
275.581	39.08
275.797	45.23
276.012	-5.97
276.228	-3.93
276.444	88.23
276.659	59.56
276.875	-28.5
277.09	51.37
277.306	49.32
277.521	65.71
277.737	-12.12
277.952	-10.07
278.168	6.31
278.383	-8.02
278.599	32.94
278.814	51.37
279.03	39.08
279.245	145.58
279.461	-48.98
279.676	26.79
279.892	-46.93
280.107	-22.36
280.322	-22.36
280.538	24.75
280.753	57.51
280.969	53.42
281.184	-53.08
281.399	12.46
281.615	39.08
281.83	47.27
282.045	49.32
282.26	30.89
282.476	51.37
282.691	28.84
282.906	-16.21
283.122	24.75
283.337	-8.02
283.552	75.95
283.767	-89.94
283.983	16.55
284.198	-14.17
284.413	-24.4
284.628	-32.6
284.843	10.41
285.058	51.37
285.274	47.27
285.489	-3.93
285.704	2.22
285.919	65.71
286.134	2.22
286.349	-14.17
286.564	18.6
286.779	73.9
286.995	55.47
287.21	4.27
287.425	32.94
287.64	-34.64
287.855	0.17
288.07	-26.45
288.285	24.75
288.5	30.89
288.715	39.08
288.93	20.65
289.145	10.41
289.36	32.94
289.575	80.04
289.79	28.84
290.004	-1.88
290.219	28.84
290.434	-12.12
290.649	-42.84
290.864	26.79
291.079	-5.97
291.294	37.03
291.509	-51.03
291.724	-3.93
291.938	39.08
292.153	49.32
292.368	2.22
292.583	0.17
292.798	34.99
293.012	53.42
293.227	43.18
293.442	-48.98
293.657	-5.97
293.871	98.47
294.086	90.28
294.301	47.27
294.516	-22.36
294.73	73.9
294.945	18.6
295.16	51.37
295.374	112.81
295.589	45.23
295.804	18.6
296.018	20.65
296.233	43.18
296.447	41.13
296.662	2.22
296.877	88.23
297.091	24.75
297.306	6.31
297.52	123.05
297.735	59.56
297.949	-5.97
298.164	18.6
298.378	20.65
298.593	-16.21
298.807	20.65
299.022	92.33
299.236	110.76
299.451	-53.08
299.665	-30.55
299.88	55.47
300.094	26.79
300.309	-20.31
300.523	121
300.737	32.94
300.952	51.37
301.166	110.76
301.381	-22.36
301.595	73.9
301.809	59.56
302.024	-46.93
302.238	10.41
302.452	2.22
302.667	6.31
302.881	118.95
303.095	26.79
303.309	-1.88
303.524	-1.88
303.738	-22.36
303.952	26.79
304.166	8.36
304.381	-8.02
304.595	2.22
304.809	14.51
305.023	39.08
305.237	34.99
305.452	67.75
305.666	53.42
305.88	-12.12
306.094	37.03
306.308	37.03
306.522	-57.17
306.736	16.55
306.95	28.84
307.164	63.66
307.379	-55.12
307.593	34.99
307.807	59.56
308.021	4.27
308.235	106.67
308.449	10.41
308.663	16.55
308.877	47.27
309.091	45.23
309.305	18.6
309.519	49.32
309.733	106.67
309.947	28.84
310.161	90.28
310.374	63.66
310.588	-38.74
310.802	-1.88
311.016	45.23
311.23	4.27
311.444	30.89
311.658	2.22
311.872	12.46
312.085	55.47
312.299	43.18
312.513	16.55
312.727	57.51
312.941	26.79
313.154	84.14
313.368	59.56
313.582	65.71
313.796	-34.64
314.009	14.51
314.223	55.47
314.437	37.03
314.651	0.17
314.864	14.51
315.078	-12.12
315.292	12.46
315.505	84.14
315.719	37.03
315.933	18.6
316.146	-5.97
316.36	-30.55
316.573	98.47
316.787	20.65
317.001	55.47
317.214	28.84
317.428	92.33
317.641	10.41
317.855	43.18
318.068	53.42
318.282	41.13
318.495	14.51
318.709	-16.21
318.922	-10.07
319.136	41.13
319.349	108.71
319.563	16.55
319.776	82.09
319.99	30.89
320.203	34.99
320.417	32.94
320.63	-14.17
320.843	84.14
321.057	26.79
321.27	12.46
321.483	57.51
321.697	51.37
321.91	-3.93
322.124	90.28
322.337	18.6
322.55	-30.55
322.763	6.31
322.977	20.65
323.19	16.55
323.403	-22.36
323.617	0.17
323.83	16.55
324.043	41.13
324.256	61.61
324.469	-44.88
324.683	28.84
324.896	-38.74
325.109	24.75
325.322	-16.21
325.535	96.43
325.748	39.08
325.962	30.89
326.175	63.66
326.388	37.03
326.601	43.18
326.814	26.79
327.027	53.42
327.24	-1.88
327.453	-30.55
327.666	-8.02
327.879	41.13
328.092	-3.93
328.305	43.18
328.518	-3.93
328.731	-8.02
328.944	63.66
329.157	92.33
329.37	-59.22
329.583	4.27
329.796	0.17
330.009	24.75
330.222	65.71
330.435	-14.17
330.648	77.99
330.861	34.99
331.073	2.22
331.286	39.08
331.499	32.94
331.712	41.13
331.925	55.47
332.138	32.94
332.35	67.75
332.563	34.99
332.776	96.43
332.989	34.99
333.202	14.51
333.414	82.09
333.627	4.27
333.84	47.27
334.053	41.13
334.265	8.36
334.478	12.46
334.691	53.42
334.903	137.38
335.116	0.17
335.329	14.51
335.541	14.51
335.754	86.19
335.966	-38.74
336.179	51.37
336.392	22.7
336.604	-10.07
336.817	8.36
337.029	47.27
337.242	41.13
337.454	65.71
337.667	24.75
337.88	106.67
338.092	43.18
338.305	39.08
338.517	0.17
338.729	67.75
338.942	82.09
339.154	-32.6
339.367	43.18
339.579	-3.93
339.792	-38.74
340.004	39.08
340.217	-14.17
340.429	43.18
340.641	34.99
340.854	-28.5
341.066	41.13
341.278	51.37
341.491	88.23
341.703	108.71
341.915	51.37
342.128	75.95
342.34	112.81
342.552	20.65
342.764	6.31
342.977	-30.55
343.189	63.66
343.401	84.14
343.613	12.46
343.826	6.31
344.038	6.31
344.25	75.95
344.462	24.75
344.674	12.46
344.886	-8.02
345.099	75.95
345.311	24.75
345.523	16.55
345.735	26.79
345.947	67.75
346.159	41.13
346.371	24.75
346.583	6.31
346.795	65.71
347.007	-16.21
347.219	14.51
347.431	-30.55
347.643	37.03
347.855	75.95
348.067	53.42
348.279	-1.88
348.491	69.8
348.703	43.18
348.915	-75.6
349.127	30.89
349.339	-51.03
349.551	-61.27
349.763	65.71
349.975	26.79
350.187	47.27
350.399	26.79
350.61	45.23
350.822	34.99
351.034	6.31
351.246	-10.07
351.458	67.75
351.669	65.71
351.881	96.43
352.093	53.42
352.305	65.71
352.517	16.55
352.728	26.79
352.94	6.31
353.152	67.75
353.363	0.17
353.575	118.95
353.787	59.56
353.999	47.27
354.21	92.33
354.422	65.71
354.633	-8.02
354.845	0.17
355.057	30.89
355.268	55.47
355.48	45.23
355.692	2.22
355.903	-59.22
356.115	18.6
356.326	65.71
356.538	67.75
356.749	98.47
356.961	96.43
357.172	8.36
357.384	-28.5
357.595	108.71
357.807	-20.31
358.018	4.27
358.23	28.84
358.441	100.52
358.653	82.09
358.864	69.8
359.075	37.03
359.287	75.95
359.498	77.99
359.709	98.47
359.921	59.56
360.132	37.03
360.344	39.08
360.555	75.95
360.766	16.55
360.977	34.99
361.189	30.89
361.4	-18.26
361.611	-26.45
361.823	88.23
362.034	75.95
362.245	6.31
362.456	41.13
362.667	2.22
362.879	43.18
363.09	63.66
363.301	53.42
363.512	49.32
363.723	-5.97
363.935	73.9
364.146	65.71
364.357	71.85
364.568	34.99
364.779	67.75
364.99	80.04
365.201	2.22
365.412	77.99
365.623	12.46
365.834	84.14
366.045	24.75
366.256	65.71
366.467	92.33
366.678	-12.12
366.889	-12.12
367.1	55.47
367.311	32.94
367.522	28.84
367.733	39.08
367.944	34.99
368.155	67.75
368.366	28.84
368.577	116.9
368.788	94.38
368.999	22.7
369.209	4.27
369.42	114.86
369.631	114.86
369.842	104.62
370.053	112.81
370.264	116.9
370.474	-5.97
370.685	59.56
370.896	8.36
371.107	84.14
371.317	24.75
371.528	-12.12
371.739	71.85
371.95	82.09
372.16	-20.31
372.371	-22.36
372.582	30.89
372.792	14.51
373.003	84.14
373.214	116.9
373.424	121
373.635	-22.36
373.846	32.94
374.056	59.56
374.267	-5.97
374.477	28.84
374.688	-22.36
374.898	6.31
375.109	26.79
375.319	53.42
375.53	88.23
375.74	92.33
375.951	28.84
376.161	67.75
376.372	57.51
376.582	129.19
376.793	71.85
377.003	12.46
377.214	55.47
377.424	47.27
377.635	30.89
377.845	32.94
378.055	116.9
378.266	-16.21
378.476	65.71
378.686	135.34
378.897	-24.4
379.107	112.81
379.317	49.32
379.528	10.41
379.738	14.51
379.948	16.55
380.158	28.84
380.369	157.86
380.579	12.46
380.789	14.51
380.999	2.22
381.21	34.99
381.42	92.33
381.63	49.32
381.84	37.03
382.05	43.18
382.261	96.43
382.471	86.19
382.681	37.03
382.891	174.25
383.101	55.47
383.311	-5.97
383.521	65.71
383.731	71.85
383.941	112.81
384.151	4.27
384.361	75.95
384.571	22.7
384.781	-12.12
384.991	73.9
385.201	98.47
385.411	110.76
385.621	65.71
385.831	61.61
386.041	104.62
386.251	8.36
386.461	92.33
386.671	98.47
386.881	53.42
387.091	0.17
387.301	75.95
387.511	39.08
387.72	94.38
387.93	30.89
388.14	2.22
388.35	30.89
388.56	71.85
388.769	8.36
388.979	104.62
389.189	6.31
389.399	-1.88
389.609	51.37
389.818	4.27
390.028	147.62
390.238	149.67
390.447	92.33
390.657	73.9
390.867	41.13
391.076	37.03
391.286	123.05
391.496	6.31
391.705	131.24
391.915	61.61
392.125	84.14
392.334	90.28
392.544	92.33
392.753	53.42
392.963	67.75
393.172	112.81
393.382	0.17
393.591	108.71
393.801	106.67
394.01	106.67
394.22	106.67
394.429	59.56
394.639	77.99
394.848	82.09
395.058	106.67
395.267	94.38
395.477	86.19
395.686	45.23
395.895	153.77
396.105	96.43
396.314	69.8
396.524	118.95
396.733	90.28
396.942	65.71
397.152	80.04
397.361	153.77
397.57	110.76
397.78	133.29
397.989	104.62
398.198	186.54
398.407	153.77
398.617	77.99
398.826	164.01
399.035	125.1
399.244	202.92
399.453	178.34
399.663	88.23
399.872	149.67
400.081	174.25
400.29	88.23
400.499	114.86
400.708	92.33
400.917	92.33
401.127	100.52
401.336	98.47
401.545	131.24
401.754	137.38
401.963	166.06
402.172	133.29
402.381	129.19
402.59	137.38
402.799	170.15
403.008	182.44
403.217	145.58
403.426	137.38
403.635	170.15
403.844	118.95
404.053	161.96
404.262	155.82
404.471	188.58
404.68	94.38
404.888	123.05
405.097	96.43
405.306	190.63
405.515	227.5
405.724	235.69
405.933	207.02
406.142	256.17
406.35	229.54
406.559	217.26
406.768	215.21
406.977	215.21
407.185	247.97
407.394	252.07
407.603	192.68
407.812	233.64
408.02	327.85
408.229	276.65
408.438	297.13
408.646	295.08
408.855	262.31
409.064	372.9
409.272	323.75
409.481	338.09
409.69	303.27
409.898	305.32
410.107	420
410.315	329.89
410.524	303.27
410.733	366.76
410.941	379.04
411.15	401.57
411.358	501.92
411.567	571.55
411.775	409.76
411.984	428.2
412.192	544.93
412.401	469.16
412.609	540.83
412.818	567.46
413.026	616.61
413.234	624.8
413.443	546.98
413.651	632.99
413.86	624.8
414.068	706.72
414.276	716.96
414.485	682.14
414.693	882.85
414.901	850.08
415.11	907.42
415.318	936.09
415.526	870.56
415.734	1015.96
415.943	921.76
416.151	991.39
416.359	1038.49
416.567	987.29
416.776	1108.12
416.984	1222.81
417.192	1239.19
417.4	1190.04
417.608	1210.52
417.817	1206.42
418.025	1409.17
418.233	1384.6
418.441	1355.93
418.649	1364.12
418.857	1491.09
419.065	1626.26
419.273	1599.63
419.481	1591.44
419.689	1796.24
419.897	1863.82
420.105	1927.31
420.313	1925.26
420.521	1970.32
420.729	1947.79
420.937	2080.91
421.145	2257.03
421.353	2314.38
421.561	2353.29
421.769	2496.64
421.977	2637.95
422.185	2500.74
422.393	2748.54
422.601	2836.61
422.809	2678.91
423.017	2816.13
423.224	2930.81
423.432	3098.75
423.64	3094.65
423.848	3346.55
424.056	3274.87
424.263	3516.53
424.471	3432.57
424.679	3475.57
424.887	3846.26
425.094	3981.42
425.302	3883.12
425.51	4065.39
425.718	4114.54
425.925	4247.66
426.133	4376.68
426.341	4681.83
426.548	4778.08
426.756	4921.44
426.964	5011.55
427.171	5179.48
427.379	5138.52
427.586	5419.1
427.794	5568.6
428.001	5881.94
428.209	5939.28
428.417	5974.1
428.624	6359.11
428.832	6473.8
429.039	6395.98
429.247	6547.53
429.454	7002.18
429.662	7450.68
429.869	6967.36
430.076	7372.86
430.284	7034.94
430.491	7678.01
430.699	8079.41
430.906	7952.43
431.114	7813.17
431.321	8458.28
431.528	8554.54
431.736	9123.87
431.943	9578.52
432.15	9279.52
432.358	9457.69
432.565	9652.25
432.772	9730.07
432.979	10487.82
433.187	10487.82
433.394	10676.23
433.601	11378.69
433.808	11323.39
434.016	11128.83
434.223	11515.9
434.43	12195.82
434.637	12290.03
434.844	12709.86
435.052	13058.02
435.259	13109.22
435.466	13371.36
435.673	12824.55
435.88	13758.42
436.087	14829.51
436.294	14731.21
436.501	14188.5
436.708	14571.47
436.915	15177.67
437.122	15880.12
437.329	15626.17
437.537	16232.37
437.743	16365.49
437.95	16328.63
438.157	17201.06
438.364	17766.3
438.571	17772.44
438.778	18184.09
438.985	19502.98
439.192	18675.6
439.399	19513.22
439.606	18710.41
439.813	20168.57
440.02	20926.32
440.227	21051.24
440.433	20459.38
440.64	21544.8
440.847	21047.15
441.054	21843.81
441.261	22949.71
441.467	22738.77
441.674	23277.38
441.881	23947.07
442.088	23836.48
442.294	23822.14
442.501	24665.91
442.708	24958.77
442.914	25710.37
443.121	27072.27
443.328	26179.36
443.534	28143.36
443.741	27027.21
443.948	26646.29
444.154	29198.06
444.361	28827.38
444.568	28823.28
444.774	28903.15
444.981	29388.52
445.187	30009.06
445.394	31051.47
445.6	30869.2
445.807	33621.67
446.013	32239.29
446.22	32685.75
446.426	34176.67
446.633	34354.85
446.839	35767.94
447.046	33967.78
447.252	36038.28
447.459	35931.78
447.665	35597.96
447.871	37391.98
448.078	38848.09
448.284	36757.11
448.491	38252.13
448.697	39753.29
448.903	39894.6
449.11	40394.31
449.316	39523.92
449.522	40205.89
449.728	40949.31
449.935	41672.24
450.141	41512.5
450.347	42339.88
450.553	40781.37
450.76	41365.04
450.966	42792.48
451.172	42030.63
451.378	43099.67
451.584	42417.7
451.791	43378.2
451.997	43175.45
452.203	43994.64
452.409	43896.33
452.615	43349.53
452.821	41842.22
453.027	41643.57
453.233	43824.65
453.44	41662
453.646	42257.96
453.852	42446.37
454.058	43392.53
454.264	41891.37
454.47	42763.81
454.676	41838.12
454.882	43154.97
455.088	39374.42
455.294	39808.59
455.5	40097.35
455.705	40969.79
455.911	39341.65
456.117	38659.68
456.323	37992.04
456.529	35720.84
456.735	37254.77
456.941	36423.29
457.147	35950.21
457.352	34891.41
457.558	34328.22
457.764	34799.26
457.97	34076.32
458.176	32872.12
458.381	33185.46
458.587	31495.88
458.793	31117.01
458.999	29409
459.204	31993.54
459.41	31127.25
459.616	28716.79
459.821	28788.47
460.027	28829.43
460.233	28370.68
460.438	26820.37
460.644	27277.07
460.85	26021.66
461.055	25710.37
461.261	25546.53
461.466	23723.84
461.672	22878.03
461.878	24526.64
462.083	23295.82
462.289	22896.46
462.494	22544.21
462.7	21542.75
462.905	20881.26
463.111	21651.3
463.316	21774.17
463.522	21356.39
463.727	21290.85
463.932	21090.15
464.138	21024.62
464.343	20973.42
464.549	20637.55
464.754	21372.77
464.959	21186.41
465.165	20782.96
465.37	19945.34
465.575	19263.36
465.781	20465.52
465.986	20313.97
466.191	20033.4
466.397	19199.88
466.602	18388.88
