Data from USB4F104151__146__10-26-37-945.txt Node

Date: Wed Mar 12 10:26:37 EDT 2025
User: louis
Spectrometer: USB4F10415
Trigger mode: 4
Integration Time (sec): 3.000000E-2
Scans to average: 1
Electric dark correction enabled: true
Nonlinearity correction enabled: false
Boxcar width: 0
XAxis mode: Wavelengths
Number of Pixels in Spectrum: 3648
>>>>>Begin Spectral Data<<<<<
178.204	-73.73
178.424	-73.73
178.644	-73.73
178.864	-112.64
179.084	-174.08
179.304	-6.14
179.524	-18.43
179.744	40.96
179.964	-4.1
180.184	8.19
180.404	14.34
180.624	-4.1
180.844	-36.86
181.064	-28.67
181.283	0
181.503	-45.06
181.723	79.87
181.943	-6.14
182.163	116.73
182.383	18.43
182.602	61.44
182.822	114.69
183.042	-18.43
183.262	-16.38
183.482	36.86
183.701	8.19
183.921	59.39
184.141	-45.06
184.361	28.67
184.58	12.29
184.8	49.15
185.02	14.34
185.239	67.58
185.459	-2.05
185.679	63.49
185.898	2.05
186.118	8.19
186.338	-36.86
186.557	-16.38
186.777	-18.43
186.997	-40.96
187.216	77.82
187.436	20.48
187.655	32.77
187.875	2.05
188.095	14.34
188.314	14.34
188.534	120.83
188.753	30.72
188.973	22.53
189.192	57.34
189.412	49.15
189.631	0
189.851	24.58
190.07	34.82
190.29	-12.29
190.509	-18.43
190.729	-24.58
190.948	67.58
191.168	110.59
191.387	53.25
191.607	12.29
191.826	90.11
192.045	18.43
192.265	47.1
192.484	36.86
192.704	-16.38
192.923	16.38
193.142	135.17
193.362	36.86
193.581	20.48
193.8	34.82
194.02	18.43
194.239	-67.58
194.458	51.2
194.678	-45.06
194.897	118.78
195.116	12.29
195.335	65.54
195.555	65.54
195.774	49.15
195.993	38.91
196.212	32.77
196.432	0
196.651	-4.1
196.87	-6.14
197.089	51.2
197.308	104.45
197.528	77.82
197.747	53.25
197.966	10.24
198.185	65.54
198.404	67.58
198.623	4.1
198.842	55.3
199.062	47.1
199.281	118.78
199.5	-36.86
199.719	55.3
199.938	10.24
200.157	28.67
200.376	34.82
200.595	73.73
200.814	67.58
201.033	61.44
201.252	36.86
201.471	47.1
201.69	79.87
201.909	90.11
202.128	-45.06
202.347	38.91
202.566	32.77
202.785	45.06
203.004	-49.15
203.223	92.16
203.442	-24.58
203.661	30.72
203.879	81.92
204.098	57.34
204.317	4.1
204.536	81.92
204.755	30.72
204.974	30.72
205.193	-14.34
205.411	100.35
205.63	112.64
205.849	-34.82
206.068	26.62
206.287	55.3
206.505	69.63
206.724	8.19
206.943	14.34
207.162	0
207.381	61.44
207.599	32.77
207.818	32.77
208.037	-32.77
208.255	26.62
208.474	26.62
208.693	40.96
208.911	96.25
209.13	98.3
209.349	63.49
209.567	-22.53
209.786	73.73
210.005	51.2
210.223	14.34
210.442	20.48
210.661	8.19
210.879	-47.1
211.098	24.58
211.316	-8.19
211.535	51.2
211.753	-20.48
211.972	49.15
212.191	45.06
212.409	20.48
212.628	49.15
212.846	-18.43
213.065	43.01
213.283	32.77
213.502	-10.24
213.72	38.91
213.938	0
214.157	43.01
214.375	26.62
214.594	18.43
214.812	32.77
215.031	-20.48
215.249	8.19
215.467	14.34
215.686	57.34
215.904	8.19
216.122	20.48
216.341	18.43
216.559	10.24
216.778	94.21
216.996	59.39
217.214	53.25
217.432	18.43
217.651	-24.58
217.869	24.58
218.087	-10.24
218.306	-38.91
218.524	16.38
218.742	22.53
218.96	-6.14
219.179	0
219.397	161.79
219.615	65.54
219.833	73.73
220.051	-38.91
220.27	0
220.488	28.67
220.706	20.48
220.924	20.48
221.142	-8.19
221.36	61.44
221.578	28.67
221.796	-2.05
222.015	12.29
222.233	40.96
222.451	55.3
222.669	-47.1
222.887	69.63
223.105	2.05
223.323	53.25
223.541	-2.05
223.759	102.4
223.977	-8.19
224.195	-53.25
224.413	-59.39
224.631	71.68
224.849	28.67
225.067	24.58
225.285	-4.1
225.503	53.25
225.721	24.58
225.939	18.43
226.157	-47.1
226.375	83.97
226.592	-45.06
226.81	65.54
227.028	96.25
227.246	141.31
227.464	-18.43
227.682	-14.34
227.9	57.34
228.117	38.91
228.335	-28.67
228.553	18.43
228.771	18.43
228.989	43.01
229.206	69.63
229.424	12.29
229.642	12.29
229.86	14.34
230.077	36.86
230.295	14.34
230.513	81.92
230.731	18.43
230.948	55.3
231.166	34.82
231.384	34.82
231.601	51.2
231.819	49.15
232.037	2.05
232.254	-2.05
232.472	45.06
232.689	8.19
232.907	14.34
233.125	-6.14
233.342	34.82
233.56	-38.91
233.777	49.15
233.995	53.25
234.213	110.59
234.43	122.88
234.648	-22.53
234.865	28.67
235.083	30.72
235.3	-8.19
235.518	83.97
235.735	14.34
235.953	40.96
236.17	38.91
236.388	4.1
236.605	-22.53
236.822	63.49
237.04	53.25
237.257	8.19
237.475	30.72
237.692	53.25
237.909	51.2
238.127	49.15
238.344	12.29
238.562	24.58
238.779	22.53
238.996	-32.77
239.214	51.2
239.431	45.06
239.648	67.58
239.865	55.3
240.083	77.82
240.3	104.45
240.517	86.01
240.735	24.58
240.952	36.86
241.169	118.78
241.386	20.48
241.603	-8.19
241.821	8.19
242.038	71.68
242.255	67.58
242.472	-43.01
242.689	69.63
242.907	81.92
243.124	2.05
243.341	69.63
243.558	-28.67
243.775	-6.14
243.992	26.62
244.209	34.82
244.426	40.96
244.643	38.91
244.86	53.25
245.078	-30.72
245.295	6.14
245.512	57.34
245.729	49.15
245.946	0
246.163	43.01
246.38	-28.67
246.597	96.25
246.814	38.91
247.031	8.19
247.248	51.2
247.464	36.86
247.681	53.25
247.898	67.58
248.115	96.25
248.332	47.1
248.549	94.21
248.766	92.16
248.983	49.15
249.2	38.91
249.417	-20.48
249.633	-16.38
249.85	100.35
250.067	4.1
250.284	14.34
250.501	2.05
250.717	59.39
250.934	-18.43
251.151	36.86
251.368	-6.14
251.585	51.2
251.801	67.58
252.018	53.25
252.235	57.34
252.451	6.14
252.668	36.86
252.885	4.1
253.102	65.54
253.318	26.62
253.535	38.91
253.752	53.25
253.968	4.1
254.185	-8.19
254.401	67.58
254.618	-4.1
254.835	-32.77
255.051	69.63
255.268	6.14
255.484	-20.48
255.701	4.1
255.917	110.59
256.134	-51.2
256.351	20.48
256.567	-14.34
256.784	100.35
257	63.49
257.217	83.97
257.433	73.73
257.65	53.25
257.866	86.01
258.082	26.62
258.299	16.38
258.515	36.86
258.732	-55.3
258.948	32.77
259.165	34.82
259.381	67.58
259.597	-24.58
259.814	49.15
260.03	10.24
260.246	36.86
260.463	75.77
260.679	0
260.895	-36.86
261.112	38.91
261.328	100.35
261.544	2.05
261.761	102.4
261.977	28.67
262.193	79.87
262.409	51.2
262.626	57.34
262.842	57.34
263.058	16.38
263.274	38.91
263.49	-6.14
263.707	20.48
263.923	61.44
264.139	4.1
264.355	36.86
264.571	-14.34
264.787	0
265.004	86.01
265.22	69.63
265.436	40.96
265.652	83.97
265.868	90.11
266.084	0
266.3	45.06
266.516	12.29
266.732	16.38
266.948	71.68
267.164	28.67
267.38	45.06
267.596	-4.1
267.812	188.41
268.028	77.82
268.244	32.77
268.46	10.24
268.676	14.34
268.892	40.96
269.108	18.43
269.324	-28.67
269.54	40.96
269.756	28.67
269.972	-16.38
270.188	-14.34
270.403	30.72
270.619	98.3
270.835	10.24
271.051	65.54
271.267	-40.96
271.483	30.72
271.698	36.86
271.914	57.34
272.13	75.77
272.346	22.53
272.562	88.06
272.777	22.53
272.993	10.24
273.209	34.82
273.425	-4.1
273.64	-28.67
273.856	24.58
274.072	53.25
274.287	36.86
274.503	-8.19
274.719	0
274.934	92.16
275.15	-32.77
275.366	28.67
275.581	53.25
275.797	63.49
276.012	-4.1
276.228	-8.19
276.444	69.63
276.659	-22.53
276.875	67.58
277.09	32.77
277.306	57.34
277.521	38.91
277.737	75.77
277.952	53.25
278.168	22.53
278.383	34.82
278.599	106.49
278.814	28.67
279.03	-20.48
279.245	16.38
279.461	59.39
279.676	53.25
279.892	16.38
280.107	-45.06
280.322	-34.82
280.538	-28.67
280.753	-30.72
280.969	69.63
281.184	40.96
281.399	96.25
281.615	65.54
281.83	67.58
282.045	-10.24
282.26	22.53
282.476	65.54
282.691	-12.29
282.906	102.4
283.122	16.38
283.337	49.15
283.552	47.1
283.767	2.05
283.983	118.78
284.198	-18.43
284.413	79.87
284.628	-16.38
284.843	20.48
285.058	77.82
285.274	30.72
285.489	30.72
285.704	36.86
285.919	-24.58
286.134	75.77
286.349	18.43
286.564	36.86
286.779	96.25
286.995	-2.05
287.21	12.29
287.425	88.06
287.64	36.86
287.855	51.2
288.07	-22.53
288.285	88.06
288.5	45.06
288.715	43.01
288.93	45.06
289.145	28.67
289.36	94.21
289.575	4.1
289.79	79.87
290.004	34.82
290.219	118.78
290.434	43.01
290.649	94.21
290.864	69.63
291.079	38.91
291.294	83.97
291.509	51.2
291.724	24.58
291.938	98.3
292.153	-4.1
292.368	75.77
292.583	73.73
292.798	-2.05
293.012	53.25
293.227	-4.1
293.442	16.38
293.657	71.68
293.871	43.01
294.086	86.01
294.301	116.73
294.516	34.82
294.73	100.35
294.945	45.06
295.16	45.06
295.374	47.1
295.589	49.15
295.804	16.38
296.018	47.1
296.233	16.38
296.447	102.4
296.662	47.1
296.877	77.82
297.091	24.58
297.306	24.58
297.52	-38.91
297.735	59.39
297.949	4.1
298.164	98.3
298.378	20.48
298.593	-18.43
298.807	8.19
299.022	45.06
299.236	83.97
299.451	-16.38
299.665	12.29
299.88	-14.34
300.094	16.38
300.309	94.21
300.523	-12.29
300.737	-65.53
300.952	32.77
301.166	63.49
301.381	-8.19
301.595	51.2
301.809	-20.48
302.024	51.2
302.238	-34.82
302.452	106.49
302.667	53.25
302.881	108.54
303.095	45.06
303.309	32.77
303.524	-2.05
303.738	-43.01
303.952	4.1
304.166	40.96
304.381	28.67
304.595	79.87
304.809	36.86
305.023	55.3
305.237	65.54
305.452	-96.25
305.666	14.34
305.88	86.01
306.094	133.12
306.308	61.44
306.522	28.67
306.736	36.86
306.95	53.25
307.164	12.29
307.379	55.3
307.593	83.97
307.807	16.38
308.021	16.38
308.235	-12.29
308.449	36.86
308.663	12.29
308.877	59.39
309.091	-63.49
309.305	49.15
309.519	57.34
309.733	57.34
309.947	-65.53
310.161	65.54
310.374	47.1
310.588	-6.14
310.802	36.86
311.016	43.01
311.23	14.34
311.444	45.06
311.658	4.1
311.872	69.63
312.085	45.06
312.299	77.82
312.513	94.21
312.727	69.63
312.941	-2.05
313.154	-18.43
313.368	-49.15
313.582	28.67
313.796	63.49
314.009	65.54
314.223	141.31
314.437	51.2
314.651	79.87
314.864	14.34
315.078	75.77
315.292	-10.24
315.505	53.25
315.719	47.1
315.933	77.82
316.146	90.11
316.36	-28.67
316.573	75.77
316.787	6.14
317.001	69.63
317.214	-69.63
317.428	67.58
317.641	12.29
317.855	55.3
318.068	55.3
318.282	69.63
318.495	16.38
318.709	0
318.922	28.67
319.136	102.4
319.349	104.45
319.563	36.86
319.776	18.43
319.99	30.72
320.203	49.15
320.417	51.2
320.63	36.86
320.843	81.92
321.057	81.92
321.27	47.1
321.483	59.39
321.697	18.43
321.91	30.72
322.124	38.91
322.337	59.39
322.55	94.21
322.763	43.01
322.977	53.25
323.19	16.38
323.403	116.73
323.617	0
323.83	-43.01
324.043	47.1
324.256	75.77
324.469	10.24
324.683	65.54
324.896	20.48
325.109	34.82
325.322	-16.38
325.535	77.82
325.748	71.68
325.962	4.1
326.175	-4.1
326.388	4.1
326.601	124.93
326.814	8.19
327.027	12.29
327.24	94.21
327.453	6.14
327.666	92.16
327.879	110.59
328.092	30.72
328.305	45.06
328.518	45.06
328.731	40.96
328.944	100.35
329.157	12.29
329.37	18.43
329.583	81.92
329.796	65.54
330.009	47.1
330.222	69.63
330.435	77.82
330.648	61.44
330.861	8.19
331.073	40.96
331.286	83.97
331.499	57.34
331.712	77.82
331.925	47.1
332.138	14.34
332.35	51.2
332.563	36.86
332.776	45.06
332.989	51.2
333.202	4.1
333.414	34.82
333.627	71.68
333.84	94.21
334.053	110.59
334.265	53.25
334.478	0
334.691	69.63
334.903	79.87
335.116	32.77
335.329	108.54
335.541	61.44
335.754	71.68
335.966	-18.43
336.179	69.63
336.392	40.96
336.604	69.63
336.817	-28.67
337.029	-30.72
337.242	32.77
337.454	16.38
337.667	53.25
337.88	106.49
338.092	6.14
338.305	69.63
338.517	51.2
338.729	36.86
338.942	69.63
339.154	16.38
339.367	-20.48
339.579	24.58
339.792	4.1
340.004	104.45
340.217	92.16
340.429	8.19
340.641	-53.25
340.854	-6.14
341.066	28.67
341.278	38.91
341.491	135.17
341.703	86.01
341.915	98.3
342.128	102.4
342.34	18.43
342.552	-61.44
342.764	51.2
342.977	69.63
343.189	10.24
343.401	63.49
343.613	67.58
343.826	51.2
344.038	40.96
344.25	102.4
344.462	16.38
344.674	75.77
344.886	36.86
345.099	16.38
345.311	61.44
345.523	32.77
345.735	-36.86
345.947	16.38
346.159	69.63
346.371	40.96
346.583	98.3
346.795	30.72
347.007	-12.29
347.219	65.54
347.431	-14.34
347.643	77.82
347.855	55.3
348.067	108.54
348.279	57.34
348.491	86.01
348.703	94.21
348.915	16.38
349.127	47.1
349.339	-30.72
349.551	-6.14
349.763	55.3
349.975	65.54
350.187	137.21
350.399	112.64
350.61	53.25
350.822	-59.39
351.034	100.35
351.246	20.48
351.458	55.3
351.669	34.82
351.881	108.54
352.093	2.05
352.305	-2.05
352.517	69.63
352.728	57.34
352.94	-32.77
353.152	75.77
353.363	12.29
353.575	79.87
353.787	57.34
353.999	34.82
354.21	16.38
354.422	6.14
354.633	4.1
354.845	45.06
355.057	28.67
355.268	77.82
355.48	12.29
355.692	26.62
355.903	112.64
356.115	34.82
356.326	-12.29
356.538	69.63
356.749	49.15
356.961	45.06
357.172	-18.43
357.384	77.82
357.595	120.83
357.807	16.38
358.018	61.44
358.23	18.43
358.441	75.77
358.653	51.2
358.864	-53.25
359.075	-65.53
359.287	167.93
359.498	34.82
359.709	63.49
359.921	4.1
360.132	49.15
360.344	57.34
360.555	26.62
360.766	63.49
360.977	59.39
361.189	75.77
361.4	67.58
361.611	176.13
361.823	55.3
362.034	69.63
362.245	32.77
362.456	77.82
362.667	49.15
362.879	63.49
363.09	-28.67
363.301	51.2
363.512	34.82
363.723	61.44
363.935	-32.77
364.146	122.88
364.357	67.58
364.568	32.77
364.779	28.67
364.99	94.21
365.201	4.1
365.412	129.02
365.623	20.48
365.834	26.62
366.045	8.19
366.256	45.06
366.467	118.78
366.678	63.49
366.889	-65.53
367.1	92.16
367.311	36.86
367.522	67.58
367.733	108.54
367.944	110.59
368.155	36.86
368.366	-6.14
368.577	86.01
368.788	53.25
368.999	71.68
369.209	22.53
369.42	83.97
369.631	106.49
369.842	63.49
370.053	-8.19
370.264	77.82
370.474	75.77
370.685	94.21
370.896	49.15
371.107	4.1
371.317	94.21
371.528	112.64
371.739	69.63
371.95	51.2
372.16	71.68
372.371	34.82
372.582	61.44
372.792	86.01
373.003	-6.14
373.214	59.39
373.424	86.01
373.635	-45.06
373.846	53.25
374.056	20.48
374.267	71.68
374.477	55.3
374.688	-38.91
374.898	67.58
375.109	14.34
375.319	47.1
375.53	77.82
375.74	49.15
375.951	22.53
376.161	24.58
376.372	102.4
376.582	8.19
376.793	83.97
377.003	-8.19
377.214	18.43
377.424	53.25
377.635	163.84
377.845	12.29
378.055	57.34
378.266	26.62
378.476	38.91
378.686	43.01
378.897	106.49
379.107	106.49
379.317	73.73
379.528	83.97
379.738	32.77
379.948	110.59
380.158	124.93
380.369	59.39
380.579	47.1
380.789	20.48
380.999	73.73
381.21	112.64
381.42	100.35
381.63	-30.72
381.84	-4.1
382.05	59.39
382.261	118.78
382.471	100.35
382.681	34.82
382.891	77.82
383.101	32.77
383.311	14.34
383.521	77.82
383.731	67.58
383.941	18.43
384.151	18.43
384.361	34.82
384.571	40.96
384.781	88.06
384.991	36.86
385.201	40.96
385.411	67.58
385.621	45.06
385.831	69.63
386.041	53.25
386.251	20.48
386.461	67.58
386.671	86.01
386.881	14.34
387.091	98.3
387.301	67.58
387.511	108.54
387.72	94.21
387.93	26.62
388.14	-12.29
388.35	86.01
388.56	88.06
388.769	45.06
388.979	4.1
389.189	100.35
389.399	83.97
389.609	53.25
389.818	75.77
390.028	49.15
390.238	63.49
390.447	49.15
390.657	-4.1
390.867	81.92
391.076	61.44
391.286	55.3
391.496	16.38
391.705	65.54
391.915	98.3
392.125	36.86
392.334	96.25
392.544	108.54
392.753	100.35
392.963	-20.48
393.172	67.58
393.382	67.58
393.591	106.49
393.801	61.44
394.01	124.93
394.22	86.01
394.429	51.2
394.639	102.4
394.848	122.88
395.058	172.03
395.267	176.13
395.477	108.54
395.686	73.73
395.895	61.44
396.105	108.54
396.314	135.17
396.524	126.97
396.733	114.69
396.942	73.73
397.152	114.69
397.361	94.21
397.57	192.51
397.78	139.26
397.989	98.3
398.198	172.03
398.407	118.78
398.617	65.54
398.826	61.44
399.035	112.64
399.244	43.01
399.453	98.3
399.663	102.4
399.872	192.51
400.081	135.17
400.29	126.97
400.499	104.45
400.708	202.75
400.917	153.6
401.127	69.63
401.336	149.5
401.545	151.55
401.754	73.73
401.963	120.83
402.172	81.92
402.381	137.21
402.59	133.12
402.799	135.17
403.008	139.26
403.217	131.07
403.426	178.17
403.635	149.5
403.844	188.41
404.053	159.74
404.262	112.64
404.471	206.84
404.68	135.17
404.888	198.65
405.097	131.07
405.306	192.51
405.515	157.69
405.724	210.94
405.933	172.03
406.142	182.27
406.35	190.46
406.559	184.32
406.768	241.66
406.977	290.81
407.185	225.28
407.394	303.1
407.603	159.74
407.812	249.85
408.02	284.67
408.229	219.13
408.438	167.93
408.646	239.61
408.855	188.41
409.064	292.86
409.272	233.47
409.481	307.2
409.69	307.2
409.898	268.28
410.107	352.25
410.315	364.54
410.524	397.31
410.733	395.26
410.941	397.31
411.15	387.07
411.358	378.87
411.567	391.16
411.775	419.83
411.984	499.7
412.192	483.32
412.401	526.33
412.609	518.14
412.818	581.62
413.026	585.72
413.234	569.34
413.443	552.95
413.651	688.12
413.86	612.34
414.068	663.54
414.276	667.64
414.485	681.97
414.693	706.55
414.901	872.43
415.11	804.85
415.318	780.28
415.526	733.17
415.734	731.12
415.943	845.81
416.151	835.57
416.359	929.78
416.567	901.11
416.776	970.74
416.984	1066.99
417.192	1138.67
417.4	1081.33
417.608	1085.42
417.817	1130.48
418.025	1126.38
418.233	1294.32
418.441	1214.45
418.649	1368.04
418.857	1441.77
419.065	1495.02
419.273	1279.98
419.481	1411.05
419.689	1517.54
419.897	1572.84
420.105	1699.81
420.313	1751.01
420.521	1810.4
420.729	1806.31
420.937	1830.88
421.145	1961.95
421.353	2033.63
421.561	2070.5
421.769	2119.65
421.977	2265.05
422.185	2129.89
422.393	2258.91
422.601	2543.58
422.809	2340.83
423.017	2580.44
423.224	2707.41
423.432	2731.99
423.64	2703.32
423.848	2977.75
424.056	2871.25
424.263	3094.48
424.471	3112.91
424.679	3174.35
424.887	3282.89
425.094	3360.72
425.302	3430.35
425.51	3629
425.718	3629
425.925	3712.97
426.133	3911.62
426.341	4104.13
426.548	4249.54
426.756	4243.39
426.964	4251.58
427.171	4593.59
427.379	4763.58
427.586	4614.07
427.794	4827.06
428.001	5156.79
428.209	5316.53
428.417	5337.01
428.624	5513.13
428.832	5593
429.039	5578.67
429.247	5695.4
429.454	6059.94
429.662	6412.19
429.869	6168.48
430.076	6512.54
430.284	6434.72
430.491	6688.67
430.699	6924.18
430.906	6961.05
431.114	7104.4
431.321	7292.82
431.528	7614.35
431.736	7903.11
431.943	8216.45
432.15	8152.96
432.358	8052.61
432.565	8740.73
432.772	8595.32
432.979	9125.75
433.187	9269.11
433.394	9340.79
433.601	9967.46
433.808	9936.74
434.016	9736.04
434.223	10262.37
434.43	10979.16
434.637	10506.08
434.844	11339.6
435.052	11489.1
435.259	11296.6
435.466	11741
435.673	11550.54
435.88	12060.49
436.087	12877.63
436.294	12898.11
436.501	12574.53
436.708	12877.63
436.915	13295.41
437.122	13928.24
437.329	13918
437.537	14171.94
437.743	14456.61
437.95	14561.06
438.157	15150.87
438.364	15535.89
438.571	15644.43
438.778	15619.86
438.985	17190.65
439.192	16473.86
439.399	16951.04
439.606	16463.62
439.813	17569.52
440.02	18591.46
440.227	17958.64
440.433	18153.19
440.64	18894.56
440.847	18837.22
441.054	19054.3
441.261	20356.81
441.467	20008.65
441.674	20227.79
441.881	20975.3
442.088	21032.64
442.294	20926.14
442.501	21186.24
442.708	22105.77
442.914	22859.43
443.121	23651.99
443.328	22865.57
443.534	24587.91
443.741	23912.08
443.948	23506.59
444.154	25257.6
444.361	24841.86
444.568	25427.58
444.774	25333.37
444.981	25544.31
445.187	26418.8
445.394	27311.71
445.6	26842.73
445.807	29613.63
446.013	28182.1
446.22	28733
446.426	30068.28
446.633	30383.66
446.839	31034.92
447.046	30004.79
447.252	31585.82
447.459	31211.04
447.665	31729.18
447.871	32585.23
448.078	34037.24
448.284	32165.4
448.491	33699.33
448.697	34770.41
448.903	35276.26
449.11	35345.89
449.316	34950.63
449.522	35298.79
449.728	36144.6
449.935	36589.01
450.141	36249.05
450.347	37471.68
450.553	35976.67
450.76	36552.15
450.966	37782.98
451.172	37264.84
451.378	38211
451.584	37164.49
451.791	38254.01
451.997	37846.46
452.203	38213.05
452.409	38555.06
452.615	38202.81
452.821	36802
453.027	36093.4
453.233	38247.86
453.44	36427.22
453.646	37027.27
453.852	37311.94
454.058	37727.68
454.264	36468.18
454.47	37336.52
454.676	36699.6
454.882	37551.55
455.088	34538.99
455.294	34956.78
455.5	35462.63
455.705	35956.19
455.911	34272.76
456.117	33650.17
456.323	33252.87
456.529	31454.75
456.735	32671.25
456.941	31628.83
457.147	31381.03
457.352	30717.48
457.558	30076.47
457.764	29883.96
457.97	29613.63
458.176	28683.85
458.381	29040.2
458.587	27547.23
458.793	27387.49
458.999	25994.87
459.204	27817.56
459.41	27362.91
459.616	25443.96
459.821	25263.74
460.027	25286.27
460.233	24749.7
460.438	23430.81
460.644	23783.06
460.85	22746.79
461.055	22300.33
461.261	22486.7
461.466	20586.18
461.672	19916.5
461.878	21388.99
462.083	19971.79
462.289	19437.27
462.494	19648.21
462.7	18722.53
462.905	18073.32
463.111	18886.37
463.316	18876.13
463.522	18562.79
463.727	18519.78
463.932	18284.26
464.138	18151.15
464.343	18351.85
464.549	17682.16
464.754	18310.89
464.959	18263.79
465.165	18073.32
465.37	17274.62
465.575	16887.55
465.781	17368.82
465.986	17780.46
466.191	17061.63
466.397	16635.65
466.602	16158.47
466.807	16486.15
467.012	16475.91
467.218	16271.11
467.423	16242.44
467.628	16385.8
467.833	16799.49
468.038	16072.46
468.244	15935.24
