Data from USB4F104151__284__10-42-10-423.txt Node

Date: Wed Mar 12 10:42:10 EDT 2025
User: louis
Spectrometer: USB4F10415
Trigger mode: 4
Integration Time (sec): 3.000000E-2
Scans to average: 1
Electric dark correction enabled: true
Nonlinearity correction enabled: false
Boxcar width: 0
XAxis mode: Wavelengths
Number of Pixels in Spectrum: 3648
>>>>>Begin Spectral Data<<<<<
178.204	-66.05
178.424	-66.05
178.644	-66.05
178.864	-162.3
179.084	-137.73
179.304	75.26
179.524	-29.18
179.744	-86.53
179.964	-12.8
180.184	-14.85
180.404	-4.61
180.624	15.87
180.844	17.92
181.064	36.35
181.283	5.63
181.503	-29.18
181.723	26.11
181.943	-39.42
182.163	19.97
182.383	26.11
182.602	19.97
182.822	-6.66
183.042	32.26
183.262	-49.66
183.482	-49.66
183.701	-35.33
183.921	19.97
184.141	-33.28
184.361	108.03
184.58	-53.76
184.8	-4.61
185.02	19.97
185.239	15.87
185.459	-4.61
185.679	13.82
185.898	-4.61
186.118	67.07
186.338	54.78
186.557	3.58
186.777	-53.76
186.997	62.98
187.216	44.54
187.436	13.82
187.655	60.93
187.875	71.17
188.095	1.54
188.314	48.64
188.534	60.93
188.753	46.59
188.973	85.5
189.192	-0.51
189.412	22.02
189.631	-4.61
189.851	30.21
190.07	62.98
190.29	3.58
190.509	11.78
190.729	24.06
190.948	77.31
191.168	161.28
191.387	97.79
191.607	91.65
191.826	30.21
192.045	-8.7
192.265	-33.28
192.484	-20.99
192.704	34.3
192.923	-14.85
193.142	54.78
193.362	44.54
193.581	73.21
193.8	11.78
194.02	-4.61
194.239	-16.9
194.458	110.08
194.678	19.97
194.897	-53.76
195.116	-35.33
195.335	13.82
195.555	28.16
195.774	-2.56
195.993	77.31
196.212	62.98
196.432	34.3
196.651	-29.18
196.87	-0.51
197.089	54.78
197.308	58.88
197.528	54.78
197.747	-20.99
197.966	50.69
198.185	17.92
198.404	13.82
198.623	99.84
198.842	38.4
199.062	38.4
199.281	28.16
199.5	5.63
199.719	-8.7
199.938	-23.04
200.157	108.03
200.376	48.64
200.595	19.97
200.814	34.3
201.033	26.11
201.252	118.27
201.471	28.16
201.69	69.12
201.909	13.82
202.128	85.5
202.347	77.31
202.566	38.4
202.785	40.45
203.004	-72.19
203.223	69.12
203.442	5.63
203.661	-33.28
203.879	36.35
204.098	44.54
204.317	3.58
204.536	-14.85
204.755	89.6
204.974	44.54
205.193	24.06
205.411	56.83
205.63	40.45
205.849	50.69
206.068	17.92
206.287	11.78
206.505	56.83
206.724	-8.7
206.943	36.35
207.162	-47.62
207.381	75.26
207.599	19.97
207.818	36.35
208.037	28.16
208.255	34.3
208.474	-33.28
208.693	95.74
208.911	28.16
209.13	22.02
209.349	15.87
209.567	-16.9
209.786	28.16
210.005	24.06
210.223	56.83
210.442	7.68
210.661	77.31
210.879	52.74
211.098	-0.51
211.316	28.16
211.535	-23.04
211.753	34.3
211.972	-41.47
212.191	97.79
212.409	36.35
212.628	79.36
212.846	-43.52
213.065	101.89
213.283	48.64
213.502	9.73
213.72	44.54
213.938	89.6
214.157	-4.61
214.375	75.26
214.594	89.6
214.812	40.45
215.031	32.26
215.249	15.87
215.467	1.54
215.686	-10.75
215.904	108.03
216.122	-14.85
216.341	44.54
216.559	-35.33
216.778	103.93
216.996	38.4
217.214	-29.18
217.432	7.68
217.651	38.4
217.869	-16.9
218.087	79.36
218.306	-20.99
218.524	22.02
218.742	-39.42
218.96	48.64
219.179	69.12
219.397	58.88
219.615	79.36
219.833	3.58
220.051	69.12
220.27	65.02
220.488	48.64
220.706	32.26
220.924	-0.51
221.142	7.68
221.36	1.54
221.578	22.02
221.796	-10.75
222.015	7.68
222.233	75.26
222.451	56.83
222.669	67.07
222.887	36.35
223.105	5.63
223.323	52.74
223.541	-12.8
223.759	48.64
223.977	1.54
224.195	46.59
224.413	85.5
224.631	-43.52
224.849	7.68
225.067	-16.9
225.285	-53.76
225.503	-57.86
225.721	-18.94
225.939	-45.57
226.157	32.26
226.375	40.45
226.592	24.06
226.81	-37.38
227.028	9.73
227.246	69.12
227.464	-4.61
227.682	58.88
227.9	11.78
228.117	97.79
228.335	34.3
228.553	-20.99
228.771	26.11
228.989	52.74
229.206	71.17
229.424	-27.14
229.642	-25.09
229.86	-0.51
230.077	83.45
230.295	11.78
230.513	-20.99
230.731	77.31
230.948	110.08
231.166	3.58
231.384	44.54
231.601	-55.81
231.819	-14.85
232.037	50.69
232.254	11.78
232.472	32.26
232.689	-43.52
232.907	81.41
233.125	-23.04
233.342	5.63
233.56	-20.99
233.777	-39.42
233.995	77.31
234.213	77.31
234.43	89.6
234.648	65.02
234.865	52.74
235.083	60.93
235.3	-18.94
235.518	40.45
235.735	83.45
235.953	71.17
236.17	85.5
236.388	97.79
236.605	24.06
236.822	81.41
237.04	7.68
237.257	-31.23
237.475	38.4
237.692	48.64
237.909	71.17
238.127	-41.47
238.344	48.64
238.562	99.84
238.779	-12.8
238.996	-45.57
239.214	-4.61
239.431	95.74
239.648	-6.66
239.865	26.11
240.083	32.26
240.3	-104.96
240.517	19.97
240.735	11.78
240.952	54.78
241.169	77.31
241.386	28.16
241.603	-59.9
241.821	24.06
242.038	38.4
242.255	91.65
242.472	48.64
242.689	40.45
242.907	48.64
243.124	-12.8
243.341	28.16
243.558	-72.19
243.775	36.35
243.992	-6.66
244.209	-20.99
244.426	116.22
244.643	-0.51
244.86	52.74
245.078	42.5
245.295	-0.51
245.512	-0.51
245.729	-10.75
245.946	17.92
246.163	17.92
246.38	87.55
246.597	-25.09
246.814	-35.33
247.031	83.45
247.248	46.59
247.464	108.03
247.681	67.07
247.898	65.02
248.115	48.64
248.332	15.87
248.549	15.87
248.766	77.31
248.983	-4.61
249.2	28.16
249.417	65.02
249.633	56.83
249.85	44.54
250.067	50.69
250.284	69.12
250.501	101.89
250.717	24.06
250.934	54.78
251.151	56.83
251.368	48.64
251.585	93.69
251.801	52.74
252.018	26.11
252.235	44.54
252.451	-55.81
252.668	60.93
252.885	17.92
253.102	48.64
253.318	-2.56
253.535	3.58
253.752	69.12
253.968	69.12
254.185	-20.99
254.401	-4.61
254.618	11.78
254.835	7.68
255.051	85.5
255.268	11.78
255.484	13.82
255.701	62.98
255.917	28.16
256.134	-8.7
256.351	40.45
256.567	30.21
256.784	38.4
257	-70.14
257.217	-51.71
257.433	26.11
257.65	54.78
257.866	-8.7
258.082	28.16
258.299	52.74
258.515	9.73
258.732	3.58
258.948	11.78
259.165	38.4
259.381	-12.8
259.597	32.26
259.814	28.16
260.03	17.92
260.246	50.69
260.463	50.69
260.679	22.02
260.895	19.97
261.112	5.63
261.328	3.58
261.544	-14.85
261.761	48.64
261.977	15.87
262.193	-37.38
262.409	62.98
262.626	93.69
262.842	38.4
263.058	65.02
263.274	108.03
263.49	34.3
263.707	118.27
263.923	50.69
264.139	-20.99
264.355	52.74
264.571	19.97
264.787	58.88
265.004	103.93
265.22	32.26
265.436	15.87
265.652	7.68
265.868	48.64
266.084	3.58
266.3	11.78
266.516	13.82
266.732	34.3
266.948	-64
267.164	48.64
267.38	26.11
267.596	24.06
267.812	65.02
268.028	15.87
268.244	-8.7
268.46	89.6
268.676	58.88
268.892	-10.75
269.108	48.64
269.324	-16.9
269.54	56.83
269.756	38.4
269.972	-0.51
270.188	42.5
270.403	7.68
270.619	73.21
270.835	15.87
271.051	71.17
271.267	-78.33
271.483	79.36
271.698	36.35
271.914	-14.85
272.13	60.93
272.346	50.69
272.562	-49.66
272.777	75.26
272.993	22.02
273.209	9.73
273.425	-14.85
273.64	71.17
273.856	24.06
274.072	34.3
274.287	34.3
274.503	73.21
274.719	118.27
274.934	15.87
275.15	15.87
275.366	77.31
275.581	-29.18
275.797	91.65
276.012	26.11
276.228	9.73
276.444	42.5
276.659	28.16
276.875	7.68
277.09	-59.9
277.306	30.21
277.521	5.63
277.737	60.93
277.952	77.31
278.168	15.87
278.383	-6.66
278.599	3.58
278.814	24.06
279.03	-33.28
279.245	79.36
279.461	-16.9
279.676	77.31
279.892	-16.9
280.107	83.45
280.322	56.83
280.538	50.69
280.753	46.59
280.969	56.83
281.184	-27.14
281.399	44.54
281.615	19.97
281.83	24.06
282.045	-20.99
282.26	62.98
282.476	36.35
282.691	62.98
282.906	11.78
283.122	60.93
283.337	-35.33
283.552	56.83
283.767	-57.86
283.983	62.98
284.198	67.07
284.413	15.87
284.628	-27.14
284.843	26.11
285.058	11.78
285.274	54.78
285.489	17.92
285.704	-25.09
285.919	-37.38
286.134	38.4
286.349	60.93
286.564	-41.47
286.779	-2.56
286.995	7.68
287.21	5.63
287.425	56.83
287.64	32.26
287.855	19.97
288.07	54.78
288.285	50.69
288.5	24.06
288.715	134.65
288.93	1.54
289.145	71.17
289.36	15.87
289.575	38.4
289.79	34.3
290.004	110.08
290.219	134.65
290.434	75.26
290.649	34.3
290.864	15.87
291.079	50.69
291.294	-4.61
291.509	32.26
291.724	1.54
291.938	-29.18
292.153	-0.51
292.368	-25.09
292.583	81.41
292.798	36.35
293.012	28.16
293.227	19.97
293.442	36.35
293.657	28.16
293.871	83.45
294.086	15.87
294.301	85.5
294.516	75.26
294.73	99.84
294.945	-68.09
295.16	40.45
295.374	73.21
295.589	34.3
295.804	-33.28
296.018	89.6
296.233	58.88
296.447	40.45
296.662	24.06
296.877	34.3
297.091	85.5
297.306	-37.38
297.52	22.02
297.735	-8.7
297.949	-12.8
298.164	9.73
298.378	77.31
298.593	-2.56
298.807	83.45
299.022	48.64
299.236	85.5
299.451	58.88
299.665	46.59
299.88	54.78
300.094	-41.47
300.309	19.97
300.523	15.87
300.737	17.92
300.952	69.12
301.166	-33.28
301.381	9.73
301.595	-8.7
301.809	13.82
302.024	26.11
302.238	17.92
302.452	99.84
302.667	1.54
302.881	89.6
303.095	87.55
303.309	-20.99
303.524	-6.66
303.738	34.3
303.952	-29.18
304.166	89.6
304.381	50.69
304.595	36.35
304.809	11.78
305.023	110.08
305.237	-2.56
305.452	32.26
305.666	56.83
305.88	9.73
306.094	22.02
306.308	11.78
306.522	48.64
306.736	85.5
306.95	36.35
307.164	-29.18
307.379	24.06
307.593	28.16
307.807	28.16
308.021	32.26
308.235	-12.8
308.449	1.54
308.663	93.69
308.877	146.94
309.091	7.68
309.305	36.35
309.519	-41.47
309.733	56.83
309.947	-8.7
310.161	32.26
310.374	36.35
310.588	28.16
310.802	11.78
311.016	26.11
311.23	5.63
311.444	17.92
311.658	-16.9
311.872	83.45
312.085	130.56
312.299	91.65
312.513	48.64
312.727	19.97
312.941	97.79
313.154	89.6
313.368	42.5
313.582	26.11
313.796	28.16
314.009	26.11
314.223	24.06
314.437	-16.9
314.651	50.69
314.864	9.73
315.078	-0.51
315.292	44.54
315.505	38.4
315.719	105.98
315.933	-12.8
316.146	58.88
316.36	52.74
316.573	73.21
316.787	83.45
317.001	101.89
317.214	-6.66
317.428	-10.75
317.641	-14.85
317.855	1.54
318.068	65.02
318.282	73.21
318.495	79.36
318.709	91.65
318.922	-0.51
319.136	50.69
319.349	65.02
319.563	38.4
319.776	-0.51
319.99	32.26
320.203	69.12
320.417	11.78
320.63	34.3
320.843	153.09
321.057	120.32
321.27	71.17
321.483	81.41
321.697	40.45
321.91	83.45
322.124	-2.56
322.337	-23.04
322.55	75.26
322.763	28.16
322.977	30.21
323.19	-20.99
323.403	19.97
323.617	34.3
323.83	67.07
324.043	56.83
324.256	13.82
324.469	40.45
324.683	71.17
324.896	1.54
325.109	28.16
325.322	-37.38
325.535	48.64
325.748	28.16
325.962	5.63
326.175	38.4
326.388	81.41
326.601	85.5
326.814	73.21
327.027	69.12
327.24	101.89
327.453	7.68
327.666	17.92
327.879	67.07
328.092	69.12
328.305	28.16
328.518	89.6
328.731	77.31
328.944	73.21
329.157	118.27
329.37	44.54
329.583	148.99
329.796	40.45
330.009	-0.51
330.222	44.54
330.435	65.02
330.648	50.69
330.861	-0.51
331.073	69.12
331.286	26.11
331.499	48.64
331.712	17.92
331.925	42.5
332.138	1.54
332.35	75.26
332.563	32.26
332.776	32.26
332.989	5.63
333.202	50.69
333.414	34.3
333.627	50.69
333.84	32.26
334.053	87.55
334.265	46.59
334.478	-25.09
334.691	77.31
334.903	-27.14
335.116	-0.51
335.329	9.73
335.541	-14.85
335.754	103.93
335.966	-14.85
336.179	3.58
336.392	-47.62
336.604	65.02
336.817	44.54
337.029	-6.66
337.242	-20.99
337.454	30.21
337.667	85.5
337.88	69.12
338.092	-39.42
338.305	42.5
338.517	65.02
338.729	79.36
338.942	44.54
339.154	28.16
339.367	13.82
339.579	44.54
339.792	87.55
340.004	65.02
340.217	19.97
340.429	69.12
340.641	-33.28
340.854	65.02
341.066	54.78
341.278	87.55
341.491	52.74
341.703	-10.75
341.915	1.54
342.128	79.36
342.34	-0.51
342.552	-0.51
342.764	52.74
342.977	83.45
343.189	28.16
343.401	116.22
343.613	44.54
343.826	75.26
344.038	42.5
344.25	-12.8
344.462	44.54
344.674	65.02
344.886	85.5
345.099	101.89
345.311	-25.09
345.523	69.12
345.735	40.45
345.947	11.78
346.159	50.69
346.371	58.88
346.583	30.21
346.795	17.92
347.007	73.21
347.219	105.98
347.431	42.5
347.643	69.12
347.855	-18.94
348.067	91.65
348.279	-2.56
348.491	56.83
348.703	-12.8
348.915	65.02
349.127	1.54
349.339	-16.9
349.551	-57.86
349.763	54.78
349.975	54.78
350.187	87.55
350.399	62.98
350.61	103.93
350.822	7.68
351.034	62.98
351.246	13.82
351.458	77.31
351.669	9.73
351.881	87.55
352.093	42.5
352.305	9.73
352.517	44.54
352.728	93.69
352.94	54.78
353.152	32.26
353.363	30.21
353.575	7.68
353.787	118.27
353.999	71.17
354.21	71.17
354.422	24.06
354.633	3.58
354.845	91.65
355.057	32.26
355.268	91.65
355.48	75.26
355.692	34.3
355.903	17.92
356.115	-16.9
356.326	1.54
356.538	65.02
356.749	24.06
356.961	71.17
357.172	17.92
357.384	32.26
357.595	85.5
357.807	-31.23
358.018	19.97
358.23	-10.75
358.441	56.83
358.653	-16.9
358.864	56.83
359.075	24.06
359.287	81.41
359.498	83.45
359.709	79.36
359.921	15.87
360.132	-2.56
360.344	-27.14
360.555	36.35
360.766	13.82
360.977	9.73
361.189	77.31
361.4	28.16
361.611	120.32
361.823	28.16
362.034	42.5
362.245	-23.04
362.456	-23.04
362.667	17.92
362.879	19.97
363.09	-12.8
363.301	5.63
363.512	50.69
363.723	-33.28
363.935	24.06
364.146	-25.09
364.357	87.55
364.568	54.78
364.779	91.65
364.99	34.3
365.201	36.35
365.412	19.97
365.623	-29.18
365.834	126.46
366.045	36.35
366.256	19.97
366.467	48.64
366.678	50.69
366.889	69.12
367.1	19.97
367.311	126.46
367.522	36.35
367.733	77.31
367.944	77.31
368.155	28.16
368.366	46.59
368.577	146.94
368.788	71.17
368.999	-6.66
369.209	48.64
369.42	140.8
369.631	105.98
369.842	44.54
370.053	50.69
370.264	56.83
370.474	11.78
370.685	89.6
370.896	15.87
371.107	75.26
371.317	17.92
371.528	-33.28
371.739	108.03
371.95	97.79
372.16	75.26
372.371	65.02
372.582	48.64
372.792	50.69
373.003	34.3
373.214	-41.47
373.424	54.78
373.635	105.98
373.846	87.55
374.056	93.69
374.267	60.93
374.477	26.11
374.688	30.21
374.898	11.78
375.109	138.75
375.319	22.02
375.53	69.12
375.74	114.17
375.951	15.87
376.161	40.45
376.372	132.61
376.582	24.06
376.793	89.6
377.003	91.65
377.214	48.64
377.424	73.21
377.635	71.17
377.845	65.02
378.055	101.89
378.266	-12.8
378.476	32.26
378.686	146.94
378.897	65.02
379.107	1.54
379.317	73.21
379.528	79.36
379.738	60.93
379.948	58.88
380.158	67.07
380.369	36.35
380.579	44.54
380.789	15.87
380.999	124.41
381.21	93.69
381.42	112.13
381.63	17.92
381.84	46.59
382.05	105.98
382.261	54.78
382.471	81.41
382.681	130.56
382.891	65.02
383.101	13.82
383.311	67.07
383.521	58.88
383.731	69.12
383.941	65.02
384.151	62.98
384.361	75.26
384.571	110.08
384.781	103.93
384.991	62.98
385.201	134.65
385.411	169.47
385.621	108.03
385.831	65.02
386.041	73.21
386.251	-2.56
386.461	79.36
386.671	9.73
386.881	58.88
387.091	52.74
387.301	58.88
387.511	58.88
387.72	50.69
387.93	44.54
388.14	112.13
388.35	60.93
388.56	69.12
388.769	136.7
388.979	81.41
389.189	9.73
389.399	130.56
389.609	-14.85
389.818	175.61
390.028	69.12
390.238	163.33
390.447	120.32
390.657	73.21
390.867	15.87
391.076	81.41
391.286	148.99
391.496	50.69
391.705	93.69
391.915	91.65
392.125	89.6
392.334	65.02
392.544	120.32
392.753	169.47
392.963	36.35
393.172	15.87
393.382	38.4
393.591	97.79
393.801	79.36
394.01	1.54
394.22	124.41
394.429	101.89
394.639	60.93
394.848	118.27
395.058	65.02
395.267	52.74
395.477	58.88
395.686	134.65
395.895	134.65
396.105	163.33
396.314	99.84
396.524	81.41
396.733	44.54
396.942	144.89
397.152	40.45
397.361	169.47
397.57	126.46
397.78	130.56
397.989	101.89
398.198	136.7
398.407	75.26
398.617	71.17
398.826	114.17
399.035	85.5
399.244	204.28
399.453	126.46
399.663	105.98
399.872	189.95
400.081	93.69
400.29	169.47
400.499	13.82
400.708	114.17
400.917	34.3
401.127	151.04
401.336	105.98
401.545	196.09
401.754	142.85
401.963	114.17
402.172	175.61
402.381	148.99
402.59	126.46
402.799	159.23
403.008	118.27
403.217	148.99
403.426	220.67
403.635	130.56
403.844	179.71
404.053	108.03
404.262	118.27
404.471	232.96
404.68	128.51
404.888	183.81
405.097	183.81
405.306	171.52
405.515	126.46
405.724	126.46
405.933	245.24
406.142	175.61
406.35	212.48
406.559	83.45
406.768	226.81
406.977	271.87
407.185	253.44
407.394	228.86
407.603	228.86
407.812	267.77
408.02	226.81
408.229	208.38
408.438	323.07
408.646	216.57
408.855	216.57
409.064	310.78
409.272	333.31
409.481	269.82
409.69	341.5
409.898	288.25
410.107	351.74
410.315	339.45
410.524	321.02
410.733	378.36
410.941	443.9
411.15	480.76
411.358	380.41
411.567	478.71
411.775	525.82
411.984	394.75
412.192	509.43
412.401	630.26
412.609	527.86
412.818	546.3
413.026	542.2
413.234	628.21
413.443	587.26
413.651	568.82
413.86	648.69
414.068	667.13
414.276	732.66
414.485	697.85
414.693	738.8
414.901	839.16
415.11	830.96
415.318	742.9
415.526	884.21
415.734	914.93
415.943	951.79
416.151	994.8
416.359	1033.71
416.567	974.32
416.776	1086.96
416.984	1080.82
417.192	1127.92
417.4	1140.21
417.608	1232.37
417.817	1324.52
418.025	1269.23
418.233	1392.11
418.441	1406.44
418.649	1426.92
418.857	1508.84
419.065	1603.05
419.273	1541.61
419.481	1578.47
419.689	1732.07
419.897	1748.45
420.105	1850.85
420.313	1750.5
420.521	1867.24
420.729	1975.78
420.937	2080.22
421.145	2035.17
421.353	2100.7
421.561	2280.93
421.769	2373.08
421.977	2414.04
422.185	2428.38
422.393	2631.13
422.601	2794.97
422.809	2741.72
423.017	2794.97
423.224	2827.73
423.432	2911.7
423.64	3059.15
423.848	3352.01
424.056	3151.31
424.263	3472.84
424.471	3382.73
424.679	3483.08
424.887	3659.21
425.094	3808.71
425.302	3835.33
425.51	3956.16
425.718	4066.75
425.925	4089.28
426.133	4394.43
426.341	4545.98
426.548	4748.73
426.756	4740.54
426.964	4797.88
427.171	5129.65
427.379	5189.04
427.586	5258.67
427.794	5463.47
428.001	5688.75
428.209	5987.75
428.417	5873.06
428.624	6305.18
428.832	6294.94
429.039	6331.81
429.247	6280.61
429.454	6886.81
429.662	7372.18
429.869	7036.31
430.076	7349.65
430.284	7169.43
430.491	7456.14
430.699	7867.78
430.906	7949.7
431.114	7814.54
431.321	8355.2
431.528	8564.09
431.736	9049.46
431.943	9565.55
432.15	9141.62
432.358	9301.36
432.565	9743.72
432.772	9665.9
432.979	9930.09
433.187	10165.6
433.394	10384.74
433.601	11013.46
433.808	11099.48
434.016	11142.49
434.223	11687.25
434.43	12338.5
434.637	11953.48
434.844	12725.57
435.052	13028.67
435.259	13010.23
435.466	13092.15
435.673	12832.06
435.88	13776.17
436.087	14632.22
436.294	14583.07
436.501	14142.76
436.708	14185.77
436.915	14978.33
437.122	15873.29
437.329	15627.54
437.537	16135.43
437.743	16231.69
437.95	16395.53
438.157	17065.21
438.364	17472.76
438.571	17749.23
438.778	17515.76
438.985	19205.34
439.192	18654.44
439.399	19342.55
439.606	18533.61
439.813	19721.43
440.02	20974.78
440.227	20661.44
440.433	20389.06
440.64	21314.75
440.847	20958.4
441.054	21447.86
441.261	22879.39
441.467	22607.02
441.674	22973.6
441.881	23856.28
442.088	23637.14
442.294	23489.69
442.501	24558.73
442.708	24548.49
442.914	25957.49
443.121	26997.86
443.328	26113.14
443.534	28034.13
443.741	27196.51
443.948	27028.58
444.154	28982.34
444.361	28550.22
444.568	28961.86
444.774	28765.26
444.981	29031.49
445.187	29918.26
445.394	31286.31
445.6	30927.91
445.807	33760.25
446.013	32418.83
446.22	33078.28
446.426	34231.29
446.633	34190.33
446.839	35138.54
447.046	34069.5
447.252	35757.02
447.459	35976.16
447.665	35677.15
447.871	37098.44
448.078	38779.82
448.284	36852.69
448.491	38083.51
448.697	39177.13
448.903	39857.06
449.11	39883.68
449.316	39195.56
449.522	40149.92
449.728	40977.29
449.935	41233.29
450.141	41448.33
450.347	42101.63
450.553	40729.49
450.76	41237.39
450.966	42400.63
451.172	42271.61
451.378	42808.18
451.584	42089.34
451.791	43185.01
451.997	42648.44
452.203	43670.37
452.409	43664.23
452.615	43203.44
452.821	41743.24
453.027	41591.69
453.233	43508.58
453.44	41333.64
453.646	41712.52
453.852	42382.2
454.058	42742.64
454.264	41038.73
454.47	42185.6
454.676	41382.79
454.882	42517.37
455.088	38900.65
455.294	39162.79
455.5	40039.33
455.705	40457.11
455.911	38513.59
456.117	37594.05
456.323	37407.69
456.529	35226.6
456.735	36578.26
456.941	36242.39
457.147	35292.13
457.352	33930.23
457.558	33541.12
457.764	33713.15
457.97	33137.67
458.176	32392.21
458.381	32166.93
458.587	30938.15
458.793	30286.9
458.999	29080.64
459.204	31175.72
459.41	30440.5
459.616	28478.54
459.821	28468.3
460.027	28247.12
460.233	27681.88
460.438	26238.06
460.644	26776.68
460.85	25640.06
461.055	24929.41
461.261	25291.9
461.466	23037.09
461.672	22391.98
461.878	24325.26
462.083	22607.02
462.289	22164.65
462.494	21875.89
462.7	20946.11
462.905	20606.15
463.111	21218.49
463.316	21046.46
463.522	20671.68
463.727	21005.5
463.932	20751.56
464.138	20341.96
464.343	20749.51
464.549	19893.46
464.754	20591.81
464.959	20618.44
465.165	20638.92
465.37	19567.83
465.575	19041.5
465.781	20012.24
465.986	20131.02
466.191	19512.53
466.397	19107.04
466.602	18199.79
466.807	18687.2
467.012	18853.09
467.218	18619.62
