Data from USB4F104151__262__10-40-18-895.txt Node

Date: Wed Mar 12 10:40:18 EDT 2025
User: louis
Spectrometer: USB4F10415
Trigger mode: 4
Integration Time (sec): 3.000000E-2
Scans to average: 1
Electric dark correction enabled: true
Nonlinearity correction enabled: false
Boxcar width: 0
XAxis mode: Wavelengths
Number of Pixels in Spectrum: 3648
>>>>>Begin Spectral Data<<<<<
178.204	-99.84
178.424	-99.84
178.644	-99.84
178.864	-56.83
179.084	-52.74
179.304	-5.63
179.524	45.57
179.744	35.33
179.964	-38.4
180.184	-24.06
180.404	10.75
180.624	-50.69
180.844	0.51
181.064	-83.45
181.283	41.47
181.503	23.04
181.723	45.57
181.943	-28.16
182.163	68.09
182.383	-46.59
182.602	61.95
182.822	59.9
183.042	84.48
183.262	53.76
183.482	68.09
183.701	8.7
183.921	0.51
184.141	25.09
184.361	29.18
184.58	29.18
184.8	66.05
185.02	31.23
185.239	61.95
185.459	82.43
185.679	39.42
185.898	-24.06
186.118	78.33
186.338	18.94
186.557	78.33
186.777	49.66
186.997	57.86
187.216	82.43
187.436	100.86
187.655	57.86
187.875	70.14
188.095	104.96
188.314	35.33
188.534	74.24
188.753	-42.5
188.973	35.33
189.192	125.44
189.412	72.19
189.631	-30.21
189.851	-7.68
190.07	82.43
190.29	0.51
190.509	0.51
190.729	33.28
190.948	33.28
191.168	102.91
191.387	61.95
191.607	10.75
191.826	12.8
192.045	37.38
192.265	-3.58
192.484	43.52
192.704	61.95
192.923	-3.58
193.142	88.57
193.362	53.76
193.581	94.72
193.8	55.81
194.02	-7.68
194.239	72.19
194.458	35.33
194.678	20.99
194.897	23.04
195.116	18.94
195.335	35.33
195.555	20.99
195.774	74.24
195.993	66.05
196.212	80.38
196.432	8.7
196.651	86.53
196.87	25.09
197.089	137.73
197.308	53.76
197.528	43.52
197.747	14.85
197.966	94.72
198.185	111.1
198.404	-5.63
198.623	45.57
198.842	80.38
199.062	59.9
199.281	90.62
199.5	74.24
199.719	94.72
199.938	-22.02
200.157	68.09
200.376	27.14
200.595	111.1
200.814	-9.73
201.033	102.91
201.252	66.05
201.471	8.7
201.69	119.29
201.909	41.47
202.128	72.19
202.347	115.2
202.566	72.19
202.785	107.01
203.004	6.66
203.223	166.4
203.442	82.43
203.661	29.18
203.879	64
204.098	78.33
204.317	6.66
204.536	23.04
204.755	18.94
204.974	117.25
205.193	64
205.411	143.87
205.63	47.62
205.849	72.19
206.068	55.81
206.287	66.05
206.505	45.57
206.724	57.86
206.943	-3.58
207.162	16.9
207.381	47.62
207.599	55.81
207.818	70.14
208.037	8.7
208.255	76.29
208.474	66.05
208.693	0.51
208.911	35.33
209.13	37.38
209.349	-7.68
209.567	98.81
209.786	74.24
210.005	104.96
210.223	-30.21
210.442	45.57
210.661	123.39
210.879	20.99
211.098	31.23
211.316	49.66
211.535	47.62
211.753	55.81
211.972	96.77
212.191	45.57
212.409	86.53
212.628	51.71
212.846	39.42
213.065	90.62
213.283	125.44
213.502	43.52
213.72	94.72
213.938	-56.83
214.157	82.43
214.375	-7.68
214.594	104.96
214.812	127.49
215.031	66.05
215.249	-11.78
215.467	-19.97
215.686	23.04
215.904	115.2
216.122	2.56
216.341	57.86
216.559	45.57
216.778	147.97
216.996	68.09
217.214	84.48
217.432	78.33
217.651	33.28
217.869	55.81
218.087	57.86
218.306	64
218.524	37.38
218.742	12.8
218.96	70.14
219.179	109.05
219.397	33.28
219.615	53.76
219.833	98.81
220.051	-48.64
220.27	96.77
220.488	145.92
220.706	23.04
220.924	55.81
221.142	20.99
221.36	0.51
221.578	115.2
221.796	6.66
222.015	-13.82
222.233	27.14
222.451	37.38
222.669	20.99
222.887	-11.78
223.105	20.99
223.323	23.04
223.541	-22.02
223.759	2.56
223.977	16.9
224.195	37.38
224.413	78.33
224.631	23.04
224.849	45.57
225.067	78.33
225.285	113.15
225.503	45.57
225.721	59.9
225.939	84.48
226.157	98.81
226.375	201.21
226.592	39.42
226.81	27.14
227.028	59.9
227.246	33.28
227.464	57.86
227.682	61.95
227.9	96.77
228.117	64
228.335	43.52
228.553	80.38
228.771	37.38
228.989	78.33
229.206	55.81
229.424	129.53
229.642	90.62
229.86	-32.26
230.077	74.24
230.295	64
230.513	35.33
230.731	41.47
230.948	104.96
231.166	6.66
231.384	20.99
231.601	16.9
231.819	98.81
232.037	29.18
232.254	25.09
232.472	74.24
232.689	53.76
232.907	31.23
233.125	84.48
233.342	104.96
233.56	57.86
233.777	45.57
233.995	70.14
234.213	160.25
234.43	23.04
234.648	94.72
234.865	53.76
235.083	74.24
235.3	123.39
235.518	113.15
235.735	96.77
235.953	100.86
236.17	113.15
236.388	137.73
236.605	88.57
236.822	127.49
237.04	88.57
237.257	29.18
237.475	10.75
237.692	121.34
237.909	47.62
238.127	0.51
238.344	76.29
238.562	78.33
238.779	-15.87
238.996	-52.74
239.214	92.67
239.431	78.33
239.648	78.33
239.865	92.67
240.083	8.7
240.3	4.61
240.517	37.38
240.735	41.47
240.952	29.18
241.169	102.91
241.386	82.43
241.603	98.81
241.821	-15.87
242.038	-28.16
242.255	25.09
242.472	-7.68
242.689	64
242.907	82.43
243.124	16.9
243.341	35.33
243.558	41.47
243.775	0.51
243.992	-7.68
244.209	72.19
244.426	107.01
244.643	129.53
244.86	57.86
245.078	14.85
245.295	107.01
245.512	94.72
245.729	25.09
245.946	135.68
246.163	49.66
246.38	-3.58
246.597	64
246.814	55.81
247.031	66.05
247.248	-7.68
247.464	82.43
247.681	111.1
247.898	57.86
248.115	61.95
248.332	39.42
248.549	43.52
248.766	88.57
248.983	143.87
249.2	137.73
249.417	107.01
249.633	80.38
249.85	80.38
250.067	59.9
250.284	59.9
250.501	72.19
250.717	37.38
250.934	-22.02
251.151	37.38
251.368	29.18
251.585	25.09
251.801	51.71
252.018	-44.54
252.235	74.24
252.451	0.51
252.668	-15.87
252.885	72.19
253.102	82.43
253.318	33.28
253.535	47.62
253.752	37.38
253.968	102.91
254.185	61.95
254.401	78.33
254.618	80.38
254.835	16.9
255.051	88.57
255.268	92.67
255.484	27.14
255.701	45.57
255.917	102.91
256.134	-32.26
256.351	39.42
256.567	59.9
256.784	72.19
257	104.96
257.217	117.25
257.433	90.62
257.65	61.95
257.866	92.67
258.082	98.81
258.299	8.7
258.515	27.14
258.732	45.57
258.948	53.76
259.165	14.85
259.381	35.33
259.597	41.47
259.814	57.86
260.03	88.57
260.246	115.2
260.463	55.81
260.679	80.38
260.895	18.94
261.112	39.42
261.328	109.05
261.544	33.28
261.761	8.7
261.977	-28.16
262.193	45.57
262.409	90.62
262.626	94.72
262.842	8.7
263.058	20.99
263.274	74.24
263.49	82.43
263.707	109.05
263.923	53.76
264.139	-112.13
264.355	57.86
264.571	115.2
264.787	68.09
265.004	100.86
265.22	8.7
265.436	14.85
265.652	74.24
265.868	125.44
266.084	-28.16
266.3	82.43
266.516	70.14
266.732	111.1
266.948	37.38
267.164	76.29
267.38	55.81
267.596	160.25
267.812	94.72
268.028	68.09
268.244	25.09
268.46	55.81
268.676	20.99
268.892	35.33
269.108	12.8
269.324	68.09
269.54	18.94
269.756	94.72
269.972	16.9
270.188	25.09
270.403	-3.58
270.619	156.16
270.835	53.76
271.051	-7.68
271.267	64
271.483	6.66
271.698	16.9
271.914	51.71
272.13	23.04
272.346	86.53
272.562	68.09
272.777	102.91
272.993	-52.74
273.209	-3.58
273.425	94.72
273.64	37.38
273.856	145.92
274.072	10.75
274.287	135.68
274.503	109.05
274.719	94.72
274.934	74.24
275.15	98.81
275.366	-9.73
275.581	31.23
275.797	39.42
276.012	41.47
276.228	70.14
276.444	0.51
276.659	57.86
276.875	68.09
277.09	102.91
277.306	16.9
277.521	86.53
277.737	-3.58
277.952	107.01
278.168	64
278.383	29.18
278.599	-30.21
278.814	168.45
279.03	39.42
279.245	107.01
279.461	78.33
279.676	190.97
279.892	-22.02
280.107	66.05
280.322	64
280.538	25.09
280.753	-5.63
280.969	47.62
281.184	43.52
281.399	78.33
281.615	53.76
281.83	143.87
282.045	8.7
282.26	-24.06
282.476	84.48
282.691	152.06
282.906	72.19
283.122	-26.11
283.337	47.62
283.552	113.15
283.767	-3.58
283.983	10.75
284.198	76.29
284.413	41.47
284.628	53.76
284.843	39.42
285.058	64
285.274	74.24
285.489	55.81
285.704	68.09
285.919	39.42
286.134	70.14
286.349	33.28
286.564	6.66
286.779	90.62
286.995	14.85
287.21	29.18
287.425	33.28
287.64	88.57
287.855	-3.58
288.07	-15.87
288.285	209.4
288.5	16.9
288.715	45.57
288.93	76.29
289.145	31.23
289.36	43.52
289.575	6.66
289.79	45.57
290.004	49.66
290.219	72.19
290.434	59.9
290.649	8.7
290.864	-32.26
291.079	61.95
291.294	147.97
291.509	74.24
291.724	37.38
291.938	57.86
292.153	102.91
292.368	-13.82
292.583	57.86
292.798	2.56
293.012	25.09
293.227	-15.87
293.442	72.19
293.657	125.44
293.871	88.57
294.086	49.66
294.301	86.53
294.516	25.09
294.73	117.25
294.945	23.04
295.16	64
295.374	76.29
295.589	113.15
295.804	61.95
296.018	29.18
296.233	70.14
296.447	-36.35
296.662	4.61
296.877	80.38
297.091	104.96
297.306	41.47
297.52	119.29
297.735	57.86
297.949	49.66
298.164	84.48
298.378	94.72
298.593	-62.98
298.807	16.9
299.022	131.58
299.236	78.33
299.451	16.9
299.665	72.19
299.88	45.57
300.094	29.18
300.309	100.86
300.523	104.96
300.737	35.33
300.952	74.24
301.166	43.52
301.381	-1.54
301.595	16.9
301.809	86.53
302.024	113.15
302.238	70.14
302.452	68.09
302.667	78.33
302.881	8.7
303.095	84.48
303.309	129.53
303.524	80.38
303.738	76.29
303.952	37.38
304.166	27.14
304.381	-36.35
304.595	43.52
304.809	55.81
305.023	84.48
305.237	23.04
305.452	109.05
305.666	55.81
305.88	100.86
306.094	86.53
306.308	49.66
306.522	98.81
306.736	57.86
306.95	100.86
307.164	86.53
307.379	14.85
307.593	152.06
307.807	64
308.021	43.52
308.235	6.66
308.449	53.76
308.663	0.51
308.877	84.48
309.091	72.19
309.305	147.97
309.519	-19.97
309.733	88.57
309.947	107.01
310.161	127.49
310.374	45.57
310.588	94.72
310.802	86.53
311.016	82.43
311.23	125.44
311.444	6.66
311.658	12.8
311.872	53.76
312.085	39.42
312.299	39.42
312.513	64
312.727	37.38
312.941	78.33
313.154	78.33
313.368	113.15
313.582	33.28
313.796	90.62
314.009	27.14
314.223	57.86
314.437	102.91
314.651	49.66
314.864	4.61
315.078	10.75
315.292	90.62
315.505	0.51
315.719	107.01
315.933	123.39
316.146	16.9
316.36	57.86
316.573	88.57
316.787	72.19
317.001	123.39
317.214	74.24
317.428	115.2
317.641	18.94
317.855	92.67
318.068	61.95
318.282	109.05
318.495	82.43
318.709	129.53
318.922	70.14
319.136	76.29
319.349	82.43
319.563	90.62
319.776	-32.26
319.99	51.71
320.203	94.72
320.417	53.76
320.63	57.86
320.843	164.35
321.057	33.28
321.27	66.05
321.483	70.14
321.697	123.39
321.91	111.1
322.124	107.01
322.337	70.14
322.55	64
322.763	72.19
322.977	70.14
323.19	70.14
323.403	72.19
323.617	135.68
323.83	33.28
324.043	0.51
324.256	104.96
324.469	35.33
324.683	49.66
324.896	59.9
325.109	131.58
325.322	72.19
325.535	72.19
325.748	35.33
325.962	100.86
326.175	4.61
326.388	29.18
326.601	107.01
326.814	117.25
327.027	-7.68
327.24	107.01
327.453	-28.16
327.666	78.33
327.879	31.23
328.092	70.14
328.305	92.67
328.518	61.95
328.731	86.53
328.944	80.38
329.157	29.18
329.37	31.23
329.583	82.43
329.796	47.62
330.009	49.66
330.222	25.09
330.435	109.05
330.648	145.92
330.861	55.81
331.073	66.05
331.286	109.05
331.499	104.96
331.712	18.94
331.925	88.57
332.138	113.15
332.35	135.68
332.563	14.85
332.776	53.76
332.989	-7.68
333.202	154.11
333.414	119.29
333.627	51.71
333.84	80.38
334.053	98.81
334.265	29.18
334.478	66.05
334.691	78.33
334.903	47.62
335.116	18.94
335.329	78.33
335.541	88.57
335.754	109.05
335.966	102.91
336.179	33.28
336.392	90.62
336.604	8.7
336.817	94.72
337.029	57.86
337.242	115.2
337.454	98.81
337.667	82.43
337.88	111.1
338.092	156.16
338.305	78.33
338.517	49.66
338.729	82.43
338.942	80.38
339.154	16.9
339.367	45.57
339.579	37.38
339.792	14.85
340.004	68.09
340.217	90.62
340.429	86.53
340.641	43.52
340.854	92.67
341.066	102.91
341.278	139.77
341.491	119.29
341.703	119.29
341.915	0.51
342.128	125.44
342.34	84.48
342.552	80.38
342.764	49.66
342.977	55.81
343.189	45.57
343.401	139.77
343.613	86.53
343.826	74.24
344.038	98.81
344.25	102.91
344.462	49.66
344.674	78.33
344.886	0.51
345.099	53.76
345.311	78.33
345.523	66.05
345.735	39.42
345.947	39.42
346.159	66.05
346.371	57.86
346.583	90.62
346.795	139.77
347.007	41.47
347.219	96.77
347.431	29.18
347.643	121.34
347.855	49.66
348.067	100.86
348.279	57.86
348.491	94.72
348.703	131.58
348.915	61.95
349.127	12.8
349.339	64
349.551	-9.73
349.763	39.42
349.975	55.81
350.187	86.53
350.399	129.53
350.61	98.81
350.822	-3.58
351.034	80.38
351.246	35.33
351.458	100.86
351.669	57.86
351.881	43.52
352.093	51.71
352.305	57.86
352.517	49.66
352.728	107.01
352.94	109.05
353.152	25.09
353.363	96.77
353.575	84.48
353.787	49.66
353.999	35.33
354.21	45.57
354.422	57.86
354.633	53.76
354.845	64
355.057	72.19
355.268	74.24
355.48	115.2
355.692	68.09
355.903	4.61
356.115	53.76
356.326	57.86
356.538	66.05
356.749	29.18
356.961	94.72
357.172	-58.88
357.384	10.75
357.595	156.16
357.807	23.04
358.018	131.58
358.23	35.33
358.441	158.21
358.653	45.57
358.864	109.05
359.075	12.8
359.287	0.51
359.498	98.81
359.709	61.95
359.921	61.95
360.132	39.42
360.344	88.57
360.555	25.09
360.766	145.92
360.977	29.18
361.189	90.62
361.4	-11.78
361.611	72.19
361.823	96.77
362.034	51.71
362.245	33.28
362.456	70.14
362.667	104.96
362.879	2.56
363.09	117.25
363.301	80.38
363.512	37.38
363.723	80.38
363.935	113.15
364.146	29.18
364.357	55.81
364.568	76.29
364.779	41.47
364.99	143.87
365.201	84.48
365.412	129.53
365.623	35.33
365.834	131.58
366.045	72.19
366.256	74.24
366.467	121.34
366.678	72.19
366.889	109.05
367.1	158.21
367.311	156.16
367.522	51.71
367.733	127.49
367.944	82.43
368.155	39.42
368.366	131.58
368.577	125.44
368.788	74.24
368.999	76.29
369.209	51.71
369.42	176.64
369.631	125.44
369.842	43.52
370.053	10.75
370.264	129.53
370.474	25.09
370.685	74.24
370.896	18.94
371.107	109.05
371.317	90.62
371.528	86.53
371.739	86.53
371.95	94.72
372.16	133.63
372.371	66.05
372.582	139.77
372.792	94.72
373.003	86.53
373.214	129.53
373.424	74.24
373.635	16.9
373.846	102.91
374.056	94.72
374.267	127.49
374.477	109.05
374.688	51.71
374.898	37.38
375.109	72.19
375.319	88.57
375.53	129.53
375.74	33.28
375.951	-15.87
376.161	115.2
376.372	141.82
376.582	4.61
376.793	115.2
377.003	23.04
377.214	182.78
377.424	160.25
377.635	61.95
377.845	0.51
378.055	76.29
378.266	-1.54
378.476	55.81
378.686	47.62
378.897	80.38
379.107	137.73
379.317	131.58
379.528	12.8
379.738	121.34
379.948	70.14
380.158	125.44
380.369	39.42
380.579	174.59
380.789	115.2
380.999	66.05
381.21	147.97
381.42	147.97
381.63	72.19
381.84	113.15
382.05	94.72
382.261	98.81
382.471	16.9
382.681	100.86
382.891	109.05
383.101	57.86
383.311	55.81
383.521	57.86
383.731	123.39
383.941	123.39
384.151	94.72
384.361	121.34
384.571	55.81
384.781	168.45
384.991	51.71
385.201	156.16
385.411	107.01
385.621	102.91
385.831	66.05
386.041	170.49
386.251	72.19
386.461	111.1
386.671	64
386.881	188.93
387.091	10.75
387.301	80.38
387.511	121.34
387.72	96.77
387.93	53.76
388.14	-24.06
388.35	72.19
388.56	102.91
388.769	68.09
388.979	121.34
389.189	29.18
389.399	51.71
389.609	100.86
389.818	82.43
390.028	45.57
390.238	141.82
390.447	117.25
390.657	147.97
390.867	47.62
391.076	2.56
391.286	115.2
391.496	109.05
391.705	104.96
391.915	133.63
392.125	80.38
392.334	147.97
392.544	156.16
392.753	57.86
392.963	107.01
393.172	53.76
393.382	98.81
393.591	107.01
393.801	74.24
394.01	121.34
394.22	119.29
394.429	133.63
394.639	147.97
394.848	125.44
395.058	139.77
395.267	143.87
395.477	102.91
395.686	86.53
395.895	150.01
396.105	158.21
396.314	152.06
396.524	37.38
396.733	72.19
396.942	154.11
397.152	195.07
397.361	211.45
397.57	115.2
397.78	162.3
397.989	150.01
398.198	164.35
398.407	64
398.617	78.33
398.826	135.68
399.035	160.25
399.244	152.06
399.453	123.39
399.663	207.36
399.872	154.11
400.081	137.73
400.29	164.35
400.499	104.96
400.708	176.64
400.917	170.49
401.127	123.39
401.336	115.2
401.545	170.49
401.754	129.53
401.963	176.64
402.172	78.33
402.381	180.73
402.59	152.06
402.799	162.3
403.008	186.88
403.217	197.12
403.426	197.12
403.635	219.64
403.844	176.64
404.053	266.75
404.262	137.73
404.471	197.12
404.68	176.64
404.888	104.96
405.097	176.64
405.306	221.69
405.515	272.89
405.724	172.54
405.933	231.93
406.142	199.16
406.35	254.46
406.559	201.21
406.768	254.46
406.977	324.09
407.185	336.38
407.394	223.74
407.603	268.8
407.812	279.04
408.02	358.91
408.229	279.04
408.438	295.42
408.646	242.17
408.855	287.23
409.064	289.28
409.272	328.19
409.481	354.81
409.69	344.57
409.898	352.76
410.107	444.92
410.315	344.57
410.524	344.57
410.733	449.02
410.941	422.39
411.15	449.02
411.358	500.22
411.567	578.04
411.775	461.3
411.984	543.22
412.192	631.29
412.401	541.18
412.609	530.94
412.818	639.48
413.026	702.97
413.234	518.65
413.443	487.93
413.651	657.91
413.86	694.77
414.068	696.82
414.276	825.84
414.485	702.97
414.693	741.88
414.901	809.46
415.11	928.24
415.318	860.66
415.526	852.47
415.734	991.73
415.943	946.67
416.151	987.63
416.359	1032.69
416.567	1069.55
416.776	1174
416.984	1176.05
417.192	1204.72
417.4	1178.09
417.608	1208.81
417.817	1286.64
418.025	1294.83
418.233	1417.71
418.441	1343.98
418.649	1481.19
418.857	1548.78
419.065	1530.34
419.273	1532.39
419.481	1647.08
419.689	1786.34
419.897	1772
420.105	1845.73
420.313	1819.11
420.521	1968.61
420.729	2077.15
420.937	2099.68
421.145	2105.82
421.353	2275.81
421.561	2327
421.769	2271.71
421.977	2525.66
422.185	2472.41
422.393	2505.18
422.601	2701.78
422.809	2703.83
423.017	2816.47
423.224	2943.44
423.432	2853.33
423.64	3072.47
423.848	3375.56
424.056	3168.72
424.263	3459.53
424.471	3566.03
424.679	3394
424.887	3688.9
425.094	3701.19
425.302	3860.93
425.51	4037.06
425.718	4108.74
425.925	4200.9
426.133	4202.94
426.341	4487.61
426.548	4710.84
426.756	4628.92
426.964	4903.35
427.171	5145.01
427.379	5171.63
427.586	5231.02
427.794	5566.89
428.001	5869.99
428.209	6019.49
428.417	5831.08
428.624	6324.64
428.832	6259.1
429.039	6330.78
429.247	6134.18
429.454	6865.3
429.662	7131.54
429.869	6627.74
430.076	7254.42
430.284	7131.54
430.491	7602.57
430.699	7821.7
430.906	7797.13
431.114	8001.93
431.321	8245.63
431.528	8497.53
431.736	8855.93
431.943	9298.29
432.15	9148.79
432.358	9191.8
432.565	9767.27
432.772	9697.64
432.979	10262.88
433.187	10408.29
433.394	10461.54
433.601	11120.98
433.808	11323.73
434.016	10981.72
434.223	11608.4
434.43	12349.76
434.637	12081.48
434.844	12654.91
435.052	13013.31
435.259	12833.08
435.466	13050.17
435.673	12972.35
435.88	13779.25
436.087	14481.7
436.294	14455.08
436.501	14354.72
436.708	14440.74
436.915	14752.03
437.122	15833.36
437.329	15497.49
437.537	16048.4
437.743	16357.64
437.95	16101.64
438.157	17268.98
438.364	17807.6
438.571	17606.9
438.778	17670.39
438.985	19321.05
439.192	18841.82
439.399	19275.99
439.606	18819.3
439.813	19921.1
440.02	21057.73
440.227	20773.06
440.433	20596.93
440.64	21328.06
440.847	20867.27
441.054	21674.17
441.261	22784.16
441.467	22450.35
441.674	23314.59
441.881	23900.31
442.088	23883.92
442.294	24000.66
442.501	24549.51
442.708	24887.43
442.914	26194.03
443.121	26794.09
443.328	26376.3
443.534	28127.31
443.741	27625.56
443.948	26937.44
444.154	29227.07
444.361	28948.55
444.568	29032.52
444.774	28844.1
444.981	29440.06
445.187	30015.54
445.394	31440.93
445.6	31336.48
445.807	33951.74
446.013	32528.4
446.22	33167.37
446.426	34187.25
446.633	34525.17
446.839	35794.91
447.046	34347
447.252	36341.72
447.459	36194.26
447.665	36055
447.871	37691.33
448.078	39311.27
448.284	37146.57
448.491	38305.72
448.697	39675.81
448.903	40593.3
449.11	40667.03
449.316	39751.59
449.522	40501.14
449.728	41781.12
449.935	41992.06
450.141	41822.08
450.347	42882.93
450.553	40980.37
450.76	42006.4
450.966	42848.11
451.172	42751.86
451.378	43759.46
451.584	42528.63
451.791	44048.22
451.997	43390.83
452.203	44195.68
452.409	44257.12
452.615	43841.38
452.821	42332.03
453.027	41842.56
453.233	43933.54
453.44	42039.17
453.646	42790.77
453.852	42657.65
454.058	43222.89
454.264	41791.36
454.47	42868.59
454.676	42071.93
454.882	43026.29
455.088	39364.52
455.294	39839.65
455.5	40427.42
455.705	40523.67
455.911	39028.65
456.117	38264.76
456.323	37844.93
456.529	35844.06
456.735	37222.34
456.941	35932.12
457.147	35874.78
457.352	34666.48
457.558	34203.64
457.764	34168.82
457.97	33529.86
458.176	32821.26
458.381	32862.22
458.587	31227.94
458.793	30935.08
458.999	29327.42
459.204	31655.96
459.41	30631.98
459.616	28733.51
459.821	28813.38
460.027	28287.06
460.233	28055.64
460.438	26402.93
460.644	27142.24
460.85	25659.51
461.055	25163.9
461.261	25139.33
461.466	23554.2
461.672	22562.98
461.878	24223.89
462.083	22714.53
462.289	22331.56
462.494	22112.43
462.7	21059.77
462.905	20383.94
463.111	21395.64
463.316	21389.5
463.522	21010.62
463.727	20928.7
463.932	21063.87
464.138	20689.09
464.343	20754.63
464.549	20160.72
464.754	20725.96
464.959	20502.73
465.165	20654.28
465.37	19865.81
465.575	18901.22
465.781	19992.78
465.986	20160.72
466.191	18981.09
466.397	19106.01
466.602	18047.21
