Data from USB4F104151__213__10-29-56-517.txt Node

Date: Wed Mar 12 10:29:56 EDT 2025
User: louis
Spectrometer: USB4F10415
Trigger mode: 4
Integration Time (sec): 3.000000E-2
Scans to average: 1
Electric dark correction enabled: true
Nonlinearity correction enabled: false
Boxcar width: 0
XAxis mode: Wavelengths
Number of Pixels in Spectrum: 3648
>>>>>Begin Spectral Data<<<<<
178.204	-96.43
178.424	-96.43
178.644	-96.43
178.864	-151.72
179.084	-118.95
179.304	-34.99
179.524	-30.89
179.744	10.07
179.964	14.17
180.184	-18.6
180.404	20.31
180.624	-30.89
180.844	-12.46
181.064	14.17
181.283	36.69
181.503	-47.27
181.723	79.7
181.943	-4.27
182.163	75.6
182.383	65.36
182.602	59.22
182.822	-6.31
183.042	10.07
183.262	-65.71
183.482	-16.55
183.701	79.7
183.921	55.12
184.141	22.36
184.361	67.41
184.58	22.36
184.8	-6.31
185.02	71.51
185.239	-2.22
185.459	94.04
185.679	14.17
185.898	18.26
186.118	75.6
186.338	1.88
186.557	-2.22
186.777	12.12
186.997	20.31
187.216	-12.46
187.436	96.08
187.655	14.17
187.875	22.36
188.095	-63.66
188.314	100.18
188.534	118.61
188.753	-6.31
188.973	24.4
189.192	-10.41
189.412	110.42
189.631	44.88
189.851	-24.75
190.07	91.99
190.29	-41.13
190.509	-24.75
190.729	-22.7
190.948	116.56
191.168	161.62
191.387	57.17
191.607	87.89
191.826	83.8
192.045	-6.31
192.265	38.74
192.484	44.88
192.704	12.12
192.923	-12.46
193.142	104.28
193.362	22.36
193.581	132.95
193.8	85.84
194.02	42.84
194.239	1.88
194.458	104.28
194.678	1.88
194.897	67.41
195.116	-4.27
195.335	59.22
195.555	42.84
195.774	63.32
195.993	51.03
196.212	38.74
196.432	57.17
196.651	5.97
196.87	26.45
197.089	55.12
197.308	32.6
197.528	22.36
197.747	-10.41
197.966	-14.51
198.185	102.23
198.404	28.5
198.623	1.88
198.842	10.07
199.062	36.69
199.281	63.32
199.5	3.93
199.719	126.8
199.938	38.74
200.157	42.84
200.376	-4.27
200.595	46.93
200.814	40.79
201.033	42.84
201.252	20.31
201.471	5.97
201.69	1.88
201.909	-18.6
202.128	110.42
202.347	59.22
202.566	46.93
202.785	-2.22
203.004	34.64
203.223	128.85
203.442	1.88
203.661	75.6
203.879	14.17
204.098	-0.17
204.317	-6.31
204.536	63.32
204.755	57.17
204.974	104.28
205.193	-20.65
205.411	124.76
205.63	91.99
205.849	53.08
206.068	51.03
206.287	-2.22
206.505	42.84
206.724	48.98
206.943	18.26
207.162	-12.46
207.381	96.08
207.599	42.84
207.818	-30.89
208.037	38.74
208.255	69.46
208.474	-18.6
208.693	91.99
208.911	30.55
209.13	8.02
209.349	5.97
209.567	38.74
209.786	-6.31
210.005	73.56
210.223	67.41
210.442	-14.51
210.661	83.8
210.879	-20.65
211.098	38.74
211.316	10.07
211.535	26.45
211.753	26.45
211.972	22.36
212.191	16.21
212.409	91.99
212.628	8.02
212.846	36.69
213.065	108.37
213.283	83.8
213.502	-2.22
213.72	71.51
213.938	118.61
214.157	34.64
214.375	32.6
214.594	32.6
214.812	42.84
215.031	30.55
215.249	38.74
215.467	81.75
215.686	34.64
215.904	42.84
216.122	91.99
216.341	91.99
216.559	87.89
216.778	96.08
216.996	55.12
217.214	-4.27
217.432	63.32
217.651	44.88
217.869	57.17
218.087	-14.51
218.306	71.51
218.524	10.07
218.742	87.89
218.96	91.99
219.179	-12.46
219.397	30.55
219.615	42.84
219.833	53.08
220.051	1.88
220.27	124.76
220.488	85.84
220.706	87.89
220.924	-14.51
221.142	-6.31
221.36	57.17
221.578	59.22
221.796	87.89
222.015	32.6
222.233	106.32
222.451	65.36
222.669	-30.89
222.887	85.84
223.105	-43.18
223.323	59.22
223.541	28.5
223.759	61.27
223.977	18.26
224.195	102.23
224.413	89.94
224.631	77.65
224.849	79.7
225.067	108.37
225.285	57.17
225.503	114.52
225.721	106.32
225.939	38.74
226.157	67.41
226.375	106.32
226.592	32.6
226.81	24.4
227.028	32.6
227.246	53.08
227.464	42.84
227.682	24.4
227.9	71.51
228.117	116.56
228.335	73.56
228.553	46.93
228.771	44.88
228.989	100.18
229.206	57.17
229.424	-18.6
229.642	30.55
229.86	77.65
230.077	44.88
230.295	63.32
230.513	63.32
230.731	42.84
230.948	48.98
231.166	61.27
231.384	-10.41
231.601	18.26
231.819	100.18
232.037	40.79
232.254	-8.36
232.472	59.22
232.689	36.69
232.907	71.51
233.125	42.84
233.342	8.02
233.56	73.56
233.777	22.36
233.995	18.26
234.213	91.99
234.43	57.17
234.648	71.51
234.865	18.26
235.083	94.04
235.3	36.69
235.518	79.7
235.735	65.36
235.953	55.12
236.17	38.74
236.388	1.88
236.605	12.12
236.822	26.45
237.04	40.79
237.257	-2.22
237.475	-0.17
237.692	51.03
237.909	77.65
238.127	61.27
238.344	79.7
238.562	24.4
238.779	79.7
238.996	-26.79
239.214	42.84
239.431	118.61
239.648	83.8
239.865	-2.22
240.083	53.08
240.3	34.64
240.517	1.88
240.735	89.94
240.952	114.52
241.169	-8.36
241.386	5.97
241.603	-0.17
241.821	-14.51
242.038	71.51
242.255	38.74
242.472	12.12
242.689	-16.55
242.907	53.08
243.124	94.04
243.341	18.26
243.558	42.84
243.775	40.79
243.992	46.93
244.209	48.98
244.426	77.65
244.643	16.21
244.86	36.69
245.078	30.55
245.295	85.84
245.512	48.98
245.729	22.36
245.946	83.8
246.163	36.69
246.38	83.8
246.597	94.04
246.814	10.07
247.031	40.79
247.248	-37.03
247.464	102.23
247.681	36.69
247.898	104.28
248.115	-6.31
248.332	79.7
248.549	46.93
248.766	75.6
248.983	18.26
249.2	32.6
249.417	75.6
249.633	14.17
249.85	75.6
250.067	3.93
250.284	34.64
250.501	12.12
250.717	75.6
250.934	48.98
251.151	-6.31
251.368	51.03
251.585	57.17
251.801	44.88
252.018	44.88
252.235	85.84
252.451	48.98
252.668	32.6
252.885	96.08
253.102	-0.17
253.318	34.64
253.535	63.32
253.752	53.08
253.968	83.8
254.185	24.4
254.401	71.51
254.618	16.21
254.835	16.21
255.051	53.08
255.268	22.36
255.484	26.45
255.701	1.88
255.917	22.36
256.134	-47.27
256.351	91.99
256.567	20.31
256.784	-41.13
257	67.41
257.217	116.56
257.433	108.37
257.65	40.79
257.866	122.71
258.082	28.5
258.299	51.03
258.515	65.36
258.732	5.97
258.948	53.08
259.165	22.36
259.381	36.69
259.597	24.4
259.814	69.46
260.03	42.84
260.246	8.02
260.463	100.18
260.679	67.41
260.895	34.64
261.112	51.03
261.328	106.32
261.544	83.8
261.761	83.8
261.977	48.98
262.193	-10.41
262.409	108.37
262.626	24.4
262.842	-2.22
263.058	32.6
263.274	110.42
263.49	69.46
263.707	67.41
263.923	44.88
264.139	48.98
264.355	85.84
264.571	89.94
264.787	16.21
265.004	18.26
265.22	38.74
265.436	81.75
265.652	-4.27
265.868	106.32
266.084	18.26
266.3	51.03
266.516	22.36
266.732	36.69
266.948	-0.17
267.164	85.84
267.38	79.7
267.596	75.6
267.812	22.36
268.028	67.41
268.244	3.93
268.46	10.07
268.676	30.55
268.892	26.45
269.108	-10.41
269.324	1.88
269.54	-22.7
269.756	73.56
269.972	24.4
270.188	83.8
270.403	14.17
270.619	71.51
270.835	16.21
271.051	32.6
271.267	40.79
271.483	38.74
271.698	69.46
271.914	59.22
272.13	67.41
272.346	51.03
272.562	34.64
272.777	32.6
272.993	26.45
273.209	67.41
273.425	30.55
273.64	-0.17
273.856	14.17
274.072	55.12
274.287	46.93
274.503	63.32
274.719	-6.31
274.934	30.55
275.15	30.55
275.366	67.41
275.581	63.32
275.797	100.18
276.012	38.74
276.228	98.13
276.444	130.9
276.659	116.56
276.875	-16.55
277.09	20.31
277.306	44.88
277.521	83.8
277.737	30.55
277.952	81.75
278.168	-4.27
278.383	-16.55
278.599	8.02
278.814	71.51
279.03	63.32
279.245	89.94
279.461	-8.36
279.676	132.95
279.892	-2.22
280.107	-20.65
280.322	34.64
280.538	106.32
280.753	34.64
280.969	46.93
281.184	59.22
281.399	141.14
281.615	32.6
281.83	22.36
282.045	36.69
282.26	18.26
282.476	3.93
282.691	96.08
282.906	87.89
283.122	14.17
283.337	10.07
283.552	87.89
283.767	-22.7
283.983	42.84
284.198	55.12
284.413	42.84
284.628	-43.18
284.843	79.7
285.058	48.98
285.274	69.46
285.489	104.28
285.704	26.45
285.919	73.56
286.134	67.41
286.349	71.51
286.564	-0.17
286.779	137.04
286.995	30.55
287.21	38.74
287.425	51.03
287.64	16.21
287.855	67.41
288.07	91.99
288.285	-6.31
288.5	40.79
288.715	63.32
288.93	-71.85
289.145	24.4
289.36	48.98
289.575	40.79
289.79	110.42
290.004	8.02
290.219	100.18
290.434	36.69
290.649	30.55
290.864	89.94
291.079	34.64
291.294	79.7
291.509	30.55
291.724	40.79
291.938	24.4
292.153	79.7
292.368	-6.31
292.583	71.51
292.798	67.41
293.012	22.36
293.227	71.51
293.442	3.93
293.657	77.65
293.871	83.8
294.086	94.04
294.301	114.52
294.516	81.75
294.73	53.08
294.945	71.51
295.16	77.65
295.374	73.56
295.589	79.7
295.804	81.75
296.018	63.32
296.233	98.13
296.447	71.51
296.662	26.45
296.877	26.45
297.091	34.64
297.306	-8.36
297.52	28.5
297.735	5.97
297.949	100.18
298.164	83.8
298.378	-14.51
298.593	-8.36
298.807	8.02
299.022	34.64
299.236	77.65
299.451	8.02
299.665	100.18
299.88	30.55
300.094	75.6
300.309	18.26
300.523	94.04
300.737	48.98
300.952	59.22
301.166	-45.23
301.381	63.32
301.595	40.79
301.809	55.12
302.024	73.56
302.238	-18.6
302.452	36.69
302.667	20.31
302.881	100.18
303.095	65.36
303.309	59.22
303.524	67.41
303.738	147.28
303.952	98.13
304.166	-6.31
304.381	59.22
304.595	124.76
304.809	8.02
305.023	85.84
305.237	1.88
305.452	-2.22
305.666	40.79
305.88	61.27
306.094	137.04
306.308	69.46
306.522	55.12
306.736	42.84
306.95	42.84
307.164	59.22
307.379	63.32
307.593	100.18
307.807	34.64
308.021	12.12
308.235	63.32
308.449	48.98
308.663	83.8
308.877	87.89
309.091	40.79
309.305	44.88
309.519	22.36
309.733	34.64
309.947	48.98
310.161	139.09
310.374	77.65
310.588	85.84
310.802	3.93
311.016	-22.7
311.23	51.03
311.444	36.69
311.658	51.03
311.872	173.91
312.085	55.12
312.299	63.32
312.513	67.41
312.727	87.89
312.941	12.12
313.154	87.89
313.368	106.32
313.582	114.52
313.796	67.41
314.009	83.8
314.223	77.65
314.437	104.28
314.651	22.36
314.864	128.85
315.078	75.6
315.292	42.84
315.505	20.31
315.719	30.55
315.933	18.26
316.146	61.27
316.36	-16.55
316.573	104.28
316.787	73.56
317.001	112.47
317.214	69.46
317.428	20.31
317.641	28.5
317.855	12.12
318.068	34.64
318.282	26.45
318.495	106.32
318.709	75.6
318.922	55.12
319.136	147.28
319.349	46.93
319.563	26.45
319.776	104.28
319.99	71.51
320.203	61.27
320.417	108.37
320.63	44.88
320.843	91.99
321.057	83.8
321.27	42.84
321.483	89.94
321.697	135
321.91	83.8
322.124	79.7
322.337	55.12
322.55	14.17
322.763	69.46
322.977	83.8
323.19	12.12
323.403	1.88
323.617	83.8
323.83	36.69
324.043	3.93
324.256	102.23
324.469	20.31
324.683	44.88
324.896	40.79
325.109	128.85
325.322	32.6
325.535	55.12
325.748	48.98
325.962	18.26
326.175	24.4
326.388	-30.89
326.601	81.75
326.814	122.71
327.027	24.4
327.24	135
327.453	-41.13
327.666	87.89
327.879	61.27
328.092	102.23
328.305	65.36
328.518	30.55
328.731	1.88
328.944	22.36
329.157	69.46
329.37	46.93
329.583	153.43
329.796	46.93
330.009	-22.7
330.222	102.23
330.435	57.17
330.648	38.74
330.861	79.7
331.073	34.64
331.286	98.13
331.499	5.97
331.712	46.93
331.925	32.6
332.138	22.36
332.35	57.17
332.563	108.37
332.776	112.47
332.989	10.07
333.202	30.55
333.414	22.36
333.627	10.07
333.84	8.02
334.053	-10.41
334.265	32.6
334.478	14.17
334.691	51.03
334.903	102.23
335.116	24.4
335.329	116.56
335.541	36.69
335.754	65.36
335.966	83.8
336.179	167.76
336.392	89.94
336.604	57.17
336.817	120.66
337.029	77.65
337.242	79.7
337.454	32.6
337.667	63.32
337.88	126.8
338.092	55.12
338.305	106.32
338.517	91.99
338.729	81.75
338.942	77.65
339.154	5.97
339.367	89.94
339.579	91.99
339.792	1.88
340.004	28.5
340.217	79.7
340.429	-18.6
340.641	59.22
340.854	30.55
341.066	89.94
341.278	81.75
341.491	122.71
341.703	63.32
341.915	22.36
342.128	132.95
342.34	141.14
342.552	48.98
342.764	34.64
342.977	48.98
343.189	87.89
343.401	22.36
343.613	-10.41
343.826	165.71
344.038	48.98
344.25	75.6
344.462	-43.18
344.674	57.17
344.886	73.56
345.099	48.98
345.311	59.22
345.523	141.14
345.735	42.84
345.947	151.38
346.159	34.64
346.371	-4.27
346.583	71.51
346.795	163.67
347.007	38.74
347.219	71.51
347.431	22.36
347.643	163.67
347.855	100.18
348.067	108.37
348.279	26.45
348.491	48.98
348.703	40.79
348.915	30.55
349.127	-6.31
349.339	83.8
349.551	61.27
349.763	69.46
349.975	42.84
350.187	102.23
350.399	106.32
350.61	89.94
350.822	32.6
351.034	67.41
351.246	44.88
351.458	108.37
351.669	34.64
351.881	116.56
352.093	83.8
352.305	126.8
352.517	104.28
352.728	87.89
352.94	108.37
353.152	30.55
353.363	8.02
353.575	36.69
353.787	122.71
353.999	55.12
354.21	118.61
354.422	135
354.633	14.17
354.845	5.97
355.057	38.74
355.268	85.84
355.48	67.41
355.692	32.6
355.903	14.17
356.115	116.56
356.326	46.93
356.538	57.17
356.749	130.9
356.961	157.52
357.172	69.46
357.384	30.55
357.595	108.37
357.807	102.23
358.018	59.22
358.23	147.28
358.441	79.7
358.653	112.47
358.864	65.36
359.075	89.94
359.287	20.31
359.498	44.88
359.709	65.36
359.921	34.64
360.132	46.93
360.344	-32.94
360.555	-30.89
360.766	65.36
360.977	40.79
361.189	69.46
361.4	87.89
361.611	-10.41
361.823	38.74
362.034	-12.46
362.245	87.89
362.456	137.04
362.667	116.56
362.879	81.75
363.09	61.27
363.301	77.65
363.512	34.64
363.723	61.27
363.935	26.45
364.146	94.04
364.357	108.37
364.568	69.46
364.779	89.94
364.99	102.23
365.201	69.46
365.412	139.09
365.623	-2.22
365.834	83.8
366.045	145.24
366.256	91.99
366.467	18.26
366.678	71.51
366.889	67.41
367.1	57.17
367.311	67.41
367.522	48.98
367.733	104.28
367.944	67.41
368.155	83.8
368.366	112.47
368.577	89.94
368.788	132.95
368.999	55.12
369.209	30.55
369.42	57.17
369.631	178
369.842	-39.08
370.053	51.03
370.264	122.71
370.474	28.5
370.685	59.22
370.896	-18.6
371.107	89.94
371.317	14.17
371.528	65.36
371.739	108.37
371.95	112.47
372.16	102.23
372.371	12.12
372.582	98.13
372.792	24.4
373.003	108.37
373.214	59.22
373.424	110.42
373.635	100.18
373.846	65.36
374.056	71.51
374.267	96.08
374.477	100.18
374.688	81.75
374.898	91.99
375.109	120.66
375.319	85.84
375.53	51.03
375.74	91.99
375.951	69.46
376.161	48.98
376.372	57.17
376.582	75.6
376.793	106.32
377.003	63.32
377.214	94.04
377.424	167.76
377.635	75.6
377.845	91.99
378.055	155.47
378.266	14.17
378.476	87.89
378.686	157.52
378.897	118.61
379.107	147.28
379.317	98.13
379.528	96.08
379.738	221.01
379.948	32.6
380.158	161.62
380.369	94.04
380.579	42.84
380.789	53.08
380.999	120.66
381.21	106.32
381.42	135
381.63	116.56
381.84	46.93
382.05	165.71
382.261	112.47
382.471	71.51
382.681	108.37
382.891	210.77
383.101	87.89
383.311	51.03
383.521	75.6
383.731	147.28
383.941	120.66
384.151	69.46
384.361	75.6
384.571	81.75
384.781	130.9
384.991	135
385.201	155.47
385.411	116.56
385.621	83.8
385.831	98.13
386.041	128.85
386.251	165.71
386.461	124.76
386.671	137.04
386.881	106.32
387.091	108.37
387.301	85.84
387.511	141.14
387.72	114.52
387.93	108.37
388.14	57.17
388.35	96.08
388.56	108.37
388.769	116.56
388.979	89.94
389.189	116.56
389.399	48.98
389.609	124.76
389.818	122.71
390.028	141.14
390.238	147.28
390.447	57.17
390.657	100.18
390.867	1.88
391.076	83.8
391.286	165.71
391.496	173.91
391.705	118.61
391.915	114.52
392.125	100.18
392.334	81.75
392.544	147.28
392.753	61.27
392.963	139.09
393.172	137.04
393.382	38.74
393.591	147.28
393.801	96.08
394.01	161.62
394.22	141.14
394.429	108.37
394.639	130.9
394.848	161.62
395.058	65.36
395.267	153.43
395.477	161.62
395.686	116.56
395.895	59.22
396.105	147.28
396.314	264.02
396.524	120.66
396.733	116.56
396.942	188.24
397.152	104.28
397.361	180.05
397.57	96.08
397.78	182.1
397.989	135
398.198	223.06
398.407	87.89
398.617	83.8
398.826	200.53
399.035	212.82
399.244	106.32
399.453	182.1
399.663	147.28
399.872	190.29
400.081	190.29
400.29	175.95
400.499	94.04
400.708	202.58
400.917	190.29
401.127	202.58
401.336	171.86
401.545	251.73
401.754	126.8
401.963	309.07
402.172	241.49
402.381	190.29
402.59	178
402.799	161.62
403.008	231.25
403.217	190.29
403.426	180.05
403.635	214.87
403.844	218.96
404.053	288.59
404.262	173.91
404.471	253.78
404.68	247.63
404.888	235.35
405.097	237.39
405.306	223.06
405.515	366.42
405.724	161.62
405.933	237.39
406.142	259.92
406.35	243.54
406.559	231.25
406.768	276.31
406.977	276.31
407.185	255.83
407.394	268.11
407.603	311.12
407.812	319.31
408.02	388.94
408.229	384.85
408.438	270.16
408.646	370.51
408.855	364.37
409.064	356.18
409.272	485.2
409.481	485.2
409.69	421.71
409.898	440.14
410.107	479.05
410.315	427.85
410.524	526.16
410.733	544.59
410.941	530.25
411.15	522.06
411.358	675.66
411.567	597.84
411.775	692.04
411.984	659.28
412.192	644.94
412.401	657.23
412.609	679.75
412.818	796.49
413.026	782.15
413.234	724.81
413.443	737.1
413.651	763.72
413.86	780.11
414.068	890.7
414.276	960.33
414.485	874.31
414.693	982.85
414.901	1060.68
415.11	1103.68
415.318	1075.01
415.526	1099.59
415.734	1158.98
415.943	1107.78
416.151	1226.56
416.359	1204.03
416.567	1331.01
416.776	1359.68
416.984	1494.85
417.192	1449.79
417.4	1455.94
417.608	1457.98
417.817	1675.07
418.025	1652.54
418.233	1783.61
418.441	1699.64
418.649	1795.9
418.857	1918.78
419.065	1910.58
419.273	1892.15
419.481	2008.89
419.689	2142
419.897	2131.76
420.105	2246.45
420.313	2348.85
420.521	2484.02
420.729	2576.17
420.937	2697
421.145	2600.75
421.353	2789.16
421.561	2914.09
421.769	3063.59
421.977	3133.22
422.185	3141.41
422.393	3211.04
422.601	3454.75
422.809	3401.51
423.017	3370.79
423.224	3649.31
423.432	3757.85
423.64	3718.94
423.848	4126.49
424.056	4081.43
424.263	4335.38
424.471	4235.03
424.679	4458.26
424.887	4550.42
425.094	4837.13
425.302	4744.97
425.51	4822.8
425.718	5058.31
425.925	5209.86
426.133	5428.99
426.341	5660.41
426.548	5869.31
426.756	6002.43
426.964	6115.06
427.171	6448.88
427.379	6397.68
427.586	6594.29
427.794	7024.36
428.001	7286.5
428.209	7382.76
428.417	7352.04
428.624	7657.18
428.832	8001.24
429.039	7890.65
429.247	7753.44
429.454	8457.94
429.662	9072.33
429.869	8349.4
430.076	9092.81
430.284	8845.01
430.491	9365.19
430.699	9797.31
430.906	9840.32
431.114	9793.22
431.321	10079.93
431.528	10286.78
431.736	11003.57
431.943	11685.54
432.15	11173.55
432.358	11495.08
432.565	12078.75
432.772	12025.5
432.979	12521.11
433.187	12795.54
433.394	12914.32
433.601	13751.94
433.808	13663.88
434.016	13590.15
434.223	14337.66
434.43	15076.98
434.637	14829.17
434.844	15713.89
435.052	15871.59
435.259	15781.48
435.466	16324.19
435.673	16021.09
435.88	17055.31
436.087	17794.63
436.294	17749.57
436.501	17323.6
436.708	17745.48
436.915	18404.92
437.122	19238.45
437.329	19162.67
437.537	19623.47
437.743	20014.63
437.95	19897.89
438.157	21116.44
438.364	21634.57
438.571	21446.16
438.778	21392.91
438.985	24022.5
439.192	22859.26
439.399	23358.96
439.606	22971.89
439.813	24307.17
440.02	25757.13
440.227	25189.84
440.433	24886.75
440.64	26240.45
440.847	25583.05
441.054	26140.1
441.261	28108.2
441.467	27620.78
441.674	27958.7
441.881	29412.76
442.088	28868
442.294	29246.87
442.501	29521.3
442.708	30326.15
442.914	31387
443.121	32796
443.328	31737.2
443.534	34016.59
443.741	33068.38
443.948	32701.79
444.154	35179.84
444.361	34571.59
444.568	35501.37
444.774	34989.38
444.981	35452.22
445.187	36134.19
445.394	38014.23
445.6	37475.61
445.807	41094.37
446.013	38941.96
446.22	39779.57
446.426	41213.15
446.633	41778.39
446.839	42896.58
447.046	41303.26
447.252	43852.98
447.459	43736.25
447.665	43508.93
447.871	45440.16
448.078	46754.96
448.284	44688.56
448.491	46165.14
448.697	47713.41
448.903	48624.75
449.11	48415.86
449.316	47453.31
449.522	48374.9
449.728	49927.26
449.935	49839.2
450.141	49861.72
450.347	51131.47
450.553	49650.78
450.76	49874.01
450.966	51477.57
451.172	51203.14
451.378	52194.36
451.584	51516.48
451.791	52218.94
451.997	52022.33
452.203	52710.45
452.409	52931.63
452.615	52325.43
452.821	50603.09
453.027	50117.72
453.233	52855.85
453.44	50828.37
453.646	51254.34
453.852	51293.25
454.058	51944.51
454.264	50041.95
454.47	51530.82
454.676	50209.88
454.882	52284.47
455.088	47299.72
455.294	48018.55
455.5	48776.3
455.705	48970.86
455.911	47486.08
456.117	46159
456.323	45407.39
456.529	42872.01
456.735	45247.65
456.941	43914.42
457.147	43156.67
457.352	41874.65
457.558	41465.05
457.764	41569.5
457.97	41012.45
458.176	39871.73
458.381	39566.59
458.587	37768.47
458.793	37612.82
458.999	36261.16
459.204	38530.31
459.41	37571.86
459.616	35054.91
459.821	34786.63
460.027	35083.58
460.233	34329.93
460.438	32222.57
460.644	32949.6
460.85	31356.28
461.055	30887.29
461.261	30948.73
461.466	28892.57
461.672	27577.78
461.878	29789.58
462.083	28143.02
462.289	27223.48
462.494	26869.18
462.7	26023.37
462.905	25269.72
463.111	25931.21
463.316	26187.21
463.522	25865.67
463.727	25978.31
463.932	25423.31
464.138	25116.12
464.343	25509.33
464.549	24712.67
464.754	25736.65
464.959	25431.51
465.165	24935.9
465.37	24268.26
465.575	23563.76
465.781	24305.12
465.986	24849.88
466.191	23561.71
466.397	22883.83
466.602	22314.5
