Data from USB4F104151__149__10-26-39-534.txt Node

Date: Wed Mar 12 10:26:39 EDT 2025
User: louis
Spectrometer: USB4F10415
Trigger mode: 4
Integration Time (sec): 3.000000E-2
Scans to average: 1
Electric dark correction enabled: true
Nonlinearity correction enabled: false
Boxcar width: 0
XAxis mode: Wavelengths
Number of Pixels in Spectrum: 3648
>>>>>Begin Spectral Data<<<<<
178.204	-12.12
178.424	-12.12
178.644	-12.12
178.864	-204.63
179.084	-87.89
179.304	51.37
179.524	26.79
179.744	-36.69
179.964	57.51
180.184	-8.02
180.404	8.36
180.624	-87.89
180.844	47.27
181.064	-57.17
181.283	34.99
181.503	-71.51
181.723	34.99
181.943	2.22
182.163	88.23
182.383	-3.93
182.602	-5.97
182.822	53.42
183.042	2.22
183.262	20.65
183.482	53.42
183.701	92.33
183.921	86.19
184.141	12.46
184.361	92.33
184.58	57.51
184.8	-18.26
185.02	-28.5
185.239	125.1
185.459	28.84
185.679	30.89
185.898	-22.36
186.118	10.41
186.338	-18.26
186.557	26.79
186.777	-5.97
186.997	16.55
187.216	6.31
187.436	57.51
187.655	-16.21
187.875	47.27
188.095	37.03
188.314	34.99
188.534	39.08
188.753	-46.93
188.973	16.55
189.192	45.23
189.412	88.23
189.631	-81.75
189.851	82.09
190.07	45.23
190.29	-30.55
190.509	10.41
190.729	49.32
190.948	37.03
191.168	114.86
191.387	61.61
191.607	28.84
191.826	6.31
192.045	4.27
192.265	37.03
192.484	45.23
192.704	-12.12
192.923	-67.41
193.142	18.6
193.362	-22.36
193.581	131.24
193.8	16.55
194.02	10.41
194.239	16.55
194.458	-34.64
194.678	-28.5
194.897	-40.79
195.116	-22.36
195.335	-30.55
195.555	45.23
195.774	26.79
195.993	57.51
196.212	-48.98
196.432	-16.21
196.651	45.23
196.87	8.36
197.089	61.61
197.308	18.6
197.528	39.08
197.747	-69.46
197.966	22.7
198.185	43.18
198.404	43.18
198.623	43.18
198.842	49.32
199.062	-12.12
199.281	24.75
199.5	0.17
199.719	12.46
199.938	24.75
200.157	63.66
200.376	147.62
200.595	0.17
200.814	4.27
201.033	-30.55
201.252	10.41
201.471	10.41
201.69	28.84
201.909	55.47
202.128	34.99
202.347	67.75
202.566	-61.27
202.785	-20.31
203.004	28.84
203.223	32.94
203.442	37.03
203.661	-44.88
203.879	41.13
204.098	32.94
204.317	-26.45
204.536	10.41
204.755	-48.98
204.974	4.27
205.193	24.75
205.411	73.9
205.63	14.51
205.849	-44.88
206.068	10.41
206.287	0.17
206.505	49.32
206.724	20.65
206.943	-8.02
207.162	0.17
207.381	65.71
207.599	14.51
207.818	-22.36
208.037	43.18
208.255	37.03
208.474	-46.93
208.693	59.56
208.911	6.31
209.13	-12.12
209.349	8.36
209.567	22.7
209.786	69.8
210.005	94.38
210.223	-20.31
210.442	-18.26
210.661	0.17
210.879	6.31
211.098	-8.02
211.316	75.95
211.535	102.57
211.753	-28.5
211.972	47.27
212.191	-16.21
212.409	43.18
212.628	-8.02
212.846	67.75
213.065	92.33
213.283	-3.93
213.502	20.65
213.72	47.27
213.938	4.27
214.157	77.99
214.375	10.41
214.594	45.23
214.812	-28.5
215.031	12.46
215.249	-22.36
215.467	-1.88
215.686	45.23
215.904	43.18
216.122	28.84
216.341	82.09
216.559	32.94
216.778	43.18
216.996	73.9
217.214	2.22
217.432	12.46
217.651	8.36
217.869	4.27
218.087	2.22
218.306	-77.65
218.524	59.56
218.742	-55.12
218.96	49.32
219.179	114.86
219.397	-12.12
219.615	71.85
219.833	39.08
220.051	20.65
220.27	57.51
220.488	-1.88
220.706	8.36
220.924	28.84
221.142	12.46
221.36	20.65
221.578	-34.64
221.796	96.43
222.015	57.51
222.233	-32.6
222.451	43.18
222.669	32.94
222.887	22.7
223.105	2.22
223.323	-69.46
223.541	4.27
223.759	57.51
223.977	4.27
224.195	12.46
224.413	45.23
224.631	-24.4
224.849	-24.4
225.067	100.52
225.285	8.36
225.503	88.23
225.721	-18.26
225.939	10.41
226.157	24.75
226.375	102.57
226.592	37.03
226.81	20.65
227.028	53.42
227.246	55.47
227.464	28.84
227.682	14.51
227.9	114.86
228.117	47.27
228.335	18.6
228.553	-55.12
228.771	8.36
228.989	53.42
229.206	57.51
229.424	24.75
229.642	-61.27
229.86	34.99
230.077	73.9
230.295	18.6
230.513	88.23
230.731	12.46
230.948	41.13
231.166	71.85
231.384	20.65
231.601	-10.07
231.819	16.55
232.037	16.55
232.254	-24.4
232.472	39.08
232.689	32.94
232.907	77.99
233.125	14.51
233.342	-1.88
233.56	24.75
233.777	10.41
233.995	77.99
234.213	10.41
234.43	69.8
234.648	-5.97
234.865	10.41
235.083	-5.97
235.3	34.99
235.518	57.51
235.735	22.7
235.953	-20.31
236.17	0.17
236.388	4.27
236.605	73.9
236.822	57.51
237.04	47.27
237.257	75.95
237.475	8.36
237.692	86.19
237.909	45.23
238.127	-28.5
238.344	16.55
238.562	63.66
238.779	24.75
238.996	-22.36
239.214	45.23
239.431	39.08
239.648	8.36
239.865	0.17
240.083	73.9
240.3	92.33
240.517	0.17
240.735	45.23
240.952	30.89
241.169	77.99
241.386	24.75
241.603	82.09
241.821	20.65
242.038	34.99
242.255	106.67
242.472	57.51
242.689	26.79
242.907	69.8
243.124	-5.97
243.341	8.36
243.558	2.22
243.775	-3.93
243.992	-12.12
244.209	41.13
244.426	172.2
244.643	49.32
244.86	75.95
245.078	24.75
245.295	-8.02
245.512	8.36
245.729	-28.5
245.946	-85.84
246.163	43.18
246.38	8.36
246.597	69.8
246.814	45.23
247.031	77.99
247.248	61.61
247.464	80.04
247.681	26.79
247.898	26.79
248.115	100.52
248.332	-5.97
248.549	112.81
248.766	63.66
248.983	61.61
249.2	-24.4
249.417	43.18
249.633	28.84
249.85	96.43
250.067	77.99
250.284	-12.12
250.501	69.8
250.717	102.57
250.934	-20.31
251.151	61.61
251.368	75.95
251.585	-22.36
251.801	26.79
252.018	-16.21
252.235	20.65
252.451	37.03
252.668	94.38
252.885	34.99
253.102	2.22
253.318	-18.26
253.535	67.75
253.752	-8.02
253.968	-8.02
254.185	-22.36
254.401	43.18
254.618	51.37
254.835	12.46
255.051	22.7
255.268	-48.98
255.484	45.23
255.701	20.65
255.917	12.46
256.134	-51.03
256.351	-3.93
256.567	-48.98
256.784	67.75
257	-5.97
257.217	75.95
257.433	45.23
257.65	10.41
257.866	69.8
258.082	2.22
258.299	63.66
258.515	61.61
258.732	-18.26
258.948	55.47
259.165	0.17
259.381	24.75
259.597	-5.97
259.814	2.22
260.03	2.22
260.246	-14.17
260.463	-32.6
260.679	94.38
260.895	45.23
261.112	-14.17
261.328	-8.02
261.544	73.9
261.761	41.13
261.977	73.9
262.193	16.55
262.409	-24.4
262.626	71.85
262.842	49.32
263.058	-1.88
263.274	73.9
263.49	39.08
263.707	82.09
263.923	47.27
264.139	-59.22
264.355	63.66
264.571	63.66
264.787	43.18
265.004	28.84
265.22	24.75
265.436	2.22
265.652	-18.26
265.868	55.47
266.084	22.7
266.3	28.84
266.516	-102.23
266.732	30.89
266.948	-12.12
267.164	16.55
267.38	69.8
267.596	51.37
267.812	10.41
268.028	34.99
268.244	26.79
268.46	30.89
268.676	-16.21
268.892	24.75
269.108	26.79
269.324	47.27
269.54	-57.17
269.756	-10.07
269.972	-32.6
270.188	26.79
270.403	4.27
270.619	86.19
270.835	37.03
271.051	0.17
271.267	24.75
271.483	37.03
271.698	26.79
271.914	18.6
272.13	-65.36
272.346	73.9
272.562	8.36
272.777	49.32
272.993	-26.45
273.209	-3.93
273.425	-34.64
273.64	-69.46
273.856	26.79
274.072	-3.93
274.287	26.79
274.503	-22.36
274.719	84.14
274.934	18.6
275.15	12.46
275.366	30.89
275.581	28.84
275.797	86.19
276.012	51.37
276.228	49.32
276.444	121
276.659	75.95
276.875	53.42
277.09	-16.21
277.306	-20.31
277.521	4.27
277.737	-8.02
277.952	77.99
278.168	18.6
278.383	32.94
278.599	32.94
278.814	-20.31
279.03	8.36
279.245	39.08
279.461	-28.5
279.676	41.13
279.892	-3.93
280.107	57.51
280.322	-69.46
280.538	-30.55
280.753	10.41
280.969	67.75
281.184	-16.21
281.399	47.27
281.615	-12.12
281.83	37.03
282.045	82.09
282.26	4.27
282.476	55.47
282.691	37.03
282.906	49.32
283.122	-10.07
283.337	12.46
283.552	32.94
283.767	16.55
283.983	71.85
284.198	-42.84
284.413	32.94
284.628	-5.97
284.843	37.03
285.058	-14.17
285.274	75.95
285.489	-12.12
285.704	65.71
285.919	20.65
286.134	45.23
286.349	6.31
286.564	37.03
286.779	22.7
286.995	28.84
287.21	-61.27
287.425	-26.45
287.64	71.85
287.855	6.31
288.07	-22.36
288.285	55.47
288.5	4.27
288.715	84.14
288.93	18.6
289.145	47.27
289.36	43.18
289.575	18.6
289.79	28.84
290.004	24.75
290.219	82.09
290.434	53.42
290.649	57.51
290.864	-69.46
291.079	14.51
291.294	12.46
291.509	57.51
291.724	20.65
291.938	114.86
292.153	45.23
292.368	2.22
292.583	12.46
292.798	20.65
293.012	37.03
293.227	37.03
293.442	-22.36
293.657	-24.4
293.871	45.23
294.086	59.56
294.301	86.19
294.516	51.37
294.73	82.09
294.945	12.46
295.16	69.8
295.374	22.7
295.589	-3.93
295.804	-20.31
296.018	-10.07
296.233	82.09
296.447	100.52
296.662	16.55
296.877	69.8
297.091	4.27
297.306	16.55
297.52	75.95
297.735	24.75
297.949	-8.02
298.164	61.61
298.378	28.84
298.593	-14.17
298.807	8.36
299.022	20.65
299.236	49.32
299.451	0.17
299.665	-3.93
299.88	-22.36
300.094	-48.98
300.309	4.27
300.523	53.42
300.737	26.79
300.952	24.75
301.166	10.41
301.381	24.75
301.595	34.99
301.809	-20.31
302.024	57.51
302.238	-16.21
302.452	32.94
302.667	18.6
302.881	129.19
303.095	16.55
303.309	12.46
303.524	28.84
303.738	14.51
303.952	80.04
304.166	24.75
304.381	-32.6
304.595	-1.88
304.809	34.99
305.023	100.52
305.237	-14.17
305.452	20.65
305.666	69.8
305.88	61.61
306.094	47.27
306.308	41.13
306.522	110.76
306.736	-63.32
306.95	20.65
307.164	30.89
307.379	-24.4
307.593	59.56
307.807	-14.17
308.021	49.32
308.235	96.43
308.449	-28.5
308.663	80.04
308.877	53.42
309.091	0.17
309.305	84.14
309.519	43.18
309.733	51.37
309.947	-1.88
310.161	47.27
310.374	0.17
310.588	20.65
310.802	-36.69
311.016	18.6
311.23	77.99
311.444	18.6
311.658	43.18
311.872	61.61
312.085	49.32
312.299	75.95
312.513	73.9
312.727	32.94
312.941	-3.93
313.154	59.56
313.368	-3.93
313.582	77.99
313.796	43.18
314.009	32.94
314.223	123.05
314.437	98.47
314.651	118.95
314.864	20.65
315.078	51.37
315.292	75.95
315.505	61.61
315.719	24.75
315.933	49.32
316.146	41.13
316.36	-57.17
316.573	90.28
316.787	-12.12
317.001	114.86
317.214	-53.08
317.428	49.32
317.641	12.46
317.855	8.36
318.068	45.23
318.282	139.43
318.495	100.52
318.709	18.6
318.922	-44.88
319.136	51.37
319.349	41.13
319.563	0.17
319.776	26.79
319.99	-71.51
320.203	88.23
320.417	41.13
320.63	67.75
320.843	61.61
321.057	28.84
321.27	43.18
321.483	37.03
321.697	69.8
321.91	10.41
322.124	4.27
322.337	61.61
322.55	-10.07
322.763	32.94
322.977	61.61
323.19	32.94
323.403	4.27
323.617	6.31
323.83	32.94
324.043	55.47
324.256	39.08
324.469	45.23
324.683	14.51
324.896	-38.74
325.109	14.51
325.322	-61.27
325.535	59.56
325.748	90.28
325.962	-32.6
326.175	75.95
326.388	43.18
326.601	67.75
326.814	86.19
327.027	-8.02
327.24	118.95
327.453	16.55
327.666	43.18
327.879	65.71
328.092	53.42
328.305	73.9
328.518	-73.56
328.731	32.94
328.944	47.27
329.157	28.84
329.37	90.28
329.583	53.42
329.796	153.77
330.009	-10.07
330.222	53.42
330.435	14.51
330.648	37.03
330.861	43.18
331.073	28.84
331.286	12.46
331.499	-32.6
331.712	28.84
331.925	37.03
332.138	34.99
332.35	69.8
332.563	28.84
332.776	45.23
332.989	-5.97
333.202	53.42
333.414	108.71
333.627	0.17
333.84	59.56
334.053	24.75
334.265	32.94
334.478	63.66
334.691	45.23
334.903	28.84
335.116	-20.31
335.329	41.13
335.541	10.41
335.754	164.01
335.966	-8.02
336.179	110.76
336.392	86.19
336.604	45.23
336.817	-20.31
337.029	110.76
337.242	4.27
337.454	57.51
337.667	51.37
337.88	69.8
338.092	47.27
338.305	47.27
338.517	28.84
338.729	108.71
338.942	45.23
339.154	37.03
339.367	-24.4
339.579	26.79
339.792	-46.93
340.004	53.42
340.217	88.23
340.429	90.28
340.641	34.99
340.854	-79.7
341.066	59.56
341.278	77.99
341.491	20.65
341.703	63.66
341.915	32.94
342.128	41.13
342.34	61.61
342.552	86.19
342.764	61.61
342.977	-5.97
343.189	43.18
343.401	51.37
343.613	-14.17
343.826	84.14
344.038	-42.84
344.25	8.36
344.462	22.7
344.674	53.42
344.886	43.18
345.099	84.14
345.311	16.55
345.523	53.42
345.735	4.27
345.947	57.51
346.159	118.95
346.371	100.52
346.583	69.8
346.795	57.51
347.007	32.94
347.219	98.47
347.431	45.23
347.643	51.37
347.855	12.46
348.067	47.27
348.279	82.09
348.491	57.51
348.703	61.61
348.915	24.75
349.127	-46.93
349.339	-14.17
349.551	-12.12
349.763	123.05
349.975	20.65
350.187	16.55
350.399	139.43
350.61	45.23
350.822	37.03
351.034	67.75
351.246	0.17
351.458	24.75
351.669	77.99
351.881	41.13
352.093	82.09
352.305	57.51
352.517	-8.02
352.728	88.23
352.94	67.75
353.152	49.32
353.363	37.03
353.575	37.03
353.787	114.86
353.999	12.46
354.21	77.99
354.422	75.95
354.633	34.99
354.845	55.47
355.057	57.51
355.268	41.13
355.48	24.75
355.692	-22.36
355.903	61.61
356.115	24.75
356.326	-26.45
356.538	24.75
356.749	12.46
356.961	45.23
357.172	12.46
357.384	55.47
357.595	118.95
357.807	57.51
358.018	49.32
358.23	69.8
358.441	12.46
358.653	75.95
358.864	77.99
359.075	75.95
359.287	22.7
359.498	110.76
359.709	43.18
359.921	18.6
360.132	8.36
360.344	30.89
360.555	114.86
360.766	26.79
360.977	28.84
361.189	114.86
361.4	-3.93
361.611	6.31
361.823	69.8
362.034	73.9
362.245	28.84
362.456	61.61
362.667	57.51
362.879	12.46
363.09	28.84
363.301	18.6
363.512	86.19
363.723	24.75
363.935	75.95
364.146	32.94
364.357	55.47
364.568	4.27
364.779	0.17
364.99	28.84
365.201	37.03
365.412	43.18
365.623	39.08
365.834	-1.88
366.045	-36.69
366.256	37.03
366.467	77.99
366.678	61.61
366.889	-3.93
367.1	61.61
367.311	65.71
367.522	57.51
367.733	39.08
367.944	-3.93
368.155	-8.02
368.366	125.1
368.577	108.71
368.788	96.43
368.999	32.94
369.209	20.65
369.42	61.61
369.631	94.38
369.842	57.51
370.053	100.52
370.264	45.23
370.474	-8.02
370.685	41.13
370.896	-8.02
371.107	28.84
371.317	133.29
371.528	41.13
371.739	92.33
371.95	61.61
372.16	34.99
372.371	73.9
372.582	51.37
372.792	65.71
373.003	55.47
373.214	26.79
373.424	100.52
373.635	-28.5
373.846	67.75
374.056	24.75
374.267	20.65
374.477	133.29
374.688	51.37
374.898	108.71
375.109	98.47
375.319	10.41
375.53	16.55
375.74	92.33
375.951	84.14
376.161	20.65
376.372	164.01
376.582	80.04
376.793	32.94
377.003	0.17
377.214	63.66
377.424	55.47
377.635	43.18
377.845	43.18
378.055	8.36
378.266	12.46
378.476	82.09
378.686	45.23
378.897	2.22
379.107	86.19
379.317	8.36
379.528	0.17
379.738	32.94
379.948	-57.17
380.158	108.71
380.369	-5.97
380.579	63.66
380.789	55.47
380.999	110.76
381.21	112.81
381.42	71.85
381.63	-69.46
381.84	47.27
382.05	30.89
382.261	14.51
382.471	118.95
382.681	102.57
382.891	106.67
383.101	80.04
383.311	0.17
383.521	92.33
383.731	12.46
383.941	82.09
384.151	28.84
384.361	0.17
384.571	100.52
384.781	12.46
384.991	168.1
385.201	98.47
385.411	20.65
385.621	114.86
385.831	86.19
386.041	82.09
386.251	22.7
386.461	45.23
386.671	71.85
386.881	41.13
387.091	90.28
387.301	108.71
387.511	67.75
387.72	53.42
387.93	10.41
388.14	47.27
388.35	108.71
388.56	86.19
388.769	37.03
388.979	100.52
389.189	80.04
389.399	45.23
389.609	51.37
389.818	-18.26
390.028	8.36
390.238	71.85
390.447	24.75
390.657	24.75
390.867	43.18
391.076	28.84
391.286	86.19
391.496	75.95
391.705	47.27
391.915	51.37
392.125	57.51
392.334	-1.88
392.544	71.85
392.753	30.89
392.963	73.9
393.172	61.61
393.382	69.8
393.591	92.33
393.801	112.81
394.01	123.05
394.22	39.08
394.429	41.13
394.639	45.23
394.848	82.09
395.058	118.95
395.267	63.66
395.477	143.53
395.686	127.14
395.895	153.77
396.105	100.52
396.314	34.99
396.524	77.99
396.733	127.14
396.942	168.1
397.152	131.24
397.361	86.19
397.57	151.72
397.78	65.71
397.989	178.34
398.198	133.29
398.407	125.1
398.617	114.86
398.826	151.72
399.035	127.14
399.244	98.47
399.453	69.8
399.663	88.23
399.872	65.71
400.081	88.23
400.29	153.77
400.499	53.42
400.708	106.67
400.917	69.8
401.127	51.37
401.336	123.05
401.545	161.96
401.754	137.38
401.963	141.48
402.172	100.52
402.381	88.23
402.59	114.86
402.799	174.25
403.008	84.14
403.217	133.29
403.426	114.86
403.635	176.3
403.844	153.77
404.053	188.58
404.262	143.53
404.471	241.83
404.68	139.43
404.888	161.96
405.097	194.73
405.306	233.64
405.515	159.91
405.724	143.53
405.933	219.3
406.142	186.54
406.35	192.68
406.559	176.3
406.768	192.68
406.977	192.68
407.185	196.78
407.394	235.69
407.603	217.26
407.812	254.12
408.02	270.5
408.229	219.3
408.438	192.68
408.646	217.26
408.855	233.64
409.064	274.6
409.272	270.5
409.481	278.69
409.69	247.97
409.898	346.28
410.107	352.42
410.315	350.37
410.524	336.04
410.733	395.43
410.941	387.24
411.15	389.28
411.358	379.04
411.567	506.02
411.775	393.38
411.984	413.86
412.192	536.74
412.401	508.07
412.609	559.27
412.818	475.3
413.026	606.37
413.234	624.8
413.443	618.66
413.651	575.65
413.86	569.51
414.068	645.28
414.276	712.86
414.485	667.81
414.693	624.8
414.901	823.45
415.11	817.31
415.318	821.41
415.526	843.93
415.734	784.54
415.943	891.04
416.151	938.14
416.359	864.41
416.567	936.09
416.776	995.48
416.984	1079.45
417.192	1061.02
417.4	1036.44
417.608	1065.11
417.817	1106.07
418.025	1167.51
418.233	1335.45
418.441	1278.1
418.649	1181.85
418.857	1347.73
419.065	1446.04
419.273	1396.89
419.481	1437.84
419.689	1454.23
419.897	1616.02
420.105	1691.79
420.313	1695.89
420.521	1839.25
420.729	1736.85
420.937	1851.53
421.145	1933.45
421.353	1996.94
421.561	2103.43
421.769	2085
421.977	2121.87
422.185	2199.69
422.393	2371.72
422.601	2461.83
422.809	2467.97
423.017	2515.08
423.224	2666.63
423.432	2629.76
423.64	2844.8
423.848	3039.36
424.056	2928.77
424.263	3154.04
424.471	3117.18
424.679	3207.29
424.887	3338.36
425.094	3541.11
425.302	3467.38
425.51	3706.99
425.718	3649.65
425.925	3840.11
426.133	3913.84
426.341	4155.5
426.548	4233.32
426.756	4231.27
426.964	4345.96
427.171	4454.5
427.379	4638.82
427.586	4821.09
427.794	4923.49
428.001	5126.24
428.209	5259.35
428.417	5371.99
428.624	5427.29
428.832	5668.95
429.039	5533.78
429.247	5820.5
429.454	6164.56
429.662	6541.38
429.869	6072.4
430.076	6737.99
430.284	6512.71
430.491	6928.45
430.699	6977.6
430.906	7063.61
431.114	7039.04
431.321	7370.81
431.528	7598.13
431.736	8001.58
431.943	8405.03
432.15	8128.56
432.358	8235.05
432.565	8745
432.772	8654.89
432.979	9068.58
433.187	9242.65
433.394	9244.7
433.601	9973.78
433.808	10024.98
434.016	10049.55
434.223	10223.63
434.43	10887.17
434.637	10774.53
434.844	11249.66
435.052	11585.53
435.259	11493.37
435.466	11757.56
435.673	11618.3
435.88	12247.02
436.087	12795.88
436.294	13043.68
436.501	12562.41
436.708	12816.36
436.915	13326.3
437.122	13940.69
437.329	13735.9
437.537	14475.21
437.743	14575.56
437.95	14391.25
438.157	15306.69
438.364	15620.03
438.571	15673.28
438.778	15704
438.985	17237.92
439.192	16529.33
439.399	17108.9
439.606	16570.29
439.813	17635.23
440.02	18460.56
440.227	18536.34
440.433	18067.35
440.64	18644.88
440.847	18536.34
441.054	19015.56
441.261	20309.88
441.467	19935.1
441.674	20438.9
441.881	21102.44
442.088	21192.55
442.294	20834.16
442.501	21679.97
442.708	21741.41
442.914	22818.64
443.121	23701.31
443.328	22912.85
443.534	24973.1
443.741	23969.6
443.948	23850.81
444.154	25513.77
444.361	25319.21
444.568	25218.86
444.774	25259.82
444.981	25216.81
445.187	26689.3
445.394	27643.65
445.6	27029.26
445.807	29544.17
446.013	28358.39
446.22	28950.26
446.426	29939.43
446.633	30381.79
446.839	31145.68
447.046	29914.85
447.252	31362.76
447.459	31540.94
447.665	32075.46
447.871	33046.19
448.078	34199.2
448.284	32442.04
448.491	33599.15
448.697	34823.83
448.903	35280.53
449.11	35520.14
449.316	34836.12
449.522	35438.22
449.728	36253.31
449.935	36808.31
450.141	36069
450.347	37164.66
450.553	35880.58
450.76	36417.15
450.966	37922.41
451.172	37244.53
451.378	38080.1
451.584	37127.8
451.791	38368.87
451.997	38159.97
452.203	38483.55
452.409	38698.59
452.615	38549.09
452.821	37029.49
453.027	36621.95
453.233	38551.13
453.44	36865.66
453.646	37365.36
453.852	37631.6
454.058	37733.99
454.264	37127.8
454.47	37506.67
454.676	36626.04
454.882	38131.3
455.088	34586.27
455.294	34993.81
455.5	35622.54
455.705	35927.69
455.911	34580.12
456.117	34094.75
456.323	33482.41
456.529	31854.28
456.735	32790.2
456.941	31782.6
457.147	31557.32
457.352	30224.09
457.558	30004.96
457.764	30213.85
457.97	29363.95
458.176	28985.07
458.381	28999.41
458.587	27598.6
458.793	27199.24
458.999	26175.26
459.204	28018.43
459.41	27191.05
459.616	25157.42
459.821	25507.62
460.027	25319.21
460.233	24756.02
460.438	23435.08
460.644	23846.72
460.85	22855.5
461.055	22523.73
461.261	22310.74
461.466	20916.08
461.672	20027.26
461.878	21428.07
462.083	20338.55
462.289	20019.07
462.494	19580.8
462.7	18640.78
462.905	18423.7
463.111	18855.82
463.316	18997.13
463.522	18272.15
463.727	18739.08
463.932	18450.32
464.138	18255.76
464.343	18372.5
464.549	17635.23
464.754	18319.25
464.959	18419.6
465.165	18347.92
465.37	17305.51
465.575	17002.41
465.781	17555.36
465.986	17745.82
466.191	17180.58
466.397	16938.92
466.602	15609.79
466.807	16586.67
467.012	16574.38
467.218	16601.01
467.423	16330.67
