Data from USB4F104151__248__10-31-04-016.txt Node

Date: Wed Mar 12 10:31:04 EDT 2025
User: louis
Spectrometer: USB4F10415
Trigger mode: 4
Integration Time (sec): 3.000000E-2
Scans to average: 1
Electric dark correction enabled: true
Nonlinearity correction enabled: false
Boxcar width: 0
XAxis mode: Wavelengths
Number of Pixels in Spectrum: 3648
>>>>>Begin Spectral Data<<<<<
178.204	-110.93
178.424	-110.93
178.644	-110.93
178.864	-143.7
179.084	-131.41
179.304	-37.2
179.524	-45.4
179.744	-33.11
179.964	44.71
180.184	34.47
180.404	26.28
180.624	-2.39
180.844	13.99
181.064	-82.26
181.283	28.33
181.503	-8.53
181.723	61.1
181.943	22.19
182.163	102.06
182.383	-12.63
182.602	11.95
182.822	20.14
183.042	20.14
183.262	40.62
183.482	-12.63
183.701	59.05
183.921	3.75
184.141	-16.73
184.361	52.91
184.58	83.63
184.8	18.09
185.02	9.9
185.239	-0.34
185.459	-12.63
185.679	40.62
185.898	-0.34
186.118	81.58
186.338	-6.49
186.557	-24.92
186.777	-20.82
186.997	34.47
187.216	-18.77
187.436	102.06
187.655	-16.73
187.875	71.34
188.095	-47.44
188.314	67.24
188.534	30.38
188.753	36.52
188.973	-12.63
189.192	24.23
189.412	52.91
189.631	22.19
189.851	-20.82
190.07	61.1
190.29	16.04
190.509	13.99
190.729	-51.54
190.948	26.28
191.168	95.91
191.387	69.29
191.607	7.85
191.826	20.14
192.045	-22.87
192.265	48.81
192.484	24.23
192.704	32.43
192.923	-47.44
193.142	52.91
193.362	7.85
193.581	79.53
193.8	52.91
194.02	-24.92
194.239	-37.2
194.458	61.1
194.678	-20.82
194.897	20.14
195.116	32.43
195.335	81.58
195.555	40.62
195.774	11.95
195.993	48.81
196.212	7.85
196.432	28.33
196.651	9.9
196.87	-24.92
197.089	11.95
197.308	65.19
197.528	42.67
197.747	-33.11
197.966	-12.63
198.185	102.06
198.404	-69.97
198.623	54.95
198.842	65.19
199.062	75.43
199.281	61.1
199.5	1.71
199.719	-43.35
199.938	-12.63
200.157	52.91
200.376	26.28
200.595	34.47
200.814	9.9
201.033	-37.2
201.252	16.04
201.471	48.81
201.69	9.9
201.909	22.19
202.128	20.14
202.347	54.95
202.566	-41.3
202.785	-51.54
203.004	28.33
203.223	83.63
203.442	52.91
203.661	16.04
203.879	-8.53
204.098	16.04
204.317	28.33
204.536	67.24
204.755	22.19
204.974	20.14
205.193	44.71
205.411	87.72
205.63	38.57
205.849	-2.39
206.068	34.47
206.287	-4.44
206.505	-29.01
206.724	-14.68
206.943	46.76
207.162	-24.92
207.381	34.47
207.599	36.52
207.818	32.43
208.037	-45.4
208.255	11.95
208.474	36.52
208.693	34.47
208.911	-2.39
209.13	-0.34
209.349	85.67
209.567	38.57
209.786	83.63
210.005	63.15
210.223	28.33
210.442	24.23
210.661	20.14
210.879	5.8
211.098	-2.39
211.316	26.28
211.535	-57.68
211.753	77.48
211.972	38.57
212.191	-0.34
212.409	77.48
212.628	5.8
212.846	-0.34
213.065	32.43
213.283	95.91
213.502	61.1
213.72	48.81
213.938	22.19
214.157	34.47
214.375	-31.06
214.594	38.57
214.812	118.44
215.031	50.86
215.249	61.1
215.467	-18.77
215.686	46.76
215.904	75.43
216.122	-29.01
216.341	54.95
216.559	11.95
216.778	20.14
216.996	28.33
217.214	9.9
217.432	-12.63
217.651	20.14
217.869	57
218.087	44.71
218.306	-37.2
218.524	11.95
218.742	20.14
218.96	38.57
219.179	-45.4
219.397	52.91
219.615	61.1
219.833	85.67
220.051	24.23
220.27	93.87
220.488	28.33
220.706	-14.68
220.924	-41.3
221.142	-2.39
221.36	20.14
221.578	-2.39
221.796	108.2
222.015	16.04
222.233	28.33
222.451	-16.73
222.669	32.43
222.887	102.06
223.105	1.71
223.323	46.76
223.541	-51.54
223.759	36.52
223.977	13.99
224.195	52.91
224.413	40.62
224.631	69.29
224.849	102.06
225.067	61.1
225.285	30.38
225.503	42.67
225.721	-37.2
225.939	11.95
226.157	32.43
226.375	36.52
226.592	13.99
226.81	44.71
227.028	-59.73
227.246	75.43
227.464	-0.34
227.682	26.28
227.9	28.33
228.117	52.91
228.335	-29.01
228.553	-22.87
228.771	-8.53
228.989	59.05
229.206	16.04
229.424	16.04
229.642	46.76
229.86	13.99
230.077	52.91
230.295	20.14
230.513	-4.44
230.731	61.1
230.948	118.44
231.166	-8.53
231.384	40.62
231.601	-0.34
231.819	100.01
232.037	-22.87
232.254	1.71
232.472	-6.49
232.689	46.76
232.907	-18.77
233.125	16.04
233.342	-20.82
233.56	36.52
233.777	-10.58
233.995	-16.73
234.213	57
234.43	34.47
234.648	20.14
234.865	5.8
235.083	24.23
235.3	-8.53
235.518	-14.68
235.735	87.72
235.953	93.87
236.17	11.95
236.388	-31.06
236.605	26.28
236.822	-4.44
237.04	36.52
237.257	44.71
237.475	11.95
237.692	1.71
237.909	-33.11
238.127	-29.01
238.344	61.1
238.562	22.19
238.779	1.71
238.996	-8.53
239.214	69.29
239.431	50.86
239.648	-16.73
239.865	57
240.083	36.52
240.3	9.9
240.517	57
240.735	11.95
240.952	46.76
241.169	81.58
241.386	52.91
241.603	34.47
241.821	28.33
242.038	52.91
242.255	61.1
242.472	-78.16
242.689	26.28
242.907	54.95
243.124	-26.96
243.341	91.82
243.558	7.85
243.775	-51.54
243.992	32.43
244.209	18.09
244.426	97.96
244.643	-16.73
244.86	-4.44
245.078	38.57
245.295	11.95
245.512	9.9
245.729	3.75
245.946	93.87
246.163	97.96
246.38	-43.35
246.597	-10.58
246.814	36.52
247.031	26.28
247.248	-43.35
247.464	69.29
247.681	7.85
247.898	46.76
248.115	28.33
248.332	46.76
248.549	124.58
248.766	93.87
248.983	34.47
249.2	18.09
249.417	48.81
249.633	61.1
249.85	48.81
250.067	18.09
250.284	71.34
250.501	79.53
250.717	-2.39
250.934	26.28
251.151	-31.06
251.368	50.86
251.585	-37.2
251.801	16.04
252.018	61.1
252.235	36.52
252.451	46.76
252.668	1.71
252.885	28.33
253.102	42.67
253.318	75.43
253.535	3.75
253.752	-51.54
253.968	44.71
254.185	42.67
254.401	38.57
254.618	20.14
254.835	-22.87
255.051	130.73
255.268	-45.4
255.484	-4.44
255.701	48.81
255.917	95.91
256.134	-4.44
256.351	79.53
256.567	-53.59
256.784	-29.01
257	16.04
257.217	40.62
257.433	63.15
257.65	-33.11
257.866	59.05
258.082	-18.77
258.299	5.8
258.515	50.86
258.732	-12.63
258.948	130.73
259.165	22.19
259.381	-24.92
259.597	71.34
259.814	-53.59
260.03	32.43
260.246	44.71
260.463	13.99
260.679	5.8
260.895	75.43
261.112	102.06
261.328	-45.4
261.544	67.24
261.761	73.39
261.977	16.04
262.193	32.43
262.409	34.47
262.626	65.19
262.842	91.82
263.058	-6.49
263.274	69.29
263.49	65.19
263.707	102.06
263.923	36.52
264.139	-12.63
264.355	-2.39
264.571	89.77
264.787	75.43
265.004	16.04
265.22	-72.02
265.436	46.76
265.652	61.1
265.868	32.43
266.084	36.52
266.3	-26.96
266.516	-24.92
266.732	-12.63
266.948	-59.73
267.164	36.52
267.38	11.95
267.596	67.24
267.812	40.62
268.028	-29.01
268.244	52.91
268.46	110.25
268.676	42.67
268.892	16.04
269.108	32.43
269.324	11.95
269.54	-4.44
269.756	63.15
269.972	-0.34
270.188	-26.96
270.403	-14.68
270.619	42.67
270.835	3.75
271.051	36.52
271.267	18.09
271.483	26.28
271.698	-12.63
271.914	48.81
272.13	32.43
272.346	-22.87
272.562	3.75
272.777	50.86
272.993	-37.2
273.209	-59.73
273.425	28.33
273.64	69.29
273.856	57
274.072	-41.3
274.287	7.85
274.503	-35.16
274.719	102.06
274.934	36.52
275.15	5.8
275.366	44.71
275.581	13.99
275.797	-10.58
276.012	-8.53
276.228	69.29
276.444	-14.68
276.659	81.58
276.875	-20.82
277.09	-8.53
277.306	73.39
277.521	89.77
277.737	26.28
277.952	-31.06
278.168	-14.68
278.383	-0.34
278.599	40.62
278.814	52.91
279.03	-0.34
279.245	50.86
279.461	40.62
279.676	52.91
279.892	-8.53
280.107	79.53
280.322	24.23
280.538	38.57
280.753	7.85
280.969	40.62
281.184	69.29
281.399	79.53
281.615	26.28
281.83	-12.63
282.045	44.71
282.26	30.38
282.476	24.23
282.691	126.63
282.906	-31.06
283.122	-12.63
283.337	-33.11
283.552	50.86
283.767	38.57
283.983	3.75
284.198	42.67
284.413	87.72
284.628	-12.63
284.843	22.19
285.058	24.23
285.274	-8.53
285.489	26.28
285.704	65.19
285.919	110.25
286.134	13.99
286.349	28.33
286.564	-4.44
286.779	89.77
286.995	71.34
287.21	65.19
287.425	93.87
287.64	61.1
287.855	65.19
288.07	16.04
288.285	-0.34
288.5	-2.39
288.715	-16.73
288.93	-31.06
289.145	32.43
289.36	-0.34
289.575	-18.77
289.79	63.15
290.004	89.77
290.219	106.15
290.434	11.95
290.649	24.23
290.864	54.95
291.079	7.85
291.294	32.43
291.509	11.95
291.724	57
291.938	-26.96
292.153	46.76
292.368	22.19
292.583	3.75
292.798	30.38
293.012	1.71
293.227	-20.82
293.442	-37.2
293.657	69.29
293.871	81.58
294.086	11.95
294.301	32.43
294.516	16.04
294.73	16.04
294.945	-4.44
295.16	83.63
295.374	32.43
295.589	120.49
295.804	40.62
296.018	48.81
296.233	-6.49
296.447	52.91
296.662	24.23
296.877	44.71
297.091	-6.49
297.306	40.62
297.52	-16.73
297.735	30.38
297.949	67.24
298.164	-2.39
298.378	13.99
298.593	-33.11
298.807	22.19
299.022	46.76
299.236	110.25
299.451	-35.16
299.665	-22.87
299.88	48.81
300.094	42.67
300.309	48.81
300.523	83.63
300.737	54.95
300.952	57
301.166	-10.58
301.381	-49.49
301.595	69.29
301.809	50.86
302.024	-4.44
302.238	13.99
302.452	5.8
302.667	3.75
302.881	102.06
303.095	85.67
303.309	57
303.524	20.14
303.738	3.75
303.952	67.24
304.166	50.86
304.381	-12.63
304.595	36.52
304.809	36.52
305.023	73.39
305.237	-8.53
305.452	-43.35
305.666	36.52
305.88	85.67
306.094	77.48
306.308	36.52
306.522	61.1
306.736	42.67
306.95	28.33
307.164	40.62
307.379	-41.3
307.593	81.58
307.807	69.29
308.021	83.63
308.235	114.34
308.449	-26.96
308.663	20.14
308.877	110.25
309.091	42.67
309.305	16.04
309.519	-26.96
309.733	83.63
309.947	5.8
310.161	79.53
310.374	22.19
310.588	102.06
310.802	36.52
311.016	5.8
311.23	79.53
311.444	-33.11
311.658	50.86
311.872	114.34
312.085	118.44
312.299	28.33
312.513	59.05
312.727	75.43
312.941	-14.68
313.154	26.28
313.368	11.95
313.582	42.67
313.796	52.91
314.009	-22.87
314.223	65.19
314.437	-4.44
314.651	24.23
314.864	36.52
315.078	-49.49
315.292	32.43
315.505	-61.78
315.719	24.23
315.933	-0.34
316.146	28.33
316.36	20.14
316.573	73.39
316.787	26.28
317.001	124.58
317.214	16.04
317.428	-47.44
317.641	11.95
317.855	63.15
318.068	104.11
318.282	40.62
318.495	44.71
318.709	48.81
318.922	-16.73
319.136	93.87
319.349	83.63
319.563	30.38
319.776	30.38
319.99	91.82
320.203	9.9
320.417	-16.73
320.63	61.1
320.843	54.95
321.057	40.62
321.27	67.24
321.483	85.67
321.697	16.04
321.91	26.28
322.124	32.43
322.337	28.33
322.55	69.29
322.763	26.28
322.977	16.04
323.19	18.09
323.403	22.19
323.617	9.9
323.83	30.38
324.043	52.91
324.256	104.11
324.469	97.96
324.683	5.8
324.896	32.43
325.109	-6.49
325.322	-49.49
325.535	44.71
325.748	28.33
325.962	54.95
326.175	30.38
326.388	89.77
326.601	48.81
326.814	13.99
327.027	28.33
327.24	157.35
327.453	-0.34
327.666	22.19
327.879	38.57
328.092	24.23
328.305	-59.73
328.518	30.38
328.731	65.19
328.944	16.04
329.157	69.29
329.37	50.86
329.583	124.58
329.796	32.43
330.009	38.57
330.222	38.57
330.435	34.47
330.648	104.11
330.861	11.95
331.073	108.2
331.286	73.39
331.499	54.95
331.712	26.28
331.925	22.19
332.138	52.91
332.35	11.95
332.563	77.48
332.776	18.09
332.989	3.75
333.202	28.33
333.414	-49.49
333.627	73.39
333.84	67.24
334.053	3.75
334.265	-20.82
334.478	20.14
334.691	9.9
334.903	57
335.116	28.33
335.329	71.34
335.541	22.19
335.754	79.53
335.966	-55.64
336.179	73.39
336.392	11.95
336.604	48.81
336.817	81.58
337.029	65.19
337.242	1.71
337.454	71.34
337.667	44.71
337.88	110.25
338.092	93.87
338.305	85.67
338.517	-4.44
338.729	36.52
338.942	67.24
339.154	79.53
339.367	22.19
339.579	20.14
339.792	-112.98
340.004	38.57
340.217	18.09
340.429	122.54
340.641	32.43
340.854	40.62
341.066	59.05
341.278	85.67
341.491	89.77
341.703	24.23
341.915	54.95
342.128	75.43
342.34	44.71
342.552	100.01
342.764	69.29
342.977	52.91
343.189	-6.49
343.401	54.95
343.613	11.95
343.826	69.29
344.038	-4.44
344.25	-4.44
344.462	1.71
344.674	97.96
344.886	20.14
345.099	93.87
345.311	-39.25
345.523	38.57
345.735	36.52
345.947	28.33
346.159	46.76
346.371	108.2
346.583	75.43
346.795	28.33
347.007	5.8
347.219	28.33
347.431	-6.49
347.643	38.57
347.855	-61.78
348.067	40.62
348.279	9.9
348.491	34.47
348.703	26.28
348.915	81.58
349.127	-18.77
349.339	89.77
349.551	28.33
349.763	91.82
349.975	20.14
350.187	83.63
350.399	118.44
350.61	69.29
350.822	13.99
351.034	118.44
351.246	-24.92
351.458	79.53
351.669	77.48
351.881	120.49
352.093	134.82
352.305	50.86
352.517	46.76
352.728	48.81
352.94	36.52
353.152	59.05
353.363	-45.4
353.575	18.09
353.787	100.01
353.999	132.78
354.21	75.43
354.422	50.86
354.633	69.29
354.845	42.67
355.057	-29.01
355.268	28.33
355.48	38.57
355.692	9.9
355.903	52.91
356.115	65.19
356.326	28.33
356.538	5.8
356.749	61.1
356.961	22.19
357.172	-33.11
357.384	85.67
357.595	91.82
357.807	18.09
358.018	85.67
358.23	26.28
358.441	118.44
358.653	116.39
358.864	44.71
359.075	13.99
359.287	134.82
359.498	24.23
359.709	71.34
359.921	61.1
360.132	59.05
360.344	46.76
360.555	46.76
360.766	69.29
360.977	34.47
361.189	40.62
361.4	3.75
361.611	87.72
361.823	11.95
362.034	34.47
362.245	-33.11
362.456	24.23
362.667	38.57
362.879	40.62
363.09	44.71
363.301	73.39
363.512	38.57
363.723	63.15
363.935	57
364.146	1.71
364.357	20.14
364.568	61.1
364.779	-12.63
364.99	61.1
365.201	20.14
365.412	120.49
365.623	18.09
365.834	50.86
366.045	44.71
366.256	81.58
366.467	5.8
366.678	106.15
366.889	77.48
367.1	44.71
367.311	28.33
367.522	91.82
367.733	89.77
367.944	106.15
368.155	-20.82
368.366	79.53
368.577	83.63
368.788	-4.44
368.999	-14.68
369.209	9.9
369.42	89.77
369.631	161.45
369.842	77.48
370.053	54.95
370.264	73.39
370.474	100.01
370.685	75.43
370.896	85.67
371.107	50.86
371.317	61.1
371.528	20.14
371.739	18.09
371.95	91.82
372.16	102.06
372.371	81.58
372.582	50.86
372.792	-20.82
373.003	24.23
373.214	-0.34
373.424	110.25
373.635	9.9
373.846	120.49
374.056	67.24
374.267	40.62
374.477	118.44
374.688	77.48
374.898	91.82
375.109	75.43
375.319	85.67
375.53	93.87
375.74	77.48
375.951	1.71
376.161	77.48
376.372	79.53
376.582	9.9
376.793	36.52
377.003	28.33
377.214	36.52
377.424	102.06
377.635	54.95
377.845	85.67
378.055	46.76
378.266	24.23
378.476	102.06
378.686	69.29
378.897	71.34
379.107	77.48
379.317	36.52
379.528	93.87
379.738	71.34
379.948	59.05
380.158	65.19
380.369	75.43
380.579	61.1
380.789	24.23
380.999	-12.63
381.21	44.71
381.42	79.53
381.63	42.67
381.84	26.28
382.05	22.19
382.261	44.71
382.471	65.19
382.681	46.76
382.891	57
383.101	38.57
383.311	34.47
383.521	-12.63
383.731	77.48
383.941	65.19
384.151	65.19
384.361	57
384.571	97.96
384.781	18.09
384.991	149.16
385.201	163.5
385.411	61.1
385.621	106.15
385.831	28.33
386.041	104.11
386.251	50.86
386.461	95.91
386.671	57
386.881	75.43
387.091	81.58
387.301	59.05
387.511	50.86
387.72	59.05
387.93	18.09
388.14	-0.34
388.35	18.09
388.56	87.72
388.769	28.33
388.979	36.52
389.189	69.29
389.399	42.67
389.609	67.24
389.818	91.82
390.028	73.39
390.238	81.58
390.447	69.29
390.657	81.58
390.867	97.96
391.076	36.52
391.286	22.19
391.496	63.15
391.705	-4.44
391.915	83.63
392.125	73.39
392.334	93.87
392.544	26.28
392.753	104.11
392.963	-8.53
393.172	128.68
393.382	28.33
393.591	120.49
393.801	36.52
394.01	91.82
394.22	65.19
394.429	65.19
394.639	124.58
394.848	102.06
395.058	104.11
395.267	28.33
395.477	75.43
395.686	52.91
395.895	153.26
396.105	173.74
396.314	120.49
396.524	167.59
396.733	106.15
396.942	118.44
397.152	102.06
397.361	126.63
397.57	81.58
397.78	97.96
397.989	71.34
398.198	112.3
398.407	46.76
398.617	128.68
398.826	110.25
399.035	226.98
399.244	116.39
399.453	97.96
399.663	102.06
399.872	112.3
400.081	130.73
400.29	153.26
400.499	83.63
400.708	95.91
400.917	61.1
401.127	153.26
401.336	44.71
401.545	177.83
401.754	118.44
401.963	136.87
402.172	120.49
402.381	61.1
402.59	97.96
402.799	138.92
403.008	89.77
403.217	140.97
403.426	183.98
403.635	59.05
403.844	106.15
404.053	128.68
404.262	122.54
404.471	175.78
404.68	159.4
404.888	171.69
405.097	177.83
405.306	186.02
405.515	161.45
405.724	179.88
405.933	241.32
406.142	173.74
406.35	167.59
406.559	151.21
406.768	171.69
406.977	196.26
407.185	173.74
407.394	229.03
407.603	190.12
407.812	263.85
408.02	317.09
408.229	134.82
408.438	243.37
408.646	253.61
408.855	286.37
409.064	321.19
409.272	257.7
409.481	278.18
409.69	239.27
409.898	298.66
410.107	304.81
410.315	306.85
410.524	315.05
410.733	337.57
410.941	427.68
411.15	396.96
411.358	452.26
411.567	476.84
411.775	419.49
411.984	425.64
412.192	470.69
412.401	413.35
412.609	525.99
412.818	581.28
413.026	454.31
413.234	548.51
413.443	564.9
413.651	548.51
413.86	607.91
414.068	655.01
414.276	622.24
414.485	597.67
414.693	747.17
414.901	767.65
415.11	706.21
415.318	646.82
415.526	753.31
415.734	773.79
415.943	736.93
416.151	913.05
416.359	884.38
416.567	779.93
416.776	884.38
416.984	937.63
417.192	1009.31
417.4	1062.55
417.608	1029.79
417.817	1117.85
418.025	1162.9
418.233	1246.87
418.441	1210.01
418.649	1242.78
418.857	1347.22
419.065	1377.94
419.273	1339.03
419.481	1351.32
419.689	1447.57
419.897	1545.88
420.105	1642.13
420.313	1629.84
420.521	1681.04
420.729	1750.67
420.937	1756.82
421.145	1873.55
421.353	1830.54
421.561	1957.52
421.769	2059.92
421.977	2096.78
422.185	2064.01
422.393	2135.69
422.601	2358.92
422.809	2360.97
423.017	2354.82
423.224	2516.61
423.432	2563.72
423.64	2580.1
423.848	2825.86
424.056	2858.62
424.263	2991.74
424.471	2862.72
424.679	3004.03
424.887	3202.68
425.094	3337.85
425.302	3366.52
425.51	3436.15
425.718	3561.08
425.925	3624.56
426.133	3690.1
426.341	3853.94
426.548	3995.25
426.756	4001.39
426.964	4142.7
427.171	4423.27
427.379	4525.67
427.586	4511.33
427.794	4738.66
428.001	4843.1
428.209	4947.55
428.417	4898.4
428.624	5488.21
428.832	5525.08
429.039	5193.31
429.247	5418.58
429.454	5826.13
429.662	6075.98
429.869	5822.03
430.076	6350.41
430.284	6043.21
430.491	6411.85
430.699	6889.03
430.906	6747.72
431.114	6886.98
431.321	7112.25
431.528	7188.03
431.736	7673.4
431.943	8015.41
432.15	7677.49
432.358	7855.67
432.565	8420.91
432.772	8193.58
432.979	8832.55
433.187	8662.57
433.394	8787.49
433.601	9342.49
433.808	9621.02
434.016	9465.37
434.223	10083.86
434.43	10403.34
434.637	10262.03
434.844	10937.86
435.052	11169.28
435.259	11156.99
435.466	10917.38
435.673	11052.55
435.88	11892.21
436.087	12328.43
436.294	12418.54
436.501	11980.28
436.708	12230.13
436.915	12830.18
437.122	13340.13
437.329	13389.28
437.537	13612.51
437.743	13913.56
437.95	13780.44
438.157	14562.76
438.364	14771.66
438.571	14925.25
438.778	15117.76
438.985	16362.93
439.192	15924.66
439.399	16158.13
439.606	16020.92
439.813	16733.61
440.02	17823.13
440.227	17429.92
440.433	17554.85
440.64	17839.51
440.847	17857.95
441.054	18576.78
441.261	19312
441.467	19103.11
441.674	19694.97
441.881	20489.59
442.088	20196.73
442.294	20123
442.501	20721.01
442.708	21054.83
442.914	21857.63
443.121	22766.93
443.328	22322.52
443.534	23838.01
443.741	22795.6
443.948	22816.08
444.154	24419.64
444.361	24208.7
444.568	24407.35
444.774	24386.87
444.981	24534.32
445.187	25349.42
445.394	26506.52
445.6	26408.22
445.807	28706.04
446.013	27415.82
446.22	28103.93
446.426	29052.14
446.633	29392.11
446.839	29996.26
447.046	28957.94
447.252	30481.63
447.459	30237.92
447.665	30332.12
447.871	31593.67
448.078	33238.19
448.284	31397.07
448.491	32171.2
448.697	33569.96
448.903	33901.73
449.11	33811.62
449.316	33457.32
449.522	34112.67
449.728	34788.5
449.935	35183.76
450.141	35716.23
450.347	36217.99
450.553	34854.04
450.76	34899.09
450.966	36428.93
451.172	35787.91
451.378	36836.47
451.584	36287.62
451.791	36973.69
451.997	37115
452.203	37284.98
452.409	37289.07
452.615	37401.71
452.821	35728.52
453.027	35447.95
453.233	37295.22
453.44	35697.8
453.646	36295.81
453.852	36594.81
454.058	37123.19
454.264	35396.75
454.47	36713.59
454.676	35337.36
454.882	36811.9
455.088	33019.06
455.294	33911.97
455.5	34323.61
455.705	34913.43
455.911	33283.25
456.117	32816.31
456.323	32269.5
456.529	30618.84
456.735	31925.44
456.941	30991.57
457.147	30692.57
457.352	29705.45
457.558	29205.74
457.764	29236.46
457.97	28783.86
458.176	28202.24
458.381	27868.42
458.587	26782.99
458.793	26656.02
458.999	25443.62
459.204	27131.15
459.41	26498.33
459.616	24730.93
459.821	24837.42
460.027	24806.7
460.233	24143.16
460.438	22758.74
460.644	23305.54
460.85	22336.85
461.055	21812.57
461.261	22021.47
461.466	20209.01
461.672	19647.87
461.878	20970.86
462.083	19727.74
462.289	19555.71
462.494	19248.52
462.7	18251.16
462.905	17853.85
463.111	18371.99
463.316	18458
463.522	18183.57
463.727	18007.45
463.932	17890.71
464.138	17628.57
464.343	17814.94
464.549	17374.63
464.754	17569.18
464.959	17653.15
465.165	17489.31
465.37	16946.6
465.575	16512.43
465.781	17116.58
465.986	17159.59
466.191	16496.05
466.397	16141.75
466.602	15478.21
466.807	15953.34
467.012	16035.25
467.218	15850.94
