Data from USB4F104151__82__10-24-16-570.txt Node

Date: Wed Mar 12 10:24:16 EDT 2025
User: louis
Spectrometer: USB4F10415
Trigger mode: 4
Integration Time (sec): 3.000000E-2
Scans to average: 1
Electric dark correction enabled: true
Nonlinearity correction enabled: false
Boxcar width: 0
XAxis mode: Wavelengths
Number of Pixels in Spectrum: 3648
>>>>>Begin Spectral Data<<<<<
178.204	-76.63
178.424	-76.63
178.644	-76.63
178.864	-119.64
179.084	-84.82
179.304	29.87
179.524	-0.85
179.744	21.67
179.964	7.34
180.184	-13.14
180.404	33.96
180.624	-13.14
180.844	-37.72
181.064	13.48
181.283	29.87
181.503	-39.76
181.723	-31.57
181.943	-15.19
182.163	64.68
182.383	-15.19
182.602	107.69
182.822	109.74
183.042	-7
183.262	21.67
183.482	60.59
183.701	64.68
183.921	9.39
184.141	-15.19
184.361	29.87
184.58	54.44
184.8	31.91
185.02	-43.86
185.239	93.35
185.459	48.3
185.679	83.11
185.898	3.24
186.118	87.21
186.338	-15.19
186.557	76.97
186.777	64.68
186.997	66.73
187.216	-9.05
187.436	79.02
187.655	99.5
187.875	95.4
188.095	-27.48
188.314	-0.85
188.534	46.25
188.753	117.93
188.973	89.26
189.192	91.31
189.412	48.3
189.631	27.82
189.851	89.26
190.07	97.45
190.29	76.97
190.509	48.3
190.729	40.11
190.948	23.72
191.168	134.31
191.387	74.92
191.607	-9.05
191.826	87.21
192.045	97.45
192.265	156.84
192.484	-4.95
192.704	46.25
192.923	3.24
193.142	119.98
193.362	36.01
193.581	38.06
193.8	21.67
194.02	105.64
194.239	31.91
194.458	60.59
194.678	15.53
194.897	-4.95
195.116	68.78
195.335	109.74
195.555	25.77
195.774	44.2
195.993	38.06
196.212	17.58
196.432	-82.77
196.651	27.82
196.87	-11.09
197.089	46.25
197.308	50.35
197.528	64.68
197.747	1.19
197.966	76.97
198.185	74.92
198.404	126.12
198.623	105.64
198.842	89.26
199.062	29.87
199.281	79.02
199.5	13.48
199.719	31.91
199.938	85.16
200.157	36.01
200.376	105.64
200.595	64.68
200.814	93.35
201.033	15.53
201.252	105.64
201.471	50.35
201.69	-33.62
201.909	93.35
202.128	56.49
202.347	50.35
202.566	-19.29
202.785	60.59
203.004	29.87
203.223	87.21
203.442	42.15
203.661	81.07
203.879	-2.9
204.098	142.5
204.317	-17.24
204.536	105.64
204.755	5.29
204.974	33.96
205.193	50.35
205.411	113.83
205.63	115.88
205.849	66.73
206.068	46.25
206.287	-27.48
206.505	54.44
206.724	19.63
206.943	60.59
207.162	56.49
207.381	15.53
207.599	27.82
207.818	-23.38
208.037	3.24
208.255	54.44
208.474	36.01
208.693	119.98
208.911	85.16
209.13	103.59
209.349	87.21
209.567	138.41
209.786	122.02
210.005	97.45
210.223	19.63
210.442	-21.33
210.661	9.39
210.879	103.59
211.098	-2.9
211.316	21.67
211.535	171.18
211.753	48.3
211.972	113.83
212.191	103.59
212.409	50.35
212.628	64.68
212.846	11.43
213.065	89.26
213.283	126.12
213.502	44.2
213.72	72.87
213.938	91.31
214.157	27.82
214.375	33.96
214.594	-19.29
214.812	36.01
215.031	40.11
215.249	46.25
215.467	5.29
215.686	42.15
215.904	76.97
216.122	15.53
216.341	40.11
216.559	46.25
216.778	119.98
216.996	81.07
217.214	68.78
217.432	52.39
217.651	-21.33
217.869	85.16
218.087	29.87
218.306	162.98
218.524	50.35
218.742	-11.09
218.96	19.63
219.179	52.39
219.397	56.49
219.615	83.11
219.833	93.35
220.051	11.43
220.27	60.59
220.488	13.48
220.706	21.67
220.924	70.83
221.142	-9.05
221.36	42.15
221.578	48.3
221.796	95.4
222.015	79.02
222.233	62.63
222.451	72.87
222.669	19.63
222.887	27.82
223.105	52.39
223.323	103.59
223.541	-9.05
223.759	76.97
223.977	56.49
224.195	142.5
224.413	9.39
224.631	72.87
224.849	23.72
225.067	122.02
225.285	64.68
225.503	44.2
225.721	48.3
225.939	-21.33
226.157	128.17
226.375	76.97
226.592	54.44
226.81	62.63
227.028	81.07
227.246	89.26
227.464	46.25
227.682	122.02
227.9	42.15
228.117	48.3
228.335	21.67
228.553	93.35
228.771	50.35
228.989	74.92
229.206	56.49
229.424	79.02
229.642	-0.85
229.86	48.3
230.077	79.02
230.295	81.07
230.513	72.87
230.731	111.78
230.948	103.59
231.166	126.12
231.384	1.19
231.601	44.2
231.819	31.91
232.037	48.3
232.254	-33.62
232.472	64.68
232.689	144.55
232.907	146.6
233.125	52.39
233.342	68.78
233.56	-25.43
233.777	72.87
233.995	56.49
234.213	81.07
234.43	48.3
234.648	-35.67
234.865	38.06
235.083	-7
235.3	83.11
235.518	68.78
235.735	99.5
235.953	-4.95
236.17	38.06
236.388	83.11
236.605	68.78
236.822	33.96
237.04	64.68
237.257	13.48
237.475	27.82
237.692	52.39
237.909	-29.52
238.127	-2.9
238.344	15.53
238.562	74.92
238.779	27.82
238.996	-0.85
239.214	1.19
239.431	87.21
239.648	44.2
239.865	48.3
240.083	93.35
240.3	54.44
240.517	85.16
240.735	89.26
240.952	93.35
241.169	15.53
241.386	46.25
241.603	95.4
241.821	60.59
242.038	85.16
242.255	25.77
242.472	105.64
242.689	31.91
242.907	42.15
243.124	60.59
243.341	93.35
243.558	25.77
243.775	7.34
243.992	7.34
244.209	64.68
244.426	95.4
244.643	64.68
244.86	-13.14
245.078	72.87
245.295	83.11
245.512	62.63
245.729	60.59
245.946	38.06
246.163	29.87
246.38	97.45
246.597	44.2
246.814	36.01
247.031	17.58
247.248	46.25
247.464	93.35
247.681	54.44
247.898	60.59
248.115	91.31
248.332	17.58
248.549	81.07
248.766	23.72
248.983	52.39
249.2	7.34
249.417	46.25
249.633	91.31
249.85	52.39
250.067	66.73
250.284	23.72
250.501	-13.14
250.717	101.55
250.934	40.11
251.151	15.53
251.368	52.39
251.585	89.26
251.801	48.3
252.018	74.92
252.235	7.34
252.451	-25.43
252.668	44.2
252.885	60.59
253.102	72.87
253.318	74.92
253.535	-2.9
253.752	42.15
253.968	103.59
254.185	109.74
254.401	117.93
254.618	66.73
254.835	101.55
255.051	11.43
255.268	44.2
255.484	50.35
255.701	31.91
255.917	60.59
256.134	31.91
256.351	79.02
256.567	62.63
256.784	54.44
257	15.53
257.217	109.74
257.433	83.11
257.65	126.12
257.866	64.68
258.082	15.53
258.299	95.4
258.515	136.36
258.732	58.54
258.948	7.34
259.165	36.01
259.381	-0.85
259.597	103.59
259.814	40.11
260.03	15.53
260.246	21.67
260.463	7.34
260.679	7.34
260.895	48.3
261.112	44.2
261.328	31.91
261.544	36.01
261.761	-0.85
261.977	5.29
262.193	48.3
262.409	-0.85
262.626	91.31
262.842	44.2
263.058	115.88
263.274	99.5
263.49	64.68
263.707	117.93
263.923	-2.9
264.139	54.44
264.355	85.16
264.571	13.48
264.787	-15.19
265.004	40.11
265.22	19.63
265.436	33.96
265.652	38.06
265.868	36.01
266.084	21.67
266.3	81.07
266.516	29.87
266.732	79.02
266.948	72.87
267.164	-2.9
267.38	38.06
267.596	89.26
267.812	154.79
268.028	91.31
268.244	21.67
268.46	46.25
268.676	81.07
268.892	52.39
269.108	105.64
269.324	27.82
269.54	-9.05
269.756	70.83
269.972	-68.44
270.188	70.83
270.403	-33.62
270.619	56.49
270.835	40.11
271.051	115.88
271.267	31.91
271.483	54.44
271.698	66.73
271.914	70.83
272.13	48.3
272.346	25.77
272.562	5.29
272.777	-35.67
272.993	113.83
273.209	52.39
273.425	70.83
273.64	46.25
273.856	48.3
274.072	29.87
274.287	72.87
274.503	52.39
274.719	11.43
274.934	19.63
275.15	40.11
275.366	13.48
275.581	-9.05
275.797	19.63
276.012	15.53
276.228	87.21
276.444	-2.9
276.659	142.5
276.875	40.11
277.09	76.97
277.306	29.87
277.521	101.55
277.737	11.43
277.952	87.21
278.168	23.72
278.383	44.2
278.599	72.87
278.814	54.44
279.03	72.87
279.245	97.45
279.461	31.91
279.676	13.48
279.892	93.35
280.107	-13.14
280.322	11.43
280.538	54.44
280.753	7.34
280.969	105.64
281.184	-2.9
281.399	48.3
281.615	74.92
281.83	-15.19
282.045	50.35
282.26	-15.19
282.476	101.55
282.691	81.07
282.906	85.16
283.122	83.11
283.337	60.59
283.552	83.11
283.767	19.63
283.983	97.45
284.198	87.21
284.413	93.35
284.628	5.29
284.843	21.67
285.058	15.53
285.274	56.49
285.489	23.72
285.704	52.39
285.919	-25.43
286.134	23.72
286.349	62.63
286.564	-13.14
286.779	89.26
286.995	54.44
287.21	54.44
287.425	99.5
287.64	101.55
287.855	48.3
288.07	56.49
288.285	81.07
288.5	99.5
288.715	85.16
288.93	-11.09
289.145	42.15
289.36	44.2
289.575	-27.48
289.79	130.22
290.004	48.3
290.219	42.15
290.434	91.31
290.649	50.35
290.864	29.87
291.079	-0.85
291.294	74.92
291.509	56.49
291.724	62.63
291.938	-7
292.153	72.87
292.368	15.53
292.583	97.45
292.798	44.2
293.012	79.02
293.227	11.43
293.442	105.64
293.657	83.11
293.871	109.74
294.086	81.07
294.301	85.16
294.516	-27.48
294.73	70.83
294.945	64.68
295.16	60.59
295.374	91.31
295.589	44.2
295.804	27.82
296.018	101.55
296.233	74.92
296.447	76.97
296.662	99.5
296.877	85.16
297.091	5.29
297.306	48.3
297.52	111.78
297.735	107.69
297.949	21.67
298.164	36.01
298.378	85.16
298.593	64.68
298.807	13.48
299.022	19.63
299.236	93.35
299.451	-7
299.665	50.35
299.88	76.97
300.094	101.55
300.309	58.54
300.523	64.68
300.737	58.54
300.952	60.59
301.166	130.22
301.381	99.5
301.595	38.06
301.809	60.59
302.024	-13.14
302.238	23.72
302.452	31.91
302.667	89.26
302.881	197.8
303.095	56.49
303.309	21.67
303.524	72.87
303.738	64.68
303.952	13.48
304.166	38.06
304.381	40.11
304.595	95.4
304.809	44.2
305.023	40.11
305.237	-13.14
305.452	44.2
305.666	109.74
305.88	156.84
306.094	48.3
306.308	76.97
306.522	87.21
306.736	-39.76
306.95	23.72
307.164	64.68
307.379	25.77
307.593	31.91
307.807	-19.29
308.021	64.68
308.235	-0.85
308.449	44.2
308.663	64.68
308.877	27.82
309.091	81.07
309.305	40.11
309.519	29.87
309.733	109.74
309.947	-23.38
310.161	46.25
310.374	93.35
310.588	134.31
310.802	64.68
311.016	54.44
311.23	48.3
311.444	44.2
311.658	72.87
311.872	40.11
312.085	144.55
312.299	122.02
312.513	64.68
312.727	158.89
312.941	68.78
313.154	124.07
313.368	29.87
313.582	130.22
313.796	138.41
314.009	23.72
314.223	15.53
314.437	93.35
314.651	76.97
314.864	7.34
315.078	124.07
315.292	91.31
315.505	3.24
315.719	68.78
315.933	56.49
316.146	101.55
316.36	58.54
316.573	97.45
316.787	124.07
317.001	74.92
317.214	5.29
317.428	66.73
317.641	44.2
317.855	101.55
318.068	23.72
318.282	91.31
318.495	146.6
318.709	60.59
318.922	60.59
319.136	107.69
319.349	19.63
319.563	52.39
319.776	-15.19
319.99	33.96
320.203	105.64
320.417	23.72
320.63	31.91
320.843	124.07
321.057	21.67
321.27	74.92
321.483	40.11
321.697	27.82
321.91	93.35
322.124	42.15
322.337	81.07
322.55	134.31
322.763	76.97
322.977	48.3
323.19	109.74
323.403	72.87
323.617	36.01
323.83	74.92
324.043	128.17
324.256	15.53
324.469	29.87
324.683	21.67
324.896	64.68
325.109	27.82
325.322	72.87
325.535	46.25
325.748	89.26
325.962	68.78
326.175	124.07
326.388	113.83
326.601	89.26
326.814	117.93
327.027	101.55
327.24	122.02
327.453	-23.38
327.666	85.16
327.879	109.74
328.092	64.68
328.305	76.97
328.518	42.15
328.731	-37.72
328.944	87.21
329.157	81.07
329.37	81.07
329.583	150.7
329.796	93.35
330.009	111.78
330.222	99.5
330.435	85.16
330.648	44.2
330.861	107.69
331.073	111.78
331.286	54.44
331.499	58.54
331.712	29.87
331.925	58.54
332.138	58.54
332.35	97.45
332.563	79.02
332.776	126.12
332.989	-7
333.202	99.5
333.414	27.82
333.627	54.44
333.84	83.11
334.053	79.02
334.265	56.49
334.478	48.3
334.691	36.01
334.903	64.68
335.116	60.59
335.329	-23.38
335.541	40.11
335.754	97.45
335.966	-7
336.179	70.83
336.392	79.02
336.604	17.58
336.817	76.97
337.029	44.2
337.242	54.44
337.454	122.02
337.667	48.3
337.88	7.34
338.092	23.72
338.305	42.15
338.517	58.54
338.729	83.11
338.942	130.22
339.154	107.69
339.367	68.78
339.579	160.94
339.792	31.91
340.004	27.82
340.217	62.63
340.429	-11.09
340.641	-58.2
340.854	36.01
341.066	66.73
341.278	89.26
341.491	54.44
341.703	17.58
341.915	3.24
342.128	113.83
342.34	105.64
342.552	31.91
342.764	15.53
342.977	17.58
343.189	81.07
343.401	33.96
343.613	-17.24
343.826	54.44
344.038	56.49
344.25	81.07
344.462	56.49
344.674	68.78
344.886	31.91
345.099	23.72
345.311	68.78
345.523	54.44
345.735	-43.86
345.947	62.63
346.159	60.59
346.371	48.3
346.583	81.07
346.795	101.55
347.007	-2.9
347.219	36.01
347.431	-17.24
347.643	74.92
347.855	31.91
348.067	58.54
348.279	40.11
348.491	25.77
348.703	81.07
348.915	52.39
349.127	7.34
349.339	101.55
349.551	87.21
349.763	23.72
349.975	81.07
350.187	66.73
350.399	99.5
350.61	38.06
350.822	-37.72
351.034	23.72
351.246	40.11
351.458	74.92
351.669	46.25
351.881	142.5
352.093	52.39
352.305	99.5
352.517	83.11
352.728	101.55
352.94	66.73
353.152	101.55
353.363	72.87
353.575	42.15
353.787	138.41
353.999	66.73
354.21	56.49
354.422	72.87
354.633	5.29
354.845	68.78
355.057	64.68
355.268	142.5
355.48	109.74
355.692	64.68
355.903	66.73
356.115	11.43
356.326	25.77
356.538	105.64
356.749	105.64
356.961	66.73
357.172	11.43
357.384	48.3
357.595	144.55
357.807	-4.95
358.018	97.45
358.23	-4.95
358.441	113.83
358.653	167.08
358.864	48.3
359.075	64.68
359.287	93.35
359.498	81.07
359.709	115.88
359.921	56.49
360.132	79.02
360.344	97.45
360.555	97.45
360.766	79.02
360.977	5.29
361.189	109.74
361.4	3.24
361.611	119.98
361.823	50.35
362.034	113.83
362.245	76.97
362.456	23.72
362.667	68.78
362.879	-4.95
363.09	109.74
363.301	113.83
363.512	36.01
363.723	11.43
363.935	81.07
364.146	60.59
364.357	89.26
364.568	56.49
364.779	-0.85
364.99	97.45
365.201	-0.85
365.412	138.41
365.623	-4.95
365.834	105.64
366.045	38.06
366.256	52.39
366.467	72.87
366.678	111.78
366.889	44.2
367.1	72.87
367.311	95.4
367.522	74.92
367.733	17.58
367.944	56.49
368.155	23.72
368.366	111.78
368.577	111.78
368.788	87.21
368.999	56.49
369.209	117.93
369.42	142.5
369.631	52.39
369.842	54.44
370.053	136.36
370.264	138.41
370.474	5.29
370.685	119.98
370.896	126.12
371.107	103.59
371.317	44.2
371.528	93.35
371.739	138.41
371.95	126.12
372.16	89.26
372.371	23.72
372.582	23.72
372.792	60.59
373.003	113.83
373.214	89.26
373.424	40.11
373.635	38.06
373.846	111.78
374.056	111.78
374.267	119.98
374.477	105.64
374.688	70.83
374.898	48.3
375.109	42.15
375.319	109.74
375.53	111.78
375.74	81.07
375.951	56.49
376.161	46.25
376.372	136.36
376.582	23.72
376.793	56.49
377.003	50.35
377.214	68.78
377.424	109.74
377.635	68.78
377.845	29.87
378.055	99.5
378.266	-27.48
378.476	54.44
378.686	81.07
378.897	40.11
379.107	103.59
379.317	50.35
379.528	31.91
379.738	72.87
379.948	-17.24
380.158	79.02
380.369	79.02
380.579	97.45
380.789	76.97
380.999	48.3
381.21	74.92
381.42	185.51
381.63	105.64
381.84	66.73
382.05	33.96
382.261	117.93
382.471	36.01
382.681	50.35
382.891	68.78
383.101	93.35
383.311	72.87
383.521	15.53
383.731	93.35
383.941	79.02
384.151	72.87
384.361	62.63
384.571	119.98
384.781	111.78
384.991	138.41
385.201	154.79
385.411	76.97
385.621	46.25
385.831	52.39
386.041	99.5
386.251	97.45
386.461	126.12
386.671	85.16
386.881	105.64
387.091	56.49
387.301	169.13
387.511	17.58
387.72	97.45
387.93	87.21
388.14	167.08
388.35	64.68
388.56	109.74
388.769	152.74
388.979	105.64
389.189	79.02
389.399	101.55
389.609	52.39
389.818	74.92
390.028	89.26
390.238	91.31
390.447	136.36
390.657	138.41
390.867	101.55
391.076	56.49
391.286	7.34
391.496	97.45
391.705	72.87
391.915	132.26
392.125	97.45
392.334	122.02
392.544	103.59
392.753	132.26
392.963	87.21
393.172	154.79
393.382	58.54
393.591	87.21
393.801	44.2
394.01	76.97
394.22	113.83
394.429	44.2
394.639	33.96
394.848	97.45
395.058	70.83
395.267	109.74
395.477	105.64
395.686	60.59
395.895	142.5
396.105	179.37
396.314	66.73
396.524	132.26
396.733	68.78
396.942	113.83
397.152	85.16
397.361	167.08
397.57	154.79
397.78	154.79
397.989	93.35
398.198	238.76
398.407	128.17
398.617	64.68
398.826	91.31
399.035	140.46
399.244	122.02
399.453	150.7
399.663	64.68
399.872	158.89
400.081	128.17
400.29	162.98
400.499	130.22
400.708	201.9
400.917	154.79
401.127	249
401.336	105.64
401.545	162.98
401.754	212.14
401.963	148.65
402.172	136.36
402.381	142.5
402.59	93.35
402.799	201.9
403.008	203.94
403.217	148.65
403.426	130.22
403.635	105.64
403.844	146.6
404.053	167.08
404.262	158.89
404.471	189.61
404.68	150.7
404.888	109.74
405.097	199.85
405.306	140.46
405.515	171.18
405.724	136.36
405.933	158.89
406.142	289.96
406.35	185.51
406.559	208.04
406.768	271.53
406.977	289.96
407.185	251.05
407.394	259.24
407.603	220.33
407.812	201.9
408.02	289.96
408.229	253.09
408.438	214.18
408.646	277.67
408.855	269.48
409.064	322.73
409.272	318.63
409.481	294.05
409.69	380.07
409.898	320.68
410.107	441.51
410.315	384.16
410.524	300.2
410.733	439.46
410.941	289.96
411.15	468.13
411.358	412.84
411.567	457.89
411.775	421.03
411.984	511.14
412.192	548
412.401	474.28
412.609	519.33
412.818	611.49
413.026	674.98
413.234	603.3
413.443	576.67
413.651	619.68
413.86	619.68
414.068	634.02
414.276	629.92
414.485	699.55
414.693	781.47
414.901	812.19
415.11	797.85
415.318	748.7
415.526	801.95
415.734	859.29
415.943	867.49
416.151	967.84
416.359	935.07
416.567	998.56
416.776	947.36
416.984	1088.67
417.192	1088.67
417.4	1096.86
417.608	1176.73
417.817	1182.87
418.025	1264.79
418.233	1305.75
418.441	1238.17
418.649	1389.72
418.857	1547.41
419.065	1473.68
419.273	1375.38
419.481	1539.22
419.689	1668.24
419.897	1608.85
420.105	1692.82
420.313	1852.56
420.521	1793.17
420.729	2014.35
420.937	1899.66
421.145	1932.43
421.353	2006.16
421.561	2198.67
421.769	2186.38
421.977	2229.38
422.185	2309.26
422.393	2430.09
422.601	2464.9
422.809	2546.82
423.017	2421.89
423.224	2571.4
423.432	2786.43
423.64	2745.47
423.848	3052.67
424.056	3024
424.263	3169.4
424.471	3259.51
424.679	3339.38
424.887	3325.05
425.094	3628.15
425.302	3648.63
425.51	3566.71
425.718	3861.62
425.925	3896.43
426.133	3966.06
426.341	4123.76
426.548	4400.23
426.756	4330.6
426.964	4420.71
427.171	4729.95
427.379	4750.43
427.586	4856.93
427.794	4977.76
428.001	5168.22
428.209	5604.44
428.417	5395.54
428.624	5594.2
428.832	5782.61
429.039	5768.27
429.247	5823.57
429.454	6214.73
429.662	6624.33
429.869	6132.81
430.076	6626.37
430.284	6429.77
430.491	6741.06
430.699	7242.81
430.906	7164.99
431.114	7189.56
431.321	7631.93
431.528	7740.47
431.736	8090.67
431.943	8633.38
432.15	8309.8
432.358	8367.15
432.565	8840.23
432.772	8668.2
432.979	9167.9
433.187	9296.92
433.394	9249.82
433.601	10021.91
433.808	10060.82
434.016	10050.58
434.223	10408.97
434.43	11224.06
434.637	10904.58
434.844	11453.44
435.052	11811.83
435.259	11873.27
435.466	11867.13
435.673	11611.13
435.88	12270.58
436.087	13159.39
436.294	13110.24
436.501	12723.18
436.708	12848.1
436.915	13566.94
437.122	13947.86
437.329	13851.61
437.537	14351.31
437.743	14566.35
437.95	14533.58
438.157	15487.93
438.364	15799.23
438.571	15719.35
438.778	16133.04
438.985	17132.45
439.192	16745.39
439.399	17144.74
439.606	16819.11
439.813	17828.76
440.02	18846.6
440.227	18690.96
440.433	18197.4
440.64	19014.54
440.847	18658.19
441.054	19219.33
441.261	20736.88
441.467	20312.95
441.674	20661.1
441.881	21166.95
442.088	21474.15
442.294	21179.24
442.501	21492.58
442.708	22348.63
442.914	22903.63
443.121	24189.75
443.328	23403.33
443.534	25051.95
443.741	24449.85
443.948	23941.95
444.154	25854.75
444.361	25441.06
444.568	25768.74
444.774	25717.54
444.981	26125.08
445.187	26778.39
445.394	27714.31
445.6	27380.49
445.807	29915.87
446.013	28715.76
446.22	29186.8
446.426	30249.69
446.633	31134.42
446.839	31531.72
447.046	30608.09
447.252	31992.51
447.459	32375.48
447.665	31955.65
447.871	33153.71
448.078	34478.75
448.284	33000.12
448.491	33503.92
448.697	35222.16
448.903	35613.32
449.11	35578.51
449.316	35490.45
449.522	35955.33
449.728	36815.48
449.935	37233.27
450.141	36840.06
450.347	37671.53
450.553	36117.12
450.76	36936.31
450.966	38091.37
451.172	37579.37
451.378	38451.81
451.584	37517.93
451.791	38832.73
451.997	38601.31
452.203	38990.42
452.409	38756.96
452.615	39182.93
452.821	37524.08
453.027	37192.31
453.233	39103.06
453.44	37141.11
453.646	37751.4
453.852	37823.08
454.058	38724.19
454.264	37214.83
454.47	37730.92
454.676	37278.32
454.882	37888.62
455.088	34681.5
455.294	35304.08
455.5	36090.5
455.705	36506.24
455.911	34828.95
456.117	34300.58
456.323	33692.33
456.529	32074.43
456.735	33118.9
456.941	32375.48
457.147	31716.04
457.352	31048.4
457.558	30485.21
457.764	30606.04
457.97	30063.33
458.176	29074.16
458.381	29274.86
458.587	28123.9
458.793	27888.39
458.999	26678.04
459.204	28187.39
459.41	27847.43
459.616	25928.48
459.821	25948.96
460.027	25723.68
460.233	24978.22
460.438	23874.37
460.644	24048.44
460.85	23198.54
461.055	22874.96
461.261	22487.89
461.466	21148.52
461.672	20523.89
461.878	21902.17
462.083	20501.36
462.289	19989.37
462.494	20050.81
462.7	18914.19
462.905	18387.86
463.111	18998.15
463.316	19024.78
463.522	18897.8
463.727	18609.04
463.932	18731.92
464.138	18506.64
464.343	18547.6
464.549	18092.95
464.754	18985.86
464.959	18525.07
465.165	18418.58
465.37	17503.14
465.575	17302.43
465.781	17873.82
465.986	17918.87
466.191	17597.34
466.397	16939.94
466.602	16333.75
466.807	16829.35
