Data from USB4F104151__219__10-30-09-182.txt Node

Date: Wed Mar 12 10:30:09 EDT 2025
User: louis
Spectrometer: USB4F10415
Trigger mode: 4
Integration Time (sec): 3.000000E-2
Scans to average: 1
Electric dark correction enabled: true
Nonlinearity correction enabled: false
Boxcar width: 0
XAxis mode: Wavelengths
Number of Pixels in Spectrum: 3648
>>>>>Begin Spectral Data<<<<<
178.204	-127.32
178.424	-127.32
178.644	-127.32
178.864	-90.45
179.084	-166.23
179.304	-29.01
179.524	11.95
179.744	-22.87
179.964	-18.77
180.184	-6.49
180.404	54.95
180.624	-57.68
180.844	46.76
181.064	-26.96
181.283	18.09
181.503	42.67
181.723	-12.63
181.943	-12.63
182.163	7.85
182.383	-24.92
182.602	77.48
182.822	44.71
183.042	93.87
183.262	-16.73
183.482	24.23
183.701	-4.44
183.921	22.19
184.141	-24.92
184.361	65.19
184.58	54.95
184.8	75.43
185.02	13.99
185.239	-8.53
185.459	42.67
185.679	36.52
185.898	48.81
186.118	-4.44
186.338	-16.73
186.557	28.33
186.777	-33.11
186.997	97.96
187.216	-12.63
187.436	7.85
187.655	52.91
187.875	69.29
188.095	-14.68
188.314	44.71
188.534	34.47
188.753	65.19
188.973	22.19
189.192	67.24
189.412	24.23
189.631	9.9
189.851	20.14
190.07	9.9
190.29	-22.87
190.509	3.75
190.729	5.8
190.948	38.57
191.168	93.87
191.387	61.1
191.607	-0.34
191.826	63.15
192.045	-43.35
192.265	-0.34
192.484	28.33
192.704	-24.92
192.923	-12.63
193.142	46.76
193.362	1.71
193.581	44.71
193.8	3.75
194.02	-35.16
194.239	-45.4
194.458	52.91
194.678	48.81
194.897	-8.53
195.116	-45.4
195.335	-6.49
195.555	77.48
195.774	42.67
195.993	40.62
196.212	28.33
196.432	-55.64
196.651	42.67
196.87	-18.77
197.089	87.72
197.308	24.23
197.528	48.81
197.747	-63.83
197.966	18.09
198.185	67.24
198.404	36.52
198.623	16.04
198.842	-6.49
199.062	63.15
199.281	-10.58
199.5	46.76
199.719	13.99
199.938	22.19
200.157	13.99
200.376	16.04
200.595	44.71
200.814	79.53
201.033	24.23
201.252	30.38
201.471	-31.06
201.69	22.19
201.909	71.34
202.128	-4.44
202.347	54.95
202.566	7.85
202.785	-31.06
203.004	-37.2
203.223	42.67
203.442	20.14
203.661	-51.54
203.879	-29.01
204.098	-0.34
204.317	-26.96
204.536	73.39
204.755	28.33
204.974	13.99
205.193	24.23
205.411	34.47
205.63	11.95
205.849	38.57
206.068	-8.53
206.287	-10.58
206.505	5.8
206.724	-57.68
206.943	-35.16
207.162	46.76
207.381	-6.49
207.599	26.28
207.818	24.23
208.037	-20.82
208.255	-4.44
208.474	-51.54
208.693	36.52
208.911	-20.82
209.13	-35.16
209.349	7.85
209.567	-0.34
209.786	67.24
210.005	48.81
210.223	5.8
210.442	-2.39
210.661	32.43
210.879	57
211.098	7.85
211.316	-0.34
211.535	48.81
211.753	-41.3
211.972	54.95
212.191	-41.3
212.409	-6.49
212.628	-80.21
212.846	-29.01
213.065	34.47
213.283	59.05
213.502	18.09
213.72	3.75
213.938	57
214.157	-12.63
214.375	1.71
214.594	-53.59
214.812	7.85
215.031	46.76
215.249	36.52
215.467	-2.39
215.686	20.14
215.904	44.71
216.122	-18.77
216.341	81.58
216.559	-22.87
216.778	20.14
216.996	-2.39
217.214	-33.11
217.432	9.9
217.651	-0.34
217.869	32.43
218.087	-10.58
218.306	-24.92
218.524	22.19
218.742	-29.01
218.96	20.14
219.179	-2.39
219.397	-12.63
219.615	44.71
219.833	130.73
220.051	-10.58
220.27	83.63
220.488	11.95
220.706	-8.53
220.924	26.28
221.142	24.23
221.36	16.04
221.578	-6.49
221.796	26.28
222.015	-35.16
222.233	-72.02
222.451	71.34
222.669	-10.58
222.887	36.52
223.105	-41.3
223.323	38.57
223.541	-10.58
223.759	9.9
223.977	16.04
224.195	42.67
224.413	9.9
224.631	24.23
224.849	36.52
225.067	46.76
225.285	-61.78
225.503	52.91
225.721	-10.58
225.939	-6.49
226.157	30.38
226.375	143.02
226.592	28.33
226.81	28.33
227.028	-18.77
227.246	116.39
227.464	-10.58
227.682	20.14
227.9	-8.53
228.117	-4.44
228.335	-39.25
228.553	-2.39
228.771	-45.4
228.989	-2.39
229.206	7.85
229.424	5.8
229.642	13.99
229.86	-6.49
230.077	67.24
230.295	-18.77
230.513	18.09
230.731	97.96
230.948	24.23
231.166	-10.58
231.384	-33.11
231.601	16.04
231.819	-12.63
232.037	-14.68
232.254	-74.07
232.472	-24.92
232.689	-22.87
232.907	-35.16
233.125	67.24
233.342	16.04
233.56	-10.58
233.777	13.99
233.995	-16.73
234.213	1.71
234.43	46.76
234.648	9.9
234.865	-61.78
235.083	24.23
235.3	69.29
235.518	44.71
235.735	13.99
235.953	57
236.17	-14.68
236.388	-8.53
236.605	-31.06
236.822	54.95
237.04	11.95
237.257	-24.92
237.475	-41.3
237.692	26.28
237.909	3.75
238.127	-82.26
238.344	26.28
238.562	24.23
238.779	22.19
238.996	20.14
239.214	-31.06
239.431	20.14
239.648	54.95
239.865	26.28
240.083	-10.58
240.3	-8.53
240.517	22.19
240.735	28.33
240.952	-2.39
241.169	48.81
241.386	38.57
241.603	38.57
241.821	-22.87
242.038	20.14
242.255	-16.73
242.472	-26.96
242.689	-29.01
242.907	1.71
243.124	24.23
243.341	36.52
243.558	32.43
243.775	-24.92
243.992	-6.49
244.209	24.23
244.426	57
244.643	7.85
244.86	-24.92
245.078	28.33
245.295	83.63
245.512	46.76
245.729	61.1
245.946	13.99
246.163	32.43
246.38	-57.68
246.597	5.8
246.814	81.58
247.031	-41.3
247.248	26.28
247.464	16.04
247.681	36.52
247.898	46.76
248.115	30.38
248.332	-84.31
248.549	30.38
248.766	-33.11
248.983	-8.53
249.2	-12.63
249.417	-0.34
249.633	-12.63
249.85	26.28
250.067	-49.49
250.284	-35.16
250.501	59.05
250.717	116.39
250.934	-31.06
251.151	11.95
251.368	52.91
251.585	63.15
251.801	44.71
252.018	3.75
252.235	46.76
252.451	-2.39
252.668	7.85
252.885	52.91
253.102	32.43
253.318	44.71
253.535	-26.96
253.752	-26.96
253.968	-16.73
254.185	-10.58
254.401	18.09
254.618	16.04
254.835	-2.39
255.051	-10.58
255.268	7.85
255.484	136.87
255.701	52.91
255.917	13.99
256.134	-47.44
256.351	116.39
256.567	52.91
256.784	-20.82
257	-33.11
257.217	-8.53
257.433	38.57
257.65	24.23
257.866	57
258.082	48.81
258.299	7.85
258.515	-16.73
258.732	-0.34
258.948	85.67
259.165	61.1
259.381	65.19
259.597	3.75
259.814	11.95
260.03	-24.92
260.246	-8.53
260.463	7.85
260.679	73.39
260.895	-2.39
261.112	81.58
261.328	-12.63
261.544	-10.58
261.761	18.09
261.977	-12.63
262.193	18.09
262.409	61.1
262.626	-16.73
262.842	18.09
263.058	36.52
263.274	95.91
263.49	54.95
263.707	-12.63
263.923	7.85
264.139	-12.63
264.355	42.67
264.571	77.48
264.787	-39.25
265.004	46.76
265.22	-0.34
265.436	34.47
265.652	-0.34
265.868	67.24
266.084	30.38
266.3	85.67
266.516	54.95
266.732	-8.53
266.948	36.52
267.164	65.19
267.38	114.34
267.596	-6.49
267.812	77.48
268.028	85.67
268.244	-35.16
268.46	-18.77
268.676	30.38
268.892	61.1
269.108	7.85
269.324	-6.49
269.54	-29.01
269.756	95.91
269.972	-12.63
270.188	28.33
270.403	-26.96
270.619	36.52
270.835	-43.35
271.051	-53.59
271.267	-16.73
271.483	13.99
271.698	73.39
271.914	26.28
272.13	26.28
272.346	7.85
272.562	30.38
272.777	-0.34
272.993	-2.39
273.209	46.76
273.425	13.99
273.64	-0.34
273.856	1.71
274.072	-8.53
274.287	-14.68
274.503	24.23
274.719	52.91
274.934	5.8
275.15	71.34
275.366	-35.16
275.581	30.38
275.797	-45.4
276.012	24.23
276.228	-22.87
276.444	-12.63
276.659	151.21
276.875	-2.39
277.09	1.71
277.306	-43.35
277.521	75.43
277.737	93.87
277.952	11.95
278.168	24.23
278.383	52.91
278.599	40.62
278.814	-0.34
279.03	-18.77
279.245	-6.49
279.461	40.62
279.676	69.29
279.892	32.43
280.107	-69.97
280.322	-10.58
280.538	61.1
280.753	57
280.969	-6.49
281.184	83.63
281.399	32.43
281.615	30.38
281.83	-24.92
282.045	-26.96
282.26	-20.82
282.476	-55.64
282.691	52.91
282.906	44.71
283.122	3.75
283.337	-0.34
283.552	28.33
283.767	34.47
283.983	38.57
284.198	-0.34
284.413	3.75
284.628	-57.68
284.843	102.06
285.058	11.95
285.274	16.04
285.489	32.43
285.704	81.58
285.919	40.62
286.134	22.19
286.349	48.81
286.564	52.91
286.779	24.23
286.995	44.71
287.21	-18.77
287.425	-18.77
287.64	28.33
287.855	11.95
288.07	-49.49
288.285	5.8
288.5	44.71
288.715	7.85
288.93	16.04
289.145	32.43
289.36	40.62
289.575	-16.73
289.79	50.86
290.004	44.71
290.219	-29.01
290.434	5.8
290.649	-41.3
290.864	93.87
291.079	59.05
291.294	106.15
291.509	-0.34
291.724	-16.73
291.938	22.19
292.153	11.95
292.368	40.62
292.583	65.19
292.798	50.86
293.012	-24.92
293.227	24.23
293.442	-8.53
293.657	-0.34
293.871	102.06
294.086	-4.44
294.301	114.34
294.516	87.72
294.73	46.76
294.945	-2.39
295.16	-49.49
295.374	136.87
295.589	50.86
295.804	-10.58
296.018	-24.92
296.233	30.38
296.447	106.15
296.662	-8.53
296.877	1.71
297.091	18.09
297.306	85.67
297.52	-0.34
297.735	-4.44
297.949	30.38
298.164	65.19
298.378	-14.68
298.593	-10.58
298.807	-16.73
299.022	11.95
299.236	114.34
299.451	-24.92
299.665	95.91
299.88	-20.82
300.094	79.53
300.309	79.53
300.523	9.9
300.737	59.05
300.952	-90.45
301.166	77.48
301.381	3.75
301.595	-33.11
301.809	46.76
302.024	-12.63
302.238	-35.16
302.452	40.62
302.667	36.52
302.881	42.67
303.095	20.14
303.309	-2.39
303.524	-55.64
303.738	44.71
303.952	-16.73
304.166	40.62
304.381	-37.2
304.595	-35.16
304.809	57
305.023	16.04
305.237	-14.68
305.452	40.62
305.666	118.44
305.88	16.04
306.094	5.8
306.308	63.15
306.522	5.8
306.736	-14.68
306.95	57
307.164	79.53
307.379	40.62
307.593	106.15
307.807	16.04
308.021	5.8
308.235	11.95
308.449	-18.77
308.663	-22.87
308.877	69.29
309.091	36.52
309.305	9.9
309.519	-6.49
309.733	26.28
309.947	-0.34
310.161	-2.39
310.374	20.14
310.588	85.67
310.802	-6.49
311.016	-0.34
311.23	7.85
311.444	36.52
311.658	38.57
311.872	75.43
312.085	-2.39
312.299	79.53
312.513	11.95
312.727	44.71
312.941	-43.35
313.154	-18.77
313.368	77.48
313.582	81.58
313.796	13.99
314.009	20.14
314.223	69.29
314.437	-53.59
314.651	38.57
314.864	-8.53
315.078	54.95
315.292	-47.44
315.505	34.47
315.719	61.1
315.933	11.95
316.146	-82.26
316.36	46.76
316.573	71.34
316.787	16.04
317.001	-0.34
317.214	9.9
317.428	44.71
317.641	-41.3
317.855	40.62
318.068	-14.68
318.282	-14.68
318.495	38.57
318.709	46.76
318.922	13.99
319.136	81.58
319.349	11.95
319.563	-20.82
319.776	38.57
319.99	50.86
320.203	44.71
320.417	-2.39
320.63	65.19
320.843	44.71
321.057	24.23
321.27	22.19
321.483	-18.77
321.697	34.47
321.91	48.81
322.124	-29.01
322.337	-24.92
322.55	-18.77
322.763	-8.53
322.977	28.33
323.19	13.99
323.403	28.33
323.617	-4.44
323.83	-0.34
324.043	16.04
324.256	30.38
324.469	16.04
324.683	-35.16
324.896	30.38
325.109	-6.49
325.322	-41.3
325.535	102.06
325.748	32.43
325.962	32.43
326.175	93.87
326.388	77.48
326.601	85.67
326.814	3.75
327.027	-22.87
327.24	63.15
327.453	-39.25
327.666	3.75
327.879	73.39
328.092	13.99
328.305	-22.87
328.518	16.04
328.731	7.85
328.944	28.33
329.157	20.14
329.37	20.14
329.583	-20.82
329.796	126.63
330.009	112.3
330.222	46.76
330.435	54.95
330.648	-20.82
330.861	40.62
331.073	61.1
331.286	11.95
331.499	75.43
331.712	48.81
331.925	24.23
332.138	32.43
332.35	34.47
332.563	32.43
332.776	32.43
332.989	36.52
333.202	36.52
333.414	-12.63
333.627	73.39
333.84	11.95
334.053	30.38
334.265	71.34
334.478	13.99
334.691	13.99
334.903	40.62
335.116	85.67
335.329	48.81
335.541	3.75
335.754	3.75
335.966	11.95
336.179	26.28
336.392	-29.01
336.604	-41.3
336.817	30.38
337.029	24.23
337.242	59.05
337.454	40.62
337.667	7.85
337.88	59.05
338.092	85.67
338.305	40.62
338.517	32.43
338.729	-0.34
338.942	106.15
339.154	9.9
339.367	32.43
339.579	26.28
339.792	9.9
340.004	63.15
340.217	-0.34
340.429	30.38
340.641	-20.82
340.854	34.47
341.066	-8.53
341.278	13.99
341.491	1.71
341.703	34.47
341.915	24.23
342.128	42.67
342.34	16.04
342.552	-14.68
342.764	-24.92
342.977	52.91
343.189	-20.82
343.401	32.43
343.613	-22.87
343.826	61.1
344.038	-47.44
344.25	-10.58
344.462	18.09
344.674	30.38
344.886	42.67
345.099	48.81
345.311	85.67
345.523	44.71
345.735	-4.44
345.947	16.04
346.159	16.04
346.371	59.05
346.583	52.91
346.795	67.24
347.007	-12.63
347.219	97.96
347.431	-12.63
347.643	32.43
347.855	-0.34
348.067	89.77
348.279	30.38
348.491	-2.39
348.703	5.8
348.915	-12.63
349.127	13.99
349.339	-2.39
349.551	-16.73
349.763	83.63
349.975	30.38
350.187	79.53
350.399	65.19
350.61	71.34
350.822	85.67
351.034	42.67
351.246	22.19
351.458	-4.44
351.669	26.28
351.881	3.75
352.093	11.95
352.305	-2.39
352.517	-26.96
352.728	118.44
352.94	22.19
353.152	116.39
353.363	59.05
353.575	97.96
353.787	-51.54
353.999	22.19
354.21	61.1
354.422	24.23
354.633	79.53
354.845	-45.4
355.057	-10.58
355.268	3.75
355.48	54.95
355.692	7.85
355.903	44.71
356.115	5.8
356.326	-8.53
356.538	89.77
356.749	16.04
356.961	-0.34
357.172	38.57
357.384	40.62
357.595	52.91
357.807	24.23
358.018	-41.3
358.23	42.67
358.441	179.88
358.653	30.38
358.864	18.09
359.075	28.33
359.287	100.01
359.498	30.38
359.709	48.81
359.921	3.75
360.132	57
360.344	89.77
360.555	34.47
360.766	-14.68
360.977	32.43
361.189	-24.92
361.4	32.43
361.611	40.62
361.823	-49.49
362.034	11.95
362.245	-51.54
362.456	52.91
362.667	48.81
362.879	40.62
363.09	32.43
363.301	79.53
363.512	81.58
363.723	9.9
363.935	34.47
364.146	126.63
364.357	65.19
364.568	48.81
364.779	-57.68
364.99	-0.34
365.201	54.95
365.412	36.52
365.623	79.53
365.834	65.19
366.045	52.91
366.256	85.67
366.467	-31.06
366.678	36.52
366.889	5.8
367.1	20.14
367.311	134.82
367.522	-39.25
367.733	38.57
367.944	97.96
368.155	50.86
368.366	63.15
368.577	112.3
368.788	69.29
368.999	24.23
369.209	44.71
369.42	106.15
369.631	63.15
369.842	40.62
370.053	44.71
370.264	61.1
370.474	24.23
370.685	48.81
370.896	22.19
371.107	16.04
371.317	81.58
371.528	-0.34
371.739	36.52
371.95	69.29
372.16	83.63
372.371	24.23
372.582	46.76
372.792	-4.44
373.003	114.34
373.214	32.43
373.424	30.38
373.635	32.43
373.846	73.39
374.056	48.81
374.267	100.01
374.477	112.3
374.688	-45.4
374.898	18.09
375.109	75.43
375.319	42.67
375.53	40.62
375.74	63.15
375.951	11.95
376.161	11.95
376.372	128.68
376.582	36.52
376.793	36.52
377.003	-37.2
377.214	48.81
377.424	30.38
377.635	59.05
377.845	20.14
378.055	104.11
378.266	24.23
378.476	34.47
378.686	30.38
378.897	32.43
379.107	81.58
379.317	50.86
379.528	13.99
379.738	48.81
379.948	40.62
380.158	116.39
380.369	-45.4
380.579	54.95
380.789	32.43
380.999	16.04
381.21	22.19
381.42	128.68
381.63	75.43
381.84	75.43
382.05	69.29
382.261	85.67
382.471	67.24
382.681	24.23
382.891	57
383.101	73.39
383.311	57
383.521	71.34
383.731	73.39
383.941	93.87
384.151	-0.34
384.361	38.57
384.571	28.33
384.781	26.28
384.991	54.95
385.201	46.76
385.411	40.62
385.621	75.43
385.831	46.76
386.041	34.47
386.251	122.54
386.461	65.19
386.671	26.28
386.881	73.39
387.091	93.87
387.301	46.76
387.511	57
387.72	-8.53
387.93	102.06
388.14	46.76
388.35	130.73
388.56	112.3
388.769	106.15
388.979	11.95
389.189	20.14
389.399	-10.58
389.609	38.57
389.818	71.34
390.028	24.23
390.238	26.28
390.447	83.63
390.657	40.62
390.867	79.53
391.076	40.62
391.286	65.19
391.496	48.81
391.705	30.38
391.915	159.4
392.125	77.48
392.334	73.39
392.544	106.15
392.753	97.96
392.963	95.91
393.172	130.73
393.382	102.06
393.591	140.97
393.801	73.39
394.01	34.47
394.22	38.57
394.429	30.38
394.639	11.95
394.848	73.39
395.058	61.1
395.267	-20.82
395.477	20.14
395.686	30.38
395.895	132.78
396.105	100.01
396.314	138.92
396.524	50.86
396.733	61.1
396.942	114.34
397.152	102.06
397.361	48.81
397.57	73.39
397.78	69.29
397.989	151.21
398.198	75.43
398.407	155.3
398.617	120.49
398.826	120.49
399.035	42.67
399.244	102.06
399.453	73.39
399.663	100.01
399.872	134.82
400.081	54.95
400.29	89.77
400.499	44.71
400.708	143.02
400.917	79.53
401.127	155.3
401.336	91.82
401.545	179.88
401.754	116.39
401.963	143.02
402.172	134.82
402.381	81.58
402.59	102.06
402.799	28.33
403.008	104.11
403.217	149.16
403.426	200.36
403.635	83.63
403.844	106.15
404.053	124.58
404.262	28.33
404.471	206.5
404.68	130.73
404.888	114.34
405.097	89.77
405.306	167.59
405.515	206.5
405.724	122.54
405.933	161.45
406.142	124.58
406.35	138.92
406.559	159.4
406.768	226.98
406.977	167.59
407.185	229.03
407.394	255.65
407.603	204.46
407.812	212.65
408.02	194.22
408.229	235.18
408.438	212.65
408.646	249.51
408.855	255.65
409.064	251.56
409.272	278.18
409.481	296.61
409.69	278.18
409.898	267.94
410.107	290.47
410.315	358.05
410.524	290.47
410.733	409.25
410.941	390.82
411.15	370.34
411.358	335.53
411.567	456.36
411.775	394.92
411.984	360.1
412.192	446.12
412.401	464.55
412.609	499.36
412.818	489.12
413.026	538.27
413.234	511.65
413.443	538.27
413.651	530.08
413.86	589.47
414.068	597.67
414.276	622.24
414.485	679.58
414.693	683.68
414.901	675.49
415.11	685.73
415.318	745.12
415.526	790.17
415.734	827.04
415.943	833.18
416.151	837.28
416.359	892.57
416.567	933.53
416.776	980.64
416.984	1005.21
417.192	1007.26
417.4	1019.55
417.608	1015.45
417.817	1107.61
418.025	1181.34
418.233	1248.92
418.441	1187.48
418.649	1253.02
418.857	1347.22
419.065	1334.93
419.273	1373.85
419.481	1351.32
419.689	1425.04
419.897	1564.31
420.105	1621.65
420.313	1603.22
420.521	1709.71
420.729	1740.43
420.937	1889.93
421.145	1838.73
421.353	2025.1
421.561	1951.37
421.769	2104.97
421.977	2121.35
422.185	2170.51
422.393	2254.47
422.601	2440.84
422.809	2403.97
423.017	2518.66
423.224	2551.43
423.432	2674.31
423.64	2623.11
423.848	2883.2
424.056	2834.05
424.263	3022.46
424.471	3133.05
424.679	3067.52
424.887	3294.84
425.094	3358.33
425.302	3501.69
425.51	3423.86
425.718	3579.51
425.925	3751.54
426.133	3720.82
426.341	3962.48
426.548	4181.61
426.756	4054.64
426.964	4243.05
427.171	4544.1
427.379	4439.65
427.586	4626.02
427.794	4767.33
428.001	4929.12
428.209	5115.48
428.417	5043.81
428.624	5531.22
428.832	5621.33
429.039	5523.03
429.247	5484.12
429.454	5987.92
429.662	6286.92
429.869	6045.26
430.076	6368.84
430.284	6284.87
430.491	6491.72
430.699	6907.46
430.906	6835.78
431.114	6999.62
431.321	7069.25
431.528	7265.85
431.736	7667.25
431.943	8148.53
432.15	7884.34
432.358	8037.94
432.565	8343.08
432.772	8472.11
432.979	8863.27
433.187	8877.6
433.394	9014.82
433.601	9557.53
433.808	9664.02
434.016	9530.91
434.223	10073.62
434.43	10761.73
434.637	10470.92
434.844	10964.48
435.052	11245.06
435.259	11038.21
435.466	11025.92
435.673	11105.79
435.88	11931.12
436.087	12563.95
436.294	12602.86
436.501	12201.46
436.708	12328.43
436.915	12977.64
437.122	13524.44
437.329	13442.53
437.537	13686.23
437.743	14040.53
437.95	13721.05
438.157	14536.14
438.364	15211.97
438.571	15234.5
438.778	15324.61
438.985	16764.33
439.192	15869.37
439.399	16543.15
439.606	15967.67
439.813	17157.54
440.02	17943.96
440.227	17673.63
440.433	17276.32
440.64	18425.23
440.847	18257.3
441.054	18619.79
441.261	19750.27
441.467	19506.56
441.674	19678.59
441.881	20288.89
442.088	20350.32
442.294	20223.35
442.501	20753.77
442.708	21089.64
442.914	21831.01
443.121	22857.04
443.328	21964.12
443.534	23733.57
443.741	23440.71
443.948	23061.83
444.154	24538.42
444.361	24257.85
444.568	24753.46
444.774	24337.72
444.981	24823.09
445.187	25353.51
445.394	26600.72
445.6	26217.75
445.807	28572.92
446.013	27954.43
446.22	27874.56
446.426	29080.81
446.633	29738.21
446.839	30096.61
447.046	29027.57
447.252	30428.38
447.459	30799.06
447.665	30196.96
447.871	31556.81
448.078	33012.91
448.284	31507.66
448.491	32265.41
448.697	34026.66
448.903	34428.06
449.11	34452.64
449.316	33797.29
449.522	34176.16
449.728	35247.25
449.935	35300.5
450.141	35331.22
450.347	36385.92
450.553	35185.81
450.76	35347.6
450.966	36414.59
451.172	36146.31
451.378	36881.53
451.584	36762.75
451.791	36979.83
451.997	37061.75
452.203	37575.79
452.409	37454.96
452.615	36959.35
452.821	35929.22
453.027	35658.89
453.233	37395.57
453.44	35873.93
453.646	36375.68
453.852	36367.49
454.058	36707.45
454.264	35677.32
454.47	36543.61
454.676	35812.49
454.882	36824.18
455.088	33957.03
455.294	34256.03
455.5	34503.84
455.705	34964.63
455.911	33780.9
456.117	33014.96
456.323	32455.87
456.529	30584.02
456.735	32083.14
456.941	30993.62
457.147	30702.81
457.352	29803.75
457.558	29273.32
457.764	29623.53
457.97	28683.51
458.176	28194.04
458.381	28024.06
458.587	26785.04
458.793	26737.94
458.999	25500.97
459.204	27129.1
459.41	26588.44
459.616	24933.68
459.821	24737.07
460.027	24919.34
460.233	23842.11
460.438	22912.33
460.644	23192.9
460.85	22097.24
461.055	22093.15
461.261	21943.64
461.466	20319.6
461.672	19654.01
461.878	20872.56
462.083	19768.7
462.289	19092.87
462.494	19060.1
462.7	18386.32
462.905	17409.44
463.111	18292.12
463.316	18126.23
463.522	18111.89
463.727	18007.45
463.932	17964.44
464.138	17784.22
464.343	17968.54
464.549	17399.2
464.754	18081.17
464.959	17778.08
465.165	17636.77
465.37	16946.6
465.575	16604.59
465.781	17038.76
465.986	17474.98
466.191	16537.01
466.397	16373.17
466.602	15474.11
