Data from USB4F104151__97__10-24-39-608.txt Node

Date: Wed Mar 12 10:24:39 EDT 2025
User: louis
Spectrometer: USB4F10415
Trigger mode: 4
Integration Time (sec): 3.000000E-2
Scans to average: 1
Electric dark correction enabled: true
Nonlinearity correction enabled: false
Boxcar width: 0
XAxis mode: Wavelengths
Number of Pixels in Spectrum: 3648
>>>>>Begin Spectral Data<<<<<
178.204	-95.06
178.424	-95.06
178.644	-95.06
178.864	-123.73
179.084	-84.82
179.304	36.01
179.524	-76.63
179.744	9.39
179.964	85.16
180.184	-11.09
180.404	-19.29
180.624	-39.76
180.844	93.35
181.064	-23.38
181.283	-31.57
181.503	-19.29
181.723	-2.9
181.943	-23.38
182.163	60.59
182.383	-121.68
182.602	1.19
182.822	40.11
183.042	-56.15
183.262	-37.72
183.482	-19.29
183.701	-37.72
183.921	50.35
184.141	23.72
184.361	9.39
184.58	29.87
184.8	-2.9
185.02	23.72
185.239	97.45
185.459	-13.14
185.679	87.21
185.898	-37.72
186.118	29.87
186.338	-2.9
186.557	-33.62
186.777	36.01
186.997	33.96
187.216	40.11
187.436	66.73
187.655	-13.14
187.875	-37.72
188.095	-9.05
188.314	72.87
188.534	66.73
188.753	-101.2
188.973	29.87
189.192	-9.05
189.412	5.29
189.631	-25.43
189.851	-37.72
190.07	42.15
190.29	-4.95
190.509	5.29
190.729	-0.85
190.948	-17.24
191.168	70.83
191.387	46.25
191.607	-72.53
191.826	42.15
192.045	40.11
192.265	-9.05
192.484	-29.52
192.704	-0.85
192.923	-58.2
193.142	76.97
193.362	-29.52
193.581	25.77
193.8	-27.48
194.02	58.54
194.239	-41.81
194.458	1.19
194.678	21.67
194.897	-7
195.116	-47.96
195.335	-52.05
195.555	-9.05
195.774	3.24
195.993	3.24
196.212	-43.86
196.432	15.53
196.651	-37.72
196.87	40.11
197.089	79.02
197.308	25.77
197.528	-54.1
197.747	27.82
197.966	9.39
198.185	66.73
198.404	7.34
198.623	-43.86
198.842	23.72
199.062	62.63
199.281	-23.38
199.5	11.43
199.719	21.67
199.938	60.59
200.157	42.15
200.376	17.58
200.595	-0.85
200.814	-47.96
201.033	-7
201.252	-29.52
201.471	9.39
201.69	87.21
201.909	-0.85
202.128	72.87
202.347	-0.85
202.566	-41.81
202.785	-9.05
203.004	-15.19
203.223	9.39
203.442	31.91
203.661	-17.24
203.879	13.48
204.098	64.68
204.317	-37.72
204.536	29.87
204.755	46.25
204.974	48.3
205.193	-64.34
205.411	23.72
205.63	40.11
205.849	-19.29
206.068	42.15
206.287	-33.62
206.505	99.5
206.724	3.24
206.943	-17.24
207.162	25.77
207.381	101.55
207.599	-54.1
207.818	-93.01
208.037	-21.33
208.255	3.24
208.474	-43.86
208.693	64.68
208.911	17.58
209.13	54.44
209.349	25.77
209.567	-27.48
209.786	-17.24
210.005	-4.95
210.223	29.87
210.442	21.67
210.661	-4.95
210.879	-31.57
211.098	-35.67
211.316	54.44
211.535	64.68
211.753	9.39
211.972	-9.05
212.191	-82.77
212.409	52.39
212.628	17.58
212.846	42.15
213.065	23.72
213.283	111.78
213.502	-0.85
213.72	44.2
213.938	33.96
214.157	15.53
214.375	42.15
214.594	-60.24
214.812	31.91
215.031	60.59
215.249	56.49
215.467	68.78
215.686	-52.05
215.904	36.01
216.122	36.01
216.341	-0.85
216.559	31.91
216.778	50.35
216.996	60.59
217.214	46.25
217.432	-33.62
217.651	-0.85
217.869	-9.05
218.087	70.83
218.306	-29.52
218.524	19.63
218.742	13.48
218.96	111.78
219.179	-0.85
219.397	42.15
219.615	3.24
219.833	23.72
220.051	-54.1
220.27	25.77
220.488	72.87
220.706	5.29
220.924	15.53
221.142	15.53
221.36	13.48
221.578	42.15
221.796	33.96
222.015	-29.52
222.233	31.91
222.451	-11.09
222.669	-27.48
222.887	23.72
223.105	-13.14
223.323	31.91
223.541	25.77
223.759	56.49
223.977	-17.24
224.195	93.35
224.413	9.39
224.631	-25.43
224.849	23.72
225.067	5.29
225.285	-13.14
225.503	40.11
225.721	-58.2
225.939	-56.15
226.157	-11.09
226.375	48.3
226.592	-50
226.81	-31.57
227.028	-2.9
227.246	52.39
227.464	52.39
227.682	27.82
227.9	-2.9
228.117	-19.29
228.335	72.87
228.553	-21.33
228.771	38.06
228.989	-7
229.206	72.87
229.424	40.11
229.642	-50
229.86	-7
230.077	36.01
230.295	11.43
230.513	52.39
230.731	74.92
230.948	36.01
231.166	87.21
231.384	-31.57
231.601	13.48
231.819	83.11
232.037	-23.38
232.254	-50
232.472	-52.05
232.689	21.67
232.907	40.11
233.125	5.29
233.342	15.53
233.56	7.34
233.777	-70.48
233.995	-0.85
234.213	52.39
234.43	21.67
234.648	60.59
234.865	23.72
235.083	-19.29
235.3	25.77
235.518	33.96
235.735	76.97
235.953	25.77
236.17	15.53
236.388	93.35
236.605	15.53
236.822	48.3
237.04	13.48
237.257	-39.76
237.475	23.72
237.692	48.3
237.909	11.43
238.127	1.19
238.344	46.25
238.562	76.97
238.779	-2.9
238.996	13.48
239.214	5.29
239.431	-17.24
239.648	1.19
239.865	-29.52
240.083	31.91
240.3	79.02
240.517	3.24
240.735	27.82
240.952	76.97
241.169	-23.38
241.386	-17.24
241.603	-19.29
241.821	3.24
242.038	48.3
242.255	9.39
242.472	38.06
242.689	7.34
242.907	-29.52
243.124	13.48
243.341	-29.52
243.558	42.15
243.775	-70.48
243.992	17.58
244.209	11.43
244.426	83.11
244.643	-25.43
244.86	-19.29
245.078	-13.14
245.295	-25.43
245.512	-7
245.729	-4.95
245.946	44.2
246.163	-0.85
246.38	1.19
246.597	58.54
246.814	-35.67
247.031	-21.33
247.248	31.91
247.464	11.43
247.681	68.78
247.898	1.19
248.115	13.48
248.332	-21.33
248.549	44.2
248.766	17.58
248.983	109.74
249.2	-11.09
249.417	-4.95
249.633	-27.48
249.85	-33.62
250.067	89.26
250.284	3.24
250.501	15.53
250.717	42.15
250.934	31.91
251.151	89.26
251.368	-25.43
251.585	19.63
251.801	-47.96
252.018	-74.58
252.235	23.72
252.451	-56.15
252.668	-21.33
252.885	38.06
253.102	-4.95
253.318	-62.29
253.535	-11.09
253.752	-13.14
253.968	38.06
254.185	44.2
254.401	-4.95
254.618	29.87
254.835	-62.29
255.051	29.87
255.268	1.19
255.484	-9.05
255.701	15.53
255.917	-2.9
256.134	-0.85
256.351	42.15
256.567	-21.33
256.784	-25.43
257	-50
257.217	62.63
257.433	-25.43
257.65	50.35
257.866	23.72
258.082	-29.52
258.299	-7
258.515	17.58
258.732	23.72
258.948	-13.14
259.165	1.19
259.381	-2.9
259.597	-7
259.814	60.59
260.03	31.91
260.246	76.97
260.463	-35.67
260.679	3.24
260.895	9.39
261.112	-41.81
261.328	7.34
261.544	-19.29
261.761	89.26
261.977	-29.52
262.193	-31.57
262.409	29.87
262.626	29.87
262.842	-13.14
263.058	-27.48
263.274	-9.05
263.49	17.58
263.707	-31.57
263.923	29.87
264.139	7.34
264.355	64.68
264.571	-4.95
264.787	31.91
265.004	83.11
265.22	-13.14
265.436	23.72
265.652	-19.29
265.868	29.87
266.084	-21.33
266.3	-33.62
266.516	-9.05
266.732	27.82
266.948	29.87
267.164	19.63
267.38	85.16
267.596	29.87
267.812	40.11
268.028	48.3
268.244	-31.57
268.46	70.83
268.676	5.29
268.892	95.4
269.108	-25.43
269.324	40.11
269.54	7.34
269.756	95.4
269.972	-33.62
270.188	-47.96
270.403	48.3
270.619	-9.05
270.835	93.35
271.051	-33.62
271.267	40.11
271.483	27.82
271.698	38.06
271.914	76.97
272.13	-13.14
272.346	-21.33
272.562	81.07
272.777	105.64
272.993	19.63
273.209	-11.09
273.425	-27.48
273.64	-19.29
273.856	33.96
274.072	48.3
274.287	52.39
274.503	87.21
274.719	-56.15
274.934	7.34
275.15	23.72
275.366	29.87
275.581	19.63
275.797	-17.24
276.012	31.91
276.228	105.64
276.444	42.15
276.659	36.01
276.875	52.39
277.09	7.34
277.306	-52.05
277.521	81.07
277.737	21.67
277.952	-39.76
278.168	83.11
278.383	15.53
278.599	15.53
278.814	-7
279.03	50.35
279.245	87.21
279.461	-58.2
279.676	83.11
279.892	74.92
280.107	-39.76
280.322	-25.43
280.538	72.87
280.753	13.48
280.969	46.25
281.184	58.54
281.399	31.91
281.615	-45.91
281.83	-23.38
282.045	-58.2
282.26	17.58
282.476	23.72
282.691	17.58
282.906	-50
283.122	-0.85
283.337	33.96
283.552	87.21
283.767	-2.9
283.983	38.06
284.198	27.82
284.413	89.26
284.628	-0.85
284.843	27.82
285.058	21.67
285.274	38.06
285.489	-2.9
285.704	-25.43
285.919	-4.95
286.134	-13.14
286.349	40.11
286.564	-17.24
286.779	-23.38
286.995	85.16
287.21	7.34
287.425	15.53
287.64	-41.81
287.855	54.44
288.07	-31.57
288.285	81.07
288.5	-25.43
288.715	52.39
288.93	-9.05
289.145	3.24
289.36	48.3
289.575	19.63
289.79	54.44
290.004	13.48
290.219	11.43
290.434	27.82
290.649	21.67
290.864	19.63
291.079	40.11
291.294	60.59
291.509	64.68
291.724	21.67
291.938	54.44
292.153	-9.05
292.368	-39.76
292.583	68.78
292.798	81.07
293.012	5.29
293.227	13.48
293.442	38.06
293.657	17.58
293.871	9.39
294.086	60.59
294.301	60.59
294.516	76.97
294.73	1.19
294.945	-95.06
295.16	-33.62
295.374	52.39
295.589	99.5
295.804	3.24
296.018	38.06
296.233	58.54
296.447	-13.14
296.662	15.53
296.877	36.01
297.091	89.26
297.306	95.4
297.52	19.63
297.735	-62.29
297.949	-60.24
298.164	15.53
298.378	27.82
298.593	56.49
298.807	38.06
299.022	7.34
299.236	56.49
299.451	-90.96
299.665	44.2
299.88	70.83
300.094	31.91
300.309	124.07
300.523	-25.43
300.737	21.67
300.952	-17.24
301.166	79.02
301.381	27.82
301.595	-33.62
301.809	76.97
302.024	-29.52
302.238	36.01
302.452	60.59
302.667	-37.72
302.881	72.87
303.095	31.91
303.309	44.2
303.524	52.39
303.738	97.45
303.952	-9.05
304.166	-33.62
304.381	-50
304.595	46.25
304.809	54.44
305.023	11.43
305.237	42.15
305.452	44.2
305.666	64.68
305.88	-0.85
306.094	111.78
306.308	19.63
306.522	-13.14
306.736	60.59
306.95	-35.67
307.164	19.63
307.379	-52.05
307.593	103.59
307.807	11.43
308.021	56.49
308.235	-0.85
308.449	17.58
308.663	19.63
308.877	15.53
309.091	7.34
309.305	-2.9
309.519	-15.19
309.733	-9.05
309.947	-41.81
310.161	3.24
310.374	38.06
310.588	79.02
310.802	-19.29
311.016	27.82
311.23	40.11
311.444	-0.85
311.658	46.25
311.872	3.24
312.085	85.16
312.299	7.34
312.513	48.3
312.727	29.87
312.941	7.34
313.154	68.78
313.368	27.82
313.582	5.29
313.796	-68.44
314.009	25.77
314.223	3.24
314.437	48.3
314.651	36.01
314.864	19.63
315.078	31.91
315.292	62.63
315.505	60.59
315.719	-35.67
315.933	64.68
316.146	25.77
316.36	-37.72
316.573	70.83
316.787	-13.14
317.001	-21.33
317.214	-31.57
317.428	48.3
317.641	-56.15
317.855	-21.33
318.068	-27.48
318.282	-21.33
318.495	62.63
318.709	56.49
318.922	111.78
319.136	64.68
319.349	13.48
319.563	-21.33
319.776	11.43
319.99	-21.33
320.203	5.29
320.417	23.72
320.63	23.72
320.843	46.25
321.057	101.55
321.27	-15.19
321.483	-39.76
321.697	50.35
321.91	79.02
322.124	36.01
322.337	13.48
322.55	-13.14
322.763	-2.9
322.977	-64.34
323.19	-64.34
323.403	-7
323.617	38.06
323.83	21.67
324.043	62.63
324.256	40.11
324.469	-25.43
324.683	56.49
324.896	21.67
325.109	-25.43
325.322	11.43
325.535	-11.09
325.748	-54.1
325.962	44.2
326.175	70.83
326.388	23.72
326.601	11.43
326.814	13.48
327.027	15.53
327.24	58.54
327.453	-0.85
327.666	-19.29
327.879	7.34
328.092	79.02
328.305	-2.9
328.518	5.29
328.731	9.39
328.944	-0.85
329.157	66.73
329.37	-29.52
329.583	-21.33
329.796	40.11
330.009	-52.05
330.222	72.87
330.435	54.44
330.648	27.82
330.861	56.49
331.073	42.15
331.286	136.36
331.499	1.19
331.712	-33.62
331.925	-4.95
332.138	70.83
332.35	-37.72
332.563	-0.85
332.776	31.91
332.989	13.48
333.202	-19.29
333.414	19.63
333.627	-0.85
333.84	-2.9
334.053	-0.85
334.265	31.91
334.478	38.06
334.691	64.68
334.903	38.06
335.116	21.67
335.329	44.2
335.541	-17.24
335.754	64.68
335.966	-52.05
336.179	95.4
336.392	21.67
336.604	68.78
336.817	56.49
337.029	38.06
337.242	-2.9
337.454	97.45
337.667	-70.48
337.88	87.21
338.092	15.53
338.305	-2.9
338.517	-52.05
338.729	3.24
338.942	36.01
339.154	72.87
339.367	31.91
339.579	62.63
339.792	15.53
340.004	60.59
340.217	33.96
340.429	-47.96
340.641	15.53
340.854	-4.95
341.066	-2.9
341.278	81.07
341.491	60.59
341.703	27.82
341.915	-0.85
342.128	89.26
342.34	-17.24
342.552	76.97
342.764	15.53
342.977	17.58
343.189	9.39
343.401	13.48
343.613	7.34
343.826	13.48
344.038	-4.95
344.25	-76.63
344.462	17.58
344.674	68.78
344.886	3.24
345.099	-11.09
345.311	-21.33
345.523	66.73
345.735	52.39
345.947	-4.95
346.159	25.77
346.371	48.3
346.583	31.91
346.795	109.74
347.007	56.49
347.219	89.26
347.431	42.15
347.643	72.87
347.855	-64.34
348.067	87.21
348.279	36.01
348.491	91.31
348.703	15.53
348.915	-11.09
349.127	60.59
349.339	46.25
349.551	-21.33
349.763	56.49
349.975	60.59
350.187	33.96
350.399	19.63
350.61	103.59
350.822	15.53
351.034	-15.19
351.246	58.54
351.458	33.96
351.669	-9.05
351.881	3.24
352.093	54.44
352.305	66.73
352.517	11.43
352.728	11.43
352.94	126.12
353.152	-11.09
353.363	21.67
353.575	31.91
353.787	113.83
353.999	-0.85
354.21	64.68
354.422	-2.9
354.633	17.58
354.845	25.77
355.057	15.53
355.268	109.74
355.48	31.91
355.692	40.11
355.903	13.48
356.115	-4.95
356.326	-17.24
356.538	7.34
356.749	15.53
356.961	13.48
357.172	42.15
357.384	23.72
357.595	109.74
357.807	23.72
358.018	-80.72
358.23	-9.05
358.441	70.83
358.653	46.25
358.864	9.39
359.075	19.63
359.287	1.19
359.498	-35.67
359.709	97.45
359.921	33.96
360.132	-2.9
360.344	7.34
360.555	36.01
360.766	-7
360.977	5.29
361.189	83.11
361.4	5.29
361.611	52.39
361.823	15.53
362.034	15.53
362.245	66.73
362.456	72.87
362.667	46.25
362.879	11.43
363.09	64.68
363.301	54.44
363.512	64.68
363.723	44.2
363.935	3.24
364.146	42.15
364.357	-27.48
364.568	-17.24
364.779	72.87
364.99	54.44
365.201	-66.39
365.412	48.3
365.623	-19.29
365.834	-31.57
366.045	-9.05
366.256	-39.76
366.467	52.39
366.678	62.63
366.889	5.29
367.1	70.83
367.311	-17.24
367.522	56.49
367.733	3.24
367.944	-19.29
368.155	9.39
368.366	46.25
368.577	15.53
368.788	97.45
368.999	89.26
369.209	66.73
369.42	103.59
369.631	81.07
369.842	97.45
370.053	29.87
370.264	111.78
370.474	21.67
370.685	-21.33
370.896	-31.57
371.107	89.26
371.317	-17.24
371.528	7.34
371.739	27.82
371.95	62.63
372.16	-13.14
372.371	11.43
372.582	52.39
372.792	48.3
373.003	58.54
373.214	29.87
373.424	76.97
373.635	17.58
373.846	113.83
374.056	19.63
374.267	7.34
374.477	-76.63
374.688	66.73
374.898	76.97
375.109	19.63
375.319	46.25
375.53	72.87
375.74	60.59
375.951	85.16
376.161	64.68
376.372	79.02
376.582	11.43
376.793	9.39
377.003	-21.33
377.214	-11.09
377.424	56.49
377.635	-4.95
377.845	19.63
378.055	44.2
378.266	52.39
378.476	21.67
378.686	95.4
378.897	76.97
379.107	31.91
379.317	52.39
379.528	21.67
379.738	-9.05
379.948	21.67
380.158	25.77
380.369	13.48
380.579	81.07
380.789	117.93
380.999	38.06
381.21	95.4
381.42	105.64
381.63	68.78
381.84	97.45
382.05	-33.62
382.261	27.82
382.471	68.78
382.681	23.72
382.891	46.25
383.101	-4.95
383.311	93.35
383.521	-56.15
383.731	64.68
383.941	31.91
384.151	23.72
384.361	-21.33
384.571	72.87
384.781	44.2
384.991	50.35
385.201	15.53
385.411	60.59
385.621	19.63
385.831	38.06
386.041	64.68
386.251	44.2
386.461	56.49
386.671	3.24
386.881	62.63
387.091	60.59
387.301	13.48
387.511	29.87
387.72	81.07
387.93	31.91
388.14	-2.9
388.35	-60.24
388.56	56.49
388.769	27.82
388.979	-0.85
389.189	48.3
389.399	79.02
389.609	72.87
389.818	76.97
390.028	27.82
390.238	56.49
390.447	-0.85
390.657	7.34
390.867	42.15
391.076	115.88
391.286	15.53
391.496	44.2
391.705	40.11
391.915	23.72
392.125	46.25
392.334	56.49
392.544	136.36
392.753	-2.9
392.963	-17.24
393.172	36.01
393.382	38.06
393.591	146.6
393.801	52.39
394.01	58.54
394.22	52.39
394.429	27.82
394.639	31.91
394.848	60.59
395.058	70.83
395.267	52.39
395.477	95.4
395.686	66.73
395.895	128.17
396.105	224.42
396.314	40.11
396.524	87.21
396.733	66.73
396.942	87.21
397.152	115.88
397.361	158.89
397.57	58.54
397.78	99.5
397.989	81.07
398.198	95.4
398.407	72.87
398.617	89.26
398.826	91.31
399.035	175.27
399.244	117.93
399.453	109.74
399.663	79.02
399.872	54.44
400.081	54.44
400.29	109.74
400.499	64.68
400.708	72.87
400.917	54.44
401.127	111.78
401.336	95.4
401.545	183.46
401.754	54.44
401.963	97.45
402.172	66.73
402.381	148.65
402.59	162.98
402.799	72.87
403.008	95.4
403.217	122.02
403.426	76.97
403.635	87.21
403.844	87.21
404.053	142.5
404.262	81.07
404.471	138.41
404.68	103.59
404.888	117.93
405.097	156.84
405.306	144.55
405.515	111.78
405.724	119.98
405.933	152.74
406.142	156.84
406.35	132.26
406.559	160.94
406.768	169.13
406.977	244.9
407.185	185.51
407.394	238.76
407.603	191.66
407.812	218.28
408.02	259.24
408.229	181.42
408.438	199.85
408.646	201.9
408.855	287.91
409.064	257.19
409.272	261.29
409.481	246.95
409.69	298.15
409.898	224.42
410.107	341.16
410.315	322.73
410.524	310.44
410.733	345.25
410.941	289.96
411.15	359.59
411.358	392.36
411.567	476.32
411.775	418.98
411.984	433.32
412.192	494.76
412.401	421.03
412.609	404.64
412.818	468.13
413.026	529.57
413.234	482.47
413.443	595.11
413.651	531.62
413.86	531.62
414.068	674.98
414.276	625.83
414.485	699.55
414.693	621.73
414.901	722.08
415.11	685.22
415.318	658.59
415.526	734.37
415.734	777.37
415.943	877.73
416.151	924.83
416.359	912.54
416.567	935.07
416.776	916.64
416.984	965.79
417.192	1025.18
417.4	1051.8
417.608	941.21
417.817	1000.6
418.025	1064.09
418.233	1248.41
418.441	1193.11
418.649	1156.25
418.857	1215.64
419.065	1391.77
419.273	1359
419.481	1359
419.689	1359
419.897	1571.99
420.105	1588.37
420.313	1617.04
420.521	1678.48
420.729	1629.33
420.937	1647.76
421.145	1844.37
421.353	1832.08
421.561	1922.19
421.769	1887.37
421.977	1997.96
422.185	2081.93
422.393	2196.62
422.601	2292.87
422.809	2356.36
423.017	2329.74
423.224	2440.33
423.432	2495.62
423.64	2561.16
423.848	2747.52
424.056	2782.34
424.263	2915.45
424.471	2784.38
424.679	2993.28
424.887	3050.62
425.094	3087.48
425.302	3126.39
425.51	3310.71
425.718	3427.45
425.925	3355.77
426.133	3597.43
426.341	3849.33
426.548	4037.74
426.756	3898.48
426.964	3816.56
427.171	4289.64
427.379	4531.3
427.586	4334.7
427.794	4574.31
428.001	4779.11
428.209	5090.4
428.417	5225.56
428.624	5348.44
428.832	5162.08
429.039	5344.35
429.247	5317.72
429.454	5708.88
429.662	6134.86
429.869	5764.18
430.076	6067.28
430.284	5932.11
430.491	6163.53
430.699	6542.41
430.906	6573.13
431.114	6595.65
431.321	6999.1
431.528	6995.01
431.736	7404.6
431.943	7697.46
432.15	7529.53
432.358	7619.64
432.565	8031.28
432.772	8100.91
432.979	8690.73
433.187	8617
433.394	8502.31
433.601	9440.28
433.808	9153.57
434.016	9262.11
434.223	9649.18
434.43	10150.93
434.637	10085.39
434.844	10468.36
435.052	10908.68
435.259	10806.28
435.466	10814.47
435.673	10714.12
435.88	11559.93
436.087	12002.29
436.294	12002.29
436.501	11899.89
436.708	11774.97
436.915	12315.63
437.122	13108.19
437.329	12925.93
437.537	13157.35
437.743	13603.8
437.95	13511.64
438.157	13980.63
438.364	14746.57
438.571	14336.98
438.778	14613.45
438.985	16073.65
439.192	15274.95
439.399	15893.43
439.606	15455.17
439.813	16161.72
440.02	17490.85
440.227	17030.05
440.433	17109.93
440.64	17429.41
440.847	17456.03
441.054	17974.17
441.261	18819.98
441.467	18811.79
441.674	19114.89
441.881	19622.78
442.088	19798.91
442.294	19323.78
442.501	20059
442.708	20523.89
442.914	21218.15
443.121	22070.11
443.328	21586.79
443.534	23126.86
443.741	22068.06
443.948	21857.12
444.154	23671.62
444.361	23298.89
444.568	23835.45
444.774	23630.66
444.981	23769.92
445.187	24349.5
445.394	25535.27
445.6	25000.75
445.807	27525.89
446.013	26444.57
446.22	27048.72
446.426	28056.32
446.633	28214.01
446.839	29092.59
447.046	28082.94
447.252	29528.81
447.459	29246.19
447.665	29119.21
447.871	30704.34
448.078	31883.97
448.284	30210.78
448.491	31165.14
448.697	32492.22
448.903	33075.89
449.11	32961.2
449.316	32185.02
449.522	32758.45
449.728	33866.41
449.935	33508.01
450.141	33833.64
450.347	34669.21
450.553	33772.2
450.76	33946.28
450.966	34947.73
451.172	34781.85
451.378	35424.91
451.584	34630.3
451.791	35822.22
451.997	35492.49
452.203	35941
452.409	35562.12
452.615	35711.63
452.821	34491.04
453.027	33985.19
453.233	36088.45
453.44	34370.21
453.646	35328.66
453.852	35062.42
454.058	35066.52
454.264	33972.9
454.47	34474.65
454.676	34130.59
454.882	35306.13
455.088	32189.12
455.294	32678.58
455.5	33020.59
455.705	33301.17
455.911	31709.89
456.117	31367.88
456.323	30882.52
456.529	29256.43
456.735	30485.21
456.941	29682.41
457.147	29074.16
457.352	27943.68
457.558	27693.83
457.764	28246.78
457.97	27775.75
458.176	26946.32
458.381	26606.36
458.587	25510.69
458.793	25297.7
458.999	24064.83
459.204	25705.25
459.41	25203.5
459.616	23581.51
459.821	23632.71
460.027	23327.56
460.233	23012.17
460.438	21941.08
460.644	22145.88
460.85	21201.77
461.055	20665.2
461.261	20906.86
461.466	19116.93
461.672	18723.72
461.878	20216.69
462.083	18881.42
462.289	18459.54
462.494	18144.15
462.7	17382.31
462.905	16839.59
463.111	17316.77
463.316	17431.46
463.522	17243.04
463.727	17230.76
463.932	17316.77
464.138	17169.32
464.343	17009.58
464.549	16483.25
464.754	17214.37
464.959	16894.89
465.165	16784.3
465.37	16182.2
465.575	15907.77
465.781	16067.51
465.986	16587.69
466.191	15805.37
466.397	15631.29
466.602	14592.97
466.807	15254.47
467.012	15197.12
467.218	15338.43
