Data from USB4F104151__124__10-25-16-563.txt Node

Date: Wed Mar 12 10:25:16 EDT 2025
User: louis
Spectrometer: USB4F10415
Trigger mode: 4
Integration Time (sec): 3.000000E-2
Scans to average: 1
Electric dark correction enabled: true
Nonlinearity correction enabled: false
Boxcar width: 0
XAxis mode: Wavelengths
Number of Pixels in Spectrum: 3648
>>>>>Begin Spectral Data<<<<<
178.204	-36.35
178.424	-36.35
178.644	-36.35
178.864	-87.55
179.084	-62.98
179.304	2.56
179.524	-1.54
179.744	-38.4
179.964	39.42
180.184	25.09
180.404	29.18
180.624	-69.12
180.844	-44.54
181.064	-28.16
181.283	-1.54
181.503	35.33
181.723	51.71
181.943	27.14
182.163	47.62
182.383	23.04
182.602	51.71
182.822	92.67
183.042	6.66
183.262	51.71
183.482	0.51
183.701	29.18
183.921	-5.63
184.141	82.43
184.361	72.19
184.58	55.81
184.8	72.19
185.02	2.56
185.239	86.53
185.459	57.86
185.679	55.81
185.898	23.04
186.118	64
186.338	23.04
186.557	47.62
186.777	64
186.997	16.9
187.216	102.91
187.436	115.2
187.655	59.9
187.875	-38.4
188.095	-60.93
188.314	33.28
188.534	41.47
188.753	80.38
188.973	37.38
189.192	37.38
189.412	64
189.631	49.66
189.851	47.62
190.07	107.01
190.29	39.42
190.509	4.61
190.729	23.04
190.948	49.66
191.168	162.3
191.387	25.09
191.607	10.75
191.826	51.71
192.045	35.33
192.265	92.67
192.484	16.9
192.704	4.61
192.923	29.18
193.142	78.33
193.362	27.14
193.581	121.34
193.8	86.53
194.02	64
194.239	6.66
194.458	59.9
194.678	43.52
194.897	29.18
195.116	23.04
195.335	-11.78
195.555	113.15
195.774	64
195.993	25.09
196.212	100.86
196.432	-17.92
196.651	45.57
196.87	107.01
197.089	137.73
197.308	53.76
197.528	94.72
197.747	43.52
197.966	61.95
198.185	92.67
198.404	49.66
198.623	6.66
198.842	-46.59
199.062	80.38
199.281	104.96
199.5	6.66
199.719	23.04
199.938	80.38
200.157	-5.63
200.376	78.33
200.595	35.33
200.814	18.94
201.033	45.57
201.252	33.28
201.471	43.52
201.69	29.18
201.909	70.14
202.128	2.56
202.347	47.62
202.566	76.29
202.785	43.52
203.004	39.42
203.223	107.01
203.442	66.05
203.661	45.57
203.879	117.25
204.098	8.7
204.317	61.95
204.536	53.76
204.755	61.95
204.974	41.47
205.193	119.29
205.411	98.81
205.63	41.47
205.849	23.04
206.068	14.85
206.287	0.51
206.505	129.53
206.724	86.53
206.943	-5.63
207.162	18.94
207.381	27.14
207.599	74.24
207.818	39.42
208.037	49.66
208.255	8.7
208.474	47.62
208.693	47.62
208.911	102.91
209.13	57.86
209.349	80.38
209.567	23.04
209.786	53.76
210.005	8.7
210.223	47.62
210.442	51.71
210.661	98.81
210.879	25.09
211.098	-1.54
211.316	31.23
211.535	96.77
211.753	37.38
211.972	72.19
212.191	59.9
212.409	41.47
212.628	66.05
212.846	-44.54
213.065	102.91
213.283	68.09
213.502	107.01
213.72	76.29
213.938	37.38
214.157	27.14
214.375	80.38
214.594	20.99
214.812	53.76
215.031	33.28
215.249	53.76
215.467	102.91
215.686	-15.87
215.904	-40.45
216.122	-11.78
216.341	84.48
216.559	76.29
216.778	111.1
216.996	84.48
217.214	111.1
217.432	127.49
217.651	23.04
217.869	61.95
218.087	92.67
218.306	39.42
218.524	20.99
218.742	41.47
218.96	45.57
219.179	64
219.397	4.61
219.615	170.49
219.833	76.29
220.051	-17.92
220.27	41.47
220.488	123.39
220.706	86.53
220.924	109.05
221.142	113.15
221.36	66.05
221.578	39.42
221.796	25.09
222.015	-15.87
222.233	92.67
222.451	129.53
222.669	59.9
222.887	92.67
223.105	16.9
223.323	27.14
223.541	10.75
223.759	80.38
223.977	37.38
224.195	92.67
224.413	107.01
224.631	64
224.849	37.38
225.067	59.9
225.285	31.23
225.503	74.24
225.721	31.23
225.939	88.57
226.157	49.66
226.375	80.38
226.592	41.47
226.81	100.86
227.028	107.01
227.246	164.35
227.464	35.33
227.682	6.66
227.9	80.38
228.117	4.61
228.335	104.96
228.553	66.05
228.771	-7.68
228.989	86.53
229.206	64
229.424	-46.59
229.642	14.85
229.86	33.28
230.077	43.52
230.295	39.42
230.513	-17.92
230.731	98.81
230.948	18.94
231.166	90.62
231.384	-65.02
231.601	113.15
231.819	86.53
232.037	29.18
232.254	-5.63
232.472	18.94
232.689	-71.17
232.907	94.72
233.125	68.09
233.342	-5.63
233.56	59.9
233.777	68.09
233.995	127.49
234.213	57.86
234.43	76.29
234.648	35.33
234.865	115.2
235.083	43.52
235.3	-44.54
235.518	96.77
235.735	152.06
235.953	6.66
236.17	64
236.388	25.09
236.605	10.75
236.822	72.19
237.04	-5.63
237.257	84.48
237.475	-5.63
237.692	31.23
237.909	53.76
238.127	23.04
238.344	88.57
238.562	31.23
238.779	90.62
238.996	84.48
239.214	41.47
239.431	35.33
239.648	0.51
239.865	45.57
240.083	64
240.3	31.23
240.517	51.71
240.735	39.42
240.952	55.81
241.169	82.43
241.386	92.67
241.603	12.8
241.821	115.2
242.038	41.47
242.255	86.53
242.472	55.81
242.689	166.4
242.907	141.82
243.124	-5.63
243.341	14.85
243.558	31.23
243.775	31.23
243.992	10.75
244.209	53.76
244.426	104.96
244.643	88.57
244.86	64
245.078	39.42
245.295	123.39
245.512	59.9
245.729	20.99
245.946	-9.73
246.163	25.09
246.38	78.33
246.597	53.76
246.814	35.33
247.031	25.09
247.248	18.94
247.464	0.51
247.681	94.72
247.898	33.28
248.115	51.71
248.332	61.95
248.549	76.29
248.766	76.29
248.983	78.33
249.2	70.14
249.417	88.57
249.633	47.62
249.85	39.42
250.067	18.94
250.284	84.48
250.501	78.33
250.717	109.05
250.934	25.09
251.151	88.57
251.368	39.42
251.585	86.53
251.801	18.94
252.018	76.29
252.235	41.47
252.451	10.75
252.668	4.61
252.885	88.57
253.102	14.85
253.318	53.76
253.535	68.09
253.752	16.9
253.968	55.81
254.185	-22.02
254.401	35.33
254.618	27.14
254.835	45.57
255.051	68.09
255.268	66.05
255.484	104.96
255.701	59.9
255.917	82.43
256.134	68.09
256.351	-5.63
256.567	78.33
256.784	-9.73
257	39.42
257.217	53.76
257.433	29.18
257.65	111.1
257.866	35.33
258.082	70.14
258.299	29.18
258.515	-15.87
258.732	-13.82
258.948	31.23
259.165	0.51
259.381	100.86
259.597	74.24
259.814	-15.87
260.03	37.38
260.246	74.24
260.463	96.77
260.679	74.24
260.895	84.48
261.112	59.9
261.328	98.81
261.544	27.14
261.761	53.76
261.977	55.81
262.193	25.09
262.409	43.52
262.626	141.82
262.842	70.14
263.058	53.76
263.274	59.9
263.49	39.42
263.707	16.9
263.923	-46.59
264.139	0.51
264.355	96.77
264.571	84.48
264.787	92.67
265.004	57.86
265.22	76.29
265.436	51.71
265.652	33.28
265.868	121.34
266.084	4.61
266.3	68.09
266.516	10.75
266.732	70.14
266.948	88.57
267.164	84.48
267.38	27.14
267.596	53.76
267.812	107.01
268.028	72.19
268.244	-11.78
268.46	23.04
268.676	18.94
268.892	158.21
269.108	51.71
269.324	66.05
269.54	59.9
269.756	125.44
269.972	-22.02
270.188	47.62
270.403	100.86
270.619	43.52
270.835	70.14
271.051	57.86
271.267	39.42
271.483	113.15
271.698	31.23
271.914	68.09
272.13	-17.92
272.346	96.77
272.562	8.7
272.777	59.9
272.993	57.86
273.209	43.52
273.425	41.47
273.64	-46.59
273.856	51.71
274.072	78.33
274.287	23.04
274.503	20.99
274.719	68.09
274.934	111.1
275.15	86.53
275.366	33.28
275.581	-22.02
275.797	70.14
276.012	74.24
276.228	-7.68
276.444	76.29
276.659	55.81
276.875	-7.68
277.09	68.09
277.306	72.19
277.521	57.86
277.737	8.7
277.952	49.66
278.168	39.42
278.383	57.86
278.599	18.94
278.814	104.96
279.03	84.48
279.245	76.29
279.461	33.28
279.676	20.99
279.892	27.14
280.107	43.52
280.322	27.14
280.538	82.43
280.753	10.75
280.969	100.86
281.184	107.01
281.399	2.56
281.615	31.23
281.83	43.52
282.045	35.33
282.26	39.42
282.476	86.53
282.691	-13.82
282.906	76.29
283.122	49.66
283.337	-24.06
283.552	41.47
283.767	4.61
283.983	51.71
284.198	66.05
284.413	121.34
284.628	0.51
284.843	47.62
285.058	66.05
285.274	39.42
285.489	-5.63
285.704	59.9
285.919	33.28
286.134	74.24
286.349	47.62
286.564	18.94
286.779	59.9
286.995	8.7
287.21	23.04
287.425	109.05
287.64	57.86
287.855	154.11
288.07	25.09
288.285	90.62
288.5	92.67
288.715	35.33
288.93	74.24
289.145	113.15
289.36	45.57
289.575	27.14
289.79	96.77
290.004	41.47
290.219	59.9
290.434	72.19
290.649	51.71
290.864	55.81
291.079	0.51
291.294	-19.97
291.509	113.15
291.724	51.71
291.938	18.94
292.153	117.25
292.368	23.04
292.583	64
292.798	35.33
293.012	66.05
293.227	53.76
293.442	-54.78
293.657	92.67
293.871	53.76
294.086	53.76
294.301	100.86
294.516	55.81
294.73	43.52
294.945	-24.06
295.16	98.81
295.374	86.53
295.589	57.86
295.804	49.66
296.018	43.52
296.233	104.96
296.447	55.81
296.662	100.86
296.877	59.9
297.091	45.57
297.306	0.51
297.52	66.05
297.735	33.28
297.949	14.85
298.164	80.38
298.378	59.9
298.593	31.23
298.807	18.94
299.022	107.01
299.236	154.11
299.451	-15.87
299.665	-13.82
299.88	31.23
300.094	88.57
300.309	96.77
300.523	68.09
300.737	86.53
300.952	14.85
301.166	53.76
301.381	82.43
301.595	100.86
301.809	33.28
302.024	29.18
302.238	90.62
302.452	129.53
302.667	100.86
302.881	8.7
303.095	100.86
303.309	61.95
303.524	25.09
303.738	35.33
303.952	25.09
304.166	76.29
304.381	-24.06
304.595	96.77
304.809	51.71
305.023	86.53
305.237	76.29
305.452	64
305.666	0.51
305.88	59.9
306.094	72.19
306.308	-7.68
306.522	59.9
306.736	109.05
306.95	72.19
307.164	64
307.379	29.18
307.593	59.9
307.807	92.67
308.021	88.57
308.235	33.28
308.449	0.51
308.663	59.9
308.877	113.15
309.091	70.14
309.305	111.1
309.519	-7.68
309.733	107.01
309.947	-9.73
310.161	92.67
310.374	29.18
310.588	59.9
310.802	55.81
311.016	66.05
311.23	51.71
311.444	-32.26
311.658	98.81
311.872	74.24
312.085	86.53
312.299	119.29
312.513	82.43
312.727	76.29
312.941	10.75
313.154	-26.11
313.368	23.04
313.582	90.62
313.796	10.75
314.009	-1.54
314.223	129.53
314.437	59.9
314.651	70.14
314.864	12.8
315.078	39.42
315.292	-1.54
315.505	129.53
315.719	84.48
315.933	43.52
316.146	2.56
316.36	49.66
316.573	84.48
316.787	47.62
317.001	82.43
317.214	18.94
317.428	109.05
317.641	31.23
317.855	-30.21
318.068	31.23
318.282	16.9
318.495	59.9
318.709	127.49
318.922	59.9
319.136	66.05
319.349	104.96
319.563	70.14
319.776	57.86
319.99	53.76
320.203	27.14
320.417	39.42
320.63	152.06
320.843	133.63
321.057	74.24
321.27	37.38
321.483	37.38
321.697	123.39
321.91	31.23
322.124	59.9
322.337	74.24
322.55	125.44
322.763	68.09
322.977	66.05
323.19	70.14
323.403	113.15
323.617	49.66
323.83	47.62
324.043	66.05
324.256	96.77
324.469	41.47
324.683	35.33
324.896	35.33
325.109	31.23
325.322	12.8
325.535	16.9
325.748	90.62
325.962	76.29
326.175	102.91
326.388	45.57
326.601	117.25
326.814	64
327.027	133.63
327.24	94.72
327.453	35.33
327.666	35.33
327.879	158.21
328.092	84.48
328.305	35.33
328.518	-13.82
328.731	37.38
328.944	2.56
329.157	66.05
329.37	61.95
329.583	27.14
329.796	131.58
330.009	37.38
330.222	84.48
330.435	135.68
330.648	55.81
330.861	47.62
331.073	16.9
331.286	109.05
331.499	35.33
331.712	100.86
331.925	55.81
332.138	-24.06
332.35	131.58
332.563	35.33
332.776	117.25
332.989	61.95
333.202	98.81
333.414	96.77
333.627	80.38
333.84	43.52
334.053	80.38
334.265	96.77
334.478	94.72
334.691	80.38
334.903	49.66
335.116	84.48
335.329	76.29
335.541	115.2
335.754	68.09
335.966	64
336.179	76.29
336.392	78.33
336.604	104.96
336.817	72.19
337.029	23.04
337.242	113.15
337.454	92.67
337.667	-15.87
337.88	76.29
338.092	156.16
338.305	154.11
338.517	20.99
338.729	76.29
338.942	131.58
339.154	12.8
339.367	45.57
339.579	76.29
339.792	29.18
340.004	92.67
340.217	0.51
340.429	57.86
340.641	29.18
340.854	27.14
341.066	133.63
341.278	49.66
341.491	129.53
341.703	139.77
341.915	41.47
342.128	96.77
342.34	109.05
342.552	49.66
342.764	64
342.977	102.91
343.189	43.52
343.401	66.05
343.613	39.42
343.826	39.42
344.038	78.33
344.25	92.67
344.462	125.44
344.674	82.43
344.886	107.01
345.099	80.38
345.311	29.18
345.523	76.29
345.735	59.9
345.947	59.9
346.159	78.33
346.371	98.81
346.583	16.9
346.795	180.73
347.007	59.9
347.219	29.18
347.431	59.9
347.643	20.99
347.855	18.94
348.067	66.05
348.279	20.99
348.491	-7.68
348.703	109.05
348.915	55.81
349.127	39.42
349.339	102.91
349.551	78.33
349.763	29.18
349.975	59.9
350.187	164.35
350.399	131.58
350.61	139.77
350.822	12.8
351.034	80.38
351.246	84.48
351.458	113.15
351.669	47.62
351.881	39.42
352.093	92.67
352.305	55.81
352.517	35.33
352.728	74.24
352.94	33.28
353.152	51.71
353.363	-3.58
353.575	0.51
353.787	135.68
353.999	74.24
354.21	23.04
354.422	84.48
354.633	43.52
354.845	51.71
355.057	45.57
355.268	-11.78
355.48	109.05
355.692	86.53
355.903	102.91
356.115	-40.45
356.326	-7.68
356.538	78.33
356.749	72.19
356.961	90.62
357.172	51.71
357.384	35.33
357.595	143.87
357.807	23.04
358.018	37.38
358.23	107.01
358.441	94.72
358.653	-13.82
358.864	57.86
359.075	55.81
359.287	41.47
359.498	98.81
359.709	111.1
359.921	117.25
360.132	88.57
360.344	43.52
360.555	68.09
360.766	49.66
360.977	39.42
361.189	135.68
361.4	43.52
361.611	64
361.823	4.61
362.034	104.96
362.245	-5.63
362.456	68.09
362.667	80.38
362.879	80.38
363.09	51.71
363.301	117.25
363.512	47.62
363.723	119.29
363.935	70.14
364.146	74.24
364.357	47.62
364.568	119.29
364.779	25.09
364.99	90.62
365.201	41.47
365.412	74.24
365.623	-5.63
365.834	133.63
366.045	72.19
366.256	100.86
366.467	121.34
366.678	76.29
366.889	66.05
367.1	53.76
367.311	92.67
367.522	94.72
367.733	41.47
367.944	66.05
368.155	88.57
368.366	39.42
368.577	31.23
368.788	59.9
368.999	-17.92
369.209	-17.92
369.42	125.44
369.631	131.58
369.842	43.52
370.053	154.11
370.264	129.53
370.474	27.14
370.685	78.33
370.896	76.29
371.107	88.57
371.317	113.15
371.528	10.75
371.739	72.19
371.95	39.42
372.16	180.73
372.371	2.56
372.582	80.38
372.792	-22.02
373.003	70.14
373.214	129.53
373.424	88.57
373.635	43.52
373.846	125.44
374.056	59.9
374.267	39.42
374.477	94.72
374.688	53.76
374.898	12.8
375.109	76.29
375.319	2.56
375.53	121.34
375.74	94.72
375.951	43.52
376.161	68.09
376.372	92.67
376.582	51.71
376.793	61.95
377.003	70.14
377.214	10.75
377.424	64
377.635	100.86
377.845	12.8
378.055	145.92
378.266	66.05
378.476	59.9
378.686	145.92
378.897	96.77
379.107	59.9
379.317	23.04
379.528	100.86
379.738	68.09
379.948	59.9
380.158	66.05
380.369	152.06
380.579	141.82
380.789	115.2
380.999	35.33
381.21	43.52
381.42	86.53
381.63	74.24
381.84	20.99
382.05	150.01
382.261	43.52
382.471	64
382.681	8.7
382.891	47.62
383.101	203.26
383.311	23.04
383.521	100.86
383.731	137.73
383.941	102.91
384.151	31.23
384.361	59.9
384.571	86.53
384.781	51.71
384.991	141.82
385.201	84.48
385.411	107.01
385.621	86.53
385.831	61.95
386.041	0.51
386.251	-11.78
386.461	113.15
386.671	25.09
386.881	98.81
387.091	131.58
387.301	59.9
387.511	66.05
387.72	162.3
387.93	53.76
388.14	12.8
388.35	131.58
388.56	133.63
388.769	74.24
388.979	88.57
389.189	68.09
389.399	154.11
389.609	152.06
389.818	158.21
390.028	94.72
390.238	43.52
390.447	88.57
390.657	131.58
390.867	35.33
391.076	76.29
391.286	125.44
391.496	123.39
391.705	121.34
391.915	111.1
392.125	115.2
392.334	74.24
392.544	111.1
392.753	49.66
392.963	59.9
393.172	147.97
393.382	111.1
393.591	125.44
393.801	102.91
394.01	111.1
394.22	84.48
394.429	107.01
394.639	152.06
394.848	90.62
395.058	109.05
395.267	152.06
395.477	121.34
395.686	74.24
395.895	201.21
396.105	143.87
396.314	94.72
396.524	127.49
396.733	84.48
396.942	141.82
397.152	111.1
397.361	84.48
397.57	137.73
397.78	184.83
397.989	133.63
398.198	166.4
398.407	152.06
398.617	51.71
398.826	76.29
399.035	152.06
399.244	133.63
399.453	98.81
399.663	104.96
399.872	154.11
400.081	109.05
400.29	199.16
400.499	158.21
400.708	193.02
400.917	139.77
401.127	64
401.336	86.53
401.545	256.51
401.754	111.1
401.963	178.69
402.172	133.63
402.381	180.73
402.59	168.45
402.799	154.11
403.008	162.3
403.217	158.21
403.426	174.59
403.635	129.53
403.844	154.11
404.053	141.82
404.262	129.53
404.471	199.16
404.68	182.78
404.888	170.49
405.097	227.84
405.306	207.36
405.515	215.55
405.724	172.54
405.933	221.69
406.142	262.65
406.35	221.69
406.559	147.97
406.768	188.93
406.977	264.7
407.185	248.32
407.394	219.64
407.603	195.07
407.812	250.36
408.02	272.89
408.229	299.52
408.438	311.8
408.646	317.95
408.855	254.46
409.064	297.47
409.272	320
409.481	354.81
409.69	356.86
409.898	330.23
410.107	356.86
410.315	416.25
410.524	379.39
410.733	403.96
410.941	334.33
411.15	418.3
411.358	397.82
411.567	463.35
411.775	424.44
411.984	428.54
412.192	475.64
412.401	520.7
412.609	530.94
412.818	551.42
413.026	571.9
413.234	608.76
413.443	551.42
413.651	573.94
413.86	508.41
414.068	664.05
414.276	670.2
414.485	690.68
414.693	758.26
414.901	743.92
415.11	786.93
415.318	752.12
415.526	805.36
415.734	874.99
415.943	797.17
416.151	930.29
416.359	819.7
416.567	979.44
416.776	866.8
416.984	1014.26
417.192	1096.18
417.4	1071.6
417.608	1014.26
417.817	1092.08
418.025	1108.46
418.233	1227.25
418.441	1245.68
418.649	1313.26
418.857	1368.56
419.065	1407.47
419.273	1364.46
419.481	1485.29
419.689	1493.48
419.897	1608.17
420.105	1460.71
420.313	1577.45
420.521	1753.57
420.729	1778.15
420.937	1872.36
421.145	1853.92
421.353	2034.14
421.561	2009.57
421.769	2034.14
421.977	2150.88
422.185	2177.5
422.393	2236.89
422.601	2431.45
422.809	2513.37
423.017	2441.69
423.224	2546.14
423.432	2671.06
423.64	2583
423.848	2908.63
424.056	2769.37
424.263	3148.24
424.471	2892.24
424.679	3146.19
424.887	3264.97
425.094	3377.61
425.302	3441.1
425.51	3412.43
425.718	3639.75
425.925	3623.37
426.133	3783.11
426.341	3920.32
426.548	4202.94
426.756	4108.74
426.964	4116.93
427.171	4442.56
427.379	4618.68
427.586	4448.7
427.794	4647.35
428.001	4972.98
428.209	5173.68
428.417	4989.36
428.624	5366.19
428.832	5536.17
429.039	5325.23
429.247	5452.2
429.454	6179.23
429.662	6334.88
429.869	5962.15
430.076	6255.01
430.284	6232.48
430.491	6390.17
430.699	6750.62
430.906	6697.37
431.114	6820.25
431.321	6990.23
431.528	7201.17
431.736	7471.5
431.943	8155.52
432.15	7879.05
432.358	7831.94
432.565	8151.43
432.772	8423.81
432.979	8864.12
433.187	8943.99
433.394	9003.38
433.601	9501.04
433.808	9783.66
434.016	9468.27
434.223	9881.96
434.43	10449.25
434.637	10223.97
434.844	10924.38
435.052	11184.47
435.259	11065.69
435.466	11284.82
435.673	10887.51
435.88	11833.68
436.087	12513.6
436.294	12675.39
436.501	12073.29
436.708	12341.57
436.915	12966.2
437.122	13201.72
437.329	13332.79
437.537	13549.87
437.743	13967.66
437.95	13912.36
438.157	14436.64
438.364	15212.82
438.571	15005.98
438.778	14977.31
438.985	16668.93
439.192	15907.09
439.399	16288.01
439.606	16210.18
439.813	16994.56
440.02	17940.72
440.227	17666.29
440.433	17481.97
440.64	17875.18
440.847	17760.5
441.054	18215.15
441.261	19411.16
441.467	19521.75
441.674	19706.07
441.881	20480.2
442.088	20357.32
442.294	20187.34
442.501	20662.47
442.708	21106.88
442.914	22036.66
443.121	22986.91
443.328	22337.71
443.534	23851.16
443.741	23038.11
443.948	22827.17
444.154	24494.22
444.361	24141.97
444.568	24393.87
444.774	24240.27
444.981	24608.9
445.187	25258.11
445.394	26470.51
445.6	26265.71
445.807	28590.16
446.013	27570.27
446.22	28069.97
446.426	28797
446.633	29276.23
446.839	30330.93
447.046	28885.06
447.252	30597.17
447.459	30560.3
447.665	30582.83
447.871	31911.96
448.078	33239.04
448.284	31227.94
448.491	32337.94
448.697	33607.68
448.903	34592.75
449.11	33843.2
449.316	33349.64
449.522	34080.76
449.728	35149.8
449.935	35540.96
450.141	35215.33
450.347	36306.9
450.553	35012.59
450.76	35348.45
450.966	36796.37
451.172	36014.04
451.378	36827.09
451.584	36339.67
451.791	36949.96
451.997	36655.06
452.203	37490.63
452.409	37492.68
452.615	36956.11
452.821	35596.26
453.027	35610.59
453.233	37275.59
453.44	35514.34
453.646	35905.5
453.852	36149.21
454.058	36925.39
454.264	35860.44
454.47	36722.64
454.676	35213.29
454.882	36429.78
455.088	33054.73
455.294	33769.47
455.5	34457.59
455.705	35024.87
455.911	33394.69
456.117	32598.03
456.323	32176.15
456.529	30554.16
456.735	31600.67
456.941	31068.2
457.147	30828.59
457.352	29421.63
457.558	28971.08
457.764	29087.81
457.97	28643.4
458.176	28045.4
458.381	27510.88
458.587	26278
458.793	26495.08
458.999	25122.94
459.204	27220.06
459.41	26278
459.616	24490.12
459.821	24582.28
460.027	24578.18
460.233	24146.06
460.438	22692.01
460.644	23064.74
460.85	22198.45
461.055	21772.47
461.261	21616.82
461.466	20312.27
461.672	19355.86
461.878	21041.34
462.083	19392.73
462.289	19187.93
462.494	19011.81
462.7	18262.25
462.905	17692.91
463.111	18331.88
463.316	18172.14
463.522	17903.85
463.727	17725.68
463.932	17969.39
464.138	17791.22
464.343	17623.28
464.549	17377.53
464.754	17924.33
464.959	17807.6
465.165	17672.43
465.37	16939.26
465.575	16390.41
465.781	17074.43
465.986	17234.17
466.191	16468.23
466.397	16261.38
466.602	15302.93
466.807	16036.11
467.012	16165.13
467.218	15956.24
467.423	15423.76
