Data from USB4F104151__95__10-24-31-359.txt Node

Date: Wed Mar 12 10:24:31 EDT 2025
User: louis
Spectrometer: USB4F10415
Trigger mode: 4
Integration Time (sec): 3.000000E-2
Scans to average: 1
Electric dark correction enabled: true
Nonlinearity correction enabled: false
Boxcar width: 0
XAxis mode: Wavelengths
Number of Pixels in Spectrum: 3648
>>>>>Begin Spectral Data<<<<<
178.204	-106.15
178.424	-106.15
178.644	-106.15
178.864	-112.3
179.084	-81.58
179.304	-61.1
179.524	43.35
179.744	-30.38
179.964	35.16
180.184	-40.62
180.404	26.96
180.624	-30.38
180.844	16.73
181.064	-7.85
181.283	16.73
181.503	2.39
181.723	29.01
181.943	61.78
182.163	102.74
182.383	18.77
182.602	55.64
182.822	31.06
183.042	125.27
183.262	2.39
183.482	72.02
183.701	51.54
183.921	59.73
184.141	10.58
184.361	63.83
184.58	69.97
184.8	33.11
185.02	53.59
185.239	72.02
185.459	86.36
185.679	112.98
185.898	45.4
186.118	129.36
186.338	119.12
186.557	86.36
186.777	-32.43
186.997	26.96
187.216	47.44
187.436	164.18
187.655	80.21
187.875	84.31
188.095	49.49
188.314	82.26
188.534	82.26
188.753	135.51
188.973	115.03
189.192	94.55
189.412	53.59
189.631	112.98
189.851	18.77
190.07	98.64
190.29	-44.71
190.509	65.88
190.729	39.25
190.948	51.54
191.168	84.31
191.387	84.31
191.607	4.44
191.826	98.64
192.045	16.73
192.265	57.68
192.484	123.22
192.704	26.96
192.923	22.87
193.142	65.88
193.362	12.63
193.581	90.45
193.8	61.78
194.02	78.16
194.239	74.07
194.458	20.82
194.678	37.2
194.897	100.69
195.116	131.41
195.335	8.53
195.555	139.6
195.774	100.69
195.993	37.2
196.212	65.88
196.432	78.16
196.651	90.45
196.87	78.16
197.089	92.5
197.308	84.31
197.528	115.03
197.747	16.73
197.966	127.32
198.185	12.63
198.404	31.06
198.623	43.35
198.842	86.36
199.062	29.01
199.281	59.73
199.5	74.07
199.719	53.59
199.938	82.26
200.157	125.27
200.376	29.01
200.595	31.06
200.814	129.36
201.033	20.82
201.252	69.97
201.471	98.64
201.69	82.26
201.909	76.12
202.128	69.97
202.347	-9.9
202.566	61.78
202.785	67.92
203.004	20.82
203.223	170.32
203.442	-9.9
203.661	47.44
203.879	-26.28
204.098	55.64
204.317	24.92
204.536	80.21
204.755	41.3
204.974	76.12
205.193	119.12
205.411	104.79
205.63	67.92
205.849	49.49
206.068	61.78
206.287	80.21
206.505	74.07
206.724	6.49
206.943	69.97
207.162	35.16
207.381	72.02
207.599	35.16
207.818	31.06
208.037	94.55
208.255	74.07
208.474	149.84
208.693	51.54
208.911	65.88
209.13	74.07
209.349	24.92
209.567	24.92
209.786	65.88
210.005	106.84
210.223	49.49
210.442	104.79
210.661	33.11
210.879	18.77
211.098	49.49
211.316	37.2
211.535	94.55
211.753	4.44
211.972	59.73
212.191	72.02
212.409	49.49
212.628	-20.14
212.846	49.49
213.065	94.55
213.283	82.26
213.502	61.78
213.72	-3.75
213.938	80.21
214.157	49.49
214.375	53.59
214.594	82.26
214.812	-3.75
215.031	-5.8
215.249	74.07
215.467	110.93
215.686	53.59
215.904	69.97
216.122	57.68
216.341	84.31
216.559	57.68
216.778	80.21
216.996	84.31
217.214	41.3
217.432	47.44
217.651	24.92
217.869	53.59
218.087	6.49
218.306	61.78
218.524	106.84
218.742	12.63
218.96	-1.71
219.179	4.44
219.397	39.25
219.615	82.26
219.833	80.21
220.051	53.59
220.27	98.64
220.488	45.4
220.706	127.32
220.924	29.01
221.142	24.92
221.36	53.59
221.578	90.45
221.796	86.36
222.015	69.97
222.233	86.36
222.451	135.51
222.669	49.49
222.887	192.85
223.105	49.49
223.323	67.92
223.541	-3.75
223.759	123.22
223.977	47.44
224.195	137.56
224.413	88.4
224.631	22.87
224.849	76.12
225.067	55.64
225.285	104.79
225.503	39.25
225.721	20.82
225.939	55.64
226.157	24.92
226.375	98.64
226.592	51.54
226.81	55.64
227.028	31.06
227.246	35.16
227.464	86.36
227.682	115.03
227.9	135.51
228.117	43.35
228.335	98.64
228.553	88.4
228.771	92.5
228.989	96.6
229.206	92.5
229.424	55.64
229.642	84.31
229.86	57.68
230.077	98.64
230.295	63.83
230.513	131.41
230.731	61.78
230.948	170.32
231.166	80.21
231.384	55.64
231.601	115.03
231.819	178.51
232.037	76.12
232.254	-28.33
232.472	86.36
232.689	37.2
232.907	141.65
233.125	74.07
233.342	86.36
233.56	59.73
233.777	24.92
233.995	-28.33
234.213	49.49
234.43	88.4
234.648	53.59
234.865	-20.14
235.083	41.3
235.3	16.73
235.518	115.03
235.735	133.46
235.953	100.69
236.17	26.96
236.388	53.59
236.605	121.17
236.822	108.88
237.04	78.16
237.257	33.11
237.475	82.26
237.692	160.08
237.909	31.06
238.127	86.36
238.344	55.64
238.562	45.4
238.779	18.77
238.996	33.11
239.214	127.32
239.431	98.64
239.648	80.21
239.865	22.87
240.083	102.74
240.3	78.16
240.517	121.17
240.735	123.22
240.952	61.78
241.169	127.32
241.386	131.41
241.603	133.46
241.821	29.01
242.038	84.31
242.255	57.68
242.472	12.63
242.689	76.12
242.907	110.93
243.124	18.77
243.341	37.2
243.558	41.3
243.775	53.59
243.992	33.11
244.209	61.78
244.426	76.12
244.643	72.02
244.86	-32.43
245.078	115.03
245.295	41.3
245.512	57.68
245.729	74.07
245.946	96.6
246.163	112.98
246.38	14.68
246.597	57.68
246.814	45.4
247.031	59.73
247.248	45.4
247.464	74.07
247.681	84.31
247.898	90.45
248.115	133.46
248.332	29.01
248.549	74.07
248.766	110.93
248.983	47.44
249.2	35.16
249.417	98.64
249.633	-40.62
249.85	76.12
250.067	29.01
250.284	106.84
250.501	55.64
250.717	108.88
250.934	69.97
251.151	84.31
251.368	-16.04
251.585	80.21
251.801	22.87
252.018	29.01
252.235	55.64
252.451	12.63
252.668	86.36
252.885	82.26
253.102	72.02
253.318	53.59
253.535	53.59
253.752	22.87
253.968	69.97
254.185	65.88
254.401	2.39
254.618	106.84
254.835	-3.75
255.051	123.22
255.268	51.54
255.484	22.87
255.701	65.88
255.917	88.4
256.134	98.64
256.351	82.26
256.567	10.58
256.784	51.54
257	35.16
257.217	74.07
257.433	69.97
257.65	145.75
257.866	98.64
258.082	35.16
258.299	49.49
258.515	14.68
258.732	-77.48
258.948	104.79
259.165	72.02
259.381	20.82
259.597	117.08
259.814	69.97
260.03	98.64
260.246	88.4
260.463	49.49
260.679	100.69
260.895	33.11
261.112	127.32
261.328	29.01
261.544	-22.19
261.761	117.08
261.977	74.07
262.193	129.36
262.409	45.4
262.626	72.02
262.842	37.2
263.058	92.5
263.274	20.82
263.49	45.4
263.707	117.08
263.923	78.16
264.139	4.44
264.355	129.36
264.571	98.64
264.787	65.88
265.004	94.55
265.22	65.88
265.436	-7.85
265.652	143.7
265.868	112.98
266.084	35.16
266.3	69.97
266.516	102.74
266.732	57.68
266.948	63.83
267.164	8.53
267.38	63.83
267.596	49.49
267.812	129.36
268.028	59.73
268.244	86.36
268.46	57.68
268.676	41.3
268.892	18.77
269.108	43.35
269.324	67.92
269.54	92.5
269.756	127.32
269.972	33.11
270.188	102.74
270.403	-1.71
270.619	20.82
270.835	86.36
271.051	12.63
271.267	35.16
271.483	47.44
271.698	82.26
271.914	96.6
272.13	74.07
272.346	63.83
272.562	135.51
272.777	74.07
272.993	51.54
273.209	43.35
273.425	86.36
273.64	51.54
273.856	74.07
274.072	55.64
274.287	82.26
274.503	133.46
274.719	67.92
274.934	106.84
275.15	6.49
275.366	67.92
275.581	108.88
275.797	74.07
276.012	18.77
276.228	37.2
276.444	49.49
276.659	112.98
276.875	6.49
277.09	0.34
277.306	76.12
277.521	133.46
277.737	67.92
277.952	104.79
278.168	119.12
278.383	80.21
278.599	123.22
278.814	141.65
279.03	76.12
279.245	45.4
279.461	33.11
279.676	74.07
279.892	53.59
280.107	-16.04
280.322	63.83
280.538	47.44
280.753	76.12
280.969	-30.38
281.184	80.21
281.399	102.74
281.615	90.45
281.83	35.16
282.045	67.92
282.26	22.87
282.476	29.01
282.691	45.4
282.906	63.83
283.122	80.21
283.337	53.59
283.552	117.08
283.767	76.12
283.983	78.16
284.198	43.35
284.413	88.4
284.628	35.16
284.843	31.06
285.058	82.26
285.274	94.55
285.489	65.88
285.704	92.5
285.919	74.07
286.134	80.21
286.349	123.22
286.564	24.92
286.779	90.45
286.995	108.88
287.21	51.54
287.425	65.88
287.64	59.73
287.855	78.16
288.07	45.4
288.285	18.77
288.5	67.92
288.715	129.36
288.93	12.63
289.145	61.78
289.36	22.87
289.575	47.44
289.79	158.03
290.004	29.01
290.219	88.4
290.434	61.78
290.649	82.26
290.864	35.16
291.079	2.39
291.294	86.36
291.509	117.08
291.724	6.49
291.938	43.35
292.153	69.97
292.368	61.78
292.583	-3.75
292.798	57.68
293.012	125.27
293.227	133.46
293.442	35.16
293.657	65.88
293.871	92.5
294.086	63.83
294.301	-9.9
294.516	100.69
294.73	74.07
294.945	-20.14
295.16	47.44
295.374	53.59
295.589	145.75
295.804	47.44
296.018	55.64
296.233	78.16
296.447	98.64
296.662	33.11
296.877	119.12
297.091	88.4
297.306	72.02
297.52	65.88
297.735	82.26
297.949	41.3
298.164	117.08
298.378	72.02
298.593	69.97
298.807	65.88
299.022	20.82
299.236	39.25
299.451	53.59
299.665	47.44
299.88	55.64
300.094	10.58
300.309	69.97
300.523	123.22
300.737	51.54
300.952	115.03
301.166	80.21
301.381	67.92
301.595	57.68
301.809	63.83
302.024	37.2
302.238	37.2
302.452	131.41
302.667	98.64
302.881	82.26
303.095	61.78
303.309	65.88
303.524	45.4
303.738	82.26
303.952	78.16
304.166	84.31
304.381	-9.9
304.595	45.4
304.809	45.4
305.023	67.92
305.237	94.55
305.452	80.21
305.666	78.16
305.88	141.65
306.094	14.68
306.308	43.35
306.522	133.46
306.736	123.22
306.95	51.54
307.164	67.92
307.379	65.88
307.593	45.4
307.807	92.5
308.021	67.92
308.235	135.51
308.449	41.3
308.663	67.92
308.877	127.32
309.091	63.83
309.305	37.2
309.519	90.45
309.733	41.3
309.947	-28.33
310.161	65.88
310.374	96.6
310.588	74.07
310.802	110.93
311.016	18.77
311.23	94.55
311.444	80.21
311.658	98.64
311.872	88.4
312.085	88.4
312.299	29.01
312.513	84.31
312.727	139.6
312.941	67.92
313.154	69.97
313.368	26.96
313.582	117.08
313.796	57.68
314.009	37.2
314.223	24.92
314.437	72.02
314.651	94.55
314.864	94.55
315.078	88.4
315.292	78.16
315.505	57.68
315.719	117.08
315.933	94.55
316.146	53.59
316.36	80.21
316.573	49.49
316.787	98.64
317.001	35.16
317.214	78.16
317.428	94.55
317.641	67.92
317.855	26.96
318.068	100.69
318.282	78.16
318.495	98.64
318.709	0.34
318.922	26.96
319.136	151.89
319.349	74.07
319.563	139.6
319.776	72.02
319.99	76.12
320.203	86.36
320.417	61.78
320.63	100.69
320.843	76.12
321.057	106.84
321.27	84.31
321.483	76.12
321.697	180.56
321.91	69.97
322.124	74.07
322.337	96.6
322.55	29.01
322.763	53.59
322.977	82.26
323.19	43.35
323.403	51.54
323.617	98.64
323.83	135.51
324.043	10.58
324.256	100.69
324.469	88.4
324.683	123.22
324.896	102.74
325.109	178.51
325.322	84.31
325.535	119.12
325.748	49.49
325.962	84.31
326.175	78.16
326.388	51.54
326.601	92.5
326.814	86.36
327.027	35.16
327.24	53.59
327.453	61.78
327.666	47.44
327.879	104.79
328.092	76.12
328.305	131.41
328.518	119.12
328.731	108.88
328.944	16.73
329.157	16.73
329.37	-3.75
329.583	133.46
329.796	127.32
330.009	0.34
330.222	110.93
330.435	102.74
330.648	74.07
330.861	86.36
331.073	59.73
331.286	129.36
331.499	162.13
331.712	22.87
331.925	86.36
332.138	35.16
332.35	69.97
332.563	49.49
332.776	184.66
332.989	53.59
333.202	51.54
333.414	69.97
333.627	100.69
333.84	57.68
334.053	6.49
334.265	12.63
334.478	106.84
334.691	61.78
334.903	108.88
335.116	98.64
335.329	123.22
335.541	53.59
335.754	88.4
335.966	98.64
336.179	8.53
336.392	29.01
336.604	37.2
336.817	88.4
337.029	104.79
337.242	88.4
337.454	69.97
337.667	51.54
337.88	139.6
338.092	100.69
338.305	35.16
338.517	69.97
338.729	127.32
338.942	37.2
339.154	-28.33
339.367	47.44
339.579	69.97
339.792	4.44
340.004	57.68
340.217	57.68
340.429	139.6
340.641	37.2
340.854	94.55
341.066	53.59
341.278	192.85
341.491	49.49
341.703	92.5
341.915	-5.8
342.128	125.27
342.34	164.18
342.552	-30.38
342.764	6.49
342.977	135.51
343.189	80.21
343.401	119.12
343.613	110.93
343.826	6.49
344.038	59.73
344.25	98.64
344.462	125.27
344.674	178.51
344.886	108.88
345.099	55.64
345.311	65.88
345.523	100.69
345.735	61.78
345.947	47.44
346.159	4.44
346.371	131.41
346.583	117.08
346.795	135.51
347.007	49.49
347.219	43.35
347.431	94.55
347.643	153.94
347.855	51.54
348.067	133.46
348.279	92.5
348.491	57.68
348.703	76.12
348.915	115.03
349.127	78.16
349.339	94.55
349.551	110.93
349.763	94.55
349.975	45.4
350.187	8.53
350.399	94.55
350.61	162.13
350.822	121.17
351.034	51.54
351.246	35.16
351.458	121.17
351.669	78.16
351.881	160.08
352.093	82.26
352.305	55.64
352.517	86.36
352.728	86.36
352.94	47.44
353.152	35.16
353.363	4.44
353.575	104.79
353.787	72.02
353.999	90.45
354.21	100.69
354.422	61.78
354.633	117.08
354.845	74.07
355.057	117.08
355.268	74.07
355.48	74.07
355.692	31.06
355.903	133.46
356.115	100.69
356.326	-28.33
356.538	147.8
356.749	84.31
356.961	153.94
357.172	100.69
357.384	88.4
357.595	29.01
357.807	100.69
358.018	164.18
358.23	121.17
358.441	127.32
358.653	96.6
358.864	6.49
359.075	67.92
359.287	94.55
359.498	127.32
359.709	123.22
359.921	49.49
360.132	149.84
360.344	86.36
360.555	33.11
360.766	53.59
360.977	69.97
361.189	112.98
361.4	102.74
361.611	57.68
361.823	84.31
362.034	84.31
362.245	55.64
362.456	117.08
362.667	100.69
362.879	94.55
363.09	78.16
363.301	88.4
363.512	69.97
363.723	119.12
363.935	117.08
364.146	84.31
364.357	82.26
364.568	127.32
364.779	102.74
364.99	121.17
365.201	59.73
365.412	205.14
365.623	-7.85
365.834	88.4
366.045	72.02
366.256	74.07
366.467	74.07
366.678	151.89
366.889	115.03
367.1	37.2
367.311	125.27
367.522	33.11
367.733	94.55
367.944	123.22
368.155	84.31
368.366	147.8
368.577	112.98
368.788	69.97
368.999	69.97
369.209	127.32
369.42	45.4
369.631	160.08
369.842	76.12
370.053	80.21
370.264	72.02
370.474	0.34
370.685	92.5
370.896	78.16
371.107	137.56
371.317	100.69
371.528	10.58
371.739	65.88
371.95	110.93
372.16	74.07
372.371	51.54
372.582	76.12
372.792	153.94
373.003	188.75
373.214	51.54
373.424	131.41
373.635	143.7
373.846	96.6
374.056	158.03
374.267	100.69
374.477	86.36
374.688	45.4
374.898	6.49
375.109	37.2
375.319	121.17
375.53	108.88
375.74	127.32
375.951	98.64
376.161	53.59
376.372	112.98
376.582	33.11
376.793	117.08
377.003	49.49
377.214	147.8
377.424	49.49
377.635	123.22
377.845	90.45
378.055	137.56
378.266	-7.85
378.476	37.2
378.686	61.78
378.897	168.27
379.107	117.08
379.317	59.73
379.528	110.93
379.738	69.97
379.948	51.54
380.158	88.4
380.369	69.97
380.579	119.12
380.789	110.93
380.999	82.26
381.21	59.73
381.42	184.66
381.63	61.78
381.84	153.94
382.05	147.8
382.261	190.8
382.471	78.16
382.681	57.68
382.891	108.88
383.101	100.69
383.311	69.97
383.521	2.39
383.731	155.99
383.941	41.3
384.151	135.51
384.361	139.6
384.571	74.07
384.781	84.31
384.991	201.04
385.201	96.6
385.411	110.93
385.621	104.79
385.831	61.78
386.041	143.7
386.251	88.4
386.461	39.25
386.671	41.3
386.881	131.41
387.091	78.16
387.301	151.89
387.511	123.22
387.72	104.79
387.93	104.79
388.14	147.8
388.35	76.12
388.56	139.6
388.769	145.75
388.979	98.64
389.189	94.55
389.399	16.73
389.609	84.31
389.818	106.84
390.028	123.22
390.238	78.16
390.447	108.88
390.657	102.74
390.867	74.07
391.076	112.98
391.286	92.5
391.496	94.55
391.705	78.16
391.915	137.56
392.125	160.08
392.334	143.7
392.544	106.84
392.753	96.6
392.963	108.88
393.172	135.51
393.382	96.6
393.591	213.33
393.801	67.92
394.01	100.69
394.22	125.27
394.429	198.99
394.639	8.53
394.848	196.95
395.058	129.36
395.267	65.88
395.477	176.47
395.686	225.62
395.895	151.89
396.105	176.47
396.314	180.56
396.524	143.7
396.733	100.69
396.942	115.03
397.152	180.56
397.361	147.8
397.57	149.84
397.78	131.41
397.989	121.17
398.198	166.23
398.407	174.42
398.617	84.31
398.826	184.66
399.035	172.37
399.244	242
399.453	164.18
399.663	61.78
399.872	223.57
400.081	127.32
400.29	115.03
400.499	86.36
400.708	213.33
400.917	88.4
401.127	61.78
401.336	207.19
401.545	178.51
401.754	215.38
401.963	235.86
402.172	119.12
402.381	141.65
402.59	205.14
402.799	180.56
403.008	198.99
403.217	182.61
403.426	237.91
403.635	194.9
403.844	121.17
404.053	151.89
404.262	145.75
404.471	155.99
404.68	227.67
404.888	198.99
405.097	192.85
405.306	246.1
405.515	229.71
405.724	217.43
405.933	233.81
406.142	244.05
406.35	248.15
406.559	270.67
406.768	209.23
406.977	252.24
407.185	305.49
407.394	219.47
407.603	229.71
407.812	293.2
408.02	291.15
408.229	276.82
408.438	244.05
408.646	311.63
408.855	299.34
409.064	274.77
409.272	362.83
409.481	438.61
409.69	319.82
409.898	303.44
410.107	436.56
410.315	377.17
410.524	405.84
410.733	502.09
410.941	444.75
411.15	467.28
411.358	541.01
411.567	477.52
411.775	469.33
411.984	514.38
412.192	612.68
412.401	586.06
412.609	641.36
412.818	577.87
413.026	657.74
413.234	614.73
413.443	655.69
413.651	674.12
413.86	694.6
414.068	723.27
414.276	717.13
414.485	819.53
414.693	792.91
414.901	827.72
415.11	850.25
415.318	893.26
415.526	954.69
415.734	932.17
415.943	921.93
416.151	966.98
416.359	1034.57
416.567	1046.85
416.776	1069.38
416.984	1132.87
417.192	1184.07
417.4	1241.41
417.608	1159.49
417.817	1272.13
418.025	1376.58
418.233	1401.15
418.441	1413.44
418.649	1460.54
418.857	1507.65
419.065	1540.41
419.273	1542.46
419.481	1605.95
419.689	1722.68
419.897	1771.83
420.105	1802.55
420.313	1802.55
420.521	1915.19
420.729	1933.62
420.937	2119.99
421.145	2158.9
421.353	2158.9
421.561	2322.74
421.769	2390.32
421.977	2545.97
422.185	2466.1
422.393	2511.15
422.601	2804.01
422.809	2699.56
423.017	2758.96
423.224	2887.98
423.432	3019.05
423.64	2941.22
423.848	3221.8
424.056	3053.86
424.263	3348.77
424.471	3422.5
424.679	3404.07
424.887	3750.17
425.094	3764.51
425.302	3883.29
425.51	3965.21
425.718	4176.15
425.925	4204.82
426.133	4262.16
426.341	4466.96
426.548	4710.67
426.756	4714.77
426.964	4737.29
427.171	4958.47
427.379	5091.59
427.586	5298.44
427.794	5214.47
428.001	5447.94
428.209	5933.31
428.417	5638.4
428.624	6215.93
428.832	6242.55
429.039	6119.67
429.247	6134.01
429.454	6693.1
429.662	7311.59
429.869	6619.38
430.076	7135.46
430.284	7096.55
430.491	7373.03
430.699	7874.78
430.906	7608.55
431.114	7946.46
431.321	8306.9
431.528	8128.73
431.736	8687.82
431.943	9410.76
432.15	8888.53
432.358	8992.97
432.565	9377.99
432.772	9453.77
432.979	9916.61
433.187	10139.83
433.394	10117.31
433.601	10772.66
433.808	10801.33
434.016	10809.52
434.223	11200.68
434.43	11913.38
434.637	11636.9
434.844	12431.51
435.052	12626.07
435.259	12716.18
435.466	12603.54
435.673	12640.4
435.88	13496.46
436.087	14143.61
436.294	13895.81
436.501	13760.64
436.708	13983.87
436.915	14411.9
437.122	15147.12
437.329	15007.86
437.537	15679.59
437.743	15831.14
437.95	15571.05
438.157	16353.37
438.364	17131.6
438.571	17129.55
438.778	17043.54
438.985	18436.16
439.192	17754.18
439.399	18468.92
439.606	17948.74
439.813	19241.01
440.02	20113.44
440.227	19701.8
440.433	19845.16
440.64	20498.46
440.847	20031.52
441.054	20588.57
441.261	21970.95
441.467	21948.42
441.674	22249.47
441.881	23005.17
442.088	22913.02
442.294	22827
442.501	23343.09
442.708	23726.06
442.914	24727.52
443.121	25825.23
443.328	25012.18
443.534	26900.41
443.741	25806.8
443.948	25472.98
444.154	27817.9
444.361	27254.71
444.568	27463.6
444.774	27776.94
444.981	27742.13
445.187	28667.81
445.394	29921.16
445.6	29431.7
445.807	32315.24
446.013	31020.92
446.22	30945.15
446.426	32442.21
446.633	32608.1
446.839	33501.01
447.046	32307.05
447.252	34297.67
447.459	34195.28
447.665	34002.77
447.871	35647.29
448.078	37035.81
448.284	35174.2
448.491	36138.8
448.697	37494.55
448.903	37961.49
449.11	38172.43
449.316	37533.46
449.522	38287.12
449.728	39223.04
449.935	39294.72
450.141	39788.28
450.347	40232.69
450.553	38983.43
450.76	39433.98
450.966	40826.6
451.172	40177.39
451.378	41051.87
451.584	40486.64
451.791	41588.44
451.997	41285.34
452.203	42022.61
452.409	41445.08
452.615	41557.72
452.821	39925.49
453.027	39675.64
453.233	41524.96
453.44	39663.35
453.646	40126.19
453.852	40707.82
454.058	40965.86
454.264	39624.44
454.47	40429.29
454.676	39599.87
454.882	40568.55
455.088	37320.48
455.294	37879.57
455.5	38344.46
455.705	38422.28
455.911	37269.28
456.117	36392.75
456.323	35776.31
456.529	33703.76
456.735	35411.77
456.941	34789.19
457.147	34074.45
457.352	33056.6
457.558	32388.97
457.764	32608.1
457.97	31797.1
458.176	30932.86
458.381	31459.19
458.587	29607.83
458.793	29636.5
458.999	27944.87
459.204	30435.2
459.41	29421.46
459.616	27545.52
459.821	27629.49
460.027	27557.81
460.233	26611.65
460.438	25454.54
460.644	25427.92
460.85	24690.65
461.055	23861.23
461.261	24000.49
461.466	22200.32
461.672	21612.56
461.878	23564.27
462.083	21649.42
462.289	21192.72
462.494	21190.67
462.7	19925.03
462.905	19515.44
463.111	20221.98
463.316	20547.61
463.522	20160.55
463.727	19843.11
463.932	20178.98
464.138	19943.46
464.343	19714.09
464.549	19154.99
464.754	20072.48
464.959	19525.68
465.165	19671.08
465.37	19005.49
465.575	18212.93
465.781	19050.55
465.986	19159.09
