Data from USB4F104151__3__10-19-53-079.txt Node

Date: Wed Mar 12 10:19:53 EDT 2025
User: louis
Spectrometer: USB4F10415
Trigger mode: 4
Integration Time (sec): 3.000000E-2
Scans to average: 1
Electric dark correction enabled: true
Nonlinearity correction enabled: false
Boxcar width: 0
XAxis mode: Wavelengths
Number of Pixels in Spectrum: 3648
>>>>>Begin Spectral Data<<<<<
178.204	-104.45
178.424	-104.45
178.644	-104.45
178.864	-43.01
179.084	-155.65
179.304	8.19
179.524	-24.58
179.744	43.01
179.964	40.96
180.184	67.58
180.404	47.1
180.624	-51.2
180.844	-51.2
181.064	-67.58
181.283	34.82
181.503	-34.82
181.723	-12.29
181.943	-59.39
182.163	90.11
182.383	-45.06
182.602	26.62
182.822	75.77
183.042	53.25
183.262	-32.77
183.482	-10.24
183.701	-45.06
183.921	-40.96
184.141	-2.05
184.361	16.38
184.58	26.62
184.8	6.14
185.02	14.34
185.239	40.96
185.459	20.48
185.679	43.01
185.898	28.67
186.118	32.77
186.338	20.48
186.557	73.73
186.777	-75.77
186.997	-8.19
187.216	-2.05
187.436	-30.72
187.655	55.3
187.875	34.82
188.095	38.91
188.314	40.96
188.534	43.01
188.753	6.14
188.973	-6.14
189.192	-32.77
189.412	34.82
189.631	67.58
189.851	2.05
190.07	98.3
190.29	-49.15
190.509	71.68
190.729	-40.96
190.948	81.92
191.168	198.65
191.387	47.1
191.607	-30.72
191.826	40.96
192.045	51.2
192.265	-18.43
192.484	55.3
192.704	-16.38
192.923	2.05
193.142	96.25
193.362	43.01
193.581	104.45
193.8	-40.96
194.02	75.77
194.239	32.77
194.458	102.4
194.678	8.19
194.897	-8.19
195.116	88.06
195.335	14.34
195.555	71.68
195.774	32.77
195.993	32.77
196.212	32.77
196.432	-40.96
196.651	6.14
196.87	36.86
197.089	67.58
197.308	14.34
197.528	47.1
197.747	51.2
197.966	-16.38
198.185	-0
198.404	-10.24
198.623	-10.24
198.842	63.49
199.062	63.49
199.281	120.83
199.5	8.19
199.719	22.53
199.938	30.72
200.157	59.39
200.376	-63.49
200.595	47.1
200.814	43.01
201.033	-12.29
201.252	45.06
201.471	59.39
201.69	100.35
201.909	36.86
202.128	69.63
202.347	55.3
202.566	6.14
202.785	71.68
203.004	4.1
203.223	88.06
203.442	57.34
203.661	2.05
203.879	24.58
204.098	-16.38
204.317	51.2
204.536	92.16
204.755	45.06
204.974	157.69
205.193	-0
205.411	26.62
205.63	6.14
205.849	22.53
206.068	61.44
206.287	45.06
206.505	114.69
206.724	45.06
206.943	-51.2
207.162	43.01
207.381	63.49
207.599	-32.77
207.818	-47.1
208.037	38.91
208.255	88.06
208.474	71.68
208.693	57.34
208.911	67.58
209.13	32.77
209.349	65.53
209.567	34.82
209.786	32.77
210.005	26.62
210.223	53.25
210.442	34.82
210.661	14.34
210.879	14.34
211.098	-2.05
211.316	63.49
211.535	75.77
211.753	49.15
211.972	32.77
212.191	14.34
212.409	28.67
212.628	49.15
212.846	61.44
213.065	-32.77
213.283	30.72
213.502	-24.58
213.72	-30.72
213.938	24.58
214.157	-26.62
214.375	10.24
214.594	-6.14
214.812	24.58
215.031	22.53
215.249	43.01
215.467	12.29
215.686	90.11
215.904	6.14
216.122	-2.05
216.341	69.63
216.559	71.68
216.778	47.1
216.996	98.3
217.214	83.97
217.432	32.77
217.651	90.11
217.869	53.25
218.087	-34.82
218.306	83.97
218.524	75.77
218.742	75.77
218.96	98.3
219.179	-0
219.397	59.39
219.615	112.64
219.833	24.58
220.051	28.67
220.27	86.01
220.488	61.44
220.706	40.96
220.924	22.53
221.142	59.39
221.36	26.62
221.578	30.72
221.796	-16.38
222.015	-10.24
222.233	53.25
222.451	73.73
222.669	12.29
222.887	118.78
223.105	73.73
223.323	12.29
223.541	32.77
223.759	122.88
223.977	59.39
224.195	151.55
224.413	26.62
224.631	71.68
224.849	63.49
225.067	94.21
225.285	40.96
225.503	-2.05
225.721	-4.1
225.939	-0
226.157	-38.91
226.375	79.87
226.592	-8.19
226.81	73.73
227.028	59.39
227.246	69.63
227.464	61.44
227.682	40.96
227.9	-55.3
228.117	40.96
228.335	18.43
228.553	-8.19
228.771	106.49
228.989	43.01
229.206	28.67
229.424	34.82
229.642	71.68
229.86	18.43
230.077	47.1
230.295	34.82
230.513	106.49
230.731	34.82
230.948	118.78
231.166	16.38
231.384	124.93
231.601	51.2
231.819	34.82
232.037	43.01
232.254	-14.34
232.472	24.58
232.689	-30.72
232.907	-10.24
233.125	-0
233.342	34.82
233.56	-14.34
233.777	65.53
233.995	34.82
234.213	112.64
234.43	51.2
234.648	49.15
234.865	83.97
235.083	-43.01
235.3	49.15
235.518	-36.86
235.735	36.86
235.953	-34.82
236.17	-28.67
236.388	38.91
236.605	133.12
236.822	112.64
237.04	96.25
237.257	14.34
237.475	51.2
237.692	94.21
237.909	55.3
238.127	34.82
238.344	81.92
238.562	-18.43
238.779	8.19
238.996	6.14
239.214	40.96
239.431	94.21
239.648	8.19
239.865	12.29
240.083	133.12
240.3	69.63
240.517	-2.05
240.735	67.58
240.952	100.35
241.169	86.01
241.386	45.06
241.603	51.2
241.821	34.82
242.038	38.91
242.255	14.34
242.472	75.77
242.689	88.06
242.907	63.49
243.124	49.15
243.341	-0
243.558	-59.39
243.775	2.05
243.992	-14.34
244.209	61.44
244.426	22.53
244.643	47.1
244.86	-22.53
245.078	-14.34
245.295	71.68
245.512	69.63
245.729	2.05
245.946	49.15
246.163	53.25
246.38	-26.62
246.597	2.05
246.814	10.24
247.031	30.72
247.248	24.58
247.464	75.77
247.681	51.2
247.898	2.05
248.115	16.38
248.332	63.49
248.549	2.05
248.766	69.63
248.983	26.62
249.2	-20.48
249.417	69.63
249.633	2.05
249.85	116.73
250.067	28.67
250.284	53.25
250.501	79.87
250.717	96.25
250.934	10.24
251.151	71.68
251.368	10.24
251.585	-45.06
251.801	16.38
252.018	43.01
252.235	75.77
252.451	30.72
252.668	2.05
252.885	77.82
253.102	47.1
253.318	-36.86
253.535	26.62
253.752	-0
253.968	10.24
254.185	22.53
254.401	18.43
254.618	112.64
254.835	96.25
255.051	49.15
255.268	-12.29
255.484	79.87
255.701	16.38
255.917	14.34
256.134	14.34
256.351	51.2
256.567	45.06
256.784	69.63
257	4.1
257.217	40.96
257.433	112.64
257.65	43.01
257.866	59.39
258.082	10.24
258.299	2.05
258.515	61.44
258.732	57.34
258.948	8.19
259.165	77.82
259.381	-32.77
259.597	112.64
259.814	26.62
260.03	-47.1
260.246	112.64
260.463	75.77
260.679	149.5
260.895	36.86
261.112	32.77
261.328	55.3
261.544	10.24
261.761	75.77
261.977	24.58
262.193	-22.53
262.409	96.25
262.626	22.53
262.842	53.25
263.058	57.34
263.274	-47.1
263.49	81.92
263.707	83.97
263.923	-10.24
264.139	129.02
264.355	-18.43
264.571	73.73
264.787	81.92
265.004	55.3
265.22	20.48
265.436	-47.1
265.652	51.2
265.868	6.14
266.084	43.01
266.3	10.24
266.516	83.97
266.732	14.34
266.948	26.62
267.164	30.72
267.38	16.38
267.596	12.29
267.812	59.39
268.028	55.3
268.244	32.77
268.46	65.53
268.676	43.01
268.892	71.68
269.108	43.01
269.324	-8.19
269.54	59.39
269.756	49.15
269.972	28.67
270.188	-47.1
270.403	24.58
270.619	36.86
270.835	61.44
271.051	86.01
271.267	69.63
271.483	55.3
271.698	98.3
271.914	57.34
272.13	-10.24
272.346	40.96
272.562	59.39
272.777	16.38
272.993	71.68
273.209	-16.38
273.425	108.54
273.64	90.11
273.856	30.72
274.072	-8.19
274.287	12.29
274.503	63.49
274.719	75.77
274.934	6.14
275.15	18.43
275.366	30.72
275.581	65.53
275.797	-14.34
276.012	43.01
276.228	-30.72
276.444	8.19
276.659	65.53
276.875	18.43
277.09	65.53
277.306	-10.24
277.521	73.73
277.737	-10.24
277.952	47.1
278.168	16.38
278.383	45.06
278.599	-38.91
278.814	92.16
279.03	10.24
279.245	104.45
279.461	24.58
279.676	38.91
279.892	-10.24
280.107	49.15
280.322	-0
280.538	-49.15
280.753	-40.96
280.969	108.54
281.184	-8.19
281.399	75.77
281.615	-8.19
281.83	34.82
282.045	-6.14
282.26	65.53
282.476	59.39
282.691	92.16
282.906	63.49
283.122	96.25
283.337	65.53
283.552	-6.14
283.767	26.62
283.983	-18.43
284.198	51.2
284.413	71.68
284.628	51.2
284.843	49.15
285.058	106.49
285.274	86.01
285.489	-16.38
285.704	18.43
285.919	36.86
286.134	59.39
286.349	116.73
286.564	67.58
286.779	30.72
286.995	55.3
287.21	28.67
287.425	38.91
287.64	73.73
287.855	43.01
288.07	-22.53
288.285	83.97
288.5	49.15
288.715	90.11
288.93	59.39
289.145	12.29
289.36	79.87
289.575	116.73
289.79	30.72
290.004	96.25
290.219	-6.14
290.434	-40.96
290.649	14.34
290.864	55.3
291.079	-18.43
291.294	77.82
291.509	43.01
291.724	30.72
291.938	38.91
292.153	51.2
292.368	-4.1
292.583	61.44
292.798	81.92
293.012	88.06
293.227	12.29
293.442	38.91
293.657	51.2
293.871	47.1
294.086	8.19
294.301	24.58
294.516	45.06
294.73	14.34
294.945	-49.15
295.16	55.3
295.374	38.91
295.589	43.01
295.804	14.34
296.018	116.73
296.233	55.3
296.447	28.67
296.662	63.49
296.877	59.39
297.091	65.53
297.306	20.48
297.52	8.19
297.735	69.63
297.949	43.01
298.164	145.41
298.378	40.96
298.593	59.39
298.807	-0
299.022	81.92
299.236	45.06
299.451	38.91
299.665	-10.24
299.88	16.38
300.094	6.14
300.309	-8.19
300.523	14.34
300.737	28.67
300.952	67.58
301.166	36.86
301.381	4.1
301.595	6.14
301.809	51.2
302.024	-22.53
302.238	-6.14
302.452	77.82
302.667	65.53
302.881	79.87
303.095	2.05
303.309	-14.34
303.524	-0
303.738	-6.14
303.952	-43.01
304.166	86.01
304.381	18.43
304.595	86.01
304.809	-14.34
305.023	-8.19
305.237	45.06
305.452	90.11
305.666	38.91
305.88	28.67
306.094	112.64
306.308	104.45
306.522	51.2
306.736	61.44
306.95	102.4
307.164	129.02
307.379	-6.14
307.593	67.58
307.807	71.68
308.021	6.14
308.235	47.1
308.449	49.15
308.663	26.62
308.877	108.54
309.091	40.96
309.305	-20.48
309.519	-47.1
309.733	114.69
309.947	6.14
310.161	40.96
310.374	108.54
310.588	100.35
310.802	12.29
311.016	53.25
311.23	79.87
311.444	-61.44
311.658	51.2
311.872	92.16
312.085	43.01
312.299	110.59
312.513	77.82
312.727	34.82
312.941	10.24
313.154	49.15
313.368	-6.14
313.582	65.53
313.796	-12.29
314.009	67.58
314.223	86.01
314.437	75.77
314.651	14.34
314.864	65.53
315.078	47.1
315.292	-20.48
315.505	30.72
315.719	8.19
315.933	-6.14
316.146	34.82
316.36	2.05
316.573	83.97
316.787	77.82
317.001	63.49
317.214	-38.91
317.428	51.2
317.641	86.01
317.855	122.88
318.068	36.86
318.282	14.34
318.495	43.01
318.709	32.77
318.922	43.01
319.136	104.45
319.349	26.62
319.563	20.48
319.776	-0
319.99	6.14
320.203	38.91
320.417	112.64
320.63	96.25
320.843	75.77
321.057	32.77
321.27	71.68
321.483	34.82
321.697	116.73
321.91	43.01
322.124	112.64
322.337	81.92
322.55	32.77
322.763	38.91
322.977	69.63
323.19	6.14
323.403	77.82
323.617	30.72
323.83	65.53
324.043	30.72
324.256	67.58
324.469	20.48
324.683	55.3
324.896	59.39
325.109	112.64
325.322	34.82
325.535	81.92
325.748	118.78
325.962	16.38
326.175	73.73
326.388	73.73
326.601	40.96
326.814	47.1
327.027	116.73
327.24	108.54
327.453	-26.62
327.666	34.82
327.879	102.4
328.092	106.49
328.305	12.29
328.518	73.73
328.731	30.72
328.944	18.43
329.157	2.05
329.37	40.96
329.583	38.91
329.796	116.73
330.009	45.06
330.222	51.2
330.435	81.92
330.648	53.25
330.861	14.34
331.073	75.77
331.286	69.63
331.499	69.63
331.712	-14.34
331.925	153.6
332.138	30.72
332.35	22.53
332.563	59.39
332.776	47.1
332.989	-12.29
333.202	30.72
333.414	77.82
333.627	10.24
333.84	45.06
334.053	65.53
334.265	47.1
334.478	2.05
334.691	30.72
334.903	53.25
335.116	24.58
335.329	88.06
335.541	92.16
335.754	81.92
335.966	53.25
336.179	79.87
336.392	73.73
336.604	92.16
336.817	-18.43
337.029	30.72
337.242	38.91
337.454	55.3
337.667	10.24
337.88	108.54
338.092	36.86
338.305	71.68
338.517	79.87
338.729	67.58
338.942	92.16
339.154	6.14
339.367	67.58
339.579	-16.38
339.792	63.49
340.004	120.83
340.217	34.82
340.429	90.11
340.641	-2.05
340.854	59.39
341.066	30.72
341.278	94.21
341.491	92.16
341.703	108.54
341.915	57.34
342.128	92.16
342.34	153.6
342.552	59.39
342.764	55.3
342.977	94.21
343.189	71.68
343.401	6.14
343.613	22.53
343.826	75.77
344.038	36.86
344.25	90.11
344.462	51.2
344.674	61.44
344.886	14.34
345.099	28.67
345.311	53.25
345.523	38.91
345.735	-14.34
345.947	47.1
346.159	47.1
346.371	10.24
346.583	-10.24
346.795	174.08
347.007	55.3
347.219	67.58
347.431	16.38
347.643	2.05
347.855	38.91
348.067	71.68
348.279	47.1
348.491	30.72
348.703	100.35
348.915	75.77
349.127	24.58
349.339	61.44
349.551	14.34
349.763	-51.2
349.975	51.2
350.187	10.24
350.399	20.48
350.61	40.96
350.822	57.34
351.034	98.3
351.246	90.11
351.458	67.58
351.669	65.53
351.881	30.72
352.093	-30.72
352.305	20.48
352.517	10.24
352.728	92.16
352.94	104.45
353.152	51.2
353.363	10.24
353.575	81.92
353.787	83.97
353.999	-10.24
354.21	18.43
354.422	18.43
354.633	90.11
354.845	34.82
355.057	43.01
355.268	102.4
355.48	49.15
355.692	47.1
355.903	83.97
356.115	45.06
356.326	34.82
356.538	75.77
356.749	102.4
356.961	83.97
357.172	-12.29
357.384	34.82
357.595	108.54
357.807	-2.05
358.018	12.29
358.23	63.49
358.441	169.98
358.653	55.3
358.864	16.38
359.075	14.34
359.287	6.14
359.498	81.92
359.709	104.45
359.921	116.73
360.132	100.35
360.344	16.38
360.555	51.2
360.766	81.92
360.977	106.49
361.189	59.39
361.4	104.45
361.611	36.86
361.823	45.06
362.034	83.97
362.245	18.43
362.456	30.72
362.667	26.62
362.879	8.19
363.09	112.64
363.301	45.06
363.512	71.68
363.723	-6.14
363.935	49.15
364.146	59.39
364.357	32.77
364.568	94.21
364.779	8.19
364.99	114.69
365.201	75.77
365.412	106.49
365.623	40.96
365.834	69.63
366.045	30.72
366.256	98.3
366.467	40.96
366.678	71.68
366.889	38.91
367.1	40.96
367.311	96.25
367.522	71.68
367.733	92.16
367.944	2.05
368.155	22.53
368.366	59.39
368.577	67.58
368.788	67.58
368.999	34.82
369.209	18.43
369.42	186.37
369.631	100.35
369.842	88.06
370.053	47.1
370.264	129.02
370.474	30.72
370.685	104.45
370.896	57.34
371.107	65.53
371.317	71.68
371.528	-51.2
371.739	51.2
371.95	32.77
372.16	75.77
372.371	2.05
372.582	120.83
372.792	8.19
373.003	61.44
373.214	100.35
373.424	98.3
373.635	-0
373.846	57.34
374.056	24.58
374.267	88.06
374.477	38.91
374.688	96.25
374.898	55.3
375.109	18.43
375.319	30.72
375.53	59.39
375.74	22.53
375.951	30.72
376.161	47.1
376.372	100.35
376.582	-22.53
376.793	124.93
377.003	8.19
377.214	100.35
377.424	81.92
377.635	-6.14
377.845	59.39
378.055	145.41
378.266	22.53
378.476	14.34
378.686	43.01
378.897	55.3
379.107	83.97
379.317	28.67
379.528	30.72
379.738	94.21
379.948	2.05
380.158	96.25
380.369	96.25
380.579	28.67
380.789	24.58
380.999	45.06
381.21	96.25
381.42	67.58
381.63	30.72
381.84	98.3
382.05	83.97
382.261	81.92
382.471	98.3
382.681	53.25
382.891	157.69
383.101	30.72
383.311	69.63
383.521	73.73
383.731	67.58
383.941	104.45
384.151	65.53
384.361	73.73
384.571	114.69
384.781	49.15
384.991	145.41
385.201	165.89
385.411	124.93
385.621	94.21
385.831	10.24
386.041	79.87
386.251	96.25
386.461	38.91
386.671	79.87
386.881	63.49
387.091	108.54
387.301	83.97
387.511	38.91
387.72	83.97
387.93	98.3
388.14	88.06
388.35	63.49
388.56	94.21
388.769	79.87
388.979	59.39
389.189	-4.1
389.399	40.96
389.609	108.54
389.818	96.25
390.028	63.49
390.238	92.16
390.447	18.43
390.657	30.72
390.867	108.54
391.076	55.3
391.286	55.3
391.496	38.91
391.705	59.39
391.915	120.83
392.125	137.21
392.334	38.91
392.544	67.58
392.753	108.54
392.963	73.73
393.172	47.1
393.382	75.77
393.591	88.06
393.801	49.15
394.01	116.73
394.22	126.97
394.429	90.11
394.639	88.06
394.848	67.58
395.058	92.16
395.267	88.06
395.477	-10.24
395.686	176.13
395.895	206.84
396.105	124.93
396.314	79.87
396.524	83.97
396.733	141.31
396.942	55.3
397.152	57.34
397.361	90.11
397.57	165.89
397.78	118.78
397.989	190.46
398.198	112.64
398.407	118.78
398.617	182.27
398.826	116.73
399.035	94.21
399.244	149.5
399.453	178.17
399.663	133.12
399.872	120.83
400.081	-8.19
400.29	98.3
400.499	110.59
400.708	126.97
400.917	153.6
401.127	147.45
401.336	67.58
401.545	149.5
401.754	143.36
401.963	174.08
402.172	98.3
402.381	75.77
402.59	114.69
402.799	161.79
403.008	65.53
403.217	129.02
403.426	116.73
403.635	129.02
403.844	145.41
404.053	147.45
404.262	149.5
404.471	167.93
404.68	106.49
404.888	217.08
405.097	157.69
405.306	198.65
405.515	212.99
405.724	165.89
405.933	176.13
406.142	59.39
406.35	153.6
406.559	219.13
406.768	174.08
406.977	260.09
407.185	229.37
407.394	174.08
407.603	157.69
407.812	292.86
408.02	223.23
408.229	210.94
408.438	204.8
408.646	280.57
408.855	212.99
409.064	290.81
409.272	296.96
409.481	354.3
409.69	294.91
409.898	296.96
410.107	327.67
410.315	331.77
410.524	352.25
410.733	286.72
410.941	399.35
411.15	391.16
411.358	444.41
411.567	454.65
411.775	358.39
411.984	456.7
412.192	413.69
412.401	428.03
412.609	559.1
412.818	493.56
413.026	548.86
413.234	628.73
413.443	505.85
413.651	624.63
413.86	581.62
414.068	589.81
414.276	729.08
414.485	624.63
414.693	661.49
414.901	706.55
415.11	735.22
415.318	804.85
415.526	702.45
415.734	763.89
415.943	778.23
416.151	849.91
416.359	880.63
416.567	950.26
416.776	985.07
416.984	1093.62
417.192	1017.84
417.4	1009.65
417.608	1028.08
417.817	1114.09
418.025	1122.29
418.233	1175.53
418.441	1200.11
418.649	1214.45
418.857	1353.71
419.065	1368.04
419.273	1384.43
419.481	1513.45
419.689	1523.69
419.897	1554.41
420.105	1658.85
420.313	1644.52
420.521	1632.23
420.729	1791.97
420.937	1683.43
421.145	1912.8
421.353	1906.66
421.561	1990.63
421.769	2082.78
421.977	2205.66
422.185	2127.84
422.393	2314.2
422.601	2426.84
422.809	2424.79
423.017	2416.6
423.224	2385.88
423.432	2684.89
423.64	2580.44
423.848	2746.33
424.056	2781.14
424.263	3016.66
424.471	2893.78
424.679	3076.05
424.887	3327.95
425.094	3438.54
425.302	3393.48
425.51	3508.17
425.718	3510.22
425.925	3573.71
426.133	3735.49
426.341	3991.49
426.548	4179.9
426.756	4095.94
426.964	4233.15
427.171	4333.5
427.379	4493.24
427.586	4581.31
427.794	4859.83
428.001	4837.3
428.209	5363.63
428.417	4980.66
428.624	5320.62
428.832	5406.64
429.039	5425.07
429.247	5406.64
429.454	5818.28
429.662	6211.49
429.869	5767.08
430.076	6461.34
430.284	6274.98
430.491	6410.14
430.699	6848.41
430.906	6985.62
431.114	6961.05
431.321	7085.97
431.528	7255.95
431.736	7772.04
431.943	8152.96
432.15	7937.93
432.358	8124.29
432.565	8558.46
432.772	8595.32
432.979	8757.11
433.187	9017.21
433.394	9119.6
433.601	9369.46
433.808	9650.03
434.016	9582.45
434.223	9938.79
434.43	10600.29
434.637	10475.36
434.844	11104.09
435.052	11515.73
435.259	11253.59
435.466	11212.63
435.673	11286.36
435.88	11923.27
436.087	12492.61
436.294	12592.96
436.501	12193.61
436.708	12365.64
436.915	12789.56
437.122	13662
437.329	13553.46
437.537	13662
437.743	14069.55
437.95	13909.8
438.157	14532.39
438.364	15003.42
438.571	15238.94
438.778	15324.95
438.985	16588.55
439.192	15763.22
439.399	16441.09
439.606	15896.33
439.813	16994.04
440.02	18026.22
440.227	17663.73
440.433	17690.35
440.64	18269.93
440.847	17821.42
441.054	18736.87
441.261	19846.87
441.467	19152.6
441.674	19967.7
441.881	20420.3
442.088	20700.87
442.294	20512.45
442.501	20891.33
442.708	21196.48
442.914	22138.54
443.121	23008.93
443.328	22511.27
443.534	24209.04
443.741	23209.63
443.948	22597.29
444.154	24731.27
444.361	24616.58
444.568	24663.69
444.774	24620.68
444.981	24958.6
445.187	25880.18
445.394	26560.11
445.6	26412.65
445.807	29058.63
446.013	27907.67
446.22	28280.4
446.426	29079.11
446.633	29795.9
446.839	30211.63
447.046	29269.57
447.252	30785.07
447.459	30909.99
447.665	30856.75
447.871	32282.13
448.078	33342.98
448.284	31827.48
448.491	32531.98
448.697	34022.9
448.903	34129.4
449.11	34584.05
449.316	33504.77
449.522	34704.88
449.728	35341.8
449.935	35513.83
450.141	35679.71
450.347	36255.19
450.553	34870.76
450.76	35597.79
450.966	36595.15
451.172	36199.9
451.378	37275.08
451.584	36584.91
451.791	37250.5
451.997	37039.56
452.203	37514.69
452.409	37596.61
452.615	37103.05
452.821	36077.02
453.027	35352.04
453.233	37215.69
453.44	36085.21
453.646	36216.28
453.852	36349.4
454.058	36689.36
454.264	35511.78
454.47	36492.76
454.676	35374.56
454.882	36926.92
455.088	33762.81
455.294	34121.21
455.5	34459.12
455.705	34858.48
455.911	33400.32
456.117	33060.36
456.323	32243.22
456.529	30563.89
456.735	31825.43
456.941	30930.47
457.147	30590.51
457.352	30051.89
457.558	29122.12
457.764	28952.13
457.97	28284.5
458.176	28073.56
458.381	27989.59
458.587	26490.48
458.793	26642.03
458.999	25351.81
459.204	26898.02
459.41	26318.45
459.616	24411.79
459.821	24399.5
460.027	24594.06
460.233	24098.45
460.438	22763.17
460.644	23172.77
460.85	22109.87
461.055	21798.58
461.261	21753.52
461.466	20033.23
461.672	19474.13
461.878	20805.31
462.083	19453.66
462.289	19062.49
462.494	19183.32
462.7	18065.13
462.905	17614.58
463.111	18149.1
463.316	18112.24
463.522	18009.84
463.727	18099.95
463.932	18007.79
464.138	17526.52
464.343	17770.22
464.549	17018.62
464.754	18028.27
464.959	17708.79
465.165	17694.45
465.37	16914.17
465.575	16373.51
465.781	17272.57
465.986	17211.13
466.191	16432.9
466.397	16310.02
466.602	15523.6
466.807	16013.07
467.012	15935.24
467.218	16068.36
467.423	15736.59
467.628	15820.56
