Data from USB4F104151__26__10-21-37-948.txt Node

Date: Wed Mar 12 10:21:37 EDT 2025
User: louis
Spectrometer: USB4F10415
Trigger mode: 4
Integration Time (sec): 3.000000E-2
Scans to average: 1
Electric dark correction enabled: true
Nonlinearity correction enabled: false
Boxcar width: 0
XAxis mode: Wavelengths
Number of Pixels in Spectrum: 3648
>>>>>Begin Spectral Data<<<<<
178.204	-52.39
178.424	-52.39
178.644	-52.39
178.864	-111.78
179.084	-111.78
179.304	21.33
179.524	-85.16
179.744	-42.15
179.964	101.2
180.184	-36.01
180.404	9.05
180.624	-27.82
180.844	-9.39
181.064	-19.63
181.283	80.72
181.503	9.05
181.723	-1.19
181.943	-44.2
182.163	129.88
182.383	29.52
182.602	47.96
182.822	58.2
183.042	-17.58
183.262	33.62
183.482	-11.43
183.701	33.62
183.921	43.86
184.141	-42.15
184.361	-54.44
184.58	7
184.8	-29.87
185.02	-81.07
185.239	43.86
185.459	-31.91
185.679	25.43
185.898	31.57
186.118	88.92
186.338	13.14
186.557	17.24
186.777	-27.82
186.997	23.38
187.216	-44.2
187.436	62.29
187.655	-5.29
187.875	107.35
188.095	39.76
188.314	74.58
188.534	31.57
188.753	9.05
188.973	86.87
189.192	13.14
189.412	-1.19
189.631	70.48
189.851	31.57
190.07	27.48
190.29	-83.11
190.509	7
190.729	-54.44
190.948	78.68
191.168	47.96
191.387	72.53
191.607	-15.53
191.826	25.43
192.045	7
192.265	-3.24
192.484	-72.87
192.704	-3.24
192.923	21.33
193.142	66.39
193.362	107.35
193.581	17.24
193.8	4.95
194.02	43.86
194.239	29.52
194.458	23.38
194.678	21.33
194.897	-64.68
195.116	41.81
195.335	97.11
195.555	2.9
195.774	-76.97
195.993	-40.11
196.212	13.14
196.432	-40.11
196.651	47.96
196.87	15.19
197.089	90.96
197.308	7
197.528	86.87
197.747	-19.63
197.966	9.05
198.185	47.96
198.404	-19.63
198.623	74.58
198.842	9.05
199.062	29.52
199.281	27.48
199.5	-27.82
199.719	68.44
199.938	-31.91
200.157	-19.63
200.376	47.96
200.595	127.83
200.814	-21.67
201.033	0.85
201.252	78.68
201.471	19.29
201.69	58.2
201.909	97.11
202.128	-7.34
202.347	-44.2
202.566	17.24
202.785	21.33
203.004	13.14
203.223	41.81
203.442	15.19
203.661	29.52
203.879	70.48
204.098	15.19
204.317	-23.72
204.536	4.95
204.755	25.43
204.974	21.33
205.193	-9.39
205.411	99.16
205.63	-44.2
205.849	-27.82
206.068	62.29
206.287	0.85
206.505	37.72
206.724	62.29
206.943	-17.58
207.162	-40.11
207.381	13.14
207.599	9.05
207.818	50
208.037	64.34
208.255	-54.44
208.474	27.48
208.693	-9.39
208.911	31.57
209.13	103.25
209.349	58.2
209.567	-38.06
209.786	0.85
210.005	50
210.223	21.33
210.442	-1.19
210.661	7
210.879	-11.43
211.098	21.33
211.316	27.48
211.535	15.19
211.753	-15.53
211.972	-40.11
212.191	-33.96
212.409	70.48
212.628	-13.48
212.846	17.24
213.065	-17.58
213.283	97.11
213.502	9.05
213.72	21.33
213.938	66.39
214.157	-3.24
214.375	56.15
214.594	-7.34
214.812	97.11
215.031	19.29
215.249	-15.53
215.467	-7.34
215.686	-23.72
215.904	45.91
216.122	39.76
216.341	-1.19
216.559	33.62
216.778	50
216.996	-31.91
217.214	62.29
217.432	41.81
217.651	15.19
217.869	4.95
218.087	-52.39
218.306	13.14
218.524	-15.53
218.742	62.29
218.96	64.34
219.179	-19.63
219.397	31.57
219.615	54.1
219.833	7
220.051	56.15
220.27	31.57
220.488	17.24
220.706	41.81
220.924	27.48
221.142	-21.67
221.36	47.96
221.578	-11.43
221.796	2.9
222.015	9.05
222.233	-36.01
222.451	64.34
222.669	-76.97
222.887	47.96
223.105	31.57
223.323	11.09
223.541	-1.19
223.759	13.14
223.977	11.09
224.195	-17.58
224.413	64.34
224.631	17.24
224.849	19.29
225.067	41.81
225.285	-36.01
225.503	17.24
225.721	4.95
225.939	27.48
226.157	4.95
226.375	62.29
226.592	0.85
226.81	39.76
227.028	82.77
227.246	47.96
227.464	70.48
227.682	58.2
227.9	45.91
228.117	25.43
228.335	25.43
228.553	64.34
228.771	-11.43
228.989	43.86
229.206	-7.34
229.424	-3.24
229.642	-54.44
229.86	70.48
230.077	23.38
230.295	19.29
230.513	39.76
230.731	-52.39
230.948	-48.3
231.166	37.72
231.384	31.57
231.601	82.77
231.819	13.14
232.037	90.96
232.254	50
232.472	19.29
232.689	62.29
232.907	33.62
233.125	58.2
233.342	-15.53
233.56	95.06
233.777	9.05
233.995	50
234.213	29.52
234.43	-25.77
234.648	39.76
234.865	-1.19
235.083	17.24
235.3	-1.19
235.518	35.67
235.735	109.4
235.953	111.44
236.17	9.05
236.388	-29.87
236.605	39.76
236.822	95.06
237.04	64.34
237.257	-7.34
237.475	-7.34
237.692	9.05
237.909	31.57
238.127	13.14
238.344	58.2
238.562	43.86
238.779	-44.2
238.996	66.39
239.214	56.15
239.431	43.86
239.648	-31.91
239.865	60.24
240.083	11.09
240.3	56.15
240.517	-72.87
240.735	19.29
240.952	54.1
241.169	13.14
241.386	-19.63
241.603	13.14
241.821	-1.19
242.038	74.58
242.255	39.76
242.472	-56.49
242.689	27.48
242.907	76.63
243.124	56.15
243.341	50
243.558	27.48
243.775	15.19
243.992	-36.01
244.209	25.43
244.426	117.59
244.643	52.05
244.86	-11.43
245.078	-44.2
245.295	-13.48
245.512	-7.34
245.729	-1.19
245.946	0.85
246.163	41.81
246.38	-13.48
246.597	-19.63
246.814	41.81
247.031	50
247.248	25.43
247.464	39.76
247.681	9.05
247.898	19.29
248.115	-17.58
248.332	-36.01
248.549	15.19
248.766	25.43
248.983	35.67
249.2	52.05
249.417	9.05
249.633	-33.96
249.85	58.2
250.067	0.85
250.284	47.96
250.501	17.24
250.717	7
250.934	-3.24
251.151	-1.19
251.368	-31.91
251.585	56.15
251.801	0.85
252.018	-40.11
252.235	64.34
252.451	-36.01
252.668	0.85
252.885	39.76
253.102	70.48
253.318	50
253.535	11.09
253.752	-17.58
253.968	-50.35
254.185	37.72
254.401	-29.87
254.618	54.1
254.835	21.33
255.051	-27.82
255.268	33.62
255.484	15.19
255.701	-21.67
255.917	31.57
256.134	25.43
256.351	13.14
256.567	-5.29
256.784	56.15
257	52.05
257.217	105.3
257.433	105.3
257.65	47.96
257.866	-19.63
258.082	23.38
258.299	-31.91
258.515	35.67
258.732	-31.91
258.948	17.24
259.165	131.92
259.381	66.39
259.597	29.52
259.814	33.62
260.03	-17.58
260.246	9.05
260.463	9.05
260.679	54.1
260.895	-7.34
261.112	-40.11
261.328	0.85
261.544	-11.43
261.761	117.59
261.977	25.43
262.193	41.81
262.409	58.2
262.626	58.2
262.842	99.16
263.058	13.14
263.274	41.81
263.49	78.68
263.707	35.67
263.923	-3.24
264.139	-7.34
264.355	-23.72
264.571	82.77
264.787	7
265.004	-25.77
265.22	-23.72
265.436	78.68
265.652	-44.2
265.868	-15.53
266.084	15.19
266.3	-1.19
266.516	17.24
266.732	52.05
266.948	0.85
267.164	27.48
267.38	19.29
267.596	11.09
267.812	62.29
268.028	29.52
268.244	11.09
268.46	31.57
268.676	-9.39
268.892	17.24
269.108	-58.54
269.324	47.96
269.54	-48.3
269.756	101.2
269.972	-31.91
270.188	-3.24
270.403	9.05
270.619	45.91
270.835	60.24
271.051	-36.01
271.267	9.05
271.483	43.86
271.698	-9.39
271.914	13.14
272.13	-58.54
272.346	66.39
272.562	60.24
272.777	17.24
272.993	23.38
273.209	29.52
273.425	70.48
273.64	-31.91
273.856	47.96
274.072	-9.39
274.287	-7.34
274.503	0.85
274.719	78.68
274.934	17.24
275.15	25.43
275.366	-7.34
275.581	41.81
275.797	-15.53
276.012	9.05
276.228	-9.39
276.444	9.05
276.659	99.16
276.875	-29.87
277.09	-3.24
277.306	-31.91
277.521	62.29
277.737	76.63
277.952	115.54
278.168	-7.34
278.383	39.76
278.599	47.96
278.814	125.78
279.03	80.72
279.245	86.87
279.461	23.38
279.676	13.14
279.892	-7.34
280.107	35.67
280.322	-9.39
280.538	-7.34
280.753	-36.01
280.969	2.9
281.184	52.05
281.399	103.25
281.615	39.76
281.83	45.91
282.045	-42.15
282.26	-15.53
282.476	-46.25
282.691	37.72
282.906	9.05
283.122	17.24
283.337	-13.48
283.552	97.11
283.767	-33.96
283.983	54.1
284.198	-1.19
284.413	45.91
284.628	50
284.843	11.09
285.058	72.53
285.274	-33.96
285.489	13.14
285.704	95.06
285.919	33.62
286.134	-19.63
286.349	17.24
286.564	-48.3
286.779	54.1
286.995	-5.29
287.21	-38.06
287.425	60.24
287.64	66.39
287.855	21.33
288.07	-33.96
288.285	117.59
288.5	47.96
288.715	54.1
288.93	68.44
289.145	-21.67
289.36	66.39
289.575	90.96
289.79	45.91
290.004	45.91
290.219	74.58
290.434	7
290.649	-5.29
290.864	-36.01
291.079	11.09
291.294	-29.87
291.509	0.85
291.724	66.39
291.938	39.76
292.153	47.96
292.368	13.14
292.583	-17.58
292.798	56.15
293.012	50
293.227	17.24
293.442	29.52
293.657	-25.77
293.871	4.95
294.086	64.34
294.301	66.39
294.516	23.38
294.73	66.39
294.945	33.62
295.16	43.86
295.374	-38.06
295.589	25.43
295.804	9.05
296.018	-19.63
296.233	37.72
296.447	54.1
296.662	-44.2
296.877	-64.68
297.091	15.19
297.306	58.2
297.52	-11.43
297.735	-25.77
297.949	-5.29
298.164	25.43
298.378	41.81
298.593	27.48
298.807	27.48
299.022	99.16
299.236	4.95
299.451	-21.67
299.665	47.96
299.88	17.24
300.094	-17.58
300.309	-15.53
300.523	50
300.737	-7.34
300.952	78.68
301.166	97.11
301.381	4.95
301.595	-9.39
301.809	11.09
302.024	-60.59
302.238	-11.43
302.452	25.43
302.667	17.24
302.881	45.91
303.095	-9.39
303.309	-25.77
303.524	-1.19
303.738	4.95
303.952	41.81
304.166	-15.53
304.381	-56.49
304.595	13.14
304.809	37.72
305.023	13.14
305.237	23.38
305.452	17.24
305.666	56.15
305.88	127.83
306.094	-15.53
306.308	-3.24
306.522	109.4
306.736	27.48
306.95	2.9
307.164	68.44
307.379	-36.01
307.593	123.73
307.807	37.72
308.021	101.2
308.235	-44.2
308.449	54.1
308.663	29.52
308.877	58.2
309.091	29.52
309.305	56.15
309.519	-27.82
309.733	111.44
309.947	-29.87
310.161	43.86
310.374	47.96
310.588	27.48
310.802	50
311.016	-33.96
311.23	74.58
311.444	17.24
311.658	-5.29
311.872	31.57
312.085	62.29
312.299	9.05
312.513	-7.34
312.727	64.34
312.941	50
313.154	29.52
313.368	-19.63
313.582	25.43
313.796	31.57
314.009	-17.58
314.223	54.1
314.437	64.34
314.651	64.34
314.864	4.95
315.078	13.14
315.292	-11.43
315.505	-50.35
315.719	17.24
315.933	-25.77
316.146	-15.53
316.36	0.85
316.573	23.38
316.787	99.16
317.001	50
317.214	21.33
317.428	41.81
317.641	-48.3
317.855	37.72
318.068	25.43
318.282	119.64
318.495	45.91
318.709	62.29
318.922	-42.15
319.136	45.91
319.349	123.73
319.563	-3.24
319.776	86.87
319.99	-19.63
320.203	60.24
320.417	68.44
320.63	17.24
320.843	35.67
321.057	39.76
321.27	35.67
321.483	2.9
321.697	58.2
321.91	41.81
322.124	68.44
322.337	-7.34
322.55	25.43
322.763	33.62
322.977	33.62
323.19	21.33
323.403	-44.2
323.617	37.72
323.83	2.9
324.043	50
324.256	50
324.469	-15.53
324.683	31.57
324.896	47.96
325.109	-5.29
325.322	-68.78
325.535	68.44
325.748	9.05
325.962	39.76
326.175	33.62
326.388	19.29
326.601	74.58
326.814	78.68
327.027	-60.59
327.24	39.76
327.453	-19.63
327.666	66.39
327.879	66.39
328.092	129.88
328.305	54.1
328.518	68.44
328.731	64.34
328.944	-11.43
329.157	9.05
329.37	84.82
329.583	35.67
329.796	21.33
330.009	13.14
330.222	45.91
330.435	74.58
330.648	31.57
330.861	-3.24
331.073	31.57
331.286	56.15
331.499	-40.11
331.712	-11.43
331.925	131.92
332.138	9.05
332.35	-33.96
332.563	7
332.776	62.29
332.989	-60.59
333.202	-48.3
333.414	-62.63
333.627	47.96
333.84	21.33
334.053	70.48
334.265	54.1
334.478	-31.91
334.691	19.29
334.903	50
335.116	31.57
335.329	31.57
335.541	86.87
335.754	80.72
335.966	-1.19
336.179	31.57
336.392	27.48
336.604	37.72
336.817	115.54
337.029	56.15
337.242	13.14
337.454	39.76
337.667	37.72
337.88	23.38
338.092	74.58
338.305	41.81
338.517	-42.15
338.729	80.72
338.942	45.91
339.154	0.85
339.367	-1.19
339.579	41.81
339.792	25.43
340.004	62.29
340.217	37.72
340.429	29.52
340.641	41.81
340.854	0.85
341.066	84.82
341.278	66.39
341.491	123.73
341.703	-11.43
341.915	47.96
342.128	76.63
342.34	93.01
342.552	17.24
342.764	74.58
342.977	45.91
343.189	17.24
343.401	52.05
343.613	45.91
343.826	35.67
344.038	50
344.25	66.39
344.462	-3.24
344.674	29.52
344.886	-9.39
345.099	15.19
345.311	35.67
345.523	33.62
345.735	21.33
345.947	9.05
346.159	13.14
346.371	35.67
346.583	109.4
346.795	103.25
347.007	-29.87
347.219	29.52
347.431	27.48
347.643	-19.63
347.855	19.29
348.067	-17.58
348.279	-1.19
348.491	41.81
348.703	17.24
348.915	4.95
349.127	66.39
349.339	-15.53
349.551	-97.45
349.763	62.29
349.975	-40.11
350.187	0.85
350.399	88.92
350.61	0.85
350.822	62.29
351.034	66.39
351.246	13.14
351.458	93.01
351.669	39.76
351.881	107.35
352.093	41.81
352.305	74.58
352.517	-36.01
352.728	82.77
352.94	74.58
353.152	93.01
353.363	9.05
353.575	21.33
353.787	45.91
353.999	50
354.21	54.1
354.422	50
354.633	9.05
354.845	-11.43
355.057	66.39
355.268	19.29
355.48	127.83
355.692	60.24
355.903	39.76
356.115	54.1
356.326	41.81
356.538	15.19
356.749	60.24
356.961	76.63
357.172	15.19
357.384	23.38
357.595	62.29
357.807	136.02
358.018	70.48
358.23	25.43
358.441	101.2
358.653	88.92
358.864	45.91
359.075	50
359.287	31.57
359.498	-40.11
359.709	66.39
359.921	72.53
360.132	-21.67
360.344	15.19
360.555	-11.43
360.766	37.72
360.977	25.43
361.189	47.96
361.4	25.43
361.611	72.53
361.823	33.62
362.034	19.29
362.245	-36.01
362.456	21.33
362.667	82.77
362.879	66.39
363.09	-7.34
363.301	58.2
363.512	70.48
363.723	68.44
363.935	-1.19
364.146	66.39
364.357	0.85
364.568	88.92
364.779	-1.19
364.99	-36.01
365.201	-1.19
365.412	43.86
365.623	-1.19
365.834	11.09
366.045	56.15
366.256	62.29
366.467	31.57
366.678	47.96
366.889	21.33
367.1	47.96
367.311	74.58
367.522	56.15
367.733	123.73
367.944	74.58
368.155	47.96
368.366	39.76
368.577	-17.58
368.788	50
368.999	-21.67
369.209	4.95
369.42	127.83
369.631	117.59
369.842	-42.15
370.053	0.85
370.264	25.43
370.474	70.48
370.685	68.44
370.896	33.62
371.107	90.96
371.317	23.38
371.528	17.24
371.739	56.15
371.95	19.29
372.16	-1.19
372.371	9.05
372.582	-21.67
372.792	88.92
373.003	66.39
373.214	101.2
373.424	-1.19
373.635	-17.58
373.846	80.72
374.056	99.16
374.267	2.9
374.477	70.48
374.688	39.76
374.898	45.91
375.109	29.52
375.319	90.96
375.53	13.14
375.74	76.63
375.951	58.2
376.161	17.24
376.372	66.39
376.582	17.24
376.793	43.86
377.003	66.39
377.214	25.43
377.424	72.53
377.635	-42.15
377.845	23.38
378.055	47.96
378.266	-27.82
378.476	66.39
378.686	41.81
378.897	95.06
379.107	62.29
379.317	78.68
379.528	-3.24
379.738	107.35
379.948	45.91
380.158	17.24
380.369	7
380.579	15.19
380.789	7
380.999	60.24
381.21	41.81
381.42	88.92
381.63	-5.29
381.84	58.2
382.05	15.19
382.261	33.62
382.471	70.48
382.681	37.72
382.891	82.77
383.101	123.73
383.311	-52.39
383.521	76.63
383.731	50
383.941	115.54
384.151	117.59
384.361	15.19
384.571	105.3
384.781	52.05
384.991	99.16
385.201	103.25
385.411	29.52
385.621	23.38
385.831	103.25
386.041	123.73
386.251	41.81
386.461	62.29
386.671	23.38
386.881	107.35
387.091	-38.06
387.301	86.87
387.511	66.39
387.72	90.96
387.93	41.81
388.14	45.91
388.35	103.25
388.56	129.88
388.769	2.9
388.979	58.2
389.189	70.48
389.399	-11.43
389.609	99.16
389.818	25.43
390.028	72.53
390.238	121.68
390.447	27.48
390.657	129.88
390.867	15.19
391.076	21.33
391.286	70.48
391.496	111.44
391.705	78.68
391.915	129.88
392.125	33.62
392.334	9.05
392.544	47.96
392.753	21.33
392.963	37.72
393.172	37.72
393.382	54.1
393.591	105.3
393.801	123.73
394.01	111.44
394.22	113.49
394.429	62.29
394.639	99.16
394.848	111.44
395.058	43.86
395.267	41.81
395.477	90.96
395.686	70.48
395.895	50
396.105	117.59
396.314	33.62
396.524	131.92
396.733	99.16
396.942	123.73
397.152	62.29
397.361	82.77
397.57	29.52
397.78	90.96
397.989	47.96
398.198	117.59
398.407	29.52
398.617	121.68
398.826	58.2
399.035	90.96
399.244	82.77
399.453	117.59
399.663	68.44
399.872	125.78
400.081	107.35
400.29	113.49
400.499	88.92
400.708	107.35
400.917	97.11
401.127	115.54
401.336	88.92
401.545	164.69
401.754	113.49
401.963	140.12
402.172	68.44
402.381	101.2
402.59	115.54
402.799	82.77
403.008	154.45
403.217	217.94
403.426	131.92
403.635	107.35
403.844	203.6
404.053	97.11
404.262	140.12
404.471	174.93
404.68	123.73
404.888	142.16
405.097	140.12
405.306	183.12
405.515	189.27
405.724	47.96
405.933	164.69
406.142	109.4
406.35	201.55
406.559	181.07
406.768	127.83
406.977	238.42
407.185	230.23
407.394	138.07
407.603	117.59
407.812	262.99
408.02	230.23
408.229	187.22
408.438	277.33
408.646	211.79
408.855	205.65
409.064	209.75
409.272	156.5
409.481	236.37
409.69	228.18
409.898	260.95
410.107	260.95
410.315	324.43
410.524	365.39
410.733	371.54
410.941	242.51
411.15	340.82
411.358	379.73
411.567	353.1
411.775	410.45
411.984	418.64
412.192	435.02
412.401	461.65
412.609	430.93
412.818	514.89
413.026	471.89
413.234	496.46
413.443	557.9
413.651	508.75
413.86	568.14
414.068	555.85
414.276	574.28
414.485	672.59
414.693	705.35
414.901	729.93
415.11	725.83
415.318	729.93
415.526	742.22
415.734	758.6
415.943	752.46
416.151	807.75
416.359	772.94
416.567	867.14
416.776	856.9
416.984	1016.65
417.192	1006.41
417.4	983.88
417.608	936.78
417.817	1037.13
418.025	1125.19
418.233	1133.38
418.441	1063.75
418.649	1127.24
418.857	1243.97
419.065	1235.78
419.273	1260.35
419.481	1432.38
419.689	1446.72
419.897	1577.79
420.105	1487.68
420.313	1563.45
420.521	1604.41
420.729	1721.15
420.937	1723.2
421.145	1753.91
421.353	1917.75
421.561	1868.6
421.769	1995.57
421.977	2044.73
422.185	2161.46
422.393	2130.74
422.601	2315.06
422.809	2302.77
423.017	2261.81
423.224	2499.38
423.432	2569.01
423.64	2417.46
423.848	2775.85
424.056	2634.54
424.263	2843.43
424.471	3029.8
424.679	2874.15
424.887	3144.49
425.094	3187.49
425.302	3105.57
425.51	3347.23
425.718	3361.57
425.925	3390.24
426.133	3601.18
426.341	3822.36
426.548	4006.68
426.756	4033.3
426.964	3943.19
427.171	4236.05
427.379	4313.88
427.586	4481.81
427.794	4455.19
428.001	4858.64
428.209	4872.97
428.417	4969.23
428.624	5337.86
428.832	5278.47
429.039	5169.93
429.247	5393.16
429.454	5737.21
429.662	6079.22
429.869	5827.32
430.076	6152.95
430.284	5882.62
430.491	6324.98
430.699	6423.28
430.906	6466.29
431.114	6615.79
431.321	6861.55
431.528	7144.17
431.736	7373.54
431.943	7725.79
432.15	7557.86
432.358	7660.26
432.565	7926.49
432.772	8108.76
432.979	8567.51
433.187	8571.6
433.394	8825.55
433.601	9220.81
433.808	9206.47
434.016	9325.26
434.223	9472.71
434.43	10126.01
434.637	9886.4
434.844	10736.31
435.052	10967.73
435.259	10769.07
435.466	10853.04
435.673	10642.1
435.88	11365.03
436.087	11754.15
436.294	11770.53
436.501	11725.47
436.708	11868.83
436.915	12286.62
437.122	12685.97
437.329	12718.74
437.537	13433.48
437.743	13445.77
437.95	13666.95
438.157	13931.14
438.364	14613.11
438.571	14424.7
438.778	14582.39
438.985	16015.97
439.192	15377
439.399	15962.72
439.606	15573.61
439.813	16362.08
440.02	17183.31
440.227	16810.58
440.433	16882.26
440.64	17429.07
440.847	17357.39
441.054	17338.96
441.261	18760.25
441.467	18473.53
441.674	19262
441.881	19778.09
442.088	19976.74
442.294	19421.74
442.501	20017.7
442.708	20193.83
442.914	21486.09
443.121	21953.03
443.328	21410.32
443.534	22798.84
443.741	22286.85
443.948	22209.03
444.154	23810.54
444.361	23482.86
444.568	23783.91
444.774	23777.77
444.981	24015.33
445.187	24488.42
445.394	25317.84
445.6	24981.98
445.807	27718.06
446.013	26247.62
446.22	27175.35
446.426	28010.92
446.633	28412.32
446.839	29204.89
447.046	27961.77
447.252	29295
447.459	29368.73
447.665	28989.85
447.871	30431.62
448.078	31945.07
448.284	30343.56
448.491	30957.95
448.697	32377.19
448.903	32950.62
449.11	33042.78
449.316	32393.58
449.522	32412.01
449.728	33745.23
449.935	34300.23
450.141	33984.85
450.347	34519.37
450.553	33487.19
450.76	33687.89
450.966	35055.93
451.172	34718.02
451.378	35342.65
451.584	34535.75
451.791	35561.78
451.997	35141.95
452.203	35725.62
452.409	35678.52
452.615	35443
452.821	34191.69
453.027	33827.15
453.233	35752.24
453.44	33835.35
453.646	34806.08
453.852	35064.13
454.058	35064.13
454.264	34144.59
454.47	34834.75
454.676	33601.88
454.882	34877.76
455.088	31547.76
455.294	32295.27
455.5	32829.79
455.705	33159.52
455.911	31996.27
456.117	30839.17
456.323	30294.41
456.529	28944.8
456.735	30286.22
456.941	29432.21
457.147	28930.46
457.352	27937.2
457.558	27697.58
457.764	27845.04
457.97	27146.68
458.176	26476.99
458.381	26628.54
458.587	25364.95
458.793	25410
458.999	24136.17
459.204	25682.38
459.41	24920.54
459.616	23476.72
459.821	23331.31
460.027	23605.74
460.233	23040.5
460.438	21613.07
460.644	21817.86
460.85	20722.2
461.055	20597.28
461.261	20578.84
461.466	19204.66
461.672	18629.18
461.878	19749.42
462.083	18602.55
462.289	18192.96
462.494	18080.32
462.7	17048.15
462.905	16460.38
463.111	17351.24
463.316	17285.71
463.522	16874.07
463.727	16937.55
463.932	16996.95
464.138	16820.82
464.343	16894.55
464.549	16552.54
464.754	17226.32
464.959	16955.99
465.165	16933.46
465.37	16099.94
465.575	15786.6
465.781	16011.87
465.986	16405.08
466.191	15598.18
466.397	15239.79
466.602	14877.3
466.807	15233.64
467.012	15317.61
467.218	15233.64
467.423	15028.85
467.628	15164.01
467.833	15725.16
468.038	15131.25
