Data from USB4F104151__299__10-43-23-285.txt Node

Date: Wed Mar 12 10:43:23 EDT 2025
User: louis
Spectrometer: USB4F10415
Trigger mode: 4
Integration Time (sec): 3.000000E-2
Scans to average: 1
Electric dark correction enabled: true
Nonlinearity correction enabled: false
Boxcar width: 0
XAxis mode: Wavelengths
Number of Pixels in Spectrum: 3648
>>>>>Begin Spectral Data<<<<<
178.204	-28.84
178.424	-28.84
178.644	-28.84
178.864	-82.09
179.084	-123.05
179.304	-41.13
179.524	55.12
179.744	-69.8
179.964	81.75
180.184	24.4
180.404	55.12
180.624	-73.9
180.844	5.97
181.064	24.4
181.283	-0.17
181.503	-8.36
181.723	-53.42
181.943	-69.8
182.163	10.07
182.383	44.88
182.602	89.94
182.822	102.23
183.042	108.37
183.262	-4.27
183.482	85.84
183.701	69.46
183.921	94.04
184.141	-0.17
184.361	48.98
184.58	-30.89
184.8	57.17
185.02	26.45
185.239	114.52
185.459	26.45
185.679	104.28
185.898	-45.23
186.118	81.75
186.338	-75.95
186.557	44.88
186.777	-61.61
186.997	16.21
187.216	94.04
187.436	-4.27
187.655	18.26
187.875	10.07
188.095	46.93
188.314	10.07
188.534	63.32
188.753	10.07
188.973	18.26
189.192	10.07
189.412	42.84
189.631	75.6
189.851	18.26
190.07	38.74
190.29	48.98
190.509	-0.17
190.729	28.5
190.948	18.26
191.168	151.38
191.387	18.26
191.607	69.46
191.826	30.55
192.045	14.17
192.265	-22.7
192.484	114.52
192.704	-10.41
192.923	24.4
193.142	114.52
193.362	-8.36
193.581	53.08
193.8	14.17
194.02	-8.36
194.239	-6.31
194.458	75.6
194.678	5.97
194.897	1.88
195.116	40.79
195.335	61.27
195.555	-20.65
195.774	-32.94
195.993	157.52
196.212	-47.27
196.432	5.97
196.651	20.31
196.87	3.93
197.089	102.23
197.308	118.61
197.528	53.08
197.747	8.02
197.966	-39.08
198.185	-12.46
198.404	57.17
198.623	16.21
198.842	75.6
199.062	20.31
199.281	59.22
199.5	36.69
199.719	24.4
199.938	73.56
200.157	61.27
200.376	28.5
200.595	-18.6
200.814	10.07
201.033	59.22
201.252	100.18
201.471	-47.27
201.69	26.45
201.909	114.52
202.128	61.27
202.347	14.17
202.566	12.12
202.785	3.93
203.004	16.21
203.223	102.23
203.442	24.4
203.661	-16.55
203.879	-12.46
204.098	16.21
204.317	-20.65
204.536	12.12
204.755	-20.65
204.974	51.03
205.193	5.97
205.411	137.04
205.63	10.07
205.849	-0.17
206.068	75.6
206.287	22.36
206.505	22.36
206.724	14.17
206.943	12.12
207.162	40.79
207.381	75.6
207.599	-22.7
207.818	32.6
208.037	69.46
208.255	85.84
208.474	38.74
208.693	-10.41
208.911	5.97
209.13	22.36
209.349	85.84
209.567	-0.17
209.786	71.51
210.005	106.32
210.223	-24.75
210.442	-43.18
210.661	-10.41
210.879	-26.79
211.098	-67.75
211.316	40.79
211.535	-8.36
211.753	79.7
211.972	-37.03
212.191	42.84
212.409	12.12
212.628	40.79
212.846	-0.17
213.065	1.88
213.283	46.93
213.502	12.12
213.72	1.88
213.938	89.94
214.157	8.02
214.375	57.17
214.594	22.36
214.812	18.26
215.031	32.6
215.249	-0.17
215.467	46.93
215.686	28.5
215.904	51.03
216.122	34.64
216.341	67.41
216.559	28.5
216.778	69.46
216.996	79.7
217.214	34.64
217.432	-61.61
217.651	44.88
217.869	48.98
218.087	20.31
218.306	48.98
218.524	91.99
218.742	48.98
218.96	77.65
219.179	-8.36
219.397	63.32
219.615	53.08
219.833	44.88
220.051	12.12
220.27	34.64
220.488	85.84
220.706	14.17
220.924	12.12
221.142	85.84
221.36	85.84
221.578	8.02
221.796	28.5
222.015	141.14
222.233	-10.41
222.451	77.65
222.669	-10.41
222.887	38.74
223.105	16.21
223.323	-71.85
223.541	12.12
223.759	14.17
223.977	-37.03
224.195	87.89
224.413	83.8
224.631	69.46
224.849	8.02
225.067	81.75
225.285	28.5
225.503	1.88
225.721	-10.41
225.939	87.89
226.157	32.6
226.375	122.71
226.592	10.07
226.81	24.4
227.028	77.65
227.246	65.36
227.464	36.69
227.682	77.65
227.9	48.98
228.117	100.18
228.335	71.51
228.553	42.84
228.771	-26.79
228.989	57.17
229.206	71.51
229.424	-37.03
229.642	22.36
229.86	16.21
230.077	83.8
230.295	53.08
230.513	32.6
230.731	98.13
230.948	98.13
231.166	106.32
231.384	44.88
231.601	57.17
231.819	114.52
232.037	-8.36
232.254	32.6
232.472	14.17
232.689	24.4
232.907	48.98
233.125	94.04
233.342	46.93
233.56	22.36
233.777	42.84
233.995	34.64
234.213	51.03
234.43	26.45
234.648	40.79
234.865	26.45
235.083	53.08
235.3	38.74
235.518	44.88
235.735	106.32
235.953	28.5
236.17	-10.41
236.388	-4.27
236.605	-0.17
236.822	79.7
237.04	44.88
237.257	14.17
237.475	20.31
237.692	85.84
237.909	100.18
238.127	14.17
238.344	46.93
238.562	-0.17
238.779	-20.65
238.996	-0.17
239.214	-100.52
239.431	-6.31
239.648	40.79
239.865	114.52
240.083	3.93
240.3	-12.46
240.517	-4.27
240.735	24.4
240.952	-20.65
241.169	44.88
241.386	26.45
241.603	-0.17
241.821	-14.51
242.038	75.6
242.255	77.65
242.472	22.36
242.689	32.6
242.907	116.56
243.124	-22.7
243.341	73.56
243.558	-14.51
243.775	30.55
243.992	83.8
244.209	110.42
244.426	61.27
244.643	20.31
244.86	-61.61
245.078	110.42
245.295	14.17
245.512	-20.65
245.729	65.36
245.946	8.02
246.163	57.17
246.38	81.75
246.597	44.88
246.814	36.69
247.031	-4.27
247.248	-4.27
247.464	-47.27
247.681	57.17
247.898	94.04
248.115	-61.61
248.332	44.88
248.549	87.89
248.766	57.17
248.983	32.6
249.2	73.56
249.417	87.89
249.633	-4.27
249.85	110.42
250.067	34.64
250.284	71.51
250.501	106.32
250.717	63.32
250.934	28.5
251.151	44.88
251.368	-43.18
251.585	48.98
251.801	-16.55
252.018	-8.36
252.235	67.41
252.451	-22.7
252.668	14.17
252.885	32.6
253.102	106.32
253.318	79.7
253.535	8.02
253.752	34.64
253.968	79.7
254.185	-20.65
254.401	57.17
254.618	10.07
254.835	-2.22
255.051	59.22
255.268	20.31
255.484	12.12
255.701	-22.7
255.917	63.32
256.134	57.17
256.351	67.41
256.567	18.26
256.784	-24.75
257	18.26
257.217	-0.17
257.433	-26.79
257.65	16.21
257.866	100.18
258.082	46.93
258.299	12.12
258.515	65.36
258.732	69.46
258.948	20.31
259.165	34.64
259.381	44.88
259.597	1.88
259.814	83.8
260.03	24.4
260.246	61.27
260.463	46.93
260.679	65.36
260.895	-8.36
261.112	36.69
261.328	-10.41
261.544	75.6
261.761	34.64
261.977	12.12
262.193	-61.61
262.409	73.56
262.626	32.6
262.842	94.04
263.058	71.51
263.274	-8.36
263.49	44.88
263.707	48.98
263.923	85.84
264.139	67.41
264.355	77.65
264.571	141.14
264.787	61.27
265.004	110.42
265.22	63.32
265.436	-12.46
265.652	73.56
265.868	22.36
266.084	5.97
266.3	75.6
266.516	40.79
266.732	63.32
266.948	-0.17
267.164	40.79
267.38	16.21
267.596	100.18
267.812	34.64
268.028	24.4
268.244	-0.17
268.46	65.36
268.676	3.93
268.892	-12.46
269.108	116.56
269.324	57.17
269.54	18.26
269.756	36.69
269.972	-4.27
270.188	1.88
270.403	-69.8
270.619	59.22
270.835	108.37
271.051	77.65
271.267	20.31
271.483	-2.22
271.698	22.36
271.914	122.71
272.13	42.84
272.346	75.6
272.562	96.08
272.777	83.8
272.993	57.17
273.209	20.31
273.425	18.26
273.64	51.03
273.856	44.88
274.072	-4.27
274.287	51.03
274.503	26.45
274.719	102.23
274.934	18.26
275.15	-39.08
275.366	28.5
275.581	16.21
275.797	36.69
276.012	73.56
276.228	89.94
276.444	40.79
276.659	83.8
276.875	30.55
277.09	87.89
277.306	-41.13
277.521	44.88
277.737	30.55
277.952	34.64
278.168	48.98
278.383	71.51
278.599	26.45
278.814	1.88
279.03	63.32
279.245	61.27
279.461	-0.17
279.676	104.28
279.892	34.64
280.107	55.12
280.322	30.55
280.538	46.93
280.753	132.95
280.969	145.24
281.184	1.88
281.399	20.31
281.615	-59.56
281.83	81.75
282.045	18.26
282.26	85.84
282.476	8.02
282.691	73.56
282.906	3.93
283.122	38.74
283.337	14.17
283.552	73.56
283.767	-6.31
283.983	-20.65
284.198	-20.65
284.413	83.8
284.628	-22.7
284.843	53.08
285.058	-6.31
285.274	-34.99
285.489	30.55
285.704	36.69
285.919	53.08
286.134	48.98
286.349	32.6
286.564	53.08
286.779	91.99
286.995	30.55
287.21	-8.36
287.425	-32.94
287.64	-8.36
287.855	24.4
288.07	22.36
288.285	67.41
288.5	36.69
288.715	69.46
288.93	61.27
289.145	28.5
289.36	108.37
289.575	8.02
289.79	24.4
290.004	67.41
290.219	53.08
290.434	42.84
290.649	53.08
290.864	48.98
291.079	-12.46
291.294	71.51
291.509	24.4
291.724	-4.27
291.938	36.69
292.153	44.88
292.368	28.5
292.583	48.98
292.798	53.08
293.012	18.26
293.227	94.04
293.442	40.79
293.657	65.36
293.871	65.36
294.086	59.22
294.301	18.26
294.516	61.27
294.73	-18.6
294.945	79.7
295.16	40.79
295.374	77.65
295.589	61.27
295.804	-18.6
296.018	77.65
296.233	65.36
296.447	85.84
296.662	-12.46
296.877	120.66
297.091	112.47
297.306	20.31
297.52	-37.03
297.735	48.98
297.949	63.32
298.164	12.12
298.378	44.88
298.593	-10.41
298.807	28.5
299.022	-28.84
299.236	55.12
299.451	-8.36
299.665	94.04
299.88	69.46
300.094	20.31
300.309	26.45
300.523	42.84
300.737	112.47
300.952	3.93
301.166	145.24
301.381	-20.65
301.595	8.02
301.809	83.8
302.024	77.65
302.238	46.93
302.452	75.6
302.667	-4.27
302.881	81.75
303.095	55.12
303.309	71.51
303.524	8.02
303.738	-28.84
303.952	-45.23
304.166	-0.17
304.381	53.08
304.595	79.7
304.809	63.32
305.023	69.46
305.237	71.51
305.452	18.26
305.666	53.08
305.88	87.89
306.094	30.55
306.308	65.36
306.522	61.27
306.736	67.41
306.95	106.32
307.164	-22.7
307.379	53.08
307.593	120.66
307.807	98.13
308.021	67.41
308.235	12.12
308.449	-6.31
308.663	34.64
308.877	118.61
309.091	42.84
309.305	63.32
309.519	36.69
309.733	145.24
309.947	20.31
310.161	81.75
310.374	102.23
310.588	91.99
310.802	81.75
311.016	81.75
311.23	71.51
311.444	51.03
311.658	-24.75
311.872	112.47
312.085	30.55
312.299	38.74
312.513	57.17
312.727	-8.36
312.941	-10.41
313.154	81.75
313.368	36.69
313.582	-4.27
313.796	89.94
314.009	-32.94
314.223	69.46
314.437	102.23
314.651	77.65
314.864	20.31
315.078	-4.27
315.292	12.12
315.505	30.55
315.719	59.22
315.933	5.97
316.146	42.84
316.36	-4.27
316.573	-24.75
316.787	85.84
317.001	-24.75
317.214	65.36
317.428	67.41
317.641	20.31
317.855	65.36
318.068	63.32
318.282	118.61
318.495	63.32
318.709	61.27
318.922	-4.27
319.136	94.04
319.349	32.6
319.563	139.09
319.776	18.26
319.99	42.84
320.203	83.8
320.417	61.27
320.63	69.46
320.843	83.8
321.057	135
321.27	38.74
321.483	28.5
321.697	73.56
321.91	135
322.124	69.46
322.337	-39.08
322.55	-10.41
322.763	79.7
322.977	10.07
323.19	28.5
323.403	18.26
323.617	135
323.83	114.52
324.043	30.55
324.256	112.47
324.469	24.4
324.683	108.37
324.896	67.41
325.109	16.21
325.322	69.46
325.535	108.37
325.748	44.88
325.962	36.69
326.175	48.98
326.388	65.36
326.601	51.03
326.814	89.94
327.027	81.75
327.24	102.23
327.453	14.17
327.666	-2.22
327.879	85.84
328.092	98.13
328.305	-14.51
328.518	61.27
328.731	81.75
328.944	-22.7
329.157	26.45
329.37	34.64
329.583	65.36
329.796	75.6
330.009	32.6
330.222	65.36
330.435	65.36
330.648	32.6
330.861	67.41
331.073	85.84
331.286	73.56
331.499	46.93
331.712	-0.17
331.925	-6.31
332.138	63.32
332.35	151.38
332.563	-28.84
332.776	40.79
332.989	89.94
333.202	44.88
333.414	63.32
333.627	20.31
333.84	26.45
334.053	57.17
334.265	65.36
334.478	32.6
334.691	28.5
334.903	118.61
335.116	53.08
335.329	63.32
335.541	151.38
335.754	94.04
335.966	26.45
336.179	38.74
336.392	-37.03
336.604	44.88
336.817	32.6
337.029	73.56
337.242	5.97
337.454	46.93
337.667	30.55
337.88	61.27
338.092	46.93
338.305	81.75
338.517	34.64
338.729	110.42
338.942	46.93
339.154	53.08
339.367	-34.99
339.579	89.94
339.792	22.36
340.004	61.27
340.217	18.26
340.429	-18.6
340.641	71.51
340.854	1.88
341.066	-0.17
341.278	57.17
341.491	46.93
341.703	1.88
341.915	53.08
342.128	112.47
342.34	81.75
342.552	-32.94
342.764	14.17
342.977	30.55
343.189	40.79
343.401	3.93
343.613	20.31
343.826	24.4
344.038	-26.79
344.25	147.28
344.462	-0.17
344.674	104.28
344.886	75.6
345.099	89.94
345.311	34.64
345.523	32.6
345.735	-14.51
345.947	1.88
346.159	65.36
346.371	-2.22
346.583	36.69
346.795	85.84
347.007	102.23
347.219	-8.36
347.431	8.02
347.643	67.41
347.855	51.03
348.067	149.33
348.279	34.64
348.491	102.23
348.703	85.84
348.915	126.8
349.127	26.45
349.339	44.88
349.551	20.31
349.763	14.17
349.975	61.27
350.187	108.37
350.399	22.36
350.61	81.75
350.822	89.94
351.034	20.31
351.246	122.71
351.458	73.56
351.669	-4.27
351.881	-8.36
352.093	94.04
352.305	20.31
352.517	77.65
352.728	16.21
352.94	-8.36
353.152	104.28
353.363	77.65
353.575	69.46
353.787	-37.03
353.999	22.36
354.21	61.27
354.422	-14.51
354.633	112.47
354.845	79.7
355.057	18.26
355.268	65.36
355.48	69.46
355.692	91.99
355.903	67.41
356.115	83.8
356.326	-32.94
356.538	139.09
356.749	8.02
356.961	114.52
357.172	42.84
357.384	63.32
357.595	114.52
357.807	61.27
358.018	-2.22
358.23	79.7
358.441	118.61
358.653	8.02
358.864	24.4
359.075	114.52
359.287	28.5
359.498	-0.17
359.709	94.04
359.921	48.98
360.132	32.6
360.344	48.98
360.555	79.7
360.766	44.88
360.977	102.23
361.189	69.46
361.4	55.12
361.611	38.74
361.823	102.23
362.034	32.6
362.245	-12.46
362.456	98.13
362.667	42.84
362.879	139.09
363.09	114.52
363.301	-28.84
363.512	38.74
363.723	14.17
363.935	38.74
364.146	55.12
364.357	3.93
364.568	46.93
364.779	94.04
364.99	85.84
365.201	118.61
365.412	30.55
365.623	59.22
365.834	36.69
366.045	34.64
366.256	69.46
366.467	106.32
366.678	51.03
366.889	98.13
367.1	1.88
367.311	48.98
367.522	30.55
367.733	53.08
367.944	3.93
368.155	3.93
368.366	102.23
368.577	139.09
368.788	118.61
368.999	24.4
369.209	3.93
369.42	104.28
369.631	100.18
369.842	106.32
370.053	48.98
370.264	67.41
370.474	71.51
370.685	-18.6
370.896	16.21
371.107	51.03
371.317	28.5
371.528	36.69
371.739	98.13
371.95	38.74
372.16	85.84
372.371	-6.31
372.582	44.88
372.792	-20.65
373.003	91.99
373.214	106.32
373.424	44.88
373.635	18.26
373.846	89.94
374.056	69.46
374.267	28.5
374.477	67.41
374.688	34.64
374.898	67.41
375.109	110.42
375.319	55.12
375.53	65.36
375.74	112.47
375.951	77.65
376.161	-45.23
376.372	87.89
376.582	22.36
376.793	130.9
377.003	42.84
377.214	77.65
377.424	20.31
377.635	46.93
377.845	-28.84
378.055	108.37
378.266	91.99
378.476	51.03
378.686	53.08
378.897	38.74
379.107	75.6
379.317	73.56
379.528	42.84
379.738	96.08
379.948	32.6
380.158	159.57
380.369	36.69
380.579	-32.94
380.789	-24.75
380.999	-2.22
381.21	83.8
381.42	145.24
381.63	61.27
381.84	44.88
382.05	32.6
382.261	112.47
382.471	77.65
382.681	51.03
382.891	85.84
383.101	69.46
383.311	69.46
383.521	89.94
383.731	104.28
383.941	36.69
384.151	102.23
384.361	77.65
384.571	69.46
384.781	114.52
384.991	51.03
385.201	106.32
385.411	83.8
385.621	77.65
385.831	83.8
386.041	67.41
386.251	1.88
386.461	104.28
386.671	75.6
386.881	110.42
387.091	28.5
387.301	135
387.511	32.6
387.72	71.51
387.93	57.17
388.14	34.64
388.35	67.41
388.56	73.56
388.769	100.18
388.979	22.36
389.189	38.74
389.399	69.46
389.609	20.31
389.818	106.32
390.028	3.93
390.238	85.84
390.447	48.98
390.657	169.81
390.867	65.36
391.076	22.36
391.286	65.36
391.496	8.02
391.705	65.36
391.915	83.8
392.125	108.37
392.334	28.5
392.544	155.47
392.753	94.04
392.963	147.28
393.172	61.27
393.382	46.93
393.591	139.09
393.801	42.84
394.01	91.99
394.22	63.32
394.429	106.32
394.639	71.51
394.848	83.8
395.058	94.04
395.267	71.51
395.477	143.19
395.686	159.57
395.895	153.43
396.105	96.08
396.314	118.61
396.524	59.22
396.733	118.61
396.942	108.37
397.152	112.47
397.361	151.38
397.57	186.19
397.78	69.46
397.989	112.47
398.198	204.63
398.407	26.45
398.617	149.33
398.826	202.58
399.035	139.09
399.244	155.47
399.453	116.56
399.663	114.52
399.872	132.95
400.081	69.46
400.29	151.38
400.499	46.93
400.708	135
400.917	143.19
401.127	124.76
401.336	126.8
401.545	212.82
401.754	155.47
401.963	141.14
402.172	83.8
402.381	202.58
402.59	67.41
402.799	155.47
403.008	157.52
403.217	126.8
403.426	210.77
403.635	120.66
403.844	89.94
404.053	214.87
404.262	157.52
404.471	216.91
404.68	196.43
404.888	194.39
405.097	124.76
405.306	221.01
405.515	175.95
405.724	175.95
405.933	124.76
406.142	227.15
406.35	298.83
406.559	137.04
406.768	261.97
406.977	264.02
407.185	202.58
407.394	276.31
407.603	171.86
407.812	278.35
408.02	347.98
408.229	231.25
408.438	288.59
408.646	245.59
408.855	245.59
409.064	286.54
409.272	249.68
409.481	356.18
409.69	290.64
409.898	352.08
410.107	300.88
410.315	368.46
410.524	380.75
410.733	337.74
410.941	347.98
411.15	446.29
411.358	477.01
411.567	466.77
411.775	454.48
411.984	401.23
412.192	477.01
412.401	509.77
412.609	622.41
412.818	556.88
413.026	573.26
413.234	569.16
413.443	546.64
413.651	610.12
413.86	696.14
414.068	745.29
414.276	702.28
414.485	739.15
414.693	735.05
414.901	837.45
415.11	784.2
415.318	862.02
415.526	880.46
415.734	931.66
415.943	968.52
416.151	1023.81
416.359	935.75
416.567	948.04
416.776	1023.81
416.984	1019.72
417.192	1038.15
417.4	1226.56
417.608	1167.17
417.817	1199.94
418.025	1310.53
418.233	1482.56
418.441	1320.77
418.649	1316.67
418.857	1410.88
419.065	1558.33
419.273	1597.24
419.481	1625.92
419.689	1697.6
419.897	1670.97
420.105	1791.8
420.313	1845.05
420.521	1926.97
420.729	1937.21
420.937	1978.17
421.145	2172.72
421.353	2187.06
421.561	2262.83
421.769	2271.03
421.977	2408.24
422.185	2342.71
422.393	2520.88
422.601	2621.23
422.809	2746.16
423.017	2623.28
423.224	2844.46
423.432	2887.47
423.64	2797.35
423.848	3190.56
424.056	3041.06
424.263	3276.58
424.471	3204.9
424.679	3434.27
424.887	3567.39
425.094	3647.26
425.302	3784.48
425.51	3968.79
425.718	3915.55
425.925	4040.47
426.133	4169.49
426.341	4431.63
426.548	4523.79
426.756	4579.09
426.964	4751.12
427.171	5084.94
427.379	5080.84
427.586	5189.38
427.794	5222.15
428.001	5603.07
428.209	5828.35
428.417	5689.09
428.624	6127.35
428.832	6104.82
429.039	5848.83
429.247	6043.39
429.454	6569.71
429.662	7147.24
429.869	6514.42
430.076	7155.43
430.284	6876.91
430.491	7149.29
430.699	7562.98
430.906	7636.7
431.114	7655.14
431.321	7935.71
431.528	8003.29
431.736	8636.11
431.943	9111.24
432.15	8763.09
432.358	9047.76
432.565	9426.63
432.772	9313.99
432.979	9674.43
433.187	9977.53
433.394	10110.65
433.601	10669.75
433.808	10770.1
434.016	10516.15
434.223	10833.58
434.43	11679.4
434.637	11691.68
434.844	12342.94
435.052	12480.15
435.259	12373.66
435.466	12521.11
435.673	12361.37
435.88	13330.06
436.087	13776.52
436.294	13635.21
436.501	13602.44
436.708	14014.08
436.915	14302.84
437.122	15093.36
437.329	14829.17
437.537	15339.12
437.743	15545.96
437.95	15496.81
438.157	16508.51
438.364	17096.27
438.571	16795.22
438.778	16854.61
438.985	18531.9
439.192	17628.74
439.399	18394.68
439.606	18003.52
439.813	19103.28
440.02	20215.33
440.227	19652.14
440.433	19797.54
440.64	20407.84
440.847	20168.23
441.054	20715.03
441.261	22234.63
441.467	21816.84
441.674	22050.31
441.881	23172.6
442.088	22799.87
442.294	22494.72
442.501	23064.05
442.708	23879.14
442.914	24735.2
443.121	25740.75
443.328	25255.38
443.534	27321.78
443.741	26140.1
443.948	25761.23
444.154	27837.87
444.361	27538.87
444.568	27573.68
444.774	27786.67
444.981	27848.11
445.187	28829.09
445.394	30053.77
445.6	29472.15
445.807	32187.75
446.013	31133.05
446.22	31526.26
446.426	32746.85
446.633	33131.87
446.839	34088.27
447.046	32804.19
447.252	34833.73
447.459	34590.02
447.665	34348.36
447.871	36189.49
448.078	37520.66
448.284	35515.7
448.491	36597.03
448.697	37827.86
448.903	38712.58
449.11	38671.62
449.316	38071.57
449.522	38909.19
449.728	39750.9
449.935	40133.87
450.141	39789.81
450.347	41100.51
450.553	39984.37
450.76	40049.91
450.966	41370.85
451.172	40887.53
451.378	41698.52
451.584	41100.51
451.791	42214.61
451.997	41710.81
452.203	42470.61
452.409	42532.04
452.615	42118.35
452.821	40500.46
453.027	40291.57
453.233	42310.86
453.44	40391.92
453.646	41170.15
453.852	41399.52
454.058	41690.33
454.264	40326.38
454.47	41319.65
454.676	40203.5
454.882	41972.95
455.088	38051.09
455.294	38495.5
455.5	39009.54
455.705	39085.31
455.911	37698.84
456.117	37221.66
456.323	36828.45
456.529	34256.2
456.735	36068.65
456.941	34964.8
457.147	34587.97
457.352	33670.48
457.558	33199.45
457.764	33219.93
457.97	32740.71
458.176	31823.22
458.381	31870.32
458.587	30094.73
458.793	30201.22
458.999	28908.96
459.204	30553.48
459.41	30117.26
459.616	28118.44
459.821	27968.94
460.027	27649.46
460.233	27241.91
460.438	25859.53
460.644	26121.67
460.85	25140.69
461.055	24743.39
461.261	24393.19
461.466	22619.64
461.672	22033.93
461.878	23772.65
462.083	22021.64
462.289	22044.16
462.494	21646.86
462.7	20604.44
462.905	20055.59
463.111	20692.51
463.316	20780.57
463.522	20565.53
463.727	20708.89
463.932	20413.98
464.138	20383.26
464.343	20133.41
464.549	19361.33
464.754	20180.51
464.959	20104.74
465.165	20057.64
465.37	19162.67
465.575	18566.71
465.781	19230.26
465.986	19863.08
466.191	19084.85
466.397	18421.31
466.602	17714.76
466.807	18286.14
