Data from USB4F104151__99__10-24-40-592.txt Node

Date: Wed Mar 12 10:24:40 EDT 2025
User: louis
Spectrometer: USB4F10415
Trigger mode: 4
Integration Time (sec): 3.000000E-2
Scans to average: 1
Electric dark correction enabled: true
Nonlinearity correction enabled: false
Boxcar width: 0
XAxis mode: Wavelengths
Number of Pixels in Spectrum: 3648
>>>>>Begin Spectral Data<<<<<
178.204	-107.69
178.424	-107.69
178.644	-107.69
178.864	-115.88
179.084	-91.31
179.304	-11.43
179.524	-56.49
179.744	-11.43
179.964	70.48
180.184	-15.53
180.404	23.38
180.624	47.96
180.844	-38.06
181.064	-44.2
181.283	43.86
181.503	-58.54
181.723	50
181.943	-15.53
182.163	0.85
182.383	43.86
182.602	64.34
182.822	56.15
183.042	17.24
183.262	-48.3
183.482	-52.39
183.701	17.24
183.921	-27.82
184.141	47.96
184.361	70.48
184.58	47.96
184.8	121.68
185.02	9.05
185.239	52.05
185.459	-3.24
185.679	74.58
185.898	-99.5
186.118	52.05
186.338	35.67
186.557	62.29
186.777	-29.87
186.997	105.3
187.216	7
187.436	29.52
187.655	52.05
187.875	19.29
188.095	37.72
188.314	82.77
188.534	13.14
188.753	50
188.973	-21.67
189.192	45.91
189.412	99.16
189.631	4.95
189.851	-11.43
190.07	119.64
190.29	4.95
190.509	66.39
190.729	-29.87
190.948	43.86
191.168	125.78
191.387	47.96
191.607	-31.91
191.826	17.24
192.045	56.15
192.265	80.72
192.484	43.86
192.704	25.43
192.923	21.33
193.142	68.44
193.362	-27.82
193.581	0.85
193.8	56.15
194.02	54.1
194.239	-21.67
194.458	113.49
194.678	47.96
194.897	21.33
195.116	86.87
195.335	101.2
195.555	25.43
195.774	58.2
195.993	43.86
196.212	-17.58
196.432	35.67
196.651	105.3
196.87	25.43
197.089	88.92
197.308	23.38
197.528	17.24
197.747	9.05
197.966	13.14
198.185	68.44
198.404	2.9
198.623	-7.34
198.842	58.2
199.062	21.33
199.281	115.54
199.5	25.43
199.719	-23.72
199.938	37.72
200.157	43.86
200.376	-9.39
200.595	19.29
200.814	50
201.033	62.29
201.252	29.52
201.471	74.58
201.69	101.2
201.909	54.1
202.128	-19.63
202.347	64.34
202.566	-23.72
202.785	-3.24
203.004	41.81
203.223	127.83
203.442	-5.29
203.661	52.05
203.879	56.15
204.098	23.38
204.317	43.86
204.536	99.16
204.755	23.38
204.974	15.19
205.193	50
205.411	45.91
205.63	82.77
205.849	-9.39
206.068	58.2
206.287	-38.06
206.505	45.91
206.724	74.58
206.943	13.14
207.162	37.72
207.381	9.05
207.599	7
207.818	54.1
208.037	-7.34
208.255	72.53
208.474	76.63
208.693	78.68
208.911	11.09
209.13	62.29
209.349	11.09
209.567	31.57
209.786	25.43
210.005	0.85
210.223	15.19
210.442	56.15
210.661	56.15
210.879	99.16
211.098	-21.67
211.316	9.05
211.535	-13.48
211.753	33.62
211.972	64.34
212.191	78.68
212.409	41.81
212.628	52.05
212.846	13.14
213.065	86.87
213.283	54.1
213.502	23.38
213.72	43.86
213.938	60.24
214.157	-13.48
214.375	52.05
214.594	60.24
214.812	74.58
215.031	-19.63
215.249	-3.24
215.467	60.24
215.686	90.96
215.904	58.2
216.122	0.85
216.341	39.76
216.559	39.76
216.778	4.95
216.996	90.96
217.214	-29.87
217.432	33.62
217.651	101.2
217.869	11.09
218.087	23.38
218.306	23.38
218.524	70.48
218.742	-3.24
218.96	82.77
219.179	-83.11
219.397	21.33
219.615	68.44
219.833	78.68
220.051	7
220.27	105.3
220.488	64.34
220.706	74.58
220.924	74.58
221.142	17.24
221.36	64.34
221.578	93.01
221.796	41.81
222.015	-13.48
222.233	39.76
222.451	74.58
222.669	50
222.887	60.24
223.105	25.43
223.323	-5.29
223.541	19.29
223.759	68.44
223.977	41.81
224.195	127.83
224.413	45.91
224.631	19.29
224.849	54.1
225.067	-5.29
225.285	-5.29
225.503	95.06
225.721	43.86
225.939	25.43
226.157	0.85
226.375	121.68
226.592	58.2
226.81	11.09
227.028	-3.24
227.246	60.24
227.464	21.33
227.682	-19.63
227.9	76.63
228.117	56.15
228.335	-15.53
228.553	-9.39
228.771	13.14
228.989	-3.24
229.206	33.62
229.424	11.09
229.642	23.38
229.86	45.91
230.077	13.14
230.295	37.72
230.513	80.72
230.731	0.85
230.948	70.48
231.166	86.87
231.384	-11.43
231.601	-13.48
231.819	37.72
232.037	4.95
232.254	-1.19
232.472	39.76
232.689	31.57
232.907	62.29
233.125	9.05
233.342	35.67
233.56	7
233.777	-19.63
233.995	19.29
234.213	60.24
234.43	123.73
234.648	23.38
234.865	25.43
235.083	62.29
235.3	-23.72
235.518	37.72
235.735	72.53
235.953	-15.53
236.17	-15.53
236.388	54.1
236.605	43.86
236.822	43.86
237.04	47.96
237.257	29.52
237.475	39.76
237.692	54.1
237.909	17.24
238.127	33.62
238.344	33.62
238.562	50
238.779	58.2
238.996	45.91
239.214	43.86
239.431	13.14
239.648	-9.39
239.865	68.44
240.083	45.91
240.3	19.29
240.517	25.43
240.735	33.62
240.952	107.35
241.169	31.57
241.386	88.92
241.603	50
241.821	23.38
242.038	17.24
242.255	66.39
242.472	23.38
242.689	74.58
242.907	-19.63
243.124	64.34
243.341	60.24
243.558	7
243.775	37.72
243.992	78.68
244.209	13.14
244.426	25.43
244.643	50
244.86	-17.58
245.078	2.9
245.295	-11.43
245.512	-1.19
245.729	17.24
245.946	23.38
246.163	21.33
246.38	99.16
246.597	21.33
246.814	31.57
247.031	33.62
247.248	9.05
247.464	90.96
247.681	-7.34
247.898	47.96
248.115	58.2
248.332	21.33
248.549	-3.24
248.766	50
248.983	166.74
249.2	33.62
249.417	-9.39
249.633	15.19
249.85	107.35
250.067	56.15
250.284	41.81
250.501	64.34
250.717	95.06
250.934	-15.53
251.151	-36.01
251.368	-50.35
251.585	29.52
251.801	50
252.018	-7.34
252.235	45.91
252.451	39.76
252.668	35.67
252.885	129.88
253.102	84.82
253.318	33.62
253.535	-7.34
253.752	-23.72
253.968	2.9
254.185	23.38
254.401	23.38
254.618	50
254.835	88.92
255.051	70.48
255.268	25.43
255.484	21.33
255.701	-15.53
255.917	80.72
256.134	25.43
256.351	39.76
256.567	-27.82
256.784	60.24
257	-13.48
257.217	54.1
257.433	41.81
257.65	-3.24
257.866	41.81
258.082	-27.82
258.299	33.62
258.515	58.2
258.732	-11.43
258.948	-19.63
259.165	64.34
259.381	-17.58
259.597	54.1
259.814	9.05
260.03	52.05
260.246	-23.72
260.463	50
260.679	37.72
260.895	-21.67
261.112	97.11
261.328	17.24
261.544	31.57
261.761	54.1
261.977	58.2
262.193	43.86
262.409	2.9
262.626	66.39
262.842	111.44
263.058	41.81
263.274	4.95
263.49	68.44
263.707	68.44
263.923	-31.91
264.139	-17.58
264.355	27.48
264.571	93.01
264.787	60.24
265.004	121.68
265.22	88.92
265.436	29.52
265.652	11.09
265.868	-3.24
266.084	-15.53
266.3	70.48
266.516	70.48
266.732	9.05
266.948	-25.77
267.164	78.68
267.38	21.33
267.596	4.95
267.812	168.79
268.028	17.24
268.244	66.39
268.46	-15.53
268.676	-9.39
268.892	50
269.108	103.25
269.324	-44.2
269.54	-36.01
269.756	80.72
269.972	0.85
270.188	72.53
270.403	-5.29
270.619	43.86
270.835	15.19
271.051	70.48
271.267	45.91
271.483	19.29
271.698	47.96
271.914	35.67
272.13	45.91
272.346	-9.39
272.562	-29.87
272.777	4.95
272.993	-1.19
273.209	-21.67
273.425	88.92
273.64	-36.01
273.856	7
274.072	56.15
274.287	-40.11
274.503	66.39
274.719	56.15
274.934	47.96
275.15	-68.78
275.366	41.81
275.581	33.62
275.797	11.09
276.012	-38.06
276.228	23.38
276.444	31.57
276.659	58.2
276.875	41.81
277.09	23.38
277.306	17.24
277.521	39.76
277.737	95.06
277.952	4.95
278.168	86.87
278.383	45.91
278.599	72.53
278.814	76.63
279.03	-40.11
279.245	39.76
279.461	-15.53
279.676	105.3
279.892	-19.63
280.107	-50.35
280.322	25.43
280.538	37.72
280.753	13.14
280.969	0.85
281.184	45.91
281.399	56.15
281.615	-11.43
281.83	-11.43
282.045	-31.91
282.26	35.67
282.476	35.67
282.691	45.91
282.906	7
283.122	11.09
283.337	0.85
283.552	23.38
283.767	0.85
283.983	27.48
284.198	66.39
284.413	35.67
284.628	21.33
284.843	-11.43
285.058	33.62
285.274	17.24
285.489	37.72
285.704	13.14
285.919	39.76
286.134	25.43
286.349	56.15
286.564	0.85
286.779	107.35
286.995	27.48
287.21	13.14
287.425	86.87
287.64	52.05
287.855	99.16
288.07	68.44
288.285	9.05
288.5	19.29
288.715	72.53
288.93	64.34
289.145	-5.29
289.36	80.72
289.575	-7.34
289.79	41.81
290.004	23.38
290.219	119.64
290.434	17.24
290.649	-7.34
290.864	25.43
291.079	-7.34
291.294	31.57
291.509	17.24
291.724	54.1
291.938	13.14
292.153	123.73
292.368	-1.19
292.583	21.33
292.798	54.1
293.012	31.57
293.227	15.19
293.442	39.76
293.657	43.86
293.871	-31.91
294.086	37.72
294.301	119.64
294.516	23.38
294.73	-19.63
294.945	-19.63
295.16	68.44
295.374	82.77
295.589	113.49
295.804	9.05
296.018	50
296.233	95.06
296.447	41.81
296.662	-3.24
296.877	37.72
297.091	127.83
297.306	-46.25
297.52	45.91
297.735	31.57
297.949	41.81
298.164	21.33
298.378	72.53
298.593	84.82
298.807	-66.73
299.022	-36.01
299.236	62.29
299.451	54.1
299.665	37.72
299.88	19.29
300.094	29.52
300.309	70.48
300.523	21.33
300.737	29.52
300.952	105.3
301.166	31.57
301.381	50
301.595	50
301.809	66.39
302.024	37.72
302.238	35.67
302.452	76.63
302.667	45.91
302.881	82.77
303.095	15.19
303.309	62.29
303.524	-11.43
303.738	33.62
303.952	35.67
304.166	15.19
304.381	13.14
304.595	72.53
304.809	41.81
305.023	111.44
305.237	39.76
305.452	-52.39
305.666	9.05
305.88	78.68
306.094	43.86
306.308	109.4
306.522	25.43
306.736	56.15
306.95	66.39
307.164	97.11
307.379	37.72
307.593	21.33
307.807	9.05
308.021	13.14
308.235	35.67
308.449	58.2
308.663	25.43
308.877	82.77
309.091	86.87
309.305	25.43
309.519	-54.44
309.733	56.15
309.947	58.2
310.161	25.43
310.374	27.48
310.588	25.43
310.802	21.33
311.016	78.68
311.23	15.19
311.444	101.2
311.658	99.16
311.872	11.09
312.085	-7.34
312.299	41.81
312.513	60.24
312.727	11.09
312.941	43.86
313.154	70.48
313.368	64.34
313.582	86.87
313.796	41.81
314.009	0.85
314.223	50
314.437	52.05
314.651	2.9
314.864	111.44
315.078	-1.19
315.292	50
315.505	21.33
315.719	21.33
315.933	80.72
316.146	82.77
316.36	-27.82
316.573	64.34
316.787	119.64
317.001	56.15
317.214	-31.91
317.428	4.95
317.641	-1.19
317.855	84.82
318.068	23.38
318.282	52.05
318.495	107.35
318.709	52.05
318.922	66.39
319.136	111.44
319.349	33.62
319.563	62.29
319.776	52.05
319.99	2.9
320.203	105.3
320.417	58.2
320.63	58.2
320.843	156.5
321.057	33.62
321.27	-50.35
321.483	62.29
321.697	68.44
321.91	68.44
322.124	-36.01
322.337	7
322.55	11.09
322.763	-17.58
322.977	29.52
323.19	-42.15
323.403	45.91
323.617	64.34
323.83	99.16
324.043	4.95
324.256	-29.87
324.469	17.24
324.683	52.05
324.896	113.49
325.109	39.76
325.322	-27.82
325.535	33.62
325.748	9.05
325.962	37.72
326.175	-29.87
326.388	4.95
326.601	86.87
326.814	27.48
327.027	4.95
327.24	50
327.453	9.05
327.666	93.01
327.879	41.81
328.092	74.58
328.305	-7.34
328.518	17.24
328.731	-42.15
328.944	131.92
329.157	33.62
329.37	15.19
329.583	127.83
329.796	9.05
330.009	13.14
330.222	74.58
330.435	70.48
330.648	97.11
330.861	39.76
331.073	-5.29
331.286	11.09
331.499	45.91
331.712	21.33
331.925	27.48
332.138	64.34
332.35	50
332.563	78.68
332.776	58.2
332.989	-27.82
333.202	82.77
333.414	33.62
333.627	95.06
333.84	80.72
334.053	52.05
334.265	-46.25
334.478	43.86
334.691	-27.82
334.903	90.96
335.116	-48.3
335.329	74.58
335.541	74.58
335.754	84.82
335.966	56.15
336.179	74.58
336.392	7
336.604	27.48
336.817	-19.63
337.029	90.96
337.242	33.62
337.454	0.85
337.667	-27.82
337.88	80.72
338.092	-17.58
338.305	50
338.517	9.05
338.729	62.29
338.942	33.62
339.154	-5.29
339.367	54.1
339.579	105.3
339.792	39.76
340.004	70.48
340.217	54.1
340.429	37.72
340.641	54.1
340.854	17.24
341.066	31.57
341.278	52.05
341.491	105.3
341.703	4.95
341.915	31.57
342.128	15.19
342.34	66.39
342.552	11.09
342.764	17.24
342.977	60.24
343.189	17.24
343.401	58.2
343.613	82.77
343.826	45.91
344.038	-3.24
344.25	47.96
344.462	4.95
344.674	99.16
344.886	62.29
345.099	4.95
345.311	11.09
345.523	-11.43
345.735	45.91
345.947	35.67
346.159	35.67
346.371	95.06
346.583	39.76
346.795	58.2
347.007	-33.96
347.219	82.77
347.431	47.96
347.643	84.82
347.855	17.24
348.067	74.58
348.279	33.62
348.491	13.14
348.703	72.53
348.915	13.14
349.127	31.57
349.339	9.05
349.551	50
349.763	119.64
349.975	119.64
350.187	23.38
350.399	60.24
350.61	25.43
350.822	-9.39
351.034	37.72
351.246	-3.24
351.458	7
351.669	50
351.881	70.48
352.093	72.53
352.305	62.29
352.517	62.29
352.728	66.39
352.94	25.43
353.152	84.82
353.363	17.24
353.575	37.72
353.787	97.11
353.999	58.2
354.21	80.72
354.422	41.81
354.633	45.91
354.845	88.92
355.057	62.29
355.268	56.15
355.48	125.78
355.692	66.39
355.903	41.81
356.115	84.82
356.326	13.14
356.538	95.06
356.749	64.34
356.961	25.43
357.172	13.14
357.384	11.09
357.595	45.91
357.807	111.44
358.018	-11.43
358.23	148.31
358.441	54.1
358.653	41.81
358.864	52.05
359.075	4.95
359.287	-13.48
359.498	41.81
359.709	17.24
359.921	58.2
360.132	11.09
360.344	-36.01
360.555	13.14
360.766	76.63
360.977	-9.39
361.189	90.96
361.4	29.52
361.611	78.68
361.823	45.91
362.034	72.53
362.245	64.34
362.456	2.9
362.667	29.52
362.879	43.86
363.09	17.24
363.301	19.29
363.512	27.48
363.723	4.95
363.935	64.34
364.146	21.33
364.357	-1.19
364.568	82.77
364.779	-19.63
364.99	52.05
365.201	74.58
365.412	29.52
365.623	11.09
365.834	70.48
366.045	17.24
366.256	66.39
366.467	136.02
366.678	58.2
366.889	64.34
367.1	90.96
367.311	-56.49
367.522	45.91
367.733	62.29
367.944	41.81
368.155	82.77
368.366	54.1
368.577	74.58
368.788	101.2
368.999	56.15
369.209	11.09
369.42	115.54
369.631	129.88
369.842	64.34
370.053	13.14
370.264	74.58
370.474	-23.72
370.685	17.24
370.896	-1.19
371.107	33.62
371.317	54.1
371.528	29.52
371.739	33.62
371.95	19.29
372.16	74.58
372.371	21.33
372.582	25.43
372.792	56.15
373.003	101.2
373.214	21.33
373.424	129.88
373.635	21.33
373.846	66.39
374.056	107.35
374.267	9.05
374.477	107.35
374.688	72.53
374.898	47.96
375.109	50
375.319	62.29
375.53	80.72
375.74	99.16
375.951	64.34
376.161	4.95
376.372	88.92
376.582	90.96
376.793	37.72
377.003	33.62
377.214	41.81
377.424	101.2
377.635	11.09
377.845	70.48
378.055	107.35
378.266	27.48
378.476	68.44
378.686	25.43
378.897	17.24
379.107	33.62
379.317	62.29
379.528	41.81
379.738	86.87
379.948	23.38
380.158	54.1
380.369	82.77
380.579	47.96
380.789	35.67
380.999	103.25
381.21	52.05
381.42	119.64
381.63	64.34
381.84	138.07
382.05	111.44
382.261	140.12
382.471	70.48
382.681	47.96
382.891	138.07
383.101	82.77
383.311	-11.43
383.521	50
383.731	54.1
383.941	82.77
384.151	50
384.361	76.63
384.571	52.05
384.781	64.34
384.991	95.06
385.201	64.34
385.411	50
385.621	58.2
385.831	17.24
386.041	78.68
386.251	105.3
386.461	97.11
386.671	105.3
386.881	133.97
387.091	21.33
387.301	115.54
387.511	-50.35
387.72	113.49
387.93	58.2
388.14	25.43
388.35	23.38
388.56	72.53
388.769	107.35
388.979	-7.34
389.189	88.92
389.399	4.95
389.609	86.87
389.818	86.87
390.028	72.53
390.238	101.2
390.447	21.33
390.657	23.38
390.867	43.86
391.076	64.34
391.286	45.91
391.496	105.3
391.705	43.86
391.915	113.49
392.125	115.54
392.334	80.72
392.544	123.73
392.753	54.1
392.963	15.19
393.172	45.91
393.382	43.86
393.591	148.31
393.801	56.15
394.01	140.12
394.22	90.96
394.429	131.92
394.639	119.64
394.848	90.96
395.058	78.68
395.267	99.16
395.477	115.54
395.686	95.06
395.895	156.5
396.105	90.96
396.314	144.21
396.524	99.16
396.733	125.78
396.942	25.43
397.152	107.35
397.361	131.92
397.57	62.29
397.78	95.06
397.989	113.49
398.198	166.74
398.407	103.25
398.617	142.16
398.826	86.87
399.035	60.24
399.244	125.78
399.453	111.44
399.663	88.92
399.872	88.92
400.081	43.86
400.29	119.64
400.499	4.95
400.708	105.3
400.917	119.64
401.127	160.59
401.336	127.83
401.545	131.92
401.754	140.12
401.963	125.78
402.172	156.5
402.381	80.72
402.59	47.96
402.799	117.59
403.008	156.5
403.217	160.59
403.426	111.44
403.635	82.77
403.844	119.64
404.053	70.48
404.262	129.88
404.471	187.22
404.68	138.07
404.888	185.17
405.097	95.06
405.306	187.22
405.515	205.65
405.724	150.36
405.933	101.2
406.142	195.41
406.35	172.88
406.559	148.31
406.768	205.65
406.977	234.32
407.185	176.98
407.394	314.19
407.603	195.41
407.812	224.08
408.02	246.61
408.229	179.03
408.438	211.79
408.646	262.99
408.855	271.19
409.064	260.95
409.272	248.66
409.481	234.32
409.69	271.19
409.898	287.57
410.107	250.71
410.315	306
410.524	453.45
410.733	303.95
410.941	369.49
411.15	357.2
411.358	369.49
411.567	379.73
411.775	353.1
411.984	389.97
412.192	394.06
412.401	486.22
412.609	582.48
412.818	510.8
413.026	467.79
413.234	523.09
413.443	537.42
413.651	605
413.86	631.63
414.068	623.44
414.276	666.44
414.485	652.11
414.693	629.58
414.901	750.41
415.11	670.54
415.318	754.51
415.526	654.16
415.734	848.71
415.943	940.87
416.151	772.94
416.359	844.62
416.567	830.28
416.776	979.78
416.984	1010.5
417.192	1026.89
417.4	1045.32
417.608	1129.28
417.817	1106.76
418.025	1102.66
418.233	1301.31
418.441	1071.94
418.649	1194.82
418.857	1260.35
419.065	1297.22
419.273	1299.27
419.481	1430.34
419.689	1465.15
419.897	1489.73
420.105	1489.73
420.313	1573.69
420.521	1659.71
420.729	1737.53
420.937	1780.54
421.145	1844.03
421.353	1846.07
421.561	1983.29
421.769	1925.94
421.977	2079.54
422.185	2071.35
422.393	2147.12
422.601	2358.07
422.809	2358.07
423.017	2403.12
423.224	2579.25
423.432	2569.01
423.64	2583.34
423.848	2775.85
424.056	2822.95
424.263	2857.77
424.471	2884.39
424.679	2984.74
424.887	3140.39
425.094	3341.09
425.302	3230.5
425.51	3367.71
425.718	3476.26
425.925	3455.78
426.133	3662.62
426.341	3836.7
426.548	3928.86
426.756	3984.15
426.964	3975.96
427.171	4279.06
427.379	4371.22
427.586	4395.79
427.794	4698.89
428.001	4956.94
428.209	4981.51
428.417	4881.16
428.624	5389.06
428.832	5268.23
429.039	5452.55
429.247	5391.11
429.454	5833.47
429.662	6148.86
429.869	5692.16
430.076	6058.74
430.284	5890.81
430.491	6361.84
430.699	6716.14
430.906	6564.59
431.114	6685.42
431.321	7013.1
431.528	7133.93
431.736	7342.82
431.943	7834.33
432.15	7586.53
432.358	7727.84
432.565	7891.68
432.772	7994.08
432.979	8463.06
433.187	8587.99
433.394	8774.35
433.601	9300.68
433.808	9351.88
434.016	9259.72
434.223	9800.38
434.43	10109.63
434.637	10052.28
434.844	10535.6
435.052	10865.33
435.259	10787.5
435.466	11016.88
435.673	10638
435.88	11403.94
436.087	11917.98
436.294	11850.4
436.501	11717.28
436.708	12057.25
436.915	12528.28
437.122	13163.15
437.329	13091.47
437.537	13290.12
437.743	13652.61
437.95	13503.11
438.157	14158.46
438.364	14717.56
438.571	14490.23
438.778	14711.41
438.985	15977.06
439.192	15526.5
439.399	16038.5
439.606	15424.11
439.813	16267.87
440.02	17461.83
440.227	17160.78
440.433	16906.84
440.64	17291.85
440.847	17443.4
441.054	17609.29
441.261	19016.24
441.467	18614.84
441.674	18942.52
441.881	19493.42
442.088	19694.12
442.294	19561
442.501	19968.55
442.708	20294.18
442.914	21174.8
443.121	22178.31
443.328	21309.97
443.534	22923.77
443.741	22243.84
443.948	22069.76
444.154	23581.17
444.361	23402.99
444.568	23749.1
444.774	23849.45
444.981	23863.79
445.187	24408.54
445.394	25891.27
445.6	25389.52
445.807	27744.69
446.013	26530.24
446.22	27029.94
446.426	27535.79
446.633	28168.62
446.839	29165.98
447.046	27695.53
447.252	29235.61
447.459	29471.12
447.665	29235.61
447.871	30781.82
448.078	31854.96
448.284	29919.63
448.491	31521.14
448.697	32561.51
448.903	32846.18
449.11	32930.14
449.316	32176.49
449.522	32917.86
449.728	33698.13
449.935	33982.8
450.141	33685.84
450.347	34548.04
450.553	33546.58
450.76	34175.31
450.966	35051.84
451.172	34769.22
451.378	35500.34
451.584	34605.38
451.791	35699
451.997	35510.58
452.203	35785.01
452.409	36034.86
452.615	35950.9
452.821	34801.99
453.027	33833.3
453.233	35393.85
453.44	34445.64
453.646	34814.27
453.852	34955.58
454.058	35328.31
454.264	34296.14
454.47	34783.55
454.676	33974.61
454.882	35277.12
455.088	31902.06
455.294	32754.02
455.5	32723.3
455.705	33345.88
455.911	32072.04
456.117	31304.06
456.323	30945.66
456.529	29235.61
456.735	30732.67
456.941	29649.3
457.147	29360.53
457.352	28340.64
457.558	27791.79
457.764	27984.3
457.97	27425.2
458.176	26714.56
458.381	27109.82
458.587	25584.08
458.793	25897.42
458.999	24156.64
459.204	26272.2
459.41	25264.6
459.616	23329.27
459.821	23529.97
460.027	23417.33
460.233	23118.32
460.438	21836.3
460.644	22264.32
460.85	21164.56
461.055	20781.59
461.261	20744.73
461.466	19366.45
461.672	18510.39
461.878	19968.55
462.083	18940.47
462.289	18256.45
462.494	18086.47
462.7	17298
462.905	16992.85
463.111	17463.88
463.316	17830.47
463.522	17113.68
463.727	17236.56
463.932	17164.88
464.138	17211.98
464.343	17201.74
464.549	16460.38
464.754	17050.19
464.959	17173.07
465.165	16867.92
465.37	16394.84
465.575	15710.82
465.781	16663.13
465.986	16579.16
466.191	15821.41
466.397	15575.66
466.602	14838.39
466.807	15428.2
467.012	15364.71
467.218	15311.47
467.423	15194.73
467.628	15147.63
467.833	15741.54
468.038	15221.36
468.244	14944.88
468.449	15577.7
468.654	14838.39
