Data from USB4F104151__148__10-26-38-965.txt Node

Date: Wed Mar 12 10:26:38 EDT 2025
User: louis
Spectrometer: USB4F10415
Trigger mode: 4
Integration Time (sec): 3.000000E-2
Scans to average: 1
Electric dark correction enabled: true
Nonlinearity correction enabled: false
Boxcar width: 0
XAxis mode: Wavelengths
Number of Pixels in Spectrum: 3648
>>>>>Begin Spectral Data<<<<<
178.204	-109.74
178.424	-109.74
178.644	-109.74
178.864	-95.4
179.084	-85.16
179.304	-38.06
179.524	-50.35
179.744	-5.29
179.964	4.95
180.184	-19.63
180.404	-13.48
180.624	15.19
180.844	-21.67
181.064	-9.39
181.283	58.2
181.503	15.19
181.723	64.34
181.943	-56.49
182.163	54.1
182.383	33.62
182.602	17.24
182.822	9.05
183.042	-3.24
183.262	-40.11
183.482	-33.96
183.701	35.67
183.921	15.19
184.141	-25.77
184.361	-27.82
184.58	-5.29
184.8	72.53
185.02	-5.29
185.239	-40.11
185.459	-25.77
185.679	27.48
185.898	39.76
186.118	-1.19
186.338	70.48
186.557	39.76
186.777	-42.15
186.997	19.29
187.216	33.62
187.436	43.86
187.655	-23.72
187.875	37.72
188.095	-13.48
188.314	97.11
188.534	-3.24
188.753	-54.44
188.973	31.57
189.192	35.67
189.412	-21.67
189.631	13.14
189.851	43.86
190.07	13.14
190.29	64.34
190.509	23.38
190.729	37.72
190.948	29.52
191.168	189.27
191.387	27.48
191.607	-7.34
191.826	-23.72
192.045	17.24
192.265	-13.48
192.484	56.15
192.704	50
192.923	-1.19
193.142	84.82
193.362	72.53
193.581	82.77
193.8	68.44
194.02	109.4
194.239	60.24
194.458	-36.01
194.678	-5.29
194.897	31.57
195.116	27.48
195.335	25.43
195.555	39.76
195.774	15.19
195.993	27.48
196.212	58.2
196.432	45.91
196.651	68.44
196.87	64.34
197.089	58.2
197.308	7
197.528	15.19
197.747	-29.87
197.966	13.14
198.185	2.9
198.404	15.19
198.623	60.24
198.842	7
199.062	25.43
199.281	93.01
199.5	-19.63
199.719	-7.34
199.938	50
200.157	33.62
200.376	86.87
200.595	93.01
200.814	50
201.033	50
201.252	93.01
201.471	4.95
201.69	76.63
201.909	76.63
202.128	41.81
202.347	35.67
202.566	43.86
202.785	23.38
203.004	39.76
203.223	-13.48
203.442	93.01
203.661	47.96
203.879	15.19
204.098	43.86
204.317	-52.39
204.536	43.86
204.755	56.15
204.974	123.73
205.193	37.72
205.411	21.33
205.63	35.67
205.849	58.2
206.068	-11.43
206.287	2.9
206.505	54.1
206.724	50
206.943	-13.48
207.162	35.67
207.381	43.86
207.599	23.38
207.818	35.67
208.037	60.24
208.255	-31.91
208.474	-17.58
208.693	29.52
208.911	27.48
209.13	76.63
209.349	70.48
209.567	39.76
209.786	15.19
210.005	74.58
210.223	33.62
210.442	-21.67
210.661	-7.34
210.879	56.15
211.098	-9.39
211.316	125.78
211.535	-1.19
211.753	15.19
211.972	72.53
212.191	7
212.409	25.43
212.628	31.57
212.846	-7.34
213.065	-13.48
213.283	88.92
213.502	60.24
213.72	-9.39
213.938	113.49
214.157	58.2
214.375	84.82
214.594	33.62
214.812	27.48
215.031	103.25
215.249	-21.67
215.467	25.43
215.686	19.29
215.904	11.09
216.122	66.39
216.341	117.59
216.559	23.38
216.778	21.33
216.996	41.81
217.214	31.57
217.432	60.24
217.651	47.96
217.869	52.05
218.087	23.38
218.306	23.38
218.524	25.43
218.742	68.44
218.96	76.63
219.179	31.57
219.397	25.43
219.615	74.58
219.833	-36.01
220.051	-7.34
220.27	50
220.488	58.2
220.706	66.39
220.924	7
221.142	31.57
221.36	4.95
221.578	52.05
221.796	50
222.015	-7.34
222.233	2.9
222.451	19.29
222.669	-19.63
222.887	19.29
223.105	-5.29
223.323	13.14
223.541	-29.87
223.759	43.86
223.977	66.39
224.195	148.31
224.413	60.24
224.631	15.19
224.849	-5.29
225.067	119.64
225.285	29.52
225.503	9.05
225.721	2.9
225.939	9.05
226.157	47.96
226.375	105.3
226.592	45.91
226.81	41.81
227.028	47.96
227.246	23.38
227.464	19.29
227.682	9.05
227.9	45.91
228.117	-5.29
228.335	125.78
228.553	60.24
228.771	0.85
228.989	33.62
229.206	33.62
229.424	-62.63
229.642	-3.24
229.86	52.05
230.077	84.82
230.295	9.05
230.513	90.96
230.731	17.24
230.948	88.92
231.166	45.91
231.384	74.58
231.601	13.14
231.819	107.35
232.037	-25.77
232.254	11.09
232.472	-9.39
232.689	41.81
232.907	54.1
233.125	37.72
233.342	47.96
233.56	-40.11
233.777	-15.53
233.995	131.92
234.213	43.86
234.43	82.77
234.648	29.52
234.865	39.76
235.083	60.24
235.3	52.05
235.518	45.91
235.735	80.72
235.953	39.76
236.17	35.67
236.388	113.49
236.605	-42.15
236.822	56.15
237.04	47.96
237.257	19.29
237.475	-7.34
237.692	52.05
237.909	-15.53
238.127	-17.58
238.344	125.78
238.562	7
238.779	0.85
238.996	-1.19
239.214	19.29
239.431	60.24
239.648	19.29
239.865	-5.29
240.083	50
240.3	66.39
240.517	11.09
240.735	127.83
240.952	90.96
241.169	90.96
241.386	-1.19
241.603	-7.34
241.821	-17.58
242.038	0.85
242.255	50
242.472	23.38
242.689	66.39
242.907	88.92
243.124	52.05
243.341	25.43
243.558	37.72
243.775	70.48
243.992	-50.35
244.209	86.87
244.426	129.88
244.643	90.96
244.86	-38.06
245.078	23.38
245.295	27.48
245.512	54.1
245.729	88.92
245.946	-21.67
246.163	0.85
246.38	72.53
246.597	15.19
246.814	39.76
247.031	93.01
247.248	29.52
247.464	27.48
247.681	11.09
247.898	-38.06
248.115	4.95
248.332	11.09
248.549	35.67
248.766	93.01
248.983	117.59
249.2	-11.43
249.417	76.63
249.633	-3.24
249.85	43.86
250.067	-40.11
250.284	-19.63
250.501	56.15
250.717	82.77
250.934	45.91
251.151	47.96
251.368	47.96
251.585	68.44
251.801	-9.39
252.018	21.33
252.235	15.19
252.451	4.95
252.668	105.3
252.885	2.9
253.102	70.48
253.318	31.57
253.535	62.29
253.752	2.9
253.968	-38.06
254.185	-5.29
254.401	68.44
254.618	21.33
254.835	21.33
255.051	-5.29
255.268	86.87
255.484	19.29
255.701	52.05
255.917	93.01
256.134	80.72
256.351	45.91
256.567	76.63
256.784	50
257	45.91
257.217	35.67
257.433	-42.15
257.65	76.63
257.866	88.92
258.082	39.76
258.299	-17.58
258.515	-5.29
258.732	27.48
258.948	23.38
259.165	97.11
259.381	-9.39
259.597	54.1
259.814	23.38
260.03	31.57
260.246	15.19
260.463	4.95
260.679	25.43
260.895	39.76
261.112	15.19
261.328	21.33
261.544	11.09
261.761	76.63
261.977	7
262.193	9.05
262.409	31.57
262.626	39.76
262.842	43.86
263.058	-50.35
263.274	68.44
263.49	2.9
263.707	60.24
263.923	43.86
264.139	74.58
264.355	78.68
264.571	113.49
264.787	-50.35
265.004	82.77
265.22	37.72
265.436	-19.63
265.652	-48.3
265.868	50
266.084	13.14
266.3	-1.19
266.516	-19.63
266.732	-52.39
266.948	78.68
267.164	74.58
267.38	2.9
267.596	68.44
267.812	97.11
268.028	33.62
268.244	-3.24
268.46	76.63
268.676	39.76
268.892	54.1
269.108	68.44
269.324	-19.63
269.54	-54.44
269.756	97.11
269.972	31.57
270.188	64.34
270.403	19.29
270.619	50
270.835	50
271.051	60.24
271.267	70.48
271.483	33.62
271.698	2.9
271.914	21.33
272.13	47.96
272.346	17.24
272.562	-13.48
272.777	115.54
272.993	60.24
273.209	-25.77
273.425	60.24
273.64	58.2
273.856	109.4
274.072	109.4
274.287	-15.53
274.503	43.86
274.719	17.24
274.934	13.14
275.15	21.33
275.366	-54.44
275.581	-66.73
275.797	23.38
276.012	47.96
276.228	11.09
276.444	66.39
276.659	31.57
276.875	27.48
277.09	11.09
277.306	-48.3
277.521	19.29
277.737	2.9
277.952	76.63
278.168	47.96
278.383	-11.43
278.599	62.29
278.814	39.76
279.03	19.29
279.245	105.3
279.461	-31.91
279.676	66.39
279.892	-19.63
280.107	-42.15
280.322	-46.25
280.538	76.63
280.753	29.52
280.969	80.72
281.184	-13.48
281.399	33.62
281.615	29.52
281.83	-21.67
282.045	27.48
282.26	-42.15
282.476	47.96
282.691	72.53
282.906	47.96
283.122	-25.77
283.337	4.95
283.552	105.3
283.767	43.86
283.983	90.96
284.198	33.62
284.413	66.39
284.628	-17.58
284.843	70.48
285.058	84.82
285.274	-15.53
285.489	29.52
285.704	47.96
285.919	64.34
286.134	39.76
286.349	-17.58
286.564	-21.67
286.779	58.2
286.995	82.77
287.21	19.29
287.425	33.62
287.64	74.58
287.855	29.52
288.07	31.57
288.285	52.05
288.5	99.16
288.715	64.34
288.93	-3.24
289.145	39.76
289.36	29.52
289.575	-15.53
289.79	-50.35
290.004	88.92
290.219	125.78
290.434	-17.58
290.649	0.85
290.864	4.95
291.079	-52.39
291.294	15.19
291.509	23.38
291.724	62.29
291.938	-3.24
292.153	76.63
292.368	86.87
292.583	39.76
292.798	66.39
293.012	-17.58
293.227	27.48
293.442	-46.25
293.657	74.58
293.871	62.29
294.086	56.15
294.301	82.77
294.516	99.16
294.73	50
294.945	31.57
295.16	56.15
295.374	97.11
295.589	60.24
295.804	-15.53
296.018	-46.25
296.233	54.1
296.447	82.77
296.662	45.91
296.877	66.39
297.091	99.16
297.306	121.68
297.52	35.67
297.735	78.68
297.949	33.62
298.164	37.72
298.378	78.68
298.593	4.95
298.807	0.85
299.022	29.52
299.236	72.53
299.451	-3.24
299.665	21.33
299.88	82.77
300.094	70.48
300.309	-9.39
300.523	-9.39
300.737	76.63
300.952	35.67
301.166	17.24
301.381	58.2
301.595	54.1
301.809	74.58
302.024	39.76
302.238	47.96
302.452	86.87
302.667	50
302.881	82.77
303.095	70.48
303.309	66.39
303.524	80.72
303.738	72.53
303.952	-38.06
304.166	39.76
304.381	0.85
304.595	39.76
304.809	27.48
305.023	4.95
305.237	39.76
305.452	35.67
305.666	31.57
305.88	-5.29
306.094	97.11
306.308	39.76
306.522	90.96
306.736	74.58
306.95	101.2
307.164	82.77
307.379	-9.39
307.593	84.82
307.807	41.81
308.021	84.82
308.235	121.68
308.449	17.24
308.663	43.86
308.877	119.64
309.091	90.96
309.305	66.39
309.519	64.34
309.733	29.52
309.947	-7.34
310.161	43.86
310.374	37.72
310.588	68.44
310.802	25.43
311.016	97.11
311.23	27.48
311.444	-29.87
311.658	17.24
311.872	39.76
312.085	62.29
312.299	72.53
312.513	13.14
312.727	52.05
312.941	41.81
313.154	56.15
313.368	31.57
313.582	72.53
313.796	47.96
314.009	60.24
314.223	29.52
314.437	101.2
314.651	68.44
314.864	58.2
315.078	2.9
315.292	9.05
315.505	-7.34
315.719	27.48
315.933	39.76
316.146	52.05
316.36	-56.49
316.573	9.05
316.787	27.48
317.001	90.96
317.214	-23.72
317.428	33.62
317.641	-9.39
317.855	13.14
318.068	-3.24
318.282	-25.77
318.495	80.72
318.709	23.38
318.922	23.38
319.136	31.57
319.349	45.91
319.563	52.05
319.776	82.77
319.99	-1.19
320.203	31.57
320.417	86.87
320.63	27.48
320.843	95.06
321.057	37.72
321.27	66.39
321.483	62.29
321.697	-66.73
321.91	105.3
322.124	27.48
322.337	-42.15
322.55	23.38
322.763	97.11
322.977	60.24
323.19	25.43
323.403	86.87
323.617	88.92
323.83	54.1
324.043	11.09
324.256	84.82
324.469	74.58
324.683	45.91
324.896	-17.58
325.109	47.96
325.322	54.1
325.535	70.48
325.748	31.57
325.962	50
326.175	43.86
326.388	54.1
326.601	80.72
326.814	9.05
327.027	25.43
327.24	52.05
327.453	19.29
327.666	50
327.879	86.87
328.092	101.2
328.305	56.15
328.518	-9.39
328.731	15.19
328.944	74.58
329.157	-3.24
329.37	4.95
329.583	4.95
329.796	72.53
330.009	56.15
330.222	72.53
330.435	82.77
330.648	97.11
330.861	23.38
331.073	58.2
331.286	17.24
331.499	56.15
331.712	-29.87
331.925	93.01
332.138	25.43
332.35	123.73
332.563	27.48
332.776	78.68
332.989	-46.25
333.202	115.54
333.414	70.48
333.627	68.44
333.84	43.86
334.053	45.91
334.265	4.95
334.478	50
334.691	-17.58
334.903	68.44
335.116	2.9
335.329	-5.29
335.541	60.24
335.754	58.2
335.966	15.19
336.179	80.72
336.392	4.95
336.604	2.9
336.817	115.54
337.029	86.87
337.242	43.86
337.454	86.87
337.667	39.76
337.88	93.01
338.092	35.67
338.305	82.77
338.517	35.67
338.729	97.11
338.942	131.92
339.154	43.86
339.367	-7.34
339.579	76.63
339.792	35.67
340.004	58.2
340.217	19.29
340.429	35.67
340.641	29.52
340.854	35.67
341.066	95.06
341.278	45.91
341.491	80.72
341.703	47.96
341.915	-7.34
342.128	105.3
342.34	-42.15
342.552	31.57
342.764	52.05
342.977	64.34
343.189	33.62
343.401	-1.19
343.613	-23.72
343.826	11.09
344.038	41.81
344.25	60.24
344.462	15.19
344.674	101.2
344.886	88.92
345.099	60.24
345.311	113.49
345.523	43.86
345.735	58.2
345.947	-1.19
346.159	39.76
346.371	50
346.583	25.43
346.795	72.53
347.007	105.3
347.219	90.96
347.431	31.57
347.643	119.64
347.855	19.29
348.067	23.38
348.279	-13.48
348.491	15.19
348.703	50
348.915	19.29
349.127	2.9
349.339	66.39
349.551	84.82
349.763	11.09
349.975	117.59
350.187	115.54
350.399	39.76
350.61	-25.77
350.822	31.57
351.034	43.86
351.246	105.3
351.458	-5.29
351.669	39.76
351.881	52.05
352.093	84.82
352.305	50
352.517	56.15
352.728	86.87
352.94	70.48
353.152	64.34
353.363	0.85
353.575	54.1
353.787	154.45
353.999	35.67
354.21	33.62
354.422	9.05
354.633	-17.58
354.845	56.15
355.057	93.01
355.268	90.96
355.48	33.62
355.692	9.05
355.903	-9.39
356.115	66.39
356.326	21.33
356.538	66.39
356.749	33.62
356.961	99.16
357.172	115.54
357.384	41.81
357.595	93.01
357.807	68.44
358.018	41.81
358.23	60.24
358.441	166.74
358.653	33.62
358.864	-54.44
359.075	-29.87
359.287	56.15
359.498	11.09
359.709	47.96
359.921	56.15
360.132	27.48
360.344	80.72
360.555	0.85
360.766	78.68
360.977	15.19
361.189	15.19
361.4	7
361.611	84.82
361.823	148.31
362.034	-1.19
362.245	33.62
362.456	37.72
362.667	115.54
362.879	39.76
363.09	39.76
363.301	74.58
363.512	21.33
363.723	15.19
363.935	2.9
364.146	62.29
364.357	45.91
364.568	82.77
364.779	-3.24
364.99	39.76
365.201	-5.29
365.412	15.19
365.623	66.39
365.834	11.09
366.045	29.52
366.256	25.43
366.467	47.96
366.678	97.11
366.889	101.2
367.1	52.05
367.311	60.24
367.522	101.2
367.733	31.57
367.944	80.72
368.155	68.44
368.366	64.34
368.577	66.39
368.788	62.29
368.999	58.2
369.209	88.92
369.42	131.92
369.631	68.44
369.842	29.52
370.053	23.38
370.264	66.39
370.474	2.9
370.685	35.67
370.896	109.4
371.107	142.16
371.317	99.16
371.528	50
371.739	76.63
371.95	45.91
372.16	58.2
372.371	35.67
372.582	45.91
372.792	35.67
373.003	111.44
373.214	-23.72
373.424	-7.34
373.635	35.67
373.846	125.78
374.056	47.96
374.267	47.96
374.477	68.44
374.688	101.2
374.898	33.62
375.109	66.39
375.319	-9.39
375.53	113.49
375.74	68.44
375.951	56.15
376.161	66.39
376.372	76.63
376.582	47.96
376.793	-13.48
377.003	43.86
377.214	31.57
377.424	37.72
377.635	56.15
377.845	-19.63
378.055	72.53
378.266	43.86
378.476	-5.29
378.686	50
378.897	25.43
379.107	37.72
379.317	19.29
379.528	58.2
379.738	95.06
379.948	84.82
380.158	9.05
380.369	62.29
380.579	-25.77
380.789	0.85
380.999	86.87
381.21	109.4
381.42	47.96
381.63	0.85
381.84	47.96
382.05	68.44
382.261	78.68
382.471	76.63
382.681	45.91
382.891	78.68
383.101	103.25
383.311	-11.43
383.521	-17.58
383.731	76.63
383.941	52.05
384.151	84.82
384.361	121.68
384.571	11.09
384.781	138.07
384.991	117.59
385.201	93.01
385.411	103.25
385.621	64.34
385.831	-1.19
386.041	35.67
386.251	41.81
386.461	29.52
386.671	27.48
386.881	35.67
387.091	95.06
387.301	72.53
387.511	47.96
387.72	107.35
387.93	-23.72
388.14	11.09
388.35	-1.19
388.56	97.11
388.769	45.91
388.979	72.53
389.189	52.05
389.399	90.96
389.609	76.63
389.818	140.12
390.028	152.4
390.238	45.91
390.447	17.24
390.657	90.96
390.867	47.96
391.076	86.87
391.286	105.3
391.496	39.76
391.705	35.67
391.915	111.44
392.125	93.01
392.334	64.34
392.544	70.48
392.753	133.97
392.963	97.11
393.172	84.82
393.382	86.87
393.591	156.5
393.801	107.35
394.01	142.16
394.22	140.12
394.429	93.01
394.639	105.3
394.848	39.76
395.058	76.63
395.267	66.39
395.477	138.07
395.686	107.35
395.895	80.72
396.105	105.3
396.314	72.53
396.524	121.68
396.733	56.15
396.942	144.21
397.152	140.12
397.361	95.06
397.57	117.59
397.78	90.96
397.989	115.54
398.198	150.36
398.407	58.2
398.617	66.39
398.826	84.82
399.035	56.15
399.244	129.88
399.453	125.78
399.663	148.31
399.872	133.97
400.081	105.3
400.29	119.64
400.499	148.31
400.708	107.35
400.917	121.68
401.127	90.96
401.336	158.55
401.545	148.31
401.754	88.92
401.963	138.07
402.172	181.07
402.381	170.83
402.59	133.97
402.799	125.78
403.008	136.02
403.217	82.77
403.426	82.77
403.635	148.31
403.844	107.35
404.053	127.83
404.262	191.31
404.471	281.43
404.68	115.54
404.888	138.07
405.097	215.89
405.306	140.12
405.515	207.7
405.724	213.84
405.933	252.75
406.142	273.23
406.35	226.13
406.559	199.51
406.768	179.03
406.977	306
407.185	170.83
407.394	166.74
407.603	228.18
407.812	248.66
408.02	279.38
408.229	207.7
408.438	293.71
408.646	176.98
408.855	310.1
409.064	324.43
409.272	361.3
409.481	303.95
409.69	269.14
409.898	365.39
410.107	351.06
410.315	349.01
410.524	316.24
410.733	334.67
410.941	351.06
411.15	377.68
411.358	437.07
411.567	418.64
411.775	492.37
411.984	443.21
412.192	432.97
412.401	502.61
412.609	500.56
412.818	566.09
413.026	539.47
413.234	592.72
413.443	510.8
413.651	533.33
413.86	723.79
414.068	666.44
414.276	705.35
414.485	666.44
414.693	729.93
414.901	777.03
415.11	729.93
415.318	820.04
415.526	883.53
415.734	875.34
415.943	912.2
416.151	908.1
416.359	893.77
416.567	979.78
416.776	938.82
416.984	1086.28
417.192	1051.46
417.4	1073.99
417.608	1100.61
417.817	1086.28
418.025	1241.92
418.233	1262.4
418.441	1319.75
418.649	1307.46
418.857	1268.55
419.065	1571.65
419.273	1424.19
419.481	1342.27
419.689	1549.12
419.897	1688.38
420.105	1602.36
420.313	1733.43
420.521	1764.15
420.729	1852.22
420.937	1858.36
421.145	2018.1
421.353	2048.82
421.561	2036.53
421.769	2173.75
421.977	2204.47
422.185	2149.17
422.393	2487.09
422.601	2403.12
422.809	2526
423.017	2540.33
423.224	2655.02
423.432	2769.71
423.64	2808.62
423.848	2911.02
424.056	2882.35
424.263	3136.29
424.471	3117.86
424.679	3236.64
424.887	3341.09
425.094	3504.93
425.302	3529.5
425.51	3638.05
425.718	3797.79
425.925	3826.46
426.133	3959.58
426.341	4156.18
426.548	4369.17
426.756	4289.3
426.964	4281.11
427.171	4569.87
427.379	4680.46
427.586	4764.43
427.794	4926.22
428.001	5178.12
428.209	5364.48
428.417	5458.69
428.624	5716.73
428.832	5690.11
429.039	5610.24
429.247	5620.48
429.454	6296.31
429.662	6685.42
429.869	6288.12
430.076	6636.27
430.284	6454
430.491	6732.53
430.699	7152.36
430.906	7084.78
431.114	7205.61
431.321	7383.78
431.528	7545.57
431.736	8116.95
431.943	8288.98
432.15	8202.97
432.358	8381.14
432.565	8706.77
432.772	8653.52
432.979	9128.65
433.187	9276.1
433.394	9376.45
433.601	10072.76
433.808	9980.61
434.016	9902.78
434.223	10439.35
434.43	10805.94
434.637	10701.49
434.844	11416.23
435.052	11565.73
435.259	11584.16
435.466	11741.86
435.673	11504.29
435.88	12360.34
436.087	12864.15
436.294	12925.58
436.501	12728.98
436.708	12937.87
436.915	13470.34
437.122	13980.29
437.329	14117.5
437.537	14326.39
437.743	14686.84
437.95	14377.59
438.157	15071.86
438.364	15508.07
438.571	15557.22
438.778	15833.7
438.985	17121.87
439.192	16540.25
439.399	17328.72
439.606	16876.12
439.813	17519.18
440.02	18606.65
440.227	18379.32
440.433	18401.85
440.64	18854.45
440.847	18647.61
441.054	18997.81
441.261	20363.81
441.467	20210.21
441.674	20410.91
441.881	21191.19
442.088	20871.7
442.294	21084.69
442.501	21729.8
442.708	21940.74
442.914	22913.53
443.121	23845.35
443.328	23134.71
443.534	24668.64
443.741	23929.32
443.948	23607.79
444.154	25758.16
444.361	25117.14
444.568	25582.03
444.774	25194.96
444.981	25696.72
445.187	26405.31
445.394	27439.54
445.6	26849.72
445.807	29759.89
446.013	28418.47
446.22	29118.87
446.426	30046.6
446.633	30382.47
446.839	31291.77
447.046	30144.91
447.252	31607.16
447.459	31977.84
447.665	31510.9
447.871	32661.86
448.078	34296.14
448.284	32604.52
448.491	33218.91
448.697	34799.94
448.903	35199.29
449.11	35565.88
449.316	34842.95
449.522	34971.97
449.728	36366.63
449.935	36397.35
450.141	36450.6
450.347	37429.53
450.553	35846.45
450.76	36708.65
450.966	37413.15
451.172	36935.97
451.378	37683.48
451.584	37574.94
451.791	38430.99
451.997	38310.16
452.203	38674.7
452.409	38768.9
452.615	38404.36
452.821	37376.28
453.027	36657.45
453.233	38476.04
453.44	36696.36
453.646	37337.37
453.852	37097.76
454.058	38232.33
454.264	36747.56
454.47	37806.36
454.676	36618.53
454.882	37830.93
455.088	34771.27
455.294	35178.81
455.5	35352.89
455.705	35920.18
455.911	34492.74
456.117	33741.14
456.323	33177.95
456.529	31390.07
456.735	32969.05
456.941	32121.2
457.147	31211.9
457.352	30470.53
457.558	29976.97
457.764	30185.86
457.97	29555.09
458.176	29010.33
458.381	28963.23
458.587	27546.03
458.793	27576.75
458.999	26407.36
459.204	28051.88
459.41	27156.92
459.616	25403.86
459.821	25498.06
460.027	25311.7
460.233	24707.55
460.438	23583.21
460.644	24078.82
460.85	22804.99
461.055	22405.63
461.261	22211.07
461.466	20660.76
461.672	20279.84
461.878	21821.96
462.083	20009.51
462.289	19753.51
462.494	19638.83
462.7	18983.48
462.905	18281.02
463.111	18772.53
463.316	18876.98
463.522	18604.6
463.727	18602.55
463.932	18651.7
464.138	18399.8
464.343	18534.97
464.549	17797.7
464.754	18594.36
464.959	18313.79
465.165	18379.32
465.37	17519.18
465.575	16790.1
465.781	17646.15
465.986	17541.71
466.191	17164.88
466.397	16788.05
466.602	15829.6
466.807	16632.41
467.012	16708.18
467.218	16466.52
467.423	16288.35
467.628	16646.74
467.833	17205.84
468.038	16353.88
468.244	16015.97
