Data from USB4F104151__181__10-27-51-887.txt Node

Date: Wed Mar 12 10:27:51 EDT 2025
User: louis
Spectrometer: USB4F10415
Trigger mode: 4
Integration Time (sec): 3.000000E-2
Scans to average: 1
Electric dark correction enabled: true
Nonlinearity correction enabled: false
Boxcar width: 0
XAxis mode: Wavelengths
Number of Pixels in Spectrum: 3648
>>>>>Begin Spectral Data<<<<<
178.204	-140.46
178.424	-140.46
178.644	-140.46
178.864	-117.93
179.084	-181.42
179.304	80.72
179.524	-13.48
179.744	9.05
179.964	-5.29
180.184	80.72
180.404	17.24
180.624	-1.19
180.844	-11.43
181.064	-91.31
181.283	13.14
181.503	4.95
181.723	-83.11
181.943	-33.96
182.163	52.05
182.383	-27.82
182.602	-40.11
182.822	21.33
183.042	35.67
183.262	-38.06
183.482	4.95
183.701	-83.11
183.921	-1.19
184.141	21.33
184.361	-1.19
184.58	47.96
184.8	23.38
185.02	-62.63
185.239	27.48
185.459	35.67
185.679	0.85
185.898	-46.25
186.118	66.39
186.338	37.72
186.557	43.86
186.777	-27.82
186.997	-40.11
187.216	9.05
187.436	150.36
187.655	27.48
187.875	45.91
188.095	-15.53
188.314	88.92
188.534	-1.19
188.753	-38.06
188.973	-19.63
189.192	35.67
189.412	31.57
189.631	4.95
189.851	39.76
190.07	41.81
190.29	93.01
190.509	-38.06
190.729	-46.25
190.948	21.33
191.168	179.03
191.387	39.76
191.607	-9.39
191.826	-27.82
192.045	-33.96
192.265	-62.63
192.484	52.05
192.704	-9.39
192.923	7
193.142	35.67
193.362	60.24
193.581	76.63
193.8	-68.78
194.02	107.35
194.239	-5.29
194.458	33.62
194.678	13.14
194.897	54.1
195.116	13.14
195.335	13.14
195.555	39.76
195.774	82.77
195.993	2.9
196.212	52.05
196.432	15.19
196.651	72.53
196.87	7
197.089	41.81
197.308	88.92
197.528	-5.29
197.747	-23.72
197.966	9.05
198.185	78.68
198.404	-5.29
198.623	43.86
198.842	45.91
199.062	25.43
199.281	47.96
199.5	33.62
199.719	52.05
199.938	27.48
200.157	15.19
200.376	64.34
200.595	56.15
200.814	-36.01
201.033	7
201.252	86.87
201.471	60.24
201.69	50
201.909	101.2
202.128	4.95
202.347	52.05
202.566	0.85
202.785	11.09
203.004	41.81
203.223	107.35
203.442	56.15
203.661	15.19
203.879	13.14
204.098	11.09
204.317	-21.67
204.536	37.72
204.755	43.86
204.974	45.91
205.193	-40.11
205.411	64.34
205.63	-23.72
205.849	-64.68
206.068	76.63
206.287	23.38
206.505	-72.87
206.724	15.19
206.943	11.09
207.162	-7.34
207.381	19.29
207.599	41.81
207.818	35.67
208.037	39.76
208.255	4.95
208.474	52.05
208.693	7
208.911	15.19
209.13	19.29
209.349	19.29
209.567	35.67
209.786	76.63
210.005	47.96
210.223	27.48
210.442	-33.96
210.661	50
210.879	-42.15
211.098	29.52
211.316	-13.48
211.535	121.68
211.753	23.38
211.972	25.43
212.191	50
212.409	4.95
212.628	25.43
212.846	7
213.065	60.24
213.283	25.43
213.502	-13.48
213.72	23.38
213.938	-38.06
214.157	17.24
214.375	76.63
214.594	-13.48
214.812	-29.87
215.031	15.19
215.249	47.96
215.467	2.9
215.686	27.48
215.904	70.48
216.122	60.24
216.341	9.05
216.559	-50.35
216.778	60.24
216.996	82.77
217.214	-11.43
217.432	11.09
217.651	-9.39
217.869	31.57
218.087	84.82
218.306	-23.72
218.524	47.96
218.742	47.96
218.96	54.1
219.179	-29.87
219.397	17.24
219.615	19.29
219.833	60.24
220.051	31.57
220.27	17.24
220.488	52.05
220.706	74.58
220.924	-50.35
221.142	11.09
221.36	-15.53
221.578	50
221.796	60.24
222.015	103.25
222.233	-36.01
222.451	58.2
222.669	11.09
222.887	37.72
223.105	21.33
223.323	15.19
223.541	-48.3
223.759	9.05
223.977	68.44
224.195	43.86
224.413	23.38
224.631	23.38
224.849	35.67
225.067	52.05
225.285	17.24
225.503	-15.53
225.721	-50.35
225.939	2.9
226.157	7
226.375	64.34
226.592	11.09
226.81	-13.48
227.028	41.81
227.246	103.25
227.464	37.72
227.682	41.81
227.9	60.24
228.117	2.9
228.335	90.96
228.553	-50.35
228.771	41.81
228.989	15.19
229.206	-1.19
229.424	-11.43
229.642	82.77
229.86	11.09
230.077	56.15
230.295	29.52
230.513	11.09
230.731	35.67
230.948	27.48
231.166	52.05
231.384	41.81
231.601	-44.2
231.819	64.34
232.037	-58.54
232.254	-31.91
232.472	-5.29
232.689	13.14
232.907	2.9
233.125	7
233.342	21.33
233.56	13.14
233.777	60.24
233.995	64.34
234.213	131.92
234.43	-29.87
234.648	-40.11
234.865	27.48
235.083	2.9
235.3	33.62
235.518	31.57
235.735	-15.53
235.953	90.96
236.17	-70.83
236.388	41.81
236.605	-33.96
236.822	17.24
237.04	19.29
237.257	19.29
237.475	-33.96
237.692	64.34
237.909	39.76
238.127	-68.78
238.344	64.34
238.562	-1.19
238.779	-17.58
238.996	-19.63
239.214	31.57
239.431	101.2
239.648	-66.73
239.865	-52.39
240.083	-5.29
240.3	31.57
240.517	-29.87
240.735	19.29
240.952	31.57
241.169	11.09
241.386	9.05
241.603	-17.58
241.821	-21.67
242.038	56.15
242.255	-3.24
242.472	-87.21
242.689	4.95
242.907	19.29
243.124	-48.3
243.341	-56.49
243.558	-31.91
243.775	-46.25
243.992	-13.48
244.209	-5.29
244.426	-1.19
244.643	41.81
244.86	-5.29
245.078	19.29
245.295	45.91
245.512	78.68
245.729	21.33
245.946	76.63
246.163	-9.39
246.38	-7.34
246.597	50
246.814	56.15
247.031	-29.87
247.248	31.57
247.464	27.48
247.681	60.24
247.898	-7.34
248.115	52.05
248.332	0.85
248.549	7
248.766	111.44
248.983	58.2
249.2	74.58
249.417	21.33
249.633	19.29
249.85	29.52
250.067	52.05
250.284	25.43
250.501	17.24
250.717	-25.77
250.934	-15.53
251.151	-19.63
251.368	-1.19
251.585	68.44
251.801	17.24
252.018	-29.87
252.235	27.48
252.451	50
252.668	64.34
252.885	-54.44
253.102	21.33
253.318	58.2
253.535	-72.87
253.752	25.43
253.968	29.52
254.185	84.82
254.401	-5.29
254.618	-54.44
254.835	15.19
255.051	127.83
255.268	-11.43
255.484	33.62
255.701	-19.63
255.917	68.44
256.134	4.95
256.351	-17.58
256.567	56.15
256.784	-1.19
257	-7.34
257.217	27.48
257.433	93.01
257.65	72.53
257.866	56.15
258.082	-38.06
258.299	25.43
258.515	43.86
258.732	29.52
258.948	64.34
259.165	21.33
259.381	-42.15
259.597	-19.63
259.814	66.39
260.03	-3.24
260.246	27.48
260.463	-9.39
260.679	35.67
260.895	0.85
261.112	62.29
261.328	-21.67
261.544	-29.87
261.761	109.4
261.977	-9.39
262.193	56.15
262.409	39.76
262.626	27.48
262.842	60.24
263.058	50
263.274	95.06
263.49	47.96
263.707	2.9
263.923	23.38
264.139	23.38
264.355	35.67
264.571	80.72
264.787	47.96
265.004	82.77
265.22	-33.96
265.436	76.63
265.652	0.85
265.868	-9.39
266.084	-21.67
266.3	29.52
266.516	-11.43
266.732	90.96
266.948	50
267.164	39.76
267.38	27.48
267.596	41.81
267.812	60.24
268.028	31.57
268.244	-1.19
268.46	23.38
268.676	25.43
268.892	95.06
269.108	-3.24
269.324	19.29
269.54	-50.35
269.756	60.24
269.972	-25.77
270.188	-17.58
270.403	-29.87
270.619	15.19
270.835	90.96
271.051	-9.39
271.267	58.2
271.483	23.38
271.698	58.2
271.914	21.33
272.13	7
272.346	-3.24
272.562	33.62
272.777	52.05
272.993	-29.87
273.209	-11.43
273.425	25.43
273.64	-11.43
273.856	-13.48
274.072	7
274.287	-50.35
274.503	-29.87
274.719	15.19
274.934	-27.82
275.15	-113.83
275.366	-13.48
275.581	37.72
275.797	52.05
276.012	21.33
276.228	11.09
276.444	4.95
276.659	25.43
276.875	-11.43
277.09	-42.15
277.306	-81.07
277.521	-25.77
277.737	-19.63
277.952	-5.29
278.168	109.4
278.383	64.34
278.599	-23.72
278.814	13.14
279.03	-31.91
279.245	27.48
279.461	47.96
279.676	13.14
279.892	19.29
280.107	17.24
280.322	-11.43
280.538	39.76
280.753	-46.25
280.969	72.53
281.184	11.09
281.399	56.15
281.615	-9.39
281.83	113.49
282.045	-79.02
282.26	19.29
282.476	62.29
282.691	17.24
282.906	50
283.122	-29.87
283.337	4.95
283.552	4.95
283.767	-7.34
283.983	47.96
284.198	23.38
284.413	37.72
284.628	-5.29
284.843	50
285.058	35.67
285.274	4.95
285.489	31.57
285.704	35.67
285.919	-11.43
286.134	27.48
286.349	19.29
286.564	-17.58
286.779	27.48
286.995	27.48
287.21	23.38
287.425	66.39
287.64	-19.63
287.855	52.05
288.07	11.09
288.285	31.57
288.5	-66.73
288.715	11.09
288.93	-29.87
289.145	17.24
289.36	39.76
289.575	7
289.79	39.76
290.004	27.48
290.219	54.1
290.434	39.76
290.649	60.24
290.864	-50.35
291.079	4.95
291.294	9.05
291.509	93.01
291.724	-29.87
291.938	-25.77
292.153	41.81
292.368	35.67
292.583	25.43
292.798	27.48
293.012	60.24
293.227	52.05
293.442	19.29
293.657	4.95
293.871	105.3
294.086	-17.58
294.301	93.01
294.516	117.59
294.73	60.24
294.945	9.05
295.16	58.2
295.374	9.05
295.589	74.58
295.804	72.53
296.018	56.15
296.233	80.72
296.447	17.24
296.662	15.19
296.877	33.62
297.091	37.72
297.306	62.29
297.52	9.05
297.735	25.43
297.949	9.05
298.164	115.54
298.378	72.53
298.593	-60.59
298.807	-23.72
299.022	86.87
299.236	47.96
299.451	-23.72
299.665	-3.24
299.88	-36.01
300.094	2.9
300.309	15.19
300.523	-13.48
300.737	2.9
300.952	41.81
301.166	19.29
301.381	54.1
301.595	60.24
301.809	15.19
302.024	27.48
302.238	0.85
302.452	47.96
302.667	-19.63
302.881	39.76
303.095	125.78
303.309	52.05
303.524	-44.2
303.738	0.85
303.952	-27.82
304.166	37.72
304.381	-5.29
304.595	43.86
304.809	-46.25
305.023	-13.48
305.237	62.29
305.452	62.29
305.666	76.63
305.88	45.91
306.094	54.1
306.308	70.48
306.522	-9.39
306.736	35.67
306.95	-13.48
307.164	-11.43
307.379	-42.15
307.593	95.06
307.807	47.96
308.021	60.24
308.235	74.58
308.449	19.29
308.663	-13.48
308.877	111.44
309.091	41.81
309.305	47.96
309.519	-29.87
309.733	35.67
309.947	11.09
310.161	64.34
310.374	99.16
310.588	29.52
310.802	-31.91
311.016	35.67
311.23	39.76
311.444	4.95
311.658	74.58
311.872	31.57
312.085	33.62
312.299	37.72
312.513	50
312.727	52.05
312.941	-17.58
313.154	41.81
313.368	17.24
313.582	62.29
313.796	-9.39
314.009	-66.73
314.223	82.77
314.437	23.38
314.651	60.24
314.864	43.86
315.078	17.24
315.292	-70.83
315.505	50
315.719	70.48
315.933	2.9
316.146	-42.15
316.36	27.48
316.573	47.96
316.787	-5.29
317.001	88.92
317.214	-9.39
317.428	-5.29
317.641	47.96
317.855	56.15
318.068	31.57
318.282	9.05
318.495	58.2
318.709	58.2
318.922	-9.39
319.136	43.86
319.349	80.72
319.563	50
319.776	2.9
319.99	15.19
320.203	97.11
320.417	0.85
320.63	70.48
320.843	70.48
321.057	27.48
321.27	54.1
321.483	7
321.697	27.48
321.91	41.81
322.124	86.87
322.337	35.67
322.55	35.67
322.763	72.53
322.977	-31.91
323.19	-36.01
323.403	103.25
323.617	-60.59
323.83	-25.77
324.043	-91.31
324.256	82.77
324.469	64.34
324.683	64.34
324.896	-5.29
325.109	58.2
325.322	-56.49
325.535	54.1
325.748	-21.67
325.962	4.95
326.175	-13.48
326.388	66.39
326.601	66.39
326.814	97.11
327.027	-7.34
327.24	50
327.453	19.29
327.666	2.9
327.879	41.81
328.092	47.96
328.305	-3.24
328.518	47.96
328.731	21.33
328.944	4.95
329.157	-3.24
329.37	31.57
329.583	47.96
329.796	15.19
330.009	-54.44
330.222	93.01
330.435	-54.44
330.648	-7.34
330.861	7
331.073	23.38
331.286	131.92
331.499	86.87
331.712	-3.24
331.925	27.48
332.138	60.24
332.35	74.58
332.563	25.43
332.776	84.82
332.989	-3.24
333.202	-13.48
333.414	56.15
333.627	-23.72
333.84	66.39
334.053	-38.06
334.265	-29.87
334.478	-11.43
334.691	-19.63
334.903	52.05
335.116	-23.72
335.329	11.09
335.541	25.43
335.754	95.06
335.966	29.52
336.179	27.48
336.392	-11.43
336.604	50
336.817	13.14
337.029	35.67
337.242	56.15
337.454	4.95
337.667	-31.91
337.88	95.06
338.092	72.53
338.305	-54.44
338.517	52.05
338.729	35.67
338.942	50
339.154	27.48
339.367	60.24
339.579	-33.96
339.792	15.19
340.004	21.33
340.217	-5.29
340.429	25.43
340.641	-25.77
340.854	39.76
341.066	13.14
341.278	41.81
341.491	45.91
341.703	76.63
341.915	41.81
342.128	115.54
342.34	2.9
342.552	0.85
342.764	23.38
342.977	-23.72
343.189	95.06
343.401	84.82
343.613	-19.63
343.826	-13.48
344.038	93.01
344.25	50
344.462	-54.44
344.674	-25.77
344.886	15.19
345.099	103.25
345.311	7
345.523	-21.67
345.735	-64.68
345.947	60.24
346.159	13.14
346.371	47.96
346.583	-1.19
346.795	115.54
347.007	25.43
347.219	25.43
347.431	13.14
347.643	35.67
347.855	-70.83
348.067	-9.39
348.279	35.67
348.491	58.2
348.703	19.29
348.915	43.86
349.127	15.19
349.339	9.05
349.551	76.63
349.763	97.11
349.975	11.09
350.187	88.92
350.399	58.2
350.61	23.38
350.822	-11.43
351.034	56.15
351.246	-38.06
351.458	64.34
351.669	107.35
351.881	43.86
352.093	17.24
352.305	31.57
352.517	27.48
352.728	37.72
352.94	72.53
353.152	39.76
353.363	9.05
353.575	-50.35
353.787	60.24
353.999	27.48
354.21	97.11
354.422	4.95
354.633	9.05
354.845	78.68
355.057	-46.25
355.268	-40.11
355.48	11.09
355.692	27.48
355.903	56.15
356.115	-9.39
356.326	-25.77
356.538	11.09
356.749	-5.29
356.961	84.82
357.172	45.91
357.384	-52.39
357.595	64.34
357.807	15.19
358.018	27.48
358.23	-36.01
358.441	0.85
358.653	50
358.864	25.43
359.075	-9.39
359.287	-38.06
359.498	90.96
359.709	9.05
359.921	27.48
360.132	-5.29
360.344	80.72
360.555	-38.06
360.766	37.72
360.977	-23.72
361.189	74.58
361.4	-81.07
361.611	31.57
361.823	109.4
362.034	4.95
362.245	-15.53
362.456	60.24
362.667	11.09
362.879	-3.24
363.09	76.63
363.301	56.15
363.512	80.72
363.723	54.1
363.935	-9.39
364.146	84.82
364.357	56.15
364.568	76.63
364.779	13.14
364.99	35.67
365.201	35.67
365.412	35.67
365.623	-21.67
365.834	62.29
366.045	-15.53
366.256	21.33
366.467	27.48
366.678	52.05
366.889	11.09
367.1	-23.72
367.311	-25.77
367.522	17.24
367.733	-19.63
367.944	68.44
368.155	-33.96
368.366	2.9
368.577	-13.48
368.788	13.14
368.999	17.24
369.209	54.1
369.42	72.53
369.631	11.09
369.842	47.96
370.053	76.63
370.264	76.63
370.474	-7.34
370.685	-11.43
370.896	-11.43
371.107	27.48
371.317	50
371.528	23.38
371.739	95.06
371.95	-5.29
372.16	11.09
372.371	-46.25
372.582	-5.29
372.792	113.49
373.003	2.9
373.214	50
373.424	78.68
373.635	-56.49
373.846	58.2
374.056	-7.34
374.267	-40.11
374.477	74.58
374.688	-38.06
374.898	21.33
375.109	-11.43
375.319	0.85
375.53	90.96
375.74	64.34
375.951	72.53
376.161	70.48
376.372	17.24
376.582	-1.19
376.793	17.24
377.003	2.9
377.214	80.72
377.424	84.82
377.635	33.62
377.845	17.24
378.055	33.62
378.266	-17.58
378.476	-9.39
378.686	107.35
378.897	23.38
379.107	115.54
379.317	72.53
379.528	15.19
379.738	13.14
379.948	-21.67
380.158	74.58
380.369	-13.48
380.579	138.07
380.789	101.2
380.999	50
381.21	31.57
381.42	101.2
381.63	52.05
381.84	93.01
382.05	84.82
382.261	41.81
382.471	47.96
382.681	-56.49
382.891	62.29
383.101	64.34
383.311	-31.91
383.521	43.86
383.731	15.19
383.941	68.44
384.151	136.02
384.361	25.43
384.571	-5.29
384.781	97.11
384.991	54.1
385.201	78.68
385.411	-83.11
385.621	41.81
385.831	21.33
386.041	-50.35
386.251	15.19
386.461	13.14
386.671	-25.77
386.881	66.39
387.091	0.85
387.301	50
387.511	68.44
387.72	64.34
387.93	35.67
388.14	47.96
388.35	33.62
388.56	74.58
388.769	35.67
388.979	19.29
389.189	17.24
389.399	41.81
389.609	27.48
389.818	60.24
390.028	90.96
390.238	35.67
390.447	15.19
390.657	97.11
390.867	52.05
391.076	-25.77
391.286	54.1
391.496	29.52
391.705	58.2
391.915	54.1
392.125	37.72
392.334	35.67
392.544	84.82
392.753	-19.63
392.963	56.15
393.172	54.1
393.382	11.09
393.591	136.02
393.801	68.44
394.01	76.63
394.22	56.15
394.429	41.81
394.639	45.91
394.848	21.33
395.058	52.05
395.267	86.87
395.477	97.11
395.686	117.59
395.895	84.82
396.105	142.16
396.314	21.33
396.524	33.62
396.733	78.68
396.942	101.2
397.152	25.43
397.361	148.31
397.57	54.1
397.78	82.77
397.989	90.96
398.198	111.44
398.407	97.11
398.617	64.34
398.826	86.87
399.035	154.45
399.244	-5.29
399.453	13.14
399.663	84.82
399.872	72.53
400.081	9.05
400.29	113.49
400.499	68.44
400.708	133.97
400.917	39.76
401.127	74.58
401.336	131.92
401.545	99.16
401.754	84.82
401.963	142.16
402.172	50
402.381	113.49
402.59	52.05
402.799	119.64
403.008	189.27
403.217	129.88
403.426	164.69
403.635	76.63
403.844	72.53
404.053	113.49
404.262	115.54
404.471	142.16
404.68	142.16
404.888	52.05
405.097	113.49
405.306	138.07
405.515	97.11
405.724	129.88
405.933	158.55
406.142	181.07
406.35	168.79
406.559	234.32
406.768	123.73
406.977	205.65
407.185	195.41
407.394	209.75
407.603	162.64
407.812	140.12
408.02	172.88
408.229	140.12
408.438	262.99
408.646	187.22
408.855	187.22
409.064	226.13
409.272	181.07
409.481	289.62
409.69	197.46
409.898	256.85
410.107	203.6
410.315	224.08
410.524	240.47
410.733	297.81
410.941	254.8
411.15	310.1
411.358	256.85
411.567	316.24
411.775	262.99
411.984	269.14
412.192	234.32
412.401	353.1
412.609	359.25
412.818	416.59
413.026	404.3
413.234	437.07
413.443	355.15
413.651	357.2
413.86	424.78
414.068	500.56
414.276	543.57
414.485	465.74
414.693	559.95
414.901	547.66
415.11	465.74
415.318	566.09
415.526	539.47
415.734	557.9
415.943	574.28
416.151	656.2
416.359	658.25
416.567	750.41
416.776	668.49
416.984	736.07
417.192	822.09
417.4	787.27
417.608	768.84
417.817	740.17
418.025	842.57
418.233	863.05
418.441	789.32
418.649	947.01
418.857	846.66
419.065	979.78
419.273	1030.98
419.481	1043.27
419.689	1274.69
419.897	1207.11
420.105	1069.89
420.313	1221.44
420.521	1174.34
420.729	1317.7
420.937	1409.86
421.145	1364.8
421.353	1366.85
421.561	1487.68
421.769	1602.36
421.977	1563.45
422.185	1669.95
422.393	1661.76
422.601	1821.5
422.809	1807.16
423.017	1897.27
423.224	1866.55
423.432	1954.62
423.64	2048.82
423.848	2026.29
424.056	2059.06
424.263	2210.61
424.471	2126.64
424.679	2218.8
424.887	2327.35
425.094	2431.79
425.302	2415.41
425.51	2495.28
425.718	2575.15
425.925	2728.75
426.133	2687.79
426.341	2876.2
426.548	2882.35
426.756	3148.58
426.964	3042.09
427.171	3124.01
427.379	3255.08
427.586	3482.4
427.794	3314.47
428.001	3558.18
428.209	3900.19
428.417	3762.97
428.624	4143.89
428.832	3922.71
429.039	4027.16
429.247	4039.45
429.454	4365.07
429.662	4635.41
429.869	4557.58
430.076	4549.39
430.284	4551.44
430.491	4715.28
430.699	5028.62
430.906	4967.18
431.114	5042.95
431.321	5139.21
431.528	5272.32
431.736	5556.99
431.943	5925.63
432.15	5851.9
432.358	5929.72
432.565	6284.02
432.772	6036.22
432.979	6460.15
433.187	6619.89
433.394	6515.44
433.601	6978.28
433.808	7074.54
434.016	7213.8
434.223	7322.34
434.43	7715.55
434.637	7533.28
434.844	7967.45
435.052	8252.12
435.259	8235.74
435.466	8364.76
435.673	8106.71
435.88	8717.01
436.087	9167.56
436.294	9231.05
436.501	9091.79
436.708	9255.62
436.915	9370.31
437.122	9769.66
437.329	9933.5
437.537	10013.37
437.743	10318.52
437.95	10400.44
438.157	10597.04
438.364	11291.31
438.571	11080.36
438.778	11072.17
438.985	12364.44
439.192	11752.1
439.399	12010.14
439.606	11696.8
439.813	12462.74
440.02	12993.17
440.227	13040.27
440.433	12858
440.64	13195.92
440.847	13279.88
441.054	13435.53
441.261	14490.23
441.467	14283.39
441.674	14539.38
441.881	14897.78
442.088	14936.69
442.294	15135.34
442.501	15413.87
442.708	15501.93
442.914	16263.77
443.121	16888.4
443.328	16437.85
443.534	17836.61
443.741	17087.06
443.948	16704.09
444.154	18133.57
444.361	17781.32
444.568	17830.47
444.774	18094.66
444.981	18221.63
445.187	18856.5
445.394	19780.14
445.6	19358.25
445.807	21209.62
446.013	20177.44
446.22	20539.93
446.426	21187.09
446.633	21858.82
446.839	22354.43
447.046	21320.21
447.252	22399.49
447.459	22530.56
447.665	22286.85
447.871	23349.75
448.078	24345.06
448.284	23235.06
448.491	23781.87
448.697	24703.45
448.903	25037.27
449.11	25033.18
449.316	24529.38
449.522	24922.59
449.728	25672.14
449.935	26235.33
450.141	26194.37
450.347	26859.96
450.553	25682.38
450.76	26104.26
450.966	26708.41
451.172	26442.18
451.378	27011.51
451.584	27056.57
451.791	27500.98
451.997	27015.61
452.203	27597.23
452.409	27457.97
452.615	27304.37
452.821	26427.84
453.027	25799.12
453.233	27234.74
453.44	26456.51
453.646	26614.21
453.852	26911.16
454.058	27187.64
454.264	26094.02
454.47	26704.32
454.676	26055.11
454.882	26986.94
455.088	24793.56
455.294	25067.99
455.5	25348.56
455.705	25483.73
455.911	24533.47
456.117	23824.87
456.323	23597.55
456.529	22311.42
456.735	23165.43
456.941	22639.1
457.147	22184.45
457.352	21563.92
457.558	21443.09
457.764	21543.44
457.97	20992.53
458.176	20595.23
458.381	20531.74
458.587	19571.24
458.793	19370.54
458.999	18438.72
459.204	19778.09
459.41	19401.26
459.616	18065.99
459.821	17832.52
460.027	18006.59
460.233	17341
460.438	16634.46
460.644	16839.25
460.85	16011.87
461.055	15977.06
461.261	15960.67
461.466	14785.14
461.672	14326.39
461.878	15071.86
462.083	14244.48
462.289	13937.28
462.494	13869.7
462.7	13458.06
462.905	12935.82
463.111	13421.19
463.316	13529.73
463.522	13197.96
463.727	13214.35
463.932	12931.73
464.138	13173.39
464.343	13136.52
464.549	12704.4
464.754	13087.37
464.959	12989.07
465.165	12872.34
465.37	12366.49
465.575	12102.3
465.781	12524.18
465.986	12315.29
466.191	12356.25
466.397	11838.11
466.602	11539.11
466.807	11782.82
467.012	11688.61
467.218	11571.88
467.423	11438.76
467.628	11868.83
467.833	11963.04
468.038	11688.61
