Data from USB4F104151__237__10-30-35-459.txt Node

Date: Wed Mar 12 10:30:35 EDT 2025
User: louis
Spectrometer: USB4F10415
Trigger mode: 4
Integration Time (sec): 3.000000E-2
Scans to average: 1
Electric dark correction enabled: true
Nonlinearity correction enabled: false
Boxcar width: 0
XAxis mode: Wavelengths
Number of Pixels in Spectrum: 3648
>>>>>Begin Spectral Data<<<<<
178.204	-47.1
178.424	-47.1
178.644	-47.1
178.864	-81.92
179.084	-114.69
179.304	6.14
179.524	-8.19
179.744	-36.86
179.964	57.34
180.184	-30.72
180.404	-22.53
180.624	47.1
180.844	47.1
181.064	-43.01
181.283	18.43
181.503	-59.39
181.723	24.58
181.943	40.96
182.163	67.58
182.383	38.91
182.602	20.48
182.822	110.59
183.042	45.06
183.262	14.34
183.482	45.06
183.701	-10.24
183.921	69.63
184.141	-16.38
184.361	30.72
184.58	20.48
184.8	38.91
185.02	43.01
185.239	90.11
185.459	18.43
185.679	38.91
185.898	-2.05
186.118	69.63
186.338	73.73
186.557	32.77
186.777	28.67
186.997	49.15
187.216	79.87
187.436	8.19
187.655	73.73
187.875	81.92
188.095	43.01
188.314	16.38
188.534	124.93
188.753	47.1
188.973	45.06
189.192	43.01
189.412	135.17
189.631	-8.19
189.851	147.45
190.07	-8.19
190.29	-2.05
190.509	73.73
190.729	57.34
190.948	20.48
191.168	169.98
191.387	51.2
191.607	40.96
191.826	16.38
192.045	22.53
192.265	69.63
192.484	57.34
192.704	20.48
192.923	34.82
193.142	126.97
193.362	-12.29
193.581	96.25
193.8	53.25
194.02	104.45
194.239	57.34
194.458	-43.01
194.678	-28.67
194.897	75.77
195.116	-8.19
195.335	-24.58
195.555	63.49
195.774	-10.24
195.993	61.44
196.212	34.82
196.432	-4.1
196.651	77.82
196.87	12.29
197.089	98.3
197.308	67.58
197.528	20.48
197.747	14.34
197.966	28.67
198.185	22.53
198.404	4.1
198.623	26.62
198.842	75.77
199.062	47.1
199.281	0
199.5	12.29
199.719	49.15
199.938	24.58
200.157	38.91
200.376	12.29
200.595	65.54
200.814	30.72
201.033	40.96
201.252	61.44
201.471	53.25
201.69	30.72
201.909	104.45
202.128	10.24
202.347	28.67
202.566	-77.82
202.785	-43.01
203.004	-69.63
203.223	126.97
203.442	4.1
203.661	57.34
203.879	73.73
204.098	32.77
204.317	-14.34
204.536	2.05
204.755	14.34
204.974	43.01
205.193	63.49
205.411	174.08
205.63	40.96
205.849	16.38
206.068	16.38
206.287	34.82
206.505	104.45
206.724	22.53
206.943	59.39
207.162	73.73
207.381	32.77
207.599	67.58
207.818	88.06
208.037	36.86
208.255	73.73
208.474	77.82
208.693	24.58
208.911	69.63
209.13	16.38
209.349	-12.29
209.567	49.15
209.786	18.43
210.005	104.45
210.223	34.82
210.442	-32.77
210.661	88.06
210.879	98.3
211.098	69.63
211.316	40.96
211.535	79.87
211.753	61.44
211.972	14.34
212.191	-24.58
212.409	16.38
212.628	14.34
212.846	61.44
213.065	98.3
213.283	49.15
213.502	40.96
213.72	73.73
213.938	38.91
214.157	10.24
214.375	55.3
214.594	10.24
214.812	36.86
215.031	24.58
215.249	63.49
215.467	40.96
215.686	90.11
215.904	24.58
216.122	14.34
216.341	18.43
216.559	40.96
216.778	114.69
216.996	110.59
217.214	32.77
217.432	57.34
217.651	-18.43
217.869	16.38
218.087	32.77
218.306	32.77
218.524	102.4
218.742	0
218.96	61.44
219.179	32.77
219.397	73.73
219.615	108.54
219.833	-28.67
220.051	-4.1
220.27	88.06
220.488	28.67
220.706	20.48
220.924	71.68
221.142	69.63
221.36	-18.43
221.578	104.45
221.796	2.05
222.015	106.49
222.233	79.87
222.451	122.88
222.669	-55.3
222.887	22.53
223.105	36.86
223.323	129.02
223.541	116.73
223.759	73.73
223.977	-30.72
224.195	8.19
224.413	108.54
224.631	43.01
224.849	16.38
225.067	129.02
225.285	-12.29
225.503	43.01
225.721	16.38
225.939	43.01
226.157	45.06
226.375	190.46
226.592	-53.25
226.81	-59.39
227.028	20.48
227.246	139.26
227.464	79.87
227.682	32.77
227.9	63.49
228.117	104.45
228.335	86.01
228.553	92.16
228.771	14.34
228.989	61.44
229.206	96.25
229.424	40.96
229.642	12.29
229.86	-2.05
230.077	94.21
230.295	16.38
230.513	59.39
230.731	34.82
230.948	53.25
231.166	106.49
231.384	88.06
231.601	24.58
231.819	-16.38
232.037	69.63
232.254	-18.43
232.472	96.25
232.689	-75.77
232.907	61.44
233.125	2.05
233.342	34.82
233.56	-28.67
233.777	43.01
233.995	53.25
234.213	79.87
234.43	53.25
234.648	49.15
234.865	0
235.083	49.15
235.3	-28.67
235.518	32.77
235.735	57.34
235.953	98.3
236.17	-53.25
236.388	77.82
236.605	4.1
236.822	88.06
237.04	-26.62
237.257	16.38
237.475	24.58
237.692	43.01
237.909	12.29
238.127	69.63
238.344	71.68
238.562	36.86
238.779	-24.58
238.996	2.05
239.214	-26.62
239.431	69.63
239.648	92.16
239.865	61.44
240.083	81.92
240.3	24.58
240.517	40.96
240.735	20.48
240.952	30.72
241.169	104.45
241.386	145.41
241.603	55.3
241.821	47.1
242.038	16.38
242.255	22.53
242.472	-14.34
242.689	49.15
242.907	2.05
243.124	69.63
243.341	59.39
243.558	61.44
243.775	43.01
243.992	-36.86
244.209	0
244.426	-28.67
244.643	77.82
244.86	32.77
245.078	20.48
245.295	16.38
245.512	-4.1
245.729	43.01
245.946	88.06
246.163	100.35
246.38	28.67
246.597	81.92
246.814	88.06
247.031	24.58
247.248	28.67
247.464	32.77
247.681	57.34
247.898	77.82
248.115	34.82
248.332	32.77
248.549	34.82
248.766	102.4
248.983	104.45
249.2	59.39
249.417	61.44
249.633	53.25
249.85	57.34
250.067	12.29
250.284	22.53
250.501	90.11
250.717	61.44
250.934	-4.1
251.151	55.3
251.368	86.01
251.585	69.63
251.801	100.35
252.018	32.77
252.235	57.34
252.451	26.62
252.668	51.2
252.885	98.3
253.102	40.96
253.318	-49.15
253.535	69.63
253.752	6.14
253.968	16.38
254.185	36.86
254.401	-10.24
254.618	79.87
254.835	40.96
255.051	12.29
255.268	104.45
255.484	40.96
255.701	40.96
255.917	38.91
256.134	-8.19
256.351	12.29
256.567	-18.43
256.784	43.01
257	0
257.217	61.44
257.433	-12.29
257.65	77.82
257.866	88.06
258.082	47.1
258.299	16.38
258.515	4.1
258.732	63.49
258.948	59.39
259.165	8.19
259.381	40.96
259.597	-12.29
259.814	36.86
260.03	20.48
260.246	77.82
260.463	4.1
260.679	67.58
260.895	49.15
261.112	10.24
261.328	59.39
261.544	40.96
261.761	106.49
261.977	88.06
262.193	4.1
262.409	81.92
262.626	57.34
262.842	69.63
263.058	-59.39
263.274	-16.38
263.49	112.64
263.707	43.01
263.923	20.48
264.139	-40.96
264.355	49.15
264.571	47.1
264.787	16.38
265.004	90.11
265.22	28.67
265.436	2.05
265.652	14.34
265.868	108.54
266.084	20.48
266.3	-6.14
266.516	-2.05
266.732	28.67
266.948	8.19
267.164	-4.1
267.38	57.34
267.596	83.97
267.812	38.91
268.028	53.25
268.244	-20.48
268.46	-38.91
268.676	34.82
268.892	55.3
269.108	18.43
269.324	26.62
269.54	-18.43
269.756	40.96
269.972	-16.38
270.188	73.73
270.403	22.53
270.619	92.16
270.835	65.54
271.051	14.34
271.267	16.38
271.483	26.62
271.698	77.82
271.914	2.05
272.13	67.58
272.346	14.34
272.562	2.05
272.777	131.07
272.993	86.01
273.209	47.1
273.425	14.34
273.64	0
273.856	38.91
274.072	43.01
274.287	34.82
274.503	61.44
274.719	61.44
274.934	36.86
275.15	-34.82
275.366	28.67
275.581	-36.86
275.797	4.1
276.012	10.24
276.228	69.63
276.444	71.68
276.659	65.54
276.875	53.25
277.09	77.82
277.306	49.15
277.521	67.58
277.737	20.48
277.952	14.34
278.168	-83.97
278.383	53.25
278.599	45.06
278.814	40.96
279.03	51.2
279.245	98.3
279.461	49.15
279.676	32.77
279.892	55.3
280.107	-4.1
280.322	71.68
280.538	69.63
280.753	55.3
280.969	43.01
281.184	69.63
281.399	133.12
281.615	-32.77
281.83	51.2
282.045	-22.53
282.26	20.48
282.476	-6.14
282.691	45.06
282.906	43.01
283.122	-10.24
283.337	65.54
283.552	51.2
283.767	51.2
283.983	49.15
284.198	26.62
284.413	57.34
284.628	40.96
284.843	40.96
285.058	53.25
285.274	96.25
285.489	32.77
285.704	65.54
285.919	22.53
286.134	28.67
286.349	20.48
286.564	6.14
286.779	79.87
286.995	94.21
287.21	-12.29
287.425	61.44
287.64	36.86
287.855	40.96
288.07	-4.1
288.285	59.39
288.5	102.4
288.715	86.01
288.93	40.96
289.145	81.92
289.36	28.67
289.575	40.96
289.79	98.3
290.004	28.67
290.219	122.88
290.434	34.82
290.649	61.44
290.864	45.06
291.079	24.58
291.294	69.63
291.509	69.63
291.724	24.58
291.938	32.77
292.153	61.44
292.368	28.67
292.583	114.69
292.798	106.49
293.012	6.14
293.227	36.86
293.442	34.82
293.657	28.67
293.871	61.44
294.086	-18.43
294.301	100.35
294.516	81.92
294.73	75.77
294.945	-28.67
295.16	47.1
295.374	28.67
295.589	98.3
295.804	38.91
296.018	77.82
296.233	30.72
296.447	8.19
296.662	-4.1
296.877	79.87
297.091	63.49
297.306	53.25
297.52	12.29
297.735	147.45
297.949	34.82
298.164	98.3
298.378	47.1
298.593	79.87
298.807	96.25
299.022	98.3
299.236	34.82
299.451	81.92
299.665	38.91
299.88	12.29
300.094	88.06
300.309	114.69
300.523	71.68
300.737	71.68
300.952	57.34
301.166	67.58
301.381	69.63
301.595	-28.67
301.809	28.67
302.024	36.86
302.238	0
302.452	47.1
302.667	38.91
302.881	135.17
303.095	47.1
303.309	30.72
303.524	-45.06
303.738	43.01
303.952	20.48
304.166	8.19
304.381	-47.1
304.595	102.4
304.809	45.06
305.023	106.49
305.237	26.62
305.452	30.72
305.666	22.53
305.88	112.64
306.094	79.87
306.308	47.1
306.522	32.77
306.736	59.39
306.95	83.97
307.164	18.43
307.379	-28.67
307.593	133.12
307.807	79.87
308.021	106.49
308.235	167.93
308.449	30.72
308.663	28.67
308.877	73.73
309.091	40.96
309.305	-8.19
309.519	-26.62
309.733	67.58
309.947	32.77
310.161	61.44
310.374	77.82
310.588	36.86
310.802	10.24
311.016	92.16
311.23	12.29
311.444	32.77
311.658	16.38
311.872	55.3
312.085	94.21
312.299	81.92
312.513	94.21
312.727	90.11
312.941	22.53
313.154	51.2
313.368	69.63
313.582	73.73
313.796	55.3
314.009	81.92
314.223	32.77
314.437	86.01
314.651	43.01
314.864	20.48
315.078	-32.77
315.292	65.54
315.505	43.01
315.719	77.82
315.933	88.06
316.146	30.72
316.36	2.05
316.573	94.21
316.787	18.43
317.001	63.49
317.214	40.96
317.428	16.38
317.641	38.91
317.855	34.82
318.068	79.87
318.282	90.11
318.495	83.97
318.709	90.11
318.922	36.86
319.136	135.17
319.349	88.06
319.563	49.15
319.776	49.15
319.99	12.29
320.203	71.68
320.417	57.34
320.63	30.72
320.843	61.44
321.057	71.68
321.27	75.77
321.483	104.45
321.697	110.59
321.91	139.26
322.124	30.72
322.337	47.1
322.55	0
322.763	81.92
322.977	71.68
323.19	45.06
323.403	108.54
323.617	40.96
323.83	96.25
324.043	77.82
324.256	57.34
324.469	38.91
324.683	28.67
324.896	51.2
325.109	45.06
325.322	12.29
325.535	79.87
325.748	55.3
325.962	65.54
326.175	32.77
326.388	49.15
326.601	45.06
326.814	-26.62
327.027	24.58
327.24	57.34
327.453	-32.77
327.666	73.73
327.879	65.54
328.092	106.49
328.305	36.86
328.518	-10.24
328.731	32.77
328.944	30.72
329.157	106.49
329.37	47.1
329.583	92.16
329.796	104.45
330.009	0
330.222	34.82
330.435	30.72
330.648	81.92
330.861	122.88
331.073	110.59
331.286	88.06
331.499	-4.1
331.712	12.29
331.925	94.21
332.138	61.44
332.35	104.45
332.563	77.82
332.776	129.02
332.989	40.96
333.202	45.06
333.414	28.67
333.627	30.72
333.84	22.53
334.053	57.34
334.265	65.54
334.478	8.19
334.691	20.48
334.903	77.82
335.116	49.15
335.329	6.14
335.541	61.44
335.754	61.44
335.966	106.49
336.179	71.68
336.392	73.73
336.604	26.62
336.817	57.34
337.029	90.11
337.242	-49.15
337.454	24.58
337.667	53.25
337.88	114.69
338.092	55.3
338.305	106.49
338.517	-12.29
338.729	143.36
338.942	153.6
339.154	-4.1
339.367	45.06
339.579	45.06
339.792	118.78
340.004	90.11
340.217	120.83
340.429	100.35
340.641	55.3
340.854	4.1
341.066	61.44
341.278	69.63
341.491	131.07
341.703	-10.24
341.915	83.97
342.128	104.45
342.34	51.2
342.552	22.53
342.764	57.34
342.977	38.91
343.189	124.93
343.401	77.82
343.613	-40.96
343.826	34.82
344.038	32.77
344.25	24.58
344.462	63.49
344.674	53.25
344.886	55.3
345.099	81.92
345.311	61.44
345.523	90.11
345.735	69.63
345.947	47.1
346.159	49.15
346.371	40.96
346.583	98.3
346.795	77.82
347.007	22.53
347.219	114.69
347.431	65.54
347.643	53.25
347.855	61.44
348.067	81.92
348.279	-24.58
348.491	69.63
348.703	57.34
348.915	0
349.127	79.87
349.339	20.48
349.551	-6.14
349.763	61.44
349.975	143.36
350.187	32.77
350.399	83.97
350.61	77.82
350.822	106.49
351.034	34.82
351.246	47.1
351.458	94.21
351.669	65.54
351.881	94.21
352.093	61.44
352.305	73.73
352.517	43.01
352.728	88.06
352.94	94.21
353.152	88.06
353.363	102.4
353.575	88.06
353.787	96.25
353.999	20.48
354.21	57.34
354.422	26.62
354.633	110.59
354.845	71.68
355.057	79.87
355.268	112.64
355.48	73.73
355.692	-49.15
355.903	69.63
356.115	69.63
356.326	120.83
356.538	49.15
356.749	110.59
356.961	94.21
357.172	51.2
357.384	-4.1
357.595	116.73
357.807	114.69
358.018	-14.34
358.23	61.44
358.441	102.4
358.653	90.11
358.864	100.35
359.075	24.58
359.287	79.87
359.498	49.15
359.709	18.43
359.921	40.96
360.132	79.87
360.344	43.01
360.555	73.73
360.766	40.96
360.977	18.43
361.189	49.15
361.4	63.49
361.611	79.87
361.823	53.25
362.034	81.92
362.245	43.01
362.456	63.49
362.667	77.82
362.879	24.58
363.09	98.3
363.301	59.39
363.512	55.3
363.723	51.2
363.935	18.43
364.146	4.1
364.357	12.29
364.568	135.17
364.779	8.19
364.99	75.77
365.201	81.92
365.412	83.97
365.623	137.21
365.834	90.11
366.045	-4.1
366.256	43.01
366.467	81.92
366.678	53.25
366.889	114.69
367.1	55.3
367.311	67.58
367.522	12.29
367.733	88.06
367.944	53.25
368.155	26.62
368.366	61.44
368.577	53.25
368.788	43.01
368.999	71.68
369.209	55.3
369.42	98.3
369.631	53.25
369.842	65.54
370.053	65.54
370.264	104.45
370.474	45.06
370.685	28.67
370.896	69.63
371.107	131.07
371.317	83.97
371.528	71.68
371.739	139.26
371.95	61.44
372.16	8.19
372.371	53.25
372.582	65.54
372.792	131.07
373.003	96.25
373.214	32.77
373.424	73.73
373.635	38.91
373.846	102.4
374.056	-14.34
374.267	10.24
374.477	51.2
374.688	0
374.898	26.62
375.109	32.77
375.319	77.82
375.53	67.58
375.74	14.34
375.951	36.86
376.161	40.96
376.372	75.77
376.582	53.25
376.793	114.69
377.003	75.77
377.214	49.15
377.424	92.16
377.635	12.29
377.845	-24.58
378.055	122.88
378.266	114.69
378.476	4.1
378.686	94.21
378.897	24.58
379.107	38.91
379.317	108.54
379.528	10.24
379.738	20.48
379.948	114.69
380.158	81.92
380.369	104.45
380.579	8.19
380.789	77.82
380.999	83.97
381.21	104.45
381.42	77.82
381.63	88.06
381.84	77.82
382.05	61.44
382.261	143.36
382.471	92.16
382.681	110.59
382.891	77.82
383.101	143.36
383.311	73.73
383.521	53.25
383.731	172.03
383.941	79.87
384.151	16.38
384.361	94.21
384.571	81.92
384.781	36.86
384.991	116.73
385.201	167.93
385.411	147.45
385.621	106.49
385.831	38.91
386.041	98.3
386.251	4.1
386.461	96.25
386.671	90.11
386.881	45.06
387.091	61.44
387.301	40.96
387.511	83.97
387.72	143.36
387.93	71.68
388.14	22.53
388.35	131.07
388.56	49.15
388.769	47.1
388.979	45.06
389.189	10.24
389.399	65.54
389.609	53.25
389.818	18.43
390.028	81.92
390.238	55.3
390.447	55.3
390.657	98.3
390.867	79.87
391.076	102.4
391.286	116.73
391.496	120.83
391.705	83.97
391.915	155.65
392.125	98.3
392.334	90.11
392.544	96.25
392.753	10.24
392.963	114.69
393.172	118.78
393.382	73.73
393.591	77.82
393.801	104.45
394.01	118.78
394.22	59.39
394.429	108.54
394.639	131.07
394.848	32.77
395.058	79.87
395.267	55.3
395.477	90.11
395.686	176.13
395.895	129.02
396.105	182.27
396.314	100.35
396.524	90.11
396.733	49.15
396.942	67.58
397.152	182.27
397.361	151.55
397.57	108.54
397.78	61.44
397.989	135.17
398.198	147.45
398.407	114.69
398.617	129.02
398.826	135.17
399.035	110.59
399.244	100.35
399.453	126.97
399.663	157.69
399.872	149.5
400.081	67.58
400.29	147.45
400.499	141.31
400.708	110.59
400.917	110.59
401.127	114.69
401.336	135.17
401.545	188.41
401.754	139.26
401.963	112.64
402.172	120.83
402.381	100.35
402.59	53.25
402.799	122.88
403.008	151.55
403.217	172.03
403.426	147.45
403.635	157.69
403.844	110.59
404.053	137.21
404.262	219.13
404.471	196.61
404.68	204.8
404.888	61.44
405.097	114.69
405.306	247.8
405.515	233.47
405.724	172.03
405.933	264.19
406.142	210.94
406.35	266.24
406.559	270.33
406.768	266.24
406.977	294.91
407.185	286.72
407.394	176.13
407.603	231.42
407.812	274.43
408.02	274.43
408.229	288.76
408.438	241.66
408.646	264.19
408.855	323.58
409.064	323.58
409.272	282.62
409.481	348.15
409.69	309.24
409.898	331.77
410.107	317.44
410.315	450.55
410.524	366.59
410.733	401.4
410.941	385.02
411.15	421.88
411.358	434.17
411.567	542.71
411.775	475.13
411.984	446.46
412.192	487.42
412.401	509.94
412.609	499.7
412.818	495.61
413.026	622.58
413.234	559.1
413.443	538.62
413.651	575.48
413.86	641.01
414.068	636.92
414.276	724.98
414.485	716.79
414.693	690.17
414.901	778.23
415.11	866.29
415.318	759.8
415.526	804.85
415.734	958.45
415.943	872.43
416.151	901.11
416.359	985.07
416.567	962.55
416.776	1013.74
416.984	1159.15
417.192	1212.4
417.4	1050.61
417.608	1105.9
417.817	1126.38
418.025	1191.92
418.233	1261.55
418.441	1255.4
418.649	1333.23
418.857	1478.63
419.065	1501.16
419.273	1519.59
419.481	1556.46
419.689	1570.79
419.897	1652.71
420.105	1714.15
420.313	1787.88
420.521	1863.65
420.729	1896.42
420.937	1892.32
421.145	2015.2
421.353	2109.41
421.561	2174.94
421.769	2299.87
421.977	2222.05
422.185	2375.64
422.393	2471.9
422.601	2578.39
422.809	2637.78
423.017	2594.78
423.224	2648.02
423.432	2842.58
423.64	2852.82
423.848	3039.19
424.056	2930.64
424.263	3229.65
424.471	3256.27
424.679	3366.86
424.887	3477.45
425.094	3504.07
425.302	3461.07
425.51	3710.92
425.718	3768.26
425.925	3928
426.133	3903.43
426.341	4353.98
426.548	4513.72
426.756	4415.42
426.964	4403.13
427.171	4730.81
427.379	4911.03
427.586	4851.64
427.794	4921.27
428.001	5304.24
428.209	5547.95
428.417	5470.12
428.624	5836.71
428.832	5787.56
429.039	5748.65
429.247	5914.53
429.454	6465.44
429.662	6778.78
429.869	6420.38
430.076	6905.75
430.284	6705.05
430.491	6870.94
430.699	7290.77
430.906	7362.45
431.114	7434.13
431.321	7600.01
431.528	7735.18
431.736	8243.07
431.943	8773.5
432.15	8404.86
432.358	8449.92
432.565	9125.75
432.772	9006.97
432.979	9269.11
433.187	9375.6
433.394	9615.21
433.601	10266.47
433.808	10164.07
434.016	10000.23
434.223	10676.06
434.43	11124.57
434.637	10923.87
434.844	11790.16
435.052	12126.02
435.259	11829.07
435.466	12148.55
435.673	12201.8
435.88	12789.56
436.087	13256.5
436.294	13350.71
436.501	13195.06
436.708	13184.82
436.915	13680.43
437.122	14186.28
437.329	14178.09
437.537	14679.84
437.743	14909.21
437.95	14958.36
438.157	15746.83
438.364	16162.57
438.571	16117.51
438.778	16215.82
438.985	17870.58
439.192	16901.89
439.399	17985.26
439.606	17309.43
439.813	17690.35
440.02	19113.69
440.227	18642.66
440.433	18650.85
440.64	19420.89
440.847	19089.12
441.054	19513.05
441.261	20922.05
441.467	20510.41
441.674	21266.11
441.881	21819.06
442.088	21606.07
442.294	21532.34
442.501	21608.12
442.708	22464.17
442.914	23340.7
443.121	24333.96
443.328	23627.42
443.534	25548.41
443.741	24553.1
443.948	24405.64
444.154	26119.79
444.361	25671.29
444.568	26031.73
444.774	25953.91
444.981	26424.94
445.187	27215.46
445.394	28583.5
445.6	28104.28
445.807	30758.44
446.013	29331.01
446.22	29853.24
446.426	30965.29
446.633	31409.7
446.839	32163.35
447.046	30725.68
447.252	32513.55
447.459	32794.12
447.665	32517.65
447.871	33592.83
448.078	35519.97
448.284	33707.52
448.491	34362.87
448.697	35761.63
448.903	36654.54
449.11	36285.91
449.316	35839.45
449.522	36308.44
449.728	37156.3
449.935	37598.66
450.141	37379.53
450.347	38628.79
450.553	37184.97
450.76	37940.67
450.966	38448.57
451.172	38372.79
451.378	38995.37
451.584	38817.2
451.791	39382.44
451.997	39366.06
452.203	39744.93
452.409	39622.05
452.615	39513.51
452.821	38456.76
453.027	37901.76
453.233	39511.46
453.44	37981.63
453.646	38598.07
453.852	38811.06
454.058	39333.29
454.264	37901.76
454.47	38688.18
454.676	38184.38
454.882	39241.13
455.088	35806.69
455.294	36242.9
455.5	36627.92
455.705	36898.25
455.911	35857.88
456.117	34686.45
456.323	34547.18
456.529	32605.71
456.735	33945.08
456.941	33179.14
457.147	32609.81
457.352	31688.22
457.558	31098.41
457.764	31458.85
457.97	31041.06
458.176	30078.52
458.381	30195.25
458.587	28427.85
458.793	28501.58
458.999	26857.06
459.204	28948.04
459.41	28233.3
459.616	26318.45
459.821	26304.11
460.027	26494.57
460.233	25992.82
460.438	24161.94
460.644	24751.75
460.85	23750.29
461.055	23340.7
461.261	23115.42
461.466	21366.46
461.672	20899.52
461.878	22433.45
462.083	20774.6
462.289	20438.73
462.494	20375.24
462.7	19375.83
462.905	18968.29
463.111	19365.59
463.316	19590.87
463.522	19455.7
463.727	19592.92
463.932	18962.14
464.138	18974.43
464.343	19248.86
464.549	18556.64
464.754	19162.84
464.959	19185.37
465.165	18853.6
465.37	18026.22
465.575	17487.61
465.781	18335.46
465.986	18521.83
466.191	17639.15
466.397	17188.6
466.602	16592.64
466.807	17063.68
467.012	17262.33
467.218	17108.73
467.423	16912.13
