Data from USB4F104151__80__10-24-13-901.txt Node

Date: Wed Mar 12 10:24:13 EDT 2025
User: louis
Spectrometer: USB4F10415
Trigger mode: 4
Integration Time (sec): 3.000000E-2
Scans to average: 1
Electric dark correction enabled: true
Nonlinearity correction enabled: false
Boxcar width: 0
XAxis mode: Wavelengths
Number of Pixels in Spectrum: 3648
>>>>>Begin Spectral Data<<<<<
178.204	-116.05
178.424	-116.05
178.644	-116.05
178.864	-111.96
179.084	-134.48
179.304	-21.84
179.524	60.07
179.744	-52.56
179.964	4.78
180.184	4.78
180.404	12.97
180.624	0.68
180.844	-27.99
181.064	39.59
181.283	-25.94
181.503	-9.56
181.723	15.02
181.943	-15.7
182.163	82.6
182.383	-3.41
182.602	39.59
182.822	55.98
183.042	8.87
183.262	-52.56
183.482	2.73
183.701	4.78
183.921	-62.8
184.141	23.21
184.361	31.4
184.58	-19.8
184.8	-42.32
185.02	37.55
185.239	60.07
185.459	43.69
185.679	62.12
185.898	-1.37
186.118	58.03
186.338	66.22
186.557	72.36
186.777	-7.51
186.997	31.4
187.216	53.93
187.436	156.33
187.655	45.74
187.875	21.16
188.095	8.87
188.314	62.12
188.534	27.31
188.753	4.78
188.973	60.07
189.192	58.03
189.412	17.07
189.631	51.88
189.851	-40.28
190.07	64.17
190.29	45.74
190.509	25.26
190.729	-11.61
190.948	70.31
191.168	105.13
191.387	74.41
191.607	64.17
191.826	-9.56
192.045	74.41
192.265	-56.66
192.484	37.55
192.704	10.92
192.923	-11.61
193.142	47.79
193.362	53.93
193.581	45.74
193.8	68.27
194.02	41.64
194.239	37.55
194.458	49.83
194.678	2.73
194.897	66.22
195.116	53.93
195.335	35.5
195.555	21.16
195.774	101.03
195.993	29.35
196.212	27.31
196.432	-23.89
196.651	62.12
196.87	58.03
197.089	55.98
197.308	12.97
197.528	33.45
197.747	55.98
197.966	74.41
198.185	94.89
198.404	-42.32
198.623	2.73
198.842	4.78
199.062	72.36
199.281	72.36
199.5	55.98
199.719	-3.41
199.938	21.16
200.157	41.64
200.376	-11.61
200.595	39.59
200.814	29.35
201.033	25.26
201.252	96.94
201.471	31.4
201.69	60.07
201.909	58.03
202.128	66.22
202.347	41.64
202.566	76.46
202.785	12.97
203.004	-19.8
203.223	51.88
203.442	10.92
203.661	21.16
203.879	78.51
204.098	94.89
204.317	17.07
204.536	29.35
204.755	10.92
204.974	41.64
205.193	19.11
205.411	129.7
205.63	12.97
205.849	29.35
206.068	-89.43
206.287	27.31
206.505	6.83
206.724	4.78
206.943	35.5
207.162	23.21
207.381	6.83
207.599	35.5
207.818	90.79
208.037	62.12
208.255	10.92
208.474	58.03
208.693	47.79
208.911	-75.09
209.13	31.4
209.349	35.5
209.567	51.88
209.786	-9.56
210.005	0.68
210.223	96.94
210.442	19.11
210.661	94.89
210.879	72.36
211.098	47.79
211.316	86.7
211.535	94.89
211.753	12.97
211.972	10.92
212.191	74.41
212.409	31.4
212.628	84.65
212.846	51.88
213.065	17.07
213.283	19.11
213.502	-15.7
213.72	33.45
213.938	51.88
214.157	92.84
214.375	33.45
214.594	-25.94
214.812	-32.08
215.031	60.07
215.249	-1.37
215.467	-7.51
215.686	43.69
215.904	103.08
216.122	90.79
216.341	-25.94
216.559	-27.99
216.778	53.93
216.996	60.07
217.214	21.16
217.432	-19.8
217.651	6.83
217.869	-15.7
218.087	10.92
218.306	51.88
218.524	78.51
218.742	6.83
218.96	53.93
219.179	-23.89
219.397	0.68
219.615	76.46
219.833	31.4
220.051	15.02
220.27	-36.18
220.488	29.35
220.706	10.92
220.924	21.16
221.142	49.83
221.36	66.22
221.578	25.26
221.796	12.97
222.015	33.45
222.233	-25.94
222.451	148.14
222.669	47.79
222.887	98.99
223.105	27.31
223.323	64.17
223.541	4.78
223.759	86.7
223.977	-42.32
224.195	88.75
224.413	90.79
224.631	17.07
224.849	68.27
225.067	131.75
225.285	37.55
225.503	68.27
225.721	-34.13
225.939	-52.56
226.157	37.55
226.375	160.42
226.592	-23.89
226.81	58.03
227.028	53.93
227.246	72.36
227.464	84.65
227.682	47.79
227.9	55.98
228.117	17.07
228.335	31.4
228.553	2.73
228.771	-23.89
228.989	25.26
229.206	51.88
229.424	80.55
229.642	49.83
229.86	27.31
230.077	47.79
230.295	12.97
230.513	-23.89
230.731	43.69
230.948	37.55
231.166	41.64
231.384	17.07
231.601	55.98
231.819	113.32
232.037	-15.7
232.254	41.64
232.472	45.74
232.689	66.22
232.907	45.74
233.125	121.51
233.342	12.97
233.56	-11.61
233.777	41.64
233.995	23.21
234.213	86.7
234.43	70.31
234.648	12.97
234.865	39.59
235.083	41.64
235.3	58.03
235.518	41.64
235.735	53.93
235.953	43.69
236.17	23.21
236.388	19.11
236.605	80.55
236.822	35.5
237.04	58.03
237.257	82.6
237.475	4.78
237.692	-19.8
237.909	-58.71
238.127	86.7
238.344	21.16
238.562	88.75
238.779	19.11
238.996	33.45
239.214	33.45
239.431	107.18
239.648	-3.41
239.865	-1.37
240.083	49.83
240.3	2.73
240.517	31.4
240.735	39.59
240.952	74.41
241.169	86.7
241.386	103.08
241.603	4.78
241.821	29.35
242.038	29.35
242.255	19.11
242.472	12.97
242.689	64.17
242.907	12.97
243.124	8.87
243.341	51.88
243.558	41.64
243.775	55.98
243.992	-52.56
244.209	82.6
244.426	80.55
244.643	62.12
244.86	-17.75
245.078	0.68
245.295	43.69
245.512	-17.75
245.729	51.88
245.946	74.41
246.163	64.17
246.38	33.45
246.597	41.64
246.814	64.17
247.031	-81.24
247.248	17.07
247.464	62.12
247.681	-17.75
247.898	41.64
248.115	6.83
248.332	12.97
248.549	41.64
248.766	82.6
248.983	88.75
249.2	74.41
249.417	64.17
249.633	66.22
249.85	35.5
250.067	0.68
250.284	23.21
250.501	21.16
250.717	55.98
250.934	-3.41
251.151	-1.37
251.368	-23.89
251.585	76.46
251.801	-30.04
252.018	21.16
252.235	2.73
252.451	6.83
252.668	21.16
252.885	90.79
253.102	70.31
253.318	39.59
253.535	62.12
253.752	10.92
253.968	33.45
254.185	-7.51
254.401	17.07
254.618	-19.8
254.835	-40.28
255.051	82.6
255.268	37.55
255.484	17.07
255.701	25.26
255.917	66.22
256.134	80.55
256.351	53.93
256.567	45.74
256.784	64.17
257	86.7
257.217	25.26
257.433	33.45
257.65	123.56
257.866	33.45
258.082	-142.68
258.299	21.16
258.515	127.66
258.732	72.36
258.948	78.51
259.165	47.79
259.381	4.78
259.597	25.26
259.814	-36.18
260.03	53.93
260.246	0.68
260.463	49.83
260.679	23.21
260.895	25.26
261.112	68.27
261.328	41.64
261.544	-11.61
261.761	180.9
261.977	31.4
262.193	49.83
262.409	70.31
262.626	64.17
262.842	74.41
263.058	15.02
263.274	72.36
263.49	-13.65
263.707	64.17
263.923	49.83
264.139	23.21
264.355	12.97
264.571	68.27
264.787	37.55
265.004	78.51
265.22	4.78
265.436	58.03
265.652	17.07
265.868	55.98
266.084	-5.46
266.3	6.83
266.516	-9.56
266.732	68.27
266.948	39.59
267.164	53.93
267.38	98.99
267.596	25.26
267.812	84.65
268.028	29.35
268.244	-7.51
268.46	45.74
268.676	47.79
268.892	-9.56
269.108	98.99
269.324	4.78
269.54	49.83
269.756	113.32
269.972	8.87
270.188	39.59
270.403	43.69
270.619	-50.52
270.835	25.26
271.051	25.26
271.267	25.26
271.483	39.59
271.698	45.74
271.914	27.31
272.13	-30.04
272.346	37.55
272.562	15.02
272.777	72.36
272.993	76.46
273.209	78.51
273.425	64.17
273.64	98.99
273.856	80.55
274.072	-36.18
274.287	21.16
274.503	98.99
274.719	111.27
274.934	74.41
275.15	-56.66
275.366	21.16
275.581	-3.41
275.797	35.5
276.012	23.21
276.228	51.88
276.444	70.31
276.659	45.74
276.875	-27.99
277.09	8.87
277.306	37.55
277.521	66.22
277.737	41.64
277.952	129.7
278.168	55.98
278.383	31.4
278.599	74.41
278.814	66.22
279.03	25.26
279.245	55.98
279.461	86.7
279.676	64.17
279.892	51.88
280.107	-9.56
280.322	2.73
280.538	144.04
280.753	17.07
280.969	35.5
281.184	72.36
281.399	-1.37
281.615	53.93
281.83	53.93
282.045	70.31
282.26	19.11
282.476	64.17
282.691	74.41
282.906	82.6
283.122	72.36
283.337	64.17
283.552	86.7
283.767	45.74
283.983	60.07
284.198	17.07
284.413	-27.99
284.628	88.75
284.843	96.94
285.058	47.79
285.274	80.55
285.489	-38.23
285.704	8.87
285.919	-9.56
286.134	37.55
286.349	-48.47
286.564	21.16
286.779	17.07
286.995	51.88
287.21	76.46
287.425	23.21
287.64	-1.37
287.855	86.7
288.07	15.02
288.285	29.35
288.5	64.17
288.715	49.83
288.93	90.79
289.145	90.79
289.36	39.59
289.575	103.08
289.79	68.27
290.004	15.02
290.219	68.27
290.434	66.22
290.649	47.79
290.864	58.03
291.079	98.99
291.294	0.68
291.509	107.18
291.724	47.79
291.938	98.99
292.153	74.41
292.368	-15.7
292.583	-9.56
292.798	88.75
293.012	55.98
293.227	0.68
293.442	64.17
293.657	90.79
293.871	94.89
294.086	-27.99
294.301	117.42
294.516	105.13
294.73	17.07
294.945	92.84
295.16	41.64
295.374	74.41
295.589	12.97
295.804	-23.89
296.018	25.26
296.233	103.08
296.447	19.11
296.662	47.79
296.877	103.08
297.091	62.12
297.306	33.45
297.52	107.18
297.735	-1.37
297.949	92.84
298.164	-21.84
298.378	82.6
298.593	17.07
298.807	-3.41
299.022	45.74
299.236	37.55
299.451	62.12
299.665	49.83
299.88	21.16
300.094	74.41
300.309	64.17
300.523	98.99
300.737	21.16
300.952	51.88
301.166	21.16
301.381	41.64
301.595	4.78
301.809	-13.65
302.024	80.55
302.238	64.17
302.452	103.08
302.667	47.79
302.881	62.12
303.095	-7.51
303.309	58.03
303.524	92.84
303.738	2.73
303.952	60.07
304.166	90.79
304.381	27.31
304.595	45.74
304.809	17.07
305.023	39.59
305.237	-27.99
305.452	12.97
305.666	84.65
305.88	-7.51
306.094	62.12
306.308	37.55
306.522	45.74
306.736	41.64
306.95	62.12
307.164	23.21
307.379	55.98
307.593	23.21
307.807	64.17
308.021	49.83
308.235	45.74
308.449	41.64
308.663	27.31
308.877	86.7
309.091	53.93
309.305	45.74
309.519	-25.94
309.733	105.13
309.947	0.68
310.161	90.79
310.374	139.94
310.588	92.84
310.802	6.83
311.016	62.12
311.23	55.98
311.444	-17.75
311.658	144.04
311.872	127.66
312.085	76.46
312.299	-3.41
312.513	78.51
312.727	43.69
312.941	41.64
313.154	117.42
313.368	39.59
313.582	49.83
313.796	39.59
314.009	23.21
314.223	94.89
314.437	64.17
314.651	66.22
314.864	88.75
315.078	78.51
315.292	47.79
315.505	55.98
315.719	86.7
315.933	41.64
316.146	49.83
316.36	27.31
316.573	68.27
316.787	53.93
317.001	68.27
317.214	49.83
317.428	109.23
317.641	-30.04
317.855	29.35
318.068	33.45
318.282	76.46
318.495	84.65
318.709	33.45
318.922	41.64
319.136	150.18
319.349	66.22
319.563	45.74
319.776	49.83
319.99	92.84
320.203	86.7
320.417	29.35
320.63	49.83
320.843	58.03
321.057	80.55
321.27	78.51
321.483	107.18
321.697	96.94
321.91	66.22
322.124	60.07
322.337	98.99
322.55	55.98
322.763	70.31
322.977	84.65
323.19	0.68
323.403	66.22
323.617	-1.37
323.83	94.89
324.043	51.88
324.256	37.55
324.469	23.21
324.683	191.14
324.896	53.93
325.109	70.31
325.322	98.99
325.535	25.26
325.748	29.35
325.962	98.99
326.175	72.36
326.388	96.94
326.601	133.8
326.814	10.92
327.027	6.83
327.24	86.7
327.453	33.45
327.666	66.22
327.879	76.46
328.092	45.74
328.305	82.6
328.518	33.45
328.731	86.7
328.944	64.17
329.157	39.59
329.37	64.17
329.583	168.62
329.796	103.08
330.009	94.89
330.222	31.4
330.435	23.21
330.648	45.74
330.861	25.26
331.073	68.27
331.286	29.35
331.499	43.69
331.712	-5.46
331.925	94.89
332.138	107.18
332.35	-11.61
332.563	88.75
332.776	101.03
332.989	17.07
333.202	160.42
333.414	53.93
333.627	27.31
333.84	2.73
334.053	70.31
334.265	43.69
334.478	-13.65
334.691	111.27
334.903	47.79
335.116	29.35
335.329	64.17
335.541	49.83
335.754	123.56
335.966	45.74
336.179	127.66
336.392	31.4
336.604	31.4
336.817	33.45
337.029	76.46
337.242	15.02
337.454	94.89
337.667	58.03
337.88	111.27
338.092	86.7
338.305	72.36
338.517	41.64
338.729	98.99
338.942	27.31
339.154	0.68
339.367	-3.41
339.579	107.18
339.792	-46.42
340.004	49.83
340.217	90.79
340.429	45.74
340.641	19.11
340.854	23.21
341.066	66.22
341.278	90.79
341.491	144.04
341.703	55.98
341.915	25.26
342.128	33.45
342.34	62.12
342.552	8.87
342.764	31.4
342.977	80.55
343.189	-3.41
343.401	68.27
343.613	41.64
343.826	49.83
344.038	0.68
344.25	25.26
344.462	88.75
344.674	64.17
344.886	90.79
345.099	43.69
345.311	111.27
345.523	121.51
345.735	-1.37
345.947	107.18
346.159	41.64
346.371	49.83
346.583	139.94
346.795	150.18
347.007	-5.46
347.219	55.98
347.431	70.31
347.643	86.7
347.855	27.31
348.067	55.98
348.279	58.03
348.491	47.79
348.703	78.51
348.915	55.98
349.127	64.17
349.339	29.35
349.551	21.16
349.763	84.65
349.975	17.07
350.187	17.07
350.399	111.27
350.61	66.22
350.822	29.35
351.034	72.36
351.246	86.7
351.458	80.55
351.669	37.55
351.881	25.26
352.093	68.27
352.305	33.45
352.517	107.18
352.728	82.6
352.94	115.37
353.152	158.38
353.363	-7.51
353.575	66.22
353.787	115.37
353.999	72.36
354.21	203.43
354.422	33.45
354.633	55.98
354.845	45.74
355.057	76.46
355.268	88.75
355.48	66.22
355.692	6.83
355.903	94.89
356.115	17.07
356.326	-13.65
356.538	101.03
356.749	66.22
356.961	80.55
357.172	58.03
357.384	29.35
357.595	164.52
357.807	27.31
358.018	123.56
358.23	-7.51
358.441	92.84
358.653	82.6
358.864	27.31
359.075	-52.56
359.287	123.56
359.498	55.98
359.709	39.59
359.921	92.84
360.132	6.83
360.344	72.36
360.555	25.26
360.766	98.99
360.977	74.41
361.189	96.94
361.4	-3.41
361.611	88.75
361.823	117.42
362.034	55.98
362.245	90.79
362.456	84.65
362.667	121.51
362.879	4.78
363.09	21.16
363.301	12.97
363.512	66.22
363.723	90.79
363.935	27.31
364.146	119.46
364.357	33.45
364.568	29.35
364.779	-48.47
364.99	88.75
365.201	62.12
365.412	29.35
365.623	21.16
365.834	92.84
366.045	4.78
366.256	98.99
366.467	47.79
366.678	111.27
366.889	39.59
367.1	37.55
367.311	66.22
367.522	101.03
367.733	84.65
367.944	66.22
368.155	6.83
368.366	154.28
368.577	133.8
368.788	86.7
368.999	33.45
369.209	-48.47
369.42	144.04
369.631	84.65
369.842	105.13
370.053	12.97
370.264	90.79
370.474	74.41
370.685	12.97
370.896	160.42
371.107	72.36
371.317	105.13
371.528	70.31
371.739	53.93
371.95	119.46
372.16	64.17
372.371	-23.89
372.582	90.79
372.792	37.55
373.003	133.8
373.214	53.93
373.424	55.98
373.635	80.55
373.846	96.94
374.056	72.36
374.267	127.66
374.477	94.89
374.688	78.51
374.898	55.98
375.109	49.83
375.319	25.26
375.53	133.8
375.74	35.5
375.951	23.21
376.161	55.98
376.372	174.76
376.582	-1.37
376.793	82.6
377.003	117.42
377.214	33.45
377.424	21.16
377.635	17.07
377.845	37.55
378.055	76.46
378.266	-19.8
378.476	66.22
378.686	107.18
378.897	49.83
379.107	105.13
379.317	19.11
379.528	66.22
379.738	103.08
379.948	23.21
380.158	17.07
380.369	41.64
380.579	144.04
380.789	10.92
380.999	70.31
381.21	39.59
381.42	88.75
381.63	17.07
381.84	58.03
382.05	107.18
382.261	107.18
382.471	109.23
382.681	-1.37
382.891	80.55
383.101	139.94
383.311	21.16
383.521	96.94
383.731	72.36
383.941	39.59
384.151	101.03
384.361	98.99
384.571	37.55
384.781	58.03
384.991	127.66
385.201	131.75
385.411	96.94
385.621	64.17
385.831	88.75
386.041	92.84
386.251	86.7
386.461	76.46
386.671	47.79
386.881	33.45
387.091	131.75
387.301	37.55
387.511	88.75
387.72	90.79
387.93	72.36
388.14	98.99
388.35	47.79
388.56	64.17
388.769	103.08
388.979	109.23
389.189	60.07
389.399	125.61
389.609	96.94
389.818	103.08
390.028	131.75
390.238	86.7
390.447	49.83
390.657	111.27
390.867	23.21
391.076	66.22
391.286	80.55
391.496	148.14
391.705	55.98
391.915	115.37
392.125	88.75
392.334	84.65
392.544	60.07
392.753	70.31
392.963	129.7
393.172	123.56
393.382	41.64
393.591	160.42
393.801	94.89
394.01	144.04
394.22	64.17
394.429	74.41
394.639	78.51
394.848	119.46
395.058	115.37
395.267	96.94
395.477	113.32
395.686	105.13
395.895	178.86
396.105	131.75
396.314	158.38
396.524	137.9
396.733	127.66
396.942	230.06
397.152	131.75
397.361	123.56
397.57	98.99
397.78	154.28
397.989	139.94
398.198	244.39
398.407	158.38
398.617	154.28
398.826	127.66
399.035	121.51
399.244	195.24
399.453	98.99
399.663	156.33
399.872	207.53
400.081	121.51
400.29	252.58
400.499	105.13
400.708	185
400.917	101.03
401.127	148.14
401.336	86.7
401.545	219.82
401.754	172.71
401.963	139.94
402.172	162.47
402.381	164.52
402.59	191.14
402.799	213.67
403.008	187.05
403.217	164.52
403.426	158.38
403.635	129.7
403.844	242.34
404.053	160.42
404.262	221.86
404.471	223.91
404.68	152.23
404.888	228.01
405.097	64.17
405.306	187.05
405.515	234.15
405.724	201.38
405.933	213.67
406.142	316.07
406.35	287.4
406.559	219.82
406.768	250.53
406.977	303.78
407.185	379.56
407.394	225.96
407.603	307.88
407.812	279.21
408.02	334.5
408.229	279.21
408.438	299.69
408.646	334.5
408.855	307.88
409.064	318.12
409.272	397.99
409.481	479.91
409.69	418.47
409.898	381.6
410.107	527.01
410.315	469.67
410.524	389.8
410.733	457.38
410.941	479.91
411.15	547.49
411.358	518.82
411.567	561.83
411.775	537.25
411.984	580.26
412.192	621.22
412.401	619.17
412.609	651.94
412.818	690.85
413.026	664.22
413.234	711.33
413.443	715.42
413.651	758.43
413.86	821.92
414.068	905.88
414.276	944.8
414.485	799.39
414.693	918.17
414.901	936.6
415.11	959.13
415.318	922.27
415.526	1104.54
415.734	1090.2
415.943	1131.16
416.151	1211.03
416.359	1262.23
416.567	1188.5
416.776	1301.14
416.984	1360.53
417.192	1405.59
417.4	1303.19
417.608	1489.56
417.817	1426.07
418.025	1551
418.233	1563.28
418.441	1643.15
418.649	1616.53
418.857	1821.33
419.065	1827.47
419.273	1827.47
419.481	1925.77
419.689	2036.36
419.897	2167.43
420.105	2140.81
420.313	2187.91
420.521	2310.79
420.729	2372.23
420.937	2450.05
421.145	2546.31
421.353	2570.88
421.561	2620.03
421.769	2828.93
421.977	2955.9
422.185	2955.9
422.393	3105.4
422.601	3340.92
422.809	3205.75
423.017	3322.49
423.224	3383.93
423.432	3560.05
423.64	3576.44
423.848	4008.56
424.056	3867.25
424.263	3949.17
424.471	4063.85
424.679	4180.59
424.887	4299.37
425.094	4504.17
425.302	4590.18
425.51	4637.28
425.718	4794.98
425.925	4940.38
426.133	5147.23
426.341	5390.94
426.548	5565.01
426.756	5677.65
426.964	5507.67
427.171	5823.06
427.379	5988.94
427.586	6191.69
427.794	6414.92
428.001	6607.43
428.209	7088.7
428.417	6859.33
428.624	7402.04
428.832	7483.96
429.039	7199.29
429.247	7422.52
429.454	7922.23
429.662	8593.96
429.869	7938.61
430.076	8546.86
430.284	8442.41
430.491	8651.3
430.699	9230.88
430.906	9093.66
431.114	9251.36
431.321	9787.93
431.528	9785.88
431.736	10426.89
431.943	10916.36
432.15	10623.5
432.358	10854.92
432.565	11280.89
432.772	11340.29
432.979	11790.84
433.187	12138.99
433.394	12108.27
433.601	13048.29
433.808	12976.61
434.016	12904.93
434.223	13378.01
434.43	14488.01
434.637	13779.42
434.844	14737.87
435.052	15081.92
435.259	15026.63
435.466	15327.68
435.673	14954.95
435.88	15849.91
436.087	16658.86
436.294	16785.83
436.501	16409.01
436.708	16906.66
436.915	17342.88
437.122	18291.09
437.329	18059.67
437.537	18534.8
437.743	19202.44
437.95	18657.68
438.157	19585.41
438.364	20410.74
438.571	20107.64
438.778	20560.24
438.985	22577.49
439.192	21414.24
439.399	22229.34
439.606	21551.46
439.813	22886.73
440.02	24097.08
440.227	23740.74
440.433	23564.61
440.64	24389.94
440.847	24092.99
441.054	24899.89
441.261	26525.97
441.467	25829.66
441.674	26464.53
441.881	27531.53
442.088	27334.92
442.294	27326.73
442.501	27848.96
442.708	28303.61
442.914	29620.45
443.121	30738.65
443.328	30257.37
443.534	31862.98
443.741	30877.91
443.948	30277.85
444.154	32819.38
444.361	32506.04
444.568	33044.66
444.774	33132.72
444.981	33452.2
445.187	34250.91
445.394	35479.69
445.6	35100.82
445.807	38396
446.013	36919.42
446.22	37660.78
446.426	38987.86
446.633	39368.79
446.839	40622.14
447.046	38672.48
447.252	40851.52
447.459	40818.75
447.665	40915
447.871	42440.74
448.078	44359.69
448.284	41814.06
448.491	43169.82
448.697	44943.36
448.903	45268.98
449.11	45647.86
449.316	44445.7
449.522	45770.74
449.728	46647.27
449.935	46979.04
450.141	46876.64
450.347	47974.35
450.553	46403.56
450.76	47032.28
450.966	48117.71
451.172	47368.15
451.378	48539.59
451.584	47900.62
451.791	49008.57
451.997	48748.48
452.203	49301.43
452.409	49362.87
452.615	49051.58
452.821	47536.09
453.027	47173.59
453.233	48871.36
453.44	47278.04
453.646	48105.42
453.852	47654.87
454.058	48826.31
454.264	47196.12
454.47	47697.87
454.676	46671.84
454.882	48621.51
455.088	44349.45
455.294	45234.17
455.5	45717.49
455.705	46215.15
455.911	44085.26
456.117	43337.75
456.323	42819.61
456.529	40415.3
456.735	42096.68
456.941	40804.41
457.147	40472.64
457.352	39145.56
457.558	38692.96
457.764	38463.58
457.97	37955.69
458.176	37027.96
458.381	37335.15
458.587	35229.84
458.793	35254.42
458.999	33269.93
459.204	35891.33
459.41	34965.65
459.616	32653.5
459.821	32692.41
460.027	32676.02
460.233	31916.23
460.438	30214.37
460.644	30652.63
460.85	29274.35
461.055	29006.06
461.261	28801.27
461.466	26693.91
461.672	25850.14
461.878	27826.43
462.083	25817.38
462.289	25245.99
462.494	25000.24
462.7	23826.75
462.905	23228.74
463.111	24324.41
463.316	24217.91
463.522	23812.42
463.727	23869.76
463.932	23789.89
464.138	23337.29
464.343	23533.89
464.549	22917.45
464.754	23732.54
464.959	23748.93
465.165	23382.34
465.37	22288.73
465.575	21885.28
465.781	22653.26
465.986	22786.38
466.191	22016.35
466.397	21762.4
466.602	20525.43
