Data from USB4F104151__102__10-24-44-287.txt Node

Date: Wed Mar 12 10:24:44 EDT 2025
User: louis
Spectrometer: USB4F10415
Trigger mode: 4
Integration Time (sec): 3.000000E-2
Scans to average: 1
Electric dark correction enabled: true
Nonlinearity correction enabled: false
Boxcar width: 0
XAxis mode: Wavelengths
Number of Pixels in Spectrum: 3648
>>>>>Begin Spectral Data<<<<<
178.204	-179.37
178.424	-179.37
178.644	-179.37
178.864	-136.36
179.084	-105.64
179.304	19.29
179.524	-29.87
179.744	31.57
179.964	47.96
180.184	-23.72
180.404	47.96
180.624	-42.15
180.844	-36.01
181.064	-11.43
181.283	-42.15
181.503	-15.53
181.723	54.1
181.943	-27.82
182.163	-1.19
182.383	-25.77
182.602	54.1
182.822	-5.29
183.042	13.14
183.262	-81.07
183.482	4.95
183.701	-85.16
183.921	0.85
184.141	25.43
184.361	95.06
184.58	50
184.8	-44.2
185.02	-13.48
185.239	41.81
185.459	50
185.679	25.43
185.898	-40.11
186.118	-5.29
186.338	39.76
186.557	2.9
186.777	9.05
186.997	11.09
187.216	35.67
187.436	4.95
187.655	35.67
187.875	52.05
188.095	-29.87
188.314	111.44
188.534	23.38
188.753	-17.58
188.973	52.05
189.192	119.64
189.412	19.29
189.631	13.14
189.851	4.95
190.07	21.33
190.29	33.62
190.509	-19.63
190.729	-7.34
190.948	78.68
191.168	78.68
191.387	78.68
191.607	21.33
191.826	62.29
192.045	-23.72
192.265	-5.29
192.484	43.86
192.704	35.67
192.923	-27.82
193.142	17.24
193.362	-36.01
193.581	35.67
193.8	54.1
194.02	78.68
194.239	-48.3
194.458	11.09
194.678	-64.68
194.897	-3.24
195.116	47.96
195.335	-36.01
195.555	27.48
195.774	0.85
195.993	82.77
196.212	33.62
196.432	0.85
196.651	2.9
196.87	2.9
197.089	54.1
197.308	45.91
197.528	29.52
197.747	35.67
197.966	4.95
198.185	74.58
198.404	17.24
198.623	-42.15
198.842	9.05
199.062	45.91
199.281	27.48
199.5	17.24
199.719	31.57
199.938	15.19
200.157	80.72
200.376	-21.67
200.595	4.95
200.814	-11.43
201.033	-27.82
201.252	-15.53
201.471	58.2
201.69	52.05
201.909	-9.39
202.128	-13.48
202.347	82.77
202.566	-46.25
202.785	-11.43
203.004	-58.54
203.223	64.34
203.442	-60.59
203.661	-38.06
203.879	25.43
204.098	2.9
204.317	-50.35
204.536	-11.43
204.755	52.05
204.974	13.14
205.193	39.76
205.411	35.67
205.63	0.85
205.849	33.62
206.068	17.24
206.287	52.05
206.505	35.67
206.724	-19.63
206.943	52.05
207.162	0.85
207.381	21.33
207.599	0.85
207.818	-11.43
208.037	-42.15
208.255	27.48
208.474	-23.72
208.693	13.14
208.911	17.24
209.13	2.9
209.349	4.95
209.567	54.1
209.786	35.67
210.005	-9.39
210.223	97.11
210.442	-31.91
210.661	82.77
210.879	4.95
211.098	-23.72
211.316	-15.53
211.535	33.62
211.753	33.62
211.972	97.11
212.191	0.85
212.409	58.2
212.628	-19.63
212.846	-13.48
213.065	97.11
213.283	50
213.502	21.33
213.72	-15.53
213.938	-3.24
214.157	72.53
214.375	33.62
214.594	-33.96
214.812	103.25
215.031	-42.15
215.249	-44.2
215.467	-17.58
215.686	7
215.904	21.33
216.122	58.2
216.341	-7.34
216.559	-5.29
216.778	7
216.996	56.15
217.214	-31.91
217.432	-5.29
217.651	-38.06
217.869	66.39
218.087	72.53
218.306	25.43
218.524	37.72
218.742	-23.72
218.96	4.95
219.179	29.52
219.397	-21.67
219.615	56.15
219.833	95.06
220.051	-21.67
220.27	41.81
220.488	70.48
220.706	13.14
220.924	-50.35
221.142	-64.68
221.36	25.43
221.578	29.52
221.796	60.24
222.015	27.48
222.233	-5.29
222.451	11.09
222.669	-81.07
222.887	4.95
223.105	9.05
223.323	4.95
223.541	29.52
223.759	-42.15
223.977	41.81
224.195	52.05
224.413	43.86
224.631	90.96
224.849	-38.06
225.067	70.48
225.285	43.86
225.503	19.29
225.721	-29.87
225.939	45.91
226.157	-3.24
226.375	140.12
226.592	7
226.81	-31.91
227.028	76.63
227.246	-9.39
227.464	-13.48
227.682	62.29
227.9	17.24
228.117	54.1
228.335	17.24
228.553	-15.53
228.771	27.48
228.989	-33.96
229.206	11.09
229.424	-5.29
229.642	-68.78
229.86	19.29
230.077	111.44
230.295	-36.01
230.513	90.96
230.731	39.76
230.948	31.57
231.166	37.72
231.384	52.05
231.601	29.52
231.819	0.85
232.037	-62.63
232.254	11.09
232.472	-52.39
232.689	25.43
232.907	15.19
233.125	13.14
233.342	39.76
233.56	-5.29
233.777	0.85
233.995	27.48
234.213	54.1
234.43	-15.53
234.648	13.14
234.865	-15.53
235.083	33.62
235.3	-7.34
235.518	-27.82
235.735	68.44
235.953	37.72
236.17	66.39
236.388	-62.63
236.605	-13.48
236.822	33.62
237.04	-11.43
237.257	70.48
237.475	58.2
237.692	21.33
237.909	-52.39
238.127	21.33
238.344	29.52
238.562	19.29
238.779	11.09
238.996	39.76
239.214	-33.96
239.431	52.05
239.648	31.57
239.865	88.92
240.083	-19.63
240.3	11.09
240.517	-50.35
240.735	13.14
240.952	70.48
241.169	11.09
241.386	-13.48
241.603	-25.77
241.821	-36.01
242.038	68.44
242.255	54.1
242.472	17.24
242.689	23.38
242.907	9.05
243.124	21.33
243.341	-11.43
243.558	82.77
243.775	-19.63
243.992	0.85
244.209	52.05
244.426	66.39
244.643	-11.43
244.86	-13.48
245.078	142.16
245.295	-9.39
245.512	90.96
245.729	52.05
245.946	64.34
246.163	78.68
246.38	54.1
246.597	25.43
246.814	-5.29
247.031	-27.82
247.248	54.1
247.464	50
247.681	31.57
247.898	23.38
248.115	47.96
248.332	-3.24
248.549	17.24
248.766	70.48
248.983	-23.72
249.2	15.19
249.417	17.24
249.633	-38.06
249.85	70.48
250.067	11.09
250.284	43.86
250.501	45.91
250.717	2.9
250.934	52.05
251.151	-9.39
251.368	21.33
251.585	76.63
251.801	33.62
252.018	-27.82
252.235	109.4
252.451	-19.63
252.668	80.72
252.885	41.81
253.102	-1.19
253.318	43.86
253.535	29.52
253.752	76.63
253.968	21.33
254.185	45.91
254.401	-33.96
254.618	21.33
254.835	23.38
255.051	66.39
255.268	-13.48
255.484	47.96
255.701	76.63
255.917	13.14
256.134	31.57
256.351	9.05
256.567	-3.24
256.784	9.05
257	33.62
257.217	56.15
257.433	9.05
257.65	29.52
257.866	33.62
258.082	56.15
258.299	86.87
258.515	27.48
258.732	13.14
258.948	27.48
259.165	-3.24
259.381	-1.19
259.597	0.85
259.814	84.82
260.03	84.82
260.246	25.43
260.463	90.96
260.679	47.96
260.895	2.9
261.112	70.48
261.328	0.85
261.544	0.85
261.761	56.15
261.977	27.48
262.193	0.85
262.409	76.63
262.626	7
262.842	7
263.058	-3.24
263.274	31.57
263.49	58.2
263.707	37.72
263.923	43.86
264.139	-11.43
264.355	-58.54
264.571	68.44
264.787	41.81
265.004	31.57
265.22	15.19
265.436	-27.82
265.652	35.67
265.868	-19.63
266.084	-13.48
266.3	43.86
266.516	15.19
266.732	41.81
266.948	74.58
267.164	9.05
267.38	66.39
267.596	43.86
267.812	4.95
268.028	43.86
268.244	4.95
268.46	9.05
268.676	37.72
268.892	13.14
269.108	-56.49
269.324	-23.72
269.54	-11.43
269.756	117.59
269.972	45.91
270.188	68.44
270.403	-11.43
270.619	-17.58
270.835	33.62
271.051	27.48
271.267	-68.78
271.483	52.05
271.698	-36.01
271.914	41.81
272.13	39.76
272.346	23.38
272.562	-95.4
272.777	68.44
272.993	19.29
273.209	27.48
273.425	56.15
273.64	29.52
273.856	58.2
274.072	23.38
274.287	15.19
274.503	37.72
274.719	70.48
274.934	-36.01
275.15	-31.91
275.366	-17.58
275.581	29.52
275.797	39.76
276.012	-21.67
276.228	37.72
276.444	29.52
276.659	39.76
276.875	31.57
277.09	19.29
277.306	62.29
277.521	-3.24
277.737	45.91
277.952	60.24
278.168	50
278.383	19.29
278.599	60.24
278.814	37.72
279.03	-68.78
279.245	17.24
279.461	-11.43
279.676	95.06
279.892	13.14
280.107	-36.01
280.322	43.86
280.538	-5.29
280.753	-3.24
280.969	4.95
281.184	-21.67
281.399	58.2
281.615	47.96
281.83	35.67
282.045	-36.01
282.26	97.11
282.476	-5.29
282.691	27.48
282.906	33.62
283.122	50
283.337	-91.31
283.552	33.62
283.767	-23.72
283.983	52.05
284.198	4.95
284.413	-27.82
284.628	-7.34
284.843	41.81
285.058	54.1
285.274	-19.63
285.489	43.86
285.704	43.86
285.919	35.67
286.134	11.09
286.349	-9.39
286.564	76.63
286.779	54.1
286.995	25.43
287.21	15.19
287.425	45.91
287.64	31.57
287.855	-19.63
288.07	43.86
288.285	56.15
288.5	80.72
288.715	29.52
288.93	21.33
289.145	54.1
289.36	23.38
289.575	19.29
289.79	90.96
290.004	37.72
290.219	33.62
290.434	19.29
290.649	21.33
290.864	39.76
291.079	-7.34
291.294	84.82
291.509	72.53
291.724	17.24
291.938	-27.82
292.153	45.91
292.368	-64.68
292.583	0.85
292.798	-11.43
293.012	33.62
293.227	-7.34
293.442	-56.49
293.657	50
293.871	31.57
294.086	4.95
294.301	9.05
294.516	25.43
294.73	80.72
294.945	-25.77
295.16	-19.63
295.374	17.24
295.589	19.29
295.804	-21.67
296.018	-64.68
296.233	60.24
296.447	-48.3
296.662	76.63
296.877	105.3
297.091	15.19
297.306	-3.24
297.52	60.24
297.735	43.86
297.949	29.52
298.164	31.57
298.378	17.24
298.593	-23.72
298.807	-5.29
299.022	17.24
299.236	17.24
299.451	-33.96
299.665	37.72
299.88	68.44
300.094	68.44
300.309	29.52
300.523	-15.53
300.737	47.96
300.952	-25.77
301.166	129.88
301.381	-103.59
301.595	29.52
301.809	37.72
302.024	33.62
302.238	-7.34
302.452	95.06
302.667	-9.39
302.881	84.82
303.095	45.91
303.309	35.67
303.524	0.85
303.738	-11.43
303.952	27.48
304.166	27.48
304.381	21.33
304.595	29.52
304.809	29.52
305.023	31.57
305.237	-19.63
305.452	-5.29
305.666	60.24
305.88	17.24
306.094	62.29
306.308	109.4
306.522	-23.72
306.736	35.67
306.95	47.96
307.164	27.48
307.379	23.38
307.593	115.54
307.807	78.68
308.021	58.2
308.235	9.05
308.449	25.43
308.663	-36.01
308.877	33.62
309.091	4.95
309.305	21.33
309.519	-74.92
309.733	-52.39
309.947	-31.91
310.161	13.14
310.374	45.91
310.588	45.91
310.802	-21.67
311.016	11.09
311.23	41.81
311.444	27.48
311.658	-3.24
311.872	17.24
312.085	76.63
312.299	23.38
312.513	54.1
312.727	7
312.941	68.44
313.154	9.05
313.368	52.05
313.582	50
313.796	54.1
314.009	33.62
314.223	13.14
314.437	15.19
314.651	11.09
314.864	-36.01
315.078	35.67
315.292	-15.53
315.505	58.2
315.719	50
315.933	13.14
316.146	-44.2
316.36	-76.97
316.573	41.81
316.787	2.9
317.001	109.4
317.214	33.62
317.428	0.85
317.641	-72.87
317.855	80.72
318.068	56.15
318.282	-3.24
318.495	43.86
318.709	72.53
318.922	19.29
319.136	84.82
319.349	-58.54
319.563	37.72
319.776	101.2
319.99	58.2
320.203	-48.3
320.417	23.38
320.63	2.9
320.843	58.2
321.057	29.52
321.27	-13.48
321.483	58.2
321.697	52.05
321.91	33.62
322.124	-1.19
322.337	84.82
322.55	-36.01
322.763	25.43
322.977	33.62
323.19	-11.43
323.403	23.38
323.617	-5.29
323.83	29.52
324.043	37.72
324.256	54.1
324.469	52.05
324.683	82.77
324.896	29.52
325.109	37.72
325.322	35.67
325.535	47.96
325.748	50
325.962	103.25
326.175	54.1
326.388	17.24
326.601	62.29
326.814	-19.63
327.027	45.91
327.24	95.06
327.453	-83.11
327.666	-13.48
327.879	78.68
328.092	9.05
328.305	-31.91
328.518	27.48
328.731	39.76
328.944	29.52
329.157	29.52
329.37	-3.24
329.583	35.67
329.796	19.29
330.009	13.14
330.222	11.09
330.435	62.29
330.648	-48.3
330.861	7
331.073	47.96
331.286	78.68
331.499	43.86
331.712	-15.53
331.925	19.29
332.138	33.62
332.35	17.24
332.563	29.52
332.776	35.67
332.989	-19.63
333.202	64.34
333.414	2.9
333.627	35.67
333.84	-29.87
334.053	54.1
334.265	-83.11
334.478	-21.67
334.691	47.96
334.903	-15.53
335.116	23.38
335.329	-7.34
335.541	45.91
335.754	95.06
335.966	45.91
336.179	-11.43
336.392	54.1
336.604	-23.72
336.817	41.81
337.029	70.48
337.242	-15.53
337.454	0.85
337.667	-19.63
337.88	54.1
338.092	21.33
338.305	39.76
338.517	21.33
338.729	101.2
338.942	68.44
339.154	17.24
339.367	-70.83
339.579	7
339.792	9.05
340.004	62.29
340.217	41.81
340.429	-11.43
340.641	45.91
340.854	78.68
341.066	31.57
341.278	-17.58
341.491	-15.53
341.703	78.68
341.915	82.77
342.128	17.24
342.34	-11.43
342.552	-3.24
342.764	86.87
342.977	37.72
343.189	25.43
343.401	95.06
343.613	4.95
343.826	74.58
344.038	27.48
344.25	-15.53
344.462	2.9
344.674	90.96
344.886	-31.91
345.099	-9.39
345.311	84.82
345.523	68.44
345.735	-19.63
345.947	62.29
346.159	68.44
346.371	29.52
346.583	-3.24
346.795	136.02
347.007	47.96
347.219	25.43
347.431	15.19
347.643	70.48
347.855	27.48
348.067	9.05
348.279	-7.34
348.491	105.3
348.703	90.96
348.915	0.85
349.127	4.95
349.339	45.91
349.551	45.91
349.763	58.2
349.975	60.24
350.187	60.24
350.399	19.29
350.61	82.77
350.822	54.1
351.034	99.16
351.246	-13.48
351.458	62.29
351.669	66.39
351.881	121.68
352.093	39.76
352.305	2.9
352.517	62.29
352.728	103.25
352.94	-21.67
353.152	-9.39
353.363	0.85
353.575	2.9
353.787	-3.24
353.999	62.29
354.21	43.86
354.422	-5.29
354.633	-48.3
354.845	-21.67
355.057	23.38
355.268	0.85
355.48	66.39
355.692	27.48
355.903	-50.35
356.115	25.43
356.326	-15.53
356.538	68.44
356.749	-52.39
356.961	2.9
357.172	50
357.384	52.05
357.595	76.63
357.807	-13.48
358.018	-1.19
358.23	76.63
358.441	39.76
358.653	62.29
358.864	9.05
359.075	7
359.287	0.85
359.498	9.05
359.709	84.82
359.921	33.62
360.132	-5.29
360.344	-5.29
360.555	23.38
360.766	43.86
360.977	86.87
361.189	70.48
361.4	56.15
361.611	66.39
361.823	31.57
362.034	29.52
362.245	-40.11
362.456	19.29
362.667	-7.34
362.879	-1.19
363.09	54.1
363.301	58.2
363.512	-3.24
363.723	-1.19
363.935	56.15
364.146	86.87
364.357	43.86
364.568	78.68
364.779	9.05
364.99	31.57
365.201	-36.01
365.412	70.48
365.623	-31.91
365.834	72.53
366.045	35.67
366.256	41.81
366.467	66.39
366.678	78.68
366.889	9.05
367.1	47.96
367.311	76.63
367.522	-7.34
367.733	11.09
367.944	103.25
368.155	101.2
368.366	29.52
368.577	60.24
368.788	86.87
368.999	33.62
369.209	-33.96
369.42	60.24
369.631	47.96
369.842	86.87
370.053	-52.39
370.264	90.96
370.474	70.48
370.685	-31.91
370.896	21.33
371.107	29.52
371.317	35.67
371.528	33.62
371.739	66.39
371.95	-1.19
372.16	76.63
372.371	72.53
372.582	19.29
372.792	47.96
373.003	31.57
373.214	29.52
373.424	74.58
373.635	-5.29
373.846	11.09
374.056	19.29
374.267	41.81
374.477	62.29
374.688	15.19
374.898	39.76
375.109	27.48
375.319	58.2
375.53	74.58
375.74	-52.39
375.951	25.43
376.161	11.09
376.372	-40.11
376.582	37.72
376.793	43.86
377.003	-5.29
377.214	-36.01
377.424	80.72
377.635	4.95
377.845	54.1
378.055	62.29
378.266	74.58
378.476	103.25
378.686	86.87
378.897	78.68
379.107	0.85
379.317	50
379.528	37.72
379.738	123.73
379.948	58.2
380.158	13.14
380.369	45.91
380.579	86.87
380.789	33.62
380.999	82.77
381.21	47.96
381.42	66.39
381.63	19.29
381.84	54.1
382.05	86.87
382.261	-19.63
382.471	82.77
382.681	-5.29
382.891	17.24
383.101	2.9
383.311	23.38
383.521	-11.43
383.731	86.87
383.941	45.91
384.151	4.95
384.361	-15.53
384.571	76.63
384.781	107.35
384.991	52.05
385.201	86.87
385.411	95.06
385.621	-36.01
385.831	52.05
386.041	105.3
386.251	45.91
386.461	168.79
386.671	33.62
386.881	50
387.091	-3.24
387.301	76.63
387.511	-38.06
387.72	9.05
387.93	-13.48
388.14	50
388.35	0.85
388.56	35.67
388.769	97.11
388.979	60.24
389.189	37.72
389.399	54.1
389.609	27.48
389.818	133.97
390.028	105.3
390.238	105.3
390.447	84.82
390.657	70.48
390.867	66.39
391.076	-36.01
391.286	-23.72
391.496	11.09
391.705	58.2
391.915	76.63
392.125	115.54
392.334	58.2
392.544	56.15
392.753	50
392.963	29.52
393.172	37.72
393.382	9.05
393.591	37.72
393.801	-109.74
394.01	125.78
394.22	43.86
394.429	54.1
394.639	70.48
394.848	80.72
395.058	80.72
395.267	117.59
395.477	105.3
395.686	66.39
395.895	54.1
396.105	103.25
396.314	105.3
396.524	60.24
396.733	2.9
396.942	195.41
397.152	93.01
397.361	84.82
397.57	43.86
397.78	156.5
397.989	78.68
398.198	93.01
398.407	136.02
398.617	70.48
398.826	58.2
399.035	52.05
399.244	95.06
399.453	56.15
399.663	109.4
399.872	113.49
400.081	50
400.29	148.31
400.499	66.39
400.708	93.01
400.917	70.48
401.127	72.53
401.336	160.59
401.545	86.87
401.754	60.24
401.963	129.88
402.172	129.88
402.381	37.72
402.59	123.73
402.799	70.48
403.008	121.68
403.217	54.1
403.426	86.87
403.635	62.29
403.844	72.53
404.053	131.92
404.262	84.82
404.471	176.98
404.68	131.92
404.888	156.5
405.097	154.45
405.306	136.02
405.515	113.49
405.724	195.41
405.933	162.64
406.142	97.11
406.35	172.88
406.559	105.3
406.768	107.35
406.977	199.51
407.185	166.74
407.394	133.97
407.603	172.88
407.812	244.56
408.02	232.27
408.229	222.03
408.438	254.8
408.646	193.36
408.855	238.42
409.064	258.9
409.272	250.71
409.481	260.95
409.69	244.56
409.898	262.99
410.107	181.07
410.315	289.62
410.524	250.71
410.733	250.71
410.941	361.3
411.15	314.19
411.358	392.02
411.567	334.67
411.775	346.96
411.984	357.2
412.192	447.31
412.401	404.3
412.609	484.17
412.818	416.59
413.026	490.32
413.234	455.5
413.443	504.65
413.651	455.5
413.86	525.13
414.068	594.76
414.276	564.04
414.485	576.33
414.693	643.92
414.901	629.58
415.11	617.29
415.318	594.76
415.526	674.64
415.734	648.01
415.943	758.6
416.151	729.93
416.359	723.79
416.567	754.51
416.776	787.27
416.984	844.62
417.192	934.73
417.4	863.05
417.608	895.82
417.817	920.39
418.025	942.92
418.233	1071.94
418.441	1094.47
418.649	1033.03
418.857	1108.8
419.065	1168.2
419.273	1065.8
419.481	1153.86
419.689	1217.35
419.897	1354.56
420.105	1313.6
420.313	1413.95
420.521	1430.34
420.729	1450.82
420.937	1487.68
421.145	1608.51
421.353	1612.6
421.561	1669.95
421.769	1835.83
421.977	1844.03
422.185	1839.93
422.393	1919.8
422.601	2143.03
422.809	1977.14
423.017	2073.4
423.224	2038.58
423.432	2124.6
423.64	2175.8
423.848	2405.17
424.056	2345.78
424.263	2431.79
424.471	2413.36
424.679	2530.09
424.887	2630.45
425.094	2747.18
425.302	2712.36
425.51	2992.94
425.718	2898.73
425.925	3042.09
426.133	3005.22
426.341	3289.89
426.548	3437.34
426.756	3498.78
426.964	3482.4
427.171	3668.77
427.379	3722.01
427.586	3793.69
427.794	3941.15
428.001	4303.64
428.209	4354.83
428.417	4348.69
428.624	4524.82
428.832	4522.77
429.039	4596.5
429.247	4504.34
429.454	4786.96
429.662	5286.66
429.869	4985.61
430.076	5317.38
430.284	5159.69
430.491	5534.46
430.699	5647.1
430.906	5534.46
431.114	5864.19
431.321	5894.91
431.528	6099.7
431.736	6406.9
431.943	6800.11
432.15	6382.32
432.358	6695.66
432.565	6951.66
432.772	6922.99
432.979	7320.29
433.187	7365.35
433.394	7324.39
433.601	7836.38
433.808	8112.86
434.016	8073.95
434.223	8237.78
434.43	8766.16
434.637	8532.69
434.844	9194.19
435.052	9290.44
435.259	9249.48
435.466	9124.55
435.673	9315.02
435.88	9702.08
436.087	10322.62
436.294	10320.57
436.501	10201.79
436.708	10363.58
436.915	10756.79
437.122	11240.11
437.329	11000.49
437.537	11559.59
437.743	11629.22
437.95	11489.96
438.157	12247.71
438.364	12466.84
438.571	12575.38
438.778	12665.49
438.985	13625.99
439.192	13214.35
439.399	13492.87
439.606	13269.64
439.813	14105.21
440.02	14932.59
440.227	14781.04
440.433	14467.7
440.64	14930.55
440.847	15139.44
441.054	15389.29
441.261	16257.63
441.467	16026.21
441.674	16308.83
441.881	17138.26
442.088	17027.67
442.294	16716.37
442.501	17406.54
442.708	17738.31
442.914	18430.52
443.121	19010.1
443.328	18596.41
443.534	19986.98
443.741	19098.16
443.948	18944.56
444.154	20095.52
444.361	20312.61
444.568	20496.92
444.774	20230.69
444.981	20486.68
445.187	21178.9
445.394	22010.37
445.6	21408.27
445.807	23843.31
446.013	22673.92
446.22	23593.45
446.426	23878.12
446.633	24666.59
446.839	25121.24
447.046	23894.5
447.252	25571.79
447.459	25412.05
447.665	25139.67
447.871	26214.85
448.078	27388.34
448.284	26327.49
448.491	27105.72
448.697	27914.67
448.903	28381.6
449.11	28672.42
449.316	27957.67
449.522	28572.07
449.728	29534.61
449.935	29544.85
450.141	29385.11
450.347	30095.75
450.553	28842.4
450.76	29530.51
450.966	30482.82
451.172	30026.12
451.378	30810.5
451.584	30089.61
451.791	31093.11
451.997	30849.41
452.203	31144.31
452.409	31287.67
452.615	31074.68
452.821	29497.75
453.027	29684.11
453.233	31289.72
453.44	29749.65
453.646	30247.3
453.852	30185.86
454.058	30704
454.264	29692.3
454.47	30294.41
454.676	29301.14
454.882	30429.57
455.088	27621.81
455.294	28369.32
455.5	28801.44
455.705	29182.36
455.911	27847.08
456.117	27062.71
456.323	26913.21
456.529	25405.91
456.735	26540.48
456.941	25905.61
457.147	25199.06
457.352	24953.3
457.558	24443.36
457.764	24363.49
457.97	23794.15
458.176	23362.03
458.381	23462.38
458.587	22235.65
458.793	22546.94
458.999	21269.01
459.204	22454.78
459.41	21983.75
459.616	20470.3
459.821	20476.44
460.027	20308.51
460.233	19894.82
460.438	19028.53
460.644	19165.74
460.85	18326.08
461.055	18072.13
461.261	17877.57
461.466	16556.63
461.672	16196.19
461.878	17228.37
462.083	16179.81
462.289	15913.57
462.494	15843.94
462.7	15102.57
462.905	14637.69
463.111	15100.53
463.316	15274.6
463.522	15159.92
463.727	15026.8
463.932	14764.66
464.138	14858.87
464.343	14932.59
464.549	14412.41
464.754	15133.29
464.959	14930.55
465.165	14766.71
465.37	14228.09
465.575	13517.45
465.781	14232.19
465.986	14381.69
466.191	13984.38
466.397	13546.12
466.602	12776.08
466.807	13525.64
467.012	13460.1
467.218	13105.81
467.423	12991.12
467.628	13363.85
467.833	13875.84
468.038	13267.59
468.244	12872.34
