Data from USB4F104151__56__10-23-52-153.txt Node

Date: Wed Mar 12 10:23:52 EDT 2025
User: louis
Spectrometer: USB4F10415
Trigger mode: 4
Integration Time (sec): 3.000000E-2
Scans to average: 1
Electric dark correction enabled: true
Nonlinearity correction enabled: false
Boxcar width: 0
XAxis mode: Wavelengths
Number of Pixels in Spectrum: 3648
>>>>>Begin Spectral Data<<<<<
178.204	-148.14
178.424	-148.14
178.644	-148.14
178.864	-139.94
179.084	-109.23
179.304	-25.26
179.524	-23.21
179.744	1.37
179.964	-6.83
180.184	-6.83
180.404	56.66
180.624	-2.73
180.844	21.85
181.064	19.8
181.283	-53.93
181.503	-17.07
181.723	36.18
181.943	30.04
182.163	3.41
182.383	-35.5
182.602	66.9
182.822	99.67
183.042	-29.35
183.262	-58.03
183.482	-2.73
183.701	21.85
183.921	75.09
184.141	7.51
184.361	-15.02
184.58	34.13
184.8	81.24
185.02	9.56
185.239	58.71
185.459	54.61
185.679	15.7
185.898	13.65
186.118	48.47
186.338	52.56
186.557	-12.97
186.777	-31.4
186.997	7.51
187.216	54.61
187.436	66.9
187.655	25.94
187.875	-31.4
188.095	-39.59
188.314	3.41
188.534	34.13
188.753	15.7
188.973	9.56
189.192	71
189.412	-4.78
189.631	21.85
189.851	1.37
190.07	58.71
190.29	13.65
190.509	7.51
190.729	-19.11
190.948	75.09
191.168	165.2
191.387	60.76
191.607	-0.68
191.826	32.08
192.045	-31.4
192.265	13.65
192.484	15.7
192.704	3.41
192.923	-2.73
193.142	93.52
193.362	9.56
193.581	56.66
193.8	32.08
194.02	-17.07
194.239	32.08
194.458	42.32
194.678	-25.26
194.897	-0.68
195.116	1.37
195.335	38.23
195.555	36.18
195.774	34.13
195.993	25.94
196.212	34.13
196.432	-8.87
196.651	9.56
196.87	-4.78
197.089	34.13
197.308	17.75
197.528	85.33
197.747	23.89
197.966	11.61
198.185	-8.87
198.404	62.8
198.623	64.85
198.842	-15.02
199.062	21.85
199.281	1.37
199.5	42.32
199.719	15.7
199.938	13.65
200.157	64.85
200.376	-39.59
200.595	-2.73
200.814	66.9
201.033	42.32
201.252	13.65
201.471	42.32
201.69	38.23
201.909	75.09
202.128	54.61
202.347	105.81
202.566	5.46
202.785	-6.83
203.004	-8.87
203.223	73.04
203.442	34.13
203.661	-23.21
203.879	19.8
204.098	-10.92
204.317	1.37
204.536	66.9
204.755	30.04
204.974	50.52
205.193	-21.16
205.411	77.14
205.63	25.94
205.849	-45.74
206.068	54.61
206.287	-29.35
206.505	42.32
206.724	23.89
206.943	91.48
207.162	-23.21
207.381	-27.31
207.599	32.08
207.818	48.47
208.037	3.41
208.255	1.37
208.474	66.9
208.693	-4.78
208.911	-10.92
209.13	40.28
209.349	71
209.567	36.18
209.786	32.08
210.005	1.37
210.223	-10.92
210.442	5.46
210.661	13.65
210.879	42.32
211.098	50.52
211.316	-12.97
211.535	60.76
211.753	44.37
211.972	50.52
212.191	19.8
212.409	60.76
212.628	9.56
212.846	21.85
213.065	-33.45
213.283	13.65
213.502	-15.02
213.72	44.37
213.938	73.04
214.157	3.41
214.375	114
214.594	-10.92
214.812	25.94
215.031	1.37
215.249	50.52
215.467	46.42
215.686	23.89
215.904	85.33
216.122	13.65
216.341	77.14
216.559	25.94
216.778	66.9
216.996	64.85
217.214	42.32
217.432	-0.68
217.651	75.09
217.869	44.37
218.087	23.89
218.306	-10.92
218.524	62.8
218.742	5.46
218.96	-2.73
219.179	-4.78
219.397	42.32
219.615	68.95
219.833	23.89
220.051	87.38
220.27	13.65
220.488	50.52
220.706	9.56
220.924	5.46
221.142	-0.68
221.36	17.75
221.578	-23.21
221.796	32.08
222.015	93.52
222.233	-10.92
222.451	85.33
222.669	99.67
222.887	30.04
223.105	-17.07
223.323	30.04
223.541	-10.92
223.759	116.05
223.977	1.37
224.195	36.18
224.413	91.48
224.631	91.48
224.849	-8.87
225.067	103.76
225.285	32.08
225.503	46.42
225.721	19.8
225.939	64.85
226.157	-6.83
226.375	165.2
226.592	25.94
226.81	66.9
227.028	15.7
227.246	9.56
227.464	9.56
227.682	7.51
227.9	21.85
228.117	52.56
228.335	19.8
228.553	27.99
228.771	58.71
228.989	21.85
229.206	66.9
229.424	5.46
229.642	-2.73
229.86	-27.31
230.077	19.8
230.295	-8.87
230.513	46.42
230.731	1.37
230.948	23.89
231.166	44.37
231.384	56.66
231.601	17.75
231.819	83.28
232.037	-19.11
232.254	11.61
232.472	13.65
232.689	1.37
232.907	66.9
233.125	-41.64
233.342	50.52
233.56	50.52
233.777	-0.68
233.995	9.56
234.213	52.56
234.43	50.52
234.648	7.51
234.865	46.42
235.083	46.42
235.3	56.66
235.518	73.04
235.735	13.65
235.953	-17.07
236.17	25.94
236.388	11.61
236.605	60.76
236.822	152.91
237.04	34.13
237.257	-37.55
237.475	-74.41
237.692	9.56
237.909	-23.21
238.127	58.71
238.344	91.48
238.562	79.19
238.779	13.65
238.996	-35.5
239.214	48.47
239.431	83.28
239.648	-19.11
239.865	66.9
240.083	107.86
240.3	75.09
240.517	5.46
240.735	-47.79
240.952	50.52
241.169	32.08
241.386	25.94
241.603	-29.35
241.821	-19.11
242.038	103.76
242.255	58.71
242.472	97.62
242.689	114
242.907	77.14
243.124	30.04
243.341	19.8
243.558	-47.79
243.775	-6.83
243.992	11.61
244.209	58.71
244.426	101.72
244.643	34.13
244.86	-31.4
245.078	-2.73
245.295	-27.31
245.512	25.94
245.729	15.7
245.946	50.52
246.163	27.99
246.38	64.85
246.597	66.9
246.814	-19.11
247.031	40.28
247.248	38.23
247.464	50.52
247.681	7.51
247.898	1.37
248.115	66.9
248.332	58.71
248.549	50.52
248.766	50.52
248.983	71
249.2	42.32
249.417	34.13
249.633	-10.92
249.85	34.13
250.067	40.28
250.284	73.04
250.501	48.47
250.717	34.13
250.934	3.41
251.151	-0.68
251.368	-17.07
251.585	7.51
251.801	-25.26
252.018	17.75
252.235	87.38
252.451	-47.79
252.668	-49.83
252.885	50.52
253.102	60.76
253.318	116.05
253.535	1.37
253.752	-19.11
253.968	40.28
254.185	46.42
254.401	-15.02
254.618	-8.87
254.835	-10.92
255.051	105.81
255.268	42.32
255.484	-31.4
255.701	85.33
255.917	42.32
256.134	-51.88
256.351	40.28
256.567	54.61
256.784	40.28
257	-47.79
257.217	38.23
257.433	52.56
257.65	9.56
257.866	17.75
258.082	-6.83
258.299	-33.45
258.515	71
258.732	-15.02
258.948	71
259.165	-27.31
259.381	-33.45
259.597	68.95
259.814	71
260.03	-12.97
260.246	62.8
260.463	75.09
260.679	85.33
260.895	83.28
261.112	48.47
261.328	56.66
261.544	30.04
261.761	-15.02
261.977	107.86
262.193	11.61
262.409	13.65
262.626	-10.92
262.842	-17.07
263.058	42.32
263.274	83.28
263.49	46.42
263.707	75.09
263.923	34.13
264.139	-25.26
264.355	5.46
264.571	95.57
264.787	-51.88
265.004	19.8
265.22	-41.64
265.436	-15.02
265.652	15.7
265.868	-37.55
266.084	-60.07
266.3	13.65
266.516	62.8
266.732	-2.73
266.948	44.37
267.164	-0.68
267.38	34.13
267.596	159.06
267.812	13.65
268.028	64.85
268.244	-10.92
268.46	25.94
268.676	25.94
268.892	42.32
269.108	17.75
269.324	25.94
269.54	-6.83
269.756	64.85
269.972	-4.78
270.188	-55.98
270.403	38.23
270.619	36.18
270.835	68.95
271.051	21.85
271.267	-17.07
271.483	-6.83
271.698	27.99
271.914	21.85
272.13	-12.97
272.346	38.23
272.562	-0.68
272.777	50.52
272.993	11.61
273.209	46.42
273.425	46.42
273.64	71
273.856	75.09
274.072	34.13
274.287	9.56
274.503	77.14
274.719	-15.02
274.934	89.43
275.15	32.08
275.366	19.8
275.581	-4.78
275.797	62.8
276.012	124.24
276.228	91.48
276.444	-90.79
276.659	32.08
276.875	9.56
277.09	23.89
277.306	44.37
277.521	66.9
277.737	1.37
277.952	25.94
278.168	-23.21
278.383	132.44
278.599	40.28
278.814	-2.73
279.03	9.56
279.245	25.94
279.461	30.04
279.676	56.66
279.892	9.56
280.107	9.56
280.322	-45.74
280.538	21.85
280.753	-35.5
280.969	50.52
281.184	25.94
281.399	21.85
281.615	19.8
281.83	34.13
282.045	52.56
282.26	71
282.476	73.04
282.691	1.37
282.906	13.65
283.122	17.75
283.337	1.37
283.552	19.8
283.767	7.51
283.983	17.75
284.198	97.62
284.413	-10.92
284.628	11.61
284.843	40.28
285.058	17.75
285.274	75.09
285.489	-23.21
285.704	15.7
285.919	5.46
286.134	36.18
286.349	17.75
286.564	13.65
286.779	32.08
286.995	42.32
287.21	-31.4
287.425	52.56
287.64	89.43
287.855	97.62
288.07	-2.73
288.285	42.32
288.5	38.23
288.715	81.24
288.93	-27.31
289.145	1.37
289.36	58.71
289.575	58.71
289.79	111.96
290.004	7.51
290.219	58.71
290.434	27.99
290.649	9.56
290.864	-27.31
291.079	50.52
291.294	40.28
291.509	34.13
291.724	50.52
291.938	34.13
292.153	54.61
292.368	-8.87
292.583	21.85
292.798	42.32
293.012	58.71
293.227	32.08
293.442	89.43
293.657	34.13
293.871	68.95
294.086	62.8
294.301	103.76
294.516	71
294.73	21.85
294.945	32.08
295.16	56.66
295.374	116.05
295.589	58.71
295.804	13.65
296.018	23.89
296.233	9.56
296.447	54.61
296.662	21.85
296.877	3.41
297.091	23.89
297.306	9.56
297.52	3.41
297.735	-2.73
297.949	73.04
298.164	38.23
298.378	13.65
298.593	50.52
298.807	40.28
299.022	66.9
299.236	58.71
299.451	62.8
299.665	-27.31
299.88	58.71
300.094	-15.02
300.309	19.8
300.523	1.37
300.737	15.7
300.952	-33.45
301.166	50.52
301.381	48.47
301.595	23.89
301.809	48.47
302.024	40.28
302.238	-15.02
302.452	54.61
302.667	-15.02
302.881	25.94
303.095	13.65
303.309	-27.31
303.524	-29.35
303.738	54.61
303.952	58.71
304.166	25.94
304.381	-12.97
304.595	15.7
304.809	-2.73
305.023	83.28
305.237	42.32
305.452	-17.07
305.666	95.57
305.88	-2.73
306.094	60.76
306.308	48.47
306.522	40.28
306.736	25.94
306.95	11.61
307.164	66.9
307.379	71
307.593	54.61
307.807	66.9
308.021	27.99
308.235	46.42
308.449	-105.13
308.663	-33.45
308.877	103.76
309.091	25.94
309.305	23.89
309.519	15.7
309.733	152.91
309.947	-94.89
310.161	48.47
310.374	7.51
310.588	83.28
310.802	-0.68
311.016	7.51
311.23	81.24
311.444	27.99
311.658	27.99
311.872	50.52
312.085	-8.87
312.299	89.43
312.513	27.99
312.727	15.7
312.941	7.51
313.154	56.66
313.368	50.52
313.582	27.99
313.796	36.18
314.009	-19.11
314.223	111.96
314.437	-25.26
314.651	17.75
314.864	50.52
315.078	62.8
315.292	30.04
315.505	58.71
315.719	60.76
315.933	97.62
316.146	95.57
316.36	36.18
316.573	93.52
316.787	66.9
317.001	54.61
317.214	93.52
317.428	58.71
317.641	60.76
317.855	85.33
318.068	-6.83
318.282	85.33
318.495	126.29
318.709	62.8
318.922	50.52
319.136	44.37
319.349	83.28
319.563	46.42
319.776	48.47
319.99	-12.97
320.203	-10.92
320.417	46.42
320.63	50.52
320.843	122.2
321.057	38.23
321.27	21.85
321.483	56.66
321.697	1.37
321.91	32.08
322.124	99.67
322.337	-10.92
322.55	25.94
322.763	56.66
322.977	11.61
323.19	7.51
323.403	66.9
323.617	25.94
323.83	103.76
324.043	5.46
324.256	38.23
324.469	21.85
324.683	21.85
324.896	23.89
325.109	21.85
325.322	15.7
325.535	95.57
325.748	71
325.962	73.04
326.175	118.1
326.388	21.85
326.601	75.09
326.814	-23.21
327.027	-0.68
327.24	1.37
327.453	-53.93
327.666	9.56
327.879	83.28
328.092	99.67
328.305	-0.68
328.518	38.23
328.731	62.8
328.944	118.1
329.157	56.66
329.37	27.99
329.583	48.47
329.796	7.51
330.009	50.52
330.222	58.71
330.435	54.61
330.648	23.89
330.861	30.04
331.073	42.32
331.286	48.47
331.499	56.66
331.712	42.32
331.925	25.94
332.138	21.85
332.35	130.39
332.563	25.94
332.776	73.04
332.989	9.56
333.202	7.51
333.414	89.43
333.627	60.76
333.84	1.37
334.053	1.37
334.265	15.7
334.478	103.76
334.691	1.37
334.903	60.76
335.116	62.8
335.329	54.61
335.541	34.13
335.754	50.52
335.966	-31.4
336.179	91.48
336.392	58.71
336.604	50.52
336.817	64.85
337.029	9.56
337.242	15.7
337.454	34.13
337.667	42.32
337.88	44.37
338.092	97.62
338.305	81.24
338.517	42.32
338.729	17.75
338.942	48.47
339.154	-2.73
339.367	32.08
339.579	9.56
339.792	50.52
340.004	66.9
340.217	97.62
340.429	116.05
340.641	40.28
340.854	48.47
341.066	-0.68
341.278	52.56
341.491	62.8
341.703	27.99
341.915	105.81
342.128	75.09
342.34	9.56
342.552	81.24
342.764	91.48
342.977	83.28
343.189	-51.88
343.401	85.33
343.613	48.47
343.826	81.24
344.038	50.52
344.25	101.72
344.462	32.08
344.674	-33.45
344.886	9.56
345.099	-43.69
345.311	40.28
345.523	50.52
345.735	-0.68
345.947	91.48
346.159	9.56
346.371	-21.16
346.583	15.7
346.795	87.38
347.007	148.82
347.219	87.38
347.431	9.56
347.643	46.42
347.855	11.61
348.067	75.09
348.279	64.85
348.491	60.76
348.703	81.24
348.915	58.71
349.127	7.51
349.339	95.57
349.551	103.76
349.763	46.42
349.975	54.61
350.187	91.48
350.399	91.48
350.61	30.04
350.822	17.75
351.034	99.67
351.246	42.32
351.458	-6.83
351.669	58.71
351.881	120.15
352.093	13.65
352.305	85.33
352.517	13.65
352.728	142.68
352.94	130.39
353.152	83.28
353.363	-39.59
353.575	58.71
353.787	79.19
353.999	107.86
354.21	103.76
354.422	-41.64
354.633	54.61
354.845	54.61
355.057	60.76
355.268	40.28
355.48	111.96
355.692	-15.02
355.903	48.47
356.115	23.89
356.326	52.56
356.538	163.15
356.749	-58.03
356.961	101.72
357.172	27.99
357.384	34.13
357.595	103.76
357.807	54.61
358.018	36.18
358.23	54.61
358.441	132.44
358.653	97.62
358.864	48.47
359.075	66.9
359.287	62.8
359.498	19.8
359.709	52.56
359.921	54.61
360.132	-10.92
360.344	60.76
360.555	7.51
360.766	38.23
360.977	99.67
361.189	118.1
361.4	-8.87
361.611	68.95
361.823	91.48
362.034	79.19
362.245	21.85
362.456	-2.73
362.667	34.13
362.879	73.04
363.09	9.56
363.301	25.94
363.512	13.65
363.723	56.66
363.935	30.04
364.146	107.86
364.357	15.7
364.568	32.08
364.779	38.23
364.99	-29.35
365.201	40.28
365.412	52.56
365.623	5.46
365.834	58.71
366.045	36.18
366.256	77.14
366.467	87.38
366.678	19.8
366.889	3.41
367.1	11.61
367.311	120.15
367.522	75.09
367.733	42.32
367.944	71
368.155	23.89
368.366	40.28
368.577	23.89
368.788	87.38
368.999	-39.59
369.209	34.13
369.42	101.72
369.631	128.34
369.842	34.13
370.053	19.8
370.264	52.56
370.474	38.23
370.685	5.46
370.896	23.89
371.107	17.75
371.317	44.37
371.528	105.81
371.739	107.86
371.95	56.66
372.16	73.04
372.371	9.56
372.582	71
372.792	-10.92
373.003	42.32
373.214	-17.07
373.424	27.99
373.635	73.04
373.846	87.38
374.056	48.47
374.267	126.29
374.477	71
374.688	17.75
374.898	56.66
375.109	17.75
375.319	48.47
375.53	64.85
375.74	73.04
375.951	46.42
376.161	54.61
376.372	99.67
376.582	15.7
376.793	17.75
377.003	52.56
377.214	25.94
377.424	34.13
377.635	58.71
377.845	23.89
378.055	11.61
378.266	-82.6
378.476	32.08
378.686	89.43
378.897	15.7
379.107	93.52
379.317	79.19
379.528	32.08
379.738	116.05
379.948	-8.87
380.158	93.52
380.369	52.56
380.579	140.63
380.789	30.04
380.999	79.19
381.21	48.47
381.42	148.82
381.63	71
381.84	44.37
382.05	146.77
382.261	85.33
382.471	77.14
382.681	109.91
382.891	48.47
383.101	-19.11
383.311	-2.73
383.521	79.19
383.731	56.66
383.941	81.24
384.151	75.09
384.361	44.37
384.571	81.24
384.781	62.8
384.991	81.24
385.201	103.76
385.411	75.09
385.621	116.05
385.831	71
386.041	79.19
386.251	19.8
386.461	46.42
386.671	91.48
386.881	48.47
387.091	34.13
387.301	83.28
387.511	56.66
387.72	71
387.93	42.32
388.14	48.47
388.35	11.61
388.56	124.24
388.769	75.09
388.979	58.71
389.189	42.32
389.399	36.18
389.609	97.62
389.818	107.86
390.028	50.52
390.238	9.56
390.447	48.47
390.657	66.9
390.867	68.95
391.076	-15.02
391.286	124.24
391.496	130.39
391.705	91.48
391.915	150.87
392.125	46.42
392.334	48.47
392.544	150.87
392.753	25.94
392.963	-19.11
393.172	91.48
393.382	9.56
393.591	120.15
393.801	66.9
394.01	99.67
394.22	36.18
394.429	97.62
394.639	101.72
394.848	124.24
395.058	101.72
395.267	83.28
395.477	120.15
395.686	177.49
395.895	54.61
396.105	130.39
396.314	126.29
396.524	58.71
396.733	87.38
396.942	120.15
397.152	42.32
397.361	134.48
397.57	79.19
397.78	77.14
397.989	128.34
398.198	202.07
398.407	81.24
398.617	103.76
398.826	157.01
399.035	73.04
399.244	152.91
399.453	122.2
399.663	54.61
399.872	64.85
400.081	118.1
400.29	122.2
400.499	128.34
400.708	87.38
400.917	77.14
401.127	169.3
401.336	122.2
401.545	204.11
401.754	169.3
401.963	75.09
402.172	128.34
402.381	58.71
402.59	97.62
402.799	187.73
403.008	136.53
403.217	216.4
403.426	83.28
403.635	185.68
403.844	226.64
404.053	175.44
404.262	54.61
404.471	138.58
404.68	212.31
404.888	255.31
405.097	167.25
405.306	136.53
405.515	275.79
405.724	226.64
405.933	187.73
406.142	243.03
406.35	118.1
406.559	247.12
406.768	202.07
406.977	277.84
407.185	230.74
407.394	206.16
407.603	175.44
407.812	195.92
408.02	230.74
408.229	226.64
408.438	288.08
408.646	288.08
408.855	267.6
409.064	341.33
409.272	286.03
409.481	402.77
409.69	279.89
409.898	320.85
410.107	267.6
410.315	308.56
410.524	312.66
410.733	386.38
410.941	331.09
411.15	468.3
411.358	513.36
411.567	490.83
411.775	486.73
411.984	427.34
412.192	531.79
412.401	523.6
412.609	525.65
412.818	564.56
413.026	585.04
413.234	597.32
413.443	523.6
413.651	648.52
413.86	697.67
414.068	742.73
414.276	628.04
414.485	650.57
414.693	728.39
414.901	845.13
415.11	898.38
415.318	793.93
415.526	886.09
415.734	925
415.943	916.81
416.151	935.24
416.359	959.81
416.567	1064.26
416.776	1017.16
416.984	1086.79
417.192	1217.86
417.4	1137.99
417.608	1172.8
417.817	1221.95
418.025	1297.73
418.233	1322.31
418.441	1264.96
418.649	1381.7
418.857	1486.14
419.065	1486.14
419.273	1525.05
419.481	1621.31
419.689	1645.88
419.897	1717.56
420.105	1783.1
420.313	1854.78
420.521	1830.2
420.729	1942.84
420.937	1975.61
421.145	1934.65
421.353	2149.68
421.561	2223.41
421.769	2295.09
421.977	2409.78
422.185	2358.58
422.393	2432.3
422.601	2575.66
422.809	2710.83
423.017	2698.54
423.224	2776.36
423.432	2811.18
423.64	2909.48
423.848	3245.35
424.056	3095.85
424.263	3263.78
424.471	3405.09
424.679	3331.36
424.887	3675.42
425.094	3716.38
425.302	3611.93
425.51	3734.81
425.718	4031.77
425.925	3884.31
426.133	4052.25
426.341	4496.66
426.548	4490.51
426.756	4515.09
426.964	4627.73
427.171	4783.37
427.379	5129.48
427.586	5025.03
427.794	5235.97
428.001	5430.53
428.209	5768.45
428.417	5657.85
428.624	6016.25
428.832	6104.31
429.039	6065.4
429.247	6040.83
429.454	6362.36
429.662	7068.91
429.869	6450.42
430.076	7111.91
430.284	6913.26
430.491	7234.79
430.699	7531.75
430.906	7513.31
431.114	7677.15
431.321	7849.18
431.528	8035.55
431.736	8645.84
431.943	8955.08
432.15	8494.29
432.358	8955.08
432.565	9241.8
432.772	9284.81
432.979	9764.03
433.187	9790.66
433.394	9807.04
433.601	10630.32
433.808	10597.56
434.016	10665.14
434.223	10978.48
434.43	11625.64
434.637	11361.45
434.844	12123.29
435.052	12473.49
435.259	12432.54
435.466	12493.97
435.673	12367
435.88	13071.5
436.087	13720.71
436.294	13702.28
436.501	13687.94
436.708	13968.51
436.915	13915.26
437.122	14740.6
437.329	14670.97
437.537	15135.85
437.743	15520.87
437.95	15336.56
438.157	16219.23
438.364	16630.87
438.571	16790.61
438.778	16788.57
438.985	18306.11
439.192	17617.99
439.399	18340.93
439.606	17767.49
439.813	18773.05
440.02	19549.23
440.227	19538.99
440.433	19145.78
440.64	19936.29
440.847	19817.51
441.054	20259.87
441.261	21885.96
441.467	21234.71
441.674	21914.63
441.881	22647.8
442.088	22635.52
442.294	22258.69
442.501	22694.91
442.708	23510
442.914	24417.25
443.121	25275.35
443.328	24396.77
443.534	26332.1
443.741	25719.76
443.948	25271.25
444.154	27143.1
444.361	26911.67
444.568	27190.2
444.774	27347.89
444.981	27311.03
445.187	28240.81
445.394	29252.5
445.6	28973.98
445.807	31763.31
446.013	30163.85
446.22	30757.76
446.426	32392.04
446.633	32422.76
446.839	33411.93
447.046	32154.47
447.252	33676.12
447.459	33917.78
447.665	33815.38
447.871	35103.55
448.078	36336.43
448.284	35083.07
448.491	35695.41
448.697	37012.26
448.903	37530.39
449.11	37718.81
449.316	36832.04
449.522	38107.92
449.728	38286.09
449.935	38902.53
450.141	38791.94
450.347	39844.6
450.553	38703.88
450.76	38781.7
450.966	40205.04
451.172	39783.16
451.378	40483.56
451.584	40057.59
451.791	40966.88
451.997	40917.73
452.203	41548.51
452.409	41413.34
452.615	40985.32
452.821	39387.9
453.027	39209.73
453.233	41108.19
453.44	39187.2
453.646	39738.1
453.852	40053.49
454.058	40712.94
454.264	39332.61
454.47	39676.66
454.676	39097.09
454.882	40520.43
455.088	36991.78
455.294	37446.43
455.5	37825.3
455.705	38101.78
455.911	36610.85
456.117	35912.5
456.323	35685.17
456.529	33606.48
456.735	35005.25
456.941	34200.4
457.147	33651.54
457.352	32361.32
457.558	31972.21
457.764	32566.12
457.97	31650.67
458.176	30835.58
458.381	30843.77
458.587	29612.95
458.793	29330.33
458.999	28068.78
459.204	29813.65
459.41	29127.58
459.616	27061.18
459.821	27317.17
460.027	27114.42
460.233	26299.33
460.438	25070.55
460.644	25619.41
460.85	24312.8
461.055	24175.59
461.261	23589.87
461.466	22246.4
461.672	21423.12
461.878	23149.56
462.083	21568.52
462.289	21169.17
462.494	21126.16
462.7	19842.09
462.905	19577.9
463.111	20134.95
463.316	20489.24
463.522	19723.3
463.727	19983.4
463.932	19563.56
464.138	19760.17
464.343	19455.02
464.549	18967.6
464.754	19801.13
464.959	19635.24
465.165	19354.67
465.37	18934.84
465.575	18148.42
465.781	18725.94
465.986	18795.57
466.191	18312.25
466.397	17994.82
466.602	17185.87
466.807	17634.38
467.012	17810.5
467.218	17542.22
467.423	17419.34
467.628	17646.66
467.833	18351.17
468.038	17572.94
468.244	17028.18
