Data from USB4F104151__64__10-23-59-053.txt Node

Date: Wed Mar 12 10:23:59 EDT 2025
User: louis
Spectrometer: USB4F10415
Trigger mode: 4
Integration Time (sec): 3.000000E-2
Scans to average: 1
Electric dark correction enabled: true
Nonlinearity correction enabled: false
Boxcar width: 0
XAxis mode: Wavelengths
Number of Pixels in Spectrum: 3648
>>>>>Begin Spectral Data<<<<<
178.204	-66.9
178.424	-66.9
178.644	-66.9
178.864	-130.39
179.084	-136.53
179.304	-19.8
179.524	-30.04
179.744	96.94
179.964	33.45
180.184	41.64
180.404	68.27
180.624	-48.47
180.844	-54.61
181.064	-38.23
181.283	-30.04
181.503	21.16
181.723	-40.28
181.943	10.92
182.163	115.37
182.383	74.41
182.602	47.79
182.822	23.21
183.042	-1.37
183.262	58.03
183.482	25.26
183.701	64.17
183.921	-7.51
184.141	45.74
184.361	21.16
184.58	-48.47
184.8	109.22
185.02	10.92
185.239	-7.51
185.459	80.55
185.679	10.92
185.898	35.5
186.118	64.17
186.338	80.55
186.557	96.94
186.777	33.45
186.997	-11.61
187.216	33.45
187.436	21.16
187.655	68.27
187.875	51.88
188.095	43.69
188.314	72.36
188.534	90.79
188.753	2.73
188.973	4.78
189.192	107.18
189.412	10.92
189.631	43.69
189.851	23.21
190.07	80.55
190.29	6.83
190.509	15.02
190.729	64.17
190.948	19.11
191.168	148.14
191.387	76.46
191.607	-17.75
191.826	8.87
192.045	41.64
192.265	107.18
192.484	96.94
192.704	55.98
192.923	-73.04
193.142	21.16
193.362	39.59
193.581	127.66
193.8	17.07
194.02	55.98
194.239	-3.41
194.458	96.94
194.678	-13.65
194.897	111.27
195.116	98.99
195.335	-21.85
195.555	39.59
195.774	15.02
195.993	55.98
196.212	6.83
196.432	-54.61
196.651	-11.61
196.87	64.17
197.089	109.22
197.308	58.03
197.528	72.36
197.747	2.73
197.966	-3.41
198.185	64.17
198.404	68.27
198.623	70.31
198.842	47.79
199.062	101.03
199.281	74.41
199.5	-7.51
199.719	68.27
199.938	115.37
200.157	62.12
200.376	43.69
200.595	60.07
200.814	68.27
201.033	70.31
201.252	15.02
201.471	19.11
201.69	60.07
201.909	43.69
202.128	41.64
202.347	25.26
202.566	72.36
202.785	51.88
203.004	35.5
203.223	35.5
203.442	131.75
203.661	43.69
203.879	19.11
204.098	150.18
204.317	45.74
204.536	141.99
204.755	39.59
204.974	117.42
205.193	82.6
205.411	94.89
205.63	0.68
205.849	78.51
206.068	-17.75
206.287	53.93
206.505	45.74
206.724	96.94
206.943	47.79
207.162	35.5
207.381	72.36
207.599	88.75
207.818	-1.37
208.037	60.07
208.255	53.93
208.474	49.83
208.693	70.31
208.911	80.55
209.13	58.03
209.349	117.42
209.567	74.41
209.786	10.92
210.005	37.55
210.223	53.93
210.442	49.83
210.661	84.65
210.879	55.98
211.098	21.16
211.316	58.03
211.535	-42.32
211.753	33.45
211.972	68.27
212.191	117.42
212.409	55.98
212.628	51.88
212.846	27.31
213.065	51.88
213.283	10.92
213.502	60.07
213.72	-3.41
213.938	82.6
214.157	84.65
214.375	68.27
214.594	51.88
214.812	27.31
215.031	27.31
215.249	-1.37
215.467	68.27
215.686	-38.23
215.904	58.03
216.122	60.07
216.341	37.55
216.559	68.27
216.778	27.31
216.996	53.93
217.214	64.17
217.432	-1.37
217.651	33.45
217.869	12.97
218.087	96.94
218.306	31.4
218.524	84.65
218.742	-19.8
218.96	53.93
219.179	43.69
219.397	119.46
219.615	45.74
219.833	31.4
220.051	43.69
220.27	88.75
220.488	29.35
220.706	39.59
220.924	2.73
221.142	43.69
221.36	47.79
221.578	94.89
221.796	101.03
222.015	146.09
222.233	88.75
222.451	76.46
222.669	53.93
222.887	88.75
223.105	-40.28
223.323	-25.94
223.541	58.03
223.759	39.59
223.977	109.22
224.195	80.55
224.413	31.4
224.631	55.98
224.849	49.83
225.067	-11.61
225.285	29.35
225.503	47.79
225.721	31.4
225.939	29.35
226.157	51.88
226.375	111.27
226.592	-13.65
226.81	62.12
227.028	58.03
227.246	150.18
227.464	-3.41
227.682	160.42
227.9	51.88
228.117	109.22
228.335	-11.61
228.553	68.27
228.771	55.98
228.989	51.88
229.206	17.07
229.424	29.35
229.642	35.5
229.86	31.4
230.077	21.16
230.295	37.55
230.513	47.79
230.731	82.6
230.948	84.65
231.166	8.87
231.384	-27.99
231.601	21.16
231.819	109.22
232.037	0.68
232.254	2.73
232.472	49.83
232.689	27.31
232.907	55.98
233.125	68.27
233.342	8.87
233.56	66.22
233.777	21.16
233.995	12.97
234.213	129.7
234.43	17.07
234.648	66.22
234.865	84.65
235.083	101.03
235.3	27.31
235.518	72.36
235.735	76.46
235.953	172.71
236.17	-38.23
236.388	84.65
236.605	62.12
236.822	37.55
237.04	37.55
237.257	-54.61
237.475	10.92
237.692	31.4
237.909	113.32
238.127	78.51
238.344	33.45
238.562	47.79
238.779	-34.13
238.996	10.92
239.214	101.03
239.431	72.36
239.648	27.31
239.865	41.64
240.083	82.6
240.3	51.88
240.517	-9.56
240.735	19.11
240.952	10.92
241.169	41.64
241.386	6.83
241.603	19.11
241.821	17.07
242.038	115.37
242.255	33.45
242.472	15.02
242.689	27.31
242.907	35.5
243.124	31.4
243.341	29.35
243.558	92.84
243.775	-3.41
243.992	-1.37
244.209	82.6
244.426	125.61
244.643	92.84
244.86	19.11
245.078	51.88
245.295	39.59
245.512	15.02
245.729	-36.18
245.946	37.55
246.163	17.07
246.38	82.6
246.597	49.83
246.814	129.7
247.031	45.74
247.248	113.32
247.464	31.4
247.681	31.4
247.898	70.31
248.115	117.42
248.332	86.7
248.549	86.7
248.766	41.64
248.983	23.21
249.2	92.84
249.417	72.36
249.633	10.92
249.85	127.66
250.067	76.46
250.284	-13.65
250.501	43.69
250.717	70.31
250.934	84.65
251.151	66.22
251.368	-5.46
251.585	74.41
251.801	35.5
252.018	66.22
252.235	41.64
252.451	41.64
252.668	-23.89
252.885	-5.46
253.102	25.26
253.318	33.45
253.535	27.31
253.752	-13.65
253.968	-3.41
254.185	-19.8
254.401	66.22
254.618	86.7
254.835	-1.37
255.051	96.94
255.268	98.99
255.484	55.98
255.701	2.73
255.917	39.59
256.134	-5.46
256.351	49.83
256.567	21.16
256.784	60.07
257	31.4
257.217	58.03
257.433	-38.23
257.65	0.68
257.866	55.98
258.082	-13.65
258.299	19.11
258.515	98.99
258.732	113.32
258.948	55.98
259.165	74.41
259.381	107.18
259.597	68.27
259.814	72.36
260.03	-3.41
260.246	21.16
260.463	103.08
260.679	39.59
260.895	53.93
261.112	43.69
261.328	4.78
261.544	8.87
261.761	109.22
261.977	25.26
262.193	15.02
262.409	6.83
262.626	8.87
262.842	66.22
263.058	21.16
263.274	23.21
263.49	43.69
263.707	58.03
263.923	-11.61
264.139	37.55
264.355	4.78
264.571	127.66
264.787	15.02
265.004	148.14
265.22	115.37
265.436	76.46
265.652	15.02
265.868	49.83
266.084	72.36
266.3	64.17
266.516	-1.37
266.732	17.07
266.948	-7.51
267.164	76.46
267.38	64.17
267.596	12.97
267.812	92.84
268.028	96.94
268.244	19.11
268.46	31.4
268.676	80.55
268.892	66.22
269.108	39.59
269.324	53.93
269.54	68.27
269.756	53.93
269.972	43.69
270.188	103.08
270.403	19.11
270.619	29.35
270.835	25.26
271.051	6.83
271.267	39.59
271.483	39.59
271.698	55.98
271.914	92.84
272.13	55.98
272.346	45.74
272.562	27.31
272.777	60.07
272.993	21.16
273.209	62.12
273.425	-1.37
273.64	33.45
273.856	39.59
274.072	8.87
274.287	35.5
274.503	96.94
274.719	90.79
274.934	37.55
275.15	6.83
275.366	92.84
275.581	8.87
275.797	-30.04
276.012	23.21
276.228	60.07
276.444	-7.51
276.659	78.51
276.875	43.69
277.09	68.27
277.306	64.17
277.521	103.08
277.737	60.07
277.952	37.55
278.168	66.22
278.383	62.12
278.599	66.22
278.814	51.88
279.03	23.21
279.245	117.42
279.461	-13.65
279.676	107.18
279.892	4.78
280.107	-21.85
280.322	45.74
280.538	19.11
280.753	86.7
280.969	31.4
281.184	-5.46
281.399	111.27
281.615	72.36
281.83	101.03
282.045	19.11
282.26	19.11
282.476	53.93
282.691	119.46
282.906	84.65
283.122	55.98
283.337	53.93
283.552	60.07
283.767	29.35
283.983	-9.56
284.198	68.27
284.413	15.02
284.628	47.79
284.843	49.83
285.058	68.27
285.274	55.98
285.489	64.17
285.704	98.99
285.919	84.65
286.134	23.21
286.349	66.22
286.564	15.02
286.779	60.07
286.995	51.88
287.21	10.92
287.425	-17.75
287.64	41.64
287.855	41.64
288.07	41.64
288.285	49.83
288.5	64.17
288.715	96.94
288.93	60.07
289.145	92.84
289.36	29.35
289.575	10.92
289.79	74.41
290.004	39.59
290.219	90.79
290.434	53.93
290.649	64.17
290.864	78.51
291.079	68.27
291.294	51.88
291.509	17.07
291.724	25.26
291.938	74.41
292.153	49.83
292.368	96.94
292.583	37.55
292.798	92.84
293.012	-23.89
293.227	92.84
293.442	-11.61
293.657	96.94
293.871	121.51
294.086	10.92
294.301	133.8
294.516	25.26
294.73	86.7
294.945	74.41
295.16	-54.61
295.374	74.41
295.589	27.31
295.804	90.79
296.018	6.83
296.233	68.27
296.447	70.31
296.662	33.45
296.877	60.07
297.091	29.35
297.306	58.03
297.52	27.31
297.735	51.88
297.949	72.36
298.164	8.87
298.378	23.21
298.593	68.27
298.807	25.26
299.022	41.64
299.236	53.93
299.451	58.03
299.665	43.69
299.88	51.88
300.094	23.21
300.309	121.51
300.523	53.93
300.737	82.6
300.952	98.99
301.166	88.75
301.381	25.26
301.595	-7.51
301.809	25.26
302.024	88.75
302.238	10.92
302.452	162.47
302.667	25.26
302.881	154.28
303.095	94.89
303.309	96.94
303.524	94.89
303.738	51.88
303.952	37.55
304.166	43.69
304.381	-42.32
304.595	-7.51
304.809	27.31
305.023	111.27
305.237	10.92
305.452	74.41
305.666	49.83
305.88	51.88
306.094	53.93
306.308	4.78
306.522	41.64
306.736	76.46
306.95	90.79
307.164	62.12
307.379	47.79
307.593	92.84
307.807	-1.37
308.021	29.35
308.235	88.75
308.449	4.78
308.663	53.93
308.877	70.31
309.091	68.27
309.305	178.86
309.519	27.31
309.733	76.46
309.947	15.02
310.161	94.89
310.374	41.64
310.588	70.31
310.802	55.98
311.016	47.79
311.23	92.84
311.444	41.64
311.658	53.93
311.872	33.45
312.085	43.69
312.299	76.46
312.513	25.26
312.727	21.16
312.941	35.5
313.154	88.75
313.368	6.83
313.582	31.4
313.796	41.64
314.009	19.11
314.223	74.41
314.437	41.64
314.651	113.32
314.864	68.27
315.078	47.79
315.292	47.79
315.505	-3.41
315.719	88.75
315.933	64.17
316.146	55.98
316.36	27.31
316.573	64.17
316.787	45.74
317.001	29.35
317.214	60.07
317.428	51.88
317.641	39.59
317.855	23.21
318.068	94.89
318.282	98.99
318.495	49.83
318.709	127.66
318.922	-21.85
319.136	101.03
319.349	72.36
319.563	19.11
319.776	29.35
319.99	31.4
320.203	92.84
320.417	31.4
320.63	31.4
320.843	103.08
321.057	74.41
321.27	-7.51
321.483	41.64
321.697	41.64
321.91	31.4
322.124	78.51
322.337	33.45
322.55	23.21
322.763	60.07
322.977	84.65
323.19	76.46
323.403	64.17
323.617	51.88
323.83	2.73
324.043	51.88
324.256	78.51
324.469	92.84
324.683	23.21
324.896	51.88
325.109	31.4
325.322	0.68
325.535	101.03
325.748	80.55
325.962	17.07
326.175	21.16
326.388	17.07
326.601	39.59
326.814	19.11
327.027	17.07
327.24	33.45
327.453	88.75
327.666	123.56
327.879	39.59
328.092	92.84
328.305	37.55
328.518	78.51
328.731	60.07
328.944	96.94
329.157	39.59
329.37	8.87
329.583	101.03
329.796	60.07
330.009	17.07
330.222	43.69
330.435	68.27
330.648	27.31
330.861	-38.23
331.073	105.13
331.286	68.27
331.499	-32.08
331.712	23.21
331.925	84.65
332.138	84.65
332.35	43.69
332.563	43.69
332.776	119.46
332.989	88.75
333.202	23.21
333.414	47.79
333.627	66.22
333.84	10.92
334.053	74.41
334.265	90.79
334.478	49.83
334.691	41.64
334.903	80.55
335.116	78.51
335.329	19.11
335.541	49.83
335.754	78.51
335.966	4.78
336.179	53.93
336.392	58.03
336.604	-7.51
336.817	127.66
337.029	31.4
337.242	17.07
337.454	62.12
337.667	86.7
337.88	105.13
338.092	53.93
338.305	31.4
338.517	17.07
338.729	105.13
338.942	123.56
339.154	43.69
339.367	-23.89
339.579	115.37
339.792	6.83
340.004	154.28
340.217	-3.41
340.429	90.79
340.641	-58.71
340.854	33.45
341.066	21.16
341.278	64.17
341.491	86.7
341.703	-21.85
341.915	96.94
342.128	90.79
342.34	35.5
342.552	70.31
342.764	29.35
342.977	64.17
343.189	121.51
343.401	8.87
343.613	-15.7
343.826	80.55
344.038	-50.52
344.25	96.94
344.462	96.94
344.674	109.22
344.886	84.65
345.099	58.03
345.311	37.55
345.523	64.17
345.735	-5.46
345.947	58.03
346.159	51.88
346.371	21.16
346.583	82.6
346.795	55.98
347.007	78.51
347.219	58.03
347.431	19.11
347.643	101.03
347.855	68.27
348.067	82.6
348.279	21.16
348.491	60.07
348.703	19.11
348.915	101.03
349.127	45.74
349.339	15.02
349.551	76.46
349.763	82.6
349.975	35.5
350.187	98.99
350.399	60.07
350.61	111.27
350.822	109.22
351.034	111.27
351.246	49.83
351.458	131.75
351.669	144.04
351.881	6.83
352.093	92.84
352.305	84.65
352.517	115.37
352.728	133.8
352.94	43.69
353.152	148.14
353.363	27.31
353.575	62.12
353.787	72.36
353.999	101.03
354.21	58.03
354.422	94.89
354.633	49.83
354.845	58.03
355.057	84.65
355.268	123.56
355.48	137.9
355.692	4.78
355.903	4.78
356.115	53.93
356.326	47.79
356.538	113.32
356.749	150.18
356.961	113.32
357.172	33.45
357.384	60.07
357.595	103.08
357.807	49.83
358.018	43.69
358.23	98.99
358.441	164.52
358.653	103.08
358.864	45.74
359.075	31.4
359.287	64.17
359.498	166.57
359.709	64.17
359.921	88.75
360.132	96.94
360.344	0.68
360.555	47.79
360.766	101.03
360.977	68.27
361.189	98.99
361.4	53.93
361.611	107.18
361.823	33.45
362.034	84.65
362.245	45.74
362.456	43.69
362.667	66.22
362.879	39.59
363.09	98.99
363.301	74.41
363.512	27.31
363.723	60.07
363.935	107.18
364.146	103.08
364.357	-5.46
364.568	70.31
364.779	25.26
364.99	111.27
365.201	80.55
365.412	62.12
365.623	58.03
365.834	80.55
366.045	72.36
366.256	133.8
366.467	43.69
366.678	88.75
366.889	123.56
367.1	-5.46
367.311	35.5
367.522	43.69
367.733	41.64
367.944	152.23
368.155	6.83
368.366	60.07
368.577	88.75
368.788	107.18
368.999	25.26
369.209	90.79
369.42	137.9
369.631	109.22
369.842	84.65
370.053	86.7
370.264	80.55
370.474	33.45
370.685	84.65
370.896	51.88
371.107	94.89
371.317	80.55
371.528	109.22
371.739	4.78
371.95	66.22
372.16	109.22
372.371	25.26
372.582	39.59
372.792	29.35
373.003	94.89
373.214	43.69
373.424	117.42
373.635	-7.51
373.846	76.46
374.056	152.23
374.267	101.03
374.477	139.94
374.688	86.7
374.898	84.65
375.109	86.7
375.319	150.18
375.53	96.94
375.74	107.18
375.951	-19.8
376.161	80.55
376.372	137.9
376.582	72.36
376.793	146.09
377.003	64.17
377.214	60.07
377.424	47.79
377.635	113.32
377.845	15.02
378.055	101.03
378.266	98.99
378.476	96.94
378.686	137.9
378.897	90.79
379.107	53.93
379.317	68.27
379.528	98.99
379.738	107.18
379.948	17.07
380.158	90.79
380.369	31.4
380.579	58.03
380.789	49.83
380.999	94.89
381.21	60.07
381.42	121.51
381.63	117.42
381.84	125.61
382.05	35.5
382.261	72.36
382.471	49.83
382.681	43.69
382.891	164.52
383.101	37.55
383.311	39.59
383.521	113.32
383.731	43.69
383.941	66.22
384.151	139.94
384.361	92.84
384.571	27.31
384.781	58.03
384.991	109.22
385.201	62.12
385.411	101.03
385.621	43.69
385.831	62.12
386.041	55.98
386.251	96.94
386.461	133.8
386.671	70.31
386.881	53.93
387.091	64.17
387.301	60.07
387.511	66.22
387.72	72.36
387.93	139.94
388.14	76.46
388.35	135.85
388.56	78.51
388.769	96.94
388.979	68.27
389.189	72.36
389.399	51.88
389.609	101.03
389.818	133.8
390.028	141.99
390.238	131.75
390.447	27.31
390.657	74.41
390.867	47.79
391.076	62.12
391.286	144.04
391.496	162.47
391.705	58.03
391.915	125.61
392.125	164.52
392.334	135.85
392.544	58.03
392.753	88.75
392.963	127.66
393.172	121.51
393.382	115.37
393.591	133.8
393.801	121.51
394.01	96.94
394.22	193.19
394.429	98.99
394.639	101.03
394.848	103.08
395.058	172.71
395.267	109.22
395.477	125.61
395.686	109.22
395.895	174.76
396.105	162.47
396.314	137.9
396.524	139.94
396.733	58.03
396.942	172.71
397.152	33.45
397.361	144.04
397.57	94.89
397.78	84.65
397.989	174.76
398.198	178.86
398.407	101.03
398.617	146.09
398.826	139.94
399.035	98.99
399.244	137.9
399.453	141.99
399.663	101.03
399.872	135.85
400.081	117.42
400.29	125.61
400.499	62.12
400.708	109.22
400.917	119.46
401.127	111.27
401.336	92.84
401.545	223.91
401.754	82.6
401.963	170.66
402.172	201.38
402.381	10.92
402.59	101.03
402.799	154.28
403.008	133.8
403.217	105.13
403.426	178.86
403.635	166.57
403.844	133.8
404.053	133.8
404.262	113.32
404.471	244.39
404.68	182.95
404.888	230.06
405.097	146.09
405.306	131.75
405.515	123.56
405.724	146.09
405.933	201.38
406.142	287.4
406.35	262.82
406.559	238.25
406.768	191.14
406.977	178.86
407.185	195.24
407.394	174.76
407.603	133.8
407.812	219.82
408.02	279.21
408.229	297.64
408.438	244.39
408.646	195.24
408.855	215.72
409.064	295.59
409.272	295.59
409.481	371.36
409.69	309.93
409.898	316.07
410.107	430.76
410.315	373.41
410.524	361.13
410.733	352.93
410.941	359.08
411.15	430.76
411.358	457.38
411.567	434.85
411.775	412.32
411.984	510.63
412.192	477.86
412.401	463.52
412.609	510.63
412.818	527.01
413.026	524.96
413.234	516.77
413.443	520.87
413.651	584.35
413.86	653.98
414.068	645.79
414.276	682.66
414.485	658.08
414.693	604.83
414.901	694.94
415.11	756.38
415.318	715.42
415.526	791.2
415.734	746.14
415.943	762.53
416.151	856.73
416.359	791.2
416.567	899.74
416.776	883.36
416.984	881.31
417.192	987.8
417.4	991.9
417.608	1069.72
417.817	1090.2
418.025	1108.63
418.233	1157.78
418.441	1149.59
418.649	1268.38
418.857	1311.38
419.065	1292.95
419.273	1452.69
419.481	1333.91
419.689	1538.71
419.897	1514.13
420.105	1569.43
420.313	1534.61
420.521	1624.72
420.729	1665.68
420.937	1661.59
421.145	1837.71
421.353	1772.18
421.561	2013.84
421.769	1989.26
421.977	2060.94
422.185	2067.08
422.393	2261.64
422.601	2290.31
422.809	2302.6
423.017	2280.07
423.224	2523.78
423.432	2474.63
423.64	2564.74
423.848	2828.93
424.056	2726.53
424.263	2876.03
424.471	2873.98
424.679	2949.76
424.887	3119.74
425.094	3287.67
425.302	3121.79
425.51	3375.74
425.718	3404.41
425.925	3426.93
426.133	3572.34
426.341	3705.46
426.548	3990.13
426.756	3826.29
426.964	3973.74
427.171	4260.46
427.379	4307.56
427.586	4364.9
427.794	4491.88
428.001	4762.21
428.209	4960.86
428.417	4938.34
428.624	5175.9
428.832	5411.42
429.039	5143.13
429.247	5223
429.454	5636.69
429.662	6195.79
429.869	5687.89
430.076	6134.35
430.284	5622.36
430.491	6212.17
430.699	6457.93
430.906	6464.07
431.114	6593.09
431.321	6838.85
431.528	6941.25
431.736	7375.42
431.943	7727.67
432.15	7520.82
432.358	7365.18
432.565	8022.58
432.772	7885.36
432.979	8460.84
433.187	8700.45
433.394	8602.15
433.601	9146.91
433.808	9007.65
434.016	8911.39
434.223	9425.43
434.43	10140.18
434.637	9804.31
434.844	10435.08
435.052	10691.08
435.259	10590.73
435.466	10678.79
435.673	10459.66
435.88	11260.41
436.087	11864.57
436.294	12009.97
436.501	11536.89
436.708	11862.52
436.915	12265.97
437.122	12986.85
437.329	12675.56
437.537	13218.27
437.743	13179.36
437.95	13203.94
438.157	13887.96
438.364	14397.9
438.571	14293.46
438.778	14426.57
438.985	16052.66
439.192	15221.19
439.399	15491.52
439.606	15120.84
439.813	16495.02
440.02	17082.79
440.227	16935.34
440.433	16615.85
440.64	17424.8
440.847	16992.68
441.054	17504.67
441.261	18698.64
441.467	18522.51
441.674	18565.52
441.881	19204.49
442.088	19304.84
442.294	19057.03
442.501	19577.22
442.708	20101.5
442.914	20816.24
443.121	21565.79
443.328	21193.06
443.534	22694.22
443.741	21844.32
443.948	21817.69
444.154	23443.78
444.361	22993.23
444.568	23355.72
444.774	23255.37
444.981	23736.64
445.187	24299.83
445.394	25188.65
445.6	25016.62
445.807	27080.97
446.013	26046.75
446.22	26566.93
446.426	27576.58
446.633	27652.36
446.839	28469.5
447.046	27490.57
447.252	29073.65
447.459	28950.77
447.665	29065.46
447.871	30314.72
448.078	31340.75
448.284	30157.02
448.491	30771.41
448.697	31836.36
448.903	32360.64
449.11	32215.23
449.316	31992
449.522	32460.99
449.728	33259.7
449.935	33566.89
450.141	33542.31
450.347	34238.62
450.553	33245.36
450.76	33634.47
450.966	34920.6
451.172	34029.73
451.378	34723.99
451.584	34343.07
451.791	34922.65
451.997	35164.31
452.203	35600.52
452.409	35471.5
452.615	35233.94
452.821	33951.91
453.027	33599.66
453.233	35139.73
453.44	33972.39
453.646	34115.75
453.852	34373.79
454.058	34324.64
454.264	33423.53
454.47	34390.17
454.676	33702.06
454.882	34496.67
455.088	31707.33
455.294	31938.76
455.5	32368.83
455.705	32721.08
455.911	31793.35
456.117	30795.99
456.323	30505.18
456.529	28565.75
456.735	30560.47
456.941	29114.61
457.147	28950.77
457.352	28168.44
457.558	27660.55
457.764	27734.28
457.97	27136.27
458.176	26724.63
458.381	26300.7
458.587	25413.93
458.793	25233.71
458.999	24054.08
459.204	25540.9
459.41	24770.86
459.616	23519.56
459.821	23513.41
460.027	23370.05
460.233	22733.14
460.438	21739.87
460.644	21764.45
460.85	20877.68
461.055	20498.8
461.261	20658.54
461.466	19054.98
461.672	18518.42
461.878	19798.4
462.083	18508.18
462.289	18182.55
462.494	17959.32
462.7	17258.92
462.905	16769.45
463.111	17215.91
463.316	17101.22
463.522	16910.76
463.727	16869.8
463.932	16722.35
464.138	16767.4
464.343	16703.92
464.549	16421.3
464.754	16710.06
464.959	16746.92
465.165	16619.95
465.37	16054.71
465.575	15753.66
465.781	16048.57
465.986	16249.27
466.191	15649.21
466.397	15270.34
466.602	14545.36
466.807	15112.64
