Data from USB4F104151__232__10-30-25-830.txt Node

Date: Wed Mar 12 10:30:25 EDT 2025
User: louis
Spectrometer: USB4F10415
Trigger mode: 4
Integration Time (sec): 3.000000E-2
Scans to average: 1
Electric dark correction enabled: true
Nonlinearity correction enabled: false
Boxcar width: 0
XAxis mode: Wavelengths
Number of Pixels in Spectrum: 3648
>>>>>Begin Spectral Data<<<<<
178.204	-162.13
178.424	-162.13
178.644	-162.13
178.864	-133.46
179.084	-145.75
179.304	9.9
179.524	-31.06
179.744	7.85
179.964	42.67
180.184	-14.68
180.404	-37.2
180.624	-35.16
180.844	-8.53
181.064	54.95
181.283	-37.2
181.503	-12.63
181.723	61.1
181.943	-33.11
182.163	73.39
182.383	52.91
182.602	108.2
182.822	34.47
183.042	-10.58
183.262	-14.68
183.482	73.39
183.701	-12.63
183.921	-16.73
184.141	-94.55
184.361	34.47
184.58	-39.25
184.8	1.71
185.02	-55.64
185.239	20.14
185.459	28.33
185.679	65.19
185.898	5.8
186.118	40.62
186.338	28.33
186.557	50.86
186.777	9.9
186.997	50.86
187.216	-4.44
187.436	28.33
187.655	24.23
187.875	83.63
188.095	-2.39
188.314	-12.63
188.534	3.75
188.753	-102.74
188.973	73.39
189.192	30.38
189.412	24.23
189.631	59.05
189.851	44.71
190.07	38.57
190.29	-10.58
190.509	32.43
190.729	-31.06
190.948	-14.68
191.168	169.64
191.387	91.82
191.607	36.52
191.826	-6.49
192.045	-8.53
192.265	48.81
192.484	-35.16
192.704	85.67
192.923	26.28
193.142	44.71
193.362	28.33
193.581	-4.44
193.8	28.33
194.02	40.62
194.239	-8.53
194.458	-0.34
194.678	13.99
194.897	7.85
195.116	-47.44
195.335	-6.49
195.555	122.54
195.774	63.15
195.993	1.71
196.212	-22.87
196.432	28.33
196.651	18.09
196.87	-86.36
197.089	57
197.308	7.85
197.528	87.72
197.747	-12.63
197.966	28.33
198.185	-12.63
198.404	18.09
198.623	52.91
198.842	13.99
199.062	32.43
199.281	61.1
199.5	-39.25
199.719	-12.63
199.938	11.95
200.157	169.64
200.376	16.04
200.595	42.67
200.814	42.67
201.033	5.8
201.252	83.63
201.471	-0.34
201.69	59.05
201.909	30.38
202.128	-10.58
202.347	63.15
202.566	28.33
202.785	-22.87
203.004	-8.53
203.223	67.24
203.442	16.04
203.661	36.52
203.879	30.38
204.098	36.52
204.317	-16.73
204.536	69.29
204.755	-12.63
204.974	-0.34
205.193	7.85
205.411	108.2
205.63	-0.34
205.849	-0.34
206.068	-63.83
206.287	24.23
206.505	5.8
206.724	40.62
206.943	46.76
207.162	32.43
207.381	34.47
207.599	11.95
207.818	87.72
208.037	-53.59
208.255	28.33
208.474	-8.53
208.693	89.77
208.911	3.75
209.13	46.76
209.349	59.05
209.567	3.75
209.786	28.33
210.005	57
210.223	7.85
210.442	13.99
210.661	44.71
210.879	16.04
211.098	-49.49
211.316	-29.01
211.535	5.8
211.753	-16.73
211.972	100.01
212.191	-6.49
212.409	13.99
212.628	1.71
212.846	13.99
213.065	32.43
213.283	-0.34
213.502	-57.68
213.72	-8.53
213.938	13.99
214.157	-90.45
214.375	48.81
214.594	79.53
214.812	50.86
215.031	73.39
215.249	-0.34
215.467	-45.4
215.686	46.76
215.904	79.53
216.122	9.9
216.341	71.34
216.559	28.33
216.778	128.68
216.996	81.58
217.214	13.99
217.432	16.04
217.651	40.62
217.869	-37.2
218.087	1.71
218.306	24.23
218.524	-12.63
218.742	18.09
218.96	36.52
219.179	-51.54
219.397	9.9
219.615	122.54
219.833	28.33
220.051	-55.64
220.27	28.33
220.488	-4.44
220.706	-2.39
220.924	38.57
221.142	40.62
221.36	11.95
221.578	26.28
221.796	36.52
222.015	-26.96
222.233	-4.44
222.451	-4.44
222.669	-6.49
222.887	-31.06
223.105	16.04
223.323	-2.39
223.541	-16.73
223.759	32.43
223.977	-2.39
224.195	18.09
224.413	9.9
224.631	-37.2
224.849	57
225.067	93.87
225.285	34.47
225.503	40.62
225.721	61.1
225.939	48.81
226.157	69.29
226.375	44.71
226.592	-0.34
226.81	-22.87
227.028	87.72
227.246	11.95
227.464	-4.44
227.682	40.62
227.9	40.62
228.117	46.76
228.335	3.75
228.553	44.71
228.771	-22.87
228.989	13.99
229.206	38.57
229.424	16.04
229.642	13.99
229.86	34.47
230.077	-6.49
230.295	-24.92
230.513	16.04
230.731	59.05
230.948	24.23
231.166	44.71
231.384	11.95
231.601	44.71
231.819	95.91
232.037	-26.96
232.254	11.95
232.472	30.38
232.689	40.62
232.907	57
233.125	3.75
233.342	81.58
233.56	-10.58
233.777	-37.2
233.995	-8.53
234.213	36.52
234.43	108.2
234.648	75.43
234.865	-8.53
235.083	7.85
235.3	36.52
235.518	13.99
235.735	104.11
235.953	44.71
236.17	-0.34
236.388	-57.68
236.605	-33.11
236.822	3.75
237.04	61.1
237.257	-31.06
237.475	20.14
237.692	-4.44
237.909	-0.34
238.127	67.24
238.344	-14.68
238.562	-63.83
238.779	-72.02
238.996	-59.73
239.214	34.47
239.431	36.52
239.648	-0.34
239.865	44.71
240.083	81.58
240.3	-16.73
240.517	11.95
240.735	20.14
240.952	26.28
241.169	52.91
241.386	-18.77
241.603	3.75
241.821	-41.3
242.038	91.82
242.255	9.9
242.472	38.57
242.689	79.53
242.907	-49.49
243.124	18.09
243.341	46.76
243.558	61.1
243.775	22.19
243.992	-2.39
244.209	-29.01
244.426	106.15
244.643	93.87
244.86	42.67
245.078	69.29
245.295	102.06
245.512	50.86
245.729	11.95
245.946	-29.01
246.163	24.23
246.38	75.43
246.597	36.52
246.814	93.87
247.031	42.67
247.248	34.47
247.464	3.75
247.681	28.33
247.898	52.91
248.115	13.99
248.332	11.95
248.549	57
248.766	87.72
248.983	26.28
249.2	9.9
249.417	11.95
249.633	26.28
249.85	30.38
250.067	-2.39
250.284	22.19
250.501	32.43
250.717	50.86
250.934	-16.73
251.151	1.71
251.368	-8.53
251.585	59.05
251.801	-29.01
252.018	-6.49
252.235	11.95
252.451	-49.49
252.668	26.28
252.885	42.67
253.102	-2.39
253.318	112.3
253.535	32.43
253.752	40.62
253.968	-6.49
254.185	18.09
254.401	81.58
254.618	42.67
254.835	-55.64
255.051	112.3
255.268	-0.34
255.484	50.86
255.701	40.62
255.917	75.43
256.134	-14.68
256.351	-2.39
256.567	13.99
256.784	42.67
257	-53.59
257.217	81.58
257.433	30.38
257.65	50.86
257.866	-4.44
258.082	54.95
258.299	-35.16
258.515	67.24
258.732	-4.44
258.948	38.57
259.165	34.47
259.381	-4.44
259.597	-6.49
259.814	-10.58
260.03	79.53
260.246	57
260.463	26.28
260.679	102.06
260.895	36.52
261.112	77.48
261.328	-29.01
261.544	-0.34
261.761	50.86
261.977	-16.73
262.193	-31.06
262.409	110.25
262.626	-41.3
262.842	24.23
263.058	73.39
263.274	61.1
263.49	-47.44
263.707	102.06
263.923	7.85
264.139	57
264.355	9.9
264.571	81.58
264.787	-29.01
265.004	-29.01
265.22	-4.44
265.436	13.99
265.652	7.85
265.868	48.81
266.084	-4.44
266.3	57
266.516	3.75
266.732	73.39
266.948	-10.58
267.164	42.67
267.38	50.86
267.596	30.38
267.812	-20.82
268.028	7.85
268.244	-4.44
268.46	28.33
268.676	38.57
268.892	69.29
269.108	16.04
269.324	-26.96
269.54	-49.49
269.756	-12.63
269.972	11.95
270.188	40.62
270.403	-33.11
270.619	13.99
270.835	-12.63
271.051	52.91
271.267	-8.53
271.483	-10.58
271.698	13.99
271.914	1.71
272.13	-12.63
272.346	-12.63
272.562	5.8
272.777	69.29
272.993	-61.78
273.209	-6.49
273.425	38.57
273.64	7.85
273.856	30.38
274.072	-4.44
274.287	-14.68
274.503	32.43
274.719	42.67
274.934	67.24
275.15	-63.83
275.366	85.67
275.581	81.58
275.797	-8.53
276.012	-84.31
276.228	40.62
276.444	44.71
276.659	69.29
276.875	-33.11
277.09	18.09
277.306	-65.88
277.521	69.29
277.737	3.75
277.952	34.47
278.168	-0.34
278.383	32.43
278.599	18.09
278.814	128.68
279.03	44.71
279.245	95.91
279.461	38.57
279.676	110.25
279.892	-22.87
280.107	9.9
280.322	-29.01
280.538	26.28
280.753	18.09
280.969	28.33
281.184	-24.92
281.399	26.28
281.615	11.95
281.83	71.34
282.045	-24.92
282.26	-59.73
282.476	20.14
282.691	-0.34
282.906	57
283.122	20.14
283.337	-10.58
283.552	7.85
283.767	24.23
283.983	100.01
284.198	20.14
284.413	-49.49
284.628	-14.68
284.843	5.8
285.058	59.05
285.274	24.23
285.489	-6.49
285.704	11.95
285.919	-12.63
286.134	7.85
286.349	36.52
286.564	11.95
286.779	85.67
286.995	-2.39
287.21	34.47
287.425	-51.54
287.64	5.8
287.855	122.54
288.07	-26.96
288.285	40.62
288.5	-20.82
288.715	-22.87
288.93	36.52
289.145	34.47
289.36	91.82
289.575	13.99
289.79	16.04
290.004	44.71
290.219	40.62
290.434	26.28
290.649	-22.87
290.864	-4.44
291.079	-16.73
291.294	67.24
291.509	-49.49
291.724	7.85
291.938	-29.01
292.153	48.81
292.368	44.71
292.583	9.9
292.798	13.99
293.012	38.57
293.227	16.04
293.442	-4.44
293.657	3.75
293.871	100.01
294.086	42.67
294.301	110.25
294.516	81.58
294.73	-6.49
294.945	-26.96
295.16	20.14
295.374	73.39
295.589	40.62
295.804	52.91
296.018	87.72
296.233	13.99
296.447	30.38
296.662	30.38
296.877	50.86
297.091	50.86
297.306	22.19
297.52	52.91
297.735	50.86
297.949	-14.68
298.164	18.09
298.378	-6.49
298.593	11.95
298.807	-22.87
299.022	44.71
299.236	93.87
299.451	-29.01
299.665	-8.53
299.88	22.19
300.094	73.39
300.309	28.33
300.523	-49.49
300.737	16.04
300.952	69.29
301.166	7.85
301.381	-8.53
301.595	59.05
301.809	44.71
302.024	-6.49
302.238	-45.4
302.452	22.19
302.667	48.81
302.881	-8.53
303.095	71.34
303.309	93.87
303.524	13.99
303.738	-6.49
303.952	13.99
304.166	52.91
304.381	20.14
304.595	32.43
304.809	-49.49
305.023	44.71
305.237	13.99
305.452	7.85
305.666	32.43
305.88	57
306.094	79.53
306.308	100.01
306.522	120.49
306.736	20.14
306.95	-29.01
307.164	48.81
307.379	-16.73
307.593	-8.53
307.807	-16.73
308.021	114.34
308.235	61.1
308.449	-2.39
308.663	-22.87
308.877	59.05
309.091	77.48
309.305	-67.92
309.519	-49.49
309.733	38.57
309.947	1.71
310.161	-59.73
310.374	36.52
310.588	5.8
310.802	-49.49
311.016	1.71
311.23	1.71
311.444	-18.77
311.658	57
311.872	79.53
312.085	26.28
312.299	24.23
312.513	75.43
312.727	57
312.941	20.14
313.154	34.47
313.368	-31.06
313.582	36.52
313.796	52.91
314.009	44.71
314.223	13.99
314.437	50.86
314.651	65.19
314.864	38.57
315.078	7.85
315.292	-2.39
315.505	-10.58
315.719	57
315.933	40.62
316.146	81.58
316.36	48.81
316.573	40.62
316.787	7.85
317.001	48.81
317.214	-39.25
317.428	32.43
317.641	13.99
317.855	32.43
318.068	30.38
318.282	3.75
318.495	67.24
318.709	-0.34
318.922	-26.96
319.136	59.05
319.349	-39.25
319.563	-16.73
319.776	95.91
319.99	59.05
320.203	32.43
320.417	32.43
320.63	20.14
320.843	7.85
321.057	67.24
321.27	48.81
321.483	-20.82
321.697	54.95
321.91	-8.53
322.124	20.14
322.337	20.14
322.55	7.85
322.763	-49.49
322.977	13.99
323.19	44.71
323.403	5.8
323.617	1.71
323.83	7.85
324.043	11.95
324.256	16.04
324.469	3.75
324.683	114.34
324.896	73.39
325.109	28.33
325.322	24.23
325.535	71.34
325.748	28.33
325.962	28.33
326.175	-74.07
326.388	5.8
326.601	93.87
326.814	97.96
327.027	22.19
327.24	69.29
327.453	-22.87
327.666	26.28
327.879	13.99
328.092	24.23
328.305	44.71
328.518	65.19
328.731	24.23
328.944	57
329.157	-12.63
329.37	18.09
329.583	77.48
329.796	7.85
330.009	110.25
330.222	87.72
330.435	7.85
330.648	-55.64
330.861	65.19
331.073	36.52
331.286	102.06
331.499	61.1
331.712	102.06
331.925	18.09
332.138	69.29
332.35	13.99
332.563	77.48
332.776	77.48
332.989	-26.96
333.202	65.19
333.414	-0.34
333.627	-0.34
333.84	20.14
334.053	36.52
334.265	67.24
334.478	-31.06
334.691	24.23
334.903	34.47
335.116	-14.68
335.329	11.95
335.541	52.91
335.754	165.54
335.966	-39.25
336.179	-39.25
336.392	40.62
336.604	79.53
336.817	18.09
337.029	110.25
337.242	-4.44
337.454	79.53
337.667	34.47
337.88	67.24
338.092	5.8
338.305	30.38
338.517	-4.44
338.729	-31.06
338.942	83.63
339.154	-16.73
339.367	-53.59
339.579	42.67
339.792	-65.88
340.004	83.63
340.217	-49.49
340.429	89.77
340.641	-37.2
340.854	69.29
341.066	40.62
341.278	73.39
341.491	24.23
341.703	16.04
341.915	50.86
342.128	57
342.34	46.76
342.552	-4.44
342.764	61.1
342.977	85.67
343.189	11.95
343.401	63.15
343.613	5.8
343.826	28.33
344.038	-37.2
344.25	11.95
344.462	13.99
344.674	73.39
344.886	3.75
345.099	-2.39
345.311	32.43
345.523	38.57
345.735	28.33
345.947	48.81
346.159	-0.34
346.371	7.85
346.583	16.04
346.795	114.34
347.007	40.62
347.219	100.01
347.431	20.14
347.643	112.3
347.855	50.86
348.067	-14.68
348.279	-35.16
348.491	73.39
348.703	57
348.915	-0.34
349.127	-33.11
349.339	24.23
349.551	3.75
349.763	36.52
349.975	11.95
350.187	52.91
350.399	34.47
350.61	5.8
350.822	69.29
351.034	9.9
351.246	26.28
351.458	13.99
351.669	28.33
351.881	-2.39
352.093	67.24
352.305	34.47
352.517	57
352.728	36.52
352.94	85.67
353.152	65.19
353.363	26.28
353.575	11.95
353.787	71.34
353.999	61.1
354.21	69.29
354.422	61.1
354.633	11.95
354.845	-29.01
355.057	5.8
355.268	44.71
355.48	26.28
355.692	-8.53
355.903	1.71
356.115	52.91
356.326	7.85
356.538	20.14
356.749	20.14
356.961	11.95
357.172	7.85
357.384	32.43
357.595	42.67
357.807	24.23
358.018	7.85
358.23	95.91
358.441	30.38
358.653	34.47
358.864	-26.96
359.075	20.14
359.287	52.91
359.498	100.01
359.709	-14.68
359.921	16.04
360.132	18.09
360.344	24.23
360.555	-0.34
360.766	42.67
360.977	7.85
361.189	153.26
361.4	20.14
361.611	132.78
361.823	-6.49
362.034	18.09
362.245	48.81
362.456	57
362.667	61.1
362.879	38.57
363.09	36.52
363.301	77.48
363.512	30.38
363.723	-29.01
363.935	57
364.146	93.87
364.357	73.39
364.568	61.1
364.779	-39.25
364.99	24.23
365.201	9.9
365.412	-20.82
365.623	24.23
365.834	-4.44
366.045	7.85
366.256	65.19
366.467	-6.49
366.678	48.81
366.889	77.48
367.1	-26.96
367.311	77.48
367.522	13.99
367.733	48.81
367.944	95.91
368.155	57
368.366	65.19
368.577	112.3
368.788	18.09
368.999	73.39
369.209	50.86
369.42	91.82
369.631	73.39
369.842	13.99
370.053	34.47
370.264	42.67
370.474	24.23
370.685	42.67
370.896	69.29
371.107	69.29
371.317	22.19
371.528	122.54
371.739	18.09
371.95	18.09
372.16	32.43
372.371	-14.68
372.582	34.47
372.792	48.81
373.003	93.87
373.214	-12.63
373.424	30.38
373.635	-14.68
373.846	28.33
374.056	73.39
374.267	67.24
374.477	81.58
374.688	40.62
374.898	77.48
375.109	77.48
375.319	20.14
375.53	79.53
375.74	69.29
375.951	32.43
376.161	13.99
376.372	16.04
376.582	42.67
376.793	67.24
377.003	40.62
377.214	91.82
377.424	59.05
377.635	11.95
377.845	-16.73
378.055	100.01
378.266	36.52
378.476	116.39
378.686	1.71
378.897	-4.44
379.107	77.48
379.317	81.58
379.528	93.87
379.738	116.39
379.948	20.14
380.158	93.87
380.369	71.34
380.579	-22.87
380.789	75.43
380.999	77.48
381.21	73.39
381.42	48.81
381.63	-18.77
381.84	67.24
382.05	16.04
382.261	75.43
382.471	89.77
382.681	-57.68
382.891	104.11
383.101	83.63
383.311	7.85
383.521	13.99
383.731	67.24
383.941	42.67
384.151	34.47
384.361	83.63
384.571	89.77
384.781	40.62
384.991	89.77
385.201	132.78
385.411	116.39
385.621	28.33
385.831	79.53
386.041	-37.2
386.251	20.14
386.461	57
386.671	61.1
386.881	110.25
387.091	22.19
387.301	9.9
387.511	44.71
387.72	40.62
387.93	69.29
388.14	18.09
388.35	46.76
388.56	30.38
388.769	32.43
388.979	-6.49
389.189	-37.2
389.399	28.33
389.609	106.15
389.818	46.76
390.028	32.43
390.238	28.33
390.447	83.63
390.657	69.29
390.867	59.05
391.076	-2.39
391.286	7.85
391.496	11.95
391.705	71.34
391.915	36.52
392.125	52.91
392.334	57
392.544	120.49
392.753	50.86
392.963	95.91
393.172	44.71
393.382	-22.87
393.591	91.82
393.801	-8.53
394.01	77.48
394.22	57
394.429	97.96
394.639	91.82
394.848	132.78
395.058	11.95
395.267	124.58
395.477	36.52
395.686	97.96
395.895	95.91
396.105	140.97
396.314	32.43
396.524	122.54
396.733	69.29
396.942	69.29
397.152	93.87
397.361	157.35
397.57	63.15
397.78	36.52
397.989	100.01
398.198	161.45
398.407	61.1
398.617	91.82
398.826	52.91
399.035	112.3
399.244	44.71
399.453	-8.53
399.663	192.17
399.872	81.58
400.081	104.11
400.29	126.63
400.499	34.47
400.708	136.87
400.917	77.48
401.127	147.11
401.336	155.3
401.545	126.63
401.754	54.95
401.963	177.83
402.172	116.39
402.381	149.16
402.59	57
402.799	112.3
403.008	120.49
403.217	163.5
403.426	151.21
403.635	85.67
403.844	167.59
404.053	126.63
404.262	110.25
404.471	220.84
404.68	128.68
404.888	181.93
405.097	159.4
405.306	73.39
405.515	118.44
405.724	140.97
405.933	157.35
406.142	177.83
406.35	200.36
406.559	175.78
406.768	169.64
406.977	157.35
407.185	149.16
407.394	171.69
407.603	177.83
407.812	300.71
408.02	288.42
408.229	265.89
408.438	265.89
408.646	261.8
408.855	278.18
409.064	321.19
409.272	274.09
409.481	313
409.69	347.81
409.898	313
410.107	372.39
410.315	341.67
410.524	372.39
410.733	413.35
410.941	399.01
411.15	339.62
411.358	411.3
411.567	433.83
411.775	364.2
411.984	427.68
412.192	458.4
412.401	517.79
412.609	568.99
412.818	525.99
413.026	583.33
413.234	644.77
413.443	558.75
413.651	511.65
413.86	591.52
414.068	609.95
414.276	616.1
414.485	693.92
414.693	681.63
414.901	757.41
415.11	773.79
415.318	790.17
415.526	859.81
415.734	777.89
415.943	849.57
416.151	911
416.359	919.2
416.567	900.76
416.776	994.97
416.984	1017.5
417.192	1037.98
417.4	1119.9
417.608	1076.89
417.817	1187.48
418.025	1191.58
418.233	1269.4
418.441	1296.02
418.649	1353.37
418.857	1408.66
419.065	1394.33
419.273	1427.09
419.481	1490.58
419.689	1672.85
419.897	1601.17
420.105	1656.47
420.313	1701.52
420.521	1713.81
420.729	1756.82
420.937	1879.69
421.145	1963.66
421.353	2107.02
421.561	2070.16
421.769	2107.02
421.977	2346.63
422.185	2283.14
422.393	2393.73
422.601	2471.56
422.809	2576
423.017	2565.76
423.224	2619.01
423.432	2793.09
423.64	2752.13
423.848	3016.32
424.056	2918.01
424.263	3004.03
424.471	3192.44
424.679	3194.49
424.887	3360.38
425.094	3419.77
425.302	3526.26
425.51	3536.5
425.718	3763.83
425.925	3786.35
426.133	3985.01
426.341	4138.6
426.548	4363.88
426.756	4277.87
426.964	4337.26
427.171	4644.45
427.379	4818.53
427.586	4890.21
427.794	4916.83
428.001	5203.55
428.209	5338.71
428.417	5408.34
428.624	5676.63
428.832	5770.83
429.039	5678.68
429.247	5819.99
429.454	6110.8
429.662	6563.4
429.869	6329.93
430.076	6610.5
430.284	6549.06
430.491	6626.89
430.699	7036.48
430.906	7009.86
431.114	7347.77
431.321	7511.61
431.528	7548.47
431.736	8212.01
431.943	8640.04
432.15	8152.62
432.358	8398.38
432.565	8635.94
432.772	8658.47
432.979	8963.62
433.187	9274.91
433.394	9506.33
433.601	9991.7
433.808	10126.86
434.016	9848.34
434.223	10296.85
434.43	11134.46
434.637	10780.17
434.844	11499
435.052	11742.71
435.259	11603.45
435.466	11763.19
435.673	11496.96
435.88	12518.89
436.087	12955.11
436.294	13090.27
436.501	12713.45
436.708	13127.14
436.915	13256.16
437.122	13886.93
437.329	13747.67
437.537	14257.62
437.743	14872.01
437.95	14165.46
438.157	15199.68
438.364	15779.26
438.571	15723.96
438.778	15703.48
438.985	17690.01
439.192	16731.56
439.399	16985.51
439.606	16762.28
439.813	17810.84
440.02	18652.56
440.227	18374.03
440.433	18560.4
440.64	18941.32
440.847	18623.89
441.054	18965.9
441.261	20497.78
441.467	20067.7
441.674	20555.12
441.881	21187.94
442.088	21218.66
442.294	20989.29
442.501	21675.36
442.708	22275.41
442.914	23278.92
443.121	23651.65
443.328	23170.38
443.534	24956.21
443.741	24364.34
443.948	24048.96
444.154	25515.3
444.361	25279.78
444.568	25427.24
444.774	25593.12
444.981	25836.83
445.187	26543.38
445.394	27555.08
445.6	27088.14
445.807	29791.46
446.013	28617.97
446.22	29166.83
446.426	29986.02
446.633	30209.25
446.839	31528.14
447.046	30287.07
447.252	31917.25
447.459	31794.37
447.665	31339.72
447.871	33143.98
448.078	34600.09
448.284	32990.39
448.491	33737.9
448.697	34931.86
448.903	35306.64
449.11	35726.47
449.316	34995.35
449.522	35239.06
449.728	36344.96
449.935	36588.67
450.141	36625.53
450.347	37383.28
450.553	36361.34
450.76	36648.06
450.966	37751.91
451.172	37229.68
451.378	38190.18
451.584	37846.12
451.791	38470.75
451.997	37958.76
452.203	38710.36
452.409	38513.76
452.615	38624.35
452.821	37106.8
453.027	36723.83
453.233	38917.21
453.44	36820.09
453.646	37575.79
453.852	37770.35
454.058	38202.47
454.264	37192.82
454.47	38089.83
454.676	36516.99
454.882	38106.21
455.088	34905.24
455.294	35626.12
455.5	35703.95
455.705	36430.97
455.911	34708.63
456.117	34061.47
456.323	33438.89
456.529	31597.77
456.735	33129.65
456.941	32324.8
457.147	31884.48
457.352	30923.99
457.558	30516.44
457.764	30389.47
457.97	29963.49
458.176	28964.08
458.381	29385.96
458.587	27802.88
458.793	27669.76
458.999	26264.86
459.204	28341.5
459.41	27567.37
459.616	25744.67
459.821	25672.99
460.027	25330.98
460.233	25113.9
460.438	23954.75
460.644	24096.06
460.85	23237.96
461.055	22478.16
461.261	22580.56
461.466	20716.91
461.672	20477.3
461.878	21413.22
462.083	20176.25
462.289	19977.59
462.494	19809.66
462.7	18845.07
462.905	18404.75
463.111	19039.62
463.316	18965.9
463.522	18593.17
463.727	18517.39
463.932	18709.9
464.138	18521.49
464.343	18482.58
464.549	17933.72
464.754	18859.4
464.959	18306.45
465.165	18410.9
465.37	17446.3
465.575	16997.8
465.781	17823.13
465.986	17876.38
466.191	17343.91
466.397	17012.14
466.602	16129.46
466.807	16862.63
467.012	16750
467.218	16715.18
467.423	16508.33
467.628	16610.73
467.833	17159.59
