Data from USB4F104151__276__10-40-57-861.txt Node

Date: Wed Mar 12 10:40:57 EDT 2025
User: louis
Spectrometer: USB4F10415
Trigger mode: 4
Integration Time (sec): 3.000000E-2
Scans to average: 1
Electric dark correction enabled: true
Nonlinearity correction enabled: false
Boxcar width: 0
XAxis mode: Wavelengths
Number of Pixels in Spectrum: 3648
>>>>>Begin Spectral Data<<<<<
178.204	-53.93
178.424	-53.93
178.644	-53.93
178.864	-66.22
179.084	-76.46
179.304	-58.03
179.524	15.7
179.744	75.09
179.964	-0.68
180.184	-55.98
180.404	48.47
180.624	13.65
180.844	-33.45
181.064	-31.4
181.283	-10.92
181.503	5.46
181.723	32.08
181.943	-2.73
182.163	85.33
182.383	21.85
182.602	95.57
182.822	60.76
183.042	77.14
183.262	13.65
183.482	13.65
183.701	-8.87
183.921	44.37
184.141	-29.35
184.361	9.56
184.58	42.32
184.8	38.23
185.02	-27.31
185.239	52.56
185.459	-111.27
185.679	5.46
185.898	36.18
186.118	58.71
186.338	-2.73
186.557	-10.92
186.777	25.94
186.997	81.24
187.216	-23.21
187.436	107.86
187.655	79.19
187.875	62.8
188.095	-25.26
188.314	30.04
188.534	140.63
188.753	-39.59
188.973	-27.31
189.192	75.09
189.412	38.23
189.631	36.18
189.851	21.85
190.07	62.8
190.29	-55.98
190.509	21.85
190.729	103.76
190.948	89.43
191.168	99.67
191.387	81.24
191.607	15.7
191.826	50.52
192.045	42.32
192.265	-51.88
192.484	23.89
192.704	23.89
192.923	7.51
193.142	21.85
193.362	15.7
193.581	62.8
193.8	-8.87
194.02	21.85
194.239	-31.4
194.458	93.52
194.678	126.29
194.897	64.85
195.116	1.37
195.335	-0.68
195.555	58.71
195.774	27.99
195.993	103.76
196.212	58.71
196.432	73.04
196.651	-72.36
196.87	-0.68
197.089	120.15
197.308	5.46
197.528	109.91
197.747	-15.02
197.966	42.32
198.185	118.1
198.404	5.46
198.623	56.66
198.842	73.04
199.062	15.7
199.281	77.14
199.5	52.56
199.719	19.8
199.938	44.37
200.157	23.89
200.376	116.05
200.595	11.61
200.814	3.41
201.033	50.52
201.252	3.41
201.471	-2.73
201.69	52.56
201.909	111.96
202.128	3.41
202.347	15.7
202.566	-37.55
202.785	27.99
203.004	46.42
203.223	58.71
203.442	-2.73
203.661	17.75
203.879	-35.5
204.098	68.95
204.317	25.94
204.536	99.67
204.755	-68.27
204.974	42.32
205.193	66.9
205.411	-15.02
205.63	42.32
205.849	1.37
206.068	30.04
206.287	1.37
206.505	130.39
206.724	101.72
206.943	77.14
207.162	36.18
207.381	-12.97
207.599	-4.78
207.818	-23.21
208.037	40.28
208.255	21.85
208.474	-4.78
208.693	52.56
208.911	-8.87
209.13	-64.17
209.349	48.47
209.567	50.52
209.786	11.61
210.005	93.52
210.223	-6.83
210.442	-27.31
210.661	42.32
210.879	-0.68
211.098	23.89
211.316	7.51
211.535	-21.16
211.753	19.8
211.972	-17.07
212.191	-2.73
212.409	25.94
212.628	27.99
212.846	42.32
213.065	111.96
213.283	71
213.502	60.76
213.72	-55.98
213.938	44.37
214.157	30.04
214.375	64.85
214.594	36.18
214.812	64.85
215.031	30.04
215.249	19.8
215.467	9.56
215.686	83.28
215.904	83.28
216.122	13.65
216.341	30.04
216.559	-19.11
216.778	44.37
216.996	27.99
217.214	38.23
217.432	38.23
217.651	48.47
217.869	77.14
218.087	71
218.306	3.41
218.524	-33.45
218.742	34.13
218.96	-39.59
219.179	-15.02
219.397	44.37
219.615	79.19
219.833	-4.78
220.051	44.37
220.27	19.8
220.488	34.13
220.706	73.04
220.924	13.65
221.142	-27.31
221.36	34.13
221.578	5.46
221.796	30.04
222.015	1.37
222.233	9.56
222.451	79.19
222.669	-29.35
222.887	81.24
223.105	30.04
223.323	66.9
223.541	-4.78
223.759	27.99
223.977	9.56
224.195	36.18
224.413	42.32
224.631	5.46
224.849	21.85
225.067	71
225.285	-21.16
225.503	46.42
225.721	-27.31
225.939	-2.73
226.157	40.28
226.375	79.19
226.592	17.75
226.81	30.04
227.028	44.37
227.246	62.8
227.464	50.52
227.682	75.09
227.9	44.37
228.117	-0.68
228.335	66.9
228.553	56.66
228.771	56.66
228.989	-2.73
229.206	9.56
229.424	17.75
229.642	11.61
229.86	36.18
230.077	38.23
230.295	-47.79
230.513	79.19
230.731	25.94
230.948	64.85
231.166	132.44
231.384	5.46
231.601	27.99
231.819	44.37
232.037	7.51
232.254	-55.98
232.472	50.52
232.689	-4.78
232.907	13.65
233.125	62.8
233.342	-27.31
233.56	36.18
233.777	79.19
233.995	52.56
234.213	93.52
234.43	66.9
234.648	36.18
234.865	-4.78
235.083	111.96
235.3	91.48
235.518	-4.78
235.735	32.08
235.953	44.37
236.17	-27.31
236.388	19.8
236.605	58.71
236.822	50.52
237.04	77.14
237.257	81.24
237.475	17.75
237.692	71
237.909	-31.4
238.127	48.47
238.344	25.94
238.562	15.7
238.779	9.56
238.996	-0.68
239.214	79.19
239.431	91.48
239.648	17.75
239.865	87.38
240.083	9.56
240.3	44.37
240.517	17.75
240.735	9.56
240.952	130.39
241.169	152.91
241.386	5.46
241.603	58.71
241.821	13.65
242.038	52.56
242.255	68.95
242.472	-10.92
242.689	15.7
242.907	44.37
243.124	34.13
243.341	30.04
243.558	-68.27
243.775	42.32
243.992	9.56
244.209	30.04
244.426	120.15
244.643	60.76
244.86	64.85
245.078	48.47
245.295	-29.35
245.512	-10.92
245.729	-31.4
245.946	54.61
246.163	-12.97
246.38	-12.97
246.597	56.66
246.814	99.67
247.031	-2.73
247.248	40.28
247.464	132.44
247.681	5.46
247.898	58.71
248.115	-23.21
248.332	-27.31
248.549	32.08
248.766	95.57
248.983	99.67
249.2	-49.83
249.417	5.46
249.633	-25.26
249.85	25.94
250.067	11.61
250.284	19.8
250.501	21.85
250.717	9.56
250.934	-4.78
251.151	17.75
251.368	64.85
251.585	17.75
251.801	-2.73
252.018	9.56
252.235	56.66
252.451	-8.87
252.668	-31.4
252.885	101.72
253.102	19.8
253.318	75.09
253.535	-10.92
253.752	30.04
253.968	15.7
254.185	-0.68
254.401	68.95
254.618	13.65
254.835	25.94
255.051	17.75
255.268	5.46
255.484	7.51
255.701	66.9
255.917	75.09
256.134	-60.07
256.351	36.18
256.567	9.56
256.784	30.04
257	-2.73
257.217	40.28
257.433	71
257.65	146.77
257.866	60.76
258.082	-0.68
258.299	79.19
258.515	5.46
258.732	-4.78
258.948	52.56
259.165	-10.92
259.381	13.65
259.597	5.46
259.814	1.37
260.03	-0.68
260.246	89.43
260.463	103.76
260.679	54.61
260.895	5.46
261.112	95.57
261.328	60.76
261.544	-10.92
261.761	122.2
261.977	5.46
262.193	15.7
262.409	32.08
262.626	46.42
262.842	75.09
263.058	44.37
263.274	128.34
263.49	75.09
263.707	103.76
263.923	62.8
264.139	-43.69
264.355	25.94
264.571	50.52
264.787	120.15
265.004	99.67
265.22	54.61
265.436	54.61
265.652	40.28
265.868	-6.83
266.084	15.7
266.3	87.38
266.516	-43.69
266.732	58.71
266.948	73.04
267.164	5.46
267.38	38.23
267.596	97.62
267.812	44.37
268.028	25.94
268.244	-4.78
268.46	46.42
268.676	75.09
268.892	48.47
269.108	7.51
269.324	9.56
269.54	3.41
269.756	75.09
269.972	42.32
270.188	5.46
270.403	44.37
270.619	23.89
270.835	54.61
271.051	-17.07
271.267	-17.07
271.483	19.8
271.698	30.04
271.914	66.9
272.13	21.85
272.346	-19.11
272.562	161.11
272.777	42.32
272.993	38.23
273.209	5.46
273.425	46.42
273.64	46.42
273.856	79.19
274.072	107.86
274.287	60.76
274.503	-23.21
274.719	-19.11
274.934	15.7
275.15	23.89
275.366	-19.11
275.581	21.85
275.797	17.75
276.012	56.66
276.228	44.37
276.444	-41.64
276.659	109.91
276.875	-21.16
277.09	99.67
277.306	17.75
277.521	56.66
277.737	75.09
277.952	101.72
278.168	19.8
278.383	101.72
278.599	103.76
278.814	46.42
279.03	-27.31
279.245	101.72
279.461	-55.98
279.676	48.47
279.892	-27.31
280.107	-10.92
280.322	11.61
280.538	52.56
280.753	3.41
280.969	34.13
281.184	62.8
281.399	71
281.615	54.61
281.83	48.47
282.045	5.46
282.26	40.28
282.476	25.94
282.691	83.28
282.906	30.04
283.122	25.94
283.337	48.47
283.552	21.85
283.767	-0.68
283.983	30.04
284.198	42.32
284.413	46.42
284.628	-39.59
284.843	-6.83
285.058	83.28
285.274	38.23
285.489	30.04
285.704	50.52
285.919	-62.12
286.134	101.72
286.349	-19.11
286.564	58.71
286.779	48.47
286.995	50.52
287.21	-8.87
287.425	85.33
287.64	-10.92
287.855	-10.92
288.07	-2.73
288.285	91.48
288.5	-6.83
288.715	56.66
288.93	56.66
289.145	-12.97
289.36	46.42
289.575	-29.35
289.79	13.65
290.004	52.56
290.219	17.75
290.434	36.18
290.649	36.18
290.864	46.42
291.079	54.61
291.294	-12.97
291.509	75.09
291.724	68.95
291.938	62.8
292.153	87.38
292.368	44.37
292.583	38.23
292.798	48.47
293.012	-2.73
293.227	-10.92
293.442	83.28
293.657	19.8
293.871	56.66
294.086	40.28
294.301	54.61
294.516	48.47
294.73	114
294.945	87.38
295.16	83.28
295.374	83.28
295.589	134.48
295.804	13.65
296.018	93.52
296.233	23.89
296.447	54.61
296.662	42.32
296.877	105.81
297.091	97.62
297.306	-4.78
297.52	-29.35
297.735	7.51
297.949	-23.21
298.164	62.8
298.378	5.46
298.593	79.19
298.807	42.32
299.022	38.23
299.236	99.67
299.451	42.32
299.665	34.13
299.88	30.04
300.094	13.65
300.309	19.8
300.523	34.13
300.737	34.13
300.952	75.09
301.166	79.19
301.381	-33.45
301.595	38.23
301.809	62.8
302.024	27.99
302.238	5.46
302.452	134.48
302.667	101.72
302.881	169.3
303.095	36.18
303.309	126.29
303.524	77.14
303.738	89.43
303.952	17.75
304.166	116.05
304.381	27.99
304.595	91.48
304.809	42.32
305.023	93.52
305.237	42.32
305.452	111.96
305.666	21.85
305.88	62.8
306.094	118.1
306.308	111.96
306.522	75.09
306.736	83.28
306.95	46.42
307.164	-6.83
307.379	13.65
307.593	191.83
307.807	66.9
308.021	122.2
308.235	52.56
308.449	7.51
308.663	21.85
308.877	132.44
309.091	81.24
309.305	109.91
309.519	36.18
309.733	103.76
309.947	13.65
310.161	95.57
310.374	13.65
310.588	68.95
310.802	3.41
311.016	23.89
311.23	27.99
311.444	71
311.658	1.37
311.872	89.43
312.085	107.86
312.299	81.24
312.513	21.85
312.727	46.42
312.941	-6.83
313.154	27.99
313.368	116.05
313.582	79.19
313.796	136.53
314.009	46.42
314.223	91.48
314.437	75.09
314.651	7.51
314.864	52.56
315.078	-0.68
315.292	44.37
315.505	30.04
315.719	21.85
315.933	58.71
316.146	40.28
316.36	23.89
316.573	52.56
316.787	83.28
317.001	48.47
317.214	54.61
317.428	44.37
317.641	68.95
317.855	120.15
318.068	107.86
318.282	71
318.495	71
318.709	-19.11
318.922	105.81
319.136	58.71
319.349	77.14
319.563	-17.07
319.776	15.7
319.99	-23.21
320.203	25.94
320.417	54.61
320.63	71
320.843	111.96
321.057	38.23
321.27	9.56
321.483	83.28
321.697	79.19
321.91	71
322.124	11.61
322.337	62.8
322.55	107.86
322.763	62.8
322.977	77.14
323.19	25.94
323.403	105.81
323.617	52.56
323.83	64.85
324.043	54.61
324.256	15.7
324.469	60.76
324.683	62.8
324.896	40.28
325.109	75.09
325.322	-4.78
325.535	97.62
325.748	56.66
325.962	27.99
326.175	9.56
326.388	19.8
326.601	58.71
326.814	81.24
327.027	1.37
327.24	66.9
327.453	81.24
327.666	54.61
327.879	21.85
328.092	77.14
328.305	13.65
328.518	-6.83
328.731	36.18
328.944	66.9
329.157	-27.31
329.37	73.04
329.583	62.8
329.796	56.66
330.009	19.8
330.222	-2.73
330.435	89.43
330.648	56.66
330.861	19.8
331.073	71
331.286	85.33
331.499	60.76
331.712	32.08
331.925	62.8
332.138	95.57
332.35	93.52
332.563	-2.73
332.776	38.23
332.989	-10.92
333.202	134.48
333.414	54.61
333.627	97.62
333.84	5.46
334.053	34.13
334.265	19.8
334.478	42.32
334.691	48.47
334.903	38.23
335.116	5.46
335.329	11.61
335.541	95.57
335.754	81.24
335.966	38.23
336.179	50.52
336.392	81.24
336.604	64.85
336.817	54.61
337.029	68.95
337.242	-8.87
337.454	68.95
337.667	-51.88
337.88	103.76
338.092	27.99
338.305	-37.55
338.517	56.66
338.729	34.13
338.942	-0.68
339.154	40.28
339.367	19.8
339.579	66.9
339.792	34.13
340.004	75.09
340.217	11.61
340.429	101.72
340.641	-31.4
340.854	27.99
341.066	-12.97
341.278	87.38
341.491	1.37
341.703	42.32
341.915	56.66
342.128	62.8
342.34	83.28
342.552	77.14
342.764	21.85
342.977	111.96
343.189	36.18
343.401	40.28
343.613	19.8
343.826	34.13
344.038	79.19
344.25	68.95
344.462	62.8
344.674	50.52
344.886	-0.68
345.099	42.32
345.311	58.71
345.523	19.8
345.735	58.71
345.947	7.51
346.159	54.61
346.371	34.13
346.583	-4.78
346.795	124.24
347.007	40.28
347.219	79.19
347.431	114
347.643	60.76
347.855	40.28
348.067	97.62
348.279	60.76
348.491	107.86
348.703	77.14
348.915	44.37
349.127	-27.31
349.339	71
349.551	109.91
349.763	17.75
349.975	73.04
350.187	89.43
350.399	25.94
350.61	21.85
350.822	50.52
351.034	50.52
351.246	44.37
351.458	87.38
351.669	79.19
351.881	50.52
352.093	157.01
352.305	54.61
352.517	103.76
352.728	144.72
352.94	46.42
353.152	101.72
353.363	36.18
353.575	107.86
353.787	144.72
353.999	62.8
354.21	77.14
354.422	3.41
354.633	71
354.845	-17.07
355.057	54.61
355.268	60.76
355.48	81.24
355.692	44.37
355.903	77.14
356.115	34.13
356.326	66.9
356.538	85.33
356.749	122.2
356.961	97.62
357.172	116.05
357.384	54.61
357.595	132.44
357.807	71
358.018	64.85
358.23	27.99
358.441	42.32
358.653	75.09
358.864	118.1
359.075	38.23
359.287	25.94
359.498	77.14
359.709	71
359.921	66.9
360.132	11.61
360.344	71
360.555	25.94
360.766	62.8
360.977	25.94
361.189	148.82
361.4	-31.4
361.611	132.44
361.823	71
362.034	136.53
362.245	68.95
362.456	21.85
362.667	40.28
362.879	21.85
363.09	77.14
363.301	17.75
363.512	99.67
363.723	136.53
363.935	52.56
364.146	13.65
364.357	48.47
364.568	62.8
364.779	17.75
364.99	79.19
365.201	11.61
365.412	46.42
365.623	40.28
365.834	103.76
366.045	62.8
366.256	109.91
366.467	99.67
366.678	62.8
366.889	46.42
367.1	-19.11
367.311	58.71
367.522	-49.83
367.733	62.8
367.944	17.75
368.155	87.38
368.366	30.04
368.577	103.76
368.788	87.38
368.999	66.9
369.209	46.42
369.42	97.62
369.631	105.81
369.842	30.04
370.053	87.38
370.264	97.62
370.474	60.76
370.685	5.46
370.896	77.14
371.107	83.28
371.317	103.76
371.528	25.94
371.739	126.29
371.95	3.41
372.16	60.76
372.371	-68.27
372.582	75.09
372.792	34.13
373.003	93.52
373.214	21.85
373.424	52.56
373.635	19.8
373.846	97.62
374.056	79.19
374.267	109.91
374.477	136.53
374.688	-6.83
374.898	130.39
375.109	58.71
375.319	85.33
375.53	27.99
375.74	56.66
375.951	95.57
376.161	122.2
376.372	91.48
376.582	68.95
376.793	120.15
377.003	132.44
377.214	60.76
377.424	99.67
377.635	122.2
377.845	-6.83
378.055	130.39
378.266	68.95
378.476	34.13
378.686	91.48
378.897	71
379.107	77.14
379.317	89.43
379.528	79.19
379.738	120.15
379.948	56.66
380.158	103.76
380.369	97.62
380.579	-25.26
380.789	77.14
380.999	48.47
381.21	118.1
381.42	64.85
381.63	81.24
381.84	83.28
382.05	46.42
382.261	85.33
382.471	93.52
382.681	44.37
382.891	62.8
383.101	79.19
383.311	50.52
383.521	38.23
383.731	-19.11
383.941	17.75
384.151	60.76
384.361	87.38
384.571	66.9
384.781	120.15
384.991	91.48
385.201	93.52
385.411	62.8
385.621	134.48
385.831	36.18
386.041	15.7
386.251	75.09
386.461	111.96
386.671	36.18
386.881	122.2
387.091	36.18
387.301	73.04
387.511	64.85
387.72	68.95
387.93	71
388.14	60.76
388.35	64.85
388.56	148.82
388.769	103.76
388.979	46.42
389.189	13.65
389.399	75.09
389.609	105.81
389.818	77.14
390.028	118.1
390.238	89.43
390.447	19.8
390.657	124.24
390.867	93.52
391.076	87.38
391.286	134.48
391.496	116.05
391.705	71
391.915	177.49
392.125	93.52
392.334	93.52
392.544	107.86
392.753	89.43
392.963	73.04
393.172	1.37
393.382	68.95
393.591	114
393.801	93.52
394.01	191.83
394.22	136.53
394.429	206.16
394.639	122.2
394.848	79.19
395.058	79.19
395.267	99.67
395.477	68.95
395.686	144.72
395.895	171.35
396.105	107.86
396.314	120.15
396.524	44.37
396.733	58.71
396.942	159.06
397.152	95.57
397.361	99.67
397.57	105.81
397.78	124.24
397.989	163.15
398.198	132.44
398.407	105.81
398.617	171.35
398.826	111.96
399.035	167.25
399.244	152.91
399.453	193.87
399.663	87.38
399.872	187.73
400.081	116.05
400.29	95.57
400.499	75.09
400.708	126.29
400.917	189.78
401.127	136.53
401.336	181.59
401.545	179.54
401.754	193.87
401.963	251.22
402.172	107.86
402.381	154.96
402.59	99.67
402.799	144.72
403.008	185.68
403.217	132.44
403.426	95.57
403.635	181.59
403.844	101.72
404.053	191.83
404.262	159.06
404.471	197.97
404.68	243.03
404.888	181.59
405.097	175.44
405.306	189.78
405.515	208.21
405.724	279.89
405.933	240.98
406.142	173.39
406.35	212.31
406.559	247.12
406.768	281.94
406.977	234.83
407.185	271.7
407.394	273.75
407.603	230.74
407.812	275.79
408.02	341.33
408.229	349.52
408.438	318.8
408.646	269.65
408.855	275.79
409.064	335.18
409.272	365.9
409.481	341.33
409.69	386.38
409.898	312.66
410.107	353.62
410.315	417.1
410.524	341.33
410.733	429.39
410.941	478.54
411.15	484.69
411.358	525.65
411.567	521.55
411.775	488.78
411.984	656.72
412.192	626
412.401	558.41
412.609	658.76
412.818	601.42
413.026	703.82
413.234	626
413.443	709.96
413.651	628.04
413.86	675.15
414.068	685.39
414.276	812.36
414.485	828.74
414.693	777.55
414.901	898.38
415.11	873.8
415.318	914.76
415.526	1006.92
415.734	959.81
415.943	1097.03
416.151	1027.4
416.359	1043.78
416.567	1131.84
416.776	1189.19
416.984	1256.77
417.192	1162.56
417.4	1275.2
417.608	1273.15
417.817	1408.32
418.025	1406.27
418.233	1504.57
418.441	1430.85
418.649	1529.15
418.857	1574.21
419.065	1740.09
419.273	1670.46
419.481	1805.63
419.689	1856.83
419.897	1832.25
420.105	2026.81
420.313	1987.89
420.521	1983.8
420.729	2159.92
420.937	2196.79
421.145	2198.84
421.353	2391.34
421.561	2471.22
421.769	2557.23
421.977	2790.7
422.185	2669.87
422.393	2825.51
422.601	3065.13
422.809	3058.98
423.017	3169.57
423.224	3210.53
423.432	3155.24
423.64	3265.83
423.848	3566.88
424.056	3417.38
424.263	3734.81
424.471	3820.83
424.679	3953.94
424.887	4074.78
425.094	4289.81
425.302	4209.94
425.51	4379.92
425.718	4422.93
425.925	4609.3
426.133	4662.54
426.341	4941.07
426.548	5027.08
426.756	5133.57
426.964	5162.25
427.171	5565.7
427.379	5836.03
427.586	5756.16
427.794	5938.43
428.001	6233.33
428.209	6540.53
428.417	6548.72
428.624	7064.81
428.832	6796.53
429.039	7005.42
429.247	6927.6
429.454	7537.89
429.662	7898.33
429.869	7283.94
430.076	8266.97
430.284	7775.45
430.491	8395.99
430.699	8893.65
430.906	8570.07
431.114	8858.83
431.321	9176.27
431.528	9209.03
431.736	9815.23
431.943	10185.91
432.15	10024.12
432.358	9960.64
432.565	10880.18
432.772	10620.08
432.979	11234.47
433.187	11465.89
433.394	11211.95
433.601	12231.83
433.808	11994.27
434.016	12188.83
434.223	12872.85
434.43	13526.15
434.637	13102.22
434.844	14025.86
435.052	14412.92
435.259	14197.88
435.466	14118.01
435.673	14175.36
435.88	14996.59
436.087	15828.07
436.294	15860.84
436.501	15383.66
436.708	15897.7
436.915	16116.83
437.122	17056.85
437.329	17155.15
437.537	17439.82
437.743	18134.08
437.95	17990.72
438.157	18863.16
438.364	19262.51
438.571	19287.09
438.778	19424.3
438.985	21400.59
439.192	20395.04
439.399	21111.83
439.606	20544.54
439.813	22066.18
440.02	22955
440.227	22504.45
440.433	22481.92
440.64	23266.29
440.847	23002.1
441.054	23489.52
441.261	25336.79
441.467	24736.73
441.674	25508.82
441.881	26086.34
442.088	26151.88
442.294	25981.9
442.501	26737.6
442.708	27347.89
442.914	28507.04
443.121	29649.81
443.328	28863.39
443.534	31044.48
443.741	30006.16
443.948	29571.99
444.154	32023.4
444.361	31374.2
444.568	31611.76
444.774	31765.36
444.981	32060.27
445.187	33153.88
445.394	34341.71
445.6	34040.65
445.807	37350.17
446.013	35631.93
446.22	36162.35
446.426	37645.08
446.633	37903.12
446.839	39258.88
447.046	37403.42
447.252	39510.78
447.459	39777.01
447.665	39289.6
447.871	41116.39
448.078	42437.33
448.284	40428.27
448.491	41827.03
448.697	43449.02
448.903	44065.46
449.11	44272.31
449.316	43283.14
449.522	44464.81
449.728	45703.84
449.935	45451.94
450.141	45861.53
450.347	46713.48
450.553	45101.73
450.76	45744.8
450.966	47364.74
451.172	46748.3
451.378	47360.64
451.584	46422.67
451.791	47823.48
451.997	47237.76
452.203	48323.19
452.409	48147.06
452.615	47995.51
452.821	46152.34
453.027	45568.67
453.233	47708.8
453.44	45785.75
453.646	46918.28
453.852	46606.99
454.058	47266.44
454.264	45740.7
454.47	46652.05
454.676	45662.88
454.882	47135.37
455.088	43262.66
455.294	43541.18
455.5	44145.33
455.705	45243.04
455.911	43141.83
456.117	41966.29
456.323	41429.73
456.529	38968.07
456.735	40704.74
456.941	39705.34
457.147	39189.25
457.352	37763.86
457.558	37432.09
457.764	37401.37
457.97	36952.87
458.176	36305.71
458.381	35939.12
458.587	34059.09
458.793	33866.58
458.999	33006.43
459.204	34495.3
459.41	33762.13
459.616	31232.89
459.821	31423.35
460.027	31253.37
460.233	30800.77
460.438	29387.67
460.644	29438.87
460.85	28314.53
461.055	27968.43
461.261	27679.66
461.466	25910.22
461.672	25056.22
461.878	26803.13
462.083	25062.36
462.289	24378.34
462.494	24187.88
462.7	23084.02
462.905	22617.08
463.111	23165.94
463.316	23487.47
463.522	22891.51
463.727	23124.98
463.932	23118.84
464.138	22885.37
464.343	22799.35
464.549	21767.18
464.754	23116.79
464.959	22756.35
465.165	22445.05
465.37	21726.22
465.575	20907.03
465.781	21871.62
465.986	21959.69
466.191	21302.29
466.397	20669.47
466.602	19840.04
466.807	20595.74
467.012	20743.19
467.218	20536.35
467.423	19905.57
467.628	20413.47
