Data from USB4F104151__208__10-29-51-424.txt Node

Date: Wed Mar 12 10:29:51 EDT 2025
User: louis
Spectrometer: USB4F10415
Trigger mode: 4
Integration Time (sec): 3.000000E-2
Scans to average: 1
Electric dark correction enabled: true
Nonlinearity correction enabled: false
Boxcar width: 0
XAxis mode: Wavelengths
Number of Pixels in Spectrum: 3648
>>>>>Begin Spectral Data<<<<<
178.204	-119.12
178.424	-119.12
178.644	-119.12
178.864	-135.51
179.084	-84.31
179.304	-90.45
179.524	38.57
179.744	-26.96
179.964	-4.44
180.184	1.71
180.404	46.76
180.624	-10.58
180.844	13.99
181.064	-51.54
181.283	7.85
181.503	18.09
181.723	57
181.943	-14.68
182.163	36.52
182.383	44.71
182.602	-6.49
182.822	5.8
183.042	67.24
183.262	-18.77
183.482	-51.54
183.701	-37.2
183.921	65.19
184.141	-2.39
184.361	110.25
184.58	26.28
184.8	1.71
185.02	65.19
185.239	138.92
185.459	7.85
185.679	40.62
185.898	28.33
186.118	46.76
186.338	-10.58
186.557	-4.44
186.777	-35.16
186.997	-22.87
187.216	1.71
187.436	57
187.655	5.8
187.875	-6.49
188.095	-63.83
188.314	-29.01
188.534	100.01
188.753	-0.34
188.973	42.67
189.192	42.67
189.412	-29.01
189.631	26.28
189.851	1.71
190.07	-78.16
190.29	-4.44
190.509	67.24
190.729	-24.92
190.948	38.57
191.168	102.06
191.387	9.9
191.607	30.38
191.826	48.81
192.045	-47.44
192.265	-47.44
192.484	40.62
192.704	24.23
192.923	-37.2
193.142	11.95
193.362	57
193.581	89.77
193.8	71.34
194.02	-8.53
194.239	20.14
194.458	97.96
194.678	3.75
194.897	-31.06
195.116	11.95
195.335	54.95
195.555	-47.44
195.774	-18.77
195.993	26.28
196.212	-37.2
196.432	-45.4
196.651	-14.68
196.87	-35.16
197.089	52.91
197.308	-8.53
197.528	-16.73
197.747	-18.77
197.966	-33.11
198.185	-24.92
198.404	16.04
198.623	38.57
198.842	-22.87
199.062	40.62
199.281	81.58
199.5	7.85
199.719	-14.68
199.938	30.38
200.157	-4.44
200.376	44.71
200.595	-33.11
200.814	5.8
201.033	44.71
201.252	-10.58
201.471	57
201.69	50.86
201.909	-0.34
202.128	73.39
202.347	30.38
202.566	-41.3
202.785	38.57
203.004	-63.83
203.223	44.71
203.442	11.95
203.661	40.62
203.879	79.53
204.098	42.67
204.317	-67.92
204.536	48.81
204.755	71.34
204.974	13.99
205.193	5.8
205.411	71.34
205.63	11.95
205.849	-2.39
206.068	-41.3
206.287	-29.01
206.505	18.09
206.724	20.14
206.943	-41.3
207.162	67.24
207.381	26.28
207.599	5.8
207.818	-53.59
208.037	-10.58
208.255	-57.68
208.474	-18.77
208.693	28.33
208.911	18.09
209.13	52.91
209.349	-10.58
209.567	54.95
209.786	44.71
210.005	30.38
210.223	-0.34
210.442	18.09
210.661	-12.63
210.879	-24.92
211.098	1.71
211.316	30.38
211.535	61.1
211.753	30.38
211.972	5.8
212.191	13.99
212.409	61.1
212.628	-47.44
212.846	26.28
213.065	104.11
213.283	44.71
213.502	-10.58
213.72	75.43
213.938	83.63
214.157	-10.58
214.375	38.57
214.594	-2.39
214.812	91.82
215.031	-2.39
215.249	-4.44
215.467	11.95
215.686	-14.68
215.904	63.15
216.122	46.76
216.341	28.33
216.559	65.19
216.778	42.67
216.996	-2.39
217.214	52.91
217.432	26.28
217.651	-61.78
217.869	46.76
218.087	18.09
218.306	-10.58
218.524	36.52
218.742	-37.2
218.96	38.57
219.179	-12.63
219.397	38.57
219.615	75.43
219.833	16.04
220.051	5.8
220.27	38.57
220.488	67.24
220.706	9.9
220.924	13.99
221.142	7.85
221.36	1.71
221.578	38.57
221.796	71.34
222.015	5.8
222.233	28.33
222.451	50.86
222.669	1.71
222.887	100.01
223.105	-16.73
223.323	22.19
223.541	-26.96
223.759	22.19
223.977	46.76
224.195	120.49
224.413	34.47
224.631	30.38
224.849	36.52
225.067	59.05
225.285	34.47
225.503	3.75
225.721	22.19
225.939	-35.16
226.157	40.62
226.375	128.68
226.592	11.95
226.81	50.86
227.028	46.76
227.246	71.34
227.464	54.95
227.682	85.67
227.9	24.23
228.117	-24.92
228.335	106.15
228.553	36.52
228.771	28.33
228.989	147.11
229.206	-53.59
229.424	54.95
229.642	-8.53
229.86	57
230.077	42.67
230.295	-8.53
230.513	71.34
230.731	22.19
230.948	-4.44
231.166	104.11
231.384	1.71
231.601	-39.25
231.819	61.1
232.037	-8.53
232.254	-69.97
232.472	69.29
232.689	-6.49
232.907	26.28
233.125	-35.16
233.342	-8.53
233.56	-51.54
233.777	9.9
233.995	-6.49
234.213	5.8
234.43	32.43
234.648	22.19
234.865	32.43
235.083	28.33
235.3	36.52
235.518	40.62
235.735	-16.73
235.953	38.57
236.17	-4.44
236.388	-4.44
236.605	-24.92
236.822	38.57
237.04	-14.68
237.257	26.28
237.475	-18.77
237.692	16.04
237.909	46.76
238.127	-43.35
238.344	40.62
238.562	46.76
238.779	-59.73
238.996	83.63
239.214	38.57
239.431	-41.3
239.648	-26.96
239.865	50.86
240.083	85.67
240.3	9.9
240.517	-51.54
240.735	54.95
240.952	73.39
241.169	50.86
241.386	-14.68
241.603	-57.68
241.821	34.47
242.038	44.71
242.255	30.38
242.472	9.9
242.689	-18.77
242.907	20.14
243.124	-39.25
243.341	3.75
243.558	-61.78
243.775	-24.92
243.992	-0.34
244.209	28.33
244.426	100.01
244.643	67.24
244.86	67.24
245.078	-20.82
245.295	63.15
245.512	36.52
245.729	-8.53
245.946	30.38
246.163	9.9
246.38	63.15
246.597	-51.54
246.814	3.75
247.031	26.28
247.248	1.71
247.464	-14.68
247.681	-55.64
247.898	-14.68
248.115	-10.58
248.332	11.95
248.549	16.04
248.766	22.19
248.983	44.71
249.2	77.48
249.417	30.38
249.633	18.09
249.85	71.34
250.067	-6.49
250.284	-16.73
250.501	77.48
250.717	75.43
250.934	-49.49
251.151	-53.59
251.368	-35.16
251.585	1.71
251.801	46.76
252.018	81.58
252.235	87.72
252.451	-0.34
252.668	-90.45
252.885	46.76
253.102	13.99
253.318	-45.4
253.535	-31.06
253.752	65.19
253.968	-20.82
254.185	-41.3
254.401	-47.44
254.618	63.15
254.835	-57.68
255.051	112.3
255.268	34.47
255.484	22.19
255.701	44.71
255.917	46.76
256.134	11.95
256.351	16.04
256.567	-16.73
256.784	50.86
257	13.99
257.217	-39.25
257.433	52.91
257.65	40.62
257.866	-14.68
258.082	-39.25
258.299	44.71
258.515	50.86
258.732	75.43
258.948	-10.58
259.165	59.05
259.381	18.09
259.597	36.52
259.814	75.43
260.03	69.29
260.246	-10.58
260.463	-33.11
260.679	16.04
260.895	16.04
261.112	22.19
261.328	-22.87
261.544	34.47
261.761	118.44
261.977	-16.73
262.193	9.9
262.409	38.57
262.626	26.28
262.842	-53.59
263.058	73.39
263.274	63.15
263.49	3.75
263.707	42.67
263.923	18.09
264.139	7.85
264.355	24.23
264.571	-0.34
264.787	38.57
265.004	63.15
265.22	-49.49
265.436	-2.39
265.652	-20.82
265.868	50.86
266.084	-12.63
266.3	9.9
266.516	-2.39
266.732	30.38
266.948	-6.49
267.164	63.15
267.38	30.38
267.596	81.58
267.812	20.14
268.028	26.28
268.244	-29.01
268.46	1.71
268.676	48.81
268.892	46.76
269.108	-2.39
269.324	102.06
269.54	1.71
269.756	-10.58
269.972	5.8
270.188	40.62
270.403	24.23
270.619	46.76
270.835	38.57
271.051	67.24
271.267	-24.92
271.483	28.33
271.698	-39.25
271.914	38.57
272.13	1.71
272.346	-20.82
272.562	9.9
272.777	36.52
272.993	36.52
273.209	20.14
273.425	54.95
273.64	38.57
273.856	7.85
274.072	54.95
274.287	-37.2
274.503	63.15
274.719	87.72
274.934	26.28
275.15	24.23
275.366	44.71
275.581	24.23
275.797	42.67
276.012	67.24
276.228	20.14
276.444	11.95
276.659	28.33
276.875	59.05
277.09	54.95
277.306	63.15
277.521	42.67
277.737	5.8
277.952	44.71
278.168	46.76
278.383	57
278.599	-22.87
278.814	-10.58
279.03	38.57
279.245	-10.58
279.461	52.91
279.676	71.34
279.892	-92.5
280.107	44.71
280.322	-22.87
280.538	24.23
280.753	-33.11
280.969	44.71
281.184	20.14
281.399	106.15
281.615	54.95
281.83	85.67
282.045	-22.87
282.26	13.99
282.476	9.9
282.691	57
282.906	-4.44
283.122	-86.36
283.337	-67.92
283.552	52.91
283.767	13.99
283.983	108.2
284.198	22.19
284.413	3.75
284.628	-37.2
284.843	42.67
285.058	7.85
285.274	-63.83
285.489	-59.73
285.704	54.95
285.919	3.75
286.134	1.71
286.349	-18.77
286.564	-65.88
286.779	104.11
286.995	5.8
287.21	48.81
287.425	9.9
287.64	3.75
287.855	50.86
288.07	-14.68
288.285	22.19
288.5	65.19
288.715	-49.49
288.93	-10.58
289.145	-35.16
289.36	22.19
289.575	63.15
289.79	104.11
290.004	38.57
290.219	44.71
290.434	16.04
290.649	11.95
290.864	-51.54
291.079	32.43
291.294	54.95
291.509	79.53
291.724	40.62
291.938	79.53
292.153	20.14
292.368	63.15
292.583	138.92
292.798	-6.49
293.012	69.29
293.227	-24.92
293.442	22.19
293.657	81.58
293.871	-2.39
294.086	-18.77
294.301	75.43
294.516	63.15
294.73	-26.96
294.945	5.8
295.16	42.67
295.374	24.23
295.589	34.47
295.804	50.86
296.018	42.67
296.233	11.95
296.447	-8.53
296.662	-78.16
296.877	83.63
297.091	28.33
297.306	-39.25
297.52	28.33
297.735	38.57
297.949	30.38
298.164	59.05
298.378	-6.49
298.593	16.04
298.807	-31.06
299.022	38.57
299.236	100.01
299.451	-43.35
299.665	63.15
299.88	112.3
300.094	59.05
300.309	50.86
300.523	38.57
300.737	46.76
300.952	3.75
301.166	87.72
301.381	-74.07
301.595	18.09
301.809	24.23
302.024	-37.2
302.238	-24.92
302.452	-59.73
302.667	54.95
302.881	85.67
303.095	13.99
303.309	7.85
303.524	3.75
303.738	44.71
303.952	20.14
304.166	38.57
304.381	-33.11
304.595	87.72
304.809	-0.34
305.023	38.57
305.237	112.3
305.452	50.86
305.666	38.57
305.88	95.91
306.094	18.09
306.308	54.95
306.522	46.76
306.736	69.29
306.95	-8.53
307.164	28.33
307.379	1.71
307.593	114.34
307.807	52.91
308.021	40.62
308.235	-10.58
308.449	-8.53
308.663	22.19
308.877	147.11
309.091	7.85
309.305	67.24
309.519	-22.87
309.733	24.23
309.947	-26.96
310.161	36.52
310.374	-4.44
310.588	-4.44
310.802	-6.49
311.016	61.1
311.23	91.82
311.444	5.8
311.658	-2.39
311.872	132.78
312.085	30.38
312.299	-0.34
312.513	46.76
312.727	32.43
312.941	-18.77
313.154	-0.34
313.368	5.8
313.582	77.48
313.796	52.91
314.009	-55.64
314.223	79.53
314.437	65.19
314.651	91.82
314.864	50.86
315.078	20.14
315.292	-61.78
315.505	18.09
315.719	22.19
315.933	30.38
316.146	-29.01
316.36	22.19
316.573	-29.01
316.787	44.71
317.001	130.73
317.214	-16.73
317.428	16.04
317.641	-12.63
317.855	-12.63
318.068	-45.4
318.282	69.29
318.495	50.86
318.709	52.91
318.922	-29.01
319.136	26.28
319.349	42.67
319.563	40.62
319.776	63.15
319.99	-31.06
320.203	77.48
320.417	63.15
320.63	65.19
320.843	153.26
321.057	11.95
321.27	-14.68
321.483	50.86
321.697	63.15
321.91	-6.49
322.124	16.04
322.337	5.8
322.55	11.95
322.763	13.99
322.977	3.75
323.19	38.57
323.403	34.47
323.617	28.33
323.83	67.24
324.043	46.76
324.256	50.86
324.469	71.34
324.683	9.9
324.896	67.24
325.109	75.43
325.322	30.38
325.535	-26.96
325.748	32.43
325.962	11.95
326.175	36.52
326.388	26.28
326.601	36.52
326.814	104.11
327.027	-2.39
327.24	91.82
327.453	-51.54
327.666	52.91
327.879	13.99
328.092	1.71
328.305	22.19
328.518	-8.53
328.731	-67.92
328.944	-47.44
329.157	5.8
329.37	26.28
329.583	57
329.796	18.09
330.009	9.9
330.222	13.99
330.435	3.75
330.648	-39.25
330.861	-4.44
331.073	63.15
331.286	59.05
331.499	-43.35
331.712	24.23
331.925	91.82
332.138	24.23
332.35	46.76
332.563	54.95
332.776	61.1
332.989	46.76
333.202	36.52
333.414	7.85
333.627	-2.39
333.84	-24.92
334.053	38.57
334.265	-12.63
334.478	-49.49
334.691	-20.82
334.903	91.82
335.116	-57.68
335.329	59.05
335.541	11.95
335.754	65.19
335.966	-2.39
336.179	52.91
336.392	-63.83
336.604	-2.39
336.817	59.05
337.029	40.62
337.242	13.99
337.454	73.39
337.667	77.48
337.88	54.95
338.092	-37.2
338.305	20.14
338.517	-18.77
338.729	147.11
338.942	59.05
339.154	-47.44
339.367	54.95
339.579	63.15
339.792	30.38
340.004	69.29
340.217	69.29
340.429	30.38
340.641	38.57
340.854	-14.68
341.066	-33.11
341.278	28.33
341.491	18.09
341.703	16.04
341.915	-72.02
342.128	1.71
342.34	-14.68
342.552	5.8
342.764	-4.44
342.977	79.53
343.189	16.04
343.401	30.38
343.613	-12.63
343.826	54.95
344.038	42.67
344.25	30.38
344.462	11.95
344.674	-4.44
344.886	46.76
345.099	54.95
345.311	-53.59
345.523	38.57
345.735	7.85
345.947	26.28
346.159	30.38
346.371	24.23
346.583	3.75
346.795	30.38
347.007	85.67
347.219	52.91
347.431	-39.25
347.643	3.75
347.855	91.82
348.067	106.15
348.279	69.29
348.491	38.57
348.703	28.33
348.915	59.05
349.127	-69.97
349.339	40.62
349.551	-37.2
349.763	57
349.975	16.04
350.187	46.76
350.399	65.19
350.61	100.01
350.822	-2.39
351.034	69.29
351.246	54.95
351.458	46.76
351.669	126.63
351.881	97.96
352.093	44.71
352.305	11.95
352.517	89.77
352.728	13.99
352.94	104.11
353.152	57
353.363	-22.87
353.575	81.58
353.787	65.19
353.999	38.57
354.21	118.44
354.422	24.23
354.633	18.09
354.845	40.62
355.057	-18.77
355.268	34.47
355.48	77.48
355.692	-8.53
355.903	52.91
356.115	7.85
356.326	-10.58
356.538	114.34
356.749	9.9
356.961	22.19
357.172	18.09
357.384	40.62
357.595	153.26
357.807	1.71
358.018	-6.49
358.23	-18.77
358.441	52.91
358.653	52.91
358.864	13.99
359.075	-8.53
359.287	38.57
359.498	116.39
359.709	1.71
359.921	50.86
360.132	26.28
360.344	77.48
360.555	71.34
360.766	54.95
360.977	20.14
361.189	5.8
361.4	44.71
361.611	75.43
361.823	108.2
362.034	75.43
362.245	-39.25
362.456	11.95
362.667	50.86
362.879	85.67
363.09	63.15
363.301	106.15
363.512	61.1
363.723	-33.11
363.935	79.53
364.146	3.75
364.357	9.9
364.568	61.1
364.779	13.99
364.99	9.9
365.201	5.8
365.412	30.38
365.623	11.95
365.834	75.43
366.045	42.67
366.256	32.43
366.467	65.19
366.678	46.76
366.889	20.14
367.1	-24.92
367.311	11.95
367.522	18.09
367.733	-0.34
367.944	46.76
368.155	22.19
368.366	71.34
368.577	69.29
368.788	-10.58
368.999	71.34
369.209	40.62
369.42	50.86
369.631	87.72
369.842	69.29
370.053	97.96
370.264	40.62
370.474	-20.82
370.685	3.75
370.896	71.34
371.107	34.47
371.317	87.72
371.528	26.28
371.739	24.23
371.95	9.9
372.16	75.43
372.371	-6.49
372.582	-14.68
372.792	3.75
373.003	108.2
373.214	100.01
373.424	40.62
373.635	36.52
373.846	71.34
374.056	122.54
374.267	61.1
374.477	63.15
374.688	-41.3
374.898	5.8
375.109	42.67
375.319	50.86
375.53	61.1
375.74	24.23
375.951	73.39
376.161	36.52
376.372	34.47
376.582	32.43
376.793	24.23
377.003	11.95
377.214	112.3
377.424	42.67
377.635	61.1
377.845	-4.44
378.055	126.63
378.266	24.23
378.476	20.14
378.686	11.95
378.897	54.95
379.107	34.47
379.317	85.67
379.528	54.95
379.738	91.82
379.948	48.81
380.158	54.95
380.369	38.57
380.579	50.86
380.789	-2.39
380.999	20.14
381.21	-10.58
381.42	157.35
381.63	-39.25
381.84	36.52
382.05	22.19
382.261	57
382.471	57
382.681	59.05
382.891	54.95
383.101	50.86
383.311	-39.25
383.521	59.05
383.731	87.72
383.941	93.87
384.151	54.95
384.361	-2.39
384.571	57
384.781	40.62
384.991	50.86
385.201	116.39
385.411	40.62
385.621	79.53
385.831	36.52
386.041	61.1
386.251	3.75
386.461	126.63
386.671	-29.01
386.881	48.81
387.091	108.2
387.301	7.85
387.511	11.95
387.72	87.72
387.93	54.95
388.14	-39.25
388.35	59.05
388.56	5.8
388.769	91.82
388.979	28.33
389.189	30.38
389.399	18.09
389.609	116.39
389.818	54.95
390.028	77.48
390.238	42.67
390.447	46.76
390.657	9.9
390.867	46.76
391.076	28.33
391.286	-20.82
391.496	112.3
391.705	7.85
391.915	42.67
392.125	57
392.334	32.43
392.544	54.95
392.753	16.04
392.963	-6.49
393.172	122.54
393.382	32.43
393.591	102.06
393.801	50.86
394.01	89.77
394.22	106.15
394.429	44.71
394.639	-35.16
394.848	50.86
395.058	59.05
395.267	42.67
395.477	85.67
395.686	59.05
395.895	77.48
396.105	132.78
396.314	13.99
396.524	69.29
396.733	67.24
396.942	65.19
397.152	75.43
397.361	73.39
397.57	59.05
397.78	50.86
397.989	114.34
398.198	143.02
398.407	38.57
398.617	54.95
398.826	77.48
399.035	54.95
399.244	57
399.453	91.82
399.663	54.95
399.872	126.63
400.081	-0.34
400.29	149.16
400.499	85.67
400.708	32.43
400.917	106.15
401.127	-10.58
401.336	83.63
401.545	126.63
401.754	157.35
401.963	128.68
402.172	71.34
402.381	85.67
402.59	112.3
402.799	20.14
403.008	153.26
403.217	130.73
403.426	151.21
403.635	69.29
403.844	157.35
404.053	126.63
404.262	95.91
404.471	169.64
404.68	134.82
404.888	118.44
405.097	93.87
405.306	116.39
405.515	112.3
405.724	161.45
405.933	145.06
406.142	83.63
406.35	112.3
406.559	157.35
406.768	122.54
406.977	147.11
407.185	194.22
407.394	251.56
407.603	210.6
407.812	212.65
408.02	315.05
408.229	177.83
408.438	177.83
408.646	175.78
408.855	179.88
409.064	210.6
409.272	235.18
409.481	241.32
409.69	255.65
409.898	239.27
410.107	274.09
410.315	198.31
410.524	255.65
410.733	265.89
410.941	294.57
411.15	401.06
411.358	396.96
411.567	353.96
411.775	439.97
411.984	386.72
412.192	380.58
412.401	411.3
412.609	460.45
412.818	458.4
413.026	466.6
413.234	474.79
413.443	493.22
413.651	454.31
413.86	503.46
414.068	511.65
414.276	554.66
414.485	620.19
414.693	566.95
414.901	587.43
415.11	609.95
415.318	652.96
415.526	640.67
415.734	652.96
415.943	652.96
416.151	804.51
416.359	759.46
416.567	802.46
416.776	808.61
416.984	933.53
417.192	878.24
417.4	806.56
417.608	822.94
417.817	962.2
418.025	1046.17
418.233	1087.13
418.441	960.16
418.649	1048.22
418.857	1193.62
419.065	1248.92
419.273	1156.76
419.481	1283.74
419.689	1300.12
419.897	1265.3
420.105	1412.76
420.313	1449.62
420.521	1490.58
420.729	1619.6
420.937	1564.31
421.145	1511.06
421.353	1738.38
421.561	1740.43
421.769	1717.9
421.977	1900.17
422.185	1767.06
422.393	1910.41
422.601	2094.73
422.809	2127.5
423.017	2168.46
423.224	2219.66
423.432	2215.56
423.64	2297.48
423.848	2475.65
424.056	2305.67
424.263	2563.72
424.471	2600.58
424.679	2682.5
424.887	2774.66
425.094	2895.49
425.302	2823.81
425.51	3077.76
425.718	3073.66
425.925	3065.47
426.133	3157.63
426.341	3444.34
426.548	3462.77
426.756	3470.97
426.964	3630.71
427.171	3769.97
427.379	3894.9
427.586	4015.73
427.794	4007.53
428.001	4298.35
428.209	4439.65
428.417	4376.17
428.624	4808.29
428.832	4658.79
429.039	4630.12
429.247	4523.62
429.454	5109.34
429.662	5451.35
429.869	5105.24
430.076	5516.89
430.284	5291.61
430.491	5690.96
430.699	5858.9
430.906	5746.26
431.114	6012.49
431.321	6106.7
431.528	6342.22
431.736	6602.31
431.943	6991.42
432.15	6780.48
432.358	6895.17
432.565	7331.39
432.772	7343.67
432.979	7487.03
433.187	7652.92
433.394	7779.89
433.601	8295.98
433.808	8377.9
434.016	8240.68
434.223	8711.72
434.43	8904.23
434.637	8900.13
434.844	9463.32
435.052	9522.71
435.259	9537.05
435.466	9530.91
435.673	9561.62
435.88	10262.03
436.087	10733.06
436.294	10753.54
436.501	10569.23
436.708	10604.04
436.915	11263.49
437.122	11593.21
437.329	11474.43
437.537	12162.55
437.743	12154.35
437.95	11871.73
438.157	12439.02
438.364	13131.23
438.571	13149.67
438.778	13127.14
438.985	14069.2
439.192	13778.39
439.399	14292.43
439.606	13901.27
439.813	14785.99
440.02	15678.91
440.227	15275.46
440.433	15044.04
440.64	15625.66
440.847	15431.1
441.054	16104.88
441.261	16911.78
441.467	16840.11
441.674	17118.63
441.881	17530.27
442.088	17550.75
442.294	17421.73
442.501	17862.04
442.708	18181.53
442.914	18988.42
443.121	19445.12
443.328	19359.11
443.534	20505.97
443.741	20018.55
443.948	19592.58
444.154	20966.76
444.361	21259.62
444.568	21196.14
444.774	21407.08
444.981	21339.49
445.187	21810.53
445.394	23131.47
445.6	22867.28
445.807	24818.99
446.013	23575.87
446.22	24182.07
446.426	25187.63
446.633	25126.19
446.839	26189.08
447.046	24956.21
447.252	26428.7
447.459	26664.21
447.665	26090.78
447.871	27299.08
448.078	28761.33
448.284	27235.6
448.491	27813.12
448.697	28734.71
448.903	29502.7
449.11	29560.04
449.316	28673.27
449.522	29865.19
449.728	30606.55
449.935	30610.65
450.141	30395.61
450.347	31227.09
450.553	29893.86
450.76	30776.53
450.966	31364.3
451.172	30889.17
451.378	32115.9
451.584	31116.5
451.791	32160.96
451.997	31995.07
452.203	32105.66
452.409	32586.94
452.615	31925.44
452.821	30880.98
453.027	30817.49
453.233	32269.5
453.44	30758.1
453.646	31089.87
453.852	31065.3
454.058	31859.91
454.264	30434.52
454.47	31501.51
454.676	30379.23
454.882	31474.89
455.088	29058.29
455.294	29492.46
455.5	29709.54
455.705	29850.85
455.911	29140.21
456.117	28431.61
456.323	27849.99
456.529	26285.34
456.735	27518.21
456.941	26776.85
457.147	26328.34
457.352	25519.4
457.558	25216.3
457.764	25257.26
457.97	24812.85
458.176	24405.3
458.381	24249.66
458.587	23061.83
458.793	22834.51
458.999	21912.92
459.204	23170.38
459.41	22713.68
459.616	21050.73
459.821	21198.18
460.027	21177.7
460.233	20923.76
460.438	19774.84
460.644	19768.7
460.85	18666.89
461.055	18986.38
461.261	18632.08
461.466	17122.73
461.672	16723.37
461.878	17857.95
462.083	16692.65
462.289	16584.11
462.494	16201.14
462.7	15515.07
462.905	15248.83
463.111	15742.39
463.316	15607.23
463.522	15601.08
463.727	15562.17
463.932	15500.73
464.138	15396.29
464.343	15279.55
464.549	15027.65
464.754	15531.45
464.959	15267.27
465.165	15209.92
465.37	14513.61
465.575	14142.93
465.781	14874.06
465.986	14740.94
466.191	14212.56
466.397	14036.44
466.602	13497.82
466.807	13909.46
467.012	13751.77
467.218	13686.23
467.423	13563.36
467.628	13845.98
