Data from USB4F104151__65__10-23-59-502.txt Node

Date: Wed Mar 12 10:23:59 EDT 2025
User: louis
Spectrometer: USB4F10415
Trigger mode: 4
Integration Time (sec): 3.000000E-2
Scans to average: 1
Electric dark correction enabled: true
Nonlinearity correction enabled: false
Boxcar width: 0
XAxis mode: Wavelengths
Number of Pixels in Spectrum: 3648
>>>>>Begin Spectral Data<<<<<
178.204	-98.64
178.424	-98.64
178.644	-98.64
178.864	-100.69
179.084	-57.68
179.304	-51.54
179.524	38.57
179.744	75.43
179.964	46.76
180.184	-35.16
180.404	30.38
180.624	1.71
180.844	-10.58
181.064	-100.69
181.283	28.33
181.503	-22.87
181.723	-0.34
181.943	-0.34
182.163	46.76
182.383	-4.44
182.602	-4.44
182.822	73.39
183.042	46.76
183.262	83.63
183.482	13.99
183.701	11.95
183.921	30.38
184.141	7.85
184.361	46.76
184.58	-61.78
184.8	71.34
185.02	132.78
185.239	30.38
185.459	32.43
185.679	-8.53
185.898	-33.11
186.118	44.71
186.338	-6.49
186.557	114.34
186.777	20.14
186.997	61.1
187.216	-12.63
187.436	67.24
187.655	77.48
187.875	9.9
188.095	38.57
188.314	-12.63
188.534	104.11
188.753	16.04
188.973	18.09
189.192	24.23
189.412	30.38
189.631	89.77
189.851	-6.49
190.07	48.81
190.29	-8.53
190.509	63.15
190.729	28.33
190.948	28.33
191.168	63.15
191.387	77.48
191.607	65.19
191.826	-31.06
192.045	38.57
192.265	-8.53
192.484	7.85
192.704	77.48
192.923	97.96
193.142	28.33
193.362	57
193.581	40.62
193.8	67.24
194.02	32.43
194.239	97.96
194.458	-8.53
194.678	57
194.897	-16.73
195.116	50.86
195.335	42.67
195.555	118.44
195.774	65.19
195.993	73.39
196.212	48.81
196.432	-20.82
196.651	-55.64
196.87	54.95
197.089	100.01
197.308	54.95
197.528	-12.63
197.747	28.33
197.966	54.95
198.185	28.33
198.404	28.33
198.623	16.04
198.842	-10.58
199.062	-10.58
199.281	32.43
199.5	-22.87
199.719	-24.92
199.938	-6.49
200.157	44.71
200.376	44.71
200.595	85.67
200.814	-20.82
201.033	24.23
201.252	32.43
201.471	5.8
201.69	42.67
201.909	52.91
202.128	-26.96
202.347	50.86
202.566	38.57
202.785	-4.44
203.004	63.15
203.223	140.97
203.442	48.81
203.661	5.8
203.879	-16.73
204.098	40.62
204.317	-65.88
204.536	91.82
204.755	73.39
204.974	104.11
205.193	-0.34
205.411	79.53
205.63	65.19
205.849	75.43
206.068	1.71
206.287	-20.82
206.505	16.04
206.724	22.19
206.943	20.14
207.162	46.76
207.381	46.76
207.599	89.77
207.818	65.19
208.037	63.15
208.255	16.04
208.474	-33.11
208.693	18.09
208.911	3.75
209.13	26.28
209.349	-24.92
209.567	100.01
209.786	44.71
210.005	75.43
210.223	16.04
210.442	5.8
210.661	20.14
210.879	-12.63
211.098	85.67
211.316	36.52
211.535	-2.39
211.753	20.14
211.972	-35.16
212.191	85.67
212.409	28.33
212.628	-33.11
212.846	26.28
213.065	71.34
213.283	77.48
213.502	16.04
213.72	89.77
213.938	52.91
214.157	57
214.375	61.1
214.594	63.15
214.812	77.48
215.031	9.9
215.249	40.62
215.467	63.15
215.686	61.1
215.904	79.53
216.122	7.85
216.341	93.87
216.559	7.85
216.778	34.47
216.996	36.52
217.214	22.19
217.432	42.67
217.651	-24.92
217.869	-37.2
218.087	97.96
218.306	28.33
218.524	71.34
218.742	-10.58
218.96	28.33
219.179	7.85
219.397	13.99
219.615	52.91
219.833	69.29
220.051	81.58
220.27	54.95
220.488	59.05
220.706	40.62
220.924	52.91
221.142	79.53
221.36	42.67
221.578	24.23
221.796	24.23
222.015	-35.16
222.233	73.39
222.451	63.15
222.669	30.38
222.887	40.62
223.105	-45.4
223.323	36.52
223.541	-61.78
223.759	57
223.977	44.71
224.195	65.19
224.413	52.91
224.631	-6.49
224.849	7.85
225.067	52.91
225.285	38.57
225.503	85.67
225.721	-106.84
225.939	140.97
226.157	69.29
226.375	120.49
226.592	-31.06
226.81	40.62
227.028	61.1
227.246	110.25
227.464	48.81
227.682	-2.39
227.9	16.04
228.117	-24.92
228.335	106.15
228.553	63.15
228.771	75.43
228.989	11.95
229.206	-41.3
229.424	69.29
229.642	50.86
229.86	38.57
230.077	81.58
230.295	42.67
230.513	77.48
230.731	22.19
230.948	79.53
231.166	116.39
231.384	-18.77
231.601	118.44
231.819	-6.49
232.037	-45.4
232.254	18.09
232.472	-0.34
232.689	-24.92
232.907	73.39
233.125	7.85
233.342	-35.16
233.56	81.58
233.777	-2.39
233.995	73.39
234.213	114.34
234.43	5.8
234.648	32.43
234.865	102.06
235.083	22.19
235.3	9.9
235.518	24.23
235.735	81.58
235.953	77.48
236.17	7.85
236.388	3.75
236.605	40.62
236.822	69.29
237.04	54.95
237.257	30.38
237.475	24.23
237.692	3.75
237.909	59.05
238.127	100.01
238.344	73.39
238.562	63.15
238.779	36.52
238.996	22.19
239.214	-29.01
239.431	36.52
239.648	91.82
239.865	32.43
240.083	91.82
240.3	81.58
240.517	-24.92
240.735	32.43
240.952	40.62
241.169	3.75
241.386	79.53
241.603	36.52
241.821	54.95
242.038	7.85
242.255	18.09
242.472	40.62
242.689	65.19
242.907	65.19
243.124	-16.73
243.341	16.04
243.558	30.38
243.775	132.78
243.992	5.8
244.209	79.53
244.426	26.28
244.643	79.53
244.86	5.8
245.078	93.87
245.295	52.91
245.512	36.52
245.729	-57.68
245.946	18.09
246.163	52.91
246.38	52.91
246.597	71.34
246.814	38.57
247.031	-24.92
247.248	61.1
247.464	30.38
247.681	67.24
247.898	52.91
248.115	69.29
248.332	48.81
248.549	65.19
248.766	134.82
248.983	77.48
249.2	50.86
249.417	24.23
249.633	-8.53
249.85	73.39
250.067	28.33
250.284	42.67
250.501	69.29
250.717	102.06
250.934	-2.39
251.151	20.14
251.368	63.15
251.585	20.14
251.801	-16.73
252.018	-29.01
252.235	100.01
252.451	100.01
252.668	26.28
252.885	52.91
253.102	24.23
253.318	16.04
253.535	24.23
253.752	9.9
253.968	42.67
254.185	30.38
254.401	-49.49
254.618	143.02
254.835	59.05
255.051	42.67
255.268	30.38
255.484	-18.77
255.701	20.14
255.917	83.63
256.134	18.09
256.351	46.76
256.567	-49.49
256.784	95.91
257	-18.77
257.217	95.91
257.433	-29.01
257.65	108.2
257.866	26.28
258.082	16.04
258.299	5.8
258.515	165.54
258.732	-10.58
258.948	50.86
259.165	3.75
259.381	65.19
259.597	65.19
259.814	-0.34
260.03	50.86
260.246	61.1
260.463	114.34
260.679	106.15
260.895	1.71
261.112	65.19
261.328	46.76
261.544	3.75
261.761	16.04
261.977	32.43
262.193	13.99
262.409	13.99
262.626	-2.39
262.842	20.14
263.058	36.52
263.274	1.71
263.49	40.62
263.707	91.82
263.923	20.14
264.139	-47.44
264.355	-8.53
264.571	81.58
264.787	7.85
265.004	16.04
265.22	40.62
265.436	3.75
265.652	-31.06
265.868	65.19
266.084	54.95
266.3	44.71
266.516	-59.73
266.732	46.76
266.948	36.52
267.164	81.58
267.38	61.1
267.596	9.9
267.812	132.78
268.028	16.04
268.244	1.71
268.46	34.47
268.676	93.87
268.892	81.58
269.108	-14.68
269.324	-14.68
269.54	48.81
269.756	81.58
269.972	20.14
270.188	-20.82
270.403	18.09
270.619	36.52
270.835	95.91
271.051	57
271.267	32.43
271.483	-35.16
271.698	40.62
271.914	87.72
272.13	69.29
272.346	73.39
272.562	52.91
272.777	61.1
272.993	-12.63
273.209	57
273.425	22.19
273.64	20.14
273.856	20.14
274.072	-41.3
274.287	73.39
274.503	-8.53
274.719	57
274.934	3.75
275.15	83.63
275.366	77.48
275.581	3.75
275.797	13.99
276.012	50.86
276.228	44.71
276.444	-31.06
276.659	108.2
276.875	26.28
277.09	114.34
277.306	59.05
277.521	116.39
277.737	67.24
277.952	46.76
278.168	93.87
278.383	42.67
278.599	95.91
278.814	24.23
279.03	-20.82
279.245	77.48
279.461	30.38
279.676	54.95
279.892	9.9
280.107	42.67
280.322	42.67
280.538	85.67
280.753	18.09
280.969	108.2
281.184	20.14
281.399	46.76
281.615	-0.34
281.83	65.19
282.045	44.71
282.26	50.86
282.476	20.14
282.691	79.53
282.906	20.14
283.122	102.06
283.337	42.67
283.552	79.53
283.767	83.63
283.983	104.11
284.198	79.53
284.413	118.44
284.628	3.75
284.843	3.75
285.058	65.19
285.274	7.85
285.489	63.15
285.704	69.29
285.919	-63.83
286.134	65.19
286.349	38.57
286.564	30.38
286.779	128.68
286.995	63.15
287.21	54.95
287.425	-8.53
287.64	-39.25
287.855	26.28
288.07	36.52
288.285	130.73
288.5	61.1
288.715	130.73
288.93	36.52
289.145	3.75
289.36	118.44
289.575	42.67
289.79	81.58
290.004	67.24
290.219	-14.68
290.434	32.43
290.649	-0.34
290.864	28.33
291.079	-31.06
291.294	-24.92
291.509	32.43
291.724	44.71
291.938	-24.92
292.153	26.28
292.368	7.85
292.583	75.43
292.798	-14.68
293.012	-47.44
293.227	128.68
293.442	40.62
293.657	61.1
293.871	73.39
294.086	30.38
294.301	122.54
294.516	40.62
294.73	30.38
294.945	40.62
295.16	57
295.374	124.58
295.589	54.95
295.804	26.28
296.018	20.14
296.233	73.39
296.447	11.95
296.662	-26.96
296.877	16.04
297.091	54.95
297.306	48.81
297.52	59.05
297.735	54.95
297.949	106.15
298.164	136.87
298.378	-6.49
298.593	-4.44
298.807	36.52
299.022	57
299.236	87.72
299.451	73.39
299.665	24.23
299.88	65.19
300.094	48.81
300.309	-8.53
300.523	48.81
300.737	7.85
300.952	-0.34
301.166	34.47
301.381	28.33
301.595	-12.63
301.809	48.81
302.024	16.04
302.238	59.05
302.452	102.06
302.667	13.99
302.881	67.24
303.095	114.34
303.309	44.71
303.524	-12.63
303.738	65.19
303.952	79.53
304.166	9.9
304.381	-14.68
304.595	32.43
304.809	20.14
305.023	13.99
305.237	44.71
305.452	38.57
305.666	77.48
305.88	52.91
306.094	71.34
306.308	-35.16
306.522	54.95
306.736	71.34
306.95	89.77
307.164	40.62
307.379	57
307.593	140.97
307.807	32.43
308.021	16.04
308.235	-43.35
308.449	48.81
308.663	112.3
308.877	73.39
309.091	67.24
309.305	7.85
309.519	-8.53
309.733	48.81
309.947	61.1
310.161	-6.49
310.374	73.39
310.588	36.52
310.802	18.09
311.016	79.53
311.23	65.19
311.444	63.15
311.658	28.33
311.872	93.87
312.085	13.99
312.299	100.01
312.513	50.86
312.727	16.04
312.941	11.95
313.154	36.52
313.368	63.15
313.582	-10.58
313.796	69.29
314.009	102.06
314.223	46.76
314.437	-24.92
314.651	48.81
314.864	71.34
315.078	-6.49
315.292	38.57
315.505	59.05
315.719	63.15
315.933	7.85
316.146	73.39
316.36	-39.25
316.573	100.01
316.787	118.44
317.001	40.62
317.214	-0.34
317.428	81.58
317.641	-8.53
317.855	132.78
318.068	30.38
318.282	59.05
318.495	81.58
318.709	46.76
318.922	71.34
319.136	114.34
319.349	40.62
319.563	30.38
319.776	42.67
319.99	3.75
320.203	26.28
320.417	34.47
320.63	24.23
320.843	75.43
321.057	75.43
321.27	-10.58
321.483	71.34
321.697	30.38
321.91	11.95
322.124	54.95
322.337	-33.11
322.55	7.85
322.763	54.95
322.977	73.39
323.19	73.39
323.403	75.43
323.617	89.77
323.83	57
324.043	114.34
324.256	59.05
324.469	-24.92
324.683	57
324.896	-51.54
325.109	95.91
325.322	-55.64
325.535	11.95
325.748	73.39
325.962	65.19
326.175	52.91
326.388	30.38
326.601	32.43
326.814	48.81
327.027	97.96
327.24	69.29
327.453	32.43
327.666	-12.63
327.879	50.86
328.092	30.38
328.305	22.19
328.518	67.24
328.731	91.82
328.944	54.95
329.157	71.34
329.37	48.81
329.583	143.02
329.796	87.72
330.009	89.77
330.222	1.71
330.435	5.8
330.648	69.29
330.861	-10.58
331.073	-12.63
331.286	32.43
331.499	63.15
331.712	36.52
331.925	91.82
332.138	28.33
332.35	100.01
332.563	54.95
332.776	34.47
332.989	11.95
333.202	97.96
333.414	59.05
333.627	30.38
333.84	42.67
334.053	106.15
334.265	-8.53
334.478	54.95
334.691	32.43
334.903	32.43
335.116	38.57
335.329	20.14
335.541	69.29
335.754	57
335.966	3.75
336.179	93.87
336.392	81.58
336.604	97.96
336.817	65.19
337.029	102.06
337.242	32.43
337.454	36.52
337.667	24.23
337.88	126.63
338.092	71.34
338.305	-10.58
338.517	36.52
338.729	100.01
338.942	63.15
339.154	130.73
339.367	-4.44
339.579	-0.34
339.792	83.63
340.004	83.63
340.217	130.73
340.429	65.19
340.641	54.95
340.854	69.29
341.066	54.95
341.278	104.11
341.491	69.29
341.703	24.23
341.915	65.19
342.128	75.43
342.34	91.82
342.552	-29.01
342.764	87.72
342.977	77.48
343.189	50.86
343.401	40.62
343.613	30.38
343.826	73.39
344.038	57
344.25	30.38
344.462	13.99
344.674	81.58
344.886	-6.49
345.099	32.43
345.311	-37.2
345.523	3.75
345.735	65.19
345.947	16.04
346.159	50.86
346.371	69.29
346.583	69.29
346.795	95.91
347.007	73.39
347.219	57
347.431	83.63
347.643	42.67
347.855	28.33
348.067	81.58
348.279	63.15
348.491	110.25
348.703	73.39
348.915	110.25
349.127	106.15
349.339	75.43
349.551	69.29
349.763	122.54
349.975	-20.82
350.187	108.2
350.399	122.54
350.61	-16.73
350.822	50.86
351.034	61.1
351.246	-8.53
351.458	52.91
351.669	38.57
351.881	79.53
352.093	57
352.305	48.81
352.517	42.67
352.728	106.15
352.94	108.2
353.152	65.19
353.363	13.99
353.575	77.48
353.787	130.73
353.999	16.04
354.21	100.01
354.422	22.19
354.633	24.23
354.845	71.34
355.057	26.28
355.268	50.86
355.48	100.01
355.692	93.87
355.903	67.24
356.115	-18.77
356.326	81.58
356.538	97.96
356.749	89.77
356.961	93.87
357.172	93.87
357.384	50.86
357.595	104.11
357.807	50.86
358.018	26.28
358.23	50.86
358.441	106.15
358.653	54.95
358.864	75.43
359.075	63.15
359.287	112.3
359.498	106.15
359.709	7.85
359.921	54.95
360.132	93.87
360.344	91.82
360.555	52.91
360.766	73.39
360.977	16.04
361.189	79.53
361.4	91.82
361.611	85.67
361.823	40.62
362.034	42.67
362.245	-37.2
362.456	79.53
362.667	13.99
362.879	122.54
363.09	81.58
363.301	65.19
363.512	48.81
363.723	16.04
363.935	104.11
364.146	122.54
364.357	50.86
364.568	85.67
364.779	20.14
364.99	138.92
365.201	57
365.412	108.2
365.623	16.04
365.834	83.63
366.045	24.23
366.256	48.81
366.467	40.62
366.678	18.09
366.889	61.1
367.1	69.29
367.311	65.19
367.522	52.91
367.733	110.25
367.944	18.09
368.155	-14.68
368.366	61.1
368.577	87.72
368.788	81.58
368.999	20.14
369.209	83.63
369.42	-0.34
369.631	159.4
369.842	97.96
370.053	71.34
370.264	-12.63
370.474	9.9
370.685	85.67
370.896	104.11
371.107	69.29
371.317	52.91
371.528	44.71
371.739	63.15
371.95	91.82
372.16	85.67
372.371	7.85
372.582	77.48
372.792	112.3
373.003	97.96
373.214	38.57
373.424	57
373.635	5.8
373.846	171.69
374.056	65.19
374.267	28.33
374.477	108.2
374.688	24.23
374.898	116.39
375.109	104.11
375.319	65.19
375.53	112.3
375.74	44.71
375.951	71.34
376.161	73.39
376.372	114.34
376.582	18.09
376.793	42.67
377.003	-69.97
377.214	-55.64
377.424	44.71
377.635	36.52
377.845	18.09
378.055	79.53
378.266	-0.34
378.476	48.81
378.686	67.24
378.897	46.76
379.107	153.26
379.317	32.43
379.528	114.34
379.738	22.19
379.948	65.19
380.158	140.97
380.369	1.71
380.579	32.43
380.789	36.52
380.999	79.53
381.21	61.1
381.42	132.78
381.63	59.05
381.84	110.25
382.05	89.77
382.261	73.39
382.471	112.3
382.681	104.11
382.891	147.11
383.101	-14.68
383.311	5.8
383.521	1.71
383.731	71.34
383.941	71.34
384.151	61.1
384.361	69.29
384.571	110.25
384.781	-8.53
384.991	63.15
385.201	57
385.411	163.5
385.621	65.19
385.831	9.9
386.041	44.71
386.251	32.43
386.461	71.34
386.671	134.82
386.881	77.48
387.091	13.99
387.301	108.2
387.511	87.72
387.72	24.23
387.93	118.44
388.14	83.63
388.35	52.91
388.56	40.62
388.769	130.73
388.979	-2.39
389.189	11.95
389.399	95.91
389.609	81.58
389.818	104.11
390.028	108.2
390.238	122.54
390.447	81.58
390.657	159.4
390.867	28.33
391.076	118.44
391.286	114.34
391.496	169.64
391.705	65.19
391.915	114.34
392.125	36.52
392.334	89.77
392.544	87.72
392.753	95.91
392.963	50.86
393.172	13.99
393.382	120.49
393.591	83.63
393.801	24.23
394.01	161.45
394.22	87.72
394.429	102.06
394.639	7.85
394.848	112.3
395.058	151.21
395.267	108.2
395.477	106.15
395.686	104.11
395.895	130.73
396.105	114.34
396.314	20.14
396.524	114.34
396.733	134.82
396.942	200.36
397.152	102.06
397.361	165.54
397.57	65.19
397.78	97.96
397.989	75.43
398.198	188.07
398.407	48.81
398.617	83.63
398.826	108.2
399.035	85.67
399.244	36.52
399.453	44.71
399.663	118.44
399.872	165.54
400.081	87.72
400.29	112.3
400.499	112.3
400.708	169.64
400.917	36.52
401.127	118.44
401.336	30.38
401.545	124.58
401.754	196.26
401.963	91.82
402.172	122.54
402.381	93.87
402.59	122.54
402.799	102.06
403.008	106.15
403.217	118.44
403.426	104.11
403.635	151.21
403.844	87.72
404.053	79.53
404.262	151.21
404.471	136.87
404.68	200.36
404.888	204.46
405.097	145.06
405.306	186.02
405.515	143.02
405.724	145.06
405.933	179.88
406.142	134.82
406.35	190.12
406.559	216.74
406.768	272.04
406.977	253.61
407.185	237.22
407.394	220.84
407.603	136.87
407.812	229.03
408.02	224.94
408.229	237.22
408.438	245.41
408.646	239.27
408.855	245.41
409.064	298.66
409.272	333.48
409.481	362.15
409.69	349.86
409.898	286.37
410.107	366.25
410.315	362.15
410.524	333.48
410.733	347.81
410.941	302.76
411.15	358.05
411.358	380.58
411.567	423.59
411.775	419.49
411.984	464.55
412.192	480.93
412.401	468.64
412.609	558.75
412.818	554.66
413.026	589.47
413.234	466.6
413.443	491.17
413.651	603.81
413.86	556.71
414.068	638.62
414.276	655.01
414.485	593.57
414.693	726.69
414.901	716.45
415.11	775.84
415.318	614.05
415.526	720.54
415.734	736.93
415.943	835.23
416.151	876.19
416.359	786.08
416.567	878.24
416.776	913.05
416.984	929.44
417.192	990.88
417.4	931.48
417.608	1070.75
417.817	1085.08
418.025	1097.37
418.233	1146.52
418.441	1167
418.649	1216.15
418.857	1353.37
419.065	1293.97
419.273	1273.5
419.481	1343.13
419.689	1463.96
419.897	1523.35
420.105	1605.27
420.313	1697.42
420.521	1646.23
420.729	1590.93
420.937	1693.33
421.145	1793.68
421.353	1877.65
421.561	1910.41
421.769	1973.9
421.977	2119.31
422.185	2014.86
422.393	2031.24
422.601	2270.86
422.809	2195.08
423.017	2330.25
423.224	2346.63
423.432	2463.37
423.64	2483.84
423.848	2731.65
424.056	2576
424.263	2838.14
424.471	2838.14
424.679	2946.69
424.887	3094.14
425.094	3198.59
425.302	3210.87
425.51	3264.12
425.718	3319.42
425.925	3530.36
426.133	3663.47
426.341	3847.79
426.548	3980.91
426.756	3937.9
426.964	3923.57
427.171	4327.02
427.379	4431.46
427.586	4503.14
427.794	4460.13
428.001	4767.33
428.209	4853.34
428.417	4890.21
428.624	5152.35
428.832	5273.18
429.039	5111.39
429.247	5242.46
429.454	5633.62
429.662	5901.9
429.869	5666.39
430.076	5879.38
430.284	5819.99
430.491	6176.33
430.699	6397.51
430.906	6436.42
431.114	6696.52
431.321	6927.94
431.528	6993.47
431.736	7380.54
431.943	7642.68
432.15	7435.83
432.358	7546.42
432.565	8095.28
432.772	7929.39
432.979	8386.09
433.187	8457.77
433.394	8500.78
433.601	9205.28
433.808	9225.76
434.016	8955.43
434.223	9520.67
434.43	9987.6
434.637	9604.63
434.844	10466.83
435.052	10743.3
435.259	10540.55
435.466	10544.65
435.673	10491.4
435.88	11259.39
436.087	11845.11
436.294	11804.15
436.501	11576.83
436.708	11738.62
436.915	12174.83
437.122	12793.32
437.329	12879.33
437.537	13254.11
437.743	13522.4
437.95	13243.87
438.157	13931.99
438.364	14419.41
438.571	14460.37
438.778	14562.76
438.985	15758.78
439.192	15261.12
439.399	15832.51
439.606	15232.45
439.813	16287.15
440.02	17077.67
440.227	16829.87
440.433	16854.44
440.64	17188.26
440.847	17126.82
441.054	17565.09
441.261	18568.59
441.467	18400.66
441.674	18793.87
441.881	19441.03
442.088	19402.11
442.294	19410.31
442.501	19660.16
442.708	20086.14
442.914	21103.98
443.121	22076.76
443.328	21122.41
443.534	22865.23
443.741	22009.18
443.948	21599.59
444.154	23201.1
444.361	23149.9
444.568	23401.8
444.774	23174.47
444.981	23371.08
445.187	24214.84
445.394	25161
445.6	24823.09
445.807	27147.53
446.013	26529.05
446.22	26400.02
446.426	27688.2
446.633	27727.11
446.839	28472.57
447.046	27317.51
447.252	28908.79
447.459	28845.3
447.665	28814.58
447.871	30293.21
448.078	31337.68
448.284	29971.68
448.491	30950.61
448.697	31767.75
448.903	32101.57
449.11	32509.11
449.316	31517.9
449.522	32304.32
449.728	33535.15
449.935	33572.01
450.141	33336.49
450.347	34137.25
450.553	32828.6
450.76	33498.28
450.966	34249.89
451.172	33760.42
451.378	34509.98
451.584	34391.2
451.791	35005.59
451.997	35052.69
452.203	35331.22
452.409	35402.89
452.615	35234.96
452.821	33848.49
453.027	33588.39
453.233	35069.08
453.44	33770.66
453.646	33981.6
453.852	34311.33
454.058	35062.93
454.264	33662.12
454.47	34458.78
454.676	33418.41
454.882	34774.17
455.088	31667.4
455.294	32189.63
455.5	32810.17
455.705	32609.47
455.911	31720.65
456.117	31130.83
456.323	30614.74
456.529	29000.94
456.735	30276.83
456.941	29177.07
457.147	28593.4
457.352	28026.11
457.558	27706.63
457.764	27374.86
457.97	27381
458.176	26723.6
458.381	26873.1
458.587	25105.71
458.793	25109.8
458.999	23598.4
459.204	25523.49
459.41	24689.97
459.616	23153.99
459.821	23289.16
460.027	23291.21
460.233	22777.17
460.438	21615.97
460.644	21566.82
460.85	20991.34
461.055	20577.65
461.261	20342.13
461.466	18826.64
461.672	18238.87
461.878	19772.8
462.083	18582.93
462.289	17776.03
462.494	17614.24
462.7	17284.51
462.905	16848.3
463.111	17431.97
463.316	17253.8
463.522	16917.93
463.727	16969.13
463.932	17001.9
464.138	16721.32
464.343	16938.41
464.549	16274.87
464.754	16899.5
464.959	16745.9
465.165	16416.18
465.37	15963.58
465.575	15574.46
465.781	16215.48
465.986	16051.64
466.191	15648.19
466.397	15422.91
466.602	14656.97
466.807	15205.83
467.012	15123.91
467.218	14859.72
467.423	14812.62
