Data from USB4F104151__54__10-23-43-274.txt Node

Date: Wed Mar 12 10:23:43 EDT 2025
User: louis
Spectrometer: USB4F10415
Trigger mode: 4
Integration Time (sec): 3.000000E-2
Scans to average: 1
Electric dark correction enabled: true
Nonlinearity correction enabled: false
Boxcar width: 0
XAxis mode: Wavelengths
Number of Pixels in Spectrum: 3648
>>>>>Begin Spectral Data<<<<<
178.204	-88.06
178.424	-88.06
178.644	-88.06
178.864	-153.6
179.084	-81.92
179.304	-49.15
179.524	-26.62
179.744	32.77
179.964	65.53
180.184	28.67
180.404	-20.48
180.624	-71.68
180.844	61.44
181.064	-43.01
181.283	16.38
181.503	-10.24
181.723	16.38
181.943	-43.01
182.163	38.91
182.383	-16.38
182.602	45.06
182.822	-36.86
183.042	43.01
183.262	6.14
183.482	34.82
183.701	6.14
183.921	86.01
184.141	30.72
184.361	43.01
184.58	38.91
184.8	-65.54
185.02	8.19
185.239	45.06
185.459	53.25
185.679	6.14
185.898	6.14
186.118	-38.91
186.338	-2.05
186.557	61.44
186.777	16.38
186.997	18.43
187.216	-40.96
187.436	118.78
187.655	12.29
187.875	40.96
188.095	55.3
188.314	100.35
188.534	110.59
188.753	-34.82
188.973	90.11
189.192	-24.58
189.412	45.06
189.631	59.39
189.851	-10.24
190.07	-16.38
190.29	30.72
190.509	6.14
190.729	-47.1
190.948	90.11
191.168	40.96
191.387	49.15
191.607	-51.2
191.826	6.14
192.045	-90.11
192.265	-69.63
192.484	49.15
192.704	-20.48
192.923	34.82
193.142	32.77
193.362	12.29
193.581	77.82
193.8	65.53
194.02	43.01
194.239	55.3
194.458	55.3
194.678	32.77
194.897	6.14
195.116	10.24
195.335	71.68
195.555	32.77
195.774	10.24
195.993	77.82
196.212	32.77
196.432	94.21
196.651	18.43
196.87	32.77
197.089	71.68
197.308	-2.05
197.528	57.34
197.747	-49.15
197.966	22.53
198.185	40.96
198.404	8.19
198.623	88.06
198.842	22.53
199.062	57.34
199.281	45.06
199.5	12.29
199.719	-8.19
199.938	53.25
200.157	-8.19
200.376	20.48
200.595	12.29
200.814	-12.29
201.033	43.01
201.252	45.06
201.471	-10.24
201.69	12.29
201.909	32.77
202.128	16.38
202.347	40.96
202.566	-34.82
202.785	83.97
203.004	-0
203.223	26.62
203.442	36.86
203.661	12.29
203.879	57.34
204.098	24.58
204.317	22.53
204.536	69.63
204.755	-34.82
204.974	22.53
205.193	-59.39
205.411	16.38
205.63	-0
205.849	20.48
206.068	53.25
206.287	40.96
206.505	61.44
206.724	49.15
206.943	-49.15
207.162	81.92
207.381	18.43
207.599	24.58
207.818	40.96
208.037	36.86
208.255	-49.15
208.474	12.29
208.693	12.29
208.911	53.25
209.13	14.34
209.349	26.62
209.567	47.1
209.786	-6.14
210.005	67.58
210.223	-14.34
210.442	61.44
210.661	6.14
210.879	18.43
211.098	73.73
211.316	-12.29
211.535	16.38
211.753	-4.1
211.972	43.01
212.191	-18.43
212.409	12.29
212.628	36.86
212.846	16.38
213.065	14.34
213.283	16.38
213.502	77.82
213.72	14.34
213.938	-2.05
214.157	63.49
214.375	-26.62
214.594	-16.38
214.812	81.92
215.031	32.77
215.249	-22.53
215.467	-32.77
215.686	-26.62
215.904	40.96
216.122	-22.53
216.341	24.58
216.559	-8.19
216.778	28.67
216.996	67.58
217.214	81.92
217.432	40.96
217.651	-43.01
217.869	-18.43
218.087	28.67
218.306	-24.58
218.524	32.77
218.742	12.29
218.96	69.63
219.179	-51.2
219.397	26.62
219.615	88.06
219.833	-40.96
220.051	14.34
220.27	18.43
220.488	69.63
220.706	-63.49
220.924	12.29
221.142	8.19
221.36	-20.48
221.578	24.58
221.796	4.1
222.015	-8.19
222.233	40.96
222.451	8.19
222.669	-4.1
222.887	57.34
223.105	81.92
223.323	43.01
223.541	-51.2
223.759	45.06
223.977	32.77
224.195	65.53
224.413	-16.38
224.631	-32.77
224.849	6.14
225.067	92.16
225.285	55.3
225.503	49.15
225.721	6.14
225.939	-2.05
226.157	16.38
226.375	86.01
226.592	133.12
226.81	10.24
227.028	40.96
227.246	96.25
227.464	26.62
227.682	49.15
227.9	49.15
228.117	12.29
228.335	30.72
228.553	59.39
228.771	16.38
228.989	59.39
229.206	34.82
229.424	34.82
229.642	-2.05
229.86	22.53
230.077	6.14
230.295	24.58
230.513	6.14
230.731	24.58
230.948	40.96
231.166	43.01
231.384	53.25
231.601	43.01
231.819	51.2
232.037	10.24
232.254	-10.24
232.472	104.45
232.689	12.29
232.907	-14.34
233.125	-14.34
233.342	20.48
233.56	-34.82
233.777	8.19
233.995	18.43
234.213	12.29
234.43	98.3
234.648	61.44
234.865	59.39
235.083	47.1
235.3	106.49
235.518	32.77
235.735	67.58
235.953	73.73
236.17	18.43
236.388	-18.43
236.605	12.29
236.822	40.96
237.04	-2.05
237.257	22.53
237.475	94.21
237.692	30.72
237.909	59.39
238.127	22.53
238.344	-30.72
238.562	28.67
238.779	10.24
238.996	-22.53
239.214	4.1
239.431	59.39
239.648	-16.38
239.865	96.25
240.083	63.49
240.3	8.19
240.517	-0
240.735	61.44
240.952	-16.38
241.169	-0
241.386	36.86
241.603	12.29
241.821	47.1
242.038	90.11
242.255	-24.58
242.472	22.53
242.689	53.25
242.907	116.73
243.124	14.34
243.341	108.54
243.558	28.67
243.775	20.48
243.992	8.19
244.209	30.72
244.426	-24.58
244.643	69.63
244.86	12.29
245.078	40.96
245.295	24.58
245.512	38.91
245.729	69.63
245.946	161.79
246.163	55.3
246.38	34.82
246.597	40.96
246.814	-36.86
247.031	69.63
247.248	69.63
247.464	18.43
247.681	47.1
247.898	59.39
248.115	75.77
248.332	49.15
248.549	49.15
248.766	135.17
248.983	14.34
249.2	8.19
249.417	8.19
249.633	2.05
249.85	67.58
250.067	73.73
250.284	77.82
250.501	4.1
250.717	86.01
250.934	-0
251.151	28.67
251.368	24.58
251.585	57.34
251.801	20.48
252.018	2.05
252.235	65.53
252.451	-10.24
252.668	40.96
252.885	22.53
253.102	59.39
253.318	30.72
253.535	45.06
253.752	-43.01
253.968	34.82
254.185	-49.15
254.401	-4.1
254.618	32.77
254.835	63.49
255.051	-0
255.268	24.58
255.484	47.1
255.701	-6.14
255.917	20.48
256.134	22.53
256.351	28.67
256.567	24.58
256.784	83.97
257	-22.53
257.217	32.77
257.433	65.53
257.65	-12.29
257.866	16.38
258.082	28.67
258.299	8.19
258.515	36.86
258.732	-22.53
258.948	12.29
259.165	83.97
259.381	-45.06
259.597	98.3
259.814	92.16
260.03	65.53
260.246	6.14
260.463	71.68
260.679	51.2
260.895	79.87
261.112	55.3
261.328	57.34
261.544	-81.92
261.761	106.49
261.977	12.29
262.193	-4.1
262.409	61.44
262.626	-10.24
262.842	8.19
263.058	32.77
263.274	-30.72
263.49	45.06
263.707	18.43
263.923	59.39
264.139	20.48
264.355	-14.34
264.571	47.1
264.787	96.25
265.004	61.44
265.22	2.05
265.436	12.29
265.652	-4.1
265.868	30.72
266.084	2.05
266.3	12.29
266.516	34.82
266.732	49.15
266.948	47.1
267.164	77.82
267.38	40.96
267.596	61.44
267.812	75.77
268.028	22.53
268.244	51.2
268.46	40.96
268.676	8.19
268.892	57.34
269.108	14.34
269.324	36.86
269.54	-18.43
269.756	28.67
269.972	61.44
270.188	-30.72
270.403	-26.62
270.619	45.06
270.835	4.1
271.051	36.86
271.267	-12.29
271.483	-49.15
271.698	36.86
271.914	45.06
272.13	8.19
272.346	45.06
272.562	4.1
272.777	106.49
272.993	59.39
273.209	-4.1
273.425	16.38
273.64	-4.1
273.856	12.29
274.072	-0
274.287	-22.53
274.503	51.2
274.719	32.77
274.934	61.44
275.15	-40.96
275.366	38.91
275.581	-43.01
275.797	6.14
276.012	118.78
276.228	-67.58
276.444	28.67
276.659	96.25
276.875	2.05
277.09	4.1
277.306	53.25
277.521	61.44
277.737	-32.77
277.952	-4.1
278.168	2.05
278.383	-6.14
278.599	67.58
278.814	-24.58
279.03	22.53
279.245	24.58
279.461	34.82
279.676	137.21
279.892	-24.58
280.107	-12.29
280.322	14.34
280.538	-24.58
280.753	-14.34
280.969	65.53
281.184	14.34
281.399	36.86
281.615	81.92
281.83	61.44
282.045	-8.19
282.26	-18.43
282.476	90.11
282.691	114.69
282.906	-36.86
283.122	-40.96
283.337	-0
283.552	38.91
283.767	32.77
283.983	40.96
284.198	45.06
284.413	57.34
284.628	83.97
284.843	-24.58
285.058	16.38
285.274	-59.39
285.489	24.58
285.704	59.39
285.919	6.14
286.134	-24.58
286.349	12.29
286.564	-24.58
286.779	55.3
286.995	28.67
287.21	-18.43
287.425	47.1
287.64	36.86
287.855	75.77
288.07	-18.43
288.285	-2.05
288.5	-32.77
288.715	-43.01
288.93	114.69
289.145	94.21
289.36	67.58
289.575	-22.53
289.79	59.39
290.004	8.19
290.219	24.58
290.434	-4.1
290.649	-51.2
290.864	12.29
291.079	4.1
291.294	45.06
291.509	69.63
291.724	12.29
291.938	57.34
292.153	40.96
292.368	-36.86
292.583	69.63
292.798	28.67
293.012	-24.58
293.227	104.45
293.442	53.25
293.657	14.34
293.871	59.39
294.086	-24.58
294.301	100.35
294.516	10.24
294.73	-32.77
294.945	79.87
295.16	-4.1
295.374	90.11
295.589	65.53
295.804	53.25
296.018	86.01
296.233	53.25
296.447	34.82
296.662	14.34
296.877	55.3
297.091	45.06
297.306	30.72
297.52	47.1
297.735	67.58
297.949	86.01
298.164	112.64
298.378	55.3
298.593	57.34
298.807	69.63
299.022	98.3
299.236	49.15
299.451	86.01
299.665	61.44
299.88	47.1
300.094	69.63
300.309	73.73
300.523	-32.77
300.737	79.87
300.952	51.2
301.166	-40.96
301.381	-16.38
301.595	14.34
301.809	49.15
302.024	10.24
302.238	65.53
302.452	61.44
302.667	45.06
302.881	49.15
303.095	88.06
303.309	59.39
303.524	-22.53
303.738	57.34
303.952	-12.29
304.166	49.15
304.381	36.86
304.595	88.06
304.809	4.1
305.023	36.86
305.237	67.58
305.452	26.62
305.666	-0
305.88	14.34
306.094	92.16
306.308	-8.19
306.522	65.53
306.736	106.49
306.95	30.72
307.164	10.24
307.379	-20.48
307.593	24.58
307.807	26.62
308.021	61.44
308.235	94.21
308.449	-49.15
308.663	47.1
308.877	57.34
309.091	12.29
309.305	90.11
309.519	-16.38
309.733	47.1
309.947	16.38
310.161	114.69
310.374	20.48
310.588	102.4
310.802	38.91
311.016	63.49
311.23	-2.05
311.444	-40.96
311.658	47.1
311.872	53.25
312.085	12.29
312.299	96.25
312.513	73.73
312.727	22.53
312.941	38.91
313.154	79.87
313.368	40.96
313.582	20.48
313.796	4.1
314.009	30.72
314.223	75.77
314.437	79.87
314.651	53.25
314.864	49.15
315.078	2.05
315.292	14.34
315.505	12.29
315.719	8.19
315.933	-16.38
316.146	98.3
316.36	-53.25
316.573	-14.34
316.787	47.1
317.001	8.19
317.214	10.24
317.428	8.19
317.641	24.58
317.855	69.63
318.068	81.92
318.282	-63.49
318.495	98.3
318.709	45.06
318.922	-2.05
319.136	-10.24
319.349	53.25
319.563	-14.34
319.776	77.82
319.99	24.58
320.203	69.63
320.417	10.24
320.63	69.63
320.843	147.45
321.057	10.24
321.27	14.34
321.483	83.97
321.697	131.07
321.91	38.91
322.124	18.43
322.337	112.64
322.55	57.34
322.763	10.24
322.977	49.15
323.19	-8.19
323.403	86.01
323.617	53.25
323.83	32.77
324.043	61.44
324.256	32.77
324.469	86.01
324.683	118.78
324.896	57.34
325.109	4.1
325.322	30.72
325.535	53.25
325.748	57.34
325.962	49.15
326.175	59.39
326.388	61.44
326.601	96.25
326.814	38.91
327.027	-32.77
327.24	135.17
327.453	-24.58
327.666	65.53
327.879	22.53
328.092	49.15
328.305	71.68
328.518	79.87
328.731	-45.06
328.944	20.48
329.157	32.77
329.37	-30.72
329.583	108.54
329.796	30.72
330.009	-4.1
330.222	20.48
330.435	45.06
330.648	34.82
330.861	8.19
331.073	32.77
331.286	133.12
331.499	104.45
331.712	6.14
331.925	90.11
332.138	34.82
332.35	69.63
332.563	16.38
332.776	96.25
332.989	-16.38
333.202	-26.62
333.414	57.34
333.627	-12.29
333.84	-2.05
334.053	22.53
334.265	-104.45
334.478	10.24
334.691	59.39
334.903	61.44
335.116	-6.14
335.329	112.64
335.541	-49.15
335.754	83.97
335.966	59.39
336.179	-26.62
336.392	4.1
336.604	36.86
336.817	92.16
337.029	53.25
337.242	81.92
337.454	32.77
337.667	-8.19
337.88	53.25
338.092	26.62
338.305	63.49
338.517	32.77
338.729	59.39
338.942	108.54
339.154	94.21
339.367	63.49
339.579	69.63
339.792	8.19
340.004	36.86
340.217	63.49
340.429	102.4
340.641	-2.05
340.854	-36.86
341.066	69.63
341.278	112.64
341.491	8.19
341.703	88.06
341.915	16.38
342.128	36.86
342.34	-10.24
342.552	63.49
342.764	14.34
342.977	38.91
343.189	-4.1
343.401	22.53
343.613	38.91
343.826	102.4
344.038	114.69
344.25	90.11
344.462	38.91
344.674	63.49
344.886	90.11
345.099	59.39
345.311	45.06
345.523	53.25
345.735	16.38
345.947	53.25
346.159	47.1
346.371	-8.19
346.583	14.34
346.795	73.73
347.007	14.34
347.219	-28.67
347.431	22.53
347.643	18.43
347.855	-20.48
348.067	102.4
348.279	4.1
348.491	30.72
348.703	102.4
348.915	24.58
349.127	114.69
349.339	30.72
349.551	-47.1
349.763	59.39
349.975	40.96
350.187	10.24
350.399	106.49
350.61	102.4
350.822	2.05
351.034	32.77
351.246	94.21
351.458	86.01
351.669	102.4
351.881	67.58
352.093	165.89
352.305	18.43
352.517	63.49
352.728	16.38
352.94	67.58
353.152	-51.2
353.363	-24.58
353.575	16.38
353.787	20.48
353.999	32.77
354.21	26.62
354.422	4.1
354.633	28.67
354.845	108.54
355.057	53.25
355.268	73.73
355.48	28.67
355.692	83.97
355.903	6.14
356.115	55.3
356.326	-8.19
356.538	32.77
356.749	51.2
356.961	106.49
357.172	12.29
357.384	-22.53
357.595	86.01
357.807	81.92
358.018	81.92
358.23	63.49
358.441	129.02
358.653	59.39
358.864	-8.19
359.075	-6.14
359.287	77.82
359.498	92.16
359.709	16.38
359.921	112.64
360.132	98.3
360.344	28.67
360.555	22.53
360.766	110.59
360.977	-28.67
361.189	4.1
361.4	-2.05
361.611	53.25
361.823	53.25
362.034	90.11
362.245	30.72
362.456	12.29
362.667	110.59
362.879	20.48
363.09	83.97
363.301	49.15
363.512	-0
363.723	10.24
363.935	43.01
364.146	75.77
364.357	-51.2
364.568	116.73
364.779	-0
364.99	51.2
365.201	102.4
365.412	63.49
365.623	20.48
365.834	47.1
366.045	86.01
366.256	108.54
366.467	16.38
366.678	57.34
366.889	73.73
367.1	71.68
367.311	71.68
367.522	92.16
367.733	12.29
367.944	59.39
368.155	47.1
368.366	67.58
368.577	88.06
368.788	143.36
368.999	14.34
369.209	141.31
369.42	131.07
369.631	75.77
369.842	38.91
370.053	57.34
370.264	61.44
370.474	-20.48
370.685	104.45
370.896	94.21
371.107	104.45
371.317	83.97
371.528	63.49
371.739	55.3
371.95	38.91
372.16	53.25
372.371	86.01
372.582	88.06
372.792	8.19
373.003	51.2
373.214	67.58
373.424	81.92
373.635	-28.67
373.846	96.25
374.056	45.06
374.267	159.74
374.477	61.44
374.688	30.72
374.898	40.96
375.109	83.97
375.319	120.83
375.53	18.43
375.74	88.06
375.951	83.97
376.161	61.44
376.372	40.96
376.582	-10.24
376.793	69.63
377.003	36.86
377.214	59.39
377.424	90.11
377.635	96.25
377.845	69.63
378.055	112.64
378.266	-51.2
378.476	43.01
378.686	59.39
378.897	69.63
379.107	133.12
379.317	-8.19
379.528	59.39
379.738	129.02
379.948	36.86
380.158	55.3
380.369	16.38
380.579	73.73
380.789	-12.29
380.999	79.87
381.21	24.58
381.42	163.84
381.63	53.25
381.84	45.06
382.05	63.49
382.261	81.92
382.471	172.03
382.681	-8.19
382.891	12.29
383.101	-18.43
383.311	61.44
383.521	86.01
383.731	65.53
383.941	36.86
384.151	24.58
384.361	49.15
384.571	32.77
384.781	24.58
384.991	118.78
385.201	14.34
385.411	73.73
385.621	43.01
385.831	-8.19
386.041	79.87
386.251	18.43
386.461	73.73
386.671	110.59
386.881	59.39
387.091	32.77
387.301	38.91
387.511	71.68
387.72	69.63
387.93	71.68
388.14	118.78
388.35	57.34
388.56	69.63
388.769	49.15
388.979	63.49
389.189	75.77
389.399	59.39
389.609	88.06
389.818	96.25
390.028	8.19
390.238	8.19
390.447	10.24
390.657	131.07
390.867	110.59
391.076	94.21
391.286	81.92
391.496	40.96
391.705	-8.19
391.915	63.49
392.125	75.77
392.334	16.38
392.544	73.73
392.753	53.25
392.963	43.01
393.172	55.3
393.382	53.25
393.591	86.01
393.801	114.69
394.01	65.53
394.22	4.1
394.429	98.3
394.639	34.82
394.848	49.15
395.058	135.17
395.267	53.25
395.477	106.49
395.686	65.53
395.895	137.21
396.105	178.17
396.314	100.35
396.524	131.07
396.733	169.98
396.942	190.46
397.152	81.92
397.361	210.94
397.57	137.21
397.78	88.06
397.989	94.21
398.198	155.65
398.407	38.91
398.617	139.26
398.826	92.16
399.035	122.88
399.244	141.31
399.453	118.78
399.663	153.6
399.872	186.37
400.081	92.16
400.29	186.37
400.499	40.96
400.708	102.4
400.917	202.75
401.127	77.82
401.336	106.49
401.545	155.65
401.754	194.56
401.963	147.45
402.172	155.65
402.381	149.5
402.59	108.54
402.799	229.37
403.008	184.32
403.217	145.41
403.426	196.6
403.635	153.6
403.844	69.63
404.053	212.99
404.262	182.27
404.471	210.94
404.68	147.45
404.888	221.18
405.097	221.18
405.306	186.37
405.515	192.51
405.724	208.89
405.933	188.41
406.142	262.14
406.35	256
406.559	245.76
406.768	163.84
406.977	258.04
407.185	249.85
407.394	202.75
407.603	235.52
407.812	299
408.02	245.76
408.229	278.52
408.438	272.38
408.646	229.37
408.855	274.43
409.064	331.77
409.272	299
409.481	425.98
409.69	339.96
409.898	315.39
410.107	376.83
410.315	354.3
410.524	327.67
410.733	417.79
410.941	434.17
411.15	442.36
411.358	380.92
411.567	505.85
411.775	522.23
411.984	526.33
412.192	442.36
412.401	565.24
412.609	630.77
412.818	516.09
413.026	595.96
413.234	634.87
413.443	606.2
413.651	632.82
413.86	645.11
414.068	641.01
414.276	745.46
414.485	749.56
414.693	767.99
414.901	731.12
415.11	788.47
415.318	813.04
415.526	860.15
415.734	927.73
415.943	997.36
416.151	964.59
416.359	1013.74
416.567	978.93
416.776	1095.66
416.984	1079.28
417.192	1228.78
417.4	1153.01
417.608	1243.12
417.817	1282.03
418.025	1259.5
418.233	1378.28
418.441	1439.72
418.649	1359.85
418.857	1613.8
419.065	1490.92
419.273	1425.39
419.481	1624.04
419.689	1710.05
419.897	1779.68
420.105	1802.21
420.313	1804.26
420.521	1972.19
420.729	1957.86
420.937	2027.49
421.145	2127.84
421.353	2193.37
421.561	2293.72
421.769	2228.19
421.977	2465.75
422.185	2455.51
422.393	2451.42
422.601	2703.32
422.809	2656.22
423.017	2672.6
423.224	2840.53
423.432	2965.46
423.64	2885.59
423.848	3219.41
424.056	3209.17
424.263	3368.91
424.471	3450.83
424.679	3542.99
424.887	3545.03
425.094	3745.73
425.302	3841.99
425.51	3940.29
425.718	3964.87
425.925	4169.66
426.133	4177.86
426.341	4442.04
426.548	4659.13
426.756	4822.97
426.964	4698.04
427.171	4927.41
427.379	5093.3
427.586	5083.06
427.794	5255.09
428.001	5642.15
428.209	5851.05
428.417	5863.33
428.624	6152.1
428.832	6203.3
429.039	6178.72
429.247	6328.22
429.454	6791.06
429.662	7055.25
429.869	6856.6
430.076	7192.47
430.284	6893.46
430.491	7444.37
430.699	7677.83
430.906	7632.78
431.114	7716.75
431.321	8073.09
431.528	8292.23
431.736	8814.46
431.943	9461.62
432.15	9019.25
432.358	9027.45
432.565	9502.57
432.772	9484.14
432.979	9877.35
433.187	10157.92
433.394	10278.76
433.601	10895.19
433.808	11104.09
434.016	10841.95
434.223	11147.09
434.43	12103.5
434.637	11730.76
434.844	12242.76
435.052	12681.02
435.259	12717.89
435.466	12715.84
435.673	12738.37
435.88	13606.7
436.087	13942.57
436.294	14128.94
436.501	13780.78
436.708	13983.53
436.915	14368.55
437.122	15283.99
437.329	15138.58
437.537	15607.57
437.743	15908.62
437.95	15701.78
438.157	16697.09
438.364	17059.58
438.571	17164.03
438.778	17082.11
438.985	18671.33
439.192	18038.51
439.399	18853.6
439.606	18325.22
439.813	19107.55
440.02	20451.02
440.227	20217.55
440.433	19936.98
440.64	20365
440.847	20362.95
441.054	20696.77
441.261	22347.43
441.467	22103.73
441.674	22083.25
441.881	23213.73
442.088	23029.41
442.294	22795.94
442.501	23502.49
442.708	24045.2
442.914	25142.91
443.121	25785.97
443.328	24999.55
443.534	26682.98
443.741	26537.58
443.948	25994.87
444.154	27807.32
444.361	27786.84
444.568	28034.64
444.774	27774.55
444.981	28272.21
445.187	28784.2
445.394	30275.12
445.6	29597.24
445.807	32851.47
446.013	31399.46
446.22	31383.07
446.426	32876.04
446.633	33052.17
446.839	33900.03
447.046	32892.43
447.252	34850.28
447.459	34522.61
447.665	34571.76
447.871	35630.56
448.078	37203.4
448.284	35489.25
448.491	37043.66
448.697	37864.89
448.903	38366.65
449.11	38798.77
449.316	37961.15
449.522	38460.85
449.728	39531.94
449.935	39798.18
450.141	39710.11
450.347	40854.93
450.553	39443.88
450.76	39896.48
450.966	41219.47
451.172	40701.33
451.378	42143.1
451.584	40990.09
451.791	42190.2
451.997	41739.65
452.203	42423.67
452.409	42120.57
452.615	41624.96
452.821	40453.53
453.027	40244.63
453.233	42005.89
453.44	40363.42
453.646	41190.8
453.852	40949.14
454.058	41821.57
454.264	40074.65
454.47	41237.9
454.676	40287.64
454.882	41590.15
455.088	37590.47
455.294	38380.98
455.5	38888.88
455.705	39335.34
455.911	37981.63
456.117	37086.67
456.323	36595.15
456.529	34532.85
456.735	36154.84
456.941	35091.94
457.147	34688.49
457.352	33725.95
457.558	33318.4
457.764	33224.2
457.97	32392.72
458.176	31868.44
458.381	32024.09
458.587	30144.05
458.793	30828.07
458.999	28843.59
459.204	30885.42
459.41	29771.32
459.616	28229.2
459.821	28077.65
460.027	27985.49
460.233	27422.3
460.438	25824.89
460.644	26191.47
460.85	25093.76
461.055	24833.67
461.261	24528.52
461.466	22924.96
461.672	22148.78
461.878	24022.67
462.083	22095.53
462.289	21827.25
462.494	21593.78
462.7	20827.84
462.905	20096.72
463.111	20895.43
463.316	20793.03
463.522	20436.68
463.727	20737.73
463.932	20539.08
464.138	20270.79
464.343	19953.36
464.549	19439.32
464.754	20438.73
464.959	20197.07
465.165	19775.19
465.37	19134.17
465.575	18642.66
465.781	19535.57
465.986	19439.32
466.191	19003.1
466.397	18517.73
466.602	17780.46
466.807	18212.59
467.012	18224.87
467.218	18249.45
467.423	17907.44
