Data from USB4F104151__36__10-22-12-444.txt Node

Date: Wed Mar 12 10:22:12 EDT 2025
User: louis
Spectrometer: USB4F10415
Trigger mode: 4
Integration Time (sec): 3.000000E-2
Scans to average: 1
Electric dark correction enabled: true
Nonlinearity correction enabled: false
Boxcar width: 0
XAxis mode: Wavelengths
Number of Pixels in Spectrum: 3648
>>>>>Begin Spectral Data<<<<<
178.204	-114.52
178.424	-114.52
178.644	-114.52
178.864	-91.99
179.084	-102.23
179.304	14.51
179.524	14.51
179.744	61.61
179.964	-1.88
180.184	34.99
180.404	26.79
180.624	-46.93
180.844	-96.08
181.064	-48.98
181.283	-14.17
181.503	-1.88
181.723	57.51
181.943	-36.69
182.163	96.43
182.383	55.47
182.602	71.85
182.822	41.13
183.042	43.18
183.262	-14.17
183.482	20.65
183.701	55.47
183.921	-34.64
184.141	-20.31
184.361	139.43
184.58	-1.88
184.8	57.51
185.02	43.18
185.239	18.6
185.459	41.13
185.679	69.8
185.898	-46.93
186.118	80.04
186.338	-14.17
186.557	61.61
186.777	-51.03
186.997	45.23
187.216	45.23
187.436	16.55
187.655	45.23
187.875	28.84
188.095	-10.07
188.314	-1.88
188.534	96.43
188.753	8.36
188.973	6.31
189.192	12.46
189.412	75.95
189.631	57.51
189.851	37.03
190.07	75.95
190.29	-55.12
190.509	28.84
190.729	6.31
190.948	57.51
191.168	127.14
191.387	49.32
191.607	10.41
191.826	-5.97
192.045	24.75
192.265	53.42
192.484	39.08
192.704	32.94
192.923	-3.93
193.142	65.71
193.362	8.36
193.581	127.14
193.8	47.27
194.02	43.18
194.239	12.46
194.458	59.56
194.678	43.18
194.897	12.46
195.116	-34.64
195.335	63.66
195.555	100.52
195.774	-10.07
195.993	34.99
196.212	57.51
196.432	49.32
196.651	-42.84
196.87	24.75
197.089	90.28
197.308	51.37
197.528	34.99
197.747	14.51
197.966	14.51
198.185	77.99
198.404	24.75
198.623	-5.97
198.842	86.19
199.062	28.84
199.281	-3.93
199.5	55.47
199.719	32.94
199.938	65.71
200.157	49.32
200.376	116.9
200.595	34.99
200.814	6.31
201.033	26.79
201.252	14.51
201.471	39.08
201.69	14.51
201.909	57.51
202.128	-8.02
202.347	39.08
202.566	-28.5
202.785	2.22
203.004	26.79
203.223	20.65
203.442	102.57
203.661	-34.64
203.879	30.89
204.098	49.32
204.317	8.36
204.536	55.47
204.755	41.13
204.974	30.89
205.193	-3.93
205.411	84.14
205.63	-34.64
205.849	67.75
206.068	12.46
206.287	43.18
206.505	-1.88
206.724	4.27
206.943	67.75
207.162	34.99
207.381	32.94
207.599	-48.98
207.818	37.03
208.037	37.03
208.255	75.95
208.474	47.27
208.693	-48.98
208.911	-30.55
209.13	2.22
209.349	49.32
209.567	-16.21
209.786	80.04
210.005	-44.88
210.223	47.27
210.442	-71.51
210.661	57.51
210.879	10.41
211.098	51.37
211.316	-42.84
211.535	59.56
211.753	26.79
211.972	67.75
212.191	112.81
212.409	77.99
212.628	75.95
212.846	67.75
213.065	-12.12
213.283	-1.88
213.502	47.27
213.72	20.65
213.938	41.13
214.157	41.13
214.375	47.27
214.594	22.7
214.812	-1.88
215.031	-8.02
215.249	-1.88
215.467	108.71
215.686	34.99
215.904	6.31
216.122	75.95
216.341	84.14
216.559	45.23
216.778	-10.07
216.996	53.42
217.214	34.99
217.432	96.43
217.651	-34.64
217.869	6.31
218.087	6.31
218.306	20.65
218.524	-8.02
218.742	45.23
218.96	39.08
219.179	-5.97
219.397	55.47
219.615	49.32
219.833	20.65
220.051	-42.84
220.27	28.84
220.488	43.18
220.706	47.27
220.924	41.13
221.142	55.47
221.36	73.9
221.578	6.31
221.796	26.79
222.015	53.42
222.233	67.75
222.451	18.6
222.669	-18.26
222.887	4.27
223.105	2.22
223.323	55.47
223.541	-34.64
223.759	82.09
223.977	20.65
224.195	45.23
224.413	55.47
224.631	71.85
224.849	96.43
225.067	86.19
225.285	24.75
225.503	71.85
225.721	0.17
225.939	-12.12
226.157	53.42
226.375	116.9
226.592	6.31
226.81	90.28
227.028	2.22
227.246	94.38
227.464	12.46
227.682	96.43
227.9	-16.21
228.117	92.33
228.335	22.7
228.553	-14.17
228.771	22.7
228.989	39.08
229.206	-5.97
229.424	57.51
229.642	-3.93
229.86	12.46
230.077	20.65
230.295	80.04
230.513	41.13
230.731	-14.17
230.948	30.89
231.166	63.66
231.384	67.75
231.601	73.9
231.819	63.66
232.037	30.89
232.254	28.84
232.472	57.51
232.689	-5.97
232.907	53.42
233.125	28.84
233.342	16.55
233.56	20.65
233.777	-3.93
233.995	86.19
234.213	116.9
234.43	80.04
234.648	96.43
234.865	110.76
235.083	4.27
235.3	92.33
235.518	102.57
235.735	82.09
235.953	-18.26
236.17	86.19
236.388	75.95
236.605	-20.31
236.822	82.09
237.04	53.42
237.257	12.46
237.475	22.7
237.692	30.89
237.909	80.04
238.127	41.13
238.344	59.56
238.562	67.75
238.779	32.94
238.996	6.31
239.214	75.95
239.431	57.51
239.648	77.99
239.865	37.03
240.083	108.71
240.3	118.95
240.517	-24.4
240.735	-26.45
240.952	75.95
241.169	96.43
241.386	110.76
241.603	145.58
241.821	-51.03
242.038	37.03
242.255	61.61
242.472	-12.12
242.689	47.27
242.907	100.52
243.124	30.89
243.341	12.46
243.558	43.18
243.775	57.51
243.992	61.61
244.209	-1.88
244.426	67.75
244.643	53.42
244.86	69.8
245.078	45.23
245.295	12.46
245.512	88.23
245.729	18.6
245.946	71.85
246.163	86.19
246.38	-22.36
246.597	22.7
246.814	-10.07
247.031	4.27
247.248	45.23
247.464	59.56
247.681	12.46
247.898	20.65
248.115	14.51
248.332	-24.4
248.549	69.8
248.766	53.42
248.983	45.23
249.2	96.43
249.417	22.7
249.633	55.47
249.85	125.1
250.067	37.03
250.284	84.14
250.501	88.23
250.717	22.7
250.934	6.31
251.151	16.55
251.368	41.13
251.585	69.8
251.801	43.18
252.018	22.7
252.235	47.27
252.451	47.27
252.668	71.85
252.885	26.79
253.102	98.47
253.318	133.29
253.535	-30.55
253.752	20.65
253.968	63.66
254.185	51.37
254.401	34.99
254.618	131.24
254.835	14.51
255.051	39.08
255.268	-5.97
255.484	14.51
255.701	47.27
255.917	39.08
256.134	-5.97
256.351	86.19
256.567	12.46
256.784	10.41
257	47.27
257.217	14.51
257.433	143.53
257.65	51.37
257.866	30.89
258.082	10.41
258.299	116.9
258.515	37.03
258.732	41.13
258.948	49.32
259.165	30.89
259.381	28.84
259.597	94.38
259.814	61.61
260.03	55.47
260.246	-10.07
260.463	82.09
260.679	92.33
260.895	2.22
261.112	43.18
261.328	-5.97
261.544	14.51
261.761	96.43
261.977	10.41
262.193	24.75
262.409	18.6
262.626	51.37
262.842	37.03
263.058	16.55
263.274	69.8
263.49	96.43
263.707	98.47
263.923	75.95
264.139	-18.26
264.355	39.08
264.571	96.43
264.787	26.79
265.004	108.71
265.22	12.46
265.436	18.6
265.652	6.31
265.868	22.7
266.084	43.18
266.3	71.85
266.516	63.66
266.732	53.42
266.948	14.51
267.164	-36.69
267.38	53.42
267.596	32.94
267.812	53.42
268.028	32.94
268.244	-24.4
268.46	0.17
268.676	8.36
268.892	118.95
269.108	-55.12
269.324	14.51
269.54	-28.5
269.756	90.28
269.972	-10.07
270.188	65.71
270.403	30.89
270.619	22.7
270.835	32.94
271.051	22.7
271.267	20.65
271.483	55.47
271.698	67.75
271.914	112.81
272.13	37.03
272.346	26.79
272.562	121
272.777	45.23
272.993	59.56
273.209	22.7
273.425	47.27
273.64	0.17
273.856	47.27
274.072	12.46
274.287	30.89
274.503	49.32
274.719	34.99
274.934	39.08
275.15	59.56
275.366	102.57
275.581	12.46
275.797	14.51
276.012	20.65
276.228	-8.02
276.444	-75.6
276.659	22.7
276.875	71.85
277.09	57.51
277.306	86.19
277.521	-28.5
277.737	26.79
277.952	20.65
278.168	45.23
278.383	-18.26
278.599	112.81
278.814	59.56
279.03	43.18
279.245	88.23
279.461	18.6
279.676	32.94
279.892	0.17
280.107	51.37
280.322	37.03
280.538	65.71
280.753	2.22
280.969	57.51
281.184	30.89
281.399	77.99
281.615	43.18
281.83	82.09
282.045	32.94
282.26	49.32
282.476	75.95
282.691	80.04
282.906	-12.12
283.122	55.47
283.337	-20.31
283.552	-3.93
283.767	75.95
283.983	39.08
284.198	6.31
284.413	57.51
284.628	-28.5
284.843	22.7
285.058	34.99
285.274	-12.12
285.489	34.99
285.704	90.28
285.919	34.99
286.134	61.61
286.349	51.37
286.564	14.51
286.779	86.19
286.995	69.8
287.21	-3.93
287.425	86.19
287.64	63.66
287.855	12.46
288.07	-59.22
288.285	92.33
288.5	149.67
288.715	45.23
288.93	0.17
289.145	39.08
289.36	184.49
289.575	28.84
289.79	61.61
290.004	59.56
290.219	43.18
290.434	84.14
290.649	22.7
290.864	18.6
291.079	32.94
291.294	94.38
291.509	59.56
291.724	43.18
291.938	39.08
292.153	80.04
292.368	77.99
292.583	14.51
292.798	12.46
293.012	155.82
293.227	75.95
293.442	61.61
293.657	96.43
293.871	84.14
294.086	92.33
294.301	100.52
294.516	67.75
294.73	96.43
294.945	-1.88
295.16	82.09
295.374	80.04
295.589	129.19
295.804	61.61
296.018	67.75
296.233	102.57
296.447	96.43
296.662	47.27
296.877	166.06
297.091	90.28
297.306	32.94
297.52	63.66
297.735	80.04
297.949	41.13
298.164	53.42
298.378	45.23
298.593	12.46
298.807	65.71
299.022	16.55
299.236	86.19
299.451	14.51
299.665	69.8
299.88	18.6
300.094	57.51
300.309	71.85
300.523	59.56
300.737	24.75
300.952	39.08
301.166	112.81
301.381	26.79
301.595	131.24
301.809	4.27
302.024	8.36
302.238	28.84
302.452	55.47
302.667	34.99
302.881	123.05
303.095	16.55
303.309	-8.02
303.524	20.65
303.738	80.04
303.952	-67.41
304.166	-40.79
304.381	47.27
304.595	75.95
304.809	102.57
305.023	71.85
305.237	-18.26
305.452	67.75
305.666	77.99
305.88	84.14
306.094	94.38
306.308	39.08
306.522	10.41
306.736	98.47
306.95	86.19
307.164	30.89
307.379	14.51
307.593	88.23
307.807	86.19
308.021	86.19
308.235	67.75
308.449	-3.93
308.663	6.31
308.877	73.9
309.091	45.23
309.305	86.19
309.519	-46.93
309.733	94.38
309.947	22.7
310.161	55.47
310.374	114.86
310.588	96.43
310.802	14.51
311.016	47.27
311.23	157.86
311.444	8.36
311.658	53.42
311.872	24.75
312.085	49.32
312.299	49.32
312.513	16.55
312.727	32.94
312.941	14.51
313.154	28.84
313.368	41.13
313.582	39.08
313.796	6.31
314.009	41.13
314.223	110.76
314.437	18.6
314.651	22.7
314.864	67.75
315.078	57.51
315.292	55.47
315.505	129.19
315.719	-5.97
315.933	73.9
316.146	75.95
316.36	-5.97
316.573	71.85
316.787	106.67
317.001	84.14
317.214	14.51
317.428	65.71
317.641	55.47
317.855	57.51
318.068	147.62
318.282	63.66
318.495	69.8
318.709	59.56
318.922	112.81
319.136	133.29
319.349	84.14
319.563	51.37
319.776	47.27
319.99	-12.12
320.203	94.38
320.417	84.14
320.63	100.52
320.843	125.1
321.057	80.04
321.27	-30.55
321.483	12.46
321.697	96.43
321.91	71.85
322.124	32.94
322.337	61.61
322.55	30.89
322.763	57.51
322.977	121
323.19	14.51
323.403	47.27
323.617	24.75
323.83	14.51
324.043	-18.26
324.256	96.43
324.469	49.32
324.683	77.99
324.896	16.55
325.109	63.66
325.322	2.22
325.535	92.33
325.748	59.56
325.962	43.18
326.175	67.75
326.388	4.27
326.601	67.75
326.814	67.75
327.027	30.89
327.24	73.9
327.453	65.71
327.666	71.85
327.879	112.81
328.092	67.75
328.305	73.9
328.518	14.51
328.731	47.27
328.944	55.47
329.157	77.99
329.37	39.08
329.583	30.89
329.796	77.99
330.009	4.27
330.222	63.66
330.435	65.71
330.648	157.86
330.861	45.23
331.073	63.66
331.286	137.38
331.499	47.27
331.712	10.41
331.925	34.99
332.138	20.65
332.35	112.81
332.563	100.52
332.776	41.13
332.989	45.23
333.202	37.03
333.414	102.57
333.627	110.76
333.84	20.65
334.053	116.9
334.265	2.22
334.478	59.56
334.691	71.85
334.903	34.99
335.116	61.61
335.329	131.24
335.541	63.66
335.754	100.52
335.966	8.36
336.179	102.57
336.392	-1.88
336.604	57.51
336.817	104.62
337.029	59.56
337.242	47.27
337.454	77.99
337.667	63.66
337.88	75.95
338.092	75.95
338.305	104.62
338.517	49.32
338.729	47.27
338.942	98.47
339.154	22.7
339.367	47.27
339.579	65.71
339.792	39.08
340.004	26.79
340.217	18.6
340.429	28.84
340.641	30.89
340.854	39.08
341.066	6.31
341.278	47.27
341.491	127.14
341.703	121
341.915	47.27
342.128	30.89
342.34	2.22
342.552	84.14
342.764	59.56
342.977	88.23
343.189	14.51
343.401	47.27
343.613	61.61
343.826	30.89
344.038	88.23
344.25	55.47
344.462	69.8
344.674	41.13
344.886	26.79
345.099	94.38
345.311	47.27
345.523	26.79
345.735	-20.31
345.947	67.75
346.159	57.51
346.371	55.47
346.583	69.8
346.795	80.04
347.007	26.79
347.219	88.23
347.431	10.41
347.643	80.04
347.855	114.86
348.067	121
348.279	34.99
348.491	75.95
348.703	4.27
348.915	18.6
349.127	51.37
349.339	77.99
349.551	37.03
349.763	51.37
349.975	90.28
350.187	37.03
350.399	61.61
350.61	61.61
350.822	86.19
351.034	41.13
351.246	86.19
351.458	110.76
351.669	53.42
351.881	190.63
352.093	71.85
352.305	53.42
352.517	47.27
352.728	84.14
352.94	100.52
353.152	84.14
353.363	10.41
353.575	65.71
353.787	96.43
353.999	32.94
354.21	45.23
354.422	84.14
354.633	-8.02
354.845	55.47
355.057	51.37
355.268	92.33
355.48	88.23
355.692	45.23
355.903	39.08
356.115	24.75
356.326	-16.21
356.538	118.95
356.749	80.04
356.961	86.19
357.172	-26.45
357.384	22.7
357.595	80.04
357.807	43.18
358.018	51.37
358.23	6.31
358.441	26.79
358.653	45.23
358.864	77.99
359.075	18.6
359.287	47.27
359.498	53.42
359.709	20.65
359.921	55.47
360.132	34.99
360.344	32.94
360.555	57.51
360.766	22.7
360.977	8.36
361.189	61.61
361.4	90.28
361.611	121
361.823	108.71
362.034	108.71
362.245	-10.07
362.456	51.37
362.667	71.85
362.879	133.29
363.09	61.61
363.301	39.08
363.512	116.9
363.723	129.19
363.935	96.43
364.146	53.42
364.357	63.66
364.568	30.89
364.779	18.6
364.99	61.61
365.201	37.03
365.412	114.86
365.623	30.89
365.834	61.61
366.045	108.71
366.256	32.94
366.467	-12.12
366.678	57.51
366.889	71.85
367.1	39.08
367.311	84.14
367.522	10.41
367.733	116.9
367.944	69.8
368.155	45.23
368.366	125.1
368.577	39.08
368.788	133.29
368.999	12.46
369.209	88.23
369.42	69.8
369.631	102.57
369.842	47.27
370.053	73.9
370.264	73.9
370.474	47.27
370.685	86.19
370.896	55.47
371.107	96.43
371.317	121
371.528	141.48
371.739	61.61
371.95	39.08
372.16	129.19
372.371	75.95
372.582	131.24
372.792	55.47
373.003	39.08
373.214	30.89
373.424	145.58
373.635	6.31
373.846	34.99
374.056	30.89
374.267	84.14
374.477	47.27
374.688	73.9
374.898	57.51
375.109	30.89
375.319	118.95
375.53	65.71
375.74	12.46
375.951	32.94
376.161	100.52
376.372	-18.26
376.582	34.99
376.793	96.43
377.003	14.51
377.214	86.19
377.424	75.95
377.635	67.75
377.845	43.18
378.055	59.56
378.266	88.23
378.476	88.23
378.686	67.75
378.897	18.6
379.107	104.62
379.317	108.71
379.528	53.42
379.738	88.23
379.948	67.75
380.158	73.9
380.369	18.6
380.579	80.04
380.789	34.99
380.999	69.8
381.21	86.19
381.42	92.33
381.63	-22.36
381.84	71.85
382.05	53.42
382.261	92.33
382.471	84.14
382.681	82.09
382.891	112.81
383.101	110.76
383.311	90.28
383.521	100.52
383.731	137.38
383.941	129.19
384.151	98.47
384.361	133.29
384.571	63.66
384.781	86.19
384.991	108.71
385.201	22.7
385.411	94.38
385.621	32.94
385.831	92.33
386.041	125.1
386.251	88.23
386.461	51.37
386.671	-5.97
386.881	28.84
387.091	51.37
387.301	22.7
387.511	106.67
387.72	110.76
387.93	57.51
388.14	16.55
388.35	73.9
388.56	53.42
388.769	92.33
388.979	141.48
389.189	71.85
389.399	129.19
389.609	84.14
389.818	94.38
390.028	55.47
390.238	69.8
390.447	47.27
390.657	108.71
390.867	55.47
391.076	145.58
391.286	125.1
391.496	92.33
391.705	71.85
391.915	94.38
392.125	112.81
392.334	88.23
392.544	123.05
392.753	82.09
392.963	125.1
393.172	84.14
393.382	75.95
393.591	112.81
393.801	61.61
394.01	108.71
394.22	123.05
394.429	104.62
394.639	96.43
394.848	98.47
395.058	121
395.267	84.14
395.477	100.52
395.686	166.06
395.895	80.04
396.105	104.62
396.314	172.2
396.524	123.05
396.733	34.99
396.942	161.96
397.152	207.02
397.361	164.01
397.57	116.9
397.78	155.82
397.989	153.77
398.198	172.2
398.407	176.3
398.617	153.77
398.826	49.32
399.035	182.44
399.244	121
399.453	100.52
399.663	159.91
399.872	131.24
400.081	84.14
400.29	227.5
400.499	98.47
400.708	213.16
400.917	90.28
401.127	207.02
401.336	63.66
401.545	174.25
401.754	161.96
401.963	135.34
402.172	213.16
402.381	182.44
402.59	135.34
402.799	161.96
403.008	125.1
403.217	139.43
403.426	145.58
403.635	256.17
403.844	211.11
404.053	141.48
404.262	209.06
404.471	176.3
404.68	200.87
404.888	157.86
405.097	182.44
405.306	235.69
405.515	276.65
405.724	202.92
405.933	266.41
406.142	268.45
406.35	237.74
406.559	221.35
406.768	239.78
406.977	274.6
407.185	243.88
407.394	297.13
407.603	229.54
407.812	258.21
408.02	278.69
408.229	313.51
408.438	309.41
408.646	338.09
408.855	331.94
409.064	395.43
409.272	333.99
409.481	360.61
409.69	321.7
409.898	354.47
410.107	381.09
410.315	483.49
410.524	409.76
410.733	485.54
410.941	503.97
411.15	448.68
411.358	497.83
411.567	510.11
411.775	456.87
411.984	579.75
412.192	557.22
412.401	551.07
412.609	680.1
412.818	573.6
413.026	663.71
413.234	610.47
413.443	708.77
413.651	667.81
413.86	737.44
414.068	741.54
414.276	790.69
414.485	790.69
414.693	811.17
414.901	845.98
415.11	858.27
415.318	833.69
415.526	925.85
415.734	970.91
415.943	1042.59
416.151	1081.5
416.359	979.1
416.567	1144.99
416.776	1185.94
416.984	1177.75
417.192	1261.72
417.4	1202.33
417.608	1183.9
417.817	1345.69
418.025	1296.53
418.233	1489.04
418.441	1489.04
418.649	1411.22
418.857	1560.72
419.065	1669.27
419.273	1689.74
419.481	1767.57
419.689	1816.72
419.897	1908.88
420.105	1990.8
420.313	2031.76
420.521	2001.04
420.729	2119.82
420.937	2115.72
421.145	2295.94
421.353	2326.66
421.561	2390.15
421.769	2504.84
421.977	2615.43
422.185	2709.63
422.393	2783.36
422.601	2836.61
422.809	2961.53
423.017	2963.58
423.224	3051.64
423.432	3199.1
423.64	3369.08
423.848	3393.65
424.056	3414.13
424.263	3651.7
424.471	3752.05
424.679	3627.12
424.887	3911.79
425.094	4022.38
425.302	4020.33
425.51	4208.75
425.718	4339.82
425.925	4356.2
426.133	4517.99
426.341	4956.26
426.548	4976.73
426.756	4997.21
426.964	5011.55
427.171	5365.85
427.379	5519.45
427.586	5396.57
427.794	5761.11
428.001	6015.05
428.209	6400.07
428.417	6023.25
428.624	6826.05
428.832	6731.84
429.039	6604.87
429.247	6379.59
429.454	7368.76
429.662	7788.6
429.869	7147.58
430.076	7727.16
430.284	7542.84
430.491	7802.93
430.699	8140.85
430.906	8331.31
431.114	8226.86
431.321	8669.22
431.528	8962.08
431.736	9451.55
431.943	9928.72
432.15	9465.88
432.358	9789.46
432.565	10358.8
432.772	10074.13
432.979	10590.22
433.187	10926.08
433.394	10965
433.601	11739.13
433.808	11735.03
434.016	11431.93
434.223	12271.6
434.43	12929
434.637	12371.95
434.844	13369.31
435.052	13875.16
435.259	13502.43
435.466	13785.05
435.673	13479.9
435.88	14643.15
436.087	15251.39
436.294	15306.69
436.501	14782.41
436.708	15216.58
436.915	15607.74
437.122	16306.1
437.329	16123.83
437.537	16742.32
437.743	17188.77
437.95	17063.85
438.157	17624.99
438.364	18323.35
438.571	18530.19
438.778	18468.75
438.985	19892.09
439.192	19615.62
439.399	20129.66
439.606	19947.39
439.813	20694.89
440.02	21952.35
440.227	21331.81
440.433	21432.16
440.64	22228.82
440.847	22062.94
441.054	22333.27
441.261	23723.84
441.467	23629.63
441.674	24110.91
441.881	24977.2
442.088	25098.03
442.294	24575.8
442.501	25691.94
442.708	25935.65
442.914	27068.17
443.121	27641.6
443.328	27377.42
443.534	29153.01
443.741	28315.39
443.948	27701
444.154	29802.21
444.361	29986.53
444.568	29789.92
444.774	30148.32
444.981	30197.47
445.187	31286.99
445.394	32227.01
445.6	31891.14
445.807	35212.95
446.013	33593
446.22	33803.94
446.426	35446.41
446.633	35587.72
446.839	36611.71
447.046	35432.08
447.252	37346.93
447.459	37422.7
447.665	36824.7
447.871	38784.6
448.078	40232.52
448.284	38624.86
448.491	38977.11
448.697	41010.74
448.903	41643.57
449.11	41731.63
449.316	41170.49
449.522	41451.06
449.728	42685.98
449.935	42991.13
450.141	42866.2
450.347	43722.26
450.553	42458.66
450.76	42862.11
450.966	44328.45
451.172	43544.08
451.378	45125.11
451.584	43990.54
451.791	44881.41
451.997	44877.31
452.203	45547
452.409	45561.33
452.615	44914.17
452.821	43838.99
453.027	43085.34
453.233	45282.81
453.44	43286.04
453.646	43761.17
453.852	44162.57
454.058	44762.62
454.264	43185.69
454.47	44328.45
454.676	42905.12
454.882	44359.17
455.088	41213.49
455.294	41256.5
455.5	41616.94
455.705	42442.28
455.911	40502.85
456.117	39933.51
456.323	39341.65
456.529	37232.24
456.735	38487.65
456.941	37693.04
457.147	37092.98
457.352	36458.11
457.558	35645.07
457.764	35509.9
457.97	35280.53
458.176	34162.34
458.381	34285.22
458.587	32454.33
458.793	32863.93
458.999	30584.54
459.204	33222.32
459.41	31966.91
459.616	30244.57
459.821	29880.03
460.027	30361.31
460.233	29099.76
460.438	28061.44
460.644	28264.19
460.85	26787.6
461.055	26554.13
461.261	26701.59
461.466	24688.43
461.672	23893.82
461.878	25716.51
462.083	24022.84
462.289	23611.2
462.494	23271.24
462.7	22458.2
462.905	21596
463.111	22353.75
463.316	22505.3
463.522	22093.66
463.727	22024.03
463.932	21958.49
464.138	21774.17
464.343	22073.18
464.549	21049.19
464.754	22337.37
464.959	21733.22
465.165	21450.6
465.37	20545.39
465.575	20475.76
465.781	20950.89
465.986	21020.52
466.191	20156.28
466.397	20209.53
466.602	19007.37
466.807	19703.68
467.012	19752.83
467.218	19863.42
