Data from USB4F104151__88__10-24-23-290.txt Node

Date: Wed Mar 12 10:24:23 EDT 2025
User: louis
Spectrometer: USB4F10415
Trigger mode: 4
Integration Time (sec): 3.000000E-2
Scans to average: 1
Electric dark correction enabled: true
Nonlinearity correction enabled: false
Boxcar width: 0
XAxis mode: Wavelengths
Number of Pixels in Spectrum: 3648
>>>>>Begin Spectral Data<<<<<
178.204	-59.9
178.424	-59.9
178.644	-59.9
178.864	-137.73
179.084	-84.48
179.304	-23.04
179.524	28.16
179.744	1.54
179.964	-12.8
180.184	-16.9
180.404	-16.9
180.624	26.11
180.844	3.58
181.064	11.78
181.283	-6.66
181.503	-12.8
181.723	17.92
181.943	-72.19
182.163	101.89
182.383	-31.23
182.602	87.55
182.822	91.65
183.042	24.06
183.262	67.07
183.482	-18.94
183.701	22.02
183.921	52.74
184.141	-45.57
184.361	-0.51
184.58	-25.09
184.8	11.78
185.02	-25.09
185.239	62.98
185.459	40.45
185.679	120.32
185.898	-20.99
186.118	62.98
186.338	-37.38
186.557	85.5
186.777	54.78
186.997	17.92
187.216	-12.8
187.436	95.74
187.655	93.69
187.875	-18.94
188.095	-27.14
188.314	34.3
188.534	71.17
188.753	7.68
188.973	60.93
189.192	108.03
189.412	-4.61
189.631	105.98
189.851	19.97
190.07	130.56
190.29	-23.04
190.509	3.58
190.729	40.45
190.948	71.17
191.168	173.57
191.387	3.58
191.607	-23.04
191.826	65.02
192.045	19.97
192.265	7.68
192.484	-25.09
192.704	-0.51
192.923	42.5
193.142	118.27
193.362	65.02
193.581	46.59
193.8	-25.09
194.02	130.56
194.239	-14.85
194.458	85.5
194.678	-31.23
194.897	28.16
195.116	110.08
195.335	-4.61
195.555	62.98
195.774	62.98
195.993	60.93
196.212	42.5
196.432	11.78
196.651	32.26
196.87	46.59
197.089	75.26
197.308	60.93
197.528	15.87
197.747	-29.18
197.966	32.26
198.185	52.74
198.404	1.54
198.623	11.78
198.842	46.59
199.062	93.69
199.281	91.65
199.5	40.45
199.719	5.63
199.938	58.88
200.157	73.21
200.376	32.26
200.595	79.36
200.814	169.47
201.033	22.02
201.252	15.87
201.471	114.17
201.69	44.54
201.909	30.21
202.128	87.55
202.347	11.78
202.566	-29.18
202.785	13.82
203.004	-8.7
203.223	103.93
203.442	87.55
203.661	1.54
203.879	-0.51
204.098	77.31
204.317	42.5
204.536	50.69
204.755	38.4
204.974	9.73
205.193	42.5
205.411	71.17
205.63	83.45
205.849	9.73
206.068	46.59
206.287	15.87
206.505	26.11
206.724	77.31
206.943	52.74
207.162	1.54
207.381	77.31
207.599	69.12
207.818	81.41
208.037	32.26
208.255	-2.56
208.474	110.08
208.693	65.02
208.911	11.78
209.13	-57.86
209.349	-25.09
209.567	40.45
209.786	36.35
210.005	-20.99
210.223	-0.51
210.442	-12.8
210.661	54.78
210.879	-2.56
211.098	9.73
211.316	36.35
211.535	44.54
211.753	22.02
211.972	22.02
212.191	26.11
212.409	89.6
212.628	58.88
212.846	67.07
213.065	9.73
213.283	73.21
213.502	40.45
213.72	85.5
213.938	40.45
214.157	26.11
214.375	65.02
214.594	50.69
214.812	118.27
215.031	17.92
215.249	-74.24
215.467	11.78
215.686	9.73
215.904	103.93
216.122	26.11
216.341	101.89
216.559	46.59
216.778	81.41
216.996	58.88
217.214	-27.14
217.432	-12.8
217.651	-23.04
217.869	24.06
218.087	11.78
218.306	40.45
218.524	1.54
218.742	79.36
218.96	77.31
219.179	26.11
219.397	-10.75
219.615	77.31
219.833	1.54
220.051	56.83
220.27	54.78
220.488	60.93
220.706	52.74
220.924	73.21
221.142	77.31
221.36	-18.94
221.578	3.58
221.796	91.65
222.015	108.03
222.233	-4.61
222.451	30.21
222.669	3.58
222.887	19.97
223.105	34.3
223.323	-0.51
223.541	44.54
223.759	17.92
223.977	17.92
224.195	48.64
224.413	67.07
224.631	26.11
224.849	52.74
225.067	91.65
225.285	105.98
225.503	34.3
225.721	3.58
225.939	15.87
226.157	9.73
226.375	24.06
226.592	-10.75
226.81	50.69
227.028	26.11
227.246	148.99
227.464	9.73
227.682	83.45
227.9	30.21
228.117	52.74
228.335	85.5
228.553	40.45
228.771	81.41
228.989	40.45
229.206	93.69
229.424	5.63
229.642	-20.99
229.86	34.3
230.077	42.5
230.295	34.3
230.513	38.4
230.731	-41.47
230.948	36.35
231.166	15.87
231.384	26.11
231.601	89.6
231.819	-6.66
232.037	85.5
232.254	-2.56
232.472	-39.42
232.689	9.73
232.907	32.26
233.125	54.78
233.342	-25.09
233.56	44.54
233.777	42.5
233.995	52.74
234.213	7.68
234.43	7.68
234.648	56.83
234.865	-20.99
235.083	-20.99
235.3	75.26
235.518	54.78
235.735	165.37
235.953	34.3
236.17	11.78
236.388	50.69
236.605	52.74
236.822	24.06
237.04	38.4
237.257	52.74
237.475	13.82
237.692	-16.9
237.909	38.4
238.127	1.54
238.344	65.02
238.562	1.54
238.779	15.87
238.996	19.97
239.214	75.26
239.431	19.97
239.648	-20.99
239.865	75.26
240.083	11.78
240.3	48.64
240.517	26.11
240.735	-0.51
240.952	85.5
241.169	67.07
241.386	11.78
241.603	58.88
241.821	79.36
242.038	99.84
242.255	32.26
242.472	17.92
242.689	99.84
242.907	134.65
243.124	83.45
243.341	46.59
243.558	-47.62
243.775	9.73
243.992	-4.61
244.209	105.98
244.426	103.93
244.643	32.26
244.86	11.78
245.078	52.74
245.295	58.88
245.512	75.26
245.729	22.02
245.946	26.11
246.163	65.02
246.38	85.5
246.597	11.78
246.814	17.92
247.031	-29.18
247.248	-25.09
247.464	34.3
247.681	32.26
247.898	44.54
248.115	103.93
248.332	-31.23
248.549	48.64
248.766	77.31
248.983	58.88
249.2	-4.61
249.417	73.21
249.633	19.97
249.85	56.83
250.067	28.16
250.284	118.27
250.501	9.73
250.717	67.07
250.934	-10.75
251.151	67.07
251.368	22.02
251.585	42.5
251.801	24.06
252.018	103.93
252.235	69.12
252.451	22.02
252.668	-12.8
252.885	101.89
253.102	67.07
253.318	38.4
253.535	-45.57
253.752	-2.56
253.968	-23.04
254.185	32.26
254.401	19.97
254.618	-14.85
254.835	44.54
255.051	52.74
255.268	69.12
255.484	46.59
255.701	120.32
255.917	69.12
256.134	28.16
256.351	36.35
256.567	40.45
256.784	48.64
257	9.73
257.217	11.78
257.433	103.93
257.65	34.3
257.866	19.97
258.082	50.69
258.299	3.58
258.515	75.26
258.732	101.89
258.948	83.45
259.165	71.17
259.381	-12.8
259.597	11.78
259.814	140.8
260.03	52.74
260.246	11.78
260.463	67.07
260.679	38.4
260.895	-37.38
261.112	71.17
261.328	-8.7
261.544	97.79
261.761	77.31
261.977	-16.9
262.193	-16.9
262.409	112.13
262.626	44.54
262.842	62.98
263.058	22.02
263.274	-20.99
263.49	9.73
263.707	97.79
263.923	95.74
264.139	13.82
264.355	22.02
264.571	19.97
264.787	13.82
265.004	124.41
265.22	50.69
265.436	7.68
265.652	75.26
265.868	85.5
266.084	3.58
266.3	50.69
266.516	3.58
266.732	128.51
266.948	5.63
267.164	11.78
267.38	79.36
267.596	28.16
267.812	75.26
268.028	40.45
268.244	-33.28
268.46	-41.47
268.676	22.02
268.892	-6.66
269.108	-35.33
269.324	79.36
269.54	13.82
269.756	67.07
269.972	11.78
270.188	13.82
270.403	60.93
270.619	58.88
270.835	85.5
271.051	91.65
271.267	22.02
271.483	56.83
271.698	3.58
271.914	17.92
272.13	73.21
272.346	28.16
272.562	32.26
272.777	67.07
272.993	-20.99
273.209	13.82
273.425	67.07
273.64	60.93
273.856	-25.09
274.072	-4.61
274.287	-16.9
274.503	48.64
274.719	85.5
274.934	-25.09
275.15	15.87
275.366	26.11
275.581	-4.61
275.797	81.41
276.012	-37.38
276.228	40.45
276.444	52.74
276.659	50.69
276.875	3.58
277.09	32.26
277.306	19.97
277.521	34.3
277.737	-29.18
277.952	50.69
278.168	9.73
278.383	44.54
278.599	99.84
278.814	42.5
279.03	36.35
279.245	101.89
279.461	13.82
279.676	38.4
279.892	1.54
280.107	32.26
280.322	44.54
280.538	-6.66
280.753	-12.8
280.969	-49.66
281.184	-25.09
281.399	48.64
281.615	48.64
281.83	17.92
282.045	-94.72
282.26	42.5
282.476	38.4
282.691	32.26
282.906	-20.99
283.122	15.87
283.337	161.28
283.552	105.98
283.767	-20.99
283.983	40.45
284.198	60.93
284.413	26.11
284.628	48.64
284.843	-14.85
285.058	116.22
285.274	65.02
285.489	62.98
285.704	130.56
285.919	-27.14
286.134	-0.51
286.349	60.93
286.564	-10.75
286.779	134.65
286.995	-55.81
287.21	32.26
287.425	93.69
287.64	34.3
287.855	34.3
288.07	-25.09
288.285	32.26
288.5	50.69
288.715	95.74
288.93	91.65
289.145	110.08
289.36	52.74
289.575	-51.71
289.79	42.5
290.004	11.78
290.219	48.64
290.434	5.63
290.649	38.4
290.864	40.45
291.079	50.69
291.294	22.02
291.509	75.26
291.724	83.45
291.938	67.07
292.153	46.59
292.368	75.26
292.583	110.08
292.798	5.63
293.012	44.54
293.227	132.61
293.442	54.78
293.657	-6.66
293.871	93.69
294.086	62.98
294.301	114.17
294.516	114.17
294.73	-6.66
294.945	36.35
295.16	1.54
295.374	52.74
295.589	58.88
295.804	69.12
296.018	-4.61
296.233	-43.52
296.447	24.06
296.662	34.3
296.877	71.17
297.091	15.87
297.306	56.83
297.52	9.73
297.735	-20.99
297.949	52.74
298.164	40.45
298.378	-20.99
298.593	32.26
298.807	69.12
299.022	48.64
299.236	140.8
299.451	38.4
299.665	46.59
299.88	46.59
300.094	38.4
300.309	71.17
300.523	-12.8
300.737	28.16
300.952	120.32
301.166	95.74
301.381	34.3
301.595	124.41
301.809	-4.61
302.024	95.74
302.238	15.87
302.452	17.92
302.667	34.3
302.881	81.41
303.095	67.07
303.309	62.98
303.524	87.55
303.738	48.64
303.952	-37.38
304.166	38.4
304.381	-39.42
304.595	116.22
304.809	114.17
305.023	69.12
305.237	67.07
305.452	56.83
305.666	75.26
305.88	30.21
306.094	62.98
306.308	105.98
306.522	89.6
306.736	75.26
306.95	15.87
307.164	38.4
307.379	-16.9
307.593	153.09
307.807	26.11
308.021	30.21
308.235	56.83
308.449	11.78
308.663	-47.62
308.877	67.07
309.091	52.74
309.305	40.45
309.519	77.31
309.733	75.26
309.947	44.54
310.161	83.45
310.374	65.02
310.588	-0.51
310.802	87.55
311.016	52.74
311.23	48.64
311.444	-23.04
311.658	36.35
311.872	132.61
312.085	163.33
312.299	46.59
312.513	58.88
312.727	28.16
312.941	52.74
313.154	58.88
313.368	-25.09
313.582	22.02
313.796	65.02
314.009	101.89
314.223	132.61
314.437	83.45
314.651	97.79
314.864	28.16
315.078	3.58
315.292	36.35
315.505	56.83
315.719	91.65
315.933	75.26
316.146	7.68
316.36	19.97
316.573	48.64
316.787	40.45
317.001	48.64
317.214	15.87
317.428	65.02
317.641	65.02
317.855	30.21
318.068	85.5
318.282	48.64
318.495	144.89
318.709	60.93
318.922	24.06
319.136	17.92
319.349	62.98
319.563	48.64
319.776	93.69
319.99	58.88
320.203	42.5
320.417	42.5
320.63	-12.8
320.843	44.54
321.057	62.98
321.27	24.06
321.483	56.83
321.697	9.73
321.91	93.69
322.124	5.63
322.337	81.41
322.55	44.54
322.763	56.83
322.977	56.83
323.19	58.88
323.403	67.07
323.617	97.79
323.83	62.98
324.043	69.12
324.256	-43.52
324.469	44.54
324.683	54.78
324.896	52.74
325.109	52.74
325.322	-4.61
325.535	54.78
325.748	83.45
325.962	44.54
326.175	69.12
326.388	91.65
326.601	110.08
326.814	-6.66
327.027	75.26
327.24	50.69
327.453	-25.09
327.666	9.73
327.879	146.94
328.092	-0.51
328.305	75.26
328.518	-35.33
328.731	-2.56
328.944	99.84
329.157	46.59
329.37	110.08
329.583	77.31
329.796	128.51
330.009	15.87
330.222	46.59
330.435	50.69
330.648	99.84
330.861	38.4
331.073	75.26
331.286	38.4
331.499	-2.56
331.712	-55.81
331.925	52.74
332.138	85.5
332.35	93.69
332.563	3.58
332.776	110.08
332.989	50.69
333.202	5.63
333.414	9.73
333.627	34.3
333.84	9.73
334.053	52.74
334.265	32.26
334.478	118.27
334.691	11.78
334.903	134.65
335.116	28.16
335.329	120.32
335.541	73.21
335.754	89.6
335.966	13.82
336.179	83.45
336.392	89.6
336.604	3.58
336.817	73.21
337.029	-18.94
337.242	44.54
337.454	48.64
337.667	126.46
337.88	7.68
338.092	69.12
338.305	99.84
338.517	46.59
338.729	67.07
338.942	200.19
339.154	15.87
339.367	67.07
339.579	118.27
339.792	7.68
340.004	52.74
340.217	11.78
340.429	62.98
340.641	3.58
340.854	52.74
341.066	-14.85
341.278	93.69
341.491	73.21
341.703	95.74
341.915	-23.04
342.128	99.84
342.34	15.87
342.552	17.92
342.764	11.78
342.977	77.31
343.189	56.83
343.401	101.89
343.613	15.87
343.826	3.58
344.038	11.78
344.25	54.78
344.462	36.35
344.674	99.84
344.886	56.83
345.099	15.87
345.311	103.93
345.523	15.87
345.735	3.58
345.947	9.73
346.159	69.12
346.371	65.02
346.583	17.92
346.795	210.43
347.007	60.93
347.219	50.69
347.431	87.55
347.643	126.46
347.855	11.78
348.067	13.82
348.279	97.79
348.491	89.6
348.703	60.93
348.915	50.69
349.127	26.11
349.339	132.61
349.551	132.61
349.763	85.5
349.975	36.35
350.187	120.32
350.399	44.54
350.61	91.65
350.822	30.21
351.034	-25.09
351.246	81.41
351.458	87.55
351.669	105.98
351.881	81.41
352.093	52.74
352.305	48.64
352.517	89.6
352.728	122.37
352.94	69.12
353.152	87.55
353.363	24.06
353.575	93.69
353.787	122.37
353.999	105.98
354.21	124.41
354.422	65.02
354.633	36.35
354.845	79.36
355.057	69.12
355.268	91.65
355.48	-0.51
355.692	7.68
355.903	26.11
356.115	85.5
356.326	-31.23
356.538	79.36
356.749	-2.56
356.961	116.22
357.172	112.13
357.384	-0.51
357.595	101.89
357.807	44.54
358.018	65.02
358.23	95.74
358.441	146.94
358.653	65.02
358.864	-0.51
359.075	34.3
359.287	56.83
359.498	77.31
359.709	40.45
359.921	34.3
360.132	99.84
360.344	69.12
360.555	58.88
360.766	-4.61
360.977	36.35
361.189	-4.61
361.4	26.11
361.611	85.5
361.823	116.22
362.034	3.58
362.245	157.18
362.456	110.08
362.667	58.88
362.879	124.41
363.09	19.97
363.301	32.26
363.512	60.93
363.723	128.51
363.935	75.26
364.146	110.08
364.357	7.68
364.568	28.16
364.779	9.73
364.99	110.08
365.201	26.11
365.412	108.03
365.623	-29.18
365.834	24.06
366.045	60.93
366.256	52.74
366.467	40.45
366.678	93.69
366.889	73.21
367.1	85.5
367.311	91.65
367.522	-20.99
367.733	28.16
367.944	75.26
368.155	54.78
368.366	60.93
368.577	24.06
368.788	44.54
368.999	56.83
369.209	56.83
369.42	151.04
369.631	95.74
369.842	79.36
370.053	-0.51
370.264	22.02
370.474	85.5
370.685	5.63
370.896	93.69
371.107	103.93
371.317	46.59
371.528	58.88
371.739	112.13
371.95	105.98
372.16	77.31
372.371	48.64
372.582	81.41
372.792	101.89
373.003	73.21
373.214	58.88
373.424	44.54
373.635	132.61
373.846	85.5
374.056	50.69
374.267	19.97
374.477	146.94
374.688	124.41
374.898	56.83
375.109	46.59
375.319	44.54
375.53	144.89
375.74	95.74
375.951	3.58
376.161	-29.18
376.372	62.98
376.582	-8.7
376.793	9.73
377.003	1.54
377.214	32.26
377.424	77.31
377.635	54.78
377.845	81.41
378.055	60.93
378.266	38.4
378.476	7.68
378.686	153.09
378.897	71.17
379.107	44.54
379.317	157.18
379.528	87.55
379.738	126.46
379.948	-16.9
380.158	67.07
380.369	91.65
380.579	116.22
380.789	32.26
380.999	153.09
381.21	44.54
381.42	167.42
381.63	34.3
381.84	108.03
382.05	52.74
382.261	146.94
382.471	77.31
382.681	85.5
382.891	140.8
383.101	67.07
383.311	153.09
383.521	50.69
383.731	77.31
383.941	62.98
384.151	75.26
384.361	26.11
384.571	60.93
384.781	128.51
384.991	126.46
385.201	75.26
385.411	69.12
385.621	60.93
385.831	-4.61
386.041	-18.94
386.251	83.45
386.461	44.54
386.671	87.55
386.881	-23.04
387.091	81.41
387.301	73.21
387.511	46.59
387.72	52.74
387.93	50.69
388.14	3.58
388.35	75.26
388.56	42.5
388.769	44.54
388.979	17.92
389.189	26.11
389.399	62.98
389.609	56.83
389.818	140.8
390.028	91.65
390.238	73.21
390.447	56.83
390.657	105.98
390.867	30.21
391.076	54.78
391.286	62.98
391.496	40.45
391.705	87.55
391.915	32.26
392.125	142.85
392.334	81.41
392.544	134.65
392.753	155.13
392.963	60.93
393.172	52.74
393.382	60.93
393.591	126.46
393.801	40.45
394.01	114.17
394.22	118.27
394.429	110.08
394.639	42.5
394.848	60.93
395.058	101.89
395.267	148.99
395.477	171.52
395.686	138.75
395.895	140.8
396.105	159.23
396.314	146.94
396.524	69.12
396.733	93.69
396.942	114.17
397.152	103.93
397.361	202.24
397.57	163.33
397.78	103.93
397.989	85.5
398.198	200.19
398.407	132.61
398.617	140.8
398.826	97.79
399.035	171.52
399.244	97.79
399.453	126.46
399.663	157.18
399.872	175.61
400.081	52.74
400.29	67.07
400.499	120.32
400.708	165.37
400.917	124.41
401.127	140.8
401.336	134.65
401.545	130.56
401.754	124.41
401.963	144.89
402.172	91.65
402.381	167.42
402.59	126.46
402.799	163.33
403.008	189.95
403.217	110.08
403.426	181.76
403.635	187.9
403.844	151.04
404.053	192
404.262	216.57
404.471	179.71
404.68	171.52
404.888	173.57
405.097	189.95
405.306	192
405.515	200.19
405.724	210.43
405.933	204.28
406.142	237.05
406.35	198.14
406.559	228.86
406.768	251.39
406.977	359.93
407.185	187.9
407.394	189.95
407.603	165.37
407.812	192
408.02	310.78
408.229	335.35
408.438	269.82
408.646	288.25
408.855	275.96
409.064	331.26
409.272	353.79
409.481	341.5
409.69	337.4
409.898	288.25
410.107	380.41
410.315	376.31
410.524	351.74
410.733	382.46
410.941	407.03
411.15	482.81
411.358	450.04
411.567	491
411.775	536.06
411.984	472.57
412.192	527.86
412.401	572.92
412.609	652.79
412.818	552.44
413.026	658.93
413.234	634.36
413.443	609.78
413.651	736.76
413.86	622.07
414.068	740.85
414.276	744.95
414.485	663.03
414.693	767.48
414.901	845.3
415.11	830.96
415.318	810.48
415.526	912.88
415.734	1013.23
415.943	986.61
416.151	1000.94
416.359	1013.23
416.567	1058.29
416.776	1119.73
416.984	1152.49
417.192	1189.36
417.4	1201.65
417.608	1283.56
417.817	1205.74
418.025	1351.15
418.233	1408.49
418.441	1285.61
418.649	1453.55
418.857	1564.14
419.065	1648.1
419.273	1641.96
419.481	1650.15
419.689	1695.21
419.897	1826.28
420.105	1813.99
420.313	1910.24
420.521	1932.77
420.729	1983.97
420.937	2026.98
421.145	2215.39
421.353	2237.92
421.561	2295.26
421.769	2561.5
421.977	2504.15
422.185	2534.87
422.393	2620.89
422.601	2803.16
422.809	2837.97
423.017	2803.16
423.224	2928.08
423.432	2942.42
423.64	3147.22
423.848	3229.13
424.056	3231.18
424.263	3483.08
424.471	3483.08
424.679	3593.67
424.887	3673.54
425.094	3874.24
425.302	3847.62
425.51	4085.19
425.718	4074.95
425.925	4226.5
426.133	4369.85
426.341	4578.75
426.548	4660.66
426.756	4791.73
426.964	4988.34
427.171	5227.95
427.379	5340.59
427.586	5385.65
427.794	5486
428.001	5803.43
428.209	6086.05
428.417	6182.31
428.624	6499.74
428.832	6356.38
429.039	6253.98
429.247	6440.35
429.454	6987.16
429.662	7357.84
429.869	6901.14
430.076	7507.34
430.284	7173.52
430.491	7470.48
430.699	7923.08
430.906	7941.51
431.114	8121.73
431.321	8349.06
431.528	8498.56
431.736	9117.04
431.943	9297.27
432.15	9217.4
432.358	9352.56
432.565	9721.2
432.772	9805.16
432.979	10362.21
433.187	10362.21
433.394	10480.99
433.601	11146.58
433.808	11111.77
434.016	11070.81
434.223	11619.66
434.43	12346.69
434.637	12029.26
434.844	12676.41
435.052	12993.85
435.259	13073.72
435.466	13167.93
435.673	12893.5
435.88	13894.96
436.087	14820.64
436.294	14646.56
436.501	14224.68
436.708	14282.02
436.915	14859.55
437.122	15713.55
437.329	15471.89
437.537	16082.19
437.743	16272.65
437.95	16211.21
438.157	17120.51
438.364	17538.29
438.571	17433.85
438.778	17798.38
438.985	19320.03
439.192	18459.88
439.399	19029.21
439.606	19027.17
439.813	19549.4
440.02	20921.54
440.227	20149.45
440.433	20391.11
440.64	21046.46
440.847	20853.95
441.054	21302.46
441.261	23039.14
441.467	22611.11
441.674	23061.66
441.881	23714.97
442.088	23717.01
442.294	23577.75
442.501	24048.79
442.708	24695.94
442.914	25691.26
443.121	26356.85
443.328	25902.2
443.534	27536.48
443.741	26844.26
443.948	26313.84
444.154	28329.04
444.361	28431.44
444.568	28417.1
444.774	28623.95
444.981	28515.4
445.187	29740.09
445.394	30782.51
445.6	30542.89
445.807	33250.31
446.013	31818.78
446.22	32687.12
446.426	33944.57
446.633	33940.47
446.839	35042.28
447.046	33752.06
447.252	35541.99
447.459	35763.17
447.665	35312.61
447.871	36936.65
448.078	38425.53
448.284	36492.24
448.491	38024.12
448.697	39398.31
448.903	39338.92
449.11	39549.86
449.316	39068.59
449.522	39723.94
449.728	40889.23
449.935	40883.09
450.141	40737.68
450.347	41972.61
450.553	40670.1
450.76	40633.24
450.966	42128.25
451.172	41939.84
451.378	42582.9
451.584	41976.7
451.791	42480.5
451.997	42431.35
452.203	43617.13
452.409	43201.39
452.615	42566.52
452.821	41612.17
453.027	41268.11
453.233	42926.96
453.44	41016.21
453.646	41933.7
453.852	41784.19
454.058	42468.22
454.264	40856.46
454.47	41716.61
454.676	40840.08
454.882	42163.07
455.088	38728.63
455.294	39246.76
455.5	39467.94
455.705	40244.12
455.911	38118.33
456.117	37723.07
456.323	37004.24
456.529	35025.9
456.735	36740.05
456.941	35728.35
457.147	34939.88
457.352	33993.72
457.558	33379.33
457.764	33498.11
457.97	32951.31
458.176	32199.7
458.381	32187.41
458.587	30764.07
458.793	30651.44
458.999	29142.08
459.204	30915.62
459.41	30135.35
459.616	28429.39
459.821	28660.81
460.027	28040.28
460.233	27481.18
460.438	26182.77
460.644	26848.36
460.85	25427.07
461.055	24962.18
461.261	24812.68
461.466	23112.86
461.672	22488.23
461.878	23874.71
462.083	22338.73
462.289	21961.9
462.494	21605.56
462.7	20757.7
462.905	20370.63
463.111	21150.91
463.316	20915.39
463.522	20716.74
463.727	20665.54
463.932	20344.01
464.138	20391.11
464.343	20303.05
464.549	19739.86
464.754	20909.25
464.959	20321.48
465.165	20194.51
465.37	19424.47
465.575	19061.98
465.781	19688.66
465.986	19739.86
466.191	19176.67
466.397	18742.5
466.602	17900.78
466.807	18390.25
467.012	18666.72
