Data from USB4F104151__84__10-24-17-500.txt Node

Date: Wed Mar 12 10:24:17 EDT 2025
User: louis
Spectrometer: USB4F10415
Trigger mode: 4
Integration Time (sec): 3.000000E-2
Scans to average: 1
Electric dark correction enabled: true
Nonlinearity correction enabled: false
Boxcar width: 0
XAxis mode: Wavelengths
Number of Pixels in Spectrum: 3648
>>>>>Begin Spectral Data<<<<<
178.204	-41.13
178.424	-41.13
178.644	-41.13
178.864	-82.09
179.084	-77.99
179.304	-53.42
179.524	24.4
179.744	-67.75
179.964	12.12
180.184	-69.8
180.404	61.27
180.624	8.02
180.844	20.31
181.064	-14.51
181.283	48.98
181.503	16.21
181.723	14.17
181.943	-28.84
182.163	75.6
182.383	-4.27
182.602	36.69
182.822	1.88
183.042	55.12
183.262	22.36
183.482	59.22
183.701	28.5
183.921	-8.36
184.141	10.07
184.361	-16.55
184.58	67.41
184.8	-2.22
185.02	20.31
185.239	83.8
185.459	67.41
185.679	44.88
185.898	12.12
186.118	5.97
186.338	85.84
186.557	69.46
186.777	73.56
186.997	32.6
187.216	42.84
187.436	69.46
187.655	96.08
187.875	61.27
188.095	-2.22
188.314	102.23
188.534	98.13
188.753	55.12
188.973	59.22
189.192	94.04
189.412	12.12
189.631	44.88
189.851	77.65
190.07	8.02
190.29	55.12
190.509	94.04
190.729	20.31
190.948	40.79
191.168	173.91
191.387	89.94
191.607	59.22
191.826	44.88
192.045	-14.51
192.265	48.98
192.484	32.6
192.704	40.79
192.923	51.03
193.142	130.9
193.362	79.7
193.581	130.9
193.8	48.98
194.02	20.31
194.239	14.17
194.458	75.6
194.678	57.17
194.897	81.75
195.116	65.36
195.335	-6.31
195.555	59.22
195.774	32.6
195.993	57.17
196.212	69.46
196.432	12.12
196.651	48.98
196.87	-12.46
197.089	137.04
197.308	59.22
197.528	63.32
197.747	28.5
197.966	65.36
198.185	83.8
198.404	8.02
198.623	48.98
198.842	108.37
199.062	106.32
199.281	61.27
199.5	71.51
199.719	48.98
199.938	65.36
200.157	44.88
200.376	114.52
200.595	51.03
200.814	63.32
201.033	67.41
201.252	85.84
201.471	32.6
201.69	71.51
201.909	51.03
202.128	67.41
202.347	102.23
202.566	-14.51
202.785	26.45
203.004	34.64
203.223	67.41
203.442	94.04
203.661	3.93
203.879	65.36
204.098	110.42
204.317	28.5
204.536	-55.47
204.755	1.88
204.974	51.03
205.193	57.17
205.411	153.43
205.63	67.41
205.849	12.12
206.068	53.08
206.287	46.93
206.505	48.98
206.724	-18.6
206.943	53.08
207.162	3.93
207.381	44.88
207.599	10.07
207.818	91.99
208.037	20.31
208.255	57.17
208.474	8.02
208.693	75.6
208.911	36.69
209.13	69.46
209.349	53.08
209.567	61.27
209.786	94.04
210.005	87.89
210.223	102.23
210.442	-2.22
210.661	67.41
210.879	40.79
211.098	122.71
211.316	12.12
211.535	75.6
211.753	65.36
211.972	100.18
212.191	81.75
212.409	69.46
212.628	96.08
212.846	57.17
213.065	110.42
213.283	132.95
213.502	16.21
213.72	96.08
213.938	28.5
214.157	38.74
214.375	145.24
214.594	28.5
214.812	42.84
215.031	57.17
215.249	69.46
215.467	59.22
215.686	3.93
215.904	100.18
216.122	-20.65
216.341	42.84
216.559	65.36
216.778	30.55
216.996	75.6
217.214	28.5
217.432	79.7
217.651	34.64
217.869	77.65
218.087	114.52
218.306	51.03
218.524	-4.27
218.742	-47.27
218.96	139.09
219.179	63.32
219.397	-26.79
219.615	44.88
219.833	104.28
220.051	61.27
220.27	143.19
220.488	5.97
220.706	59.22
220.924	116.56
221.142	102.23
221.36	1.88
221.578	22.36
221.796	-0.17
222.015	46.93
222.233	32.6
222.451	122.71
222.669	71.51
222.887	16.21
223.105	65.36
223.323	-0.17
223.541	-28.84
223.759	81.75
223.977	81.75
224.195	118.61
224.413	94.04
224.631	-10.41
224.849	53.08
225.067	116.56
225.285	-20.65
225.503	-10.41
225.721	-49.32
225.939	10.07
226.157	63.32
226.375	153.43
226.592	51.03
226.81	102.23
227.028	75.6
227.246	77.65
227.464	81.75
227.682	65.36
227.9	102.23
228.117	44.88
228.335	51.03
228.553	83.8
228.771	32.6
228.989	137.04
229.206	42.84
229.424	10.07
229.642	18.26
229.86	38.74
230.077	-12.46
230.295	42.84
230.513	67.41
230.731	28.5
230.948	104.28
231.166	139.09
231.384	42.84
231.601	55.12
231.819	91.99
232.037	20.31
232.254	83.8
232.472	34.64
232.689	141.14
232.907	108.37
233.125	20.31
233.342	87.89
233.56	18.26
233.777	34.64
233.995	-51.37
234.213	40.79
234.43	69.46
234.648	1.88
234.865	24.4
235.083	-24.75
235.3	44.88
235.518	98.13
235.735	100.18
235.953	94.04
236.17	51.03
236.388	79.7
236.605	61.27
236.822	106.32
237.04	126.8
237.257	8.02
237.475	34.64
237.692	20.31
237.909	89.94
238.127	83.8
238.344	71.51
238.562	-12.46
238.779	16.21
238.996	-20.65
239.214	75.6
239.431	98.13
239.648	26.45
239.865	98.13
240.083	96.08
240.3	36.69
240.517	-16.55
240.735	120.66
240.952	143.19
241.169	98.13
241.386	44.88
241.603	81.75
241.821	20.31
242.038	61.27
242.255	81.75
242.472	106.32
242.689	36.69
242.907	122.71
243.124	36.69
243.341	102.23
243.558	51.03
243.775	38.74
243.992	-22.7
244.209	116.56
244.426	120.66
244.643	106.32
244.86	12.12
245.078	53.08
245.295	48.98
245.512	77.65
245.729	-73.9
245.946	55.12
246.163	12.12
246.38	34.64
246.597	135
246.814	89.94
247.031	89.94
247.248	8.02
247.464	81.75
247.681	77.65
247.898	24.4
248.115	112.47
248.332	10.07
248.549	167.76
248.766	147.28
248.983	67.41
249.2	81.75
249.417	61.27
249.633	12.12
249.85	71.51
250.067	10.07
250.284	34.64
250.501	69.46
250.717	67.41
250.934	48.98
251.151	3.93
251.368	18.26
251.585	116.56
251.801	59.22
252.018	14.17
252.235	128.85
252.451	20.31
252.668	59.22
252.885	94.04
253.102	30.55
253.318	8.02
253.535	85.84
253.752	36.69
253.968	3.93
254.185	96.08
254.401	36.69
254.618	16.21
254.835	24.4
255.051	57.17
255.268	22.36
255.484	75.6
255.701	46.93
255.917	18.26
256.134	48.98
256.351	57.17
256.567	10.07
256.784	102.23
257	57.17
257.217	30.55
257.433	40.79
257.65	67.41
257.866	59.22
258.082	61.27
258.299	-41.13
258.515	44.88
258.732	3.93
258.948	73.56
259.165	1.88
259.381	53.08
259.597	67.41
259.814	85.84
260.03	65.36
260.246	36.69
260.463	38.74
260.679	106.32
260.895	30.55
261.112	61.27
261.328	16.21
261.544	38.74
261.761	91.99
261.977	42.84
262.193	48.98
262.409	61.27
262.626	59.22
262.842	20.31
263.058	32.6
263.274	12.12
263.49	75.6
263.707	16.21
263.923	48.98
264.139	42.84
264.355	53.08
264.571	151.38
264.787	110.42
265.004	53.08
265.22	77.65
265.436	12.12
265.652	46.93
265.868	28.5
266.084	59.22
266.3	48.98
266.516	24.4
266.732	139.09
266.948	32.6
267.164	-8.36
267.38	110.42
267.596	34.64
267.812	83.8
268.028	155.47
268.244	26.45
268.46	85.84
268.676	59.22
268.892	71.51
269.108	-20.65
269.324	61.27
269.54	48.98
269.756	85.84
269.972	110.42
270.188	98.13
270.403	51.03
270.619	106.32
270.835	102.23
271.051	34.64
271.267	69.46
271.483	-6.31
271.698	98.13
271.914	65.36
272.13	20.31
272.346	65.36
272.562	69.46
272.777	102.23
272.993	57.17
273.209	42.84
273.425	114.52
273.64	-18.6
273.856	71.51
274.072	57.17
274.287	40.79
274.503	16.21
274.719	-6.31
274.934	65.36
275.15	53.08
275.366	28.5
275.581	10.07
275.797	67.41
276.012	77.65
276.228	73.56
276.444	65.36
276.659	26.45
276.875	3.93
277.09	77.65
277.306	-4.27
277.521	81.75
277.737	75.6
277.952	100.18
278.168	48.98
278.383	102.23
278.599	-16.55
278.814	75.6
279.03	75.6
279.245	143.19
279.461	112.47
279.676	44.88
279.892	42.84
280.107	110.42
280.322	16.21
280.538	32.6
280.753	-0.17
280.969	108.37
281.184	44.88
281.399	157.52
281.615	44.88
281.83	126.8
282.045	-18.6
282.26	40.79
282.476	130.9
282.691	10.07
282.906	108.37
283.122	100.18
283.337	-28.84
283.552	104.28
283.767	42.84
283.983	141.14
284.198	40.79
284.413	122.71
284.628	53.08
284.843	126.8
285.058	61.27
285.274	51.03
285.489	5.97
285.704	145.24
285.919	69.46
286.134	61.27
286.349	57.17
286.564	104.28
286.779	102.23
286.995	30.55
287.21	16.21
287.425	55.12
287.64	57.17
287.855	85.84
288.07	51.03
288.285	57.17
288.5	-2.22
288.715	100.18
288.93	10.07
289.145	44.88
289.36	171.86
289.575	-34.99
289.79	55.12
290.004	28.5
290.219	61.27
290.434	-4.27
290.649	40.79
290.864	94.04
291.079	20.31
291.294	85.84
291.509	34.64
291.724	18.26
291.938	59.22
292.153	38.74
292.368	51.03
292.583	53.08
292.798	100.18
293.012	89.94
293.227	85.84
293.442	48.98
293.657	94.04
293.871	135
294.086	102.23
294.301	124.76
294.516	59.22
294.73	143.19
294.945	-8.36
295.16	32.6
295.374	51.03
295.589	81.75
295.804	-2.22
296.018	53.08
296.233	89.94
296.447	126.8
296.662	12.12
296.877	57.17
297.091	75.6
297.306	53.08
297.52	42.84
297.735	69.46
297.949	3.93
298.164	85.84
298.378	24.4
298.593	34.64
298.807	10.07
299.022	42.84
299.236	153.43
299.451	94.04
299.665	57.17
299.88	-0.17
300.094	12.12
300.309	71.51
300.523	40.79
300.737	57.17
300.952	22.36
301.166	75.6
301.381	42.84
301.595	53.08
301.809	118.61
302.024	79.7
302.238	83.8
302.452	98.13
302.667	48.98
302.881	75.6
303.095	22.36
303.309	81.75
303.524	-4.27
303.738	12.12
303.952	69.46
304.166	16.21
304.381	-0.17
304.595	110.42
304.809	42.84
305.023	8.02
305.237	3.93
305.452	38.74
305.666	98.13
305.88	135
306.094	38.74
306.308	69.46
306.522	44.88
306.736	14.17
306.95	61.27
307.164	89.94
307.379	102.23
307.593	96.08
307.807	32.6
308.021	63.32
308.235	3.93
308.449	53.08
308.663	38.74
308.877	188.24
309.091	96.08
309.305	83.8
309.519	28.5
309.733	89.94
309.947	53.08
310.161	89.94
310.374	40.79
310.588	55.12
310.802	46.93
311.016	75.6
311.23	67.41
311.444	59.22
311.658	38.74
311.872	63.32
312.085	40.79
312.299	73.56
312.513	26.45
312.727	57.17
312.941	57.17
313.154	83.8
313.368	69.46
313.582	1.88
313.796	89.94
314.009	-4.27
314.223	94.04
314.437	16.21
314.651	73.56
314.864	141.14
315.078	20.31
315.292	65.36
315.505	48.98
315.719	85.84
315.933	53.08
316.146	36.69
316.36	26.45
316.573	98.13
316.787	12.12
317.001	32.6
317.214	28.5
317.428	126.8
317.641	96.08
317.855	48.98
318.068	89.94
318.282	116.56
318.495	-24.75
318.709	75.6
318.922	71.51
319.136	83.8
319.349	91.99
319.563	69.46
319.776	61.27
319.99	16.21
320.203	71.51
320.417	79.7
320.63	-4.27
320.843	145.24
321.057	48.98
321.27	94.04
321.483	10.07
321.697	153.43
321.91	69.46
322.124	79.7
322.337	42.84
322.55	44.88
322.763	65.36
322.977	40.79
323.19	110.42
323.403	85.84
323.617	46.93
323.83	112.47
324.043	40.79
324.256	-16.55
324.469	12.12
324.683	79.7
324.896	46.93
325.109	-6.31
325.322	10.07
325.535	120.66
325.748	44.88
325.962	-12.46
326.175	36.69
326.388	89.94
326.601	59.22
326.814	102.23
327.027	63.32
327.24	81.75
327.453	40.79
327.666	116.56
327.879	98.13
328.092	87.89
328.305	48.98
328.518	14.17
328.731	-14.51
328.944	14.17
329.157	126.8
329.37	153.43
329.583	126.8
329.796	71.51
330.009	69.46
330.222	32.6
330.435	42.84
330.648	5.97
330.861	85.84
331.073	59.22
331.286	67.41
331.499	-10.41
331.712	57.17
331.925	51.03
332.138	69.46
332.35	59.22
332.563	12.12
332.776	91.99
332.989	116.56
333.202	104.28
333.414	122.71
333.627	77.65
333.84	40.79
334.053	139.09
334.265	124.76
334.478	122.71
334.691	44.88
334.903	89.94
335.116	81.75
335.329	110.42
335.541	65.36
335.754	53.08
335.966	24.4
336.179	40.79
336.392	-30.89
336.604	16.21
336.817	57.17
337.029	63.32
337.242	-6.31
337.454	106.32
337.667	10.07
337.88	57.17
338.092	126.8
338.305	24.4
338.517	87.89
338.729	59.22
338.942	77.65
339.154	34.64
339.367	120.66
339.579	42.84
339.792	87.89
340.004	51.03
340.217	40.79
340.429	28.5
340.641	110.42
340.854	89.94
341.066	98.13
341.278	69.46
341.491	96.08
341.703	63.32
341.915	63.32
342.128	106.32
342.34	61.27
342.552	-2.22
342.764	40.79
342.977	100.18
343.189	67.41
343.401	28.5
343.613	36.69
343.826	75.6
344.038	34.64
344.25	98.13
344.462	102.23
344.674	102.23
344.886	161.62
345.099	26.45
345.311	67.41
345.523	108.37
345.735	8.02
345.947	69.46
346.159	34.64
346.371	53.08
346.583	63.32
346.795	110.42
347.007	137.04
347.219	55.12
347.431	114.52
347.643	151.38
347.855	36.69
348.067	169.81
348.279	104.28
348.491	34.64
348.703	83.8
348.915	36.69
349.127	67.41
349.339	69.46
349.551	8.02
349.763	83.8
349.975	110.42
350.187	71.51
350.399	122.71
350.61	-6.31
350.822	63.32
351.034	-39.08
351.246	55.12
351.458	55.12
351.669	63.32
351.881	44.88
352.093	-14.51
352.305	108.37
352.517	79.7
352.728	96.08
352.94	40.79
353.152	87.89
353.363	91.99
353.575	65.36
353.787	-0.17
353.999	122.71
354.21	71.51
354.422	46.93
354.633	79.7
354.845	110.42
355.057	126.8
355.268	75.6
355.48	42.84
355.692	16.21
355.903	48.98
356.115	118.61
356.326	-12.46
356.538	61.27
356.749	108.37
356.961	141.14
357.172	42.84
357.384	77.65
357.595	114.52
357.807	32.6
358.018	48.98
358.23	85.84
358.441	32.6
358.653	83.8
358.864	104.28
359.075	28.5
359.287	5.97
359.498	96.08
359.709	10.07
359.921	59.22
360.132	141.14
360.344	98.13
360.555	77.65
360.766	137.04
360.977	83.8
361.189	94.04
361.4	94.04
361.611	110.42
361.823	96.08
362.034	79.7
362.245	51.03
362.456	-53.42
362.667	114.52
362.879	10.07
363.09	106.32
363.301	114.52
363.512	-32.94
363.723	12.12
363.935	18.26
364.146	118.61
364.357	81.75
364.568	65.36
364.779	94.04
364.99	71.51
365.201	108.37
365.412	94.04
365.623	-12.46
365.834	110.42
366.045	69.46
366.256	40.79
366.467	91.99
366.678	67.41
366.889	102.23
367.1	73.56
367.311	122.71
367.522	44.88
367.733	48.98
367.944	128.85
368.155	77.65
368.366	118.61
368.577	106.32
368.788	22.36
368.999	-32.94
369.209	159.57
369.42	161.62
369.631	100.18
369.842	42.84
370.053	71.51
370.264	159.57
370.474	44.88
370.685	-4.27
370.896	77.65
371.107	116.56
371.317	120.66
371.528	106.32
371.739	67.41
371.95	147.28
372.16	122.71
372.371	26.45
372.582	77.65
372.792	102.23
373.003	83.8
373.214	20.31
373.424	69.46
373.635	96.08
373.846	77.65
374.056	163.67
374.267	102.23
374.477	51.03
374.688	59.22
374.898	128.85
375.109	141.14
375.319	61.27
375.53	135
375.74	85.84
375.951	46.93
376.161	53.08
376.372	53.08
376.582	51.03
376.793	-22.7
377.003	75.6
377.214	40.79
377.424	40.79
377.635	106.32
377.845	26.45
378.055	98.13
378.266	8.02
378.476	36.69
378.686	75.6
378.897	42.84
379.107	155.47
379.317	120.66
379.528	51.03
379.738	75.6
379.948	-0.17
380.158	108.37
380.369	108.37
380.579	36.69
380.789	42.84
380.999	51.03
381.21	163.67
381.42	91.99
381.63	69.46
381.84	110.42
382.05	73.56
382.261	40.79
382.471	91.99
382.681	67.41
382.891	48.98
383.101	96.08
383.311	28.5
383.521	10.07
383.731	59.22
383.941	135
384.151	53.08
384.361	57.17
384.571	108.37
384.781	32.6
384.991	171.86
385.201	122.71
385.411	40.79
385.621	75.6
385.831	20.31
386.041	100.18
386.251	67.41
386.461	91.99
386.671	51.03
386.881	44.88
387.091	106.32
387.301	120.66
387.511	55.12
387.72	89.94
387.93	61.27
388.14	91.99
388.35	100.18
388.56	102.23
388.769	36.69
388.979	124.76
389.189	63.32
389.399	44.88
389.609	126.8
389.818	75.6
390.028	94.04
390.238	24.4
390.447	96.08
390.657	98.13
390.867	126.8
391.076	116.56
391.286	75.6
391.496	40.79
391.705	65.36
391.915	81.75
392.125	63.32
392.334	83.8
392.544	96.08
392.753	161.62
392.963	91.99
393.172	139.09
393.382	102.23
393.591	77.65
393.801	135
394.01	163.67
394.22	65.36
394.429	110.42
394.639	67.41
394.848	83.8
395.058	116.56
395.267	75.6
395.477	110.42
395.686	98.13
395.895	122.71
396.105	98.13
396.314	98.13
396.524	122.71
396.733	196.43
396.942	98.13
397.152	87.89
397.361	165.71
397.57	139.09
397.78	116.56
397.989	124.76
398.198	135
398.407	108.37
398.617	135
398.826	141.14
399.035	163.67
399.244	163.67
399.453	190.29
399.663	141.14
399.872	233.3
400.081	118.61
400.29	188.24
400.499	100.18
400.708	151.38
400.917	120.66
401.127	128.85
401.336	126.8
401.545	143.19
401.754	157.52
401.963	210.77
402.172	110.42
402.381	100.18
402.59	151.38
402.799	137.04
403.008	173.91
403.217	130.9
403.426	180.05
403.635	147.28
403.844	145.24
404.053	135
404.262	169.81
404.471	214.87
404.68	221.01
404.888	200.53
405.097	165.71
405.306	218.96
405.515	100.18
405.724	161.62
405.933	214.87
406.142	266.07
406.35	184.15
406.559	276.31
406.768	245.59
406.977	304.98
407.185	223.06
407.394	237.39
407.603	251.73
407.812	239.44
408.02	266.07
408.229	280.4
408.438	270.16
408.646	280.4
408.855	321.36
409.064	249.68
409.272	307.02
409.481	311.12
409.69	245.59
409.898	311.12
410.107	378.7
410.315	468.81
410.524	290.64
410.733	460.62
410.941	393.04
411.15	462.67
411.358	466.77
411.567	454.48
411.775	450.38
411.984	575.31
412.192	515.92
412.401	513.87
412.609	513.87
412.818	560.97
413.026	677.71
413.234	646.99
413.443	622.41
413.651	593.74
413.86	616.27
414.068	659.28
414.276	773.96
414.485	649.04
414.693	675.66
414.901	761.67
415.11	839.5
415.318	749.39
415.526	841.54
415.734	849.74
415.943	902.98
416.151	935.75
416.359	872.26
416.567	956.23
416.776	1062.73
416.984	1068.87
417.192	1099.59
417.4	1132.36
417.608	1109.83
417.817	1224.51
418.025	1220.42
418.233	1273.67
418.441	1318.72
418.649	1394.5
418.857	1484.61
419.065	1445.7
419.273	1519.42
419.481	1591.1
419.689	1623.87
419.897	1630.01
420.105	1576.77
420.313	1726.27
420.521	1777.47
420.729	1765.18
420.937	1910.58
421.145	1929.02
421.353	1984.31
421.561	2185.01
421.769	2154.29
421.977	2301.75
422.185	2232.12
422.393	2344.75
422.601	2561.84
422.809	2574.13
423.017	2582.32
423.224	2533.17
423.432	2674.48
423.64	2654
423.848	3028.78
424.056	2879.27
424.263	3174.18
424.471	3266.34
424.679	3157.8
424.887	3454.75
425.094	3487.52
425.302	3587.87
425.51	3700.51
425.718	3747.61
425.925	3774.24
426.133	3862.3
426.341	4218.64
426.548	4306.71
426.756	4374.29
426.964	4319
427.171	4615.95
427.379	4777.74
427.586	4990.73
427.794	4996.87
428.001	5244.68
428.209	5377.8
428.417	5328.64
428.624	5635.84
428.832	5680.89
429.039	5672.7
429.247	5836.54
429.454	6291.19
429.662	6596.34
429.869	6260.47
430.076	6469.36
430.284	6495.99
430.491	6942.44
430.699	7102.18
430.906	7194.34
431.114	7141.1
431.321	7335.65
431.528	7665.38
431.736	7937.76
431.943	8341.21
432.15	8429.27
432.358	8275.67
432.565	8715.98
432.772	8728.27
432.979	9164.49
433.187	9250.5
433.394	9459.4
433.601	9903.81
433.808	9889.47
434.016	9918.14
434.223	10299.06
434.43	10800.82
434.637	10596.02
434.844	11318.95
435.052	11654.82
435.259	11499.17
435.466	11783.84
435.673	11675.3
435.88	12453.53
436.087	12940.94
436.294	12826.26
436.501	12539.54
436.708	13008.53
436.915	13422.22
437.122	13895.3
437.329	13854.34
437.537	14505.59
437.743	14452.34
437.95	14329.47
438.157	15058.54
438.364	15767.14
438.571	15793.76
438.778	16215.65
438.985	17227.34
439.192	16547.42
439.399	17092.18
439.606	16604.76
439.813	17624.65
440.02	18771.51
440.227	18200.13
440.433	18255.42
440.64	18865.72
440.847	18409.02
441.054	19346.99
441.261	20610.59
441.467	20278.82
441.674	20583.96
441.881	21155.35
442.088	21124.63
442.294	21055
442.501	21605.9
442.708	21997.06
442.914	23057.91
443.121	23858.67
443.328	22978.04
443.534	24864.22
443.741	24280.55
443.948	23848.43
444.154	25630.16
444.361	25247.19
444.568	25683.41
444.774	25402.83
444.981	25589.2
445.187	26234.31
445.394	27841.96
445.6	27458.99
445.807	29865.36
446.013	28601.76
446.22	29132.18
446.426	30217.61
446.633	30549.38
446.839	31335.8
447.046	30170.5
447.252	31595.89
447.459	31817.07
447.665	31495.54
447.871	33097.05
448.078	34493.77
448.284	32509.29
448.491	33609.04
448.697	34852.16
448.903	35523.9
449.11	35603.77
449.316	34983.23
449.522	35626.29
449.728	36445.48
449.935	36523.3
450.141	36640.04
450.347	37532.95
450.553	36386.09
450.76	36920.61
450.966	37989.65
451.172	37252.38
451.378	38456.59
451.584	37598.49
451.791	38556.94
451.997	38116.62
452.203	39101.7
452.409	38905.09
452.615	38913.28
452.821	37184.8
453.027	36949.28
453.233	38769.93
453.44	36992.29
453.646	37602.58
453.852	37637.4
454.058	38407.44
454.264	37176.61
454.47	38008.08
454.676	36943.14
454.882	37846.29
455.088	34846.02
455.294	35249.47
455.5	35657.01
455.705	36365.61
455.911	34622.79
456.117	34059.6
456.323	33596.76
456.529	31651.19
456.735	32990.56
456.941	32019.82
457.147	31563.12
457.352	30891.39
457.558	30311.81
457.764	30530.95
457.97	29506.96
458.176	29173.14
458.381	29017.5
458.587	27534.77
458.793	27579.82
458.999	26215.88
459.204	28472.74
459.41	27348.4
459.616	25636.3
459.821	25834.96
460.027	25402.83
460.233	25148.89
460.438	23950.82
460.644	24108.52
460.85	23047.67
461.055	22609.4
461.261	22539.77
461.466	21100.05
461.672	20323.87
461.878	21517.84
462.083	20104.74
462.289	19793.45
462.494	19551.79
462.7	18705.98
462.905	18486.84
463.111	19011.12
463.316	19138.1
463.522	18697.78
463.727	18697.78
463.932	18593.34
464.138	18257.47
464.343	18497.08
464.549	17935.94
464.754	18906.68
464.959	18767.41
465.165	18239.04
465.37	17448.52
465.575	17112.66
465.781	18056.77
465.986	17888.84
466.191	17219.15
466.397	16866.9
466.602	16229.98
466.807	16848.47
