Data from USB4F104151__294__10-42-29-531.txt Node

Date: Wed Mar 12 10:42:29 EDT 2025
User: louis
Spectrometer: USB4F10415
Trigger mode: 4
Integration Time (sec): 3.000000E-2
Scans to average: 1
Electric dark correction enabled: true
Nonlinearity correction enabled: false
Boxcar width: 0
XAxis mode: Wavelengths
Number of Pixels in Spectrum: 3648
>>>>>Begin Spectral Data<<<<<
178.204	-78.16
178.424	-78.16
178.644	-78.16
178.864	-194.9
179.084	-74.07
179.304	-8.53
179.524	26.28
179.744	-8.53
179.964	7.85
180.184	-41.3
180.404	-4.44
180.624	-55.64
180.844	-8.53
181.064	-8.53
181.283	67.24
181.503	30.38
181.723	3.75
181.943	-47.44
182.163	100.01
182.383	52.91
182.602	69.29
182.822	81.58
183.042	40.62
183.262	40.62
183.482	20.14
183.701	-2.39
183.921	9.9
184.141	11.95
184.361	97.96
184.58	-20.82
184.8	-53.59
185.02	-0.34
185.239	83.63
185.459	32.43
185.679	73.39
185.898	1.71
186.118	71.34
186.338	1.71
186.557	83.63
186.777	20.14
186.997	3.75
187.216	61.1
187.436	126.63
187.655	5.8
187.875	48.81
188.095	5.8
188.314	32.43
188.534	42.67
188.753	-22.87
188.973	85.67
189.192	108.2
189.412	48.81
189.631	20.14
189.851	5.8
190.07	61.1
190.29	28.33
190.509	63.15
190.729	5.8
190.948	87.72
191.168	190.12
191.387	57
191.607	85.67
191.826	16.04
192.045	46.76
192.265	97.96
192.484	32.43
192.704	24.23
192.923	-20.82
193.142	71.34
193.362	71.34
193.581	59.05
193.8	13.99
194.02	54.95
194.239	24.23
194.458	110.25
194.678	20.14
194.897	46.76
195.116	57
195.335	30.38
195.555	106.15
195.774	-49.49
195.993	34.47
196.212	40.62
196.432	30.38
196.651	52.91
196.87	81.58
197.089	104.11
197.308	54.95
197.528	63.15
197.747	9.9
197.966	65.19
198.185	59.05
198.404	71.34
198.623	42.67
198.842	13.99
199.062	61.1
199.281	54.95
199.5	63.15
199.719	124.58
199.938	-0.34
200.157	-0.34
200.376	34.47
200.595	126.63
200.814	36.52
201.033	22.19
201.252	95.91
201.471	63.15
201.69	97.96
201.909	28.33
202.128	40.62
202.347	36.52
202.566	48.81
202.785	7.85
203.004	63.15
203.223	130.73
203.442	40.62
203.661	-12.63
203.879	63.15
204.098	36.52
204.317	48.81
204.536	140.97
204.755	57
204.974	11.95
205.193	95.91
205.411	42.67
205.63	36.52
205.849	5.8
206.068	3.75
206.287	-6.49
206.505	44.71
206.724	61.1
206.943	24.23
207.162	-53.59
207.381	32.43
207.599	-16.73
207.818	54.95
208.037	40.62
208.255	18.09
208.474	7.85
208.693	118.44
208.911	-14.68
209.13	38.57
209.349	57
209.567	52.91
209.786	77.48
210.005	114.34
210.223	40.62
210.442	11.95
210.661	-29.01
210.879	-24.92
211.098	-14.68
211.316	9.9
211.535	106.15
211.753	87.72
211.972	28.33
212.191	-10.58
212.409	61.1
212.628	28.33
212.846	16.04
213.065	73.39
213.283	20.14
213.502	-18.77
213.72	42.67
213.938	30.38
214.157	-6.49
214.375	40.62
214.594	7.85
214.812	57
215.031	52.91
215.249	-2.39
215.467	54.95
215.686	48.81
215.904	102.06
216.122	73.39
216.341	52.91
216.559	81.58
216.778	118.44
216.996	73.39
217.214	63.15
217.432	104.11
217.651	-41.3
217.869	91.82
218.087	44.71
218.306	-0.34
218.524	9.9
218.742	48.81
218.96	93.87
219.179	75.43
219.397	114.34
219.615	59.05
219.833	89.77
220.051	52.91
220.27	69.29
220.488	89.77
220.706	28.33
220.924	36.52
221.142	20.14
221.36	54.95
221.578	-18.77
221.796	26.28
222.015	34.47
222.233	63.15
222.451	124.58
222.669	28.33
222.887	44.71
223.105	81.58
223.323	40.62
223.541	-18.77
223.759	32.43
223.977	11.95
224.195	34.47
224.413	112.3
224.631	32.43
224.849	85.67
225.067	85.67
225.285	42.67
225.503	-14.68
225.721	40.62
225.939	93.87
226.157	24.23
226.375	118.44
226.592	77.48
226.81	42.67
227.028	59.05
227.246	89.77
227.464	32.43
227.682	30.38
227.9	40.62
228.117	65.19
228.335	114.34
228.553	38.57
228.771	7.85
228.989	46.76
229.206	87.72
229.424	18.09
229.642	59.05
229.86	5.8
230.077	81.58
230.295	77.48
230.513	-4.44
230.731	9.9
230.948	3.75
231.166	112.3
231.384	57
231.601	95.91
231.819	71.34
232.037	77.48
232.254	102.06
232.472	22.19
232.689	44.71
232.907	71.34
233.125	-0.34
233.342	34.47
233.56	75.43
233.777	16.04
233.995	48.81
234.213	42.67
234.43	30.38
234.648	44.71
234.865	-10.58
235.083	34.47
235.3	36.52
235.518	57
235.735	93.87
235.953	106.15
236.17	95.91
236.388	75.43
236.605	30.38
236.822	77.48
237.04	69.29
237.257	75.43
237.475	18.09
237.692	93.87
237.909	-39.25
238.127	-67.92
238.344	85.67
238.562	42.67
238.779	-53.59
238.996	34.47
239.214	22.19
239.431	83.63
239.648	46.76
239.865	95.91
240.083	104.11
240.3	20.14
240.517	5.8
240.735	110.25
240.952	38.57
241.169	97.96
241.386	69.29
241.603	61.1
241.821	9.9
242.038	71.34
242.255	87.72
242.472	-0.34
242.689	54.95
242.907	20.14
243.124	75.43
243.341	151.21
243.558	28.33
243.775	1.71
243.992	24.23
244.209	126.63
244.426	40.62
244.643	52.91
244.86	-31.06
245.078	36.52
245.295	83.63
245.512	42.67
245.729	-14.68
245.946	44.71
246.163	54.95
246.38	126.63
246.597	65.19
246.814	54.95
247.031	114.34
247.248	71.34
247.464	18.09
247.681	32.43
247.898	65.19
248.115	97.96
248.332	-41.3
248.549	89.77
248.766	108.2
248.983	97.96
249.2	61.1
249.417	114.34
249.633	24.23
249.85	59.05
250.067	69.29
250.284	22.19
250.501	61.1
250.717	30.38
250.934	65.19
251.151	69.29
251.368	52.91
251.585	44.71
251.801	24.23
252.018	67.24
252.235	87.72
252.451	57
252.668	-26.96
252.885	67.24
253.102	73.39
253.318	93.87
253.535	1.71
253.752	-8.53
253.968	46.76
254.185	9.9
254.401	54.95
254.618	128.68
254.835	-8.53
255.051	112.3
255.268	91.82
255.484	79.53
255.701	81.58
255.917	112.3
256.134	-55.64
256.351	40.62
256.567	7.85
256.784	57
257	-33.11
257.217	122.54
257.433	38.57
257.65	93.87
257.866	32.43
258.082	-6.49
258.299	-31.06
258.515	48.81
258.732	52.91
258.948	57
259.165	100.01
259.381	-18.77
259.597	3.75
259.814	46.76
260.03	36.52
260.246	26.28
260.463	11.95
260.679	-16.73
260.895	30.38
261.112	71.34
261.328	-31.06
261.544	44.71
261.761	50.86
261.977	89.77
262.193	16.04
262.409	95.91
262.626	48.81
262.842	40.62
263.058	77.48
263.274	48.81
263.49	69.29
263.707	81.58
263.923	30.38
264.139	-10.58
264.355	1.71
264.571	116.39
264.787	83.63
265.004	54.95
265.22	5.8
265.436	44.71
265.652	3.75
265.868	-2.39
266.084	24.23
266.3	106.15
266.516	3.75
266.732	69.29
266.948	54.95
267.164	3.75
267.38	69.29
267.596	89.77
267.812	106.15
268.028	38.57
268.244	69.29
268.46	54.95
268.676	-0.34
268.892	81.58
269.108	13.99
269.324	-29.01
269.54	32.43
269.756	16.04
269.972	36.52
270.188	48.81
270.403	-37.2
270.619	116.39
270.835	30.38
271.051	38.57
271.267	11.95
271.483	40.62
271.698	65.19
271.914	73.39
272.13	77.48
272.346	36.52
272.562	93.87
272.777	118.44
272.993	24.23
273.209	50.86
273.425	106.15
273.64	-4.44
273.856	85.67
274.072	102.06
274.287	18.09
274.503	18.09
274.719	73.39
274.934	42.67
275.15	-16.73
275.366	-0.34
275.581	-29.01
275.797	34.47
276.012	118.44
276.228	-8.53
276.444	73.39
276.659	69.29
276.875	69.29
277.09	52.91
277.306	-2.39
277.521	87.72
277.737	-14.68
277.952	112.3
278.168	-14.68
278.383	18.09
278.599	30.38
278.814	95.91
279.03	20.14
279.245	59.05
279.461	44.71
279.676	57
279.892	-8.53
280.107	-8.53
280.322	-16.73
280.538	40.62
280.753	65.19
280.969	130.73
281.184	52.91
281.399	102.06
281.615	81.58
281.83	18.09
282.045	11.95
282.26	34.47
282.476	22.19
282.691	124.58
282.906	40.62
283.122	65.19
283.337	69.29
283.552	69.29
283.767	52.91
283.983	112.3
284.198	30.38
284.413	126.63
284.628	61.1
284.843	46.76
285.058	28.33
285.274	57
285.489	-10.58
285.704	67.24
285.919	-4.44
286.134	5.8
286.349	50.86
286.564	20.14
286.779	95.91
286.995	77.48
287.21	11.95
287.425	67.24
287.64	61.1
287.855	118.44
288.07	42.67
288.285	-20.82
288.5	48.81
288.715	100.01
288.93	69.29
289.145	81.58
289.36	73.39
289.575	22.19
289.79	32.43
290.004	16.04
290.219	40.62
290.434	95.91
290.649	13.99
290.864	-24.92
291.079	69.29
291.294	77.48
291.509	38.57
291.724	18.09
291.938	30.38
292.153	32.43
292.368	59.05
292.583	63.15
292.798	79.53
293.012	22.19
293.227	81.58
293.442	34.47
293.657	118.44
293.871	69.29
294.086	34.47
294.301	50.86
294.516	75.43
294.73	54.95
294.945	54.95
295.16	73.39
295.374	46.76
295.589	89.77
295.804	81.58
296.018	36.52
296.233	106.15
296.447	83.63
296.662	59.05
296.877	5.8
297.091	75.43
297.306	20.14
297.52	1.71
297.735	36.52
297.949	5.8
298.164	81.58
298.378	-35.16
298.593	57
298.807	26.28
299.022	36.52
299.236	26.28
299.451	67.24
299.665	67.24
299.88	130.73
300.094	85.67
300.309	134.82
300.523	93.87
300.737	52.91
300.952	28.33
301.166	20.14
301.381	52.91
301.595	63.15
301.809	48.81
302.024	24.23
302.238	-0.34
302.452	93.87
302.667	48.81
302.881	81.58
303.095	65.19
303.309	77.48
303.524	24.23
303.738	69.29
303.952	13.99
304.166	69.29
304.381	-4.44
304.595	106.15
304.809	26.28
305.023	120.49
305.237	-18.77
305.452	-16.73
305.666	52.91
305.88	54.95
306.094	85.67
306.308	28.33
306.522	77.48
306.736	73.39
306.95	65.19
307.164	30.38
307.379	36.52
307.593	83.63
307.807	81.58
308.021	57
308.235	57
308.449	11.95
308.663	1.71
308.877	67.24
309.091	106.15
309.305	114.34
309.519	-33.11
309.733	65.19
309.947	34.47
310.161	87.72
310.374	-55.64
310.588	81.58
310.802	65.19
311.016	95.91
311.23	138.92
311.444	16.04
311.658	46.76
311.872	83.63
312.085	110.25
312.299	44.71
312.513	7.85
312.727	67.24
312.941	-45.4
313.154	97.96
313.368	-0.34
313.582	48.81
313.796	28.33
314.009	46.76
314.223	81.58
314.437	3.75
314.651	11.95
314.864	71.34
315.078	61.1
315.292	32.43
315.505	3.75
315.719	67.24
315.933	63.15
316.146	26.28
316.36	18.09
316.573	75.43
316.787	46.76
317.001	81.58
317.214	7.85
317.428	20.14
317.641	-24.92
317.855	95.91
318.068	-4.44
318.282	95.91
318.495	81.58
318.709	100.01
318.922	-20.82
319.136	67.24
319.349	114.34
319.563	26.28
319.776	126.63
319.99	-24.92
320.203	59.05
320.417	1.71
320.63	73.39
320.843	83.63
321.057	75.43
321.27	75.43
321.483	52.91
321.697	57
321.91	106.15
322.124	108.2
322.337	61.1
322.55	59.05
322.763	-2.39
322.977	112.3
323.19	16.04
323.403	79.53
323.617	26.28
323.83	32.43
324.043	87.72
324.256	20.14
324.469	-2.39
324.683	89.77
324.896	114.34
325.109	28.33
325.322	22.19
325.535	110.25
325.748	48.81
325.962	52.91
326.175	93.87
326.388	63.15
326.601	75.43
326.814	65.19
327.027	65.19
327.24	130.73
327.453	36.52
327.666	32.43
327.879	65.19
328.092	5.8
328.305	46.76
328.518	50.86
328.731	-26.96
328.944	59.05
329.157	116.39
329.37	63.15
329.583	145.06
329.796	124.58
330.009	-26.96
330.222	40.62
330.435	120.49
330.648	59.05
330.861	95.91
331.073	1.71
331.286	75.43
331.499	7.85
331.712	24.23
331.925	63.15
332.138	79.53
332.35	50.86
332.563	97.96
332.776	114.34
332.989	20.14
333.202	95.91
333.414	97.96
333.627	44.71
333.84	63.15
334.053	30.38
334.265	48.81
334.478	-12.63
334.691	-0.34
334.903	65.19
335.116	20.14
335.329	75.43
335.541	57
335.754	102.06
335.966	18.09
336.179	106.15
336.392	36.52
336.604	122.54
336.817	52.91
337.029	118.44
337.242	104.11
337.454	75.43
337.667	52.91
337.88	59.05
338.092	52.91
338.305	85.67
338.517	65.19
338.729	89.77
338.942	110.25
339.154	26.28
339.367	-29.01
339.579	89.77
339.792	38.57
340.004	73.39
340.217	28.33
340.429	42.67
340.641	32.43
340.854	-12.63
341.066	20.14
341.278	89.77
341.491	42.67
341.703	42.67
341.915	128.68
342.128	36.52
342.34	97.96
342.552	97.96
342.764	28.33
342.977	106.15
343.189	163.5
343.401	114.34
343.613	16.04
343.826	40.62
344.038	36.52
344.25	65.19
344.462	-10.58
344.674	95.91
344.886	79.53
345.099	48.81
345.311	89.77
345.523	65.19
345.735	20.14
345.947	122.54
346.159	114.34
346.371	57
346.583	71.34
346.795	69.29
347.007	32.43
347.219	138.92
347.431	120.49
347.643	36.52
347.855	-49.49
348.067	93.87
348.279	46.76
348.491	42.67
348.703	104.11
348.915	97.96
349.127	75.43
349.339	30.38
349.551	-22.87
349.763	128.68
349.975	89.77
350.187	163.5
350.399	85.67
350.61	7.85
350.822	81.58
351.034	110.25
351.246	75.43
351.458	122.54
351.669	38.57
351.881	69.29
352.093	73.39
352.305	122.54
352.517	112.3
352.728	22.19
352.94	63.15
353.152	48.81
353.363	-2.39
353.575	126.63
353.787	30.38
353.999	112.3
354.21	73.39
354.422	28.33
354.633	30.38
354.845	102.06
355.057	122.54
355.268	138.92
355.48	77.48
355.692	-59.73
355.903	89.77
356.115	100.01
356.326	-6.49
356.538	110.25
356.749	36.52
356.961	22.19
357.172	30.38
357.384	44.71
357.595	112.3
357.807	44.71
358.018	-16.73
358.23	30.38
358.441	110.25
358.653	61.1
358.864	44.71
359.075	114.34
359.287	-14.68
359.498	75.43
359.709	145.06
359.921	32.43
360.132	97.96
360.344	30.38
360.555	48.81
360.766	108.2
360.977	59.05
361.189	73.39
361.4	7.85
361.611	20.14
361.823	46.76
362.034	118.44
362.245	22.19
362.456	32.43
362.667	79.53
362.879	13.99
363.09	50.86
363.301	13.99
363.512	32.43
363.723	65.19
363.935	65.19
364.146	73.39
364.357	71.34
364.568	69.29
364.779	11.95
364.99	116.39
365.201	57
365.412	183.98
365.623	-12.63
365.834	52.91
366.045	44.71
366.256	65.19
366.467	95.91
366.678	3.75
366.889	75.43
367.1	87.72
367.311	155.3
367.522	93.87
367.733	108.2
367.944	73.39
368.155	114.34
368.366	-8.53
368.577	52.91
368.788	104.11
368.999	24.23
369.209	9.9
369.42	124.58
369.631	106.15
369.842	75.43
370.053	65.19
370.264	69.29
370.474	97.96
370.685	73.39
370.896	63.15
371.107	89.77
371.317	102.06
371.528	65.19
371.739	69.29
371.95	81.58
372.16	32.43
372.371	22.19
372.582	48.81
372.792	54.95
373.003	36.52
373.214	89.77
373.424	149.16
373.635	71.34
373.846	59.05
374.056	18.09
374.267	108.2
374.477	79.53
374.688	134.82
374.898	46.76
375.109	108.2
375.319	44.71
375.53	63.15
375.74	54.95
375.951	89.77
376.161	-8.53
376.372	124.58
376.582	57
376.793	42.67
377.003	30.38
377.214	26.28
377.424	73.39
377.635	54.95
377.845	40.62
378.055	95.91
378.266	16.04
378.476	75.43
378.686	97.96
378.897	75.43
379.107	48.81
379.317	143.02
379.528	24.23
379.738	59.05
379.948	-8.53
380.158	75.43
380.369	85.67
380.579	102.06
380.789	20.14
380.999	190.12
381.21	1.71
381.42	194.22
381.63	30.38
381.84	143.02
382.05	118.44
382.261	122.54
382.471	24.23
382.681	106.15
382.891	143.02
383.101	89.77
383.311	79.53
383.521	9.9
383.731	110.25
383.941	50.86
384.151	116.39
384.361	69.29
384.571	77.48
384.781	71.34
384.991	79.53
385.201	165.54
385.411	192.17
385.621	102.06
385.831	71.34
386.041	126.63
386.251	153.26
386.461	93.87
386.671	143.02
386.881	30.38
387.091	16.04
387.301	57
387.511	110.25
387.72	46.76
387.93	138.92
388.14	7.85
388.35	67.24
388.56	110.25
388.769	112.3
388.979	91.82
389.189	11.95
389.399	153.26
389.609	32.43
389.818	73.39
390.028	120.49
390.238	81.58
390.447	81.58
390.657	83.63
390.867	100.01
391.076	-4.44
391.286	38.57
391.496	116.39
391.705	122.54
391.915	83.63
392.125	122.54
392.334	153.26
392.544	167.59
392.753	71.34
392.963	40.62
393.172	112.3
393.382	114.34
393.591	122.54
393.801	93.87
394.01	140.97
394.22	145.06
394.429	118.44
394.639	124.58
394.848	134.82
395.058	34.47
395.267	159.4
395.477	120.49
395.686	179.88
395.895	106.15
396.105	173.74
396.314	128.68
396.524	153.26
396.733	73.39
396.942	161.45
397.152	120.49
397.361	194.22
397.57	71.34
397.78	229.03
397.989	85.67
398.198	196.26
398.407	63.15
398.617	71.34
398.826	85.67
399.035	91.82
399.244	73.39
399.453	192.17
399.663	122.54
399.872	73.39
400.081	159.4
400.29	102.06
400.499	126.63
400.708	190.12
400.917	85.67
401.127	186.02
401.336	85.67
401.545	171.69
401.754	183.98
401.963	169.64
402.172	181.93
402.381	91.82
402.59	126.63
402.799	134.82
403.008	126.63
403.217	175.78
403.426	163.5
403.635	134.82
403.844	247.46
404.053	181.93
404.262	161.45
404.471	249.51
404.68	171.69
404.888	200.36
405.097	143.02
405.306	183.98
405.515	163.5
405.724	249.51
405.933	274.09
406.142	229.03
406.35	216.74
406.559	175.78
406.768	200.36
406.977	208.55
407.185	237.22
407.394	247.46
407.603	272.04
407.812	198.31
408.02	274.09
408.229	356.01
408.438	231.08
408.646	288.42
408.855	317.09
409.064	368.29
409.272	247.46
409.481	366.25
409.69	405.16
409.898	286.37
410.107	323.24
410.315	435.88
410.524	421.54
410.733	364.2
410.941	337.57
411.15	433.83
411.358	425.64
411.567	425.64
411.775	452.26
411.984	558.75
412.192	503.46
412.401	495.27
412.609	532.13
412.818	548.51
413.026	515.75
413.234	593.57
413.443	597.67
413.651	609.95
413.86	689.82
414.068	636.58
414.276	753.31
414.485	708.26
414.693	710.3
414.901	786.08
415.11	810.65
415.318	755.36
415.526	812.7
415.734	968.35
415.943	994.97
416.151	954.01
416.359	937.63
416.567	1054.36
416.776	1025.69
416.984	1044.12
417.192	1146.52
417.4	1148.57
417.608	1107.61
417.817	1150.62
418.025	1302.17
418.233	1363.61
418.441	1343.13
418.649	1316.5
418.857	1367.7
419.065	1556.11
419.273	1402.52
419.481	1478.29
419.689	1580.69
419.897	1674.9
420.105	1769.1
420.313	1752.72
420.521	1838.73
420.729	1877.65
420.937	1943.18
421.145	1988.24
421.353	2154.12
421.561	2186.89
421.769	2168.46
421.977	2330.25
422.185	2305.67
422.393	2471.56
422.601	2549.38
422.809	2567.81
423.017	2612.87
423.224	2737.79
423.432	2780.8
423.64	2961.02
423.848	3081.85
424.056	3116.67
424.263	3171.96
424.471	3110.52
424.679	3276.41
424.887	3468.92
425.094	3653.23
425.302	3788.4
425.51	3767.92
425.718	3974.77
425.925	3964.53
426.133	4132.46
426.341	4322.92
426.548	4525.67
426.756	4605.54
426.964	4560.49
427.171	4902.5
427.379	4902.5
427.586	5011.04
427.794	5244.51
428.001	5404.25
428.209	5617.24
428.417	5428.82
428.624	5973.58
428.832	5944.91
429.039	5985.87
429.247	5903.95
429.454	6567.49
429.662	6899.27
429.869	6389.32
430.076	6919.75
430.284	6970.94
430.491	7038.53
430.699	7411.26
430.906	7456.31
431.114	7417.4
431.321	7706.17
431.528	7779.89
431.736	8476.2
431.943	9029.15
432.15	8537.64
432.358	8689.19
432.565	9047.58
432.772	9135.65
432.979	9393.69
433.187	9551.38
433.394	9829.91
433.601	10550.79
433.808	10302.99
434.016	10526.22
434.223	10937.86
434.43	11398.65
434.637	11310.59
434.844	12074.48
435.052	12316.14
435.259	12070.39
435.466	12283.38
435.673	12039.67
435.88	13260.26
436.087	13716.95
436.294	13708.76
436.501	13526.49
436.708	13667.8
436.915	14224.85
437.122	14577.1
437.329	14601.68
437.537	14998.98
437.743	15297.99
437.95	15222.21
438.157	16065.97
438.364	16399.79
438.571	16424.37
438.778	16606.64
438.985	18408.85
439.192	17513.89
439.399	18054.55
439.606	17630.62
439.813	18601.36
440.02	19852.67
440.227	19205.51
440.433	19148.17
440.64	19711.36
440.847	19498.37
441.054	20219.25
441.261	21366.12
441.467	21075.31
441.674	21867.87
441.881	22463.83
442.088	22316.37
442.294	22207.83
442.501	22930.76
442.708	23221.58
442.914	24063.29
443.121	25310.5
443.328	24440.12
443.534	26498.33
443.741	25541.92
443.948	24886.57
444.154	27006.22
444.361	26801.43
444.568	27059.47
444.774	27043.09
444.981	27278.6
445.187	28028.16
445.394	29465.83
445.6	28941.55
445.807	31659.21
446.013	30076.13
446.22	30860.5
446.426	31790.28
446.633	32466.11
446.839	33043.63
447.046	32081.09
447.252	33830.05
447.459	33838.25
447.665	33359.02
447.871	35189.91
448.078	36842.62
448.284	34849.94
448.491	35591.31
448.697	37301.36
448.903	37770.35
449.11	37717.1
449.316	36979.83
449.522	37710.96
449.728	38665.31
449.935	38849.63
450.141	38958.17
450.347	39763.02
450.553	38630.49
450.76	39003.22
450.966	39810.12
451.172	39570.51
451.378	40694.85
451.584	40070.22
451.791	40733.76
451.997	40653.89
452.203	41536.56
452.409	41100.34
452.615	40764.48
452.821	39476.3
453.027	39242.84
453.233	41098.3
453.44	39535.7
453.646	40043.59
453.852	40160.33
454.058	40813.63
454.264	39132.25
454.47	39994.44
454.676	39013.46
454.882	40205.38
455.088	36902.01
455.294	37416.05
455.5	37907.56
455.705	38421.6
455.911	37033.08
456.117	35865.74
456.323	35529.87
456.529	33819.81
456.735	34974.87
456.941	33989.8
457.147	33541.29
457.352	32439.48
457.558	32167.1
457.764	32058.56
457.97	31634.63
458.176	31007.95
458.381	31022.29
458.587	29553.9
458.793	29080.81
458.999	27579.65
459.204	29893.86
459.41	29136.11
459.616	27045.13
459.821	26963.22
460.027	26787.09
460.233	26494.23
460.438	25085.23
460.644	25652.52
460.85	24167.74
461.055	24083.77
461.261	23833.92
461.466	22234.46
461.672	21613.92
461.878	22809.93
462.083	21482.85
462.289	21169.51
462.494	20878.7
462.7	19809.66
462.905	19363.2
463.111	20331.89
463.316	20409.72
463.522	19574.14
463.727	19936.63
463.932	19797.37
464.138	19561.86
464.343	19694.97
464.549	18955.66
464.754	19842.43
464.959	19455.36
465.165	19514.75
465.37	18582.93
465.575	18142.61
465.781	18847.12
465.986	18675.09
466.191	18326.93
466.397	18048.41
466.602	17204.64
466.807	17728.92
467.012	17667.49
