Data from USB4F104151__249__10-31-04-436.txt Node

Date: Wed Mar 12 10:31:04 EDT 2025
User: louis
Spectrometer: USB4F10415
Trigger mode: 4
Integration Time (sec): 3.000000E-2
Scans to average: 1
Electric dark correction enabled: true
Nonlinearity correction enabled: false
Boxcar width: 0
XAxis mode: Wavelengths
Number of Pixels in Spectrum: 3648
>>>>>Begin Spectral Data<<<<<
178.204	-176.64
178.424	-176.64
178.644	-176.64
178.864	-90.62
179.084	-86.53
179.304	48.64
179.524	-49.66
179.744	15.87
179.964	44.54
180.184	-25.09
180.404	-25.09
180.624	-12.8
180.844	22.02
181.064	-20.99
181.283	5.63
181.503	5.63
181.723	-8.7
181.943	-100.86
182.163	40.45
182.383	-6.66
182.602	-23.04
182.822	-49.66
183.042	28.16
183.262	5.63
183.482	-23.04
183.701	7.68
183.921	-29.18
184.141	-66.05
184.361	38.4
184.58	-2.56
184.8	13.82
185.02	-4.61
185.239	26.11
185.459	38.4
185.679	34.3
185.898	9.73
186.118	-12.8
186.338	22.02
186.557	50.69
186.777	-12.8
186.997	-59.9
187.216	67.07
187.436	38.4
187.655	71.17
187.875	48.64
188.095	-39.42
188.314	38.4
188.534	79.36
188.753	-68.09
188.973	19.97
189.192	52.74
189.412	83.45
189.631	-35.33
189.851	-35.33
190.07	11.78
190.29	1.54
190.509	-12.8
190.729	44.54
190.948	-39.42
191.168	36.35
191.387	38.4
191.607	1.54
191.826	32.26
192.045	44.54
192.265	-35.33
192.484	13.82
192.704	-10.75
192.923	-29.18
193.142	56.83
193.362	56.83
193.581	24.06
193.8	-0.51
194.02	32.26
194.239	22.02
194.458	28.16
194.678	-51.71
194.897	15.87
195.116	36.35
195.335	-27.14
195.555	3.58
195.774	-14.85
195.993	26.11
196.212	-18.94
196.432	9.73
196.651	-100.86
196.87	-55.81
197.089	77.31
197.308	9.73
197.528	-45.57
197.747	1.54
197.966	9.73
198.185	71.17
198.404	-45.57
198.623	34.3
198.842	-14.85
199.062	3.58
199.281	85.5
199.5	-6.66
199.719	71.17
199.938	5.63
200.157	30.21
200.376	19.97
200.595	11.78
200.814	58.88
201.033	5.63
201.252	-18.94
201.471	-27.14
201.69	3.58
201.909	9.73
202.128	11.78
202.347	-37.38
202.566	-14.85
202.785	-29.18
203.004	32.26
203.223	91.65
203.442	48.64
203.661	-47.62
203.879	-0.51
204.098	-14.85
204.317	-57.86
204.536	9.73
204.755	9.73
204.974	87.55
205.193	-55.81
205.411	26.11
205.63	36.35
205.849	46.59
206.068	-25.09
206.287	13.82
206.505	83.45
206.724	3.58
206.943	-18.94
207.162	-31.23
207.381	7.68
207.599	54.78
207.818	11.78
208.037	9.73
208.255	-10.75
208.474	-33.28
208.693	-39.42
208.911	62.98
209.13	3.58
209.349	38.4
209.567	-0.51
209.786	1.54
210.005	38.4
210.223	24.06
210.442	-29.18
210.661	-14.85
210.879	26.11
211.098	5.63
211.316	-0.51
211.535	-31.23
211.753	-6.66
211.972	40.45
212.191	38.4
212.409	24.06
212.628	-25.09
212.846	36.35
213.065	34.3
213.283	60.93
213.502	46.59
213.72	22.02
213.938	-72.19
214.157	62.98
214.375	-51.71
214.594	-47.62
214.812	15.87
215.031	73.21
215.249	13.82
215.467	1.54
215.686	-0.51
215.904	30.21
216.122	3.58
216.341	13.82
216.559	58.88
216.778	42.5
216.996	62.98
217.214	-6.66
217.432	38.4
217.651	24.06
217.869	54.78
218.087	22.02
218.306	-25.09
218.524	11.78
218.742	-20.99
218.96	-35.33
219.179	11.78
219.397	7.68
219.615	19.97
219.833	-35.33
220.051	-92.67
220.27	73.21
220.488	22.02
220.706	32.26
220.924	-31.23
221.142	5.63
221.36	15.87
221.578	-4.61
221.796	-37.38
222.015	9.73
222.233	46.59
222.451	42.5
222.669	-10.75
222.887	13.82
223.105	-4.61
223.323	7.68
223.541	5.63
223.759	-25.09
223.977	34.3
224.195	17.92
224.413	-23.04
224.631	1.54
224.849	-6.66
225.067	108.03
225.285	3.58
225.503	15.87
225.721	-33.28
225.939	40.45
226.157	-74.24
226.375	75.26
226.592	-37.38
226.81	13.82
227.028	48.64
227.246	-4.61
227.464	-43.52
227.682	26.11
227.9	-45.57
228.117	36.35
228.335	-31.23
228.553	-37.38
228.771	-66.05
228.989	22.02
229.206	5.63
229.424	-2.56
229.642	-20.99
229.86	-35.33
230.077	36.35
230.295	-25.09
230.513	1.54
230.731	42.5
230.948	-45.57
231.166	13.82
231.384	-25.09
231.601	-29.18
231.819	-10.75
232.037	71.17
232.254	-102.91
232.472	5.63
232.689	-72.19
232.907	77.31
233.125	-35.33
233.342	-49.66
233.56	-31.23
233.777	13.82
233.995	-10.75
234.213	-0.51
234.43	44.54
234.648	73.21
234.865	-49.66
235.083	65.02
235.3	-35.33
235.518	91.65
235.735	58.88
235.953	22.02
236.17	38.4
236.388	42.5
236.605	-20.99
236.822	69.12
237.04	9.73
237.257	-59.9
237.475	-31.23
237.692	-4.61
237.909	50.69
238.127	13.82
238.344	-41.47
238.562	26.11
238.779	7.68
238.996	54.78
239.214	-20.99
239.431	95.74
239.648	-119.29
239.865	34.3
240.083	56.83
240.3	-10.75
240.517	-41.47
240.735	93.69
240.952	-6.66
241.169	-16.9
241.386	-33.28
241.603	-4.61
241.821	3.58
242.038	42.5
242.255	30.21
242.472	-20.99
242.689	22.02
242.907	38.4
243.124	-23.04
243.341	26.11
243.558	-2.56
243.775	-4.61
243.992	-20.99
244.209	11.78
244.426	40.45
244.643	5.63
244.86	28.16
245.078	42.5
245.295	5.63
245.512	-16.9
245.729	-37.38
245.946	22.02
246.163	-55.81
246.38	17.92
246.597	-6.66
246.814	5.63
247.031	-35.33
247.248	36.35
247.464	38.4
247.681	-51.71
247.898	40.45
248.115	-27.14
248.332	-45.57
248.549	28.16
248.766	19.97
248.983	1.54
249.2	24.06
249.417	-6.66
249.633	-6.66
249.85	3.58
250.067	-33.28
250.284	24.06
250.501	28.16
250.717	-33.28
250.934	-43.52
251.151	50.69
251.368	62.98
251.585	7.68
251.801	-59.9
252.018	-10.75
252.235	22.02
252.451	-64
252.668	-12.8
252.885	52.74
253.102	-18.94
253.318	-33.28
253.535	-47.62
253.752	-31.23
253.968	-0.51
254.185	-12.8
254.401	60.93
254.618	11.78
254.835	-41.47
255.051	3.58
255.268	-6.66
255.484	40.45
255.701	-0.51
255.917	19.97
256.134	40.45
256.351	-33.28
256.567	5.63
256.784	15.87
257	-35.33
257.217	1.54
257.433	97.79
257.65	38.4
257.866	-14.85
258.082	-51.71
258.299	42.5
258.515	-14.85
258.732	62.98
258.948	36.35
259.165	26.11
259.381	-0.51
259.597	46.59
259.814	-4.61
260.03	22.02
260.246	54.78
260.463	-0.51
260.679	87.55
260.895	13.82
261.112	22.02
261.328	24.06
261.544	-18.94
261.761	77.31
261.977	-57.86
262.193	50.69
262.409	19.97
262.626	38.4
262.842	19.97
263.058	-37.38
263.274	38.4
263.49	-27.14
263.707	-8.7
263.923	-25.09
264.139	-27.14
264.355	-43.52
264.571	62.98
264.787	1.54
265.004	19.97
265.22	13.82
265.436	-37.38
265.652	73.21
265.868	-10.75
266.084	-35.33
266.3	9.73
266.516	-2.56
266.732	40.45
266.948	3.58
267.164	34.3
267.38	-12.8
267.596	17.92
267.812	54.78
268.028	40.45
268.244	-59.9
268.46	7.68
268.676	11.78
268.892	5.63
269.108	-53.76
269.324	-23.04
269.54	-2.56
269.756	15.87
269.972	-39.42
270.188	38.4
270.403	1.54
270.619	40.45
270.835	54.78
271.051	1.54
271.267	-53.76
271.483	67.07
271.698	71.17
271.914	75.26
272.13	-20.99
272.346	30.21
272.562	-12.8
272.777	22.02
272.993	13.82
273.209	-25.09
273.425	17.92
273.64	-27.14
273.856	34.3
274.072	-12.8
274.287	26.11
274.503	-10.75
274.719	-12.8
274.934	36.35
275.15	5.63
275.366	-33.28
275.581	22.02
275.797	56.83
276.012	-119.29
276.228	56.83
276.444	-14.85
276.659	44.54
276.875	-2.56
277.09	-10.75
277.306	36.35
277.521	-10.75
277.737	-47.62
277.952	15.87
278.168	34.3
278.383	-12.8
278.599	-43.52
278.814	17.92
279.03	7.68
279.245	60.93
279.461	97.79
279.676	44.54
279.892	-31.23
280.107	15.87
280.322	-20.99
280.538	46.59
280.753	54.78
280.969	-27.14
281.184	13.82
281.399	81.41
281.615	48.64
281.83	62.98
282.045	-20.99
282.26	30.21
282.476	58.88
282.691	9.73
282.906	48.64
283.122	3.58
283.337	-47.62
283.552	-41.47
283.767	5.63
283.983	22.02
284.198	-2.56
284.413	99.84
284.628	34.3
284.843	-39.42
285.058	-0.51
285.274	-39.42
285.489	32.26
285.704	3.58
285.919	-12.8
286.134	34.3
286.349	-39.42
286.564	24.06
286.779	62.98
286.995	22.02
287.21	-47.62
287.425	-2.56
287.64	-8.7
287.855	62.98
288.07	-43.52
288.285	-0.51
288.5	58.88
288.715	5.63
288.93	-78.33
289.145	67.07
289.36	9.73
289.575	46.59
289.79	87.55
290.004	-45.57
290.219	85.5
290.434	36.35
290.649	-20.99
290.864	17.92
291.079	36.35
291.294	13.82
291.509	1.54
291.724	22.02
291.938	1.54
292.153	9.73
292.368	-43.52
292.583	-0.51
292.798	-20.99
293.012	79.36
293.227	-33.28
293.442	52.74
293.657	69.12
293.871	5.63
294.086	38.4
294.301	69.12
294.516	17.92
294.73	-29.18
294.945	-10.75
295.16	5.63
295.374	1.54
295.589	-23.04
295.804	1.54
296.018	7.68
296.233	22.02
296.447	-29.18
296.662	-6.66
296.877	62.98
297.091	79.36
297.306	-31.23
297.52	36.35
297.735	11.78
297.949	-27.14
298.164	-27.14
298.378	3.58
298.593	-55.81
298.807	-37.38
299.022	-20.99
299.236	36.35
299.451	13.82
299.665	32.26
299.88	-31.23
300.094	36.35
300.309	19.97
300.523	-6.66
300.737	-80.38
300.952	3.58
301.166	13.82
301.381	-6.66
301.595	-55.81
301.809	17.92
302.024	-10.75
302.238	-18.94
302.452	7.68
302.667	1.54
302.881	34.3
303.095	-51.71
303.309	3.58
303.524	-14.85
303.738	30.21
303.952	-45.57
304.166	126.46
304.381	-59.9
304.595	22.02
304.809	56.83
305.023	-23.04
305.237	5.63
305.452	32.26
305.666	-18.94
305.88	-2.56
306.094	87.55
306.308	-14.85
306.522	-39.42
306.736	44.54
306.95	58.88
307.164	30.21
307.379	-66.05
307.593	52.74
307.807	50.69
308.021	48.64
308.235	9.73
308.449	1.54
308.663	38.4
308.877	-0.51
309.091	-43.52
309.305	38.4
309.519	-23.04
309.733	77.31
309.947	-12.8
310.161	-23.04
310.374	-10.75
310.588	28.16
310.802	-18.94
311.016	67.07
311.23	52.74
311.444	-51.71
311.658	-45.57
311.872	17.92
312.085	26.11
312.299	40.45
312.513	-6.66
312.727	38.4
312.941	-45.57
313.154	24.06
313.368	-29.18
313.582	46.59
313.796	32.26
314.009	7.68
314.223	60.93
314.437	-31.23
314.651	36.35
314.864	32.26
315.078	85.5
315.292	-10.75
315.505	5.63
315.719	44.54
315.933	46.59
316.146	19.97
316.36	26.11
316.573	124.41
316.787	-16.9
317.001	3.58
317.214	-23.04
317.428	-6.66
317.641	-2.56
317.855	26.11
318.068	-35.33
318.282	19.97
318.495	46.59
318.709	99.84
318.922	-8.7
319.136	120.32
319.349	-0.51
319.563	69.12
319.776	58.88
319.99	73.21
320.203	13.82
320.417	58.88
320.63	-0.51
320.843	24.06
321.057	28.16
321.27	5.63
321.483	-43.52
321.697	-2.56
321.91	-45.57
322.124	46.59
322.337	9.73
322.55	-25.09
322.763	22.02
322.977	7.68
323.19	34.3
323.403	26.11
323.617	44.54
323.83	52.74
324.043	-59.9
324.256	67.07
324.469	-14.85
324.683	62.98
324.896	28.16
325.109	-27.14
325.322	-74.24
325.535	65.02
325.748	30.21
325.962	-45.57
326.175	-25.09
326.388	52.74
326.601	48.64
326.814	75.26
327.027	36.35
327.24	89.6
327.453	40.45
327.666	11.78
327.879	19.97
328.092	52.74
328.305	73.21
328.518	75.26
328.731	-35.33
328.944	-20.99
329.157	-6.66
329.37	-25.09
329.583	15.87
329.796	120.32
330.009	-53.76
330.222	-35.33
330.435	-35.33
330.648	7.68
330.861	1.54
331.073	69.12
331.286	58.88
331.499	19.97
331.712	-27.14
331.925	79.36
332.138	60.93
332.35	58.88
332.563	15.87
332.776	44.54
332.989	-59.9
333.202	-14.85
333.414	42.5
333.627	-10.75
333.84	-2.56
334.053	9.73
334.265	-6.66
334.478	50.69
334.691	-8.7
334.903	38.4
335.116	71.17
335.329	34.3
335.541	17.92
335.754	73.21
335.966	-27.14
336.179	-53.76
336.392	42.5
336.604	17.92
336.817	-27.14
337.029	65.02
337.242	-80.38
337.454	-14.85
337.667	-10.75
337.88	87.55
338.092	9.73
338.305	-23.04
338.517	-51.71
338.729	30.21
338.942	44.54
339.154	28.16
339.367	-37.38
339.579	5.63
339.792	46.59
340.004	7.68
340.217	-43.52
340.429	38.4
340.641	26.11
340.854	54.78
341.066	-20.99
341.278	48.64
341.491	54.78
341.703	34.3
341.915	32.26
342.128	-12.8
342.34	-0.51
342.552	-39.42
342.764	28.16
342.977	52.74
343.189	13.82
343.401	19.97
343.613	-68.09
343.826	40.45
344.038	-2.56
344.25	7.68
344.462	19.97
344.674	-6.66
344.886	58.88
345.099	-68.09
345.311	19.97
345.523	11.78
345.735	-20.99
345.947	77.31
346.159	26.11
346.371	-10.75
346.583	5.63
346.795	69.12
347.007	50.69
347.219	36.35
347.431	-23.04
347.643	52.74
347.855	-12.8
348.067	52.74
348.279	-57.86
348.491	-6.66
348.703	46.59
348.915	7.68
349.127	3.58
349.339	30.21
349.551	-8.7
349.763	34.3
349.975	-59.9
350.187	75.26
350.399	56.83
350.61	26.11
350.822	-18.94
351.034	7.68
351.246	-47.62
351.458	71.17
351.669	-43.52
351.881	42.5
352.093	48.64
352.305	36.35
352.517	44.54
352.728	87.55
352.94	60.93
353.152	93.69
353.363	-27.14
353.575	38.4
353.787	77.31
353.999	22.02
354.21	44.54
354.422	-72.19
354.633	13.82
354.845	95.74
355.057	67.07
355.268	17.92
355.48	28.16
355.692	22.02
355.903	24.06
356.115	34.3
356.326	-20.99
356.538	28.16
356.749	34.3
356.961	67.07
357.172	22.02
357.384	38.4
357.595	50.69
357.807	136.7
358.018	30.21
358.23	22.02
358.441	71.17
358.653	13.82
358.864	30.21
359.075	30.21
359.287	22.02
359.498	1.54
359.709	48.64
359.921	-35.33
360.132	-41.47
360.344	56.83
360.555	-29.18
360.766	36.35
360.977	83.45
361.189	17.92
361.4	-35.33
361.611	50.69
361.823	-49.66
362.034	42.5
362.245	-20.99
362.456	24.06
362.667	22.02
362.879	32.26
363.09	32.26
363.301	48.64
363.512	71.17
363.723	-61.95
363.935	-33.28
364.146	44.54
364.357	-18.94
364.568	67.07
364.779	-29.18
364.99	58.88
365.201	-12.8
365.412	65.02
365.623	-43.52
365.834	-23.04
366.045	-10.75
366.256	26.11
366.467	62.98
366.678	42.5
366.889	1.54
367.1	38.4
367.311	79.36
367.522	36.35
367.733	36.35
367.944	-6.66
368.155	-6.66
368.366	32.26
368.577	28.16
368.788	126.46
368.999	-12.8
369.209	32.26
369.42	26.11
369.631	-35.33
369.842	69.12
370.053	22.02
370.264	73.21
370.474	-14.85
370.685	26.11
370.896	-14.85
371.107	30.21
371.317	11.78
371.528	-12.8
371.739	77.31
371.95	-14.85
372.16	91.65
372.371	-37.38
372.582	11.78
372.792	-14.85
373.003	171.52
373.214	-23.04
373.424	-39.42
373.635	87.55
373.846	46.59
374.056	26.11
374.267	56.83
374.477	44.54
374.688	-23.04
374.898	3.58
375.109	15.87
375.319	34.3
375.53	1.54
375.74	-2.56
375.951	26.11
376.161	-29.18
376.372	79.36
376.582	-4.61
376.793	50.69
377.003	-10.75
377.214	54.78
377.424	32.26
377.635	54.78
377.845	-51.71
378.055	73.21
378.266	-2.56
378.476	120.32
378.686	44.54
378.897	34.3
379.107	-39.42
379.317	24.06
379.528	22.02
379.738	40.45
379.948	38.4
380.158	108.03
380.369	30.21
380.579	105.98
380.789	9.73
380.999	56.83
381.21	5.63
381.42	34.3
381.63	19.97
381.84	58.88
382.05	99.84
382.261	81.41
382.471	46.59
382.681	-8.7
382.891	81.41
383.101	5.63
383.311	-27.14
383.521	56.83
383.731	58.88
383.941	75.26
384.151	30.21
384.361	54.78
384.571	71.17
384.781	-47.62
384.991	28.16
385.201	28.16
385.411	-29.18
385.621	73.21
385.831	95.74
386.041	28.16
386.251	-53.76
386.461	93.69
386.671	24.06
386.881	44.54
387.091	87.55
387.301	44.54
387.511	38.4
387.72	42.5
387.93	17.92
388.14	87.55
388.35	93.69
388.56	19.97
388.769	38.4
388.979	34.3
389.189	-43.52
389.399	54.78
389.609	67.07
389.818	108.03
390.028	19.97
390.238	1.54
390.447	58.88
390.657	69.12
390.867	103.93
391.076	-51.71
391.286	62.98
391.496	50.69
391.705	99.84
391.915	108.03
392.125	69.12
392.334	-29.18
392.544	79.36
392.753	105.98
392.963	62.98
393.172	42.5
393.382	-6.66
393.591	67.07
393.801	95.74
394.01	46.59
394.22	44.54
394.429	28.16
394.639	-8.7
394.848	62.98
395.058	50.69
395.267	67.07
395.477	-4.61
395.686	108.03
395.895	144.89
396.105	28.16
396.314	134.65
396.524	87.55
396.733	114.17
396.942	136.7
397.152	110.08
397.361	22.02
397.57	32.26
397.78	169.47
397.989	42.5
398.198	79.36
398.407	87.55
398.617	75.26
398.826	103.93
399.035	58.88
399.244	151.04
399.453	85.5
399.663	120.32
399.872	71.17
400.081	11.78
400.29	118.27
400.499	112.13
400.708	116.22
400.917	-4.61
401.127	155.13
401.336	48.64
401.545	134.65
401.754	91.65
401.963	146.94
402.172	75.26
402.381	75.26
402.59	65.02
402.799	153.09
403.008	105.98
403.217	144.89
403.426	204.28
403.635	91.65
403.844	126.46
404.053	126.46
404.262	144.89
404.471	114.17
404.68	77.31
404.888	183.81
405.097	67.07
405.306	161.28
405.515	173.57
405.724	83.45
405.933	171.52
406.142	167.42
406.35	177.66
406.559	204.28
406.768	128.51
406.977	206.33
407.185	183.81
407.394	179.71
407.603	181.76
407.812	157.18
408.02	179.71
408.229	208.38
408.438	171.52
408.646	214.52
408.855	214.52
409.064	300.54
409.272	204.28
409.481	263.68
409.69	253.44
409.898	177.66
410.107	341.5
410.315	312.83
410.524	226.81
410.733	278.01
410.941	364.03
411.15	335.35
411.358	329.21
411.567	417.27
411.775	402.94
411.984	435.71
412.192	431.61
412.401	439.8
412.609	450.04
412.818	439.8
413.026	460.28
413.234	615.93
413.443	439.8
413.651	579.06
413.86	564.73
414.068	636.41
414.276	644.6
414.485	634.36
414.693	714.23
414.901	714.23
415.11	677.37
415.318	734.71
415.526	747
415.734	769.52
415.943	816.63
416.151	820.72
416.359	888.31
416.567	886.26
416.776	939.51
416.984	968.18
417.192	906.74
417.4	912.88
417.608	996.85
417.817	1056.24
418.025	1187.31
418.233	1213.93
418.441	1203.69
418.649	1185.26
418.857	1390.06
419.065	1312.24
419.273	1295.85
419.481	1269.23
419.689	1525.22
419.897	1578.47
420.105	1498.6
420.313	1576.42
420.521	1682.92
420.729	1668.58
420.937	1854.95
421.145	1852.9
421.353	1916.39
421.561	1990.11
421.769	2047.46
421.977	2082.27
422.185	2112.99
422.393	2207.2
422.601	2444.76
422.809	2340.32
423.017	2364.89
423.224	2430.43
423.432	2665.94
423.64	2602.46
423.848	2817.49
424.056	2622.94
424.263	3050.96
424.471	2987.47
424.679	2997.71
424.887	3202.51
425.094	3282.38
425.302	3368.4
425.51	3462.6
425.718	3579.34
425.925	3478.99
426.133	3624.39
426.341	3952.07
426.548	4038.08
426.756	4136.38
426.964	4017.6
427.171	4339.13
427.379	4539.83
427.586	4531.64
427.794	4634.04
428.001	4781.5
428.209	5223.86
428.417	5088.69
428.624	5295.54
428.832	5354.93
429.039	5318.06
429.247	5203.38
429.454	5862.82
429.662	6071.72
429.869	5809.58
430.076	6268.32
430.284	6157.73
430.491	6321.57
430.699	6772.12
430.906	6704.54
431.114	6761.88
431.321	7148.95
431.528	7230.87
431.736	7697.8
431.943	8084.87
432.15	7875.98
432.358	8086.92
432.565	8351.1
432.772	8179.08
432.979	8762.75
433.187	8863.1
433.394	8775.03
433.601	9516.4
433.808	9504.11
434.016	9483.63
434.223	9790.83
434.43	10225
434.637	10259.81
434.844	10825.05
435.052	11115.86
435.259	10992.98
435.466	11287.89
435.673	11068.76
435.88	11926.86
436.087	12590.4
436.294	12473.67
436.501	11822.41
436.708	12412.23
436.915	12420.42
437.122	13339.96
437.329	13292.85
437.537	13729.07
437.743	13724.97
437.95	13847.85
438.157	14589.22
438.364	15105.31
438.571	14898.46
438.778	14968.09
438.985	16401.67
439.192	15568.15
439.399	16373
439.606	15959.31
439.813	16717.06
440.02	17693.94
440.227	17468.66
440.433	17642.74
440.64	17929.45
440.847	17734.9
441.054	18230.51
441.261	19582.17
441.467	19236.06
441.674	19623.12
441.881	20438.22
442.088	20026.57
442.294	20057.29
442.501	20638.92
442.708	21032.13
442.914	21787.83
443.121	22764.71
443.328	22402.22
443.534	23891.09
443.741	23004.32
443.948	22566.06
444.154	24323.21
444.361	23989.39
444.568	24528.01
444.774	24726.66
444.981	24661.13
445.187	25218.18
445.394	26385.52
445.6	26205.3
445.807	28607.56
446.013	27239.52
446.22	27702.36
446.426	29029.45
446.633	29185.09
446.839	30032.95
447.046	28630.09
447.252	30620.72
447.459	30575.66
447.665	30239.79
447.871	31562.78
448.078	32973.83
448.284	31491.1
448.491	32072.73
448.697	33248.26
448.903	34096.12
449.11	33969.15
449.316	33496.06
449.522	34198.52
449.728	34833.39
449.935	35212.26
450.141	34941.93
450.347	35748.83
450.553	34954.22
450.76	35146.73
450.966	36187.1
451.172	36053.98
451.378	36688.85
451.584	35767.26
451.791	37241.8
451.997	36772.81
452.203	37485.51
452.409	37637.06
452.615	37485.51
452.821	35945.44
453.027	35408.87
453.233	37258.18
453.44	35771.36
453.646	36273.11
453.852	36402.13
454.058	36694.99
454.264	35365.86
454.47	36340.69
454.676	35447.78
454.882	36686.8
455.088	33453.06
455.294	34040.82
455.5	34278.39
455.705	34659.31
455.911	33285.12
456.117	32631.82
456.323	32398.35
456.529	30278.71
456.735	31900.7
456.941	31003.69
457.147	30456.88
457.352	29400.13
457.558	29424.7
457.764	29213.76
457.97	28976.2
458.176	27915.35
458.381	28027.99
458.587	26743.91
458.793	26717.29
458.999	25265.28
459.204	27247.71
459.41	26563.69
459.616	24941.7
459.821	24509.58
460.027	24659.08
460.233	24161.42
460.438	23102.62
460.644	23233.69
460.85	21982.38
461.055	21757.11
461.261	21753.01
461.466	20257.99
461.672	19561.69
461.878	21132.48
462.083	19563.73
462.289	19248.35
462.494	18998.49
462.7	18394.34
462.905	17669.36
463.111	18064.62
463.316	18457.83
463.522	17650.93
463.727	17982.7
463.932	17618.16
464.138	17695.99
464.343	17749.23
464.549	17413.37
464.754	17794.29
464.959	17769.71
465.165	17431.8
465.37	16753.92
465.575	16329.99
465.781	16907.52
465.986	17020.16
466.191	16637.19
466.397	16284.94
466.602	15408.4
466.807	16098.57
