Data from USB4F104151__278__10-40-58-731.txt Node

Date: Wed Mar 12 10:40:58 EDT 2025
User: louis
Spectrometer: USB4F10415
Trigger mode: 4
Integration Time (sec): 3.000000E-2
Scans to average: 1
Electric dark correction enabled: true
Nonlinearity correction enabled: false
Boxcar width: 0
XAxis mode: Wavelengths
Number of Pixels in Spectrum: 3648
>>>>>Begin Spectral Data<<<<<
178.204	-74.07
178.424	-74.07
178.644	-74.07
178.864	-96.6
179.084	-110.93
179.304	-10.58
179.524	11.95
179.744	-51.54
179.964	28.33
180.184	-4.44
180.404	-2.39
180.624	-18.77
180.844	59.05
181.064	-2.39
181.283	-0.34
181.503	-20.82
181.723	11.95
181.943	-47.44
182.163	85.67
182.383	-22.87
182.602	59.05
182.822	20.14
183.042	11.95
183.262	11.95
183.482	1.71
183.701	20.14
183.921	54.95
184.141	11.95
184.361	28.33
184.58	36.52
184.8	32.43
185.02	-63.83
185.239	16.04
185.459	-33.11
185.679	54.95
185.898	-33.11
186.118	22.19
186.338	54.95
186.557	20.14
186.777	-18.77
186.997	30.38
187.216	-49.49
187.436	114.34
187.655	106.15
187.875	28.33
188.095	42.67
188.314	91.82
188.534	102.06
188.753	-24.92
188.973	67.24
189.192	81.58
189.412	-0.34
189.631	13.99
189.851	40.62
190.07	85.67
190.29	-6.49
190.509	-16.73
190.729	-8.53
190.948	69.29
191.168	97.96
191.387	3.75
191.607	54.95
191.826	67.24
192.045	59.05
192.265	61.1
192.484	-6.49
192.704	26.28
192.923	-18.77
193.142	97.96
193.362	-22.87
193.581	13.99
193.8	-20.82
194.02	40.62
194.239	50.86
194.458	122.54
194.678	-18.77
194.897	-0.34
195.116	48.81
195.335	18.09
195.555	-29.01
195.774	93.87
195.993	16.04
196.212	-0.34
196.432	20.14
196.651	-26.96
196.87	9.9
197.089	59.05
197.308	-14.68
197.528	79.53
197.747	7.85
197.966	48.81
198.185	-29.01
198.404	-10.58
198.623	7.85
198.842	87.72
199.062	50.86
199.281	52.91
199.5	-39.25
199.719	61.1
199.938	20.14
200.157	132.78
200.376	-24.92
200.595	1.71
200.814	48.81
201.033	28.33
201.252	83.63
201.471	104.11
201.69	79.53
201.909	93.87
202.128	3.75
202.347	-8.53
202.566	-6.49
202.785	40.62
203.004	-18.77
203.223	50.86
203.442	61.1
203.661	-20.82
203.879	77.48
204.098	59.05
204.317	-2.39
204.536	22.19
204.755	-6.49
204.974	1.71
205.193	46.76
205.411	5.8
205.63	20.14
205.849	-4.44
206.068	44.71
206.287	50.86
206.505	44.71
206.724	-6.49
206.943	-24.92
207.162	-26.96
207.381	48.81
207.599	77.48
207.818	93.87
208.037	73.39
208.255	26.28
208.474	-26.96
208.693	102.06
208.911	13.99
209.13	95.91
209.349	48.81
209.567	104.11
209.786	44.71
210.005	11.95
210.223	124.58
210.442	-61.78
210.661	87.72
210.879	-6.49
211.098	16.04
211.316	54.95
211.535	63.15
211.753	59.05
211.972	83.63
212.191	-10.58
212.409	9.9
212.628	24.23
212.846	36.52
213.065	46.76
213.283	95.91
213.502	-55.64
213.72	61.1
213.938	100.01
214.157	13.99
214.375	24.23
214.594	-16.73
214.812	46.76
215.031	61.1
215.249	20.14
215.467	48.81
215.686	5.8
215.904	73.39
216.122	18.09
216.341	-24.92
216.559	-37.2
216.778	-12.63
216.996	9.9
217.214	-24.92
217.432	36.52
217.651	36.52
217.869	-6.49
218.087	9.9
218.306	-26.96
218.524	46.76
218.742	-20.82
218.96	54.95
219.179	11.95
219.397	7.85
219.615	77.48
219.833	44.71
220.051	-41.3
220.27	85.67
220.488	28.33
220.706	24.23
220.924	71.34
221.142	5.8
221.36	-20.82
221.578	85.67
221.796	18.09
222.015	-37.2
222.233	40.62
222.451	40.62
222.669	-10.58
222.887	63.15
223.105	11.95
223.323	13.99
223.541	-6.49
223.759	-20.82
223.977	20.14
224.195	147.11
224.413	67.24
224.631	18.09
224.849	3.75
225.067	81.58
225.285	-18.77
225.503	48.81
225.721	-49.49
225.939	24.23
226.157	20.14
226.375	48.81
226.592	18.09
226.81	46.76
227.028	97.96
227.246	26.28
227.464	48.81
227.682	20.14
227.9	71.34
228.117	102.06
228.335	54.95
228.553	38.57
228.771	36.52
228.989	50.86
229.206	61.1
229.424	-65.88
229.642	54.95
229.86	-22.87
230.077	87.72
230.295	36.52
230.513	38.57
230.731	-29.01
230.948	28.33
231.166	143.02
231.384	-2.39
231.601	28.33
231.819	22.19
232.037	67.24
232.254	-33.11
232.472	61.1
232.689	-0.34
232.907	18.09
233.125	16.04
233.342	34.47
233.56	-8.53
233.777	-0.34
233.995	3.75
234.213	28.33
234.43	-4.44
234.648	18.09
234.865	26.28
235.083	-24.92
235.3	18.09
235.518	79.53
235.735	106.15
235.953	3.75
236.17	9.9
236.388	3.75
236.605	34.47
236.822	79.53
237.04	122.54
237.257	-16.73
237.475	-10.58
237.692	44.71
237.909	52.91
238.127	-47.44
238.344	22.19
238.562	11.95
238.779	-24.92
238.996	54.95
239.214	-41.3
239.431	50.86
239.648	83.63
239.865	11.95
240.083	11.95
240.3	30.38
240.517	-18.77
240.735	71.34
240.952	73.39
241.169	32.43
241.386	87.72
241.603	-6.49
241.821	38.57
242.038	-10.58
242.255	57
242.472	1.71
242.689	-12.63
242.907	89.77
243.124	30.38
243.341	87.72
243.558	44.71
243.775	-43.35
243.992	-0.34
244.209	-29.01
244.426	71.34
244.643	30.38
244.86	-12.63
245.078	130.73
245.295	118.44
245.512	65.19
245.729	-20.82
245.946	28.33
246.163	89.77
246.38	-8.53
246.597	30.38
246.814	44.71
247.031	69.29
247.248	22.19
247.464	-10.58
247.681	-16.73
247.898	24.23
248.115	30.38
248.332	-12.63
248.549	69.29
248.766	79.53
248.983	77.48
249.2	85.67
249.417	59.05
249.633	-14.68
249.85	9.9
250.067	44.71
250.284	13.99
250.501	95.91
250.717	38.57
250.934	-29.01
251.151	16.04
251.368	44.71
251.585	81.58
251.801	48.81
252.018	-49.49
252.235	36.52
252.451	22.19
252.668	38.57
252.885	16.04
253.102	20.14
253.318	-2.39
253.535	-12.63
253.752	40.62
253.968	1.71
254.185	18.09
254.401	32.43
254.618	46.76
254.835	-16.73
255.051	73.39
255.268	7.85
255.484	79.53
255.701	85.67
255.917	38.57
256.134	108.2
256.351	42.67
256.567	-29.01
256.784	114.34
257	9.9
257.217	44.71
257.433	67.24
257.65	16.04
257.866	151.21
258.082	-4.44
258.299	-8.53
258.515	32.43
258.732	-18.77
258.948	-16.73
259.165	36.52
259.381	65.19
259.597	91.82
259.814	48.81
260.03	59.05
260.246	59.05
260.463	122.54
260.679	67.24
260.895	-45.4
261.112	-4.44
261.328	1.71
261.544	106.15
261.761	102.06
261.977	-4.44
262.193	-4.44
262.409	-31.06
262.626	77.48
262.842	71.34
263.058	16.04
263.274	-0.34
263.49	44.71
263.707	67.24
263.923	24.23
264.139	-35.16
264.355	50.86
264.571	24.23
264.787	102.06
265.004	-10.58
265.22	52.91
265.436	22.19
265.652	42.67
265.868	67.24
266.084	52.91
266.3	3.75
266.516	9.9
266.732	46.76
266.948	59.05
267.164	-22.87
267.38	81.58
267.596	34.47
267.812	48.81
268.028	61.1
268.244	24.23
268.46	-18.77
268.676	69.29
268.892	-4.44
269.108	18.09
269.324	18.09
269.54	-41.3
269.756	20.14
269.972	-78.16
270.188	30.38
270.403	42.67
270.619	79.53
270.835	24.23
271.051	-18.77
271.267	-24.92
271.483	44.71
271.698	-14.68
271.914	48.81
272.13	22.19
272.346	44.71
272.562	59.05
272.777	77.48
272.993	54.95
273.209	32.43
273.425	28.33
273.64	13.99
273.856	46.76
274.072	9.9
274.287	-10.58
274.503	30.38
274.719	32.43
274.934	-12.63
275.15	-14.68
275.366	57
275.581	3.75
275.797	18.09
276.012	34.47
276.228	100.01
276.444	28.33
276.659	26.28
276.875	36.52
277.09	-33.11
277.306	20.14
277.521	-18.77
277.737	13.99
277.952	13.99
278.168	42.67
278.383	46.76
278.599	44.71
278.814	-8.53
279.03	-0.34
279.245	7.85
279.461	18.09
279.676	22.19
279.892	-63.83
280.107	-45.4
280.322	57
280.538	34.47
280.753	42.67
280.969	-0.34
281.184	36.52
281.399	-2.39
281.615	3.75
281.83	73.39
282.045	5.8
282.26	28.33
282.476	75.43
282.691	20.14
282.906	16.04
283.122	7.85
283.337	-31.06
283.552	89.77
283.767	-18.77
283.983	116.39
284.198	13.99
284.413	46.76
284.628	7.85
284.843	79.53
285.058	-12.63
285.274	18.09
285.489	44.71
285.704	112.3
285.919	71.34
286.134	-24.92
286.349	67.24
286.564	11.95
286.779	75.43
286.995	-16.73
287.21	-2.39
287.425	11.95
287.64	28.33
287.855	32.43
288.07	67.24
288.285	57
288.5	116.39
288.715	69.29
288.93	-0.34
289.145	22.19
289.36	9.9
289.575	36.52
289.79	50.86
290.004	5.8
290.219	42.67
290.434	52.91
290.649	7.85
290.864	40.62
291.079	79.53
291.294	9.9
291.509	48.81
291.724	36.52
291.938	48.81
292.153	13.99
292.368	59.05
292.583	24.23
292.798	63.15
293.012	32.43
293.227	11.95
293.442	3.75
293.657	63.15
293.871	22.19
294.086	26.28
294.301	73.39
294.516	108.2
294.73	3.75
294.945	-22.87
295.16	81.58
295.374	52.91
295.589	102.06
295.804	20.14
296.018	-6.49
296.233	46.76
296.447	102.06
296.662	69.29
296.877	32.43
297.091	-43.35
297.306	-24.92
297.52	20.14
297.735	77.48
297.949	106.15
298.164	36.52
298.378	57
298.593	46.76
298.807	32.43
299.022	89.77
299.236	34.47
299.451	61.1
299.665	20.14
299.88	52.91
300.094	71.34
300.309	79.53
300.523	20.14
300.737	40.62
300.952	108.2
301.166	69.29
301.381	22.19
301.595	44.71
301.809	13.99
302.024	-20.82
302.238	11.95
302.452	42.67
302.667	24.23
302.881	110.25
303.095	11.95
303.309	20.14
303.524	-10.58
303.738	67.24
303.952	34.47
304.166	87.72
304.381	-24.92
304.595	104.11
304.809	26.28
305.023	32.43
305.237	20.14
305.452	63.15
305.666	11.95
305.88	89.77
306.094	34.47
306.308	30.38
306.522	79.53
306.736	100.01
306.95	89.77
307.164	38.57
307.379	16.04
307.593	110.25
307.807	57
308.021	-31.06
308.235	3.75
308.449	-24.92
308.663	75.43
308.877	11.95
309.091	16.04
309.305	28.33
309.519	11.95
309.733	20.14
309.947	-4.44
310.161	65.19
310.374	36.52
310.588	34.47
310.802	79.53
311.016	22.19
311.23	77.48
311.444	-24.92
311.658	18.09
311.872	85.67
312.085	83.63
312.299	97.96
312.513	20.14
312.727	22.19
312.941	7.85
313.154	13.99
313.368	-22.87
313.582	149.16
313.796	46.76
314.009	26.28
314.223	91.82
314.437	73.39
314.651	28.33
314.864	20.14
315.078	-24.92
315.292	89.77
315.505	24.23
315.719	67.24
315.933	44.71
316.146	26.28
316.36	46.76
316.573	93.87
316.787	59.05
317.001	40.62
317.214	36.52
317.428	85.67
317.641	54.95
317.855	28.33
318.068	36.52
318.282	61.1
318.495	91.82
318.709	65.19
318.922	50.86
319.136	44.71
319.349	3.75
319.563	38.57
319.776	42.67
319.99	42.67
320.203	59.05
320.417	44.71
320.63	50.86
320.843	42.67
321.057	22.19
321.27	36.52
321.483	95.91
321.697	54.95
321.91	24.23
322.124	38.57
322.337	61.1
322.55	120.49
322.763	-29.01
322.977	97.96
323.19	11.95
323.403	11.95
323.617	106.15
323.83	73.39
324.043	114.34
324.256	-26.96
324.469	-6.49
324.683	44.71
324.896	24.23
325.109	44.71
325.322	46.76
325.535	63.15
325.748	20.14
325.962	24.23
326.175	46.76
326.388	63.15
326.601	48.81
326.814	-20.82
327.027	28.33
327.24	134.82
327.453	44.71
327.666	52.91
327.879	-12.63
328.092	44.71
328.305	44.71
328.518	69.29
328.731	48.81
328.944	-45.4
329.157	9.9
329.37	28.33
329.583	61.1
329.796	48.81
330.009	-8.53
330.222	87.72
330.435	34.47
330.648	-0.34
330.861	13.99
331.073	73.39
331.286	83.63
331.499	42.67
331.712	-0.34
331.925	65.19
332.138	3.75
332.35	69.29
332.563	69.29
332.776	147.11
332.989	40.62
333.202	52.91
333.414	-41.3
333.627	44.71
333.84	34.47
334.053	102.06
334.265	26.28
334.478	22.19
334.691	11.95
334.903	63.15
335.116	38.57
335.329	24.23
335.541	73.39
335.754	120.49
335.966	36.52
336.179	97.96
336.392	44.71
336.604	18.09
336.817	38.57
337.029	26.28
337.242	42.67
337.454	54.95
337.667	-12.63
337.88	155.3
338.092	-4.44
338.305	-10.58
338.517	-8.53
338.729	69.29
338.942	126.63
339.154	7.85
339.367	7.85
339.579	38.57
339.792	50.86
340.004	44.71
340.217	11.95
340.429	77.48
340.641	65.19
340.854	1.71
341.066	30.38
341.278	69.29
341.491	38.57
341.703	40.62
341.915	69.29
342.128	67.24
342.34	-2.39
342.552	48.81
342.764	44.71
342.977	40.62
343.189	44.71
343.401	77.48
343.613	-65.88
343.826	46.76
344.038	-8.53
344.25	-10.58
344.462	36.52
344.674	1.71
344.886	9.9
345.099	40.62
345.311	108.2
345.523	106.15
345.735	-53.59
345.947	-37.2
346.159	93.87
346.371	1.71
346.583	-20.82
346.795	61.1
347.007	-4.44
347.219	-4.44
347.431	-31.06
347.643	16.04
347.855	16.04
348.067	108.2
348.279	-8.53
348.491	83.63
348.703	75.43
348.915	-2.39
349.127	-16.73
349.339	26.28
349.551	40.62
349.763	91.82
349.975	48.81
350.187	145.06
350.399	54.95
350.61	54.95
350.822	87.72
351.034	24.23
351.246	57
351.458	46.76
351.669	30.38
351.881	93.87
352.093	79.53
352.305	97.96
352.517	54.95
352.728	110.25
352.94	69.29
353.152	93.87
353.363	36.52
353.575	24.23
353.787	93.87
353.999	30.38
354.21	57
354.422	16.04
354.633	32.43
354.845	71.34
355.057	57
355.268	20.14
355.48	69.29
355.692	57
355.903	95.91
356.115	18.09
356.326	24.23
356.538	36.52
356.749	97.96
356.961	77.48
357.172	28.33
357.384	34.47
357.595	26.28
357.807	57
358.018	61.1
358.23	100.01
358.441	-6.49
358.653	-2.39
358.864	97.96
359.075	44.71
359.287	50.86
359.498	85.67
359.709	83.63
359.921	61.1
360.132	91.82
360.344	54.95
360.555	77.48
360.766	46.76
360.977	106.15
361.189	50.86
361.4	67.24
361.611	91.82
361.823	61.1
362.034	67.24
362.245	46.76
362.456	18.09
362.667	75.43
362.879	16.04
363.09	13.99
363.301	77.48
363.512	54.95
363.723	79.53
363.935	50.86
364.146	116.39
364.357	42.67
364.568	61.1
364.779	28.33
364.99	118.44
365.201	13.99
365.412	79.53
365.623	128.68
365.834	73.39
366.045	93.87
366.256	89.77
366.467	75.43
366.678	-12.63
366.889	1.71
367.1	-2.39
367.311	167.59
367.522	1.71
367.733	93.87
367.944	50.86
368.155	46.76
368.366	-2.39
368.577	11.95
368.788	91.82
368.999	59.05
369.209	40.62
369.42	18.09
369.631	102.06
369.842	69.29
370.053	-0.34
370.264	110.25
370.474	71.34
370.685	75.43
370.896	11.95
371.107	18.09
371.317	61.1
371.528	71.34
371.739	36.52
371.95	26.28
372.16	9.9
372.371	-41.3
372.582	26.28
372.792	-47.44
373.003	81.58
373.214	26.28
373.424	18.09
373.635	85.67
373.846	28.33
374.056	44.71
374.267	91.82
374.477	-6.49
374.688	83.63
374.898	69.29
375.109	77.48
375.319	34.47
375.53	46.76
375.74	48.81
375.951	44.71
376.161	69.29
376.372	67.24
376.582	44.71
376.793	65.19
377.003	67.24
377.214	106.15
377.424	140.97
377.635	81.58
377.845	67.24
378.055	91.82
378.266	20.14
378.476	7.85
378.686	1.71
378.897	65.19
379.107	87.72
379.317	44.71
379.528	97.96
379.738	77.48
379.948	57
380.158	81.58
380.369	40.62
380.579	124.58
380.789	42.67
380.999	95.91
381.21	67.24
381.42	69.29
381.63	67.24
381.84	63.15
382.05	46.76
382.261	120.49
382.471	61.1
382.681	97.96
382.891	63.15
383.101	71.34
383.311	52.91
383.521	67.24
383.731	30.38
383.941	118.44
384.151	-63.83
384.361	61.1
384.571	28.33
384.781	155.3
384.991	143.02
385.201	132.78
385.411	194.22
385.621	57
385.831	63.15
386.041	102.06
386.251	11.95
386.461	149.16
386.671	32.43
386.881	106.15
387.091	95.91
387.301	40.62
387.511	42.67
387.72	16.04
387.93	143.02
388.14	24.23
388.35	124.58
388.56	65.19
388.769	100.01
388.979	93.87
389.189	-0.34
389.399	48.81
389.609	93.87
389.818	102.06
390.028	93.87
390.238	167.59
390.447	57
390.657	28.33
390.867	9.9
391.076	-35.16
391.286	102.06
391.496	61.1
391.705	57
391.915	151.21
392.125	97.96
392.334	91.82
392.544	61.1
392.753	34.47
392.963	85.67
393.172	44.71
393.382	32.43
393.591	106.15
393.801	97.96
394.01	134.82
394.22	69.29
394.429	50.86
394.639	75.43
394.848	130.73
395.058	67.24
395.267	63.15
395.477	124.58
395.686	97.96
395.895	183.98
396.105	181.93
396.314	132.78
396.524	136.87
396.733	116.39
396.942	120.49
397.152	102.06
397.361	85.67
397.57	81.58
397.78	59.05
397.989	140.97
398.198	165.54
398.407	190.12
398.617	138.92
398.826	126.63
399.035	120.49
399.244	132.78
399.453	110.25
399.663	134.82
399.872	224.94
400.081	179.88
400.29	151.21
400.499	177.83
400.708	204.46
400.917	175.78
401.127	206.5
401.336	140.97
401.545	171.69
401.754	167.59
401.963	126.63
402.172	188.07
402.381	198.31
402.59	100.01
402.799	122.54
403.008	177.83
403.217	204.46
403.426	196.26
403.635	93.87
403.844	147.11
404.053	179.88
404.262	153.26
404.471	91.82
404.68	169.64
404.888	200.36
405.097	173.74
405.306	190.12
405.515	208.55
405.724	198.31
405.933	149.16
406.142	208.55
406.35	249.51
406.559	265.89
406.768	282.28
406.977	253.61
407.185	288.42
407.394	302.76
407.603	267.94
407.812	319.14
408.02	274.09
408.229	220.84
408.438	259.75
408.646	358.05
408.855	263.85
409.064	339.62
409.272	288.42
409.481	442.02
409.69	358.05
409.898	370.34
410.107	423.59
410.315	419.49
410.524	435.88
410.733	478.88
410.941	399.01
411.15	450.21
411.358	509.6
411.567	521.89
411.775	474.79
411.984	507.55
412.192	618.15
412.401	503.46
412.609	577.19
412.818	661.15
413.026	501.41
413.234	640.67
413.443	597.67
413.651	624.29
413.86	669.34
414.068	775.84
414.276	839.33
414.485	755.36
414.693	808.61
414.901	939.68
415.11	880.29
415.318	994.97
415.526	935.58
415.734	1072.79
415.943	960.16
416.151	1070.75
416.359	980.64
416.567	1048.22
416.776	1113.75
416.984	1197.72
417.192	1232.54
417.4	1246.87
417.608	1275.54
417.817	1306.26
418.025	1453.72
418.233	1496.72
418.441	1418.9
418.649	1560.21
418.857	1625.75
419.065	1701.52
419.273	1617.55
419.481	1810.06
419.689	1855.12
419.897	1846.93
420.105	1832.59
420.313	2039.44
420.521	2092.68
420.729	2154.12
420.937	2164.36
421.145	2236.04
421.353	2367.11
421.561	2606.72
421.769	2580.1
421.977	2641.54
422.185	2533
422.393	2764.42
422.601	3112.57
422.809	3004.03
423.017	3034.75
423.224	3161.72
423.432	3184.25
423.64	3214.97
423.848	3569.27
424.056	3454.58
424.263	3716.72
424.471	3804.78
424.679	3989.1
424.887	4087.4
425.094	4124.27
425.302	4064.88
425.51	4361.83
425.718	4284.01
425.925	4484.71
426.133	4689.51
426.341	4769.38
426.548	4955.74
426.756	5174.88
426.964	5207.64
427.171	5510.74
427.379	5580.37
427.586	5762.64
427.794	6008.4
428.001	6184.52
428.209	6405.7
428.417	6377.03
428.624	6907.46
428.832	7044.67
429.039	6712.9
429.247	6776.39
429.454	7370.3
429.662	7960.11
429.869	7513.66
430.076	8007.22
430.284	7810.61
430.491	8097.33
430.699	8515.11
430.906	8564.26
431.114	8678.95
431.321	9033.25
431.528	9240.09
431.736	9700.89
431.943	10077.71
432.15	9872.92
432.358	10036.75
432.565	10692.1
432.772	10456.59
432.979	11310.59
433.187	11271.68
433.394	11210.24
433.601	12219.89
433.808	12230.13
434.016	12154.35
434.223	12725.74
434.43	13192.67
434.637	13170.15
434.844	13907.41
435.052	13999.57
435.259	14040.53
435.466	14280.14
435.673	14310.86
435.88	14970.31
436.087	15936.95
436.294	15719.87
436.501	15492.54
436.708	15793.59
436.915	16174.52
437.122	17171.88
437.329	16995.75
437.537	17565.09
437.743	18054.55
437.95	17763.74
438.157	18451.86
438.364	19240.33
438.571	19246.47
438.778	19375.49
438.985	21216.61
439.192	20387.19
439.399	20829.55
439.606	20458.87
439.813	21884.25
440.02	23008.59
440.227	22424.92
440.433	22232.41
440.64	23242.06
440.847	23016.78
441.054	23502.15
441.261	25236.78
441.467	24732.98
441.674	25226.54
441.881	26049.82
442.088	25976.09
442.294	25890.08
442.501	26631.44
442.708	27616.52
442.914	28087.55
443.121	29127.92
443.328	28765.43
443.534	30692.57
443.741	29646.05
443.948	29263.08
444.154	31808.71
444.361	31397.07
444.568	31614.15
444.774	31593.67
444.981	32324.8
445.187	32675
445.394	34030.76
445.6	33547.43
445.807	37291.12
446.013	35222.67
446.22	36007.05
446.426	37434.48
446.633	38032.49
446.839	38935.64
447.046	37219.44
447.252	39558.22
447.459	39197.78
447.665	39070.81
447.871	41096.25
448.078	42265.64
448.284	40811.58
448.491	41862.19
448.697	43332.63
448.903	44012.56
449.11	43936.78
449.316	42488.87
449.522	43793.42
449.728	45298.68
449.935	45556.72
450.141	45102.07
450.347	46228.46
450.553	44712.96
450.76	45452.28
450.966	46412.77
451.172	46527.46
451.378	47524.82
451.584	46298.09
451.791	47340.5
451.997	47299.54
452.203	48038.86
452.409	47977.42
452.615	47733.71
452.821	45849.58
453.027	45405.17
453.233	47442.9
453.44	45921.26
453.646	46343.14
453.852	46736.35
454.058	46896.1
454.264	45581.3
454.47	46302.18
454.676	45128.7
454.882	46461.93
455.088	42892.32
455.294	43652.11
455.5	43844.62
455.705	44532.74
455.911	43140.12
456.117	42058.79
456.323	41270.32
456.529	38671.45
456.735	40727.61
456.941	39603.28
457.147	38642.78
457.352	37694.57
457.558	36934.78
457.764	37047.41
457.97	36129.92
458.176	35896.45
458.381	35765.38
458.587	33889.45
458.793	33883.3
458.999	32289.98
459.204	34692.25
459.41	33825.96
459.616	31171.79
459.821	31401.16
460.027	31102.16
460.233	30543.06
460.438	29138.16
460.644	29531.37
460.85	28130.56
461.055	27632.9
461.261	27634.95
461.466	25636.13
461.672	24872.24
461.878	26633.49
462.083	24735.03
462.289	24091.96
462.494	24466.74
462.7	23217.48
462.905	22508.88
463.111	23176.52
463.316	23305.54
463.522	22670.67
463.727	22699.34
463.932	22576.47
464.138	22484.31
464.343	22594.9
464.549	21853.53
464.754	22728.02
464.959	22795.6
465.165	22523.22
465.37	21642.59
465.575	20890.99
465.781	21601.63
465.986	22066.52
466.191	21218.66
466.397	20489.59
466.602	19508.61
466.807	20487.54
