Data from USB4F104151__291__10-42-28-391.txt Node

Date: Wed Mar 12 10:42:28 EDT 2025
User: louis
Spectrometer: USB4F10415
Trigger mode: 4
Integration Time (sec): 3.000000E-2
Scans to average: 1
Electric dark correction enabled: true
Nonlinearity correction enabled: false
Boxcar width: 0
XAxis mode: Wavelengths
Number of Pixels in Spectrum: 3648
>>>>>Begin Spectral Data<<<<<
178.204	-112.81
178.424	-112.81
178.644	-112.81
178.864	-100.52
179.084	-34.99
179.304	-63.66
179.524	-2.22
179.744	61.27
179.964	30.55
180.184	-51.37
180.404	18.26
180.624	-4.27
180.844	22.36
181.064	-6.31
181.283	-18.6
181.503	-22.7
181.723	36.69
181.943	30.55
182.163	65.36
182.383	8.02
182.602	-2.22
182.822	51.03
183.042	14.17
183.262	42.84
183.482	22.36
183.701	-4.27
183.921	14.17
184.141	91.99
184.361	87.89
184.58	-26.79
184.8	28.5
185.02	14.17
185.239	102.23
185.459	-2.22
185.679	51.03
185.898	30.55
186.118	38.74
186.338	-26.79
186.557	26.45
186.777	-14.51
186.997	16.21
187.216	53.08
187.436	89.94
187.655	-10.41
187.875	-16.55
188.095	-4.27
188.314	14.17
188.534	96.08
188.753	32.6
188.973	75.6
189.192	36.69
189.412	96.08
189.631	65.36
189.851	53.08
190.07	102.23
190.29	-4.27
190.509	77.65
190.729	63.32
190.948	143.19
191.168	108.37
191.387	83.8
191.607	28.5
191.826	-20.65
192.045	26.45
192.265	-8.36
192.484	114.52
192.704	73.56
192.923	-4.27
193.142	87.89
193.362	79.7
193.581	75.6
193.8	65.36
194.02	83.8
194.239	28.5
194.458	85.84
194.678	-30.89
194.897	8.02
195.116	14.17
195.335	85.84
195.555	63.32
195.774	28.5
195.993	63.32
196.212	26.45
196.432	42.84
196.651	10.07
196.87	-32.94
197.089	104.28
197.308	-20.65
197.528	14.17
197.747	18.26
197.966	-34.99
198.185	120.66
198.404	30.55
198.623	77.65
198.842	34.64
199.062	104.28
199.281	77.65
199.5	-26.79
199.719	-10.41
199.938	-47.27
200.157	26.45
200.376	34.64
200.595	10.07
200.814	61.27
201.033	-18.6
201.252	55.12
201.471	-20.65
201.69	75.6
201.909	85.84
202.128	69.46
202.347	124.76
202.566	16.21
202.785	18.26
203.004	-14.51
203.223	55.12
203.442	-0.17
203.661	65.36
203.879	24.4
204.098	87.89
204.317	22.36
204.536	89.94
204.755	51.03
204.974	71.51
205.193	14.17
205.411	91.99
205.63	14.17
205.849	-8.36
206.068	40.79
206.287	-16.55
206.505	28.5
206.724	104.28
206.943	-51.37
207.162	36.69
207.381	5.97
207.599	5.97
207.818	18.26
208.037	42.84
208.255	5.97
208.474	22.36
208.693	100.18
208.911	67.41
209.13	-2.22
209.349	-34.99
209.567	51.03
209.786	5.97
210.005	46.93
210.223	48.98
210.442	36.69
210.661	128.85
210.879	79.7
211.098	-12.46
211.316	12.12
211.535	42.84
211.753	34.64
211.972	32.6
212.191	-12.46
212.409	75.6
212.628	14.17
212.846	30.55
213.065	106.32
213.283	94.04
213.502	96.08
213.72	-16.55
213.938	36.69
214.157	75.6
214.375	10.07
214.594	-63.66
214.812	40.79
215.031	14.17
215.249	-10.41
215.467	42.84
215.686	69.46
215.904	20.31
216.122	20.31
216.341	112.47
216.559	79.7
216.778	79.7
216.996	22.36
217.214	-41.13
217.432	79.7
217.651	55.12
217.869	87.89
218.087	48.98
218.306	42.84
218.524	3.93
218.742	-22.7
218.96	44.88
219.179	22.36
219.397	-6.31
219.615	67.41
219.833	91.99
220.051	-34.99
220.27	53.08
220.488	77.65
220.706	16.21
220.924	30.55
221.142	53.08
221.36	34.64
221.578	28.5
221.796	1.88
222.015	42.84
222.233	1.88
222.451	-14.51
222.669	69.46
222.887	-22.7
223.105	-24.75
223.323	104.28
223.541	20.31
223.759	34.64
223.977	63.32
224.195	71.51
224.413	61.27
224.631	73.56
224.849	-37.03
225.067	102.23
225.285	3.93
225.503	46.93
225.721	3.93
225.939	59.22
226.157	96.08
226.375	104.28
226.592	14.17
226.81	22.36
227.028	83.8
227.246	34.64
227.464	-2.22
227.682	69.46
227.9	55.12
228.117	63.32
228.335	10.07
228.553	22.36
228.771	38.74
228.989	18.26
229.206	-2.22
229.424	24.4
229.642	-14.51
229.86	48.98
230.077	59.22
230.295	91.99
230.513	81.75
230.731	59.22
230.948	40.79
231.166	51.03
231.384	-10.41
231.601	-14.51
231.819	135
232.037	65.36
232.254	-22.7
232.472	83.8
232.689	38.74
232.907	46.93
233.125	-45.23
233.342	30.55
233.56	42.84
233.777	36.69
233.995	63.32
234.213	-16.55
234.43	34.64
234.648	-28.84
234.865	89.94
235.083	1.88
235.3	61.27
235.518	32.6
235.735	104.28
235.953	44.88
236.17	3.93
236.388	42.84
236.605	40.79
236.822	100.18
237.04	61.27
237.257	14.17
237.475	20.31
237.692	85.84
237.909	10.07
238.127	24.4
238.344	128.85
238.562	83.8
238.779	87.89
238.996	28.5
239.214	5.97
239.431	81.75
239.648	28.5
239.865	44.88
240.083	22.36
240.3	28.5
240.517	28.5
240.735	28.5
240.952	30.55
241.169	18.26
241.386	30.55
241.603	44.88
241.821	46.93
242.038	81.75
242.255	46.93
242.472	108.37
242.689	18.26
242.907	46.93
243.124	30.55
243.341	26.45
243.558	32.6
243.775	38.74
243.992	-41.13
244.209	16.21
244.426	65.36
244.643	106.32
244.86	36.69
245.078	12.12
245.295	36.69
245.512	1.88
245.729	-10.41
245.946	12.12
246.163	-45.23
246.38	14.17
246.597	71.51
246.814	112.47
247.031	30.55
247.248	10.07
247.464	-2.22
247.681	59.22
247.898	61.27
248.115	104.28
248.332	-6.31
248.549	65.36
248.766	63.32
248.983	73.56
249.2	42.84
249.417	18.26
249.633	12.12
249.85	55.12
250.067	18.26
250.284	77.65
250.501	26.45
250.717	135
250.934	3.93
251.151	18.26
251.368	128.85
251.585	38.74
251.801	12.12
252.018	5.97
252.235	38.74
252.451	63.32
252.668	24.4
252.885	73.56
253.102	36.69
253.318	38.74
253.535	22.36
253.752	38.74
253.968	-28.84
254.185	24.4
254.401	48.98
254.618	36.69
254.835	-8.36
255.051	96.08
255.268	53.08
255.484	71.51
255.701	22.36
255.917	102.23
256.134	-0.17
256.351	-2.22
256.567	-71.85
256.784	-28.84
257	1.88
257.217	12.12
257.433	118.61
257.65	124.76
257.866	26.45
258.082	55.12
258.299	20.31
258.515	34.64
258.732	46.93
258.948	-16.55
259.165	83.8
259.381	-8.36
259.597	51.03
259.814	-26.79
260.03	-26.79
260.246	53.08
260.463	-14.51
260.679	79.7
260.895	34.64
261.112	87.89
261.328	79.7
261.544	22.36
261.761	59.22
261.977	-16.55
262.193	26.45
262.409	34.64
262.626	8.02
262.842	42.84
263.058	-2.22
263.274	98.13
263.49	110.42
263.707	3.93
263.923	53.08
264.139	22.36
264.355	-4.27
264.571	100.18
264.787	10.07
265.004	102.23
265.22	-45.23
265.436	44.88
265.652	38.74
265.868	143.19
266.084	51.03
266.3	14.17
266.516	-22.7
266.732	-6.31
266.948	-30.89
267.164	28.5
267.38	-24.75
267.596	122.71
267.812	87.89
268.028	-10.41
268.244	77.65
268.46	59.22
268.676	26.45
268.892	42.84
269.108	-28.84
269.324	1.88
269.54	79.7
269.756	77.65
269.972	1.88
270.188	26.45
270.403	34.64
270.619	-16.55
270.835	-45.23
271.051	1.88
271.267	-63.66
271.483	55.12
271.698	55.12
271.914	30.55
272.13	-49.32
272.346	20.31
272.562	-6.31
272.777	59.22
272.993	-8.36
273.209	26.45
273.425	42.84
273.64	8.02
273.856	16.21
274.072	26.45
274.287	36.69
274.503	46.93
274.719	22.36
274.934	8.02
275.15	-39.08
275.366	42.84
275.581	-22.7
275.797	20.31
276.012	12.12
276.228	46.93
276.444	55.12
276.659	48.98
276.875	32.6
277.09	34.64
277.306	18.26
277.521	108.37
277.737	5.97
277.952	46.93
278.168	69.46
278.383	3.93
278.599	8.02
278.814	77.65
279.03	69.46
279.245	57.17
279.461	46.93
279.676	61.27
279.892	-30.89
280.107	-8.36
280.322	-20.65
280.538	51.03
280.753	3.93
280.969	3.93
281.184	28.5
281.399	24.4
281.615	14.17
281.83	10.07
282.045	1.88
282.26	5.97
282.476	34.64
282.691	44.88
282.906	116.56
283.122	14.17
283.337	-0.17
283.552	106.32
283.767	3.93
283.983	30.55
284.198	3.93
284.413	94.04
284.628	34.64
284.843	122.71
285.058	-0.17
285.274	-59.56
285.489	22.36
285.704	57.17
285.919	-16.55
286.134	10.07
286.349	53.08
286.564	18.26
286.779	67.41
286.995	-32.94
287.21	3.93
287.425	55.12
287.64	14.17
287.855	149.33
288.07	-18.6
288.285	73.56
288.5	110.42
288.715	126.8
288.93	20.31
289.145	69.46
289.36	83.8
289.575	18.26
289.79	10.07
290.004	12.12
290.219	44.88
290.434	46.93
290.649	-0.17
290.864	55.12
291.079	55.12
291.294	38.74
291.509	75.6
291.724	8.02
291.938	46.93
292.153	1.88
292.368	61.27
292.583	48.98
292.798	100.18
293.012	-10.41
293.227	100.18
293.442	20.31
293.657	20.31
293.871	120.66
294.086	104.28
294.301	112.47
294.516	46.93
294.73	63.32
294.945	-10.41
295.16	3.93
295.374	-32.94
295.589	73.56
295.804	16.21
296.018	38.74
296.233	96.08
296.447	73.56
296.662	-14.51
296.877	-14.51
297.091	114.52
297.306	61.27
297.52	30.55
297.735	20.31
297.949	108.37
298.164	51.03
298.378	46.93
298.593	28.5
298.807	30.55
299.022	20.31
299.236	-77.99
299.451	85.84
299.665	69.46
299.88	57.17
300.094	-2.22
300.309	-20.65
300.523	1.88
300.737	75.6
300.952	71.51
301.166	75.6
301.381	-6.31
301.595	89.94
301.809	24.4
302.024	16.21
302.238	63.32
302.452	14.17
302.667	42.84
302.881	87.89
303.095	42.84
303.309	30.55
303.524	40.79
303.738	40.79
303.952	-2.22
304.166	51.03
304.381	77.65
304.595	98.13
304.809	12.12
305.023	34.64
305.237	53.08
305.452	69.46
305.666	51.03
305.88	59.22
306.094	77.65
306.308	-22.7
306.522	20.31
306.736	-18.6
306.95	-2.22
307.164	18.26
307.379	-8.36
307.593	114.52
307.807	104.28
308.021	-6.31
308.235	71.51
308.449	30.55
308.663	51.03
308.877	98.13
309.091	112.47
309.305	-4.27
309.519	69.46
309.733	30.55
309.947	-28.84
310.161	128.85
310.374	42.84
310.588	79.7
310.802	-6.31
311.016	71.51
311.23	-12.46
311.444	32.6
311.658	36.69
311.872	51.03
312.085	79.7
312.299	116.56
312.513	89.94
312.727	114.52
312.941	30.55
313.154	3.93
313.368	48.98
313.582	-45.23
313.796	26.45
314.009	77.65
314.223	71.51
314.437	75.6
314.651	57.17
314.864	24.4
315.078	16.21
315.292	26.45
315.505	-2.22
315.719	59.22
315.933	104.28
316.146	89.94
316.36	8.02
316.573	73.56
316.787	36.69
317.001	53.08
317.214	46.93
317.428	42.84
317.641	10.07
317.855	36.69
318.068	38.74
318.282	75.6
318.495	79.7
318.709	16.21
318.922	73.56
319.136	71.51
319.349	46.93
319.563	46.93
319.776	-18.6
319.99	30.55
320.203	75.6
320.417	14.17
320.63	59.22
320.843	67.41
321.057	8.02
321.27	96.08
321.483	28.5
321.697	65.36
321.91	61.27
322.124	126.8
322.337	79.7
322.55	36.69
322.763	65.36
322.977	14.17
323.19	38.74
323.403	44.88
323.617	38.74
323.83	106.32
324.043	-12.46
324.256	24.4
324.469	22.36
324.683	98.13
324.896	44.88
325.109	32.6
325.322	22.36
325.535	87.89
325.748	65.36
325.962	71.51
326.175	-4.27
326.388	48.98
326.601	120.66
326.814	94.04
327.027	87.89
327.24	51.03
327.453	71.51
327.666	69.46
327.879	135
328.092	32.6
328.305	30.55
328.518	22.36
328.731	83.8
328.944	44.88
329.157	61.27
329.37	57.17
329.583	34.64
329.796	59.22
330.009	-10.41
330.222	73.56
330.435	8.02
330.648	40.79
330.861	77.65
331.073	24.4
331.286	-2.22
331.499	71.51
331.712	16.21
331.925	118.61
332.138	126.8
332.35	147.28
332.563	-39.08
332.776	108.37
332.989	-12.46
333.202	8.02
333.414	65.36
333.627	48.98
333.84	-16.55
334.053	22.36
334.265	79.7
334.478	57.17
334.691	59.22
334.903	51.03
335.116	-34.99
335.329	94.04
335.541	32.6
335.754	83.8
335.966	-14.51
336.179	79.7
336.392	63.32
336.604	32.6
336.817	-8.36
337.029	91.99
337.242	22.36
337.454	-18.6
337.667	94.04
337.88	135
338.092	36.69
338.305	18.26
338.517	-18.6
338.729	104.28
338.942	104.28
339.154	89.94
339.367	55.12
339.579	10.07
339.792	-30.89
340.004	28.5
340.217	38.74
340.429	36.69
340.641	-22.7
340.854	51.03
341.066	20.31
341.278	22.36
341.491	20.31
341.703	55.12
341.915	57.17
342.128	96.08
342.34	-10.41
342.552	12.12
342.764	34.64
342.977	32.6
343.189	118.61
343.401	89.94
343.613	14.17
343.826	30.55
344.038	-2.22
344.25	79.7
344.462	44.88
344.674	48.98
344.886	100.18
345.099	63.32
345.311	28.5
345.523	12.12
345.735	77.65
345.947	77.65
346.159	-30.89
346.371	53.08
346.583	28.5
346.795	153.43
347.007	65.36
347.219	-4.27
347.431	83.8
347.643	51.03
347.855	10.07
348.067	114.52
348.279	28.5
348.491	65.36
348.703	20.31
348.915	46.93
349.127	98.13
349.339	40.79
349.551	-37.03
349.763	104.28
349.975	79.7
350.187	46.93
350.399	59.22
350.61	67.41
350.822	24.4
351.034	53.08
351.246	85.84
351.458	83.8
351.669	81.75
351.881	116.56
352.093	44.88
352.305	44.88
352.517	30.55
352.728	42.84
352.94	-6.31
353.152	26.45
353.363	26.45
353.575	71.51
353.787	57.17
353.999	48.98
354.21	44.88
354.422	18.26
354.633	5.97
354.845	75.6
355.057	28.5
355.268	63.32
355.48	85.84
355.692	44.88
355.903	36.69
356.115	-4.27
356.326	36.69
356.538	106.32
356.749	91.99
356.961	46.93
357.172	20.31
357.384	-39.08
357.595	100.18
357.807	16.21
358.018	20.31
358.23	40.79
358.441	169.81
358.653	106.32
358.864	89.94
359.075	44.88
359.287	96.08
359.498	96.08
359.709	51.03
359.921	96.08
360.132	51.03
360.344	81.75
360.555	3.93
360.766	135
360.977	59.22
361.189	67.41
361.4	48.98
361.611	85.84
361.823	32.6
362.034	118.61
362.245	-4.27
362.456	34.64
362.667	30.55
362.879	65.36
363.09	28.5
363.301	73.56
363.512	20.31
363.723	55.12
363.935	53.08
364.146	46.93
364.357	71.51
364.568	100.18
364.779	26.45
364.99	110.42
365.201	85.84
365.412	180.05
365.623	-18.6
365.834	98.13
366.045	59.22
366.256	94.04
366.467	38.74
366.678	112.47
366.889	-4.27
367.1	83.8
367.311	34.64
367.522	96.08
367.733	91.99
367.944	26.45
368.155	12.12
368.366	75.6
368.577	108.37
368.788	104.28
368.999	55.12
369.209	18.26
369.42	87.89
369.631	159.57
369.842	16.21
370.053	48.98
370.264	135
370.474	3.93
370.685	38.74
370.896	132.95
371.107	132.95
371.317	65.36
371.528	57.17
371.739	85.84
371.95	10.07
372.16	85.84
372.371	1.88
372.582	79.7
372.792	53.08
373.003	-14.51
373.214	145.24
373.424	96.08
373.635	28.5
373.846	182.1
374.056	26.45
374.267	87.89
374.477	59.22
374.688	102.23
374.898	83.8
375.109	53.08
375.319	96.08
375.53	71.51
375.74	77.65
375.951	104.28
376.161	55.12
376.372	91.99
376.582	38.74
376.793	104.28
377.003	85.84
377.214	57.17
377.424	-10.41
377.635	87.89
377.845	42.84
378.055	91.99
378.266	81.75
378.476	102.23
378.686	135
378.897	102.23
379.107	141.14
379.317	94.04
379.528	59.22
379.738	81.75
379.948	16.21
380.158	118.61
380.369	89.94
380.579	63.32
380.789	34.64
380.999	73.56
381.21	126.8
381.42	124.76
381.63	57.17
381.84	53.08
382.05	89.94
382.261	89.94
382.471	91.99
382.681	85.84
382.891	42.84
383.101	75.6
383.311	26.45
383.521	55.12
383.731	108.37
383.941	184.15
384.151	46.93
384.361	147.28
384.571	55.12
384.781	130.9
384.991	163.67
385.201	157.52
385.411	51.03
385.621	94.04
385.831	79.7
386.041	18.26
386.251	34.64
386.461	173.91
386.671	106.32
386.881	106.32
387.091	-10.41
387.301	87.89
387.511	1.88
387.72	57.17
387.93	102.23
388.14	24.4
388.35	63.32
388.56	114.52
388.769	51.03
388.979	75.6
389.189	79.7
389.399	77.65
389.609	38.74
389.818	63.32
390.028	104.28
390.238	87.89
390.447	26.45
390.657	141.14
390.867	51.03
391.076	91.99
391.286	96.08
391.496	48.98
391.705	83.8
391.915	61.27
392.125	55.12
392.334	71.51
392.544	135
392.753	32.6
392.963	51.03
393.172	67.41
393.382	87.89
393.591	122.71
393.801	112.47
394.01	169.81
394.22	87.89
394.429	116.56
394.639	110.42
394.848	116.56
395.058	96.08
395.267	128.85
395.477	87.89
395.686	104.28
395.895	75.6
396.105	108.37
396.314	145.24
396.524	118.61
396.733	55.12
396.942	81.75
397.152	157.52
397.361	87.89
397.57	126.8
397.78	77.65
397.989	182.1
398.198	198.48
398.407	124.76
398.617	122.71
398.826	135
399.035	145.24
399.244	151.38
399.453	55.12
399.663	143.19
399.872	157.52
400.081	116.56
400.29	141.14
400.499	100.18
400.708	139.09
400.917	137.04
401.127	159.57
401.336	48.98
401.545	171.86
401.754	233.3
401.963	130.9
402.172	182.1
402.381	94.04
402.59	114.52
402.799	143.19
403.008	161.62
403.217	173.91
403.426	94.04
403.635	79.7
403.844	167.76
404.053	200.53
404.262	157.52
404.471	171.86
404.68	194.39
404.888	137.04
405.097	212.82
405.306	206.67
405.515	124.76
405.724	128.85
405.933	173.91
406.142	204.63
406.35	239.44
406.559	186.19
406.768	210.77
406.977	157.52
407.185	235.35
407.394	237.39
407.603	241.49
407.812	272.21
408.02	276.31
408.229	204.63
408.438	223.06
408.646	192.34
408.855	343.89
409.064	307.02
409.272	278.35
409.481	329.55
409.69	350.03
409.898	268.11
410.107	372.56
410.315	282.45
410.524	317.26
410.733	354.13
410.941	376.66
411.15	397.14
411.358	524.11
411.567	440.14
411.775	540.49
411.984	466.77
412.192	485.2
412.401	460.62
412.609	573.26
412.818	573.26
413.026	603.98
413.234	632.65
413.443	534.35
413.651	640.84
413.86	718.67
414.068	710.47
414.276	706.38
414.485	681.8
414.693	804.68
414.901	866.12
415.11	819.02
415.318	759.63
415.526	831.3
415.734	794.44
415.943	943.94
416.151	872.26
416.359	913.22
416.567	1005.38
416.776	1013.57
416.984	1107.78
417.192	1173.32
417.4	1124.16
417.608	1105.73
417.817	1177.41
418.025	1371.97
418.233	1279.81
418.441	1322.82
418.649	1374.02
418.857	1433.41
419.065	1529.66
419.273	1365.82
419.481	1537.85
419.689	1500.99
419.897	1662.78
420.105	1693.5
420.313	1695.55
420.521	1883.96
420.729	1795.9
420.937	1799.99
421.145	1920.82
421.353	2070.33
421.561	2148.15
421.769	2117.43
421.977	2359.09
422.185	2369.33
422.393	2336.56
422.601	2563.89
422.809	2406.19
423.017	2711.34
423.224	2594.61
423.432	2832.17
423.64	2764.59
423.848	3182.37
424.056	2983.72
424.263	3225.38
424.471	3299.11
424.679	3340.07
424.887	3518.24
425.094	3698.46
425.302	3583.77
425.51	3753.76
425.718	3749.66
425.925	3997.46
426.133	3940.12
426.341	4226.84
426.548	4517.65
426.756	4474.64
426.964	4359.95
427.171	4671.25
427.379	4845.32
427.586	4888.33
427.794	4988.68
428.001	5150.47
428.209	5570.3
428.417	5519.11
428.624	5857.02
428.832	5977.85
429.039	5887.74
429.247	5875.45
429.454	6506.23
429.662	6833.9
429.869	6385.4
430.076	6743.79
430.284	6584.05
430.491	6999.79
430.699	7268.07
430.906	7137
431.114	7415.52
431.321	7659.23
431.528	7800.54
431.736	8224.47
431.943	8605.39
432.15	8416.98
432.358	8503
432.565	8943.31
432.772	9029.32
432.979	9426.63
433.187	9586.37
433.394	9350.85
433.601	10346.17
433.808	10227.39
434.016	10233.53
434.223	10669.75
434.43	11275.95
434.637	11093.68
434.844	11728.55
435.052	11892.38
435.259	12002.97
435.466	11888.29
435.673	11746.98
435.88	12869.26
436.087	13139.6
436.294	13252.24
436.501	12721.81
436.708	13344.39
436.915	13704.84
437.122	14497.4
437.329	14380.67
437.537	14915.19
437.743	15052.4
437.95	14964.34
438.157	15660.65
438.364	16072.29
438.571	16100.96
438.778	16189.02
438.985	17868.36
439.192	17198.67
439.399	17741.38
439.606	17104.46
439.813	18204.22
440.02	19252.78
440.227	18771.51
440.433	18656.82
440.64	19363.37
440.847	19265.07
441.054	19680.81
441.261	20723.23
441.467	20821.53
441.674	21265.94
441.881	21999.11
442.088	21640.72
442.294	21562.89
442.501	22330.88
442.708	22828.54
442.914	23555.57
443.121	24509.92
443.328	23920.1
443.534	25738.7
443.741	24630.75
443.948	24514.02
444.154	26156.49
444.361	26066.38
444.568	26594.75
444.774	26373.57
444.981	26748.35
445.187	27370.93
445.394	28380.58
445.6	28292.52
445.807	31098.23
446.013	29427.09
446.22	30166.41
446.426	31313.27
446.633	31327.61
446.839	32286.06
447.046	31210.87
447.252	32955.74
447.459	32906.59
447.665	32832.86
447.871	34209.1
448.078	35616.05
448.284	34139.47
448.491	34850.11
448.697	36234.54
448.903	36912.42
449.11	36810.02
449.316	35927.35
449.522	36594.98
449.728	37668.12
449.935	38067.47
450.141	38120.72
450.347	39001.35
450.553	37606.68
450.76	38053.14
450.966	39261.44
451.172	38702.34
451.378	39810.29
451.584	38935.81
451.791	39881.97
451.997	39836.92
452.203	39957.75
452.409	40180.98
452.615	40477.93
452.821	38556.94
453.027	38253.84
453.233	40625.39
453.44	38784.26
453.646	39001.35
453.852	39009.54
454.058	39701.75
454.264	38419.72
454.47	39183.62
454.676	38423.82
454.882	39355.64
455.088	35845.43
455.294	36541.74
455.5	37008.67
455.705	37448.99
455.911	35605.81
456.117	35448.12
456.323	34745.67
456.529	32755.04
456.735	33965.39
456.941	33264.99
457.147	32566.63
457.352	32085.36
457.558	31352.18
457.764	31737.2
457.97	30881.15
458.176	30291.34
458.381	30512.52
458.587	29011.35
458.793	29091.23
458.999	27362.74
459.204	29175.19
459.41	28083.62
459.616	26721.73
459.821	26318.28
460.027	26256.84
460.233	26078.66
460.438	24489.44
460.644	24933.85
460.85	23551.47
461.055	23293.43
461.261	23436.78
461.466	21421.58
461.672	21122.58
461.878	22273.54
462.083	21171.73
462.289	20684.31
462.494	20397.6
462.7	19478.06
462.905	18865.72
463.111	19811.88
463.316	19662.38
463.522	19482.16
463.727	19269.17
463.932	19254.83
464.138	19045.94
464.343	19222.06
464.549	18869.81
464.754	19240.5
464.959	19234.35
465.165	18667.06
465.37	18222.66
465.575	17544.78
465.781	18521.66
465.986	18486.84
466.191	17909.32
466.397	17538.63
466.602	16457.31
466.807	17241.68
467.012	17190.48
467.218	17229.39
