Data from USB4F104151__287__10-42-21-432.txt Node

Date: Wed Mar 12 10:42:21 EDT 2025
User: louis
Spectrometer: USB4F10415
Trigger mode: 4
Integration Time (sec): 3.000000E-2
Scans to average: 1
Electric dark correction enabled: true
Nonlinearity correction enabled: false
Boxcar width: 0
XAxis mode: Wavelengths
Number of Pixels in Spectrum: 3648
>>>>>Begin Spectral Data<<<<<
178.204	-86.36
178.424	-86.36
178.644	-86.36
178.864	-151.89
179.084	-102.74
179.304	44.71
179.524	38.57
179.744	-14.68
179.964	44.71
180.184	-20.82
180.404	-2.39
180.624	-39.25
180.844	-14.68
181.064	-26.96
181.283	16.04
181.503	-29.01
181.723	3.75
181.943	-35.16
182.163	143.02
182.383	18.09
182.602	89.77
182.822	57
183.042	-0.34
183.262	28.33
183.482	-16.73
183.701	42.67
183.921	-20.82
184.141	73.39
184.361	65.19
184.58	7.85
184.8	50.86
185.02	34.47
185.239	30.38
185.459	61.1
185.679	16.04
185.898	36.52
186.118	32.43
186.338	-18.77
186.557	128.68
186.777	-6.49
186.997	20.14
187.216	48.81
187.436	118.44
187.655	73.39
187.875	87.72
188.095	3.75
188.314	77.48
188.534	104.11
188.753	3.75
188.973	52.91
189.192	63.15
189.412	40.62
189.631	46.76
189.851	-49.49
190.07	91.82
190.29	1.71
190.509	20.14
190.729	-6.49
190.948	18.09
191.168	145.06
191.387	89.77
191.607	32.43
191.826	-53.59
192.045	65.19
192.265	52.91
192.484	85.67
192.704	30.38
192.923	28.33
193.142	81.58
193.362	-29.01
193.581	36.52
193.8	-16.73
194.02	38.57
194.239	-16.73
194.458	-29.01
194.678	20.14
194.897	-10.58
195.116	-12.63
195.335	7.85
195.555	89.77
195.774	-12.63
195.993	71.34
196.212	36.52
196.432	24.23
196.651	36.52
196.87	3.75
197.089	116.39
197.308	32.43
197.528	61.1
197.747	-41.3
197.966	48.81
198.185	97.96
198.404	26.28
198.623	11.95
198.842	54.95
199.062	-12.63
199.281	85.67
199.5	-10.58
199.719	59.05
199.938	108.2
200.157	159.4
200.376	-6.49
200.595	73.39
200.814	-4.44
201.033	-4.44
201.252	106.15
201.471	16.04
201.69	128.68
201.909	1.71
202.128	13.99
202.347	11.95
202.566	1.71
202.785	13.99
203.004	5.8
203.223	110.25
203.442	48.81
203.661	81.58
203.879	102.06
204.098	44.71
204.317	46.76
204.536	87.72
204.755	28.33
204.974	30.38
205.193	104.11
205.411	95.91
205.63	93.87
205.849	5.8
206.068	26.28
206.287	-16.73
206.505	20.14
206.724	30.38
206.943	40.62
207.162	11.95
207.381	42.67
207.599	16.04
207.818	83.63
208.037	30.38
208.255	-6.49
208.474	85.67
208.693	-22.87
208.911	67.24
209.13	44.71
209.349	18.09
209.567	40.62
209.786	24.23
210.005	79.53
210.223	81.58
210.442	48.81
210.661	48.81
210.879	67.24
211.098	52.91
211.316	50.86
211.535	71.34
211.753	-4.44
211.972	75.43
212.191	81.58
212.409	75.43
212.628	22.19
212.846	-0.34
213.065	44.71
213.283	40.62
213.502	7.85
213.72	-0.34
213.938	7.85
214.157	-4.44
214.375	52.91
214.594	3.75
214.812	132.78
215.031	63.15
215.249	71.34
215.467	44.71
215.686	-0.34
215.904	79.53
216.122	9.9
216.341	28.33
216.559	95.91
216.778	85.67
216.996	128.68
217.214	73.39
217.432	134.82
217.651	-18.77
217.869	52.91
218.087	26.28
218.306	16.04
218.524	57
218.742	20.14
218.96	73.39
219.179	32.43
219.397	16.04
219.615	202.41
219.833	97.96
220.051	20.14
220.27	155.3
220.488	52.91
220.706	18.09
220.924	48.81
221.142	93.87
221.36	30.38
221.578	40.62
221.796	26.28
222.015	65.19
222.233	-53.59
222.451	-4.44
222.669	59.05
222.887	3.75
223.105	-37.2
223.323	42.67
223.541	-6.49
223.759	122.54
223.977	126.63
224.195	5.8
224.413	106.15
224.631	28.33
224.849	48.81
225.067	120.49
225.285	57
225.503	30.38
225.721	5.8
225.939	65.19
226.157	59.05
226.375	108.2
226.592	7.85
226.81	24.23
227.028	36.52
227.246	87.72
227.464	77.48
227.682	22.19
227.9	44.71
228.117	32.43
228.335	61.1
228.553	44.71
228.771	52.91
228.989	89.77
229.206	18.09
229.424	63.15
229.642	97.96
229.86	106.15
230.077	110.25
230.295	81.58
230.513	36.52
230.731	22.19
230.948	48.81
231.166	77.48
231.384	1.71
231.601	-12.63
231.819	59.05
232.037	36.52
232.254	3.75
232.472	65.19
232.689	-4.44
232.907	18.09
233.125	1.71
233.342	42.67
233.56	3.75
233.777	9.9
233.995	-35.16
234.213	-4.44
234.43	16.04
234.648	77.48
234.865	44.71
235.083	42.67
235.3	-6.49
235.518	71.34
235.735	97.96
235.953	104.11
236.17	42.67
236.388	-0.34
236.605	106.15
236.822	104.11
237.04	104.11
237.257	63.15
237.475	7.85
237.692	61.1
237.909	-10.58
238.127	116.39
238.344	65.19
238.562	116.39
238.779	-8.53
238.996	69.29
239.214	-14.68
239.431	22.19
239.648	24.23
239.865	100.01
240.083	26.28
240.3	24.23
240.517	126.63
240.735	32.43
240.952	65.19
241.169	26.28
241.386	38.57
241.603	-41.3
241.821	52.91
242.038	65.19
242.255	61.1
242.472	65.19
242.689	59.05
242.907	65.19
243.124	20.14
243.341	102.06
243.558	20.14
243.775	85.67
243.992	67.24
244.209	26.28
244.426	65.19
244.643	89.77
244.86	-53.59
245.078	18.09
245.295	54.95
245.512	81.58
245.729	-18.77
245.946	118.44
246.163	16.04
246.38	5.8
246.597	22.19
246.814	59.05
247.031	-8.53
247.248	93.87
247.464	77.48
247.681	89.77
247.898	77.48
248.115	128.68
248.332	20.14
248.549	120.49
248.766	79.53
248.983	-14.68
249.2	75.43
249.417	18.09
249.633	67.24
249.85	20.14
250.067	42.67
250.284	1.71
250.501	116.39
250.717	114.34
250.934	59.05
251.151	81.58
251.368	-12.63
251.585	110.25
251.801	26.28
252.018	26.28
252.235	69.29
252.451	-41.3
252.668	48.81
252.885	130.73
253.102	89.77
253.318	46.76
253.535	36.52
253.752	32.43
253.968	48.81
254.185	13.99
254.401	42.67
254.618	26.28
254.835	20.14
255.051	147.11
255.268	57
255.484	54.95
255.701	79.53
255.917	95.91
256.134	95.91
256.351	85.67
256.567	54.95
256.784	57
257	-6.49
257.217	42.67
257.433	48.81
257.65	89.77
257.866	108.2
258.082	42.67
258.299	16.04
258.515	93.87
258.732	81.58
258.948	18.09
259.165	93.87
259.381	69.29
259.597	65.19
259.814	1.71
260.03	52.91
260.246	67.24
260.463	67.24
260.679	93.87
260.895	75.43
261.112	71.34
261.328	38.57
261.544	59.05
261.761	83.63
261.977	20.14
262.193	40.62
262.409	16.04
262.626	16.04
262.842	34.47
263.058	-6.49
263.274	52.91
263.49	52.91
263.707	161.45
263.923	79.53
264.139	50.86
264.355	9.9
264.571	61.1
264.787	50.86
265.004	44.71
265.22	28.33
265.436	3.75
265.652	50.86
265.868	114.34
266.084	65.19
266.3	11.95
266.516	9.9
266.732	85.67
266.948	18.09
267.164	26.28
267.38	75.43
267.596	28.33
267.812	114.34
268.028	46.76
268.244	57
268.46	11.95
268.676	48.81
268.892	93.87
269.108	52.91
269.324	-41.3
269.54	5.8
269.756	26.28
269.972	-20.82
270.188	81.58
270.403	50.86
270.619	42.67
270.835	71.34
271.051	65.19
271.267	-0.34
271.483	24.23
271.698	67.24
271.914	34.47
272.13	57
272.346	118.44
272.562	108.2
272.777	100.01
272.993	13.99
273.209	67.24
273.425	54.95
273.64	89.77
273.856	102.06
274.072	22.19
274.287	-10.58
274.503	93.87
274.719	116.39
274.934	61.1
275.15	16.04
275.366	61.1
275.581	-6.49
275.797	73.39
276.012	67.24
276.228	50.86
276.444	-6.49
276.659	171.69
276.875	18.09
277.09	95.91
277.306	20.14
277.521	57
277.737	69.29
277.952	61.1
278.168	28.33
278.383	110.25
278.599	57
278.814	69.29
279.03	57
279.245	143.02
279.461	71.34
279.676	102.06
279.892	13.99
280.107	7.85
280.322	30.38
280.538	11.95
280.753	61.1
280.969	122.54
281.184	46.76
281.399	124.58
281.615	75.43
281.83	147.11
282.045	7.85
282.26	65.19
282.476	71.34
282.691	40.62
282.906	83.63
283.122	42.67
283.337	57
283.552	54.95
283.767	40.62
283.983	151.21
284.198	44.71
284.413	97.96
284.628	61.1
284.843	57
285.058	52.91
285.274	16.04
285.489	59.05
285.704	3.75
285.919	36.52
286.134	30.38
286.349	102.06
286.564	95.91
286.779	54.95
286.995	16.04
287.21	-18.77
287.425	91.82
287.64	69.29
287.855	28.33
288.07	22.19
288.285	75.43
288.5	26.28
288.715	85.67
288.93	63.15
289.145	22.19
289.36	79.53
289.575	67.24
289.79	118.44
290.004	89.77
290.219	24.23
290.434	50.86
290.649	-8.53
290.864	95.91
291.079	40.62
291.294	57
291.509	44.71
291.724	36.52
291.938	7.85
292.153	151.21
292.368	40.62
292.583	-16.73
292.798	-4.44
293.012	24.23
293.227	26.28
293.442	44.71
293.657	46.76
293.871	89.77
294.086	16.04
294.301	42.67
294.516	73.39
294.73	54.95
294.945	63.15
295.16	34.47
295.374	52.91
295.589	28.33
295.804	-6.49
296.018	-29.01
296.233	89.77
296.447	50.86
296.662	50.86
296.877	108.2
297.091	50.86
297.306	44.71
297.52	59.05
297.735	11.95
297.949	57
298.164	95.91
298.378	36.52
298.593	30.38
298.807	-55.64
299.022	130.73
299.236	57
299.451	16.04
299.665	85.67
299.88	81.58
300.094	57
300.309	59.05
300.523	20.14
300.737	-35.16
300.952	63.15
301.166	36.52
301.381	18.09
301.595	122.54
301.809	85.67
302.024	40.62
302.238	75.43
302.452	126.63
302.667	24.23
302.881	120.49
303.095	34.47
303.309	91.82
303.524	20.14
303.738	-16.73
303.952	93.87
304.166	100.01
304.381	22.19
304.595	122.54
304.809	32.43
305.023	71.34
305.237	42.67
305.452	30.38
305.666	73.39
305.88	93.87
306.094	54.95
306.308	38.57
306.522	75.43
306.736	-45.4
306.95	59.05
307.164	122.54
307.379	91.82
307.593	147.11
307.807	114.34
308.021	63.15
308.235	54.95
308.449	18.09
308.663	-0.34
308.877	67.24
309.091	77.48
309.305	91.82
309.519	3.75
309.733	81.58
309.947	34.47
310.161	89.77
310.374	34.47
310.588	122.54
310.802	-37.2
311.016	-8.53
311.23	16.04
311.444	26.28
311.658	34.47
311.872	100.01
312.085	81.58
312.299	106.15
312.513	61.1
312.727	71.34
312.941	44.71
313.154	50.86
313.368	48.81
313.582	61.1
313.796	1.71
314.009	24.23
314.223	100.01
314.437	69.29
314.651	69.29
314.864	71.34
315.078	-0.34
315.292	40.62
315.505	112.3
315.719	44.71
315.933	91.82
316.146	38.57
316.36	93.87
316.573	57
316.787	81.58
317.001	57
317.214	59.05
317.428	36.52
317.641	73.39
317.855	36.52
318.068	59.05
318.282	50.86
318.495	61.1
318.709	67.24
318.922	-20.82
319.136	87.72
319.349	93.87
319.563	85.67
319.776	50.86
319.99	-20.82
320.203	50.86
320.417	71.34
320.63	159.4
320.843	108.2
321.057	20.14
321.27	85.67
321.483	16.04
321.697	38.57
321.91	48.81
322.124	71.34
322.337	-39.25
322.55	48.81
322.763	89.77
322.977	79.53
323.19	24.23
323.403	69.29
323.617	65.19
323.83	126.63
324.043	52.91
324.256	38.57
324.469	67.24
324.683	89.77
324.896	36.52
325.109	85.67
325.322	3.75
325.535	69.29
325.748	69.29
325.962	81.58
326.175	83.63
326.388	-16.73
326.601	-10.58
326.814	120.49
327.027	77.48
327.24	153.26
327.453	-49.49
327.666	57
327.879	110.25
328.092	165.54
328.305	118.44
328.518	-8.53
328.731	57
328.944	157.35
329.157	36.52
329.37	18.09
329.583	52.91
329.796	28.33
330.009	91.82
330.222	38.57
330.435	112.3
330.648	91.82
330.861	61.1
331.073	40.62
331.286	83.63
331.499	106.15
331.712	61.1
331.925	16.04
332.138	42.67
332.35	130.73
332.563	5.8
332.776	130.73
332.989	38.57
333.202	28.33
333.414	104.11
333.627	79.53
333.84	24.23
334.053	46.76
334.265	16.04
334.478	77.48
334.691	52.91
334.903	93.87
335.116	44.71
335.329	24.23
335.541	5.8
335.754	3.75
335.966	85.67
336.179	44.71
336.392	85.67
336.604	24.23
336.817	132.78
337.029	24.23
337.242	32.43
337.454	97.96
337.667	52.91
337.88	83.63
338.092	89.77
338.305	63.15
338.517	71.34
338.729	44.71
338.942	136.87
339.154	32.43
339.367	-0.34
339.579	77.48
339.792	20.14
340.004	124.58
340.217	36.52
340.429	91.82
340.641	85.67
340.854	3.75
341.066	63.15
341.278	65.19
341.491	11.95
341.703	52.91
341.915	32.43
342.128	128.68
342.34	124.58
342.552	24.23
342.764	69.29
342.977	5.8
343.189	57
343.401	50.86
343.613	28.33
343.826	30.38
344.038	91.82
344.25	85.67
344.462	13.99
344.674	54.95
344.886	77.48
345.099	118.44
345.311	75.43
345.523	32.43
345.735	28.33
345.947	87.72
346.159	67.24
346.371	28.33
346.583	132.78
346.795	104.11
347.007	91.82
347.219	48.81
347.431	71.34
347.643	126.63
347.855	36.52
348.067	118.44
348.279	46.76
348.491	40.62
348.703	77.48
348.915	71.34
349.127	89.77
349.339	132.78
349.551	26.28
349.763	97.96
349.975	79.53
350.187	69.29
350.399	32.43
350.61	93.87
350.822	18.09
351.034	28.33
351.246	54.95
351.458	20.14
351.669	93.87
351.881	130.73
352.093	91.82
352.305	75.43
352.517	151.21
352.728	40.62
352.94	34.47
353.152	57
353.363	42.67
353.575	95.91
353.787	57
353.999	73.39
354.21	73.39
354.422	32.43
354.633	67.24
354.845	108.2
355.057	18.09
355.268	71.34
355.48	59.05
355.692	52.91
355.903	91.82
356.115	3.75
356.326	52.91
356.538	44.71
356.749	34.47
356.961	110.25
357.172	3.75
357.384	22.19
357.595	89.77
357.807	30.38
358.018	44.71
358.23	42.67
358.441	114.34
358.653	63.15
358.864	69.29
359.075	79.53
359.287	89.77
359.498	42.67
359.709	87.72
359.921	32.43
360.132	28.33
360.344	110.25
360.555	83.63
360.766	147.11
360.977	-6.49
361.189	126.63
361.4	61.1
361.611	102.06
361.823	69.29
362.034	167.59
362.245	87.72
362.456	48.81
362.667	112.3
362.879	69.29
363.09	81.58
363.301	24.23
363.512	67.24
363.723	36.52
363.935	100.01
364.146	104.11
364.357	85.67
364.568	59.05
364.779	-22.87
364.99	91.82
365.201	79.53
365.412	50.86
365.623	20.14
365.834	67.24
366.045	28.33
366.256	124.58
366.467	65.19
366.678	118.44
366.889	30.38
367.1	128.68
367.311	124.58
367.522	61.1
367.733	108.2
367.944	102.06
368.155	13.99
368.366	147.11
368.577	71.34
368.788	77.48
368.999	44.71
369.209	38.57
369.42	120.49
369.631	79.53
369.842	91.82
370.053	89.77
370.264	122.54
370.474	75.43
370.685	52.91
370.896	65.19
371.107	108.2
371.317	11.95
371.528	50.86
371.739	136.87
371.95	83.63
372.16	85.67
372.371	65.19
372.582	20.14
372.792	128.68
373.003	5.8
373.214	54.95
373.424	61.1
373.635	36.52
373.846	102.06
374.056	20.14
374.267	24.23
374.477	67.24
374.688	114.34
374.898	73.39
375.109	44.71
375.319	61.1
375.53	100.01
375.74	95.91
375.951	36.52
376.161	100.01
376.372	108.2
376.582	67.24
376.793	91.82
377.003	40.62
377.214	153.26
377.424	83.63
377.635	24.23
377.845	-22.87
378.055	81.58
378.266	36.52
378.476	97.96
378.686	116.39
378.897	130.73
379.107	108.2
379.317	57
379.528	114.34
379.738	34.47
379.948	52.91
380.158	104.11
380.369	52.91
380.579	79.53
380.789	63.15
380.999	97.96
381.21	42.67
381.42	122.54
381.63	-12.63
381.84	59.05
382.05	85.67
382.261	42.67
382.471	114.34
382.681	122.54
382.891	159.4
383.101	132.78
383.311	71.34
383.521	93.87
383.731	97.96
383.941	93.87
384.151	50.86
384.361	77.48
384.571	110.25
384.781	145.06
384.991	116.39
385.201	83.63
385.411	52.91
385.621	108.2
385.831	73.39
386.041	77.48
386.251	149.16
386.461	102.06
386.671	65.19
386.881	112.3
387.091	57
387.301	118.44
387.511	130.73
387.72	77.48
387.93	147.11
388.14	44.71
388.35	73.39
388.56	110.25
388.769	106.15
388.979	112.3
389.189	89.77
389.399	112.3
389.609	87.72
389.818	106.15
390.028	116.39
390.238	81.58
390.447	89.77
390.657	-8.53
390.867	167.59
391.076	116.39
391.286	63.15
391.496	124.58
391.705	65.19
391.915	143.02
392.125	134.82
392.334	147.11
392.544	132.78
392.753	140.97
392.963	85.67
393.172	224.94
393.382	77.48
393.591	112.3
393.801	153.26
394.01	163.5
394.22	155.3
394.429	149.16
394.639	126.63
394.848	130.73
395.058	16.04
395.267	157.35
395.477	143.02
395.686	136.87
395.895	163.5
396.105	145.06
396.314	153.26
396.524	192.17
396.733	91.82
396.942	130.73
397.152	128.68
397.361	153.26
397.57	151.21
397.78	143.02
397.989	104.11
398.198	186.02
398.407	110.25
398.617	-0.34
398.826	138.92
399.035	52.91
399.244	112.3
399.453	134.82
399.663	169.64
399.872	165.54
400.081	149.16
400.29	188.07
400.499	169.64
400.708	161.45
400.917	130.73
401.127	159.4
401.336	97.96
401.545	245.41
401.754	179.88
401.963	249.51
402.172	157.35
402.381	69.29
402.59	77.48
402.799	165.54
403.008	235.18
403.217	118.44
403.426	167.59
403.635	151.21
403.844	226.98
404.053	126.63
404.262	130.73
404.471	179.88
404.68	181.93
404.888	165.54
405.097	151.21
405.306	239.27
405.515	233.13
405.724	167.59
405.933	229.03
406.142	257.7
406.35	253.61
406.559	200.36
406.768	194.22
406.977	257.7
407.185	306.85
407.394	288.42
407.603	226.98
407.812	337.57
408.02	323.24
408.229	337.57
408.438	329.38
408.646	308.9
408.855	298.66
409.064	415.4
409.272	298.66
409.481	401.06
409.69	372.39
409.898	345.77
410.107	444.07
410.315	364.2
410.524	439.97
410.733	480.93
410.941	466.6
411.15	497.32
411.358	503.46
411.567	511.65
411.775	478.88
411.984	442.02
412.192	544.42
412.401	556.71
412.609	673.44
412.818	704.16
413.026	714.4
413.234	706.21
413.443	628.39
413.651	650.91
413.86	681.63
414.068	810.65
414.276	773.79
414.485	816.8
414.693	847.52
414.901	831.13
415.11	968.35
415.318	902.81
415.526	986.78
415.734	1017.5
415.943	1007.26
416.151	1025.69
416.359	1031.83
416.567	1095.32
416.776	1164.95
416.984	1334.93
417.192	1298.07
417.4	1289.88
417.608	1265.3
417.817	1363.61
418.025	1363.61
418.233	1519.25
418.441	1474.2
418.649	1537.68
418.857	1541.78
419.065	1681.04
419.273	1672.85
419.481	1775.25
419.689	1932.94
419.897	1932.94
420.105	1900.17
420.313	2100.87
420.521	2084.49
420.729	2135.69
420.937	2277
421.145	2158.22
421.353	2317.96
421.561	2444.93
421.769	2522.76
421.977	2690.69
422.185	2629.25
422.393	2836.1
422.601	2975.36
422.809	2854.53
423.017	3034.75
423.224	3212.92
423.432	3225.21
423.64	3217.02
423.848	3417.72
424.056	3432.05
424.263	3704.43
424.471	3677.81
424.679	3698.29
424.887	3911.28
425.094	4193.9
425.302	3993.2
425.51	4359.78
425.718	4435.56
425.925	4421.22
426.133	4597.35
426.341	4849.25
426.548	5021.28
426.756	5101.15
426.964	5279.32
427.171	5471.83
427.379	5631.57
427.586	5568.09
427.794	5879.38
428.001	6032.97
428.209	6413.9
428.417	6176.33
428.624	6628.93
428.832	6798.91
429.039	6692.42
429.247	6659.65
429.454	7331.39
429.662	7882.29
429.869	7333.43
430.076	7872.05
430.284	7652.92
430.491	8072.75
430.699	8341.04
430.906	8445.48
431.114	8461.87
431.321	8799.78
431.528	9066.02
431.736	9483.8
431.943	9975.31
432.15	9786.9
432.358	9874.96
432.565	10536.46
432.772	10532.36
432.979	10821.13
433.187	10993.15
433.394	11159.04
433.601	12090.87
433.808	11916.79
434.016	11879.93
434.223	12518.89
434.43	13055.46
434.637	13037.03
434.844	13544.92
435.052	14175.7
435.259	13733.34
435.466	14032.34
435.673	13852.12
435.88	14691.79
436.087	15400.38
436.294	15330.75
436.501	15218.11
436.708	15390.14
436.915	15934.9
437.122	16778.67
437.329	16528.81
437.537	17153.44
437.743	17528.22
437.95	17208.74
438.157	18281.88
438.364	19080.58
438.571	18693.52
438.778	18980.23
438.985	20505.97
439.192	19735.93
439.399	20551.03
439.606	20014.46
439.813	21181.8
440.02	22517.08
440.227	21798.24
440.433	21949.79
440.64	22863.18
440.847	22519.12
441.054	23283.02
441.261	24485.17
441.467	24358.2
441.674	24708.4
441.881	25634.08
442.088	25568.55
442.294	25050.41
442.501	26072.35
442.708	26451.22
442.914	27741.44
443.121	28730.61
443.328	27987.2
443.534	29705.45
443.741	29064.43
443.948	28734.71
444.154	30948.56
444.361	30317.79
444.568	30725.33
444.774	30801.11
444.981	31362.25
445.187	31864
445.394	33600.68
445.6	32478.4
445.807	36119.68
446.013	34403.49
446.22	35450
446.426	36361.34
446.633	36736.12
446.839	38085.73
447.046	36301.95
447.252	38706.27
447.459	38372.45
447.665	38261.86
447.871	39812.17
448.078	41364.53
448.284	39574.61
448.491	40817.72
448.697	42370.08
448.903	42914.84
449.11	43045.91
449.316	42038.31
449.522	43148.31
449.728	44057.61
449.935	44364.81
450.141	44483.59
450.347	45331.45
450.553	43889.68
450.76	44594.18
450.966	45708.27
451.172	45036.54
451.378	46363.62
451.584	45405.17
451.791	46060.52
451.997	46044.14
452.203	46732.26
452.409	46359.53
452.615	46521.32
452.821	45026.3
453.027	44264.46
453.233	46767.07
453.44	44712.96
453.646	45435.89
453.852	44999.68
454.058	46091.24
454.264	44878.85
454.47	45618.16
454.676	44405.77
454.882	45308.92
455.088	42028.07
455.294	42083.37
455.5	43275.29
455.705	43275.29
455.911	41733.17
456.117	41075.77
456.323	40707.13
456.529	38259.81
456.735	39916.62
456.941	38866.01
457.147	38157.41
457.352	36598.91
457.558	36899.96
457.764	36873.34
457.97	35804.3
458.176	35128.47
458.381	35230.87
458.587	33363.12
458.793	32904.37
458.999	31698.12
459.204	33877.16
459.41	33219.76
459.616	30829.78
459.821	30731.48
460.027	30608.6
460.233	29947.11
460.438	28275.96
460.644	28927.22
460.85	27559.17
461.055	27206.92
461.261	27133.2
461.466	25183.53
461.672	24354.1
461.878	26176.8
462.083	24229.18
462.289	24177.98
462.494	23678.27
462.7	23002.44
462.905	21902.68
463.111	22922.57
463.316	23307.59
463.522	22369.62
463.727	22562.13
463.932	22431.06
464.138	22386.01
464.343	22256.98
464.549	21632.35
464.754	22410.58
464.959	22177.11
465.165	22101.34
465.37	21114.22
465.575	20712.81
465.781	21415.27
465.986	21568.87
466.191	20651.38
466.397	20209.01
466.602	19568
466.807	20194.68
467.012	20051.32
