Data from USB4F104151__17__10-21-15-532.txt Node

Date: Wed Mar 12 10:21:15 EDT 2025
User: louis
Spectrometer: USB4F10415
Trigger mode: 4
Integration Time (sec): 3.000000E-2
Scans to average: 1
Electric dark correction enabled: true
Nonlinearity correction enabled: false
Boxcar width: 0
XAxis mode: Wavelengths
Number of Pixels in Spectrum: 3648
>>>>>Begin Spectral Data<<<<<
178.204	-140.97
178.424	-140.97
178.644	-140.97
178.864	-54.95
179.084	-83.63
179.304	2.39
179.524	22.87
179.744	-73.39
179.964	8.53
180.184	-18.09
180.404	63.83
180.624	4.44
180.844	-20.14
181.064	-48.81
181.283	2.39
181.503	12.63
181.723	43.35
181.943	-42.67
182.163	51.54
182.383	-18.09
182.602	123.22
182.822	63.83
183.042	92.5
183.262	115.03
183.482	88.4
183.701	41.3
183.921	41.3
184.141	-5.8
184.361	125.27
184.58	35.16
184.8	51.54
185.02	88.4
185.239	67.92
185.459	49.49
185.679	115.03
185.898	-32.43
186.118	67.92
186.338	35.16
186.557	61.78
186.777	100.69
186.997	55.64
187.216	76.12
187.436	90.45
187.655	67.92
187.875	35.16
188.095	108.88
188.314	72.02
188.534	88.4
188.753	53.59
188.973	43.35
189.192	108.88
189.412	76.12
189.631	51.54
189.851	-7.85
190.07	49.49
190.29	72.02
190.509	49.49
190.729	67.92
190.948	29.01
191.168	203.09
191.387	72.02
191.607	65.88
191.826	59.73
192.045	31.06
192.265	121.17
192.484	49.49
192.704	10.58
192.923	41.3
193.142	115.03
193.362	129.36
193.581	117.08
193.8	10.58
194.02	133.46
194.239	72.02
194.458	78.16
194.678	51.54
194.897	47.44
195.116	-3.75
195.335	31.06
195.555	72.02
195.774	-3.75
195.993	45.4
196.212	108.88
196.432	-11.95
196.651	84.31
196.87	84.31
197.089	43.35
197.308	94.55
197.528	45.4
197.747	59.73
197.966	43.35
198.185	39.25
198.404	57.68
198.623	55.64
198.842	158.03
199.062	117.08
199.281	-24.23
199.5	-3.75
199.719	98.64
199.938	96.6
200.157	69.97
200.376	41.3
200.595	-9.9
200.814	16.73
201.033	-13.99
201.252	53.59
201.471	57.68
201.69	90.45
201.909	100.69
202.128	59.73
202.347	117.08
202.566	24.92
202.785	51.54
203.004	47.44
203.223	29.01
203.442	14.68
203.661	2.39
203.879	55.64
204.098	90.45
204.317	-5.8
204.536	31.06
204.755	20.82
204.974	117.08
205.193	112.98
205.411	45.4
205.63	125.27
205.849	45.4
206.068	55.64
206.287	-46.76
206.505	80.21
206.724	47.44
206.943	-7.85
207.162	16.73
207.381	67.92
207.599	65.88
207.818	49.49
208.037	6.49
208.255	24.92
208.474	22.87
208.693	55.64
208.911	76.12
209.13	45.4
209.349	49.49
209.567	125.27
209.786	39.25
210.005	26.96
210.223	84.31
210.442	-3.75
210.661	84.31
210.879	12.63
211.098	24.92
211.316	43.35
211.535	59.73
211.753	-9.9
211.972	41.3
212.191	-5.8
212.409	98.64
212.628	108.88
212.846	53.59
213.065	-22.19
213.283	98.64
213.502	117.08
213.72	47.44
213.938	45.4
214.157	139.6
214.375	106.84
214.594	-24.23
214.812	100.69
215.031	55.64
215.249	96.6
215.467	74.07
215.686	26.96
215.904	106.84
216.122	2.39
216.341	72.02
216.559	-3.75
216.778	47.44
216.996	67.92
217.214	16.73
217.432	39.25
217.651	43.35
217.869	82.26
218.087	-36.52
218.306	49.49
218.524	31.06
218.742	35.16
218.96	39.25
219.179	84.31
219.397	84.31
219.615	29.01
219.833	80.21
220.051	41.3
220.27	123.22
220.488	43.35
220.706	61.78
220.924	115.03
221.142	98.64
221.36	-9.9
221.578	26.96
221.796	74.07
222.015	24.92
222.233	-13.99
222.451	166.23
222.669	-16.04
222.887	135.51
223.105	86.36
223.323	74.07
223.541	76.12
223.759	43.35
223.977	-5.8
224.195	112.98
224.413	67.92
224.631	59.73
224.849	22.87
225.067	45.4
225.285	125.27
225.503	57.68
225.721	47.44
225.939	96.6
226.157	37.2
226.375	149.84
226.592	16.73
226.81	35.16
227.028	37.2
227.246	158.03
227.464	57.68
227.682	49.49
227.9	65.88
228.117	63.83
228.335	59.73
228.553	112.98
228.771	33.11
228.989	69.97
229.206	59.73
229.424	61.78
229.642	-7.85
229.86	86.36
230.077	92.5
230.295	59.73
230.513	98.64
230.731	67.92
230.948	104.79
231.166	80.21
231.384	59.73
231.601	74.07
231.819	104.79
232.037	57.68
232.254	33.11
232.472	117.08
232.689	-22.19
232.907	67.92
233.125	47.44
233.342	67.92
233.56	67.92
233.777	76.12
233.995	72.02
234.213	100.69
234.43	43.35
234.648	31.06
234.865	2.39
235.083	74.07
235.3	76.12
235.518	86.36
235.735	47.44
235.953	59.73
236.17	35.16
236.388	43.35
236.605	-1.71
236.822	90.45
237.04	45.4
237.257	69.97
237.475	-22.19
237.692	98.64
237.909	18.77
238.127	18.77
238.344	43.35
238.562	76.12
238.779	78.16
238.996	49.49
239.214	47.44
239.431	72.02
239.648	96.6
239.865	55.64
240.083	35.16
240.3	18.77
240.517	72.02
240.735	102.74
240.952	141.65
241.169	49.49
241.386	4.44
241.603	39.25
241.821	-67.24
242.038	84.31
242.255	72.02
242.472	94.55
242.689	74.07
242.907	55.64
243.124	22.87
243.341	33.11
243.558	16.73
243.775	43.35
243.992	-30.38
244.209	-13.99
244.426	53.59
244.643	98.64
244.86	76.12
245.078	84.31
245.295	-48.81
245.512	72.02
245.729	33.11
245.946	22.87
246.163	102.74
246.38	-28.33
246.597	72.02
246.814	69.97
247.031	43.35
247.248	8.53
247.464	82.26
247.681	41.3
247.898	-3.75
248.115	104.79
248.332	67.92
248.549	84.31
248.766	182.61
248.983	53.59
249.2	4.44
249.417	41.3
249.633	49.49
249.85	74.07
250.067	2.39
250.284	47.44
250.501	112.98
250.717	84.31
250.934	37.2
251.151	53.59
251.368	41.3
251.585	49.49
251.801	59.73
252.018	90.45
252.235	131.41
252.451	-1.71
252.668	26.96
252.885	18.77
253.102	12.63
253.318	31.06
253.535	12.63
253.752	0.34
253.968	43.35
254.185	-16.04
254.401	106.84
254.618	88.4
254.835	-7.85
255.051	18.77
255.268	26.96
255.484	26.96
255.701	37.2
255.917	41.3
256.134	20.82
256.351	45.4
256.567	61.78
256.784	63.83
257	45.4
257.217	90.45
257.433	31.06
257.65	-3.75
257.866	63.83
258.082	26.96
258.299	65.88
258.515	76.12
258.732	41.3
258.948	18.77
259.165	86.36
259.381	106.84
259.597	72.02
259.814	82.26
260.03	96.6
260.246	61.78
260.463	41.3
260.679	98.64
260.895	47.44
261.112	84.31
261.328	53.59
261.544	98.64
261.761	162.13
261.977	-18.09
262.193	26.96
262.409	26.96
262.626	59.73
262.842	84.31
263.058	72.02
263.274	10.58
263.49	57.68
263.707	84.31
263.923	39.25
264.139	-26.28
264.355	78.16
264.571	63.83
264.787	41.3
265.004	129.36
265.22	12.63
265.436	45.4
265.652	-9.9
265.868	51.54
266.084	-3.75
266.3	35.16
266.516	24.92
266.732	-11.95
266.948	18.77
267.164	51.54
267.38	41.3
267.596	41.3
267.812	117.08
268.028	141.65
268.244	51.54
268.46	88.4
268.676	2.39
268.892	82.26
269.108	0.34
269.324	92.5
269.54	-5.8
269.756	59.73
269.972	37.2
270.188	76.12
270.403	63.83
270.619	31.06
270.835	67.92
271.051	98.64
271.267	76.12
271.483	22.87
271.698	43.35
271.914	4.44
272.13	-11.95
272.346	22.87
272.562	74.07
272.777	61.78
272.993	51.54
273.209	69.97
273.425	31.06
273.64	26.96
273.856	119.12
274.072	51.54
274.287	-11.95
274.503	72.02
274.719	119.12
274.934	84.31
275.15	-18.09
275.366	94.55
275.581	43.35
275.797	84.31
276.012	96.6
276.228	41.3
276.444	10.58
276.659	92.5
276.875	69.97
277.09	35.16
277.306	131.41
277.521	72.02
277.737	84.31
277.952	86.36
278.168	0.34
278.383	22.87
278.599	35.16
278.814	10.58
279.03	55.64
279.245	31.06
279.461	33.11
279.676	106.84
279.892	57.68
280.107	-32.43
280.322	14.68
280.538	35.16
280.753	35.16
280.969	147.8
281.184	47.44
281.399	117.08
281.615	61.78
281.83	33.11
282.045	43.35
282.26	86.36
282.476	102.74
282.691	98.64
282.906	123.22
283.122	8.53
283.337	2.39
283.552	110.93
283.767	18.77
283.983	104.79
284.198	78.16
284.413	104.79
284.628	33.11
284.843	49.49
285.058	65.88
285.274	53.59
285.489	108.88
285.704	102.74
285.919	35.16
286.134	94.55
286.349	35.16
286.564	119.12
286.779	92.5
286.995	90.45
287.21	67.92
287.425	51.54
287.64	57.68
287.855	53.59
288.07	43.35
288.285	29.01
288.5	43.35
288.715	8.53
288.93	92.5
289.145	35.16
289.36	84.31
289.575	67.92
289.79	10.58
290.004	61.78
290.219	98.64
290.434	51.54
290.649	53.59
290.864	24.92
291.079	84.31
291.294	137.56
291.509	39.25
291.724	39.25
291.938	-48.81
292.153	92.5
292.368	67.92
292.583	57.68
292.798	41.3
293.012	65.88
293.227	33.11
293.442	53.59
293.657	80.21
293.871	39.25
294.086	-40.62
294.301	84.31
294.516	80.21
294.73	47.44
294.945	76.12
295.16	41.3
295.374	141.65
295.589	86.36
295.804	45.4
296.018	74.07
296.233	47.44
296.447	88.4
296.662	18.77
296.877	135.51
297.091	82.26
297.306	35.16
297.52	110.93
297.735	59.73
297.949	33.11
298.164	26.96
298.378	29.01
298.593	47.44
298.807	47.44
299.022	51.54
299.236	92.5
299.451	47.44
299.665	4.44
299.88	41.3
300.094	94.55
300.309	53.59
300.523	59.73
300.737	104.79
300.952	20.82
301.166	108.88
301.381	41.3
301.595	100.69
301.809	59.73
302.024	-3.75
302.238	22.87
302.452	51.54
302.667	84.31
302.881	119.12
303.095	26.96
303.309	49.49
303.524	41.3
303.738	80.21
303.952	59.73
304.166	63.83
304.381	33.11
304.595	125.27
304.809	106.84
305.023	12.63
305.237	86.36
305.452	20.82
305.666	59.73
305.88	43.35
306.094	166.23
306.308	129.36
306.522	78.16
306.736	45.4
306.95	69.97
307.164	41.3
307.379	47.44
307.593	90.45
307.807	98.64
308.021	145.75
308.235	47.44
308.449	51.54
308.663	31.06
308.877	147.8
309.091	90.45
309.305	117.08
309.519	-24.23
309.733	149.84
309.947	26.96
310.161	69.97
310.374	24.92
310.588	166.23
310.802	35.16
311.016	33.11
311.23	100.69
311.444	35.16
311.658	80.21
311.872	110.93
312.085	10.58
312.299	33.11
312.513	55.64
312.727	69.97
312.941	65.88
313.154	35.16
313.368	76.12
313.582	88.4
313.796	49.49
314.009	86.36
314.223	43.35
314.437	45.4
314.651	84.31
314.864	24.92
315.078	-3.75
315.292	33.11
315.505	12.63
315.719	104.79
315.933	53.59
316.146	123.22
316.36	102.74
316.573	88.4
316.787	-30.38
317.001	67.92
317.214	43.35
317.428	47.44
317.641	57.68
317.855	69.97
318.068	26.96
318.282	96.6
318.495	125.27
318.709	35.16
318.922	80.21
319.136	82.26
319.349	57.68
319.563	8.53
319.776	92.5
319.99	57.68
320.203	57.68
320.417	80.21
320.63	18.77
320.843	119.12
321.057	72.02
321.27	61.78
321.483	78.16
321.697	100.69
321.91	22.87
322.124	158.03
322.337	63.83
322.55	47.44
322.763	141.65
322.977	137.56
323.19	20.82
323.403	45.4
323.617	137.56
323.83	35.16
324.043	53.59
324.256	76.12
324.469	18.77
324.683	53.59
324.896	67.92
325.109	106.84
325.322	55.64
325.535	121.17
325.748	88.4
325.962	129.36
326.175	112.98
326.388	59.73
326.601	63.83
326.814	24.92
327.027	49.49
327.24	147.8
327.453	43.35
327.666	47.44
327.879	131.41
328.092	33.11
328.305	-32.43
328.518	-52.91
328.731	76.12
328.944	112.98
329.157	35.16
329.37	35.16
329.583	61.78
329.796	65.88
330.009	20.82
330.222	117.08
330.435	72.02
330.648	16.73
330.861	41.3
331.073	76.12
331.286	94.55
331.499	51.54
331.712	0.34
331.925	139.6
332.138	90.45
332.35	43.35
332.563	47.44
332.776	153.94
332.989	-11.95
333.202	33.11
333.414	88.4
333.627	55.64
333.84	106.84
334.053	110.93
334.265	133.46
334.478	33.11
334.691	-36.52
334.903	51.54
335.116	-5.8
335.329	53.59
335.541	153.94
335.754	76.12
335.966	49.49
336.179	104.79
336.392	82.26
336.604	108.88
336.817	119.12
337.029	8.53
337.242	104.79
337.454	117.08
337.667	26.96
337.88	94.55
338.092	84.31
338.305	88.4
338.517	143.7
338.729	43.35
338.942	55.64
339.154	49.49
339.367	26.96
339.579	49.49
339.792	26.96
340.004	59.73
340.217	39.25
340.429	104.79
340.641	39.25
340.854	78.16
341.066	41.3
341.278	37.2
341.491	84.31
341.703	61.78
341.915	2.39
342.128	63.83
342.34	106.84
342.552	-36.52
342.764	90.45
342.977	45.4
343.189	-1.71
343.401	20.82
343.613	43.35
343.826	90.45
344.038	57.68
344.25	129.36
344.462	57.68
344.674	67.92
344.886	-9.9
345.099	92.5
345.311	59.73
345.523	80.21
345.735	35.16
345.947	110.93
346.159	45.4
346.371	22.87
346.583	-22.19
346.795	78.16
347.007	78.16
347.219	133.46
347.431	49.49
347.643	125.27
347.855	-13.99
348.067	84.31
348.279	-11.95
348.491	39.25
348.703	98.64
348.915	35.16
349.127	90.45
349.339	63.83
349.551	65.88
349.763	65.88
349.975	12.63
350.187	57.68
350.399	41.3
350.61	76.12
350.822	57.68
351.034	55.64
351.246	49.49
351.458	115.03
351.669	53.59
351.881	104.79
352.093	90.45
352.305	72.02
352.517	88.4
352.728	104.79
352.94	26.96
353.152	84.31
353.363	65.88
353.575	106.84
353.787	72.02
353.999	102.74
354.21	43.35
354.422	67.92
354.633	59.73
354.845	84.31
355.057	112.98
355.268	51.54
355.48	88.4
355.692	45.4
355.903	121.17
356.115	74.07
356.326	72.02
356.538	112.98
356.749	31.06
356.961	29.01
357.172	74.07
357.384	-16.04
357.595	100.69
357.807	96.6
358.018	43.35
358.23	10.58
358.441	162.13
358.653	100.69
358.864	10.58
359.075	115.03
359.287	121.17
359.498	55.64
359.709	96.6
359.921	16.73
360.132	139.6
360.344	67.92
360.555	29.01
360.766	133.46
360.977	106.84
361.189	39.25
361.4	100.69
361.611	98.64
361.823	47.44
362.034	125.27
362.245	24.92
362.456	98.64
362.667	59.73
362.879	74.07
363.09	76.12
363.301	47.44
363.512	18.77
363.723	90.45
363.935	72.02
364.146	84.31
364.357	115.03
364.568	112.98
364.779	47.44
364.99	178.51
365.201	18.77
365.412	145.75
365.623	-22.19
365.834	49.49
366.045	20.82
366.256	88.4
366.467	57.68
366.678	72.02
366.889	51.54
367.1	141.65
367.311	121.17
367.522	92.5
367.733	94.55
367.944	100.69
368.155	18.77
368.366	69.97
368.577	65.88
368.788	151.89
368.999	2.39
369.209	63.83
369.42	137.56
369.631	102.74
369.842	35.16
370.053	76.12
370.264	57.68
370.474	153.94
370.685	45.4
370.896	39.25
371.107	35.16
371.317	67.92
371.528	65.88
371.739	112.98
371.95	119.12
372.16	65.88
372.371	63.83
372.582	4.44
372.792	155.99
373.003	102.74
373.214	82.26
373.424	67.92
373.635	94.55
373.846	49.49
374.056	57.68
374.267	59.73
374.477	57.68
374.688	78.16
374.898	72.02
375.109	84.31
375.319	53.59
375.53	129.36
375.74	90.45
375.951	59.73
376.161	49.49
376.372	115.03
376.582	65.88
376.793	74.07
377.003	74.07
377.214	41.3
377.424	39.25
377.635	88.4
377.845	29.01
378.055	106.84
378.266	10.58
378.476	166.23
378.686	2.39
378.897	125.27
379.107	47.44
379.317	102.74
379.528	0.34
379.738	65.88
379.948	65.88
380.158	37.2
380.369	35.16
380.579	90.45
380.789	-32.43
380.999	90.45
381.21	106.84
381.42	198.99
381.63	22.87
381.84	131.41
382.05	61.78
382.261	117.08
382.471	69.97
382.681	8.53
382.891	123.22
383.101	12.63
383.311	26.96
383.521	67.92
383.731	129.36
383.941	108.88
384.151	72.02
384.361	84.31
384.571	88.4
384.781	119.12
384.991	84.31
385.201	158.03
385.411	43.35
385.621	125.27
385.831	35.16
386.041	121.17
386.251	82.26
386.461	72.02
386.671	92.5
386.881	65.88
387.091	51.54
387.301	115.03
387.511	69.97
387.72	108.88
387.93	141.65
388.14	115.03
388.35	69.97
388.56	86.36
388.769	133.46
388.979	88.4
389.189	57.68
389.399	82.26
389.609	108.88
389.818	115.03
390.028	119.12
390.238	16.73
390.447	88.4
390.657	110.93
390.867	98.64
391.076	110.93
391.286	82.26
391.496	76.12
391.705	69.97
391.915	74.07
392.125	92.5
392.334	133.46
392.544	133.46
392.753	63.83
392.963	74.07
393.172	117.08
393.382	121.17
393.591	92.5
393.801	112.98
394.01	94.55
394.22	137.56
394.429	145.75
394.639	102.74
394.848	67.92
395.058	26.96
395.267	145.75
395.477	188.75
395.686	74.07
395.895	145.75
396.105	162.13
396.314	106.84
396.524	162.13
396.733	31.06
396.942	164.18
397.152	133.46
397.361	117.08
397.57	127.32
397.78	153.94
397.989	215.38
398.198	145.75
398.407	84.31
398.617	108.88
398.826	149.84
399.035	141.65
399.244	172.37
399.453	133.46
399.663	117.08
399.872	170.32
400.081	47.44
400.29	174.42
400.499	102.74
400.708	133.46
400.917	182.61
401.127	158.03
401.336	162.13
401.545	158.03
401.754	217.43
401.963	174.42
402.172	106.84
402.381	160.08
402.59	121.17
402.799	143.7
403.008	174.42
403.217	151.89
403.426	131.41
403.635	115.03
403.844	162.13
404.053	131.41
404.262	92.5
404.471	219.47
404.68	262.48
404.888	158.03
405.097	80.21
405.306	170.32
405.515	215.38
405.724	233.81
405.933	264.53
406.142	209.23
406.35	280.91
406.559	184.66
406.768	276.82
406.977	215.38
407.185	178.51
407.394	280.91
407.603	209.23
407.812	293.2
408.02	311.63
408.229	307.54
408.438	182.61
408.646	239.95
408.855	274.77
409.064	301.39
409.272	305.49
409.481	328.02
409.69	231.76
409.898	315.73
410.107	336.21
410.315	330.06
410.524	340.3
410.733	450.89
410.941	407.89
411.15	373.07
411.358	411.98
411.567	440.65
411.775	448.85
411.984	469.33
412.192	473.42
412.401	465.23
412.609	512.33
412.818	604.49
413.026	620.88
413.234	588.11
413.443	575.82
413.651	538.96
413.86	629.07
414.068	715.08
414.276	751.95
414.485	749.9
414.693	688.46
414.901	731.47
415.11	809.29
415.318	805.19
415.526	883.02
415.734	897.35
415.943	870.73
416.151	825.67
416.359	921.93
416.567	917.83
416.776	1091.91
416.984	1134.92
417.192	1057.09
417.4	1206.59
417.608	1063.24
417.817	1175.88
418.025	1171.78
418.233	1274.18
418.441	1298.75
418.649	1341.76
418.857	1339.71
419.065	1497.41
419.273	1446.21
419.481	1413.44
419.689	1534.27
419.897	1624.38
420.105	1706.3
420.313	1636.67
420.521	1773.88
420.729	1714.49
420.937	1947.96
421.145	1954.1
421.353	1974.58
421.561	2115.89
421.769	2199.86
421.977	2214.2
422.185	2154.8
422.393	2296.11
422.601	2607.41
422.809	2375.99
423.017	2480.43
423.224	2588.97
423.432	2779.43
423.64	2693.42
423.848	2969.9
424.056	2836.78
424.263	3158.31
424.471	3051.81
424.679	3205.41
424.887	3244.32
425.094	3430.69
425.302	3500.32
425.51	3643.68
425.718	3619.1
425.925	3680.54
426.133	3787.04
426.341	4182.29
426.548	4270.36
426.756	4266.26
426.964	4258.07
427.171	4518.16
427.379	4589.84
427.586	4925.71
427.794	4849.93
428.001	5312.77
428.209	5370.12
428.417	5337.35
428.624	5579.01
428.832	5650.69
429.039	5581.06
429.247	5597.44
429.454	6029.56
429.662	6461.68
429.869	6097.14
430.076	6361.33
430.284	6367.48
430.491	6693.1
430.699	7067.88
430.906	7006.44
431.114	6975.72
431.321	7399.65
431.528	7538.91
431.736	7938.27
431.943	8364.25
432.15	8009.95
432.358	8239.32
432.565	8687.82
432.772	8612.05
432.979	8966.35
433.187	9437.38
433.394	9259.21
433.601	9824.45
433.808	9748.67
434.016	9691.33
434.223	10287.29
434.43	10924.21
434.637	10365.11
434.844	11268.27
435.052	11393.19
435.259	11231.4
435.466	11673.76
435.673	11266.22
435.88	12017.82
436.087	12816.53
436.294	12648.6
436.501	12628.12
436.708	12742.8
436.915	13267.08
437.122	13684.87
437.329	13715.59
437.537	14311.55
437.743	14516.34
437.95	14211.2
438.157	14811.25
438.364	15538.28
438.571	15480.94
438.778	15597.67
438.985	16851.03
439.192	16173.15
439.399	16541.78
439.606	16613.46
439.813	17608.78
440.02	18405.44
440.227	18188.35
440.433	17827.91
440.64	18430.01
440.847	18344
441.054	18909.24
441.261	20318.24
441.467	19836.97
441.674	20221.98
441.881	21047.32
442.088	20736.02
442.294	20684.83
442.501	21389.33
442.708	21710.86
442.914	22745.08
443.121	23420.91
443.328	22665.21
443.534	24674.27
443.741	23867.37
443.948	23742.44
444.154	25059.29
444.361	24639.45
444.568	25235.41
444.774	25350.1
444.981	25704.4
445.187	26161.09
445.394	27486.13
445.6	26539.97
445.807	29290.39
446.013	28229.54
446.22	28661.66
446.426	29527.95
446.633	29888.4
446.839	30764.93
447.046	29642.64
447.252	31170.43
447.459	31510.39
447.665	31242.1
447.871	32599.91
448.078	33650.52
448.284	32139.11
448.491	33185.63
448.697	34623.3
448.903	35217.21
449.11	34850.63
449.316	34342.73
449.522	34867.01
449.728	35751.73
449.935	35999.54
450.141	35835.7
450.347	37060.38
450.553	35557.17
450.76	36153.13
450.966	37101.34
451.172	36452.14
451.378	37586.71
451.584	36736.8
451.791	37424.92
451.997	37775.12
452.203	38129.42
452.409	38162.19
452.615	37781.27
452.821	36648.74
453.027	35596.09
453.233	37998.35
453.44	36280.11
453.646	36888.35
453.852	36818.72
454.058	37400.35
454.264	35991.34
454.47	37074.72
454.676	36425.51
454.882	36945.7
455.088	33687.38
455.294	34361.16
455.5	34918.21
455.705	35084.09
455.911	33632.08
456.117	33273.69
456.323	32712.55
456.529	30871.42
456.735	32288.62
456.941	31092.6
457.147	30904.19
457.352	29767.57
457.558	29536.15
457.764	29810.57
457.97	28774.3
458.176	28391.33
458.381	28393.38
458.587	26777.53
458.793	26994.62
458.999	25227.22
459.204	27637.68
459.41	26671.04
459.616	25200.6
459.821	24766.43
460.027	24645.6
460.233	24389.6
460.438	23093.24
460.644	23431.15
460.85	22237.19
461.055	21641.23
461.261	21964.81
461.466	20242.46
461.672	19664.94
461.878	21106.71
462.083	19896.36
462.289	19568.68
462.494	19263.54
462.7	18288.7
462.905	17922.12
463.111	18358.33
463.316	18599.99
463.522	18059.33
463.727	18190.4
463.932	18147.39
464.138	17895.49
464.343	18266.17
464.549	17465.42
464.754	18210.88
464.959	17791.05
465.165	17827.91
465.37	16887.89
465.575	16480.35
465.781	17109.07
465.986	17238.09
466.191	16693.33
466.397	16511.07
