Data from USB4F104151__285__10-42-20-532.txt Node

Date: Wed Mar 12 10:42:20 EDT 2025
User: louis
Spectrometer: USB4F10415
Trigger mode: 4
Integration Time (sec): 3.000000E-2
Scans to average: 1
Electric dark correction enabled: true
Nonlinearity correction enabled: false
Boxcar width: 0
XAxis mode: Wavelengths
Number of Pixels in Spectrum: 3648
>>>>>Begin Spectral Data<<<<<
178.204	-45.74
178.424	-45.74
178.644	-45.74
178.864	-72.36
179.084	-125.61
179.304	25.94
179.524	-37.55
179.744	62.8
179.964	-17.07
180.184	-25.26
180.404	-0.68
180.624	34.13
180.844	-55.98
181.064	3.41
181.283	-25.26
181.503	-19.11
181.723	54.61
181.943	-23.21
182.163	50.52
182.383	-49.83
182.602	15.7
182.822	52.56
183.042	116.05
183.262	17.75
183.482	48.47
183.701	17.75
183.921	34.13
184.141	-10.92
184.361	-12.97
184.58	23.89
184.8	36.18
185.02	-58.03
185.239	64.85
185.459	71
185.679	46.42
185.898	32.08
186.118	48.47
186.338	-4.78
186.557	17.75
186.777	77.14
186.997	5.46
187.216	91.48
187.436	9.56
187.655	52.56
187.875	114
188.095	27.99
188.314	97.62
188.534	34.13
188.753	36.18
188.973	54.61
189.192	17.75
189.412	87.38
189.631	-19.11
189.851	44.37
190.07	36.18
190.29	1.37
190.509	122.2
190.729	11.61
190.948	91.48
191.168	122.2
191.387	62.8
191.607	15.7
191.826	-25.26
192.045	23.89
192.265	107.86
192.484	97.62
192.704	50.52
192.923	42.32
193.142	107.86
193.362	50.52
193.581	105.81
193.8	-15.02
194.02	116.05
194.239	50.52
194.458	19.8
194.678	44.37
194.897	-45.74
195.116	48.47
195.335	99.67
195.555	21.85
195.774	32.08
195.993	101.72
196.212	-25.26
196.432	-55.98
196.651	40.28
196.87	46.42
197.089	73.04
197.308	91.48
197.528	13.65
197.747	-70.31
197.966	81.24
198.185	171.35
198.404	48.47
198.623	99.67
198.842	42.32
199.062	60.76
199.281	52.56
199.5	73.04
199.719	27.99
199.938	42.32
200.157	40.28
200.376	79.19
200.595	107.86
200.814	19.8
201.033	17.75
201.252	56.66
201.471	64.85
201.69	68.95
201.909	40.28
202.128	93.52
202.347	75.09
202.566	42.32
202.785	17.75
203.004	56.66
203.223	73.04
203.442	44.37
203.661	93.52
203.879	46.42
204.098	13.65
204.317	75.09
204.536	95.57
204.755	91.48
204.974	75.09
205.193	44.37
205.411	107.86
205.63	66.9
205.849	56.66
206.068	42.32
206.287	95.57
206.505	81.24
206.724	-10.92
206.943	38.23
207.162	-0.68
207.381	105.81
207.599	42.32
207.818	7.51
208.037	23.89
208.255	-2.73
208.474	87.38
208.693	83.28
208.911	17.75
209.13	-10.92
209.349	99.67
209.567	7.51
209.786	105.81
210.005	46.42
210.223	11.61
210.442	48.47
210.661	36.18
210.879	52.56
211.098	30.04
211.316	62.8
211.535	40.28
211.753	21.85
211.972	36.18
212.191	60.76
212.409	40.28
212.628	101.72
212.846	68.95
213.065	60.76
213.283	91.48
213.502	77.14
213.72	73.04
213.938	-43.69
214.157	64.85
214.375	105.81
214.594	30.04
214.812	30.04
215.031	83.28
215.249	-49.83
215.467	11.61
215.686	-2.73
215.904	77.14
216.122	54.61
216.341	58.71
216.559	38.23
216.778	48.47
216.996	64.85
217.214	15.7
217.432	103.76
217.651	75.09
217.869	60.76
218.087	21.85
218.306	-2.73
218.524	54.61
218.742	7.51
218.96	56.66
219.179	60.76
219.397	87.38
219.615	62.8
219.833	116.05
220.051	81.24
220.27	34.13
220.488	44.37
220.706	60.76
220.924	42.32
221.142	34.13
221.36	17.75
221.578	32.08
221.796	19.8
222.015	87.38
222.233	-21.16
222.451	87.38
222.669	128.34
222.887	46.42
223.105	-29.35
223.323	85.33
223.541	42.32
223.759	17.75
223.977	50.52
224.195	19.8
224.413	85.33
224.631	-55.98
224.849	-2.73
225.067	62.8
225.285	68.95
225.503	85.33
225.721	73.04
225.939	-23.21
226.157	114
226.375	111.96
226.592	11.61
226.81	64.85
227.028	97.62
227.246	91.48
227.464	-19.11
227.682	109.91
227.9	83.28
228.117	-6.83
228.335	73.04
228.553	-6.83
228.771	40.28
228.989	68.95
229.206	77.14
229.424	1.37
229.642	40.28
229.86	73.04
230.077	89.43
230.295	17.75
230.513	56.66
230.731	64.85
230.948	50.52
231.166	58.71
231.384	60.76
231.601	126.29
231.819	62.8
232.037	75.09
232.254	7.51
232.472	83.28
232.689	-8.87
232.907	15.7
233.125	7.51
233.342	73.04
233.56	48.47
233.777	91.48
233.995	56.66
234.213	21.85
234.43	3.41
234.648	79.19
234.865	-6.83
235.083	17.75
235.3	105.81
235.518	83.28
235.735	13.65
235.953	87.38
236.17	1.37
236.388	85.33
236.605	89.43
236.822	64.85
237.04	19.8
237.257	103.76
237.475	19.8
237.692	62.8
237.909	73.04
238.127	19.8
238.344	-15.02
238.562	91.48
238.779	-25.26
238.996	97.62
239.214	91.48
239.431	79.19
239.648	62.8
239.865	48.47
240.083	111.96
240.3	-33.45
240.517	73.04
240.735	9.56
240.952	95.57
241.169	30.04
241.386	50.52
241.603	34.13
241.821	58.71
242.038	23.89
242.255	87.38
242.472	46.42
242.689	77.14
242.907	34.13
243.124	27.99
243.341	34.13
243.558	40.28
243.775	66.9
243.992	17.75
244.209	25.94
244.426	68.95
244.643	71
244.86	30.04
245.078	36.18
245.295	54.61
245.512	13.65
245.729	40.28
245.946	99.67
246.163	68.95
246.38	15.7
246.597	56.66
246.814	36.18
247.031	48.47
247.248	58.71
247.464	40.28
247.681	42.32
247.898	27.99
248.115	95.57
248.332	-8.87
248.549	132.44
248.766	138.58
248.983	103.76
249.2	40.28
249.417	68.95
249.633	103.76
249.85	81.24
250.067	-17.07
250.284	64.85
250.501	60.76
250.717	27.99
250.934	19.8
251.151	11.61
251.368	40.28
251.585	50.52
251.801	38.23
252.018	79.19
252.235	73.04
252.451	3.41
252.668	73.04
252.885	42.32
253.102	40.28
253.318	3.41
253.535	11.61
253.752	48.47
253.968	116.05
254.185	-10.92
254.401	-0.68
254.618	34.13
254.835	25.94
255.051	124.24
255.268	21.85
255.484	71
255.701	-0.68
255.917	68.95
256.134	36.18
256.351	73.04
256.567	-25.26
256.784	25.94
257	54.61
257.217	118.1
257.433	89.43
257.65	89.43
257.866	34.13
258.082	52.56
258.299	75.09
258.515	40.28
258.732	19.8
258.948	-10.92
259.165	132.44
259.381	54.61
259.597	58.71
259.814	97.62
260.03	52.56
260.246	32.08
260.463	81.24
260.679	44.37
260.895	23.89
261.112	116.05
261.328	136.53
261.544	1.37
261.761	114
261.977	130.39
262.193	-25.26
262.409	122.2
262.626	23.89
262.842	165.2
263.058	7.51
263.274	9.56
263.49	46.42
263.707	93.52
263.923	81.24
264.139	21.85
264.355	-31.4
264.571	30.04
264.787	60.76
265.004	13.65
265.22	56.66
265.436	-27.31
265.652	-0.68
265.868	93.52
266.084	-19.11
266.3	118.1
266.516	25.94
266.732	36.18
266.948	81.24
267.164	5.46
267.38	132.44
267.596	101.72
267.812	122.2
268.028	77.14
268.244	21.85
268.46	60.76
268.676	85.33
268.892	64.85
269.108	79.19
269.324	48.47
269.54	58.71
269.756	48.47
269.972	68.95
270.188	3.41
270.403	-0.68
270.619	1.37
270.835	79.19
271.051	71
271.267	-66.22
271.483	25.94
271.698	25.94
271.914	109.91
272.13	60.76
272.346	48.47
272.562	-29.35
272.777	64.85
272.993	66.9
273.209	87.38
273.425	23.89
273.64	32.08
273.856	11.61
274.072	50.52
274.287	73.04
274.503	27.99
274.719	99.67
274.934	89.43
275.15	13.65
275.366	48.47
275.581	36.18
275.797	13.65
276.012	7.51
276.228	-15.02
276.444	-21.16
276.659	105.81
276.875	5.46
277.09	34.13
277.306	114
277.521	46.42
277.737	-23.21
277.952	89.43
278.168	7.51
278.383	99.67
278.599	25.94
278.814	34.13
279.03	34.13
279.245	142.68
279.461	68.95
279.676	60.76
279.892	3.41
280.107	124.24
280.322	40.28
280.538	25.94
280.753	71
280.969	17.75
281.184	56.66
281.399	42.32
281.615	1.37
281.83	42.32
282.045	3.41
282.26	-10.92
282.476	5.46
282.691	109.91
282.906	66.9
283.122	91.48
283.337	52.56
283.552	1.37
283.767	-19.11
283.983	52.56
284.198	44.37
284.413	97.62
284.628	-17.07
284.843	68.95
285.058	77.14
285.274	52.56
285.489	73.04
285.704	3.41
285.919	23.89
286.134	46.42
286.349	1.37
286.564	91.48
286.779	79.19
286.995	75.09
287.21	27.99
287.425	60.76
287.64	-0.68
287.855	105.81
288.07	7.51
288.285	97.62
288.5	73.04
288.715	111.96
288.93	-17.07
289.145	11.61
289.36	15.7
289.575	50.52
289.79	132.44
290.004	50.52
290.219	130.39
290.434	73.04
290.649	50.52
290.864	40.28
291.079	91.48
291.294	64.85
291.509	9.56
291.724	36.18
291.938	11.61
292.153	44.37
292.368	111.96
292.583	116.05
292.798	36.18
293.012	34.13
293.227	71
293.442	89.43
293.657	-0.68
293.871	17.75
294.086	44.37
294.301	3.41
294.516	62.8
294.73	89.43
294.945	114
295.16	36.18
295.374	30.04
295.589	97.62
295.804	56.66
296.018	134.48
296.233	32.08
296.447	46.42
296.662	64.85
296.877	21.85
297.091	-0.68
297.306	97.62
297.52	-4.78
297.735	87.38
297.949	56.66
298.164	85.33
298.378	27.99
298.593	5.46
298.807	40.28
299.022	40.28
299.236	134.48
299.451	52.56
299.665	32.08
299.88	32.08
300.094	27.99
300.309	40.28
300.523	68.95
300.737	54.61
300.952	79.19
301.166	17.75
301.381	52.56
301.595	81.24
301.809	130.39
302.024	-0.68
302.238	105.81
302.452	40.28
302.667	81.24
302.881	91.48
303.095	71
303.309	60.76
303.524	46.42
303.738	1.37
303.952	64.85
304.166	73.04
304.381	3.41
304.595	118.1
304.809	101.72
305.023	99.67
305.237	122.2
305.452	40.28
305.666	25.94
305.88	32.08
306.094	54.61
306.308	-35.5
306.522	42.32
306.736	21.85
306.95	56.66
307.164	83.28
307.379	5.46
307.593	101.72
307.807	71
308.021	23.89
308.235	95.57
308.449	36.18
308.663	25.94
308.877	118.1
309.091	114
309.305	-51.88
309.519	48.47
309.733	99.67
309.947	89.43
310.161	-45.74
310.374	116.05
310.588	58.71
310.802	19.8
311.016	-6.83
311.23	120.15
311.444	77.14
311.658	-8.87
311.872	38.23
312.085	17.75
312.299	183.63
312.513	48.47
312.727	-19.11
312.941	38.23
313.154	68.95
313.368	93.52
313.582	21.85
313.796	97.62
314.009	128.34
314.223	114
314.437	7.51
314.651	122.2
314.864	46.42
315.078	34.13
315.292	-19.11
315.505	79.19
315.719	165.2
315.933	-6.83
316.146	89.43
316.36	60.76
316.573	66.9
316.787	97.62
317.001	15.7
317.214	-41.64
317.428	62.8
317.641	32.08
317.855	87.38
318.068	83.28
318.282	75.09
318.495	87.38
318.709	40.28
318.922	38.23
319.136	73.04
319.349	13.65
319.563	-10.92
319.776	25.94
319.99	27.99
320.203	134.48
320.417	60.76
320.63	146.77
320.843	83.28
321.057	79.19
321.27	54.61
321.483	77.14
321.697	107.86
321.91	118.1
322.124	62.8
322.337	95.57
322.55	122.2
322.763	105.81
322.977	54.61
323.19	38.23
323.403	91.48
323.617	48.47
323.83	48.47
324.043	81.24
324.256	36.18
324.469	-19.11
324.683	116.05
324.896	34.13
325.109	44.37
325.322	81.24
325.535	103.76
325.748	9.56
325.962	73.04
326.175	93.52
326.388	73.04
326.601	89.43
326.814	68.95
327.027	97.62
327.24	81.24
327.453	27.99
327.666	122.2
327.879	79.19
328.092	75.09
328.305	56.66
328.518	56.66
328.731	-17.07
328.944	75.09
329.157	42.32
329.37	85.33
329.583	101.72
329.796	142.68
330.009	38.23
330.222	83.28
330.435	62.8
330.648	21.85
330.861	85.33
331.073	116.05
331.286	111.96
331.499	68.95
331.712	9.56
331.925	11.61
332.138	87.38
332.35	38.23
332.563	71
332.776	91.48
332.989	-4.78
333.202	11.61
333.414	99.67
333.627	105.81
333.84	122.2
334.053	56.66
334.265	60.76
334.478	105.81
334.691	85.33
334.903	27.99
335.116	27.99
335.329	13.65
335.541	130.39
335.754	93.52
335.966	77.14
336.179	81.24
336.392	91.48
336.604	99.67
336.817	81.24
337.029	99.67
337.242	34.13
337.454	83.28
337.667	64.85
337.88	85.33
338.092	44.37
338.305	46.42
338.517	-15.02
338.729	58.71
338.942	23.89
339.154	62.8
339.367	-12.97
339.579	99.67
339.792	23.89
340.004	46.42
340.217	60.76
340.429	124.24
340.641	38.23
340.854	54.61
341.066	60.76
341.278	93.52
341.491	128.34
341.703	132.44
341.915	15.7
342.128	107.86
342.34	62.8
342.552	36.18
342.764	68.95
342.977	68.95
343.189	85.33
343.401	48.47
343.613	42.32
343.826	118.1
344.038	9.56
344.25	68.95
344.462	52.56
344.674	89.43
344.886	30.04
345.099	32.08
345.311	97.62
345.523	93.52
345.735	19.8
345.947	89.43
346.159	60.76
346.371	60.76
346.583	-17.07
346.795	118.1
347.007	42.32
347.219	148.82
347.431	64.85
347.643	144.72
347.855	73.04
348.067	48.47
348.279	66.9
348.491	40.28
348.703	75.09
348.915	-19.11
349.127	32.08
349.339	48.47
349.551	34.13
349.763	81.24
349.975	27.99
350.187	85.33
350.399	52.56
350.61	64.85
350.822	-2.73
351.034	77.14
351.246	54.61
351.458	120.15
351.669	60.76
351.881	130.39
352.093	60.76
352.305	103.76
352.517	46.42
352.728	116.05
352.94	161.11
353.152	134.48
353.363	71
353.575	52.56
353.787	128.34
353.999	103.76
354.21	114
354.422	19.8
354.633	81.24
354.845	34.13
355.057	95.57
355.268	114
355.48	85.33
355.692	52.56
355.903	68.95
356.115	-2.73
356.326	56.66
356.538	142.68
356.749	87.38
356.961	50.52
357.172	103.76
357.384	38.23
357.595	142.68
357.807	7.51
358.018	122.2
358.23	44.37
358.441	161.11
358.653	83.28
358.864	81.24
359.075	19.8
359.287	3.41
359.498	32.08
359.709	144.72
359.921	17.75
360.132	40.28
360.344	52.56
360.555	15.7
360.766	89.43
360.977	17.75
361.189	146.77
361.4	-2.73
361.611	58.71
361.823	46.42
362.034	38.23
362.245	68.95
362.456	40.28
362.667	118.1
362.879	15.7
363.09	91.48
363.301	66.9
363.512	48.47
363.723	38.23
363.935	42.32
364.146	52.56
364.357	103.76
364.568	136.53
364.779	58.71
364.99	58.71
365.201	54.61
365.412	144.72
365.623	73.04
365.834	109.91
366.045	138.58
366.256	126.29
366.467	126.29
366.678	56.66
366.889	68.95
367.1	-4.78
367.311	101.72
367.522	50.52
367.733	32.08
367.944	85.33
368.155	114
368.366	60.76
368.577	132.44
368.788	107.86
368.999	62.8
369.209	56.66
369.42	118.1
369.631	66.9
369.842	107.86
370.053	9.56
370.264	52.56
370.474	87.38
370.685	27.99
370.896	79.19
371.107	154.96
371.317	142.68
371.528	73.04
371.739	109.91
371.95	46.42
372.16	146.77
372.371	64.85
372.582	75.09
372.792	62.8
373.003	91.48
373.214	83.28
373.424	56.66
373.635	66.9
373.846	103.76
374.056	54.61
374.267	3.41
374.477	30.04
374.688	77.14
374.898	126.29
375.109	44.37
375.319	-4.78
375.53	66.9
375.74	142.68
375.951	52.56
376.161	87.38
376.372	79.19
376.582	99.67
376.793	36.18
377.003	52.56
377.214	116.05
377.424	44.37
377.635	87.38
377.845	105.81
378.055	116.05
378.266	17.75
378.476	105.81
378.686	19.8
378.897	60.76
379.107	27.99
379.317	111.96
379.528	99.67
379.738	128.34
379.948	93.52
380.158	95.57
380.369	89.43
380.579	60.76
380.789	13.65
380.999	71
381.21	144.72
381.42	99.67
381.63	-10.92
381.84	105.81
382.05	60.76
382.261	154.96
382.471	87.38
382.681	40.28
382.891	154.96
383.101	89.43
383.311	97.62
383.521	44.37
383.731	77.14
383.941	150.87
384.151	114
384.361	124.24
384.571	40.28
384.781	73.04
384.991	91.48
385.201	163.15
385.411	89.43
385.621	17.75
385.831	64.85
386.041	66.9
386.251	68.95
386.461	109.91
386.671	89.43
386.881	105.81
387.091	9.56
387.301	140.63
387.511	95.57
387.72	114
387.93	40.28
388.14	30.04
388.35	54.61
388.56	132.44
388.769	105.81
388.979	91.48
389.189	64.85
389.399	48.47
389.609	138.58
389.818	68.95
390.028	124.24
390.238	159.06
390.447	81.24
390.657	163.15
390.867	157.01
391.076	54.61
391.286	109.91
391.496	85.33
391.705	50.52
391.915	183.63
392.125	130.39
392.334	93.52
392.544	87.38
392.753	77.14
392.963	81.24
393.172	95.57
393.382	95.57
393.591	140.63
393.801	97.62
394.01	122.2
394.22	126.29
394.429	163.15
394.639	126.29
394.848	222.55
395.058	87.38
395.267	30.04
395.477	109.91
395.686	116.05
395.895	218.45
396.105	179.54
396.314	109.91
396.524	105.81
396.733	144.72
396.942	187.73
397.152	171.35
397.361	154.96
397.57	120.15
397.78	253.27
397.989	163.15
398.198	169.3
398.407	130.39
398.617	97.62
398.826	208.21
399.035	150.87
399.244	122.2
399.453	130.39
399.663	185.68
399.872	183.63
400.081	118.1
400.29	181.59
400.499	212.31
400.708	177.49
400.917	109.91
401.127	175.44
401.336	138.58
401.545	187.73
401.754	232.79
401.963	111.96
402.172	150.87
402.381	173.39
402.59	150.87
402.799	128.34
403.008	228.69
403.217	159.06
403.426	163.15
403.635	173.39
403.844	238.93
404.053	118.1
404.262	191.83
404.471	275.79
404.68	240.98
404.888	187.73
405.097	179.54
405.306	197.97
405.515	247.12
405.724	300.37
405.933	232.79
406.142	183.63
406.35	204.11
406.559	247.12
406.768	251.22
406.977	300.37
407.185	261.46
407.394	214.35
407.603	240.98
407.812	318.8
408.02	404.82
408.229	353.62
408.438	308.56
408.646	259.41
408.855	298.32
409.064	367.95
409.272	390.48
409.481	394.58
409.69	316.75
409.898	392.53
410.107	361.81
410.315	413.01
410.524	449.87
410.733	445.77
410.941	402.77
411.15	474.45
411.358	546.12
411.567	566.6
411.775	548.17
411.984	601.42
412.192	542.03
412.401	472.4
412.609	675.15
412.818	607.56
413.026	580.94
413.234	654.67
413.443	761.16
413.651	726.35
413.86	779.59
414.068	779.59
414.276	859.46
414.485	800.07
414.693	810.31
414.901	896.33
415.11	871.75
415.318	875.85
415.526	1019.21
415.734	939.33
415.943	1101.12
416.151	976.2
416.359	1072.45
416.567	1039.69
416.776	1131.84
416.984	1199.43
417.192	1224
417.4	1201.48
417.608	1346.88
417.817	1359.17
418.025	1469.76
418.233	1457.47
418.441	1453.38
418.649	1461.57
418.857	1629.5
419.065	1688.89
419.273	1637.69
419.481	1692.99
419.689	1873.21
419.897	2012.47
420.105	2014.52
420.313	2018.61
420.521	2080.05
420.729	2147.64
420.937	2127.16
421.145	2231.6
421.353	2383.15
421.561	2430.26
421.769	2538.8
421.977	2514.22
422.185	2536.75
422.393	2723.12
422.601	3015.98
422.809	2913.58
423.017	2813.23
423.224	3067.17
423.432	3280.16
423.64	3235.11
423.848	3484.96
424.056	3499.3
424.263	3681.57
424.471	3728.67
424.679	3626.27
424.887	3999
425.094	3980.57
425.302	4017.43
425.51	3990.81
425.718	4369.68
425.925	4494.61
426.133	4554
426.341	4863.24
426.548	5049.61
426.756	5137.67
426.964	5102.86
427.171	5360.9
427.379	5426.43
427.586	5637.38
427.794	5803.26
428.001	6184.18
428.209	6311.16
428.417	6159.61
428.624	6706.41
428.832	6782.19
429.039	6690.03
429.247	6638.83
429.454	7433.44
429.662	7769.31
429.869	7324.9
430.076	7718.11
430.284	7523.55
430.491	8037.59
430.699	8559.83
430.906	8461.52
431.114	8412.37
431.321	8867.02
431.528	9071.82
431.736	9346.25
431.943	10147
432.15	9665.73
432.358	9954.49
432.565	10359.99
432.772	10218.68
432.979	10812.59
433.187	11029.68
433.394	11107.5
433.601	11740.32
433.808	11783.33
434.016	11650.21
434.223	12383.38
434.43	12838.03
434.637	12655.76
434.844	13370.51
435.052	13730.95
435.259	13493.38
435.466	14019.71
435.673	13702.28
435.88	14595.19
436.087	15533.16
436.294	15410.28
436.501	15168.62
436.708	15238.25
436.915	15930.47
437.122	16415.83
437.329	16374.88
437.537	17097.81
437.743	17529.93
437.95	17273.93
438.157	17976.39
438.364	18846.77
438.571	18648.12
438.778	18568.25
438.985	20339.74
439.192	20036.64
439.399	20450.33
439.606	19887.14
439.813	20980.76
440.02	22473.73
440.227	21873.67
440.433	21554.19
440.64	22461.44
440.847	22397.95
441.054	22871.03
441.261	24380.39
441.467	24173.54
441.674	24511.46
441.881	25183.19
442.088	25443.28
442.294	25185.24
442.501	25506.77
442.708	26039.24
442.914	27710.38
443.121	28521.38
443.328	27741.1
443.534	29399.96
443.741	28701.6
443.948	28445.6
444.154	30473.09
444.361	30172.04
444.568	30217.1
444.774	30915.45
444.981	31269.75
445.187	31642.48
445.394	33268.57
445.6	32789.35
445.807	35998.51
446.013	34116.43
446.22	35033.92
446.426	36268.84
446.633	36762.4
446.839	37393.18
447.046	35865.39
447.252	38144.78
447.459	37993.23
447.665	37651.22
447.871	39895.8
448.078	41116.39
448.284	39236.35
448.491	40094.45
448.697	41822.94
448.903	42392.27
449.11	42541.77
449.316	41329.37
449.522	42189.52
449.728	43979.45
449.935	43946.68
450.141	43639.48
450.347	44303.03
450.553	43483.84
450.76	44382.9
450.966	45470.37
451.172	44526.25
451.378	45851.29
451.584	44839.59
451.791	45951.64
451.997	45963.93
452.203	46592.65
452.409	46588.56
452.615	46301.84
452.821	44354.22
453.027	44229.3
453.233	46408.34
453.44	44278.45
453.646	44847.79
453.852	44823.21
454.058	45679.26
454.264	44139.19
454.47	45261.47
454.676	44331.7
454.882	45466.27
455.088	41403.1
455.294	42126.03
455.5	42443.47
455.705	42937.03
455.911	41257.7
456.117	40846.05
456.323	39879.41
456.529	37847.83
456.735	39424.76
456.941	38298.38
457.147	37690.13
457.352	36647.72
457.558	36234.03
457.764	36197.17
457.97	35521.34
458.176	34933.57
458.381	35324.73
458.587	32998.24
458.793	33311.58
458.999	31175.55
459.204	33821.52
459.41	32619.36
459.616	30628.74
459.821	30057.35
460.027	30264.2
460.233	29834.13
460.438	28556.19
460.644	29172.63
460.85	27306.93
461.055	27239.35
461.261	26788.8
461.466	24800.22
461.672	24308.71
461.878	26033.1
462.083	24165.35
462.289	23585.77
462.494	23604.21
462.7	22359.04
462.905	22101
463.111	22705.15
463.316	22881.27
463.522	22137.86
463.727	22494.21
463.932	22252.55
464.138	22125.57
464.343	22045.7
464.549	21431.31
464.754	22473.73
464.959	22199.3
465.165	22144
465.37	20917.27
465.575	20554.78
465.781	21361.68
465.986	21652.49
466.191	20702.23
466.397	20421.66
466.602	19100.72
466.807	20120.61
467.012	19813.41
