Data from USB4F104151__13__10-21-03-122.txt Node

Date: Wed Mar 12 10:21:03 EDT 2025
User: louis
Spectrometer: USB4F10415
Trigger mode: 4
Integration Time (sec): 3.000000E-2
Scans to average: 1
Electric dark correction enabled: true
Nonlinearity correction enabled: false
Boxcar width: 0
XAxis mode: Wavelengths
Number of Pixels in Spectrum: 3648
>>>>>Begin Spectral Data<<<<<
178.204	-88.4
178.424	-88.4
178.644	-88.4
178.864	-127.32
179.084	-92.5
179.304	-78.16
179.524	42.67
179.744	-12.63
179.964	9.9
180.184	22.19
180.404	44.71
180.624	28.33
180.844	-57.68
181.064	-20.82
181.283	16.04
181.503	-20.82
181.723	26.28
181.943	-82.26
182.163	110.25
182.383	-10.58
182.602	9.9
182.822	118.44
183.042	40.62
183.262	22.19
183.482	40.62
183.701	30.38
183.921	100.01
184.141	44.71
184.361	83.63
184.58	120.49
184.8	-8.53
185.02	7.85
185.239	32.43
185.459	3.75
185.679	20.14
185.898	52.91
186.118	-8.53
186.338	102.06
186.557	36.52
186.777	24.23
186.997	-35.16
187.216	18.09
187.436	116.39
187.655	-0.34
187.875	69.29
188.095	50.86
188.314	102.06
188.534	24.23
188.753	-14.68
188.973	30.38
189.192	50.86
189.412	114.34
189.631	42.67
189.851	48.81
190.07	69.29
190.29	-29.01
190.509	24.23
190.729	52.91
190.948	9.9
191.168	71.34
191.387	20.14
191.607	28.33
191.826	28.33
192.045	-33.11
192.265	22.19
192.484	-47.44
192.704	46.76
192.923	13.99
193.142	48.81
193.362	54.95
193.581	24.23
193.8	65.19
194.02	50.86
194.239	9.9
194.458	7.85
194.678	3.75
194.897	18.09
195.116	-41.3
195.335	3.75
195.555	16.04
195.774	32.43
195.993	134.82
196.212	30.38
196.432	28.33
196.651	11.95
196.87	-8.53
197.089	102.06
197.308	52.91
197.528	16.04
197.747	-20.82
197.966	77.48
198.185	77.48
198.404	77.48
198.623	9.9
198.842	-0.34
199.062	89.77
199.281	57
199.5	85.67
199.719	59.05
199.938	40.62
200.157	26.28
200.376	-29.01
200.595	52.91
200.814	57
201.033	1.71
201.252	7.85
201.471	69.29
201.69	75.43
201.909	61.1
202.128	18.09
202.347	-20.82
202.566	3.75
202.785	61.1
203.004	11.95
203.223	89.77
203.442	50.86
203.661	-16.73
203.879	22.19
204.098	50.86
204.317	-6.49
204.536	59.05
204.755	18.09
204.974	38.57
205.193	36.52
205.411	7.85
205.63	69.29
205.849	9.9
206.068	42.67
206.287	18.09
206.505	44.71
206.724	24.23
206.943	48.81
207.162	34.47
207.381	-39.25
207.599	-29.01
207.818	52.91
208.037	-41.3
208.255	38.57
208.474	50.86
208.693	48.81
208.911	-29.01
209.13	-20.82
209.349	59.05
209.567	11.95
209.786	85.67
210.005	85.67
210.223	44.71
210.442	-12.63
210.661	48.81
210.879	40.62
211.098	9.9
211.316	46.76
211.535	-35.16
211.753	-49.49
211.972	38.57
212.191	-14.68
212.409	18.09
212.628	-4.44
212.846	-14.68
213.065	18.09
213.283	93.87
213.502	-8.53
213.72	-67.92
213.938	48.81
214.157	-6.49
214.375	83.63
214.594	34.47
214.812	-14.68
215.031	36.52
215.249	20.14
215.467	57
215.686	-24.92
215.904	-22.87
216.122	-12.63
216.341	32.43
216.559	28.33
216.778	65.19
216.996	85.67
217.214	-4.44
217.432	-49.49
217.651	48.81
217.869	-12.63
218.087	7.85
218.306	9.9
218.524	50.86
218.742	3.75
218.96	-20.82
219.179	-57.68
219.397	-18.77
219.615	81.58
219.833	34.47
220.051	-26.96
220.27	75.43
220.488	24.23
220.706	36.52
220.924	-24.92
221.142	-41.3
221.36	65.19
221.578	28.33
221.796	13.99
222.015	20.14
222.233	20.14
222.451	16.04
222.669	5.8
222.887	-24.92
223.105	34.47
223.323	46.76
223.541	-16.73
223.759	61.1
223.977	-37.2
224.195	28.33
224.413	36.52
224.631	50.86
224.849	36.52
225.067	81.58
225.285	81.58
225.503	50.86
225.721	-8.53
225.939	1.71
226.157	11.95
226.375	126.63
226.592	-4.44
226.81	73.39
227.028	112.3
227.246	20.14
227.464	-41.3
227.682	-8.53
227.9	30.38
228.117	85.67
228.335	42.67
228.553	50.86
228.771	38.57
228.989	11.95
229.206	61.1
229.424	38.57
229.642	18.09
229.86	-61.78
230.077	67.24
230.295	42.67
230.513	77.48
230.731	18.09
230.948	9.9
231.166	20.14
231.384	-31.06
231.601	32.43
231.819	34.47
232.037	-20.82
232.254	38.57
232.472	65.19
232.689	22.19
232.907	26.28
233.125	-4.44
233.342	40.62
233.56	-31.06
233.777	44.71
233.995	11.95
234.213	28.33
234.43	97.96
234.648	34.47
234.865	42.67
235.083	9.9
235.3	13.99
235.518	34.47
235.735	65.19
235.953	-16.73
236.17	-67.92
236.388	-0.34
236.605	52.91
236.822	48.81
237.04	28.33
237.257	32.43
237.475	20.14
237.692	24.23
237.909	54.95
238.127	-16.73
238.344	24.23
238.562	-0.34
238.779	-22.87
238.996	16.04
239.214	52.91
239.431	126.63
239.648	-26.96
239.865	-2.39
240.083	28.33
240.3	52.91
240.517	-24.92
240.735	77.48
240.952	9.9
241.169	79.53
241.386	-18.77
241.603	26.28
241.821	-8.53
242.038	112.3
242.255	-57.68
242.472	32.43
242.689	65.19
242.907	34.47
243.124	102.06
243.341	61.1
243.558	20.14
243.775	11.95
243.992	3.75
244.209	48.81
244.426	71.34
244.643	42.67
244.86	20.14
245.078	22.19
245.295	108.2
245.512	48.81
245.729	-61.78
245.946	83.63
246.163	-29.01
246.38	-0.34
246.597	26.28
246.814	36.52
247.031	-6.49
247.248	77.48
247.464	-24.92
247.681	32.43
247.898	75.43
248.115	18.09
248.332	-31.06
248.549	13.99
248.766	100.01
248.983	-20.82
249.2	118.44
249.417	40.62
249.633	-8.53
249.85	48.81
250.067	-20.82
250.284	16.04
250.501	61.1
250.717	28.33
250.934	-51.54
251.151	11.95
251.368	16.04
251.585	26.28
251.801	5.8
252.018	85.67
252.235	32.43
252.451	-59.73
252.668	36.52
252.885	50.86
253.102	65.19
253.318	-6.49
253.535	36.52
253.752	-16.73
253.968	-59.73
254.185	34.47
254.401	-0.34
254.618	95.91
254.835	-24.92
255.051	20.14
255.268	-8.53
255.484	50.86
255.701	28.33
255.917	26.28
256.134	-26.96
256.351	18.09
256.567	52.91
256.784	81.58
257	57
257.217	85.67
257.433	28.33
257.65	44.71
257.866	30.38
258.082	34.47
258.299	52.91
258.515	7.85
258.732	-20.82
258.948	-12.63
259.165	69.29
259.381	73.39
259.597	89.77
259.814	-45.4
260.03	40.62
260.246	7.85
260.463	89.77
260.679	28.33
260.895	-22.87
261.112	59.05
261.328	52.91
261.544	-10.58
261.761	38.57
261.977	-0.34
262.193	-37.2
262.409	-31.06
262.626	48.81
262.842	18.09
263.058	16.04
263.274	-6.49
263.49	36.52
263.707	9.9
263.923	11.95
264.139	61.1
264.355	89.77
264.571	54.95
264.787	40.62
265.004	48.81
265.22	26.28
265.436	-24.92
265.652	122.54
265.868	9.9
266.084	7.85
266.3	9.9
266.516	9.9
266.732	38.57
266.948	-57.68
267.164	13.99
267.38	-47.44
267.596	48.81
267.812	40.62
268.028	100.01
268.244	-45.4
268.46	110.25
268.676	5.8
268.892	48.81
269.108	52.91
269.324	28.33
269.54	32.43
269.756	40.62
269.972	3.75
270.188	3.75
270.403	-39.25
270.619	48.81
270.835	54.95
271.051	36.52
271.267	-41.3
271.483	48.81
271.698	13.99
271.914	-16.73
272.13	11.95
272.346	-12.63
272.562	46.76
272.777	40.62
272.993	9.9
273.209	30.38
273.425	108.2
273.64	50.86
273.856	30.38
274.072	20.14
274.287	32.43
274.503	7.85
274.719	32.43
274.934	54.95
275.15	40.62
275.366	-14.68
275.581	26.28
275.797	42.67
276.012	75.43
276.228	-26.96
276.444	42.67
276.659	26.28
276.875	-31.06
277.09	28.33
277.306	-4.44
277.521	85.67
277.737	-14.68
277.952	24.23
278.168	11.95
278.383	65.19
278.599	3.75
278.814	44.71
279.03	44.71
279.245	28.33
279.461	97.96
279.676	-35.16
279.892	81.58
280.107	11.95
280.322	-4.44
280.538	-4.44
280.753	1.71
280.969	89.77
281.184	71.34
281.399	77.48
281.615	38.57
281.83	67.24
282.045	97.96
282.26	40.62
282.476	-37.2
282.691	100.01
282.906	9.9
283.122	18.09
283.337	52.91
283.552	16.04
283.767	46.76
283.983	-18.77
284.198	3.75
284.413	71.34
284.628	-20.82
284.843	93.87
285.058	52.91
285.274	3.75
285.489	46.76
285.704	134.82
285.919	-8.53
286.134	122.54
286.349	-8.53
286.564	13.99
286.779	-8.53
286.995	83.63
287.21	-41.3
287.425	38.57
287.64	-20.82
287.855	-2.39
288.07	3.75
288.285	108.2
288.5	46.76
288.715	44.71
288.93	20.14
289.145	48.81
289.36	63.15
289.575	50.86
289.79	85.67
290.004	3.75
290.219	44.71
290.434	-8.53
290.649	52.91
290.864	26.28
291.079	-20.82
291.294	50.86
291.509	52.91
291.724	40.62
291.938	-39.25
292.153	36.52
292.368	7.85
292.583	40.62
292.798	63.15
293.012	91.82
293.227	38.57
293.442	42.67
293.657	38.57
293.871	134.82
294.086	91.82
294.301	73.39
294.516	34.47
294.73	34.47
294.945	36.52
295.16	-39.25
295.374	143.02
295.589	61.1
295.804	24.23
296.018	34.47
296.233	61.1
296.447	81.58
296.662	42.67
296.877	48.81
297.091	46.76
297.306	65.19
297.52	36.52
297.735	75.43
297.949	28.33
298.164	67.24
298.378	24.23
298.593	9.9
298.807	-39.25
299.022	36.52
299.236	-2.39
299.451	28.33
299.665	-20.82
299.88	48.81
300.094	32.43
300.309	-18.77
300.523	54.95
300.737	34.47
300.952	5.8
301.166	65.19
301.381	-12.63
301.595	-37.2
301.809	-6.49
302.024	89.77
302.238	69.29
302.452	-4.44
302.667	32.43
302.881	59.05
303.095	16.04
303.309	20.14
303.524	-12.63
303.738	42.67
303.952	36.52
304.166	63.15
304.381	26.28
304.595	-29.01
304.809	73.39
305.023	63.15
305.237	36.52
305.452	73.39
305.666	52.91
305.88	100.01
306.094	85.67
306.308	79.53
306.522	57
306.736	75.43
306.95	-2.39
307.164	3.75
307.379	69.29
307.593	106.15
307.807	42.67
308.021	30.38
308.235	7.85
308.449	-8.53
308.663	42.67
308.877	77.48
309.091	30.38
309.305	75.43
309.519	32.43
309.733	77.48
309.947	9.9
310.161	28.33
310.374	30.38
310.588	-12.63
310.802	-35.16
311.016	11.95
311.23	36.52
311.444	40.62
311.658	67.24
311.872	97.96
312.085	32.43
312.299	-8.53
312.513	44.71
312.727	118.44
312.941	42.67
313.154	57
313.368	97.96
313.582	61.1
313.796	28.33
314.009	46.76
314.223	52.91
314.437	20.14
314.651	83.63
314.864	-33.11
315.078	108.2
315.292	34.47
315.505	20.14
315.719	7.85
315.933	18.09
316.146	71.34
316.36	3.75
316.573	69.29
316.787	16.04
317.001	73.39
317.214	-74.07
317.428	97.96
317.641	71.34
317.855	7.85
318.068	59.05
318.282	50.86
318.495	54.95
318.709	57
318.922	32.43
319.136	102.06
319.349	59.05
319.563	38.57
319.776	-14.68
319.99	38.57
320.203	-10.58
320.417	50.86
320.63	18.09
320.843	110.25
321.057	22.19
321.27	-37.2
321.483	65.19
321.697	106.15
321.91	-2.39
322.124	59.05
322.337	77.48
322.55	11.95
322.763	42.67
322.977	42.67
323.19	57
323.403	114.34
323.617	-24.92
323.83	52.91
324.043	36.52
324.256	118.44
324.469	-12.63
324.683	54.95
324.896	-22.87
325.109	11.95
325.322	69.29
325.535	52.91
325.748	16.04
325.962	89.77
326.175	44.71
326.388	97.96
326.601	79.53
326.814	7.85
327.027	5.8
327.24	52.91
327.453	-6.49
327.666	73.39
327.879	50.86
328.092	120.49
328.305	91.82
328.518	71.34
328.731	34.47
328.944	30.38
329.157	32.43
329.37	30.38
329.583	79.53
329.796	63.15
330.009	5.8
330.222	30.38
330.435	89.77
330.648	32.43
330.861	40.62
331.073	81.58
331.286	77.48
331.499	32.43
331.712	69.29
331.925	-8.53
332.138	57
332.35	-55.64
332.563	22.19
332.776	69.29
332.989	30.38
333.202	-14.68
333.414	16.04
333.627	-8.53
333.84	-4.44
334.053	48.81
334.265	-26.96
334.478	32.43
334.691	59.05
334.903	28.33
335.116	46.76
335.329	61.1
335.541	11.95
335.754	24.23
335.966	57
336.179	97.96
336.392	1.71
336.604	32.43
336.817	59.05
337.029	18.09
337.242	24.23
337.454	65.19
337.667	38.57
337.88	69.29
338.092	104.11
338.305	44.71
338.517	11.95
338.729	71.34
338.942	24.23
339.154	9.9
339.367	89.77
339.579	38.57
339.792	-35.16
340.004	75.43
340.217	54.95
340.429	61.1
340.641	38.57
340.854	52.91
341.066	104.11
341.278	108.2
341.491	7.85
341.703	-29.01
341.915	-0.34
342.128	7.85
342.34	-72.02
342.552	46.76
342.764	28.33
342.977	40.62
343.189	34.47
343.401	112.3
343.613	18.09
343.826	-37.2
344.038	22.19
344.25	93.87
344.462	-12.63
344.674	-4.44
344.886	3.75
345.099	54.95
345.311	32.43
345.523	77.48
345.735	16.04
345.947	-4.44
346.159	81.58
346.371	85.67
346.583	91.82
346.795	87.72
347.007	-26.96
347.219	48.81
347.431	9.9
347.643	83.63
347.855	36.52
348.067	1.71
348.279	11.95
348.491	57
348.703	7.85
348.915	30.38
349.127	13.99
349.339	59.05
349.551	28.33
349.763	89.77
349.975	-26.96
350.187	79.53
350.399	40.62
350.61	93.87
350.822	61.1
351.034	13.99
351.246	20.14
351.458	22.19
351.669	61.1
351.881	102.06
352.093	32.43
352.305	24.23
352.517	50.86
352.728	1.71
352.94	13.99
353.152	16.04
353.363	30.38
353.575	24.23
353.787	-0.34
353.999	34.47
354.21	118.44
354.422	61.1
354.633	75.43
354.845	52.91
355.057	52.91
355.268	67.24
355.48	48.81
355.692	3.75
355.903	61.1
356.115	11.95
356.326	22.19
356.538	151.21
356.749	89.77
356.961	126.63
357.172	44.71
357.384	-24.92
357.595	91.82
357.807	22.19
358.018	-2.39
358.23	34.47
358.441	112.3
358.653	77.48
358.864	77.48
359.075	-12.63
359.287	20.14
359.498	85.67
359.709	-14.68
359.921	-82.26
360.132	36.52
360.344	-6.49
360.555	-2.39
360.766	50.86
360.977	52.91
361.189	87.72
361.4	5.8
361.611	61.1
361.823	52.91
362.034	32.43
362.245	32.43
362.456	79.53
362.667	40.62
362.879	24.23
363.09	50.86
363.301	81.58
363.512	147.11
363.723	30.38
363.935	-4.44
364.146	57
364.357	13.99
364.568	75.43
364.779	-12.63
364.99	114.34
365.201	67.24
365.412	28.33
365.623	-18.77
365.834	5.8
366.045	20.14
366.256	71.34
366.467	28.33
366.678	63.15
366.889	22.19
367.1	104.11
367.311	44.71
367.522	38.57
367.733	91.82
367.944	67.24
368.155	69.29
368.366	50.86
368.577	143.02
368.788	59.05
368.999	34.47
369.209	140.97
369.42	110.25
369.631	112.3
369.842	108.2
370.053	-51.54
370.264	93.87
370.474	65.19
370.685	-43.35
370.896	120.49
371.107	11.95
371.317	7.85
371.528	3.75
371.739	28.33
371.95	69.29
372.16	16.04
372.371	36.52
372.582	-4.44
372.792	16.04
373.003	112.3
373.214	11.95
373.424	73.39
373.635	67.24
373.846	159.4
374.056	20.14
374.267	9.9
374.477	75.43
374.688	28.33
374.898	-20.82
375.109	77.48
375.319	34.47
375.53	63.15
375.74	93.87
375.951	81.58
376.161	44.71
376.372	22.19
376.582	59.05
376.793	32.43
377.003	46.76
377.214	32.43
377.424	5.8
377.635	100.01
377.845	91.82
378.055	102.06
378.266	59.05
378.476	30.38
378.686	-6.49
378.897	65.19
379.107	122.54
379.317	34.47
379.528	20.14
379.738	91.82
379.948	-6.49
380.158	118.44
380.369	30.38
380.579	18.09
380.789	71.34
380.999	114.34
381.21	91.82
381.42	114.34
381.63	50.86
381.84	54.95
382.05	65.19
382.261	85.67
382.471	83.63
382.681	57
382.891	110.25
383.101	-22.87
383.311	32.43
383.521	42.67
383.731	38.57
383.941	30.38
384.151	32.43
384.361	69.29
384.571	77.48
384.781	57
384.991	102.06
385.201	11.95
385.411	108.2
385.621	140.97
385.831	59.05
386.041	54.95
386.251	81.58
386.461	140.97
386.671	91.82
386.881	46.76
387.091	59.05
387.301	69.29
387.511	-4.44
387.72	42.67
387.93	-4.44
388.14	44.71
388.35	20.14
388.56	118.44
388.769	140.97
388.979	83.63
389.189	11.95
389.399	16.04
389.609	93.87
389.818	143.02
390.028	-0.34
390.238	54.95
390.447	34.47
390.657	106.15
390.867	3.75
391.076	-0.34
391.286	-39.25
391.496	-6.49
391.705	5.8
391.915	110.25
392.125	130.73
392.334	40.62
392.544	46.76
392.753	122.54
392.963	-0.34
393.172	93.87
393.382	79.53
393.591	97.96
393.801	118.44
394.01	46.76
394.22	190.12
394.429	93.87
394.639	132.78
394.848	140.97
395.058	89.77
395.267	95.91
395.477	69.29
395.686	130.73
395.895	65.19
396.105	108.2
396.314	116.39
396.524	102.06
396.733	63.15
396.942	130.73
397.152	179.88
397.361	194.22
397.57	50.86
397.78	114.34
397.989	73.39
398.198	161.45
398.407	118.44
398.617	140.97
398.826	40.62
399.035	89.77
399.244	85.67
399.453	159.4
399.663	102.06
399.872	126.63
400.081	143.02
400.29	118.44
400.499	79.53
400.708	118.44
400.917	73.39
401.127	181.93
401.336	128.68
401.545	120.49
401.754	126.63
401.963	108.2
402.172	132.78
402.381	89.77
402.59	183.98
402.799	65.19
403.008	95.91
403.217	102.06
403.426	159.4
403.635	120.49
403.844	159.4
404.053	153.26
404.262	138.92
404.471	143.02
404.68	126.63
404.888	89.77
405.097	163.5
405.306	167.59
405.515	231.08
405.724	194.22
405.933	175.78
406.142	138.92
406.35	194.22
406.559	151.21
406.768	147.11
406.977	274.09
407.185	151.21
407.394	188.07
407.603	212.65
407.812	245.41
408.02	274.09
408.229	269.99
408.438	226.98
408.646	251.56
408.855	337.57
409.064	343.72
409.272	294.57
409.481	392.87
409.69	224.94
409.898	253.61
410.107	257.7
410.315	319.14
410.524	368.29
410.733	386.72
410.941	362.15
411.15	358.05
411.358	339.62
411.567	411.3
411.775	419.49
411.984	405.16
412.192	493.22
412.401	429.73
412.609	542.37
412.818	482.98
413.026	536.23
413.234	489.12
413.443	513.7
413.651	546.47
413.86	628.39
414.068	579.23
414.276	638.62
414.485	638.62
414.693	691.87
414.901	747.17
415.11	779.93
415.318	743.07
415.526	683.68
415.734	794.27
415.943	790.17
416.151	863.9
416.359	839.33
416.567	851.61
416.776	898.72
416.984	945.82
417.192	1044.12
417.4	997.02
417.608	1046.17
417.817	1123.99
418.025	1132.19
418.233	1142.43
418.441	1195.67
418.649	1207.96
418.857	1379.99
419.065	1332.89
419.273	1398.42
419.481	1429.14
419.689	1490.58
419.897	1537.68
420.105	1511.06
420.313	1609.36
420.521	1601.17
420.729	1590.93
420.937	1797.78
421.145	1834.64
421.353	1963.66
421.561	1986.19
421.769	1975.95
421.977	2096.78
422.185	2186.89
422.393	2199.18
422.601	2252.42
422.809	2338.44
423.017	2322.06
423.224	2428.55
423.432	2555.52
423.64	2606.72
423.848	2813.57
424.056	2725.51
424.263	2926.21
424.471	2940.54
424.679	2946.69
424.887	3186.3
425.094	3245.69
425.302	3315.32
425.51	3587.7
425.718	3526.26
425.925	3499.64
426.133	3669.62
426.341	3903.09
426.548	4017.77
426.756	4062.83
426.964	4206.19
427.171	4187.75
427.379	4367.98
427.586	4410.98
427.794	4611.68
428.001	4812.39
428.209	5041.76
428.417	5045.85
428.624	5193.31
428.832	5281.37
429.039	5301.85
429.247	5383.77
429.454	5899.86
429.662	6229.58
429.869	5766.74
430.076	6098.51
430.284	6057.55
430.491	6391.37
430.699	6585.93
430.906	6706.76
431.114	6647.37
431.321	6999.62
431.528	7136.83
431.736	7396.92
431.943	7847.47
432.15	7603.77
432.358	7718.45
432.565	8171.05
432.772	8146.48
432.979	8564.26
433.187	8691.24
433.394	8631.85
433.601	9266.72
433.808	9373.21
434.016	9248.29
434.223	9684.5
434.43	10358.28
434.637	10098.19
434.844	10601.99
435.052	10913.28
435.259	10896.9
435.466	10937.86
435.673	10583.56
435.88	11546.11
436.087	11920.88
436.294	12094.96
436.501	11716.09
436.708	12037.62
436.915	12375.53
437.122	12932.58
437.329	12946.92
437.537	13338.08
437.743	13655.51
437.95	13510.11
438.157	14380.5
438.364	14720.46
438.571	14642.64
438.778	14771.66
438.985	16268.72
439.192	15631.8
439.399	15957.43
439.606	15601.08
439.813	16467.38
440.02	17178.02
440.227	17046.95
440.433	16903.59
440.64	17382.82
440.847	17391.01
441.054	17708.44
441.261	18924.94
441.467	18595.21
441.674	19058.06
441.881	19424.64
442.088	19615.1
442.294	19543.42
442.501	20014.46
442.708	20426.1
442.914	21314.92
443.121	21876.06
443.328	21558.63
443.534	23055.69
443.741	22463.83
443.948	22170.97
444.154	23639.36
444.361	23338.31
444.568	23788.86
444.774	23432.52
444.981	23934.27
445.187	24448.31
445.394	25601.32
445.6	25455.91
445.807	27772.16
446.013	26633.49
446.22	27079.95
446.426	28022.02
446.633	28515.58
446.839	29308.14
447.046	27890.95
447.252	29433.07
447.459	29519.08
447.665	29471.98
447.871	30711
448.078	32015.55
448.284	30356.7
448.491	31448.27
448.697	32494.78
448.903	32933.04
449.11	32761.01
449.316	32169.15
449.522	32863.41
449.728	33807.53
449.935	33776.81
450.141	33633.45
450.347	34737.3
450.553	33316.01
450.76	33842.34
450.966	34655.39
451.172	34552.99
451.378	35423.37
451.584	35075.22
451.791	35349.65
451.997	35355.79
452.203	35875.98
452.409	35525.77
452.615	35505.29
452.821	34221.22
453.027	33989.8
453.233	35785.86
453.44	33950.88
453.646	34239.65
453.852	34469.02
454.058	35034.26
454.264	33774.76
454.47	34538.65
454.676	34012.32
454.882	34821.27
455.088	32238.78
455.294	32623.8
455.5	32670.9
455.705	33334.45
455.911	31734.98
456.117	31317.2
456.323	30719.19
456.529	29156.59
456.735	30022.88
456.941	29740.26
457.147	29218.03
457.352	28128.51
457.558	27780.35
457.764	28062.97
457.97	27249.93
458.176	26883.34
458.381	26637.59
458.587	25417
458.793	25423.14
458.999	24225.08
459.204	25734.43
459.41	25060.65
459.616	23287.11
459.821	23401.8
460.027	23252.3
460.233	22674.77
460.438	21937.5
460.644	21820.77
460.85	20841.84
461.055	20639.09
461.261	20397.43
461.466	18824.59
461.672	18249.11
461.878	19895.68
462.083	18384.27
462.289	18257.3
462.494	17909.15
462.7	17296.8
462.905	16858.54
463.111	17386.91
463.316	17581.47
463.522	16893.35
463.727	16883.11
463.932	16774.57
464.138	16704.94
464.343	16950.7
464.549	16379.31
464.754	17239.46
464.959	16911.78
465.165	16663.98
465.37	16092.6
465.575	15517.12
465.781	16084.41
465.986	16459.18
466.191	15582.65
466.397	15574.46
466.602	14480.85
466.807	15379.9
467.012	15463.87
467.218	15056.32
467.423	14908.87
467.628	15392.19
