Data from USB4F104151__275__10-40-57-471.txt Node

Date: Wed Mar 12 10:40:57 EDT 2025
User: louis
Spectrometer: USB4F10415
Trigger mode: 4
Integration Time (sec): 3.000000E-2
Scans to average: 1
Electric dark correction enabled: true
Nonlinearity correction enabled: false
Boxcar width: 0
XAxis mode: Wavelengths
Number of Pixels in Spectrum: 3648
>>>>>Begin Spectral Data<<<<<
178.204	-96.94
178.424	-96.94
178.644	-96.94
178.864	-158.38
179.084	-123.56
179.304	17.75
179.524	-2.73
179.744	-12.97
179.964	52.56
180.184	-62.12
180.404	-82.6
180.624	3.41
180.844	-43.69
181.064	-33.45
181.283	36.18
181.503	66.9
181.723	60.76
181.943	-33.45
182.163	93.52
182.383	7.51
182.602	128.34
182.822	7.51
183.042	27.99
183.262	50.52
183.482	40.28
183.701	23.89
183.921	-39.59
184.141	-31.4
184.361	54.61
184.58	9.56
184.8	79.19
185.02	-72.36
185.239	75.09
185.459	-29.35
185.679	109.91
185.898	-51.88
186.118	44.37
186.338	3.41
186.557	-2.73
186.777	-55.98
186.997	-12.97
187.216	75.09
187.436	163.15
187.655	9.56
187.875	89.43
188.095	-41.64
188.314	19.8
188.534	64.85
188.753	9.56
188.973	77.14
189.192	23.89
189.412	-2.73
189.631	-0.68
189.851	-4.78
190.07	40.28
190.29	3.41
190.509	-33.45
190.729	79.19
190.948	7.51
191.168	134.48
191.387	89.43
191.607	5.46
191.826	40.28
192.045	30.04
192.265	32.08
192.484	-12.97
192.704	36.18
192.923	5.46
193.142	32.08
193.362	23.89
193.581	97.62
193.8	60.76
194.02	-31.4
194.239	-8.87
194.458	73.04
194.678	-23.21
194.897	32.08
195.116	77.14
195.335	50.52
195.555	32.08
195.774	32.08
195.993	71
196.212	-17.07
196.432	21.85
196.651	75.09
196.87	11.61
197.089	138.58
197.308	60.76
197.528	-21.16
197.747	46.42
197.966	3.41
198.185	105.81
198.404	27.99
198.623	44.37
198.842	68.95
199.062	81.24
199.281	54.61
199.5	-4.78
199.719	11.61
199.938	40.28
200.157	42.32
200.376	46.42
200.595	42.32
200.814	64.85
201.033	9.56
201.252	34.13
201.471	21.85
201.69	-4.78
201.909	19.8
202.128	-2.73
202.347	23.89
202.566	23.89
202.785	56.66
203.004	15.7
203.223	89.43
203.442	97.62
203.661	60.76
203.879	71
204.098	71
204.317	-53.93
204.536	64.85
204.755	89.43
204.974	38.23
205.193	56.66
205.411	120.15
205.63	99.67
205.849	5.46
206.068	-29.35
206.287	9.56
206.505	73.04
206.724	27.99
206.943	-4.78
207.162	3.41
207.381	25.94
207.599	44.37
207.818	-33.45
208.037	-29.35
208.255	48.47
208.474	38.23
208.693	-27.31
208.911	64.85
209.13	23.89
209.349	7.51
209.567	34.13
209.786	44.37
210.005	-49.83
210.223	32.08
210.442	-25.26
210.661	-53.93
210.879	27.99
211.098	1.37
211.316	-10.92
211.535	23.89
211.753	25.94
211.972	-39.59
212.191	9.56
212.409	50.52
212.628	11.61
212.846	25.94
213.065	-23.21
213.283	124.24
213.502	23.89
213.72	99.67
213.938	101.72
214.157	52.56
214.375	21.85
214.594	23.89
214.812	79.19
215.031	21.85
215.249	27.99
215.467	58.71
215.686	9.56
215.904	27.99
216.122	73.04
216.341	25.94
216.559	48.47
216.778	50.52
216.996	122.2
217.214	-12.97
217.432	89.43
217.651	-17.07
217.869	1.37
218.087	17.75
218.306	-39.59
218.524	56.66
218.742	5.46
218.96	89.43
219.179	-12.97
219.397	7.51
219.615	-8.87
219.833	21.85
220.051	3.41
220.27	34.13
220.488	-8.87
220.706	89.43
220.924	77.14
221.142	46.42
221.36	-12.97
221.578	-10.92
221.796	34.13
222.015	23.89
222.233	66.9
222.451	95.57
222.669	-15.02
222.887	27.99
223.105	-49.83
223.323	-6.83
223.541	-12.97
223.759	21.85
223.977	-31.4
224.195	97.62
224.413	42.32
224.631	7.51
224.849	44.37
225.067	64.85
225.285	5.46
225.503	32.08
225.721	1.37
225.939	89.43
226.157	27.99
226.375	107.86
226.592	68.95
226.81	71
227.028	85.33
227.246	101.72
227.464	5.46
227.682	56.66
227.9	56.66
228.117	-10.92
228.335	60.76
228.553	42.32
228.771	-12.97
228.989	56.66
229.206	54.61
229.424	75.09
229.642	-2.73
229.86	27.99
230.077	3.41
230.295	-37.55
230.513	3.41
230.731	25.94
230.948	50.52
231.166	71
231.384	15.7
231.601	15.7
231.819	85.33
232.037	-8.87
232.254	54.61
232.472	68.95
232.689	19.8
232.907	56.66
233.125	15.7
233.342	-12.97
233.56	58.71
233.777	19.8
233.995	64.85
234.213	97.62
234.43	-19.11
234.648	32.08
234.865	27.99
235.083	48.47
235.3	81.24
235.518	17.75
235.735	79.19
235.953	66.9
236.17	36.18
236.388	40.28
236.605	89.43
236.822	38.23
237.04	42.32
237.257	52.56
237.475	15.7
237.692	58.71
237.909	48.47
238.127	25.94
238.344	25.94
238.562	56.66
238.779	40.28
238.996	-4.78
239.214	-25.26
239.431	66.9
239.648	25.94
239.865	89.43
240.083	15.7
240.3	30.04
240.517	114
240.735	52.56
240.952	11.61
241.169	99.67
241.386	48.47
241.603	15.7
241.821	-21.16
242.038	21.85
242.255	52.56
242.472	36.18
242.689	23.89
242.907	38.23
243.124	-10.92
243.341	-0.68
243.558	19.8
243.775	103.76
243.992	-4.78
244.209	19.8
244.426	93.52
244.643	34.13
244.86	77.14
245.078	71
245.295	56.66
245.512	25.94
245.729	62.8
245.946	73.04
246.163	-17.07
246.38	13.65
246.597	11.61
246.814	11.61
247.031	17.75
247.248	19.8
247.464	-2.73
247.681	-12.97
247.898	-2.73
248.115	111.96
248.332	-17.07
248.549	3.41
248.766	91.48
248.983	81.24
249.2	17.75
249.417	132.44
249.633	17.75
249.85	56.66
250.067	54.61
250.284	30.04
250.501	52.56
250.717	36.18
250.934	32.08
251.151	19.8
251.368	23.89
251.585	30.04
251.801	75.09
252.018	42.32
252.235	42.32
252.451	-66.22
252.668	9.56
252.885	73.04
253.102	38.23
253.318	89.43
253.535	44.37
253.752	7.51
253.968	19.8
254.185	15.7
254.401	50.52
254.618	44.37
254.835	54.61
255.051	54.61
255.268	77.14
255.484	64.85
255.701	38.23
255.917	81.24
256.134	34.13
256.351	21.85
256.567	-31.4
256.784	48.47
257	-33.45
257.217	-33.45
257.433	-0.68
257.65	46.42
257.866	99.67
258.082	83.28
258.299	87.38
258.515	71
258.732	30.04
258.948	107.86
259.165	15.7
259.381	36.18
259.597	79.19
259.814	3.41
260.03	5.46
260.246	15.7
260.463	60.76
260.679	-15.02
260.895	32.08
261.112	64.85
261.328	-10.92
261.544	17.75
261.761	58.71
261.977	40.28
262.193	66.9
262.409	-31.4
262.626	30.04
262.842	64.85
263.058	93.52
263.274	42.32
263.49	23.89
263.707	48.47
263.923	56.66
264.139	-27.31
264.355	58.71
264.571	-0.68
264.787	101.72
265.004	-0.68
265.22	-2.73
265.436	-6.83
265.652	44.37
265.868	38.23
266.084	-25.26
266.3	-19.11
266.516	44.37
266.732	54.61
266.948	30.04
267.164	32.08
267.38	-8.87
267.596	38.23
267.812	32.08
268.028	99.67
268.244	30.04
268.46	46.42
268.676	36.18
268.892	40.28
269.108	19.8
269.324	-8.87
269.54	36.18
269.756	36.18
269.972	36.18
270.188	58.71
270.403	-8.87
270.619	25.94
270.835	-17.07
271.051	114
271.267	64.85
271.483	114
271.698	44.37
271.914	34.13
272.13	25.94
272.346	52.56
272.562	38.23
272.777	56.66
272.993	62.8
273.209	36.18
273.425	81.24
273.64	-68.27
273.856	52.56
274.072	54.61
274.287	27.99
274.503	42.32
274.719	9.56
274.934	3.41
275.15	-68.27
275.366	-96.94
275.581	23.89
275.797	44.37
276.012	60.76
276.228	27.99
276.444	60.76
276.659	27.99
276.875	27.99
277.09	32.08
277.306	-27.31
277.521	1.37
277.737	-15.02
277.952	52.56
278.168	75.09
278.383	-8.87
278.599	19.8
278.814	60.76
279.03	-43.69
279.245	11.61
279.461	19.8
279.676	64.85
279.892	21.85
280.107	7.51
280.322	-8.87
280.538	56.66
280.753	15.7
280.969	21.85
281.184	52.56
281.399	95.57
281.615	40.28
281.83	48.47
282.045	-49.83
282.26	7.51
282.476	83.28
282.691	15.7
282.906	71
283.122	-2.73
283.337	-49.83
283.552	-12.97
283.767	118.1
283.983	71
284.198	64.85
284.413	62.8
284.628	-21.16
284.843	1.37
285.058	-12.97
285.274	13.65
285.489	44.37
285.704	75.09
285.919	118.1
286.134	64.85
286.349	62.8
286.564	89.43
286.779	3.41
286.995	3.41
287.21	30.04
287.425	81.24
287.64	40.28
287.855	75.09
288.07	42.32
288.285	93.52
288.5	85.33
288.715	42.32
288.93	109.91
289.145	38.23
289.36	-47.79
289.575	46.42
289.79	109.91
290.004	64.85
290.219	36.18
290.434	11.61
290.649	50.52
290.864	15.7
291.079	15.7
291.294	48.47
291.509	-4.78
291.724	-23.21
291.938	-19.11
292.153	103.76
292.368	44.37
292.583	44.37
292.798	66.9
293.012	19.8
293.227	9.56
293.442	-15.02
293.657	52.56
293.871	44.37
294.086	60.76
294.301	122.2
294.516	27.99
294.73	122.2
294.945	48.47
295.16	46.42
295.374	-2.73
295.589	40.28
295.804	-12.97
296.018	44.37
296.233	19.8
296.447	3.41
296.662	7.51
296.877	34.13
297.091	19.8
297.306	46.42
297.52	-53.93
297.735	44.37
297.949	93.52
298.164	38.23
298.378	71
298.593	-21.16
298.807	79.19
299.022	34.13
299.236	52.56
299.451	1.37
299.665	34.13
299.88	50.52
300.094	101.72
300.309	-29.35
300.523	-12.97
300.737	-0.68
300.952	32.08
301.166	19.8
301.381	15.7
301.595	7.51
301.809	60.76
302.024	7.51
302.238	7.51
302.452	34.13
302.667	-2.73
302.881	122.2
303.095	25.94
303.309	38.23
303.524	11.61
303.738	101.72
303.952	36.18
304.166	66.9
304.381	-0.68
304.595	56.66
304.809	27.99
305.023	38.23
305.237	36.18
305.452	32.08
305.666	7.51
305.88	71
306.094	44.37
306.308	68.95
306.522	9.56
306.736	105.81
306.95	73.04
307.164	38.23
307.379	40.28
307.593	-0.68
307.807	19.8
308.021	89.43
308.235	75.09
308.449	-12.97
308.663	64.85
308.877	79.19
309.091	-4.78
309.305	81.24
309.519	50.52
309.733	32.08
309.947	-21.16
310.161	85.33
310.374	19.8
310.588	89.43
310.802	1.37
311.016	36.18
311.23	64.85
311.444	-33.45
311.658	56.66
311.872	44.37
312.085	114
312.299	44.37
312.513	62.8
312.727	36.18
312.941	-10.92
313.154	30.04
313.368	52.56
313.582	66.9
313.796	36.18
314.009	122.2
314.223	42.32
314.437	32.08
314.651	56.66
314.864	54.61
315.078	7.51
315.292	54.61
315.505	23.89
315.719	79.19
315.933	46.42
316.146	34.13
316.36	48.47
316.573	71
316.787	44.37
317.001	75.09
317.214	71
317.428	66.9
317.641	11.61
317.855	30.04
318.068	30.04
318.282	9.56
318.495	9.56
318.709	97.62
318.922	38.23
319.136	83.28
319.349	32.08
319.563	-10.92
319.776	73.04
319.99	9.56
320.203	83.28
320.417	19.8
320.63	23.89
320.843	-0.68
321.057	54.61
321.27	13.65
321.483	7.51
321.697	-82.6
321.91	27.99
322.124	68.95
322.337	38.23
322.55	13.65
322.763	44.37
322.977	36.18
323.19	19.8
323.403	60.76
323.617	30.04
323.83	34.13
324.043	13.65
324.256	62.8
324.469	-0.68
324.683	114
324.896	15.7
325.109	13.65
325.322	7.51
325.535	89.43
325.748	-4.78
325.962	38.23
326.175	11.61
326.388	79.19
326.601	9.56
326.814	9.56
327.027	-8.87
327.24	120.15
327.453	52.56
327.666	77.14
327.879	85.33
328.092	75.09
328.305	56.66
328.518	38.23
328.731	38.23
328.944	95.57
329.157	73.04
329.37	25.94
329.583	62.8
329.796	81.24
330.009	50.52
330.222	42.32
330.435	15.7
330.648	54.61
330.861	38.23
331.073	-10.92
331.286	-10.92
331.499	77.14
331.712	-23.21
331.925	21.85
332.138	-0.68
332.35	44.37
332.563	34.13
332.776	64.85
332.989	-8.87
333.202	1.37
333.414	-27.31
333.627	66.9
333.84	34.13
334.053	19.8
334.265	-21.16
334.478	64.85
334.691	32.08
334.903	40.28
335.116	30.04
335.329	-17.07
335.541	17.75
335.754	58.71
335.966	-27.31
336.179	44.37
336.392	9.56
336.604	93.52
336.817	15.7
337.029	105.81
337.242	85.33
337.454	3.41
337.667	48.47
337.88	21.85
338.092	32.08
338.305	21.85
338.517	13.65
338.729	50.52
338.942	44.37
339.154	21.85
339.367	-27.31
339.579	54.61
339.792	44.37
340.004	107.86
340.217	19.8
340.429	32.08
340.641	56.66
340.854	32.08
341.066	54.61
341.278	120.15
341.491	103.76
341.703	-8.87
341.915	-12.97
342.128	85.33
342.34	79.19
342.552	23.89
342.764	40.28
342.977	71
343.189	23.89
343.401	15.7
343.613	40.28
343.826	93.52
344.038	21.85
344.25	44.37
344.462	19.8
344.674	73.04
344.886	46.42
345.099	79.19
345.311	81.24
345.523	-0.68
345.735	-0.68
345.947	19.8
346.159	27.99
346.371	52.56
346.583	27.99
346.795	116.05
347.007	75.09
347.219	46.42
347.431	52.56
347.643	36.18
347.855	9.56
348.067	95.57
348.279	32.08
348.491	36.18
348.703	36.18
348.915	11.61
349.127	44.37
349.339	75.09
349.551	15.7
349.763	68.95
349.975	64.85
350.187	56.66
350.399	81.24
350.61	56.66
350.822	60.76
351.034	32.08
351.246	42.32
351.458	66.9
351.669	66.9
351.881	60.76
352.093	17.75
352.305	87.38
352.517	107.86
352.728	91.48
352.94	13.65
353.152	1.37
353.363	-0.68
353.575	-6.83
353.787	142.68
353.999	116.05
354.21	73.04
354.422	34.13
354.633	83.28
354.845	48.47
355.057	126.29
355.268	3.41
355.48	-33.45
355.692	58.71
355.903	111.96
356.115	95.57
356.326	9.56
356.538	130.39
356.749	146.77
356.961	87.38
357.172	-21.16
357.384	50.52
357.595	122.2
357.807	58.71
358.018	81.24
358.23	167.25
358.441	89.43
358.653	77.14
358.864	42.32
359.075	52.56
359.287	58.71
359.498	66.9
359.709	91.48
359.921	-10.92
360.132	23.89
360.344	68.95
360.555	58.71
360.766	54.61
360.977	-53.93
361.189	79.19
361.4	17.75
361.611	97.62
361.823	50.52
362.034	40.28
362.245	-45.74
362.456	58.71
362.667	91.48
362.879	19.8
363.09	99.67
363.301	77.14
363.512	34.13
363.723	-29.35
363.935	-6.83
364.146	97.62
364.357	42.32
364.568	54.61
364.779	40.28
364.99	101.72
365.201	87.38
365.412	95.57
365.623	-10.92
365.834	-10.92
366.045	64.85
366.256	58.71
366.467	21.85
366.678	95.57
366.889	30.04
367.1	-8.87
367.311	60.76
367.522	15.7
367.733	85.33
367.944	1.37
368.155	93.52
368.366	85.33
368.577	101.72
368.788	64.85
368.999	64.85
369.209	105.81
369.42	191.83
369.631	150.87
369.842	124.24
370.053	71
370.264	-12.97
370.474	56.66
370.685	118.1
370.896	99.67
371.107	46.42
371.317	85.33
371.528	48.47
371.739	58.71
371.95	44.37
372.16	95.57
372.371	1.37
372.582	130.39
372.792	77.14
373.003	3.41
373.214	111.96
373.424	107.86
373.635	15.7
373.846	73.04
374.056	17.75
374.267	154.96
374.477	21.85
374.688	52.56
374.898	17.75
375.109	79.19
375.319	97.62
375.53	64.85
375.74	159.06
375.951	97.62
376.161	25.94
376.372	66.9
376.582	44.37
376.793	-8.87
377.003	56.66
377.214	52.56
377.424	114
377.635	132.44
377.845	1.37
378.055	68.95
378.266	32.08
378.476	44.37
378.686	85.33
378.897	85.33
379.107	56.66
379.317	128.34
379.528	52.56
379.738	105.81
379.948	36.18
380.158	79.19
380.369	64.85
380.579	99.67
380.789	19.8
380.999	97.62
381.21	169.3
381.42	134.48
381.63	-17.07
381.84	32.08
382.05	9.56
382.261	23.89
382.471	68.95
382.681	83.28
382.891	107.86
383.101	54.61
383.311	9.56
383.521	25.94
383.731	97.62
383.941	-0.68
384.151	99.67
384.361	36.18
384.571	46.42
384.781	101.72
384.991	89.43
385.201	48.47
385.411	89.43
385.621	81.24
385.831	103.76
386.041	91.48
386.251	114
386.461	93.52
386.671	93.52
386.881	91.48
387.091	87.38
387.301	75.09
387.511	46.42
387.72	60.76
387.93	154.96
388.14	42.32
388.35	73.04
388.56	118.1
388.769	64.85
388.979	73.04
389.189	122.2
389.399	91.48
389.609	87.38
389.818	44.37
390.028	107.86
390.238	134.48
390.447	128.34
390.657	116.05
390.867	85.33
391.076	32.08
391.286	134.48
391.496	107.86
391.705	64.85
391.915	118.1
392.125	126.29
392.334	11.61
392.544	169.3
392.753	58.71
392.963	15.7
393.172	56.66
393.382	19.8
393.591	66.9
393.801	5.46
394.01	105.81
394.22	165.2
394.429	93.52
394.639	66.9
394.848	54.61
395.058	95.57
395.267	128.34
395.477	32.08
395.686	134.48
395.895	154.96
396.105	120.15
396.314	103.76
396.524	114
396.733	107.86
396.942	140.63
397.152	85.33
397.361	132.44
397.57	36.18
397.78	99.67
397.989	89.43
398.198	197.97
398.407	179.54
398.617	173.39
398.826	146.77
399.035	165.2
399.244	128.34
399.453	175.44
399.663	132.44
399.872	38.23
400.081	103.76
400.29	177.49
400.499	103.76
400.708	185.68
400.917	169.3
401.127	173.39
401.336	154.96
401.545	200.02
401.754	175.44
401.963	175.44
402.172	107.86
402.381	136.53
402.59	148.82
402.799	128.34
403.008	210.26
403.217	189.78
403.426	111.96
403.635	148.82
403.844	142.68
404.053	146.77
404.262	136.53
404.471	292.18
404.68	193.87
404.888	191.83
405.097	208.21
405.306	173.39
405.515	161.11
405.724	191.83
405.933	185.68
406.142	265.55
406.35	279.89
406.559	343.38
406.768	245.07
406.977	249.17
407.185	240.98
407.394	173.39
407.603	245.07
407.812	273.75
408.02	249.17
408.229	279.89
408.438	320.85
408.646	308.56
408.855	304.46
409.064	324.94
409.272	316.75
409.481	388.43
409.69	363.86
409.898	335.18
410.107	384.34
410.315	441.68
410.524	429.39
410.733	386.38
410.941	425.29
411.15	544.08
411.358	521.55
411.567	480.59
411.775	509.26
411.984	519.5
412.192	578.89
412.401	609.61
412.609	613.71
412.818	646.48
413.026	628.04
413.234	634.19
413.443	589.13
413.651	695.63
413.86	789.83
414.068	789.83
414.276	746.83
414.485	830.79
414.693	841.03
414.901	892.23
415.11	896.33
415.318	898.38
415.526	1029.45
415.734	922.95
415.943	1031.49
416.151	1062.21
416.359	1150.28
416.567	1088.84
416.776	1101.12
416.984	1187.14
417.192	1293.63
417.4	1246.53
417.608	1226.05
417.817	1383.74
418.025	1377.6
418.233	1473.85
418.441	1482.05
418.649	1582.4
418.857	1686.84
419.065	1715.52
419.273	1602.88
419.481	1711.42
419.689	1916.22
419.897	1887.54
420.105	1946.94
420.313	1989.94
420.521	1924.41
420.729	2176.31
420.937	2231.6
421.145	2239.8
421.353	2407.73
421.561	2497.84
421.769	2569.52
421.977	2653.48
422.185	2518.32
422.393	2831.66
422.601	3048.74
422.809	2966.82
423.017	2929.96
423.224	3175.72
423.432	3296.55
423.64	3296.55
423.848	3521.82
424.056	3511.58
424.263	3710.24
424.471	3716.38
424.679	3683.61
424.887	4025.62
425.094	4099.35
425.302	4134.17
425.51	4218.13
425.718	4554
425.925	4613.39
426.133	4769.04
426.341	4893.96
426.548	5080.33
426.756	5104.9
426.964	5172.49
427.171	5541.12
427.379	5649.66
427.586	5750.01
427.794	5887.23
428.001	6198.52
428.209	6382.84
428.417	6296.82
428.624	6943.98
428.832	6878.44
429.039	6798.57
429.247	6905.07
429.454	7597.28
429.662	8072.41
429.869	7488.74
430.076	8107.23
430.284	7804.13
430.491	8068.31
430.699	8416.47
430.906	8658.13
431.114	8611.03
431.321	8764.62
431.528	9159.88
431.736	9649.35
431.943	10290.36
432.15	9948.35
432.358	10161.34
432.565	10554.55
432.772	10411.19
432.979	10902.7
433.187	11175.08
433.394	11414.7
433.601	12221.59
433.808	12037.28
434.016	11877.54
434.223	12600.47
434.43	13159.56
434.637	12901.52
434.844	13859.97
435.052	14216.32
435.259	14009.47
435.466	14298.24
435.673	14126.21
435.88	15148.14
436.087	15866.98
436.294	15727.72
436.501	15268.97
436.708	15776.87
436.915	16378.97
437.122	17263.69
437.329	17044.56
437.537	17577.03
437.743	17927.24
437.95	17763.4
438.157	18490.43
438.364	19522.6
438.571	19149.87
438.778	19233.84
438.985	20884.5
439.192	20145.19
439.399	20917.27
439.606	20425.76
439.813	21814.28
440.02	23141.36
440.227	22309.89
440.433	22381.57
440.64	23161.84
440.847	23014.39
441.054	23571.44
441.261	25156.57
441.467	24863.71
441.674	25207.76
441.881	26047.43
442.088	25996.23
442.294	26024.9
442.501	26223.56
442.708	27216.82
442.914	28140.46
443.121	29305.75
443.328	28930.97
443.534	30327.69
443.741	29887.37
443.948	29291.41
444.154	31548.28
444.361	30911.36
444.568	31546.23
444.774	31888.24
444.981	31888.24
445.187	32926.56
445.394	34407.24
445.6	33459.03
445.807	37022.5
446.013	35175.23
446.22	36053.81
446.426	37327.64
446.633	37524.25
446.839	38804.23
447.046	37280.54
447.252	39158.53
447.459	39342.85
447.665	39166.72
447.871	40680.17
448.078	42136.27
448.284	40223.47
448.491	41786.07
448.697	43080.39
448.903	44006.07
449.11	43809.46
449.316	43117.25
449.522	43942.58
449.728	44874.41
449.935	45503.14
450.141	45529.76
450.347	46230.16
450.553	45052.58
450.76	45474.46
450.966	46772.88
451.172	46072.47
451.378	47211.14
451.584	46473.87
451.791	47424.13
451.997	47483.52
452.203	47456.9
452.409	47884.92
452.615	47702.65
452.821	45804.19
453.027	45888.15
453.233	47573.63
453.44	45509.28
453.646	46420.62
453.852	46367.38
454.058	47106.69
454.264	45634.21
454.47	46561.93
454.676	45609.63
454.882	46678.67
455.088	42437.33
455.294	43647.68
455.5	43999.93
455.705	44378.8
455.911	42562.25
456.117	41972.44
456.323	41097.95
456.529	38771.46
456.735	40452.84
456.941	39121.66
457.147	38642.44
457.352	37917.46
457.558	37172
457.764	37069.6
457.97	36750.12
458.176	35273.53
458.381	35832.63
458.587	34011.98
458.793	33999.69
458.999	32168.81
459.204	34501.45
459.41	33637.2
459.616	31691.63
459.821	31376.25
460.027	30983.04
460.233	30653.31
460.438	28775.33
460.644	29442.96
460.85	27902.89
461.055	27407.28
461.261	27489.2
461.466	25643.98
461.672	24681.44
461.878	26354.63
462.083	24789.98
462.289	24591.33
462.494	23882.73
462.7	23165.94
462.905	22377.47
463.111	23462.9
463.316	23264.24
463.522	22799.35
463.727	22969.33
463.932	22543.36
464.138	22627.32
464.343	22367.23
464.549	22033.41
464.754	22977.53
464.959	22549.5
465.165	22311.94
465.37	21394.45
465.575	21027.86
465.781	21619.72
465.986	21797.9
466.191	20962.33
466.397	20714.52
466.602	19637.29
466.807	20448.29
467.012	20442.14
467.218	20184.1
467.423	20114.47
467.628	20427.81
467.833	21031.96
