Data from USB4F104151__79__10-24-13-361.txt Node

Date: Wed Mar 12 10:24:13 EDT 2025
User: louis
Spectrometer: USB4F10415
Trigger mode: 4
Integration Time (sec): 3.000000E-2
Scans to average: 1
Electric dark correction enabled: true
Nonlinearity correction enabled: false
Boxcar width: 0
XAxis mode: Wavelengths
Number of Pixels in Spectrum: 3648
>>>>>Begin Spectral Data<<<<<
178.204	-105.13
178.424	-105.13
178.644	-105.13
178.864	-96.94
179.084	-154.28
179.304	-23.21
179.524	52.56
179.744	-25.26
179.964	40.28
180.184	-6.83
180.404	19.8
180.624	19.8
180.844	-4.78
181.064	-58.03
181.283	17.75
181.503	-68.27
181.723	36.18
181.943	-0.68
182.163	-17.07
182.383	9.56
182.602	11.61
182.822	27.99
183.042	-6.83
183.262	46.42
183.482	9.56
183.701	68.95
183.921	34.13
184.141	34.13
184.361	105.81
184.58	68.95
184.8	83.28
185.02	30.04
185.239	142.68
185.459	48.47
185.679	46.42
185.898	23.89
186.118	36.18
186.338	27.99
186.557	27.99
186.777	25.94
186.997	44.37
187.216	-29.35
187.436	208.21
187.655	64.85
187.875	85.33
188.095	66.9
188.314	54.61
188.534	19.8
188.753	-0.68
188.973	-21.16
189.192	85.33
189.412	68.95
189.631	54.61
189.851	-6.83
190.07	15.7
190.29	19.8
190.509	-19.11
190.729	11.61
190.948	150.87
191.168	107.86
191.387	27.99
191.607	1.37
191.826	42.32
192.045	27.99
192.265	-8.87
192.484	36.18
192.704	25.94
192.923	36.18
193.142	99.67
193.362	36.18
193.581	134.48
193.8	21.84
194.02	97.62
194.239	-23.21
194.458	83.28
194.678	73.04
194.897	11.61
195.116	48.47
195.335	60.76
195.555	58.71
195.774	15.7
195.993	36.18
196.212	32.08
196.432	60.76
196.651	81.24
196.87	36.18
197.089	93.52
197.308	109.91
197.528	95.57
197.747	-15.02
197.966	142.68
198.185	81.24
198.404	-12.97
198.623	-23.21
198.842	150.87
199.062	85.33
199.281	95.57
199.5	36.18
199.719	11.61
199.938	42.32
200.157	99.67
200.376	75.09
200.595	146.77
200.814	68.95
201.033	97.62
201.252	66.9
201.471	60.76
201.69	58.71
201.909	-12.97
202.128	56.66
202.347	136.53
202.566	116.05
202.785	-19.11
203.004	52.56
203.223	56.66
203.442	36.18
203.661	21.84
203.879	77.14
204.098	17.75
204.317	30.04
204.536	97.62
204.755	7.51
204.974	48.47
205.193	-33.45
205.411	130.39
205.63	77.14
205.849	21.84
206.068	-0.68
206.287	105.81
206.505	17.75
206.724	52.56
206.943	79.19
207.162	11.61
207.381	36.18
207.599	-10.92
207.818	62.8
208.037	-0.68
208.255	89.43
208.474	-29.35
208.693	-4.78
208.911	50.52
209.13	27.99
209.349	13.65
209.567	19.8
209.786	159.06
210.005	68.95
210.223	68.95
210.442	34.13
210.661	-33.45
210.879	118.1
211.098	-33.45
211.316	11.61
211.535	81.24
211.753	58.71
211.972	109.91
212.191	38.23
212.409	52.56
212.628	101.72
212.846	87.38
213.065	11.61
213.283	101.72
213.502	38.23
213.72	36.18
213.938	36.18
214.157	25.94
214.375	118.1
214.594	85.33
214.812	83.28
215.031	3.41
215.249	-21.16
215.467	-4.78
215.686	27.99
215.904	-0.68
216.122	68.95
216.341	97.62
216.559	-37.55
216.778	109.91
216.996	19.8
217.214	9.56
217.432	27.99
217.651	11.61
217.869	19.8
218.087	46.42
218.306	132.44
218.524	81.24
218.742	21.84
218.96	114
219.179	71
219.397	75.09
219.615	138.58
219.833	68.95
220.051	11.61
220.27	103.76
220.488	34.13
220.706	66.9
220.924	44.37
221.142	52.56
221.36	66.9
221.578	122.2
221.796	34.13
222.015	71
222.233	83.28
222.451	142.68
222.669	-45.74
222.887	60.76
223.105	-33.45
223.323	46.42
223.541	-37.55
223.759	34.13
223.977	17.75
224.195	138.58
224.413	-4.78
224.631	52.56
224.849	-4.78
225.067	52.56
225.285	21.84
225.503	-10.92
225.721	11.61
225.939	58.71
226.157	95.57
226.375	152.91
226.592	7.51
226.81	13.65
227.028	21.84
227.246	122.2
227.464	36.18
227.682	83.28
227.9	50.52
228.117	77.14
228.335	60.76
228.553	56.66
228.771	85.33
228.989	68.95
229.206	40.28
229.424	68.95
229.642	27.99
229.86	32.08
230.077	152.91
230.295	40.28
230.513	109.91
230.731	75.09
230.948	-29.35
231.166	75.09
231.384	146.77
231.601	58.71
231.819	93.52
232.037	1.37
232.254	81.24
232.472	93.52
232.689	21.84
232.907	34.13
233.125	85.33
233.342	11.61
233.56	66.9
233.777	118.1
233.995	89.43
234.213	93.52
234.43	56.66
234.648	36.18
234.865	15.7
235.083	52.56
235.3	46.42
235.518	124.24
235.735	36.18
235.953	54.61
236.17	83.28
236.388	44.37
236.605	1.37
236.822	85.33
237.04	11.61
237.257	60.76
237.475	-21.16
237.692	75.09
237.909	68.95
238.127	27.99
238.344	58.71
238.562	27.99
238.779	-41.64
238.996	36.18
239.214	46.42
239.431	58.71
239.648	40.28
239.865	36.18
240.083	7.51
240.3	11.61
240.517	-43.69
240.735	44.37
240.952	38.23
241.169	19.8
241.386	17.75
241.603	52.56
241.821	-23.21
242.038	58.71
242.255	27.99
242.472	50.52
242.689	34.13
242.907	44.37
243.124	60.76
243.341	34.13
243.558	-47.79
243.775	-10.92
243.992	13.65
244.209	60.76
244.426	130.39
244.643	99.67
244.86	13.65
245.078	152.91
245.295	36.18
245.512	42.32
245.729	42.32
245.946	56.66
246.163	52.56
246.38	52.56
246.597	40.28
246.814	34.13
247.031	97.62
247.248	109.91
247.464	46.42
247.681	17.75
247.898	105.81
248.115	17.75
248.332	11.61
248.549	25.94
248.766	71
248.983	75.09
249.2	103.76
249.417	73.04
249.633	17.75
249.85	32.08
250.067	11.61
250.284	34.13
250.501	40.28
250.717	66.9
250.934	9.56
251.151	73.04
251.368	-8.87
251.585	58.71
251.801	21.84
252.018	5.46
252.235	73.04
252.451	-49.83
252.668	-4.78
252.885	87.38
253.102	17.75
253.318	46.42
253.535	32.08
253.752	-8.87
253.968	17.75
254.185	17.75
254.401	89.43
254.618	3.41
254.835	68.95
255.051	44.37
255.268	11.61
255.484	87.38
255.701	-19.11
255.917	21.84
256.134	56.66
256.351	73.04
256.567	85.33
256.784	85.33
257	-15.02
257.217	48.47
257.433	7.51
257.65	60.76
257.866	99.67
258.082	68.95
258.299	17.75
258.515	89.43
258.732	-21.16
258.948	21.84
259.165	-4.78
259.381	42.32
259.597	15.7
259.814	97.62
260.03	56.66
260.246	-12.97
260.463	93.52
260.679	103.76
260.895	54.61
261.112	-4.78
261.328	73.04
261.544	15.7
261.761	126.29
261.977	42.32
262.193	71
262.409	60.76
262.626	13.65
262.842	118.1
263.058	27.99
263.274	34.13
263.49	79.19
263.707	118.1
263.923	93.52
264.139	19.8
264.355	130.39
264.571	36.18
264.787	122.2
265.004	134.48
265.22	75.09
265.436	-4.78
265.652	66.9
265.868	32.08
266.084	56.66
266.3	54.61
266.516	75.09
266.732	15.7
266.948	103.76
267.164	85.33
267.38	116.05
267.596	-6.83
267.812	89.43
268.028	38.23
268.244	25.94
268.46	17.75
268.676	101.72
268.892	56.66
269.108	60.76
269.324	-2.73
269.54	68.95
269.756	136.53
269.972	40.28
270.188	5.46
270.403	56.66
270.619	60.76
270.835	36.18
271.051	3.41
271.267	44.37
271.483	73.04
271.698	21.84
271.914	136.53
272.13	93.52
272.346	9.56
272.562	62.8
272.777	56.66
272.993	34.13
273.209	105.81
273.425	48.47
273.64	81.24
273.856	114
274.072	79.19
274.287	83.28
274.503	114
274.719	-4.78
274.934	118.1
275.15	-27.31
275.366	77.14
275.581	19.8
275.797	40.28
276.012	48.47
276.228	-37.55
276.444	81.24
276.659	114
276.875	23.89
277.09	95.57
277.306	36.18
277.521	109.91
277.737	21.84
277.952	54.61
278.168	50.52
278.383	73.04
278.599	87.38
278.814	54.61
279.03	44.37
279.245	66.9
279.461	64.85
279.676	40.28
279.892	44.37
280.107	75.09
280.322	48.47
280.538	75.09
280.753	52.56
280.969	81.24
281.184	56.66
281.399	50.52
281.615	71
281.83	30.04
282.045	36.18
282.26	66.9
282.476	93.52
282.691	107.86
282.906	56.66
283.122	36.18
283.337	66.9
283.552	99.67
283.767	-0.68
283.983	52.56
284.198	97.62
284.413	15.7
284.628	25.94
284.843	46.42
285.058	42.32
285.274	93.52
285.489	13.65
285.704	54.61
285.919	-15.02
286.134	62.8
286.349	-15.02
286.564	73.04
286.779	103.76
286.995	109.91
287.21	36.18
287.425	-39.59
287.64	64.85
287.855	36.18
288.07	93.52
288.285	44.37
288.5	109.91
288.715	7.51
288.93	83.28
289.145	40.28
289.36	85.33
289.575	60.76
289.79	48.47
290.004	68.95
290.219	66.9
290.434	62.8
290.649	54.61
290.864	56.66
291.079	27.99
291.294	23.89
291.509	66.9
291.724	25.94
291.938	50.52
292.153	99.67
292.368	25.94
292.583	105.81
292.798	77.14
293.012	79.19
293.227	42.32
293.442	19.8
293.657	109.91
293.871	75.09
294.086	101.72
294.301	56.66
294.516	73.04
294.73	-31.4
294.945	9.56
295.16	48.47
295.374	68.95
295.589	77.14
295.804	60.76
296.018	7.51
296.233	79.19
296.447	64.85
296.662	36.18
296.877	34.13
297.091	42.32
297.306	-8.87
297.52	52.56
297.735	36.18
297.949	5.46
298.164	114
298.378	38.23
298.593	19.8
298.807	81.24
299.022	-15.02
299.236	60.76
299.451	81.24
299.665	71
299.88	77.14
300.094	48.47
300.309	7.51
300.523	52.56
300.737	64.85
300.952	66.9
301.166	93.52
301.381	-6.83
301.595	68.95
301.809	87.38
302.024	-21.16
302.238	3.41
302.452	87.38
302.667	34.13
302.881	132.44
303.095	85.33
303.309	17.75
303.524	68.95
303.738	17.75
303.952	36.18
304.166	68.95
304.381	-19.11
304.595	105.81
304.809	62.8
305.023	105.81
305.237	85.33
305.452	-4.78
305.666	40.28
305.88	93.52
306.094	48.47
306.308	83.28
306.522	52.56
306.736	42.32
306.95	66.9
307.164	75.09
307.379	77.14
307.593	40.28
307.807	114
308.021	114
308.235	87.38
308.449	46.42
308.663	-21.16
308.877	120.15
309.091	7.51
309.305	56.66
309.519	13.65
309.733	134.48
309.947	-2.73
310.161	-47.79
310.374	36.18
310.588	93.52
310.802	56.66
311.016	38.23
311.23	116.05
311.444	-29.35
311.658	48.47
311.872	44.37
312.085	111.96
312.299	66.9
312.513	34.13
312.727	60.76
312.941	-29.35
313.154	42.32
313.368	93.52
313.582	77.14
313.796	101.72
314.009	64.85
314.223	109.91
314.437	40.28
314.651	75.09
314.864	73.04
315.078	44.37
315.292	30.04
315.505	66.9
315.719	107.86
315.933	130.39
316.146	60.76
316.36	46.42
316.573	122.2
316.787	118.1
317.001	71
317.214	17.75
317.428	3.41
317.641	40.28
317.855	97.62
318.068	46.42
318.282	101.72
318.495	130.39
318.709	85.33
318.922	66.9
319.136	148.82
319.349	101.72
319.563	66.9
319.776	56.66
319.99	11.61
320.203	101.72
320.417	146.77
320.63	75.09
320.843	105.81
321.057	146.77
321.27	81.24
321.483	126.29
321.697	81.24
321.91	144.72
322.124	64.85
322.337	83.28
322.55	56.66
322.763	93.52
322.977	34.13
323.19	21.84
323.403	44.37
323.617	25.94
323.83	144.72
324.043	118.1
324.256	109.91
324.469	122.2
324.683	36.18
324.896	13.65
325.109	103.76
325.322	17.75
325.535	75.09
325.748	118.1
325.962	132.44
326.175	114
326.388	17.75
326.601	38.23
326.814	83.28
327.027	91.48
327.24	87.38
327.453	77.14
327.666	62.8
327.879	44.37
328.092	132.44
328.305	114
328.518	44.37
328.731	-23.21
328.944	83.28
329.157	68.95
329.37	83.28
329.583	124.24
329.796	157.01
330.009	40.28
330.222	118.1
330.435	89.43
330.648	81.24
330.861	71
331.073	68.95
331.286	146.77
331.499	97.62
331.712	1.37
331.925	19.8
332.138	64.85
332.35	93.52
332.563	48.47
332.776	105.81
332.989	120.15
333.202	-15.02
333.414	60.76
333.627	-23.21
333.84	99.67
334.053	17.75
334.265	19.8
334.478	19.8
334.691	25.94
334.903	48.47
335.116	95.57
335.329	-82.6
335.541	73.04
335.754	89.43
335.966	-2.73
336.179	103.76
336.392	25.94
336.604	77.14
336.817	81.24
337.029	58.71
337.242	21.84
337.454	85.33
337.667	60.76
337.88	142.68
338.092	52.56
338.305	93.52
338.517	27.99
338.729	62.8
338.942	144.72
339.154	73.04
339.367	21.84
339.579	62.8
339.792	124.24
340.004	75.09
340.217	9.56
340.429	44.37
340.641	-0.68
340.854	50.52
341.066	17.75
341.278	34.13
341.491	101.72
341.703	56.66
341.915	60.76
342.128	142.68
342.34	124.24
342.552	75.09
342.764	83.28
342.977	130.39
343.189	75.09
343.401	64.85
343.613	36.18
343.826	200.02
344.038	7.51
344.25	75.09
344.462	89.43
344.674	40.28
344.886	42.32
345.099	40.28
345.311	142.68
345.523	42.32
345.735	44.37
345.947	56.66
346.159	75.09
346.371	157.01
346.583	36.18
346.795	120.15
347.007	109.91
347.219	97.62
347.431	73.04
347.643	75.09
347.855	109.91
348.067	161.11
348.279	71
348.491	13.65
348.703	30.04
348.915	19.8
349.127	32.08
349.339	126.29
349.551	11.61
349.763	77.14
349.975	89.43
350.187	97.62
350.399	146.77
350.61	42.32
350.822	77.14
351.034	42.32
351.246	134.48
351.458	87.38
351.669	79.19
351.881	130.39
352.093	40.28
352.305	159.06
352.517	40.28
352.728	71
352.94	111.96
353.152	34.13
353.363	99.67
353.575	62.8
353.787	71
353.999	116.05
354.21	120.15
354.422	44.37
354.633	36.18
354.845	11.61
355.057	99.67
355.268	11.61
355.48	95.57
355.692	93.52
355.903	64.85
356.115	77.14
356.326	-12.97
356.538	130.39
356.749	116.05
356.961	136.53
357.172	77.14
357.384	42.32
357.595	126.29
357.807	83.28
358.018	73.04
358.23	128.34
358.441	179.54
358.653	116.05
358.864	52.56
359.075	79.19
359.287	73.04
359.498	52.56
359.709	52.56
359.921	34.13
360.132	66.9
360.344	77.14
360.555	114
360.766	77.14
360.977	7.51
361.189	116.05
361.4	11.61
361.611	83.28
361.823	126.29
362.034	73.04
362.245	54.61
362.456	89.43
362.667	75.09
362.879	21.84
363.09	58.71
363.301	83.28
363.512	75.09
363.723	46.42
363.935	-31.4
364.146	101.72
364.357	128.34
364.568	111.96
364.779	19.8
364.99	58.71
365.201	52.56
365.412	64.85
365.623	77.14
365.834	103.76
366.045	56.66
366.256	128.34
366.467	120.15
366.678	60.76
366.889	32.08
367.1	95.57
367.311	81.24
367.522	-37.55
367.733	118.1
367.944	66.9
368.155	116.05
368.366	142.68
368.577	126.29
368.788	60.76
368.999	34.13
369.209	126.29
369.42	68.95
369.631	148.82
369.842	21.84
370.053	101.72
370.264	87.38
370.474	130.39
370.685	116.05
370.896	-17.07
371.107	120.15
371.317	25.94
371.528	73.04
371.739	118.1
371.95	58.71
372.16	101.72
372.371	48.47
372.582	77.14
372.792	105.81
373.003	68.95
373.214	95.57
373.424	62.8
373.635	73.04
373.846	97.62
374.056	44.37
374.267	52.56
374.477	17.75
374.688	97.62
374.898	107.86
375.109	134.48
375.319	116.05
375.53	124.24
375.74	120.15
375.951	52.56
376.161	25.94
376.372	60.76
376.582	89.43
376.793	146.77
377.003	66.9
377.214	97.62
377.424	68.95
377.635	64.85
377.845	48.47
378.055	85.33
378.266	38.23
378.476	83.28
378.686	83.28
378.897	75.09
379.107	116.05
379.317	150.87
379.528	85.33
379.738	87.38
379.948	62.8
380.158	120.15
380.369	185.68
380.579	23.89
380.789	36.18
380.999	105.81
381.21	62.8
381.42	95.57
381.63	83.28
381.84	71
382.05	79.19
382.261	77.14
382.471	89.43
382.681	19.8
382.891	136.53
383.101	107.86
383.311	77.14
383.521	64.85
383.731	30.04
383.941	118.1
384.151	116.05
384.361	58.71
384.571	165.2
384.781	118.1
384.991	152.91
385.201	107.86
385.411	56.66
385.621	38.23
385.831	56.66
386.041	93.52
386.251	64.85
386.461	93.52
386.671	68.95
386.881	93.52
387.091	79.19
387.301	66.9
387.511	23.89
387.72	101.72
387.93	48.47
388.14	66.9
388.35	44.37
388.56	97.62
388.769	111.96
388.979	36.18
389.189	114
389.399	105.81
389.609	73.04
389.818	122.2
390.028	52.56
390.238	87.38
390.447	95.57
390.657	109.91
390.867	85.33
391.076	23.89
391.286	93.52
391.496	114
391.705	64.85
391.915	132.44
392.125	128.34
392.334	79.19
392.544	122.2
392.753	64.85
392.963	120.15
393.172	114
393.382	87.38
393.591	216.4
393.801	89.43
394.01	165.2
394.22	81.24
394.429	93.52
394.639	124.24
394.848	77.14
395.058	89.43
395.267	101.72
395.477	105.81
395.686	150.87
395.895	189.78
396.105	146.77
396.314	107.86
396.524	163.15
396.733	101.72
396.942	136.53
397.152	109.91
397.361	132.44
397.57	150.87
397.78	140.63
397.989	75.09
398.198	114
398.407	77.14
398.617	238.93
398.826	150.87
399.035	91.48
399.244	171.35
399.453	200.02
399.663	173.39
399.872	173.39
400.081	150.87
400.29	177.49
400.499	114
400.708	200.02
400.917	154.96
401.127	206.16
401.336	130.39
401.545	234.83
401.754	97.62
401.963	200.02
402.172	175.44
402.381	142.68
402.59	189.78
402.799	224.59
403.008	318.8
403.217	132.44
403.426	214.35
403.635	224.59
403.844	236.88
404.053	265.55
404.262	214.35
404.471	230.74
404.68	216.4
404.888	204.11
405.097	179.54
405.306	200.02
405.515	257.36
405.724	169.3
405.933	245.07
406.142	341.33
406.35	290.13
406.559	214.35
406.768	200.02
406.977	292.18
407.185	290.13
407.394	298.32
407.603	320.85
407.812	300.37
408.02	363.86
408.229	245.07
408.438	339.28
408.646	351.57
408.855	359.76
409.064	494.93
409.272	376.14
409.481	433.49
409.69	451.92
409.898	503.12
410.107	472.4
410.315	517.45
410.524	501.07
410.733	517.45
410.941	539.98
411.15	564.56
411.358	550.22
411.567	550.22
411.775	562.51
411.984	658.76
412.192	589.13
412.401	648.52
412.609	666.96
412.818	671.05
413.026	828.74
413.234	621.9
413.443	728.39
413.651	705.87
413.86	808.26
414.068	869.7
414.276	908.62
414.485	888.14
414.693	970.05
414.901	1039.69
415.11	1027.4
415.318	1043.78
415.526	1031.49
415.734	1090.88
415.943	1113.41
416.151	1166.66
416.359	1140.04
416.567	1191.24
416.776	1314.11
416.984	1330.5
417.192	1426.75
417.4	1344.83
417.608	1422.66
417.817	1477.95
418.025	1566.01
418.233	1721.66
418.441	1570.11
418.649	1686.84
418.857	1832.25
419.065	1838.39
419.273	1856.82
419.481	1965.37
419.689	2049.33
419.897	2157.88
420.105	2153.78
420.313	2184.5
420.521	2362.67
420.729	2407.73
420.937	2475.31
421.145	2501.94
421.353	2696.49
421.561	2723.12
421.769	2764.08
421.977	3009.83
422.185	2827.56
422.393	3192.1
422.601	3276.07
422.809	3263.78
423.017	3327.27
423.224	3415.33
423.432	3478.82
423.64	3638.56
423.848	3822.88
424.056	3814.68
424.263	4097.3
424.471	4003.1
424.679	4168.98
424.887	4371.73
425.094	4392.21
425.302	4506.9
425.51	4662.54
425.718	5012.74
425.925	4988.17
426.133	5149.96
426.341	5442.82
426.548	5451.01
426.756	5657.85
426.964	5629.18
427.171	6083.83
427.379	6223.09
427.586	6016.25
427.794	6497.52
428.001	6943.98
428.209	7040.23
428.417	6896.88
428.624	7347.43
428.832	7417.06
429.039	7447.78
429.247	7587.04
429.454	8035.55
429.662	8744.14
429.869	7865.57
430.076	8584.4
430.284	8318.17
430.491	8787.15
430.699	9118.92
430.906	9143.5
431.114	9342.15
431.321	9581.76
431.528	9761.98
431.736	10421.43
431.943	10824.88
432.15	10724.53
432.358	10757.3
432.565	11498.66
432.772	11537.57
432.979	12010.65
433.187	12135.58
433.394	11973.79
433.601	13046.93
433.808	13221
434.016	12899.47
434.223	13534.34
434.43	14345.34
434.637	14236.8
434.844	14781.56
435.052	15295.6
435.259	15117.42
435.466	15332.46
435.673	15121.52
435.88	16092.26
436.087	16981.07
436.294	16733.27
436.501	16598.1
436.708	16546.9
436.915	17333.32
437.122	18312.25
437.329	18050.11
437.537	18779.19
437.743	18912.31
437.95	18619.45
438.157	19674.15
438.364	20210.72
438.571	20696.09
438.778	20597.79
438.985	22250.5
439.192	21451.79
439.399	22242.31
439.606	21474.32
439.813	22895.61
440.02	24171.49
440.227	23804.91
440.433	23458.8
440.64	24703.96
440.847	24214.5
441.054	25041.88
441.261	26270.66
441.467	26069.96
441.674	26741.69
441.881	27927.47
442.088	27732.91
442.294	27200.44
442.501	28046.25
442.708	28566.43
442.914	29928.33
443.121	30696.32
443.328	30299.01
443.534	32035.69
443.741	31277.94
443.948	30845.82
444.154	33168.22
444.361	32791.39
444.568	33258.33
444.774	32588.64
444.981	33387.35
445.187	34505.54
445.394	35672.88
445.6	35261.24
445.807	38894.34
446.013	37239.58
446.22	37686.04
446.426	39211.77
446.633	38998.79
446.839	40452.84
447.046	39090.94
447.252	40925.92
447.459	41034.47
447.665	40870.63
447.871	42613.45
448.078	44204.72
448.284	41923.29
448.491	43442.88
448.697	45056.68
448.903	45599.39
449.11	45413.02
449.316	44374.7
449.522	45785.75
449.728	46922.38
449.935	47334.02
450.141	46840.46
450.347	48091.77
450.553	46660.24
450.76	47010.44
450.966	48497.27
451.172	47764.09
451.378	49445.47
451.584	48587.38
451.791	49050.22
451.997	48609.9
452.203	49721.95
452.409	49394.28
452.615	49021.55
452.821	47364.74
453.027	47024.78
453.233	49422.95
453.44	47497.86
453.646	47948.41
453.852	48138.87
454.058	48890.48
454.264	47293.06
454.47	48431.73
454.676	46977.67
454.882	48956.01
455.088	44733.1
455.294	44757.67
455.5	45945.5
455.705	46367.38
455.911	44249.78
456.117	43438.78
456.323	43072.2
456.529	40346.35
456.735	42357.45
456.941	40948.45
457.147	40545
457.352	39324.41
457.558	38791.94
457.764	39047.94
457.97	37976.85
458.176	37245.72
458.381	37548.82
458.587	34970.43
458.793	35445.56
458.999	33647.44
459.204	35951.41
459.41	35175.23
459.616	33137.5
459.821	32834.4
460.027	32707.43
460.233	31998.83
460.438	30339.97
460.644	30671.75
460.85	29494.16
461.055	29164.44
461.261	28935.07
461.466	26715.07
461.672	25887.69
461.878	27952.04
462.083	26014.66
462.289	25449.42
462.494	25377.75
462.7	24300.51
462.905	23489.52
463.111	24191.97
463.316	23966.7
463.522	23903.21
463.727	24075.24
463.932	23718.89
464.138	23761.9
464.343	23798.76
464.549	22948.86
464.754	23798.76
464.959	23780.33
465.165	23522.29
465.37	22512.64
465.575	21822.47
465.781	22668.28
465.986	22748.15
466.191	22057.99
466.397	21570.57
466.602	20487.2
466.807	21509.13
