Data from USB4F104151__207__10-29-50-943.txt Node

Date: Wed Mar 12 10:29:50 EDT 2025
User: louis
Spectrometer: USB4F10415
Trigger mode: 4
Integration Time (sec): 3.000000E-2
Scans to average: 1
Electric dark correction enabled: true
Nonlinearity correction enabled: false
Boxcar width: 0
XAxis mode: Wavelengths
Number of Pixels in Spectrum: 3648
>>>>>Begin Spectral Data<<<<<
178.204	-160.08
178.424	-160.08
178.644	-160.08
178.864	-131.41
179.084	-131.41
179.304	28.33
179.524	11.95
179.744	52.91
179.964	7.85
180.184	-6.49
180.404	28.33
180.624	9.9
180.844	-69.97
181.064	-72.02
181.283	1.71
181.503	18.09
181.723	-10.58
181.943	-59.73
182.163	132.78
182.383	61.1
182.602	-47.44
182.822	9.9
183.042	52.91
183.262	-14.68
183.482	75.43
183.701	-39.25
183.921	9.9
184.141	30.38
184.361	-6.49
184.58	9.9
184.8	65.19
185.02	26.28
185.239	69.29
185.459	-51.54
185.679	104.11
185.898	9.9
186.118	42.67
186.338	-16.73
186.557	104.11
186.777	-20.82
186.997	57
187.216	34.47
187.436	48.81
187.655	-4.44
187.875	-10.58
188.095	-24.92
188.314	65.19
188.534	57
188.753	54.95
188.973	44.71
189.192	73.39
189.412	54.95
189.631	1.71
189.851	-0.34
190.07	100.01
190.29	-6.49
190.509	9.9
190.729	-12.63
190.948	71.34
191.168	95.91
191.387	59.05
191.607	13.99
191.826	7.85
192.045	52.91
192.265	-39.25
192.484	87.72
192.704	-22.87
192.923	-61.78
193.142	50.86
193.362	13.99
193.581	50.86
193.8	40.62
194.02	18.09
194.239	-41.3
194.458	54.95
194.678	-10.58
194.897	-8.53
195.116	-6.49
195.335	63.15
195.555	59.05
195.774	13.99
195.993	-2.39
196.212	7.85
196.432	-26.96
196.651	16.04
196.87	20.14
197.089	124.58
197.308	-10.58
197.528	38.57
197.747	-4.44
197.966	46.76
198.185	-6.49
198.404	-24.92
198.623	32.43
198.842	48.81
199.062	63.15
199.281	77.48
199.5	36.52
199.719	-4.44
199.938	28.33
200.157	34.47
200.376	-4.44
200.595	26.28
200.814	-31.06
201.033	24.23
201.252	11.95
201.471	11.95
201.69	59.05
201.909	24.23
202.128	-8.53
202.347	28.33
202.566	3.75
202.785	-59.73
203.004	38.57
203.223	69.29
203.442	-51.54
203.661	-37.2
203.879	59.05
204.098	77.48
204.317	-61.78
204.536	42.67
204.755	54.95
204.974	77.48
205.193	22.19
205.411	38.57
205.63	38.57
205.849	-37.2
206.068	52.91
206.287	-6.49
206.505	26.28
206.724	24.23
206.943	-0.34
207.162	18.09
207.381	-4.44
207.599	22.19
207.818	16.04
208.037	71.34
208.255	-63.83
208.474	-41.3
208.693	-10.58
208.911	38.57
209.13	46.76
209.349	52.91
209.567	9.9
209.786	13.99
210.005	13.99
210.223	-2.39
210.442	-18.77
210.661	59.05
210.879	-41.3
211.098	50.86
211.316	75.43
211.535	28.33
211.753	30.38
211.972	-12.63
212.191	-37.2
212.409	42.67
212.628	16.04
212.846	-39.25
213.065	-14.68
213.283	9.9
213.502	36.52
213.72	1.71
213.938	-2.39
214.157	30.38
214.375	67.24
214.594	-18.77
214.812	69.29
215.031	63.15
215.249	40.62
215.467	44.71
215.686	16.04
215.904	36.52
216.122	-10.58
216.341	28.33
216.559	71.34
216.778	42.67
216.996	46.76
217.214	-37.2
217.432	-6.49
217.651	13.99
217.869	22.19
218.087	50.86
218.306	38.57
218.524	20.14
218.742	26.28
218.96	28.33
219.179	1.71
219.397	16.04
219.615	140.97
219.833	54.95
220.051	-26.96
220.27	67.24
220.488	63.15
220.706	28.33
220.924	-67.92
221.142	26.28
221.36	77.48
221.578	-8.53
221.796	-16.73
222.015	-53.59
222.233	-61.78
222.451	83.63
222.669	42.67
222.887	26.28
223.105	46.76
223.323	65.19
223.541	16.04
223.759	71.34
223.977	79.53
224.195	16.04
224.413	-33.11
224.631	102.06
224.849	-24.92
225.067	149.16
225.285	32.43
225.503	30.38
225.721	-31.06
225.939	38.57
226.157	40.62
226.375	83.63
226.592	1.71
226.81	34.47
227.028	118.44
227.246	93.87
227.464	-12.63
227.682	104.11
227.9	32.43
228.117	36.52
228.335	-12.63
228.553	1.71
228.771	38.57
228.989	-2.39
229.206	5.8
229.424	-18.77
229.642	-35.16
229.86	-67.92
230.077	102.06
230.295	16.04
230.513	9.9
230.731	89.77
230.948	52.91
231.166	44.71
231.384	-84.31
231.601	32.43
231.819	1.71
232.037	38.57
232.254	30.38
232.472	-14.68
232.689	16.04
232.907	30.38
233.125	-39.25
233.342	13.99
233.56	-88.4
233.777	38.57
233.995	20.14
234.213	52.91
234.43	3.75
234.648	13.99
234.865	-18.77
235.083	42.67
235.3	93.87
235.518	7.85
235.735	-14.68
235.953	42.67
236.17	34.47
236.388	24.23
236.605	20.14
236.822	87.72
237.04	50.86
237.257	-18.77
237.475	-80.21
237.692	26.28
237.909	-14.68
238.127	26.28
238.344	13.99
238.562	7.85
238.779	-26.96
238.996	-2.39
239.214	87.72
239.431	-43.35
239.648	-31.06
239.865	11.95
240.083	44.71
240.3	-0.34
240.517	28.33
240.735	-26.96
240.952	22.19
241.169	95.91
241.386	28.33
241.603	9.9
241.821	48.81
242.038	79.53
242.255	-14.68
242.472	20.14
242.689	69.29
242.907	28.33
243.124	-4.44
243.341	30.38
243.558	9.9
243.775	11.95
243.992	-4.44
244.209	-10.58
244.426	95.91
244.643	44.71
244.86	-6.49
245.078	110.25
245.295	71.34
245.512	59.05
245.729	-69.97
245.946	28.33
246.163	-18.77
246.38	87.72
246.597	-12.63
246.814	20.14
247.031	30.38
247.248	50.86
247.464	20.14
247.681	44.71
247.898	93.87
248.115	-4.44
248.332	-29.01
248.549	59.05
248.766	11.95
248.983	71.34
249.2	5.8
249.417	13.99
249.633	13.99
249.85	-57.68
250.067	32.43
250.284	-12.63
250.501	54.95
250.717	63.15
250.934	-2.39
251.151	3.75
251.368	9.9
251.585	-4.44
251.801	11.95
252.018	-8.53
252.235	57
252.451	-41.3
252.668	13.99
252.885	26.28
253.102	36.52
253.318	1.71
253.535	42.67
253.752	63.15
253.968	-37.2
254.185	-74.07
254.401	-6.49
254.618	54.95
254.835	26.28
255.051	-6.49
255.268	73.39
255.484	65.19
255.701	-10.58
255.917	20.14
256.134	-37.2
256.351	57
256.567	20.14
256.784	83.63
257	-0.34
257.217	-2.39
257.433	71.34
257.65	34.47
257.866	38.57
258.082	-2.39
258.299	28.33
258.515	16.04
258.732	5.8
258.948	-72.02
259.165	20.14
259.381	-6.49
259.597	34.47
259.814	-49.49
260.03	22.19
260.246	9.9
260.463	-14.68
260.679	42.67
260.895	18.09
261.112	-14.68
261.328	67.24
261.544	-14.68
261.761	118.44
261.977	-51.54
262.193	-18.77
262.409	22.19
262.626	-8.53
262.842	69.29
263.058	16.04
263.274	38.57
263.49	44.71
263.707	65.19
263.923	26.28
264.139	-10.58
264.355	5.8
264.571	57
264.787	26.28
265.004	67.24
265.22	5.8
265.436	18.09
265.652	40.62
265.868	52.91
266.084	22.19
266.3	26.28
266.516	-39.25
266.732	13.99
266.948	22.19
267.164	11.95
267.38	-39.25
267.596	42.67
267.812	79.53
268.028	26.28
268.244	-80.21
268.46	38.57
268.676	79.53
268.892	46.76
269.108	-18.77
269.324	-45.4
269.54	-24.92
269.756	32.43
269.972	-35.16
270.188	-2.39
270.403	-22.87
270.619	-26.96
270.835	-20.82
271.051	22.19
271.267	3.75
271.483	30.38
271.698	30.38
271.914	36.52
272.13	9.9
272.346	13.99
272.562	13.99
272.777	54.95
272.993	-33.11
273.209	40.62
273.425	77.48
273.64	-24.92
273.856	18.09
274.072	38.57
274.287	-31.06
274.503	-6.49
274.719	-4.44
274.934	50.86
275.15	-43.35
275.366	-2.39
275.581	-8.53
275.797	-22.87
276.012	7.85
276.228	13.99
276.444	30.38
276.659	46.76
276.875	-6.49
277.09	-2.39
277.306	1.71
277.521	-18.77
277.737	42.67
277.952	-10.58
278.168	73.39
278.383	-4.44
278.599	-10.58
278.814	50.86
279.03	20.14
279.245	26.28
279.461	69.29
279.676	-26.96
279.892	-43.35
280.107	36.52
280.322	5.8
280.538	26.28
280.753	-45.4
280.969	-2.39
281.184	63.15
281.399	-10.58
281.615	40.62
281.83	50.86
282.045	1.71
282.26	22.19
282.476	11.95
282.691	110.25
282.906	22.19
283.122	73.39
283.337	22.19
283.552	26.28
283.767	38.57
283.983	-24.92
284.198	9.9
284.413	-2.39
284.628	-39.25
284.843	52.91
285.058	-2.39
285.274	-39.25
285.489	-22.87
285.704	-10.58
285.919	-33.11
286.134	36.52
286.349	-6.49
286.564	-20.82
286.779	63.15
286.995	-6.49
287.21	-49.49
287.425	-18.77
287.64	7.85
287.855	3.75
288.07	30.38
288.285	16.04
288.5	38.57
288.715	63.15
288.93	36.52
289.145	46.76
289.36	3.75
289.575	54.95
289.79	28.33
290.004	1.71
290.219	108.2
290.434	11.95
290.649	-37.2
290.864	42.67
291.079	30.38
291.294	5.8
291.509	20.14
291.724	-2.39
291.938	7.85
292.153	38.57
292.368	28.33
292.583	52.91
292.798	13.99
293.012	87.72
293.227	-8.53
293.442	18.09
293.657	83.63
293.871	63.15
294.086	16.04
294.301	34.47
294.516	38.57
294.73	79.53
294.945	-67.92
295.16	81.58
295.374	71.34
295.589	-8.53
295.804	-72.02
296.018	63.15
296.233	16.04
296.447	36.52
296.662	61.1
296.877	63.15
297.091	93.87
297.306	-53.59
297.52	9.9
297.735	24.23
297.949	1.71
298.164	85.67
298.378	3.75
298.593	48.81
298.807	11.95
299.022	-12.63
299.236	77.48
299.451	-31.06
299.665	-10.58
299.88	16.04
300.094	22.19
300.309	26.28
300.523	7.85
300.737	32.43
300.952	16.04
301.166	42.67
301.381	20.14
301.595	46.76
301.809	24.23
302.024	52.91
302.238	5.8
302.452	87.72
302.667	-12.63
302.881	48.81
303.095	26.28
303.309	18.09
303.524	44.71
303.738	-57.68
303.952	-2.39
304.166	-31.06
304.381	-67.92
304.595	54.95
304.809	13.99
305.023	34.47
305.237	-47.44
305.452	-14.68
305.666	20.14
305.88	-6.49
306.094	50.86
306.308	22.19
306.522	-14.68
306.736	11.95
306.95	63.15
307.164	52.91
307.379	-6.49
307.593	71.34
307.807	42.67
308.021	75.43
308.235	38.57
308.449	-55.64
308.663	36.52
308.877	-12.63
309.091	28.33
309.305	69.29
309.519	-47.44
309.733	28.33
309.947	13.99
310.161	89.77
310.374	50.86
310.588	7.85
310.802	-2.39
311.016	3.75
311.23	13.99
311.444	-2.39
311.658	18.09
311.872	114.34
312.085	63.15
312.299	-2.39
312.513	50.86
312.727	42.67
312.941	5.8
313.154	30.38
313.368	-6.49
313.582	9.9
313.796	57
314.009	106.15
314.223	63.15
314.437	120.49
314.651	28.33
314.864	38.57
315.078	26.28
315.292	18.09
315.505	38.57
315.719	5.8
315.933	48.81
316.146	59.05
316.36	57
316.573	108.2
316.787	-43.35
317.001	44.71
317.214	-10.58
317.428	75.43
317.641	-12.63
317.855	52.91
318.068	77.48
318.282	61.1
318.495	20.14
318.709	-26.96
318.922	-10.58
319.136	34.47
319.349	79.53
319.563	3.75
319.776	-0.34
319.99	44.71
320.203	63.15
320.417	-20.82
320.63	52.91
320.843	-4.44
321.057	32.43
321.27	-2.39
321.483	52.91
321.697	38.57
321.91	-18.77
322.124	65.19
322.337	-6.49
322.55	59.05
322.763	22.19
322.977	20.14
323.19	-14.68
323.403	5.8
323.617	7.85
323.83	42.67
324.043	-29.01
324.256	28.33
324.469	34.47
324.683	26.28
324.896	44.71
325.109	1.71
325.322	5.8
325.535	95.91
325.748	-6.49
325.962	40.62
326.175	38.57
326.388	-39.25
326.601	85.67
326.814	1.71
327.027	-65.88
327.24	30.38
327.453	20.14
327.666	28.33
327.879	57
328.092	52.91
328.305	116.39
328.518	7.85
328.731	-2.39
328.944	87.72
329.157	-12.63
329.37	9.9
329.583	116.39
329.796	40.62
330.009	5.8
330.222	22.19
330.435	26.28
330.648	20.14
330.861	-2.39
331.073	1.71
331.286	79.53
331.499	7.85
331.712	3.75
331.925	18.09
332.138	-0.34
332.35	71.34
332.563	34.47
332.776	38.57
332.989	16.04
333.202	75.43
333.414	-16.73
333.627	24.23
333.84	28.33
334.053	9.9
334.265	9.9
334.478	3.75
334.691	-26.96
334.903	-31.06
335.116	1.71
335.329	-6.49
335.541	81.58
335.754	26.28
335.966	-45.4
336.179	-2.39
336.392	71.34
336.604	28.33
336.817	40.62
337.029	44.71
337.242	1.71
337.454	7.85
337.667	38.57
337.88	81.58
338.092	48.81
338.305	34.47
338.517	54.95
338.729	11.95
338.942	-10.58
339.154	11.95
339.367	-6.49
339.579	13.99
339.792	-4.44
340.004	20.14
340.217	42.67
340.429	32.43
340.641	77.48
340.854	13.99
341.066	-14.68
341.278	77.48
341.491	104.11
341.703	106.15
341.915	-16.73
342.128	18.09
342.34	71.34
342.552	-35.16
342.764	9.9
342.977	13.99
343.189	106.15
343.401	24.23
343.613	11.95
343.826	13.99
344.038	-67.92
344.25	-55.64
344.462	-41.3
344.674	87.72
344.886	75.43
345.099	1.71
345.311	-0.34
345.523	36.52
345.735	-6.49
345.947	22.19
346.159	-4.44
346.371	11.95
346.583	38.57
346.795	104.11
347.007	13.99
347.219	69.29
347.431	7.85
347.643	57
347.855	36.52
348.067	24.23
348.279	30.38
348.491	24.23
348.703	13.99
348.915	132.78
349.127	-47.44
349.339	104.11
349.551	-26.96
349.763	-12.63
349.975	50.86
350.187	-20.82
350.399	46.76
350.61	-2.39
350.822	-4.44
351.034	77.48
351.246	38.57
351.458	79.53
351.669	124.58
351.881	18.09
352.093	71.34
352.305	50.86
352.517	34.47
352.728	1.71
352.94	3.75
353.152	40.62
353.363	-33.11
353.575	75.43
353.787	52.91
353.999	34.47
354.21	89.77
354.422	-29.01
354.633	63.15
354.845	59.05
355.057	69.29
355.268	50.86
355.48	36.52
355.692	24.23
355.903	124.58
356.115	44.71
356.326	48.81
356.538	-4.44
356.749	20.14
356.961	13.99
357.172	-8.53
357.384	1.71
357.595	69.29
357.807	46.76
358.018	85.67
358.23	75.43
358.441	71.34
358.653	85.67
358.864	-29.01
359.075	44.71
359.287	24.23
359.498	59.05
359.709	136.87
359.921	42.67
360.132	83.63
360.344	75.43
360.555	22.19
360.766	24.23
360.977	-33.11
361.189	36.52
361.4	42.67
361.611	85.67
361.823	85.67
362.034	1.71
362.245	24.23
362.456	71.34
362.667	67.24
362.879	30.38
363.09	-22.87
363.301	48.81
363.512	28.33
363.723	50.86
363.935	13.99
364.146	-12.63
364.357	-8.53
364.568	28.33
364.779	-41.3
364.99	46.76
365.201	-2.39
365.412	91.82
365.623	-67.92
365.834	9.9
366.045	46.76
366.256	-29.01
366.467	32.43
366.678	67.24
366.889	3.75
367.1	36.52
367.311	46.76
367.522	61.1
367.733	18.09
367.944	48.81
368.155	3.75
368.366	57
368.577	138.92
368.788	110.25
368.999	-39.25
369.209	26.28
369.42	120.49
369.631	93.87
369.842	34.47
370.053	59.05
370.264	24.23
370.474	-18.77
370.685	46.76
370.896	3.75
371.107	89.77
371.317	46.76
371.528	44.71
371.739	28.33
371.95	48.81
372.16	75.43
372.371	63.15
372.582	-29.01
372.792	54.95
373.003	79.53
373.214	59.05
373.424	-14.68
373.635	40.62
373.846	-14.68
374.056	59.05
374.267	18.09
374.477	40.62
374.688	30.38
374.898	67.24
375.109	7.85
375.319	38.57
375.53	54.95
375.74	34.47
375.951	-12.63
376.161	-10.58
376.372	95.91
376.582	85.67
376.793	26.28
377.003	59.05
377.214	-8.53
377.424	30.38
377.635	61.1
377.845	20.14
378.055	61.1
378.266	13.99
378.476	-16.73
378.686	38.57
378.897	24.23
379.107	104.11
379.317	52.91
379.528	22.19
379.738	79.53
379.948	34.47
380.158	42.67
380.369	71.34
380.579	-67.92
380.789	3.75
380.999	36.52
381.21	22.19
381.42	91.82
381.63	11.95
381.84	-4.44
382.05	32.43
382.261	42.67
382.471	9.9
382.681	71.34
382.891	126.63
383.101	38.57
383.311	24.23
383.521	9.9
383.731	28.33
383.941	42.67
384.151	11.95
384.361	75.43
384.571	65.19
384.781	-35.16
384.991	100.01
385.201	100.01
385.411	95.91
385.621	13.99
385.831	40.62
386.041	3.75
386.251	42.67
386.461	161.45
386.671	71.34
386.881	22.19
387.091	20.14
387.301	52.91
387.511	91.82
387.72	28.33
387.93	59.05
388.14	16.04
388.35	26.28
388.56	16.04
388.769	104.11
388.979	69.29
389.189	-8.53
389.399	-2.39
389.609	69.29
389.818	79.53
390.028	54.95
390.238	102.06
390.447	-43.35
390.657	65.19
390.867	48.81
391.076	9.9
391.286	77.48
391.496	18.09
391.705	34.47
391.915	104.11
392.125	93.87
392.334	130.73
392.544	108.2
392.753	57
392.963	9.9
393.172	95.91
393.382	38.57
393.591	54.95
393.801	42.67
394.01	71.34
394.22	54.95
394.429	106.15
394.639	71.34
394.848	75.43
395.058	73.39
395.267	59.05
395.477	71.34
395.686	114.34
395.895	124.58
396.105	75.43
396.314	112.3
396.524	3.75
396.733	30.38
396.942	118.44
397.152	145.06
397.361	147.11
397.57	73.39
397.78	-0.34
397.989	59.05
398.198	128.68
398.407	30.38
398.617	71.34
398.826	63.15
399.035	120.49
399.244	67.24
399.453	97.96
399.663	134.82
399.872	67.24
400.081	79.53
400.29	136.87
400.499	73.39
400.708	159.4
400.917	9.9
401.127	108.2
401.336	91.82
401.545	214.7
401.754	153.26
401.963	112.3
402.172	73.39
402.381	112.3
402.59	75.43
402.799	59.05
403.008	61.1
403.217	110.25
403.426	124.58
403.635	71.34
403.844	97.96
404.053	91.82
404.262	136.87
404.471	181.93
404.68	134.82
404.888	87.72
405.097	104.11
405.306	91.82
405.515	196.26
405.724	128.68
405.933	136.87
406.142	159.4
406.35	183.98
406.559	165.54
406.768	114.34
406.977	169.64
407.185	222.89
407.394	169.64
407.603	130.73
407.812	220.84
408.02	235.18
408.229	235.18
408.438	188.07
408.646	108.2
408.855	210.6
409.064	255.65
409.272	239.27
409.481	308.9
409.69	251.56
409.898	257.7
410.107	315.05
410.315	298.66
410.524	282.28
410.733	300.71
410.941	290.47
411.15	267.94
411.358	333.48
411.567	386.72
411.775	339.62
411.984	364.2
412.192	452.26
412.401	390.82
412.609	532.13
412.818	523.94
413.026	499.36
413.234	403.11
413.443	511.65
413.651	513.7
413.86	421.54
414.068	583.33
414.276	530.08
414.485	542.37
414.693	679.58
414.901	685.73
415.11	685.73
415.318	648.86
415.526	722.59
415.734	638.62
415.943	706.21
416.151	796.32
416.359	683.68
416.567	724.64
416.776	841.37
416.984	872.09
417.192	902.81
417.4	816.8
417.608	892.57
417.817	972.44
418.025	1027.74
418.233	1017.5
418.441	1007.26
418.649	972.44
418.857	1205.91
419.065	1142.43
419.273	1191.58
419.481	1285.78
419.689	1420.95
419.897	1365.65
420.105	1396.37
420.313	1390.23
420.521	1431.19
420.729	1396.37
420.937	1527.44
421.145	1580.69
421.353	1769.1
421.561	1746.58
421.769	1808.02
421.977	1898.13
422.185	1887.89
422.393	1955.47
422.601	2059.92
422.809	2115.21
423.017	2053.77
423.224	2117.26
423.432	2260.62
423.64	2217.61
423.848	2424.45
424.056	2442.89
424.263	2619.01
424.471	2606.72
424.679	2700.93
424.887	2770.56
425.094	2948.73
425.302	2850.43
425.51	2963.07
425.718	2954.88
425.925	3006.08
426.133	3161.72
426.341	3450.49
426.548	3569.27
426.756	3534.45
426.964	3595.89
427.171	3999.34
427.379	3923.57
427.586	3929.71
427.794	4068.97
428.001	4238.95
428.209	4419.18
428.417	4425.32
428.624	4767.33
428.832	4744.8
429.039	4783.71
429.247	4822.63
429.454	5224.03
429.662	5504.6
429.869	5230.17
430.076	5400.15
430.284	5256.79
430.491	5387.86
430.699	5742.16
430.906	5852.75
431.114	6041.17
431.321	6272.59
431.528	6356.55
431.736	6600.26
431.943	7126.59
432.15	7026.24
432.358	6899.27
432.565	7261.76
432.772	7284.28
432.979	7675.45
433.187	7652.92
433.394	7777.84
433.601	8298.03
433.808	8320.56
434.016	8189.49
434.223	8400.43
434.43	9049.63
434.637	9012.77
434.844	9467.42
435.052	9719.32
435.259	9649.69
435.466	9942.55
435.673	9672.22
435.88	10251.79
436.087	10675.72
436.294	10741.25
436.501	10501.64
436.708	10636.81
436.915	10868.23
437.122	11374.08
437.329	11433.47
437.537	11941.36
437.743	12070.39
437.95	12002.8
438.157	12568.04
438.364	13053.41
438.571	13120.99
438.778	13049.32
438.985	14357.97
439.192	13559.26
439.399	14048.72
439.606	13870.55
439.813	14644.68
440.02	15359.42
440.227	15273.41
440.433	15148.48
440.64	15730.11
440.847	15246.79
441.054	15742.39
441.261	16919.98
441.467	16917.93
441.674	17182.12
441.881	17429.92
442.088	17638.81
442.294	17329.57
442.501	18036.12
442.708	18263.44
442.914	18906.51
443.121	19858.81
443.328	19139.97
443.534	20692.33
443.741	20166.01
443.948	19791.23
444.154	21198.18
444.361	21046.63
444.568	21466.47
444.774	20950.38
444.981	21327.21
445.187	21765.47
445.394	22926.67
445.6	22226.26
445.807	24661.3
446.013	23536.96
446.22	24194.36
446.426	24988.97
446.633	25554.21
446.839	26164.51
447.046	25011.5
447.252	26488.09
447.459	26551.57
447.665	26070.3
447.871	27487.5
448.078	28333.31
448.284	27221.26
448.491	27933.95
448.697	28990.7
448.903	29410.54
449.11	29197.55
449.316	28728.56
449.522	29555.94
449.728	30123.23
449.935	30549.21
450.141	30526.68
450.347	31362.25
450.553	30170.33
450.76	30401.75
450.966	31384.78
451.172	30954.71
451.378	31638.73
451.584	30887.12
451.791	31857.86
451.997	31714.5
452.203	32341.18
452.409	32163.01
452.615	32150.72
452.821	30747.86
453.027	30653.65
453.233	32545.98
453.44	30579.93
453.646	31366.35
453.852	31341.77
454.058	31825.09
454.264	30694.61
454.47	31481.03
454.676	30520.54
454.882	31526.09
455.088	28509.43
455.294	29609.19
455.5	29748.45
455.705	29779.17
455.911	28583.16
456.117	28220.67
456.323	27747.59
456.529	26371.35
456.735	27610.37
456.941	26938.64
457.147	26281.24
457.352	25228.59
457.558	24902.96
457.764	24976.69
457.97	24519.99
458.176	24350.01
458.381	24161.59
458.587	22924.62
458.793	22859.09
458.999	21810.53
459.204	23381.32
459.41	22746.45
459.616	21333.35
459.821	21220.71
460.027	21226.85
460.233	20733.29
460.438	19504.51
460.644	19959.16
460.85	18881.93
461.055	18765.2
461.261	18777.48
461.466	17040.81
461.672	16962.98
461.878	17937.82
462.083	16842.15
462.289	16541.1
462.494	16231.86
462.7	15738.3
462.905	15044.04
463.111	15910.33
463.316	15695.29
463.522	15445.44
463.727	15470.01
463.932	15523.26
464.138	15226.31
464.343	15437.25
464.549	14990.79
464.754	15379.9
464.959	15035.85
465.165	15158.72
465.37	14636.49
465.575	14239.19
465.781	14624.2
465.986	14624.2
466.191	14142.93
466.397	14001.62
466.602	13477.34
466.807	14003.67
467.012	13698.52
467.218	13647.32
467.423	13811.16
467.628	13729.24
