Data from USB4F104151__126__10-25-21-034.txt Node

Date: Wed Mar 12 10:25:21 EDT 2025
User: louis
Spectrometer: USB4F10415
Trigger mode: 4
Integration Time (sec): 3.000000E-2
Scans to average: 1
Electric dark correction enabled: true
Nonlinearity correction enabled: false
Boxcar width: 0
XAxis mode: Wavelengths
Number of Pixels in Spectrum: 3648
>>>>>Begin Spectral Data<<<<<
178.204	-48.47
178.424	-48.47
178.644	-48.47
178.864	-152.92
179.084	-107.86
179.304	-52.56
179.524	-15.7
179.744	-34.13
179.964	12.97
180.184	39.59
180.404	-19.8
180.624	39.59
180.844	41.64
181.064	6.83
181.283	-17.75
181.503	-54.61
181.723	53.93
181.943	8.87
182.163	17.07
182.383	15.02
182.602	47.79
182.822	-25.94
183.042	33.45
183.262	10.92
183.482	-1.37
183.701	-15.7
183.921	6.83
184.141	-40.28
184.361	8.87
184.58	43.69
184.8	21.16
185.02	-27.99
185.239	31.4
185.459	0.68
185.679	19.11
185.898	17.07
186.118	6.83
186.338	90.79
186.557	23.21
186.777	43.69
186.997	2.73
187.216	0.68
187.436	43.69
187.655	90.79
187.875	64.17
188.095	12.97
188.314	60.07
188.534	115.37
188.753	17.07
188.973	33.45
189.192	80.55
189.412	15.02
189.631	78.51
189.851	4.78
190.07	15.02
190.29	-15.7
190.509	-11.61
190.729	-56.66
190.948	115.37
191.168	98.99
191.387	92.84
191.607	23.21
191.826	-48.47
192.045	12.97
192.265	37.55
192.484	58.03
192.704	-9.56
192.923	8.87
193.142	74.41
193.362	96.94
193.581	62.12
193.8	21.16
194.02	25.26
194.239	15.02
194.458	55.98
194.678	15.02
194.897	86.7
195.116	0.68
195.335	-27.99
195.555	27.31
195.774	41.64
195.993	-13.65
196.212	25.26
196.432	-36.18
196.651	25.26
196.87	12.97
197.089	94.89
197.308	197.29
197.528	-3.41
197.747	-38.23
197.966	-36.18
198.185	0.68
198.404	47.79
198.623	23.21
198.842	66.22
199.062	58.03
199.281	6.83
199.5	-30.04
199.719	62.12
199.938	58.03
200.157	41.64
200.376	33.45
200.595	74.41
200.814	-34.13
201.033	17.07
201.252	58.03
201.471	19.11
201.69	33.45
201.909	72.36
202.128	70.31
202.347	41.64
202.566	-7.51
202.785	-13.65
203.004	47.79
203.223	37.55
203.442	12.97
203.661	-32.08
203.879	72.36
204.098	58.03
204.317	-42.32
204.536	47.79
204.755	88.75
204.974	55.98
205.193	4.78
205.411	74.41
205.63	76.46
205.849	-34.13
206.068	62.12
206.287	-27.99
206.505	66.22
206.724	-58.71
206.943	23.21
207.162	12.97
207.381	8.87
207.599	-3.41
207.818	105.13
208.037	17.07
208.255	0.68
208.474	29.35
208.693	58.03
208.911	17.07
209.13	6.83
209.349	37.55
209.567	37.55
209.786	68.27
210.005	64.17
210.223	21.16
210.442	-64.85
210.661	33.45
210.879	-44.37
211.098	39.59
211.316	33.45
211.535	82.6
211.753	29.35
211.972	12.97
212.191	-15.7
212.409	-48.47
212.628	70.31
212.846	-52.56
213.065	15.02
213.283	58.03
213.502	29.35
213.72	33.45
213.938	-40.28
214.157	55.98
214.375	55.98
214.594	31.4
214.812	37.55
215.031	90.79
215.249	19.11
215.467	-9.56
215.686	64.17
215.904	37.55
216.122	0.68
216.341	66.22
216.559	53.93
216.778	31.4
216.996	23.21
217.214	41.64
217.432	-15.7
217.651	51.88
217.869	4.78
218.087	0.68
218.306	-64.85
218.524	-48.47
218.742	41.64
218.96	58.03
219.179	15.02
219.397	12.97
219.615	15.02
219.833	8.87
220.051	51.88
220.27	55.98
220.488	37.55
220.706	47.79
220.924	76.46
221.142	2.73
221.36	8.87
221.578	6.83
221.796	-5.46
222.015	21.16
222.233	23.21
222.451	68.27
222.669	74.41
222.887	-11.61
223.105	-34.13
223.323	-25.94
223.541	62.12
223.759	-40.28
223.977	41.64
224.195	68.27
224.413	64.17
224.631	72.36
224.849	39.59
225.067	49.83
225.285	10.92
225.503	49.83
225.721	-68.95
225.939	-34.13
226.157	66.22
226.375	113.32
226.592	-7.51
226.81	15.02
227.028	12.97
227.246	68.27
227.464	15.02
227.682	-1.37
227.9	49.83
228.117	-27.99
228.335	43.69
228.553	-52.56
228.771	17.07
228.989	2.73
229.206	33.45
229.424	-3.41
229.642	78.51
229.86	-5.46
230.077	31.4
230.295	35.5
230.513	78.51
230.731	68.27
230.948	53.93
231.166	10.92
231.384	10.92
231.601	17.07
231.819	86.7
232.037	8.87
232.254	17.07
232.472	-1.37
232.689	-75.09
232.907	125.61
233.125	53.93
233.342	55.98
233.56	23.21
233.777	21.16
233.995	39.59
234.213	70.31
234.43	35.5
234.648	55.98
234.865	37.55
235.083	29.35
235.3	4.78
235.518	-19.8
235.735	70.31
235.953	51.88
236.17	25.26
236.388	92.84
236.605	-5.46
236.822	58.03
237.04	-1.37
237.257	-9.56
237.475	53.93
237.692	135.85
237.909	-11.61
238.127	15.02
238.344	131.75
238.562	33.45
238.779	-11.61
238.996	33.45
239.214	-11.61
239.431	62.12
239.648	25.26
239.865	27.31
240.083	-1.37
240.3	25.26
240.517	45.74
240.735	12.97
240.952	15.02
241.169	70.31
241.386	35.5
241.603	37.55
241.821	23.21
242.038	70.31
242.255	25.26
242.472	-56.66
242.689	41.64
242.907	90.79
243.124	-11.61
243.341	-23.89
243.558	58.03
243.775	23.21
243.992	-25.94
244.209	19.11
244.426	90.79
244.643	4.78
244.86	35.5
245.078	66.22
245.295	47.79
245.512	15.02
245.729	-19.8
245.946	-17.75
246.163	86.7
246.38	19.11
246.597	17.07
246.814	37.55
247.031	72.36
247.248	84.65
247.464	70.31
247.681	2.73
247.898	78.51
248.115	27.31
248.332	23.21
248.549	58.03
248.766	45.74
248.983	31.4
249.2	15.02
249.417	78.51
249.633	80.55
249.85	49.83
250.067	21.16
250.284	6.83
250.501	53.93
250.717	21.16
250.934	10.92
251.151	58.03
251.368	12.97
251.585	23.21
251.801	123.56
252.018	76.46
252.235	25.26
252.451	-11.61
252.668	2.73
252.885	-1.37
253.102	29.35
253.318	17.07
253.535	17.07
253.752	-11.61
253.968	17.07
254.185	-40.28
254.401	31.4
254.618	76.46
254.835	-25.94
255.051	111.27
255.268	64.17
255.484	64.17
255.701	64.17
255.917	66.22
256.134	33.45
256.351	101.03
256.567	-56.66
256.784	33.45
257	8.87
257.217	23.21
257.433	-5.46
257.65	49.83
257.866	58.03
258.082	-13.65
258.299	-21.85
258.515	19.11
258.732	94.89
258.948	-56.66
259.165	82.6
259.381	-3.41
259.597	33.45
259.814	23.21
260.03	43.69
260.246	31.4
260.463	64.17
260.679	31.4
260.895	35.5
261.112	53.93
261.328	10.92
261.544	10.92
261.761	150.18
261.977	4.78
262.193	0.68
262.409	-3.41
262.626	74.41
262.842	4.78
263.058	-1.37
263.274	6.83
263.49	94.89
263.707	45.74
263.923	35.5
264.139	55.98
264.355	60.07
264.571	-19.8
264.787	70.31
265.004	117.42
265.22	21.16
265.436	0.68
265.652	-32.08
265.868	21.16
266.084	41.64
266.3	-23.89
266.516	66.22
266.732	12.97
266.948	-40.28
267.164	41.64
267.38	131.75
267.596	25.26
267.812	53.93
268.028	49.83
268.244	4.78
268.46	33.45
268.676	-15.7
268.892	66.22
269.108	-13.65
269.324	-7.51
269.54	25.26
269.756	127.66
269.972	21.16
270.188	-34.13
270.403	15.02
270.619	41.64
270.835	103.08
271.051	-11.61
271.267	39.59
271.483	-32.08
271.698	55.98
271.914	47.79
272.13	55.98
272.346	70.31
272.562	-30.04
272.777	74.41
272.993	-5.46
273.209	-30.04
273.425	43.69
273.64	8.87
273.856	70.31
274.072	12.97
274.287	41.64
274.503	8.87
274.719	43.69
274.934	-21.85
275.15	-89.43
275.366	60.07
275.581	55.98
275.797	21.16
276.012	47.79
276.228	8.87
276.444	58.03
276.659	43.69
276.875	31.4
277.09	37.55
277.306	21.16
277.521	84.65
277.737	70.31
277.952	68.27
278.168	21.16
278.383	25.26
278.599	45.74
278.814	25.26
279.03	27.31
279.245	88.75
279.461	12.97
279.676	19.11
279.892	53.93
280.107	25.26
280.322	29.35
280.538	49.83
280.753	15.02
280.969	-7.51
281.184	29.35
281.399	31.4
281.615	-7.51
281.83	-11.61
282.045	-56.66
282.26	25.26
282.476	15.02
282.691	53.93
282.906	10.92
283.122	68.27
283.337	23.21
283.552	33.45
283.767	-34.13
283.983	-17.75
284.198	-81.24
284.413	-44.37
284.628	-56.66
284.843	-40.28
285.058	21.16
285.274	39.59
285.489	-36.18
285.704	70.31
285.919	-5.46
286.134	10.92
286.349	23.21
286.564	-36.18
286.779	94.89
286.995	2.73
287.21	-23.89
287.425	33.45
287.64	-17.75
287.855	-23.89
288.07	29.35
288.285	55.98
288.5	96.94
288.715	68.27
288.93	53.93
289.145	53.93
289.36	148.14
289.575	-7.51
289.79	86.7
290.004	-1.37
290.219	80.55
290.434	25.26
290.649	-32.08
290.864	6.83
291.079	41.64
291.294	84.65
291.509	-7.51
291.724	78.51
291.938	47.79
292.153	39.59
292.368	82.6
292.583	19.11
292.798	21.16
293.012	33.45
293.227	27.31
293.442	35.5
293.657	103.08
293.871	76.46
294.086	-17.75
294.301	76.46
294.516	12.97
294.73	0.68
294.945	31.4
295.16	10.92
295.374	8.87
295.589	62.12
295.804	55.98
296.018	66.22
296.233	90.79
296.447	10.92
296.662	10.92
296.877	37.55
297.091	105.13
297.306	45.74
297.52	-40.28
297.735	23.21
297.949	17.07
298.164	55.98
298.378	39.59
298.593	53.93
298.807	-17.75
299.022	66.22
299.236	10.92
299.451	-17.75
299.665	8.87
299.88	49.83
300.094	47.79
300.309	78.51
300.523	-3.41
300.737	4.78
300.952	17.07
301.166	43.69
301.381	58.03
301.595	-7.51
301.809	64.17
302.024	-25.94
302.238	21.16
302.452	-5.46
302.667	27.31
302.881	70.31
303.095	35.5
303.309	115.37
303.524	41.64
303.738	66.22
303.952	-19.8
304.166	66.22
304.381	-23.89
304.595	94.89
304.809	33.45
305.023	37.55
305.237	80.55
305.452	31.4
305.666	39.59
305.88	74.41
306.094	68.27
306.308	43.69
306.522	47.79
306.736	49.83
306.95	47.79
307.164	-42.32
307.379	29.35
307.593	45.74
307.807	29.35
308.021	119.46
308.235	19.11
308.449	25.26
308.663	-30.04
308.877	107.18
309.091	-11.61
309.305	62.12
309.519	8.87
309.733	37.55
309.947	49.83
310.161	39.59
310.374	33.45
310.588	58.03
310.802	25.26
311.016	25.26
311.23	4.78
311.444	0.68
311.658	154.28
311.872	19.11
312.085	-60.76
312.299	58.03
312.513	29.35
312.727	-25.94
312.941	25.26
313.154	-27.99
313.368	8.87
313.582	47.79
313.796	12.97
314.009	2.73
314.223	21.16
314.437	119.46
314.651	25.26
314.864	0.68
315.078	12.97
315.292	76.46
315.505	17.07
315.719	17.07
315.933	47.79
316.146	31.4
316.36	-21.85
316.573	96.94
316.787	49.83
317.001	64.17
317.214	29.35
317.428	39.59
317.641	55.98
317.855	-11.61
318.068	25.26
318.282	49.83
318.495	154.28
318.709	98.99
318.922	88.75
319.136	49.83
319.349	82.6
319.563	90.79
319.776	37.55
319.99	4.78
320.203	33.45
320.417	25.26
320.63	55.98
320.843	131.75
321.057	6.83
321.27	58.03
321.483	-7.51
321.697	88.75
321.91	58.03
322.124	-3.41
322.337	55.98
322.55	62.12
322.763	72.36
322.977	53.93
323.19	-40.28
323.403	10.92
323.617	58.03
323.83	70.31
324.043	25.26
324.256	45.74
324.469	39.59
324.683	27.31
324.896	98.99
325.109	39.59
325.322	23.21
325.535	53.93
325.748	119.46
325.962	27.31
326.175	-34.13
326.388	45.74
326.601	60.07
326.814	55.98
327.027	58.03
327.24	39.59
327.453	90.79
327.666	41.64
327.879	31.4
328.092	39.59
328.305	74.41
328.518	29.35
328.731	6.83
328.944	66.22
329.157	0.68
329.37	72.36
329.583	88.75
329.796	82.6
330.009	-27.99
330.222	90.79
330.435	37.55
330.648	33.45
330.861	39.59
331.073	37.55
331.286	33.45
331.499	0.68
331.712	-7.51
331.925	23.21
332.138	37.55
332.35	62.12
332.563	66.22
332.776	78.51
332.989	47.79
333.202	33.45
333.414	-1.37
333.627	17.07
333.84	19.11
334.053	88.75
334.265	8.87
334.478	37.55
334.691	70.31
334.903	62.12
335.116	17.07
335.329	96.94
335.541	47.79
335.754	76.46
335.966	27.31
336.179	47.79
336.392	86.7
336.604	2.73
336.817	33.45
337.029	2.73
337.242	29.35
337.454	19.11
337.667	49.83
337.88	33.45
338.092	33.45
338.305	33.45
338.517	-1.37
338.729	76.46
338.942	12.97
339.154	23.21
339.367	0.68
339.579	70.31
339.792	41.64
340.004	109.22
340.217	15.02
340.429	68.27
340.641	-46.42
340.854	70.31
341.066	64.17
341.278	19.11
341.491	103.08
341.703	66.22
341.915	0.68
342.128	82.6
342.34	62.12
342.552	15.02
342.764	80.55
342.977	-11.61
343.189	90.79
343.401	43.69
343.613	74.41
343.826	70.31
344.038	-23.89
344.25	60.07
344.462	23.21
344.674	70.31
344.886	10.92
345.099	72.36
345.311	62.12
345.523	-58.71
345.735	80.55
345.947	41.64
346.159	-7.51
346.371	64.17
346.583	90.79
346.795	72.36
347.007	21.16
347.219	68.27
347.431	49.83
347.643	37.55
347.855	27.31
348.067	12.97
348.279	12.97
348.491	33.45
348.703	72.36
348.915	21.16
349.127	27.31
349.339	111.27
349.551	70.31
349.763	135.85
349.975	4.78
350.187	39.59
350.399	35.5
350.61	33.45
350.822	12.97
351.034	39.59
351.246	-13.65
351.458	37.55
351.669	0.68
351.881	53.93
352.093	98.99
352.305	41.64
352.517	31.4
352.728	66.22
352.94	-1.37
353.152	55.98
353.363	41.64
353.575	84.65
353.787	103.08
353.999	27.31
354.21	51.88
354.422	66.22
354.633	66.22
354.845	137.9
355.057	41.64
355.268	90.79
355.48	27.31
355.692	41.64
355.903	58.03
356.115	70.31
356.326	-32.08
356.538	43.69
356.749	-7.51
356.961	90.79
357.172	29.35
357.384	-3.41
357.595	98.99
357.807	41.64
358.018	8.87
358.23	58.03
358.441	113.32
358.653	58.03
358.864	-23.89
359.075	66.22
359.287	25.26
359.498	37.55
359.709	90.79
359.921	39.59
360.132	37.55
360.344	115.37
360.555	-11.61
360.766	51.88
360.977	21.16
361.189	78.51
361.4	70.31
361.611	21.16
361.823	60.07
362.034	103.08
362.245	-1.37
362.456	45.74
362.667	33.45
362.879	6.83
363.09	41.64
363.301	72.36
363.512	58.03
363.723	98.99
363.935	121.51
364.146	70.31
364.357	-23.89
364.568	107.18
364.779	53.93
364.99	19.11
365.201	41.64
365.412	58.03
365.623	47.79
365.834	17.07
366.045	-15.7
366.256	90.79
366.467	39.59
366.678	51.88
366.889	82.6
367.1	-52.56
367.311	78.51
367.522	107.18
367.733	101.03
367.944	96.94
368.155	94.89
368.366	64.17
368.577	90.79
368.788	17.07
368.999	39.59
369.209	78.51
369.42	90.79
369.631	162.47
369.842	29.35
370.053	64.17
370.264	82.6
370.474	141.99
370.685	-1.37
370.896	60.07
371.107	101.03
371.317	111.27
371.528	8.87
371.739	76.46
371.95	31.4
372.16	72.36
372.371	49.83
372.582	62.12
372.792	66.22
373.003	64.17
373.214	55.98
373.424	29.35
373.635	17.07
373.846	55.98
374.056	17.07
374.267	39.59
374.477	6.83
374.688	-9.56
374.898	12.97
375.109	45.74
375.319	162.47
375.53	37.55
375.74	12.97
375.951	82.6
376.161	37.55
376.372	98.99
376.582	-17.75
376.793	19.11
377.003	6.83
377.214	58.03
377.424	21.16
377.635	139.94
377.845	58.03
378.055	123.56
378.266	96.94
378.476	23.21
378.686	78.51
378.897	41.64
379.107	47.79
379.317	55.98
379.528	17.07
379.738	39.59
379.948	41.64
380.158	156.33
380.369	21.16
380.579	60.07
380.789	-56.66
380.999	92.84
381.21	105.13
381.42	123.56
381.63	33.45
381.84	78.51
382.05	-21.85
382.261	162.47
382.471	88.75
382.681	37.55
382.891	129.7
383.101	90.79
383.311	96.94
383.521	160.42
383.731	80.55
383.941	62.12
384.151	82.6
384.361	21.16
384.571	49.83
384.781	107.18
384.991	98.99
385.201	135.85
385.411	119.46
385.621	66.22
385.831	27.31
386.041	58.03
386.251	47.79
386.461	115.37
386.671	141.99
386.881	74.41
387.091	41.64
387.301	117.42
387.511	82.6
387.72	80.55
387.93	33.45
388.14	25.26
388.35	148.14
388.56	101.03
388.769	47.79
388.979	27.31
389.189	29.35
389.399	135.85
389.609	70.31
389.818	90.79
390.028	43.69
390.238	41.64
390.447	51.88
390.657	92.84
390.867	58.03
391.076	49.83
391.286	176.81
391.496	133.8
391.705	150.18
391.915	90.79
392.125	39.59
392.334	60.07
392.544	144.04
392.753	60.07
392.963	64.17
393.172	135.85
393.382	41.64
393.591	117.42
393.801	47.79
394.01	146.09
394.22	2.73
394.429	64.17
394.639	31.4
394.848	172.71
395.058	53.93
395.267	55.98
395.477	121.51
395.686	103.08
395.895	119.46
396.105	127.66
396.314	-15.7
396.524	37.55
396.733	135.85
396.942	156.33
397.152	127.66
397.361	193.19
397.57	90.79
397.78	33.45
397.989	139.94
398.198	146.09
398.407	133.8
398.617	115.37
398.826	185
399.035	90.79
399.244	129.7
399.453	148.14
399.663	137.9
399.872	146.09
400.081	55.98
400.29	133.8
400.499	141.99
400.708	105.13
400.917	135.85
401.127	154.28
401.336	105.13
401.545	203.43
401.754	98.99
401.963	139.94
402.172	121.51
402.381	111.27
402.59	174.76
402.799	133.8
403.008	103.08
403.217	148.14
403.426	180.9
403.635	195.24
403.844	139.94
404.053	162.47
404.262	176.81
404.471	205.48
404.68	127.66
404.888	96.94
405.097	211.62
405.306	172.71
405.515	205.48
405.724	156.33
405.933	221.86
406.142	207.53
406.35	144.04
406.559	279.21
406.768	219.82
406.977	309.93
407.185	262.82
407.394	236.2
407.603	236.2
407.812	238.25
408.02	260.77
408.229	328.36
408.438	252.58
408.646	320.17
408.855	385.7
409.064	287.4
409.272	281.25
409.481	271.01
409.69	326.31
409.898	332.45
410.107	348.84
410.315	387.75
410.524	344.74
410.733	408.23
410.941	404.13
411.15	490.15
411.358	441
411.567	510.63
411.775	418.47
411.984	524.96
412.192	561.83
412.401	529.06
412.609	574.11
412.818	610.98
413.026	565.92
413.234	619.17
413.443	598.69
413.651	672.42
413.86	682.66
414.068	703.14
414.276	651.94
414.485	676.51
414.693	836.25
414.901	836.25
415.11	848.54
415.318	842.4
415.526	891.55
415.734	871.07
415.943	1002.14
416.151	930.46
416.359	940.7
416.567	1030.81
416.776	1106.59
416.984	1110.68
417.192	1141.4
417.4	1182.36
417.608	1098.39
417.817	1225.37
418.025	1325.72
418.233	1399.45
418.441	1405.59
418.649	1403.54
418.857	1473.17
419.065	1419.92
419.273	1405.59
419.481	1690.26
419.689	1604.24
419.897	1663.63
420.105	1745.55
420.313	1995.4
420.521	1970.83
420.729	1979.02
420.937	1946.25
421.145	2105.99
421.353	2220.68
421.561	2249.35
421.769	2331.27
421.977	2394.76
422.185	2450.05
422.393	2613.89
422.601	2839.17
422.809	2706.05
423.017	2810.5
423.224	2820.74
423.432	2970.24
423.64	3015.29
423.848	3226.23
424.056	3142.27
424.263	3404.41
424.471	3463.8
424.679	3443.32
424.887	3605.11
425.094	3674.74
425.302	3932.78
425.51	4080.24
425.718	4151.92
425.925	4094.57
426.133	4354.66
426.341	4567.65
426.548	4754.02
426.756	4643.43
426.964	4815.46
427.171	5079.65
427.379	5153.37
427.586	5161.56
427.794	5212.76
428.001	5620.31
428.209	6040.14
428.417	5900.88
428.624	6011.47
428.832	6191.69
429.039	6201.93
429.247	6140.49
429.454	6685.25
429.662	7105.09
429.869	6797.89
430.076	7203.39
430.284	7000.64
430.491	7369.27
430.699	7731.76
430.906	7795.25
431.114	7938.61
431.321	8165.93
431.528	8307.24
431.736	8708.65
431.943	9335.32
432.15	8825.38
432.358	9300.51
432.565	9421.34
432.772	9505.31
432.979	9927.19
433.187	10072.59
433.394	10263.05
433.601	10846.73
433.808	11026.95
434.016	10963.46
434.223	11493.88
434.43	11960.82
434.637	11794.93
434.844	12497.39
435.052	12892.65
435.259	12677.61
435.466	12945.89
435.673	12642.79
435.88	13535.71
436.087	14160.34
436.294	14090.71
436.501	13924.82
436.708	14090.71
436.915	14666.19
437.122	15274.43
437.329	15264.19
437.537	15858.1
437.743	16023.99
437.95	15694.27
438.157	16597.42
438.364	17363.36
438.571	17127.85
438.778	17332.64
438.985	18819.47
439.192	18426.26
439.399	18876.81
439.606	18200.98
439.813	19222.92
440.02	20457.84
440.227	20416.88
440.433	19962.23
440.64	20687.22
440.847	20668.78
441.054	20947.31
441.261	22171.99
441.467	22053.21
441.674	22448.47
441.881	22960.46
442.088	23077.19
442.294	23150.92
442.501	23830.85
442.708	24240.44
442.914	25002.29
443.121	26075.42
443.328	25063.72
443.534	27638.02
443.741	26423.58
443.948	26054.94
444.154	27965.7
444.361	27865.35
444.568	28334.33
444.774	28014.85
444.981	28315.9
445.187	29141.23
445.394	30249.18
445.6	29731.04
445.807	32686.26
446.013	31283.41
446.22	32078.02
446.426	33034.42
446.633	33398.96
446.839	34449.57
447.046	33171.63
447.252	34955.41
447.459	34998.42
447.665	34777.24
447.871	36444.29
448.078	37566.57
448.284	35995.78
448.491	37165.17
448.697	37836.91
448.903	39045.21
449.11	38905.94
449.316	38217.83
449.522	38936.66
449.728	39936.07
449.935	40380.48
450.141	40269.89
450.347	40972.35
450.553	39780.43
450.76	40351.81
450.966	41414.71
451.172	41052.22
451.378	42182.69
451.584	41224.25
451.791	42395.68
451.997	41801.77
452.203	42950.68
452.409	42653.73
452.615	42395.68
452.821	40915
453.027	40136.77
453.233	42301.48
453.44	40517.7
453.646	41416.75
453.852	41304.12
454.058	42020.91
454.264	40691.77
454.47	41406.51
454.676	40484.93
454.882	41433.14
455.088	38049.89
455.294	38475.87
455.5	39161.94
455.705	39684.17
455.911	37947.5
456.117	37152.88
456.323	36796.54
456.529	34793.62
456.735	36266.11
456.941	35192.98
457.147	34599.07
457.352	33663.14
457.558	33456.3
457.764	33167.54
457.97	32993.46
458.176	32131.26
458.381	32020.67
458.587	30398.68
458.793	30480.6
458.999	28858.61
459.204	31135.95
459.41	30298.33
459.616	28266.75
459.821	27975.94
460.027	28055.81
460.233	27369.74
460.438	26061.08
460.644	26544.41
460.85	25223.47
461.055	24899.89
461.261	24836.4
461.466	22770
461.672	22395.22
461.878	23808.32
462.083	22245.72
462.289	21977.44
462.494	21475.68
462.7	20744.56
462.905	20339.06
463.111	20973.93
463.316	21045.61
463.522	20668.78
463.727	20396.4
463.932	20332.92
464.138	20242.81
464.343	20406.64
464.549	19630.46
464.754	20363.64
464.959	20136.31
465.165	19757.44
465.37	19204.49
465.575	18809.23
465.781	19564.93
465.986	19624.32
466.191	18776.46
466.397	18405.78
466.602	17828.25
466.807	18379.15
