Data from USB4F104151__188__10-28-44-711.txt Node

Date: Wed Mar 12 10:28:44 EDT 2025
User: louis
Spectrometer: USB4F10415
Trigger mode: 4
Integration Time (sec): 3.000000E-2
Scans to average: 1
Electric dark correction enabled: true
Nonlinearity correction enabled: false
Boxcar width: 0
XAxis mode: Wavelengths
Number of Pixels in Spectrum: 3648
>>>>>Begin Spectral Data<<<<<
178.204	-112.13
178.424	-112.13
178.644	-112.13
178.864	-116.22
179.084	-214.52
179.304	0.51
179.524	-9.73
179.744	4.61
179.964	47.62
180.184	10.75
180.404	25.09
180.624	-5.63
180.844	12.8
181.064	-89.6
181.283	-19.97
181.503	29.18
181.723	-5.63
181.943	-13.82
182.163	78.33
182.383	61.95
182.602	35.33
182.822	80.38
183.042	51.71
183.262	47.62
183.482	100.86
183.701	-60.93
183.921	14.85
184.141	-54.78
184.361	113.15
184.58	-3.58
184.8	74.24
185.02	78.33
185.239	70.14
185.459	25.09
185.679	29.18
185.898	10.75
186.118	53.76
186.338	23.04
186.557	-19.97
186.777	57.86
186.997	31.23
187.216	12.8
187.436	41.47
187.655	-52.74
187.875	76.29
188.095	31.23
188.314	96.77
188.534	82.43
188.753	92.67
188.973	72.19
189.192	64
189.412	45.57
189.631	-24.06
189.851	27.14
190.07	20.99
190.29	10.75
190.509	27.14
190.729	8.7
190.948	-11.78
191.168	64
191.387	8.7
191.607	12.8
191.826	64
192.045	-22.02
192.265	68.09
192.484	31.23
192.704	23.04
192.923	-62.98
193.142	64
193.362	-22.02
193.581	80.38
193.8	66.05
194.02	8.7
194.239	57.86
194.458	2.56
194.678	35.33
194.897	-22.02
195.116	25.09
195.335	53.76
195.555	33.28
195.774	-11.78
195.993	-50.69
196.212	25.09
196.432	94.72
196.651	107.01
196.87	8.7
197.089	49.66
197.308	23.04
197.528	78.33
197.747	59.9
197.966	72.19
198.185	59.9
198.404	-28.16
198.623	33.28
198.842	20.99
199.062	51.71
199.281	66.05
199.5	92.67
199.719	29.18
199.938	133.63
200.157	12.8
200.376	39.42
200.595	76.29
200.814	35.33
201.033	78.33
201.252	18.94
201.471	35.33
201.69	80.38
201.909	16.9
202.128	31.23
202.347	18.94
202.566	10.75
202.785	-38.4
203.004	-1.54
203.223	127.49
203.442	109.05
203.661	-13.82
203.879	-54.78
204.098	49.66
204.317	-7.68
204.536	25.09
204.755	29.18
204.974	47.62
205.193	14.85
205.411	90.62
205.63	31.23
205.849	29.18
206.068	66.05
206.287	31.23
206.505	20.99
206.724	25.09
206.943	88.57
207.162	-5.63
207.381	6.66
207.599	12.8
207.818	51.71
208.037	53.76
208.255	-54.78
208.474	84.48
208.693	-5.63
208.911	8.7
209.13	64
209.349	-15.87
209.567	80.38
209.786	70.14
210.005	59.9
210.223	51.71
210.442	-15.87
210.661	-5.63
210.879	-17.92
211.098	41.47
211.316	-17.92
211.535	51.71
211.753	6.66
211.972	88.57
212.191	43.52
212.409	12.8
212.628	68.09
212.846	16.9
213.065	43.52
213.283	57.86
213.502	-40.45
213.72	80.38
213.938	31.23
214.157	-15.87
214.375	-19.97
214.594	-52.74
214.812	6.66
215.031	8.7
215.249	6.66
215.467	27.14
215.686	10.75
215.904	119.29
216.122	12.8
216.341	72.19
216.559	109.05
216.778	49.66
216.996	53.76
217.214	68.09
217.432	18.94
217.651	-22.02
217.869	27.14
218.087	27.14
218.306	66.05
218.524	27.14
218.742	-13.82
218.96	27.14
219.179	20.99
219.397	55.81
219.615	121.34
219.833	59.9
220.051	-28.16
220.27	59.9
220.488	76.29
220.706	14.85
220.924	61.95
221.142	66.05
221.36	35.33
221.578	92.67
221.796	47.62
222.015	29.18
222.233	55.81
222.451	121.34
222.669	0.51
222.887	47.62
223.105	16.9
223.323	-58.88
223.541	-17.92
223.759	14.85
223.977	25.09
224.195	131.58
224.413	74.24
224.631	-5.63
224.849	72.19
225.067	64
225.285	2.56
225.503	84.48
225.721	-36.35
225.939	16.9
226.157	102.91
226.375	39.42
226.592	43.52
226.81	123.39
227.028	-11.78
227.246	100.86
227.464	23.04
227.682	47.62
227.9	6.66
228.117	2.56
228.335	76.29
228.553	-5.63
228.771	14.85
228.989	16.9
229.206	18.94
229.424	8.7
229.642	8.7
229.86	23.04
230.077	121.34
230.295	-32.26
230.513	80.38
230.731	29.18
230.948	47.62
231.166	-26.11
231.384	-15.87
231.601	39.42
231.819	57.86
232.037	-7.68
232.254	43.52
232.472	53.76
232.689	39.42
232.907	76.29
233.125	98.81
233.342	8.7
233.56	-13.82
233.777	107.01
233.995	-28.16
234.213	137.73
234.43	14.85
234.648	59.9
234.865	-17.92
235.083	35.33
235.3	92.67
235.518	68.09
235.735	18.94
235.953	37.38
236.17	80.38
236.388	49.66
236.605	53.76
236.822	88.57
237.04	64
237.257	59.9
237.475	16.9
237.692	137.73
237.909	18.94
238.127	-9.73
238.344	117.25
238.562	84.48
238.779	-44.54
238.996	-5.63
239.214	-3.58
239.431	27.14
239.648	33.28
239.865	-11.78
240.083	64
240.3	80.38
240.517	80.38
240.735	27.14
240.952	-13.82
241.169	39.42
241.386	45.57
241.603	29.18
241.821	76.29
242.038	59.9
242.255	49.66
242.472	80.38
242.689	2.56
242.907	109.05
243.124	27.14
243.341	80.38
243.558	-1.54
243.775	14.85
243.992	8.7
244.209	23.04
244.426	53.76
244.643	-5.63
244.86	-13.82
245.078	98.81
245.295	18.94
245.512	45.57
245.729	31.23
245.946	57.86
246.163	27.14
246.38	8.7
246.597	-40.45
246.814	49.66
247.031	61.95
247.248	-13.82
247.464	4.61
247.681	70.14
247.898	82.43
248.115	49.66
248.332	0.51
248.549	18.94
248.766	125.44
248.983	55.81
249.2	27.14
249.417	80.38
249.633	35.33
249.85	23.04
250.067	57.86
250.284	64
250.501	92.67
250.717	8.7
250.934	10.75
251.151	-1.54
251.368	14.85
251.585	72.19
251.801	-24.06
252.018	59.9
252.235	51.71
252.451	-19.97
252.668	35.33
252.885	88.57
253.102	25.09
253.318	-5.63
253.535	92.67
253.752	20.99
253.968	41.47
254.185	59.9
254.401	113.15
254.618	-19.97
254.835	18.94
255.051	72.19
255.268	35.33
255.484	47.62
255.701	39.42
255.917	102.91
256.134	76.29
256.351	55.81
256.567	-17.92
256.784	-28.16
257	78.33
257.217	49.66
257.433	43.52
257.65	47.62
257.866	2.56
258.082	68.09
258.299	39.42
258.515	68.09
258.732	-22.02
258.948	20.99
259.165	76.29
259.381	-13.82
259.597	12.8
259.814	33.28
260.03	14.85
260.246	8.7
260.463	27.14
260.679	113.15
260.895	107.01
261.112	88.57
261.328	10.75
261.544	31.23
261.761	84.48
261.977	33.28
262.193	12.8
262.409	59.9
262.626	2.56
262.842	59.9
263.058	47.62
263.274	80.38
263.49	8.7
263.707	14.85
263.923	57.86
264.139	43.52
264.355	57.86
264.571	41.47
264.787	2.56
265.004	-1.54
265.22	27.14
265.436	27.14
265.652	31.23
265.868	113.15
266.084	2.56
266.3	33.28
266.516	31.23
266.732	43.52
266.948	27.14
267.164	35.33
267.38	39.42
267.596	59.9
267.812	96.77
268.028	70.14
268.244	51.71
268.46	64
268.676	68.09
268.892	37.38
269.108	-36.35
269.324	-3.58
269.54	25.09
269.756	27.14
269.972	12.8
270.188	33.28
270.403	4.61
270.619	4.61
270.835	39.42
271.051	16.9
271.267	-7.68
271.483	43.52
271.698	43.52
271.914	76.29
272.13	14.85
272.346	90.62
272.562	-5.63
272.777	25.09
272.993	51.71
273.209	6.66
273.425	45.57
273.64	14.85
273.856	43.52
274.072	8.7
274.287	76.29
274.503	68.09
274.719	47.62
274.934	35.33
275.15	2.56
275.366	49.66
275.581	18.94
275.797	29.18
276.012	37.38
276.228	45.57
276.444	68.09
276.659	74.24
276.875	29.18
277.09	-19.97
277.306	57.86
277.521	37.38
277.737	25.09
277.952	55.81
278.168	68.09
278.383	35.33
278.599	80.38
278.814	-1.54
279.03	80.38
279.245	27.14
279.461	16.9
279.676	127.49
279.892	-36.35
280.107	47.62
280.322	43.52
280.538	41.47
280.753	82.43
280.969	-40.45
281.184	78.33
281.399	-11.78
281.615	43.52
281.83	31.23
282.045	10.75
282.26	12.8
282.476	84.48
282.691	45.57
282.906	43.52
283.122	31.23
283.337	27.14
283.552	57.86
283.767	-38.4
283.983	25.09
284.198	4.61
284.413	35.33
284.628	-1.54
284.843	47.62
285.058	98.81
285.274	64
285.489	25.09
285.704	43.52
285.919	16.9
286.134	90.62
286.349	31.23
286.564	76.29
286.779	33.28
286.995	47.62
287.21	16.9
287.425	84.48
287.64	-9.73
287.855	92.67
288.07	18.94
288.285	0.51
288.5	14.85
288.715	29.18
288.93	27.14
289.145	20.99
289.36	43.52
289.575	57.86
289.79	59.9
290.004	29.18
290.219	68.09
290.434	59.9
290.649	41.47
290.864	12.8
291.079	27.14
291.294	35.33
291.509	86.53
291.724	31.23
291.938	10.75
292.153	-15.87
292.368	14.85
292.583	72.19
292.798	82.43
293.012	49.66
293.227	80.38
293.442	-13.82
293.657	43.52
293.871	98.81
294.086	68.09
294.301	160.25
294.516	78.33
294.73	137.73
294.945	64
295.16	39.42
295.374	2.56
295.589	68.09
295.804	72.19
296.018	8.7
296.233	78.33
296.447	102.91
296.662	18.94
296.877	53.76
297.091	80.38
297.306	33.28
297.52	47.62
297.735	-52.74
297.949	53.76
298.164	33.28
298.378	49.66
298.593	4.61
298.807	39.42
299.022	14.85
299.236	90.62
299.451	70.14
299.665	59.9
299.88	127.49
300.094	-28.16
300.309	14.85
300.523	41.47
300.737	39.42
300.952	68.09
301.166	84.48
301.381	39.42
301.595	-3.58
301.809	10.75
302.024	-1.54
302.238	0.51
302.452	59.9
302.667	84.48
302.881	61.95
303.095	53.76
303.309	10.75
303.524	14.85
303.738	64
303.952	20.99
304.166	57.86
304.381	43.52
304.595	111.1
304.809	41.47
305.023	14.85
305.237	2.56
305.452	18.94
305.666	78.33
305.88	121.34
306.094	27.14
306.308	82.43
306.522	68.09
306.736	27.14
306.95	74.24
307.164	53.76
307.379	20.99
307.593	109.05
307.807	-5.63
308.021	-19.97
308.235	-17.92
308.449	-93.69
308.663	72.19
308.877	133.63
309.091	68.09
309.305	68.09
309.519	6.66
309.733	-9.73
309.947	27.14
310.161	68.09
310.374	51.71
310.588	14.85
310.802	18.94
311.016	-7.68
311.23	-5.63
311.444	68.09
311.658	45.57
311.872	55.81
312.085	2.56
312.299	78.33
312.513	12.8
312.727	-17.92
312.941	4.61
313.154	82.43
313.368	41.47
313.582	41.47
313.796	6.66
314.009	39.42
314.223	53.76
314.437	70.14
314.651	-1.54
314.864	55.81
315.078	51.71
315.292	12.8
315.505	68.09
315.719	49.66
315.933	16.9
316.146	-7.68
316.36	51.71
316.573	72.19
316.787	47.62
317.001	-71.17
317.214	33.28
317.428	88.57
317.641	27.14
317.855	104.96
318.068	76.29
318.282	76.29
318.495	39.42
318.709	23.04
318.922	-11.78
319.136	49.66
319.349	129.53
319.563	86.53
319.776	35.33
319.99	-19.97
320.203	43.52
320.417	100.86
320.63	72.19
320.843	104.96
321.057	100.86
321.27	72.19
321.483	59.9
321.697	64
321.91	49.66
322.124	70.14
322.337	10.75
322.55	51.71
322.763	45.57
322.977	-17.92
323.19	10.75
323.403	113.15
323.617	18.94
323.83	113.15
324.043	47.62
324.256	47.62
324.469	78.33
324.683	80.38
324.896	76.29
325.109	10.75
325.322	8.7
325.535	68.09
325.748	117.25
325.962	72.19
326.175	31.23
326.388	94.72
326.601	23.04
326.814	59.9
327.027	-5.63
327.24	100.86
327.453	-1.54
327.666	35.33
327.879	53.76
328.092	78.33
328.305	61.95
328.518	14.85
328.731	115.2
328.944	64
329.157	111.1
329.37	8.7
329.583	47.62
329.796	137.73
330.009	41.47
330.222	117.25
330.435	88.57
330.648	74.24
330.861	43.52
331.073	18.94
331.286	59.9
331.499	57.86
331.712	82.43
331.925	14.85
332.138	55.81
332.35	66.05
332.563	39.42
332.776	35.33
332.989	-19.97
333.202	-30.21
333.414	-5.63
333.627	68.09
333.84	39.42
334.053	88.57
334.265	74.24
334.478	51.71
334.691	-5.63
334.903	10.75
335.116	43.52
335.329	61.95
335.541	96.77
335.754	135.68
335.966	57.86
336.179	53.76
336.392	80.38
336.604	41.47
336.817	74.24
337.029	20.99
337.242	53.76
337.454	88.57
337.667	66.05
337.88	43.52
338.092	66.05
338.305	64
338.517	12.8
338.729	92.67
338.942	64
339.154	10.75
339.367	43.52
339.579	51.71
339.792	64
340.004	2.56
340.217	33.28
340.429	35.33
340.641	12.8
340.854	6.66
341.066	68.09
341.278	37.38
341.491	145.92
341.703	27.14
341.915	59.9
342.128	-38.4
342.34	33.28
342.552	25.09
342.764	20.99
342.977	66.05
343.189	64
343.401	121.34
343.613	27.14
343.826	64
344.038	23.04
344.25	102.91
344.462	35.33
344.674	115.2
344.886	80.38
345.099	133.63
345.311	92.67
345.523	64
345.735	-17.92
345.947	49.66
346.159	121.34
346.371	78.33
346.583	43.52
346.795	123.39
347.007	78.33
347.219	41.47
347.431	43.52
347.643	119.29
347.855	-5.63
348.067	37.38
348.279	25.09
348.491	47.62
348.703	72.19
348.915	66.05
349.127	47.62
349.339	72.19
349.551	84.48
349.763	68.09
349.975	47.62
350.187	61.95
350.399	43.52
350.61	98.81
350.822	18.94
351.034	72.19
351.246	49.66
351.458	37.38
351.669	-24.06
351.881	137.73
352.093	53.76
352.305	94.72
352.517	80.38
352.728	100.86
352.94	61.95
353.152	57.86
353.363	49.66
353.575	27.14
353.787	66.05
353.999	49.66
354.21	94.72
354.422	-17.92
354.633	66.05
354.845	-3.58
355.057	66.05
355.268	92.67
355.48	115.2
355.692	80.38
355.903	129.53
356.115	76.29
356.326	2.56
356.538	74.24
356.749	6.66
356.961	39.42
357.172	41.47
357.384	-3.58
357.595	96.77
357.807	29.18
358.018	59.9
358.23	47.62
358.441	119.29
358.653	133.63
358.864	37.38
359.075	51.71
359.287	-5.63
359.498	68.09
359.709	57.86
359.921	107.01
360.132	43.52
360.344	18.94
360.555	16.9
360.766	80.38
360.977	18.94
361.189	150.01
361.4	37.38
361.611	64
361.823	100.86
362.034	-1.54
362.245	-54.78
362.456	18.94
362.667	8.7
362.879	64
363.09	27.14
363.301	14.85
363.512	109.05
363.723	20.99
363.935	0.51
364.146	66.05
364.357	74.24
364.568	123.39
364.779	51.71
364.99	100.86
365.201	70.14
365.412	64
365.623	49.66
365.834	109.05
366.045	100.86
366.256	158.21
366.467	29.18
366.678	-5.63
366.889	-24.06
367.1	100.86
367.311	139.77
367.522	10.75
367.733	100.86
367.944	88.57
368.155	-17.92
368.366	115.2
368.577	100.86
368.788	88.57
368.999	27.14
369.209	45.57
369.42	35.33
369.631	74.24
369.842	84.48
370.053	-5.63
370.264	29.18
370.474	84.48
370.685	66.05
370.896	57.86
371.107	98.81
371.317	115.2
371.528	88.57
371.739	113.15
371.95	51.71
372.16	39.42
372.371	82.43
372.582	80.38
372.792	107.01
373.003	104.96
373.214	41.47
373.424	66.05
373.635	25.09
373.846	98.81
374.056	12.8
374.267	33.28
374.477	59.9
374.688	55.81
374.898	119.29
375.109	96.77
375.319	78.33
375.53	152.06
375.74	92.67
375.951	23.04
376.161	131.58
376.372	43.52
376.582	27.14
376.793	119.29
377.003	61.95
377.214	35.33
377.424	98.81
377.635	76.29
377.845	68.09
378.055	117.25
378.266	20.99
378.476	88.57
378.686	16.9
378.897	92.67
379.107	61.95
379.317	66.05
379.528	41.47
379.738	145.92
379.948	-7.68
380.158	72.19
380.369	18.94
380.579	16.9
380.789	115.2
380.999	113.15
381.21	111.1
381.42	94.72
381.63	31.23
381.84	84.48
382.05	84.48
382.261	98.81
382.471	115.2
382.681	158.21
382.891	94.72
383.101	70.14
383.311	84.48
383.521	102.91
383.731	109.05
383.941	162.3
384.151	-19.97
384.361	51.71
384.571	37.38
384.781	68.09
384.991	64
385.201	119.29
385.411	113.15
385.621	107.01
385.831	90.62
386.041	25.09
386.251	29.18
386.461	129.53
386.671	57.86
386.881	37.38
387.091	92.67
387.301	119.29
387.511	-17.92
387.72	33.28
387.93	76.29
388.14	162.3
388.35	135.68
388.56	154.11
388.769	39.42
388.979	86.53
389.189	92.67
389.399	115.2
389.609	57.86
389.818	74.24
390.028	133.63
390.238	88.57
390.447	80.38
390.657	88.57
390.867	98.81
391.076	18.94
391.286	96.77
391.496	137.73
391.705	145.92
391.915	109.05
392.125	117.25
392.334	98.81
392.544	94.72
392.753	92.67
392.963	127.49
393.172	86.53
393.382	92.67
393.591	213.5
393.801	64
394.01	178.69
394.22	88.57
394.429	117.25
394.639	201.21
394.848	107.01
395.058	168.45
395.267	188.93
395.477	109.05
395.686	107.01
395.895	219.64
396.105	176.64
396.314	160.25
396.524	117.25
396.733	82.43
396.942	158.21
397.152	160.25
397.361	168.45
397.57	205.31
397.78	145.92
397.989	145.92
398.198	195.07
398.407	186.88
398.617	166.4
398.826	164.35
399.035	82.43
399.244	145.92
399.453	168.45
399.663	86.53
399.872	174.59
400.081	150.01
400.29	145.92
400.499	152.06
400.708	162.3
400.917	57.86
401.127	221.69
401.336	188.93
401.545	168.45
401.754	172.54
401.963	147.97
402.172	76.29
402.381	158.21
402.59	172.54
402.799	143.87
403.008	193.02
403.217	211.45
403.426	154.11
403.635	100.86
403.844	170.49
404.053	168.45
404.262	117.25
404.471	199.16
404.68	231.93
404.888	233.98
405.097	203.26
405.306	195.07
405.515	334.33
405.724	223.74
405.933	268.8
406.142	283.13
406.35	279.04
406.559	289.28
406.768	229.88
406.977	350.71
407.185	289.28
407.394	303.61
407.603	252.41
407.812	383.48
408.02	369.15
408.229	344.57
408.438	328.19
408.646	383.48
408.855	307.71
409.064	334.33
409.272	334.33
409.481	291.32
409.69	410.11
409.898	367.1
410.107	397.82
410.315	424.44
410.524	436.73
410.733	471.54
410.941	428.54
411.15	600.57
411.358	553.46
411.567	606.71
411.775	524.79
411.984	551.42
412.192	629.24
412.401	541.18
412.609	614.9
412.818	698.87
413.026	672.25
413.234	664.05
413.443	678.39
413.651	768.5
413.86	825.84
414.068	834.04
414.276	844.28
414.485	813.56
414.693	862.71
414.901	991.73
415.11	1055.22
415.318	1006.06
415.526	1018.35
415.734	1075.7
415.943	1124.85
416.151	1065.46
416.359	1153.52
416.567	1284.59
416.776	1321.45
416.984	1247.72
417.192	1282.54
417.4	1407.47
417.608	1315.31
417.817	1489.39
418.025	1563.11
418.233	1761.77
418.441	1632.74
418.649	1649.13
418.857	1767.91
419.065	1729
419.273	1786.34
419.481	1898.98
419.689	1905.12
419.897	2071.01
420.105	2073.06
420.313	2163.17
420.521	2273.76
420.729	2306.52
420.937	2363.87
421.145	2505.18
421.353	2527.71
421.561	2574.81
421.769	2771.41
421.977	2804.18
422.185	2886.1
422.393	3086.8
422.601	3242.45
422.809	3125.71
423.017	3185.1
423.224	3346.89
423.432	3635.66
423.64	3480.01
423.848	3838.41
424.056	3746.25
424.263	4012.48
424.471	4127.17
424.679	4069.83
424.887	4374.97
425.094	4596.15
425.302	4501.95
425.51	4569.53
425.718	4786.61
425.925	4735.42
426.133	5099.95
426.341	5290.42
426.548	5501.36
426.756	5466.54
426.964	5659.05
427.171	5949.86
427.379	6119.84
427.586	6191.52
427.794	6160.8
428.001	6470.05
428.209	6824.34
428.417	6734.23
428.624	7227.79
428.832	7434.64
429.039	7100.82
429.247	7307.66
429.454	7917.96
429.662	8649.08
429.869	7983.49
430.076	8407.42
430.284	8176
430.491	8610.17
430.699	9030.01
430.906	9218.42
431.114	9275.76
431.321	9451.89
431.528	9714.03
431.736	10180.96
431.943	10795.36
432.15	10377.57
432.358	10594.65
432.565	11200.85
432.772	11188.57
432.979	11454.8
433.187	11805
433.394	11925.83
433.601	12769.6
433.808	12927.29
434.016	12865.85
434.223	13502.77
434.43	14086.44
434.637	13781.29
434.844	14575.91
435.052	15184.15
435.259	14958.88
435.466	15272.21
435.673	15044.89
435.88	15679.76
436.087	16615.68
436.294	16767.23
436.501	16353.54
436.708	16926.97
436.915	17152.25
437.122	17889.52
437.329	17701.11
437.537	18276.59
437.743	18737.38
437.95	18727.14
438.157	19597.52
438.364	20445.38
438.571	20306.12
438.778	20148.43
438.985	22132.91
439.192	21469.37
439.399	22034.61
439.606	21393.59
439.813	22722.73
440.02	24297.61
440.227	23455.9
440.433	23576.73
440.64	24258.7
440.847	24115.34
441.054	24871.04
441.261	26257.52
441.467	25905.27
441.674	26527.85
441.881	27400.29
442.088	27338.85
442.294	27023.46
442.501	27865.17
442.708	28522.57
442.914	29431.87
443.121	30732.33
443.328	29960.25
443.534	32040.98
443.741	31330.34
443.948	30588.97
444.154	32487.44
444.361	32694.29
444.568	32987.14
444.774	32884.75
444.981	33290.24
445.187	34119.67
445.394	35700.7
445.6	34996.2
445.807	38162.36
446.013	37113.8
446.22	37480.39
446.426	38688.69
446.633	39333.8
446.839	40355.74
447.046	39061.42
447.252	41244.55
447.459	40963.98
447.665	41351.05
447.871	42635.13
448.078	44468.06
448.284	42262.4
448.491	43224.94
448.697	44646.23
448.903	45889.35
449.11	45969.22
449.316	44857.17
449.522	45838.15
449.728	46937.91
449.935	47208.24
450.141	47550.25
450.347	48590.62
450.553	46939.96
450.76	47132.46
450.966	48455.45
451.172	48379.68
451.378	49553.16
451.584	48652.06
451.791	49198.87
451.997	49553.16
452.203	50024.2
452.409	49860.36
452.615	49504.01
452.821	48121.63
453.027	47771.43
453.233	49968.9
453.44	47796.01
453.646	48557.85
453.852	48168.74
454.058	49454.86
454.264	47472.43
454.47	48690.97
454.676	47376.17
454.882	49096.47
455.088	44787.54
455.294	46051.14
455.5	45834.05
455.705	46505.79
455.911	44785.49
456.117	43870.05
456.323	43224.94
456.529	41285.51
456.735	42631.03
456.941	41406.34
457.147	41385.86
457.352	39858.08
457.558	39505.83
457.764	39217.07
457.97	38539.19
458.176	38076.35
458.381	37818.3
458.587	35786.72
458.793	36149.21
458.999	34433.01
459.204	36554.71
459.41	35837.92
459.616	33419.27
459.821	33312.77
460.027	33185.8
460.233	32604.17
460.438	30801.96
460.644	30906.41
460.85	29796.41
461.055	29675.58
461.261	29466.69
461.466	27334.75
461.672	26351.73
461.878	28137.55
462.083	26286.19
462.289	26136.69
462.494	25663.61
462.7	24408.2
462.905	24105.1
463.111	24707.21
463.316	25004.16
463.522	24404.11
463.727	24236.17
463.932	24324.24
464.138	24078.48
464.343	23873.68
464.549	23644.31
464.754	24049.81
464.959	24277.13
465.165	23894.16
465.37	22878.37
465.575	22403.24
465.781	23359.64
465.986	23429.27
466.191	22624.42
466.397	22370.47
466.602	21098.69
466.807	21434.55
467.012	21889.2
467.218	21612.73
467.423	21385.4
467.628	21547.19
