Data from USB4F104151__115__10-24-57-756.txt Node

Date: Wed Mar 12 10:24:57 EDT 2025
User: louis
Spectrometer: USB4F10415
Trigger mode: 4
Integration Time (sec): 3.000000E-2
Scans to average: 1
Electric dark correction enabled: true
Nonlinearity correction enabled: false
Boxcar width: 0
XAxis mode: Wavelengths
Number of Pixels in Spectrum: 3648
>>>>>Begin Spectral Data<<<<<
178.204	-108.88
178.424	-108.88
178.644	-108.88
178.864	-158.03
179.084	-80.21
179.304	16.04
179.524	16.04
179.744	1.71
179.964	-51.54
180.184	-59.73
180.404	11.95
180.624	42.67
180.844	26.28
181.064	13.99
181.283	-8.53
181.503	-14.68
181.723	5.8
181.943	-51.54
182.163	63.15
182.383	44.71
182.602	50.86
182.822	77.48
183.042	42.67
183.262	61.1
183.482	-6.49
183.701	13.99
183.921	13.99
184.141	-4.44
184.361	112.3
184.58	-31.06
184.8	-35.16
185.02	-35.16
185.239	100.01
185.459	38.57
185.679	13.99
185.898	-31.06
186.118	46.76
186.338	36.52
186.557	50.86
186.777	36.52
186.997	54.95
187.216	20.14
187.436	69.29
187.655	75.43
187.875	-10.58
188.095	-14.68
188.314	89.77
188.534	63.15
188.753	87.72
188.973	95.91
189.192	48.81
189.412	34.47
189.631	57
189.851	46.76
190.07	7.85
190.29	1.71
190.509	18.09
190.729	85.67
190.948	30.38
191.168	116.39
191.387	65.19
191.607	5.8
191.826	79.53
192.045	83.63
192.265	61.1
192.484	36.52
192.704	50.86
192.923	54.95
193.142	89.77
193.362	11.95
193.581	63.15
193.8	26.28
194.02	95.91
194.239	-41.3
194.458	-49.49
194.678	20.14
194.897	59.05
195.116	-33.11
195.335	57
195.555	91.82
195.774	48.81
195.993	87.72
196.212	18.09
196.432	-22.87
196.651	52.91
196.87	11.95
197.089	120.49
197.308	36.52
197.528	-31.06
197.747	-10.58
197.966	20.14
198.185	9.9
198.404	18.09
198.623	20.14
198.842	-4.44
199.062	77.48
199.281	104.11
199.5	61.1
199.719	11.95
199.938	85.67
200.157	22.19
200.376	59.05
200.595	26.28
200.814	61.1
201.033	32.43
201.252	71.34
201.471	61.1
201.69	61.1
201.909	34.47
202.128	36.52
202.347	67.24
202.566	-10.58
202.785	22.19
203.004	-22.87
203.223	61.1
203.442	28.33
203.661	-22.87
203.879	81.58
204.098	93.87
204.317	50.86
204.536	65.19
204.755	-26.96
204.974	38.57
205.193	54.95
205.411	87.72
205.63	5.8
205.849	13.99
206.068	9.9
206.287	83.63
206.505	46.76
206.724	57
206.943	34.47
207.162	18.09
207.381	63.15
207.599	69.29
207.818	102.06
208.037	20.14
208.255	-51.54
208.474	26.28
208.693	1.71
208.911	-10.58
209.13	67.24
209.349	126.63
209.567	69.29
209.786	18.09
210.005	65.19
210.223	36.52
210.442	3.75
210.661	106.15
210.879	59.05
211.098	24.23
211.316	48.81
211.535	18.09
211.753	77.48
211.972	3.75
212.191	26.28
212.409	77.48
212.628	32.43
212.846	-4.44
213.065	34.47
213.283	50.86
213.502	-0.34
213.72	-4.44
213.938	57
214.157	48.81
214.375	79.53
214.594	5.8
214.812	57
215.031	95.91
215.249	26.28
215.467	-29.01
215.686	93.87
215.904	11.95
216.122	30.38
216.341	24.23
216.559	-10.58
216.778	42.67
216.996	48.81
217.214	9.9
217.432	3.75
217.651	40.62
217.869	-20.82
218.087	9.9
218.306	26.28
218.524	87.72
218.742	22.19
218.96	44.71
219.179	-51.54
219.397	5.8
219.615	69.29
219.833	83.63
220.051	22.19
220.27	75.43
220.488	-10.58
220.706	50.86
220.924	44.71
221.142	30.38
221.36	85.67
221.578	52.91
221.796	30.38
222.015	30.38
222.233	22.19
222.451	26.28
222.669	59.05
222.887	67.24
223.105	-20.82
223.323	-8.53
223.541	16.04
223.759	83.63
223.977	63.15
224.195	91.82
224.413	1.71
224.631	38.57
224.849	59.05
225.067	63.15
225.285	28.33
225.503	38.57
225.721	34.47
225.939	67.24
226.157	116.39
226.375	44.71
226.592	-76.12
226.81	9.9
227.028	40.62
227.246	54.95
227.464	22.19
227.682	153.26
227.9	54.95
228.117	11.95
228.335	85.67
228.553	50.86
228.771	26.28
228.989	83.63
229.206	79.53
229.424	46.76
229.642	9.9
229.86	1.71
230.077	118.44
230.295	65.19
230.513	34.47
230.731	93.87
230.948	71.34
231.166	-0.34
231.384	-4.44
231.601	-14.68
231.819	77.48
232.037	50.86
232.254	61.1
232.472	71.34
232.689	18.09
232.907	11.95
233.125	-20.82
233.342	9.9
233.56	-8.53
233.777	-18.77
233.995	22.19
234.213	136.87
234.43	83.63
234.648	-6.49
234.865	38.57
235.083	42.67
235.3	11.95
235.518	87.72
235.735	52.91
235.953	26.28
236.17	38.57
236.388	46.76
236.605	30.38
236.822	110.25
237.04	28.33
237.257	81.58
237.475	38.57
237.692	-16.73
237.909	65.19
238.127	69.29
238.344	13.99
238.562	42.67
238.779	-35.16
238.996	69.29
239.214	18.09
239.431	38.57
239.648	63.15
239.865	118.44
240.083	36.52
240.3	112.3
240.517	71.34
240.735	54.95
240.952	67.24
241.169	54.95
241.386	73.39
241.603	11.95
241.821	73.39
242.038	97.96
242.255	95.91
242.472	-20.82
242.689	112.3
242.907	52.91
243.124	-10.58
243.341	-6.49
243.558	-22.87
243.775	100.01
243.992	13.99
244.209	50.86
244.426	48.81
244.643	44.71
244.86	77.48
245.078	97.96
245.295	7.85
245.512	79.53
245.729	-51.54
245.946	28.33
246.163	28.33
246.38	71.34
246.597	-16.73
246.814	20.14
247.031	38.57
247.248	69.29
247.464	-43.35
247.681	87.72
247.898	44.71
248.115	69.29
248.332	13.99
248.549	54.95
248.766	65.19
248.983	91.82
249.2	-8.53
249.417	136.87
249.633	-26.96
249.85	50.86
250.067	38.57
250.284	116.39
250.501	-24.92
250.717	126.63
250.934	97.96
251.151	38.57
251.368	34.47
251.585	63.15
251.801	30.38
252.018	13.99
252.235	-8.53
252.451	-2.39
252.668	30.38
252.885	65.19
253.102	44.71
253.318	26.28
253.535	16.04
253.752	67.24
253.968	93.87
254.185	34.47
254.401	-20.82
254.618	93.87
254.835	3.75
255.051	69.29
255.268	112.3
255.484	46.76
255.701	38.57
255.917	108.2
256.134	-0.34
256.351	7.85
256.567	-33.11
256.784	-2.39
257	-96.6
257.217	24.23
257.433	63.15
257.65	159.4
257.866	32.43
258.082	-35.16
258.299	63.15
258.515	110.25
258.732	18.09
258.948	-10.58
259.165	83.63
259.381	87.72
259.597	-49.49
259.814	54.95
260.03	38.57
260.246	83.63
260.463	69.29
260.679	1.71
260.895	-2.39
261.112	75.43
261.328	-4.44
261.544	54.95
261.761	26.28
261.977	-2.39
262.193	40.62
262.409	116.39
262.626	34.47
262.842	34.47
263.058	71.34
263.274	46.76
263.49	120.49
263.707	71.34
263.923	97.96
264.139	61.1
264.355	81.58
264.571	13.99
264.787	42.67
265.004	32.43
265.22	124.58
265.436	32.43
265.652	44.71
265.868	-0.34
266.084	16.04
266.3	50.86
266.516	-0.34
266.732	44.71
266.948	-63.83
267.164	18.09
267.38	3.75
267.596	118.44
267.812	46.76
268.028	34.47
268.244	20.14
268.46	83.63
268.676	-31.06
268.892	42.67
269.108	75.43
269.324	65.19
269.54	-8.53
269.756	54.95
269.972	52.91
270.188	26.28
270.403	3.75
270.619	18.09
270.835	-53.59
271.051	87.72
271.267	-45.4
271.483	5.8
271.698	-67.92
271.914	83.63
272.13	57
272.346	-12.63
272.562	89.77
272.777	26.28
272.993	20.14
273.209	46.76
273.425	52.91
273.64	77.48
273.856	87.72
274.072	54.95
274.287	38.57
274.503	95.91
274.719	44.71
274.934	67.24
275.15	-14.68
275.366	16.04
275.581	5.8
275.797	75.43
276.012	63.15
276.228	50.86
276.444	16.04
276.659	50.86
276.875	-18.77
277.09	24.23
277.306	-8.53
277.521	61.1
277.737	91.82
277.952	34.47
278.168	91.82
278.383	13.99
278.599	40.62
278.814	18.09
279.03	-39.25
279.245	65.19
279.461	38.57
279.676	89.77
279.892	-2.39
280.107	18.09
280.322	81.58
280.538	48.81
280.753	-33.11
280.969	73.39
281.184	-43.35
281.399	104.11
281.615	5.8
281.83	71.34
282.045	50.86
282.26	75.43
282.476	30.38
282.691	50.86
282.906	-2.39
283.122	69.29
283.337	132.78
283.552	65.19
283.767	22.19
283.983	50.86
284.198	71.34
284.413	100.01
284.628	-2.39
284.843	46.76
285.058	102.06
285.274	5.8
285.489	-33.11
285.704	83.63
285.919	38.57
286.134	-16.73
286.349	52.91
286.564	-24.92
286.779	104.11
286.995	16.04
287.21	7.85
287.425	81.58
287.64	54.95
287.855	100.01
288.07	69.29
288.285	91.82
288.5	20.14
288.715	79.53
288.93	7.85
289.145	67.24
289.36	59.05
289.575	3.75
289.79	50.86
290.004	24.23
290.219	1.71
290.434	7.85
290.649	20.14
290.864	65.19
291.079	34.47
291.294	67.24
291.509	22.19
291.724	100.01
291.938	77.48
292.153	110.25
292.368	42.67
292.583	75.43
292.798	87.72
293.012	73.39
293.227	73.39
293.442	54.95
293.657	22.19
293.871	79.53
294.086	40.62
294.301	77.48
294.516	13.99
294.73	16.04
294.945	-18.77
295.16	67.24
295.374	85.67
295.589	108.2
295.804	50.86
296.018	11.95
296.233	-8.53
296.447	26.28
296.662	1.71
296.877	118.44
297.091	95.91
297.306	50.86
297.52	50.86
297.735	34.47
297.949	87.72
298.164	112.3
298.378	28.33
298.593	30.38
298.807	79.53
299.022	50.86
299.236	59.05
299.451	75.43
299.665	-16.73
299.88	83.63
300.094	22.19
300.309	73.39
300.523	36.52
300.737	32.43
300.952	114.34
301.166	67.24
301.381	54.95
301.595	3.75
301.809	34.47
302.024	7.85
302.238	16.04
302.452	50.86
302.667	38.57
302.881	149.16
303.095	67.24
303.309	69.29
303.524	11.95
303.738	46.76
303.952	83.63
304.166	59.05
304.381	-29.01
304.595	87.72
304.809	-12.63
305.023	54.95
305.237	30.38
305.452	-0.34
305.666	126.63
305.88	40.62
306.094	71.34
306.308	11.95
306.522	-18.77
306.736	34.47
306.95	79.53
307.164	26.28
307.379	22.19
307.593	91.82
307.807	79.53
308.021	32.43
308.235	79.53
308.449	-0.34
308.663	30.38
308.877	75.43
309.091	54.95
309.305	3.75
309.519	22.19
309.733	91.82
309.947	50.86
310.161	34.47
310.374	79.53
310.588	50.86
310.802	71.34
311.016	57
311.23	59.05
311.444	95.91
311.658	120.49
311.872	59.05
312.085	40.62
312.299	34.47
312.513	26.28
312.727	65.19
312.941	-45.4
313.154	22.19
313.368	22.19
313.582	102.06
313.796	44.71
314.009	93.87
314.223	5.8
314.437	48.81
314.651	75.43
314.864	-16.73
315.078	110.25
315.292	-31.06
315.505	50.86
315.719	63.15
315.933	-12.63
316.146	36.52
316.36	18.09
316.573	52.91
316.787	65.19
317.001	40.62
317.214	159.4
317.428	112.3
317.641	-20.82
317.855	3.75
318.068	-4.44
318.282	48.81
318.495	136.87
318.709	7.85
318.922	18.09
319.136	108.2
319.349	91.82
319.563	71.34
319.776	93.87
319.99	20.14
320.203	54.95
320.417	69.29
320.63	-14.68
320.843	59.05
321.057	57
321.27	73.39
321.483	28.33
321.697	112.3
321.91	59.05
322.124	18.09
322.337	57
322.55	95.91
322.763	61.1
322.977	75.43
323.19	-20.82
323.403	50.86
323.617	57
323.83	59.05
324.043	54.95
324.256	46.76
324.469	-10.58
324.683	46.76
324.896	87.72
325.109	59.05
325.322	-72.02
325.535	44.71
325.748	54.95
325.962	50.86
326.175	71.34
326.388	69.29
326.601	69.29
326.814	-43.35
327.027	38.57
327.24	85.67
327.453	52.91
327.666	63.15
327.879	83.63
328.092	71.34
328.305	71.34
328.518	46.76
328.731	11.95
328.944	67.24
329.157	11.95
329.37	42.67
329.583	69.29
329.796	24.23
330.009	30.38
330.222	114.34
330.435	-2.39
330.648	-8.53
330.861	50.86
331.073	83.63
331.286	97.96
331.499	73.39
331.712	-29.01
331.925	52.91
332.138	40.62
332.35	89.77
332.563	54.95
332.776	24.23
332.989	50.86
333.202	61.1
333.414	11.95
333.627	85.67
333.84	83.63
334.053	65.19
334.265	22.19
334.478	110.25
334.691	50.86
334.903	52.91
335.116	63.15
335.329	-2.39
335.541	48.81
335.754	169.64
335.966	26.28
336.179	28.33
336.392	13.99
336.604	153.26
336.817	-37.2
337.029	46.76
337.242	93.87
337.454	34.47
337.667	26.28
337.88	95.91
338.092	79.53
338.305	42.67
338.517	106.15
338.729	52.91
338.942	83.63
339.154	40.62
339.367	42.67
339.579	44.71
339.792	26.28
340.004	1.71
340.217	9.9
340.429	38.57
340.641	34.47
340.854	24.23
341.066	83.63
341.278	79.53
341.491	100.01
341.703	108.2
341.915	91.82
342.128	61.1
342.34	22.19
342.552	67.24
342.764	42.67
342.977	38.57
343.189	22.19
343.401	128.68
343.613	57
343.826	42.67
344.038	42.67
344.25	100.01
344.462	30.38
344.674	77.48
344.886	81.58
345.099	79.53
345.311	89.77
345.523	1.71
345.735	-26.96
345.947	71.34
346.159	95.91
346.371	85.67
346.583	44.71
346.795	63.15
347.007	-0.34
347.219	63.15
347.431	28.33
347.643	36.52
347.855	54.95
348.067	138.92
348.279	-10.58
348.491	30.38
348.703	112.3
348.915	-31.06
349.127	36.52
349.339	20.14
349.551	93.87
349.763	63.15
349.975	75.43
350.187	5.8
350.399	-2.39
350.61	136.87
350.822	46.76
351.034	95.91
351.246	38.57
351.458	34.47
351.669	145.06
351.881	87.72
352.093	34.47
352.305	91.82
352.517	85.67
352.728	112.3
352.94	54.95
353.152	79.53
353.363	36.52
353.575	59.05
353.787	52.91
353.999	20.14
354.21	18.09
354.422	22.19
354.633	79.53
354.845	61.1
355.057	5.8
355.268	63.15
355.48	91.82
355.692	20.14
355.903	83.63
356.115	-18.77
356.326	26.28
356.538	134.82
356.749	59.05
356.961	59.05
357.172	38.57
357.384	36.52
357.595	85.67
357.807	69.29
358.018	87.72
358.23	57
358.441	30.38
358.653	59.05
358.864	106.15
359.075	79.53
359.287	32.43
359.498	42.67
359.709	26.28
359.921	75.43
360.132	112.3
360.344	120.49
360.555	42.67
360.766	48.81
360.977	28.33
361.189	75.43
361.4	54.95
361.611	173.74
361.823	93.87
362.034	87.72
362.245	85.67
362.456	40.62
362.667	38.57
362.879	192.17
363.09	11.95
363.301	95.91
363.512	65.19
363.723	85.67
363.935	44.71
364.146	75.43
364.357	73.39
364.568	40.62
364.779	20.14
364.99	75.43
365.201	83.63
365.412	91.82
365.623	57
365.834	77.48
366.045	13.99
366.256	93.87
366.467	138.92
366.678	75.43
366.889	7.85
367.1	59.05
367.311	85.67
367.522	22.19
367.733	81.58
367.944	52.91
368.155	22.19
368.366	93.87
368.577	83.63
368.788	30.38
368.999	1.71
369.209	18.09
369.42	102.06
369.631	161.45
369.842	102.06
370.053	81.58
370.264	134.82
370.474	75.43
370.685	46.76
370.896	110.25
371.107	143.02
371.317	69.29
371.528	36.52
371.739	124.58
371.95	93.87
372.16	65.19
372.371	28.33
372.582	32.43
372.792	81.58
373.003	30.38
373.214	5.8
373.424	110.25
373.635	-45.4
373.846	52.91
374.056	116.39
374.267	79.53
374.477	118.44
374.688	50.86
374.898	63.15
375.109	75.43
375.319	44.71
375.53	54.95
375.74	100.01
375.951	30.38
376.161	77.48
376.372	124.58
376.582	54.95
376.793	75.43
377.003	13.99
377.214	71.34
377.424	73.39
377.635	57
377.845	16.04
378.055	22.19
378.266	40.62
378.476	38.57
378.686	100.01
378.897	-16.73
379.107	65.19
379.317	97.96
379.528	30.38
379.738	100.01
379.948	9.9
380.158	28.33
380.369	126.63
380.579	118.44
380.789	126.63
380.999	44.71
381.21	20.14
381.42	36.52
381.63	-12.63
381.84	128.68
382.05	16.04
382.261	83.63
382.471	36.52
382.681	57
382.891	3.75
383.101	22.19
383.311	26.28
383.521	20.14
383.731	93.87
383.941	95.91
384.151	106.15
384.361	30.38
384.571	112.3
384.781	77.48
384.991	65.19
385.201	149.16
385.411	75.43
385.621	106.15
385.831	81.58
386.041	28.33
386.251	75.43
386.461	69.29
386.671	81.58
386.881	-10.58
387.091	71.34
387.301	85.67
387.511	73.39
387.72	104.11
387.93	36.52
388.14	11.95
388.35	116.39
388.56	54.95
388.769	118.44
388.979	34.47
389.189	77.48
389.399	1.71
389.609	59.05
389.818	71.34
390.028	18.09
390.238	149.16
390.447	-37.2
390.657	110.25
390.867	93.87
391.076	63.15
391.286	30.38
391.496	93.87
391.705	38.57
391.915	108.2
392.125	63.15
392.334	79.53
392.544	71.34
392.753	102.06
392.963	36.52
393.172	161.45
393.382	32.43
393.591	145.06
393.801	46.76
394.01	136.87
394.22	124.58
394.429	26.28
394.639	69.29
394.848	140.97
395.058	18.09
395.267	112.3
395.477	116.39
395.686	167.59
395.895	130.73
396.105	140.97
396.314	110.25
396.524	102.06
396.733	46.76
396.942	145.06
397.152	145.06
397.361	149.16
397.57	69.29
397.78	173.74
397.989	95.91
398.198	171.69
398.407	132.78
398.617	169.64
398.826	102.06
399.035	126.63
399.244	210.6
399.453	147.11
399.663	165.54
399.872	95.91
400.081	40.62
400.29	126.63
400.499	128.68
400.708	104.11
400.917	87.72
401.127	128.68
401.336	140.97
401.545	128.68
401.754	110.25
401.963	120.49
402.172	79.53
402.381	126.63
402.59	79.53
402.799	183.98
403.008	116.39
403.217	214.7
403.426	161.45
403.635	136.87
403.844	134.82
404.053	136.87
404.262	169.64
404.471	177.83
404.68	124.58
404.888	202.41
405.097	235.18
405.306	212.65
405.515	206.5
405.724	194.22
405.933	272.04
406.142	226.98
406.35	239.27
406.559	163.5
406.768	229.03
406.977	226.98
407.185	327.33
407.394	229.03
407.603	245.41
407.812	253.61
408.02	276.13
408.229	274.09
408.438	341.67
408.646	276.13
408.855	304.81
409.064	263.85
409.272	261.8
409.481	327.33
409.69	333.48
409.898	288.42
410.107	339.62
410.315	388.77
410.524	319.14
410.733	376.48
410.941	341.67
411.15	382.63
411.358	452.26
411.567	454.31
411.775	452.26
411.984	415.4
412.192	476.84
412.401	552.61
412.609	548.51
412.818	558.75
413.026	489.12
413.234	501.41
413.443	632.48
413.651	566.95
413.86	616.1
414.068	607.91
414.276	655.01
414.485	648.86
414.693	765.6
414.901	878.24
415.11	792.22
415.318	814.75
415.526	851.61
415.734	898.72
415.943	886.43
416.151	994.97
416.359	890.53
416.567	1013.4
416.776	904.86
416.984	1056.41
417.192	1181.34
417.4	1175.19
417.608	1111.71
417.817	1140.38
418.025	1142.43
418.233	1351.32
418.441	1224.34
418.649	1271.45
418.857	1443.48
419.065	1496.72
419.273	1404.57
419.481	1476.24
419.689	1660.56
419.897	1691.28
420.105	1719.95
420.313	1765.01
420.521	1828.49
420.729	1793.68
420.937	1928.85
421.145	1902.22
421.353	2021
421.561	2115.21
421.769	2131.59
421.977	2348.68
422.185	2262.66
422.393	2365.06
422.601	2565.76
422.809	2666.11
423.017	2567.81
423.224	2680.45
423.432	2774.66
423.64	2799.23
423.848	3010.17
424.056	2991.74
424.263	3081.85
424.471	3147.39
424.679	3292.79
424.887	3407.48
425.094	3516.02
425.302	3501.69
425.51	3712.63
425.718	3776.11
425.925	3825.26
426.133	4056.68
426.341	4122.22
426.548	4232.81
426.756	4413.03
426.964	4554.34
427.171	4572.77
427.379	4752.99
427.586	4861.54
427.794	5006.94
428.001	5224.03
428.209	5535.32
428.417	5537.37
428.624	5641.81
428.832	5611.09
429.039	5676.63
429.247	5748.31
429.454	6344.27
429.662	6702.66
429.869	6194.76
430.076	6581.83
430.284	6622.79
430.491	7005.76
430.699	7214.65
430.906	7157.31
431.114	7304.76
431.321	7384.63
431.528	7704.12
431.736	8234.54
431.943	8496.68
432.15	8234.54
432.358	8388.14
432.565	9008.67
432.772	8865.32
432.979	9328.16
433.187	9381.4
433.394	9416.22
433.601	10083.86
433.808	10108.43
434.016	10061.33
434.223	10503.69
434.43	11275.77
434.637	10860.04
434.844	11617.79
435.052	11787.77
435.259	11791.86
435.466	12031.48
435.673	11730.42
435.88	12455.4
436.087	13037.03
436.294	13252.06
436.501	12908.01
436.708	13336.03
436.915	13573.6
437.122	14274
437.329	14050.77
437.537	14480.85
437.743	14755.27
437.95	14685.64
438.157	15410.62
438.364	16008.63
438.571	15945.14
438.778	15922.62
438.985	17714.59
439.192	16825.77
439.399	17376.67
439.606	17272.23
439.813	17915.29
440.02	19150.21
440.227	18607.5
440.433	18484.62
440.64	19006.86
440.847	19092.87
441.054	19383.68
441.261	20563.31
441.467	20651.38
441.674	21032.3
441.881	21292.39
442.088	21665.12
442.294	21431.65
442.501	21986.65
442.708	22371.67
442.914	23506.24
443.121	24327.48
443.328	23450.95
443.534	25093.42
443.741	24530.23
443.948	24077.63
444.154	25912.61
444.361	25429.29
444.568	26144.03
444.774	25996.57
444.981	26045.73
445.187	26889.49
445.394	27907.33
445.6	27596.04
445.807	30289.12
446.013	28880.11
446.22	29218.03
446.426	30348.51
446.633	30940.37
446.839	31638.73
447.046	30338.27
447.252	32296.13
447.459	32492.73
447.665	32199.87
447.871	34073.76
448.078	34843.8
448.284	33514.67
448.491	34380.96
448.697	35751.05
448.903	36146.31
449.11	36066.44
449.316	35484.81
449.522	36154.5
449.728	36768.89
449.935	37270.64
450.141	37127.28
450.347	38196.32
450.553	36543.61
450.76	37174.39
450.966	38495.33
451.172	38061.16
451.378	38724.7
451.584	38253.67
451.791	39087.19
451.997	38749.28
452.203	39230.55
452.409	39328.85
452.615	39251.03
452.821	37377.14
453.027	37078.13
453.233	39066.71
453.44	37657.71
453.646	38141.03
453.852	38519.9
454.058	38829.15
454.264	37514.35
454.47	38214.76
454.676	36850.81
454.882	38411.36
455.088	35335.31
455.294	36111.49
455.5	36398.21
455.705	36699.26
455.911	34946.2
456.117	34546.84
456.323	34020.52
456.529	31997.12
456.735	33328.3
456.941	32494.78
457.147	32185.54
457.352	31104.21
457.558	30694.61
457.764	30751.96
457.97	30379.23
458.176	29517.03
458.381	29265.13
458.587	28105.98
458.793	28163.32
458.999	26662.16
459.204	28554.49
459.41	27845.89
459.616	25933.09
459.821	25718.05
460.027	25687.33
460.233	24958.25
460.438	24030.52
460.644	24618.29
460.85	23272.78
461.055	23039.31
461.261	22805.84
461.466	20958.57
461.672	20467.06
461.878	21976.41
462.083	20424.05
462.289	20125.05
462.494	19930.49
462.7	19164.55
462.905	18570.64
463.111	19387.78
463.316	19332.48
463.522	18894.22
463.727	18881.93
463.932	18908.55
464.138	18681.23
464.343	18701.71
464.549	18216.34
464.754	18873.74
464.959	18808.2
465.165	18294.16
465.37	17737.12
465.575	17288.61
465.781	17890.71
465.986	18103.7
466.191	17450.4
466.397	16973.22
466.602	16344.5
466.807	16770.47
467.012	16864.68
467.218	16836.01
