Data from USB4F104151__255__10-39-45-208.txt Node

Date: Wed Mar 12 10:39:45 EDT 2025
User: louis
Spectrometer: USB4F10415
Trigger mode: 4
Integration Time (sec): 3.000000E-2
Scans to average: 1
Electric dark correction enabled: true
Nonlinearity correction enabled: false
Boxcar width: 0
XAxis mode: Wavelengths
Number of Pixels in Spectrum: 3648
>>>>>Begin Spectral Data<<<<<
178.204	-116.22
178.424	-116.22
178.644	-116.22
178.864	-60.93
179.084	-32.26
179.304	41.47
179.524	-34.3
179.744	0.51
179.964	31.23
180.184	-24.06
180.404	-50.69
180.624	27.14
180.844	45.57
181.064	-36.35
181.283	-30.21
181.503	10.75
181.723	18.94
181.943	6.66
182.163	152.06
182.383	53.76
182.602	57.86
182.822	92.67
183.042	25.09
183.262	100.86
183.482	76.29
183.701	84.48
183.921	100.86
184.141	35.33
184.361	41.47
184.58	80.38
184.8	80.38
185.02	47.62
185.239	82.43
185.459	107.01
185.679	88.57
185.898	-30.21
186.118	129.53
186.338	55.81
186.557	115.2
186.777	-13.82
186.997	8.7
187.216	53.76
187.436	102.91
187.655	117.25
187.875	129.53
188.095	33.28
188.314	4.61
188.534	51.71
188.753	29.18
188.973	23.04
189.192	90.62
189.412	68.09
189.631	55.81
189.851	72.19
190.07	80.38
190.29	0.51
190.509	84.48
190.729	49.66
190.948	127.49
191.168	147.97
191.387	115.2
191.607	61.95
191.826	102.91
192.045	72.19
192.265	76.29
192.484	37.38
192.704	64
192.923	41.47
193.142	176.64
193.362	86.53
193.581	18.94
193.8	152.06
194.02	47.62
194.239	90.62
194.458	113.15
194.678	35.33
194.897	2.56
195.116	61.95
195.335	141.82
195.555	43.52
195.774	10.75
195.993	72.19
196.212	100.86
196.432	43.52
196.651	59.9
196.87	-30.21
197.089	160.25
197.308	20.99
197.528	51.71
197.747	-22.02
197.966	90.62
198.185	94.72
198.404	-7.68
198.623	113.15
198.842	113.15
199.062	109.05
199.281	137.73
199.5	84.48
199.719	76.29
199.938	10.75
200.157	57.86
200.376	88.57
200.595	-17.92
200.814	78.33
201.033	20.99
201.252	55.81
201.471	59.9
201.69	100.86
201.909	55.81
202.128	37.38
202.347	43.52
202.566	111.1
202.785	66.05
203.004	12.8
203.223	98.81
203.442	55.81
203.661	72.19
203.879	100.86
204.098	78.33
204.317	29.18
204.536	123.39
204.755	37.38
204.974	37.38
205.193	45.57
205.411	107.01
205.63	64
205.849	61.95
206.068	51.71
206.287	49.66
206.505	31.23
206.724	109.05
206.943	-11.78
207.162	76.29
207.381	37.38
207.599	133.63
207.818	82.43
208.037	31.23
208.255	139.77
208.474	76.29
208.693	72.19
208.911	37.38
209.13	117.25
209.349	45.57
209.567	86.53
209.786	37.38
210.005	154.11
210.223	33.28
210.442	59.9
210.661	88.57
210.879	166.4
211.098	35.33
211.316	10.75
211.535	102.91
211.753	43.52
211.972	117.25
212.191	27.14
212.409	41.47
212.628	37.38
212.846	20.99
213.065	109.05
213.283	90.62
213.502	121.34
213.72	66.05
213.938	-38.4
214.157	29.18
214.375	43.52
214.594	86.53
214.812	59.9
215.031	23.04
215.249	74.24
215.467	74.24
215.686	39.42
215.904	72.19
216.122	61.95
216.341	61.95
216.559	90.62
216.778	143.87
216.996	61.95
217.214	84.48
217.432	31.23
217.651	-77.31
217.869	20.99
218.087	49.66
218.306	59.9
218.524	25.09
218.742	53.76
218.96	25.09
219.179	68.09
219.397	92.67
219.615	135.68
219.833	96.77
220.051	18.94
220.27	55.81
220.488	125.44
220.706	72.19
220.924	137.73
221.142	80.38
221.36	47.62
221.578	25.09
221.796	55.81
222.015	20.99
222.233	59.9
222.451	96.77
222.669	-9.73
222.887	121.34
223.105	117.25
223.323	-22.02
223.541	90.62
223.759	43.52
223.977	14.85
224.195	49.66
224.413	53.76
224.631	90.62
224.849	25.09
225.067	115.2
225.285	27.14
225.503	33.28
225.721	41.47
225.939	98.81
226.157	117.25
226.375	137.73
226.592	45.57
226.81	25.09
227.028	43.52
227.246	135.68
227.464	6.66
227.682	82.43
227.9	72.19
228.117	14.85
228.335	51.71
228.553	123.39
228.771	59.9
228.989	80.38
229.206	43.52
229.424	47.62
229.642	76.29
229.86	29.18
230.077	74.24
230.295	154.11
230.513	145.92
230.731	145.92
230.948	92.67
231.166	84.48
231.384	107.01
231.601	43.52
231.819	78.33
232.037	88.57
232.254	57.86
232.472	133.63
232.689	43.52
232.907	72.19
233.125	80.38
233.342	8.7
233.56	-67.07
233.777	104.96
233.995	113.15
234.213	117.25
234.43	178.69
234.648	41.47
234.865	41.47
235.083	86.53
235.3	55.81
235.518	37.38
235.735	70.14
235.953	64
236.17	115.2
236.388	152.06
236.605	125.44
236.822	-15.87
237.04	33.28
237.257	53.76
237.475	61.95
237.692	6.66
237.909	70.14
238.127	-9.73
238.344	123.39
238.562	72.19
238.779	59.9
238.996	90.62
239.214	88.57
239.431	35.33
239.648	-3.58
239.865	18.94
240.083	76.29
240.3	111.1
240.517	125.44
240.735	70.14
240.952	115.2
241.169	98.81
241.386	78.33
241.603	76.29
241.821	64
242.038	27.14
242.255	90.62
242.472	20.99
242.689	141.82
242.907	137.73
243.124	109.05
243.341	68.09
243.558	76.29
243.775	68.09
243.992	-15.87
244.209	203.26
244.426	123.39
244.643	31.23
244.86	23.04
245.078	121.34
245.295	109.05
245.512	92.67
245.729	68.09
245.946	66.05
246.163	90.62
246.38	49.66
246.597	55.81
246.814	109.05
247.031	41.47
247.248	127.49
247.464	133.63
247.681	72.19
247.898	57.86
248.115	45.57
248.332	43.52
248.549	107.01
248.766	96.77
248.983	180.73
249.2	25.09
249.417	176.64
249.633	72.19
249.85	80.38
250.067	82.43
250.284	109.05
250.501	45.57
250.717	43.52
250.934	55.81
251.151	55.81
251.368	96.77
251.585	55.81
251.801	53.76
252.018	98.81
252.235	64
252.451	51.71
252.668	-19.97
252.885	45.57
253.102	43.52
253.318	-13.82
253.535	88.57
253.752	4.61
253.968	96.77
254.185	16.9
254.401	100.86
254.618	68.09
254.835	43.52
255.051	133.63
255.268	96.77
255.484	47.62
255.701	107.01
255.917	139.77
256.134	18.94
256.351	68.09
256.567	0.51
256.784	80.38
257	76.29
257.217	119.29
257.433	117.25
257.65	45.57
257.866	51.71
258.082	115.2
258.299	49.66
258.515	43.52
258.732	84.48
258.948	143.87
259.165	102.91
259.381	49.66
259.597	78.33
259.814	80.38
260.03	25.09
260.246	8.7
260.463	20.99
260.679	43.52
260.895	86.53
261.112	53.76
261.328	18.94
261.544	35.33
261.761	76.29
261.977	68.09
262.193	68.09
262.409	78.33
262.626	53.76
262.842	68.09
263.058	35.33
263.274	96.77
263.49	53.76
263.707	117.25
263.923	113.15
264.139	66.05
264.355	131.58
264.571	152.06
264.787	102.91
265.004	55.81
265.22	55.81
265.436	-15.87
265.652	104.96
265.868	39.42
266.084	-15.87
266.3	113.15
266.516	64
266.732	98.81
266.948	47.62
267.164	135.68
267.38	84.48
267.596	59.9
267.812	104.96
268.028	43.52
268.244	35.33
268.46	109.05
268.676	57.86
268.892	80.38
269.108	27.14
269.324	61.95
269.54	64
269.756	125.44
269.972	33.28
270.188	49.66
270.403	49.66
270.619	76.29
270.835	43.52
271.051	49.66
271.267	94.72
271.483	111.1
271.698	76.29
271.914	45.57
272.13	49.66
272.346	43.52
272.562	68.09
272.777	94.72
272.993	66.05
273.209	80.38
273.425	57.86
273.64	70.14
273.856	166.4
274.072	59.9
274.287	59.9
274.503	33.28
274.719	84.48
274.934	135.68
275.15	33.28
275.366	123.39
275.581	84.48
275.797	133.63
276.012	39.42
276.228	68.09
276.444	16.9
276.659	100.86
276.875	31.23
277.09	4.61
277.306	23.04
277.521	51.71
277.737	41.47
277.952	104.96
278.168	70.14
278.383	160.25
278.599	88.57
278.814	109.05
279.03	59.9
279.245	84.48
279.461	86.53
279.676	102.91
279.892	59.9
280.107	78.33
280.322	76.29
280.538	41.47
280.753	-5.63
280.969	72.19
281.184	57.86
281.399	113.15
281.615	94.72
281.83	127.49
282.045	45.57
282.26	39.42
282.476	80.38
282.691	92.67
282.906	88.57
283.122	94.72
283.337	-17.92
283.552	72.19
283.767	78.33
283.983	94.72
284.198	47.62
284.413	55.81
284.628	0.51
284.843	31.23
285.058	131.58
285.274	43.52
285.489	102.91
285.704	82.43
285.919	100.86
286.134	88.57
286.349	23.04
286.564	88.57
286.779	229.88
286.995	27.14
287.21	6.66
287.425	94.72
287.64	76.29
287.855	90.62
288.07	94.72
288.285	47.62
288.5	76.29
288.715	129.53
288.93	43.52
289.145	33.28
289.36	96.77
289.575	45.57
289.79	141.82
290.004	113.15
290.219	141.82
290.434	16.9
290.649	-5.63
290.864	37.38
291.079	131.58
291.294	84.48
291.509	84.48
291.724	43.52
291.938	94.72
292.153	82.43
292.368	33.28
292.583	94.72
292.798	27.14
293.012	41.47
293.227	84.48
293.442	43.52
293.657	147.97
293.871	117.25
294.086	92.67
294.301	70.14
294.516	84.48
294.73	100.86
294.945	72.19
295.16	6.66
295.374	121.34
295.589	150.01
295.804	45.57
296.018	-5.63
296.233	98.81
296.447	53.76
296.662	-13.82
296.877	113.15
297.091	25.09
297.306	51.71
297.52	16.9
297.735	104.96
297.949	27.14
298.164	127.49
298.378	123.39
298.593	135.68
298.807	94.72
299.022	119.29
299.236	39.42
299.451	92.67
299.665	10.75
299.88	129.53
300.094	43.52
300.309	23.04
300.523	66.05
300.737	152.06
300.952	16.9
301.166	133.63
301.381	98.81
301.595	98.81
301.809	41.47
302.024	115.2
302.238	45.57
302.452	78.33
302.667	80.38
302.881	109.05
303.095	84.48
303.309	111.1
303.524	27.14
303.738	64
303.952	82.43
304.166	104.96
304.381	47.62
304.595	154.11
304.809	-5.63
305.023	125.44
305.237	78.33
305.452	76.29
305.666	0.51
305.88	137.73
306.094	121.34
306.308	127.49
306.522	115.2
306.736	14.85
306.95	119.29
307.164	23.04
307.379	20.99
307.593	115.2
307.807	182.78
308.021	90.62
308.235	150.01
308.449	72.19
308.663	121.34
308.877	51.71
309.091	43.52
309.305	51.71
309.519	104.96
309.733	47.62
309.947	119.29
310.161	113.15
310.374	113.15
310.588	109.05
310.802	39.42
311.016	33.28
311.23	68.09
311.444	68.09
311.658	14.85
311.872	61.95
312.085	64
312.299	86.53
312.513	43.52
312.727	27.14
312.941	41.47
313.154	129.53
313.368	80.38
313.582	162.3
313.796	76.29
314.009	113.15
314.223	94.72
314.437	100.86
314.651	100.86
314.864	76.29
315.078	27.14
315.292	47.62
315.505	78.33
315.719	156.16
315.933	55.81
316.146	2.56
316.36	20.99
316.573	76.29
316.787	119.29
317.001	143.87
317.214	33.28
317.428	102.91
317.641	100.86
317.855	39.42
318.068	59.9
318.282	104.96
318.495	113.15
318.709	121.34
318.922	111.1
319.136	94.72
319.349	78.33
319.563	92.67
319.776	4.61
319.99	72.19
320.203	199.16
320.417	86.53
320.63	156.16
320.843	147.97
321.057	86.53
321.27	70.14
321.483	61.95
321.697	70.14
321.91	104.96
322.124	12.8
322.337	104.96
322.55	31.23
322.763	164.35
322.977	96.77
323.19	49.66
323.403	80.38
323.617	59.9
323.83	117.25
324.043	121.34
324.256	59.9
324.469	72.19
324.683	64
324.896	72.19
325.109	121.34
325.322	104.96
325.535	74.24
325.748	-7.68
325.962	66.05
326.175	90.62
326.388	84.48
326.601	147.97
326.814	100.86
327.027	139.77
327.24	90.62
327.453	66.05
327.666	131.58
327.879	55.81
328.092	141.82
328.305	51.71
328.518	92.67
328.731	88.57
328.944	115.2
329.157	70.14
329.37	45.57
329.583	113.15
329.796	76.29
330.009	88.57
330.222	37.38
330.435	92.67
330.648	57.86
330.861	35.33
331.073	113.15
331.286	74.24
331.499	88.57
331.712	45.57
331.925	74.24
332.138	16.9
332.35	88.57
332.563	23.04
332.776	111.1
332.989	47.62
333.202	80.38
333.414	100.86
333.627	109.05
333.84	158.21
334.053	88.57
334.265	31.23
334.478	84.48
334.691	139.77
334.903	53.76
335.116	70.14
335.329	131.58
335.541	143.87
335.754	43.52
335.966	55.81
336.179	76.29
336.392	80.38
336.604	141.82
336.817	31.23
337.029	47.62
337.242	59.9
337.454	90.62
337.667	68.09
337.88	82.43
338.092	133.63
338.305	145.92
338.517	107.01
338.729	104.96
338.942	129.53
339.154	102.91
339.367	107.01
339.579	115.2
339.792	90.62
340.004	55.81
340.217	131.58
340.429	145.92
340.641	100.86
340.854	39.42
341.066	109.05
341.278	104.96
341.491	123.39
341.703	61.95
341.915	49.66
342.128	107.01
342.34	100.86
342.552	25.09
342.764	92.67
342.977	31.23
343.189	127.49
343.401	66.05
343.613	25.09
343.826	90.62
344.038	61.95
344.25	150.01
344.462	-26.11
344.674	117.25
344.886	117.25
345.099	80.38
345.311	145.92
345.523	72.19
345.735	-9.73
345.947	119.29
346.159	53.76
346.371	-1.54
346.583	76.29
346.795	16.9
347.007	90.62
347.219	166.4
347.431	53.76
347.643	141.82
347.855	117.25
348.067	107.01
348.279	59.9
348.491	90.62
348.703	37.38
348.915	190.97
349.127	55.81
349.339	98.81
349.551	88.57
349.763	90.62
349.975	92.67
350.187	96.77
350.399	88.57
350.61	129.53
350.822	109.05
351.034	90.62
351.246	72.19
351.458	74.24
351.669	61.95
351.881	76.29
352.093	164.35
352.305	190.97
352.517	45.57
352.728	125.44
352.94	76.29
353.152	123.39
353.363	61.95
353.575	121.34
353.787	180.73
353.999	55.81
354.21	172.54
354.422	76.29
354.633	84.48
354.845	139.77
355.057	47.62
355.268	64
355.48	117.25
355.692	80.38
355.903	70.14
356.115	20.99
356.326	68.09
356.538	76.29
356.749	98.81
356.961	160.25
357.172	76.29
357.384	100.86
357.595	133.63
357.807	98.81
358.018	66.05
358.23	8.7
358.441	178.69
358.653	145.92
358.864	125.44
359.075	31.23
359.287	139.77
359.498	41.47
359.709	80.38
359.921	127.49
360.132	76.29
360.344	90.62
360.555	8.7
360.766	92.67
360.977	-1.54
361.189	129.53
361.4	68.09
361.611	109.05
361.823	33.28
362.034	82.43
362.245	68.09
362.456	123.39
362.667	74.24
362.879	25.09
363.09	115.2
363.301	100.86
363.512	2.56
363.723	68.09
363.935	76.29
364.146	39.42
364.357	43.52
364.568	107.01
364.779	102.91
364.99	125.44
365.201	-1.54
365.412	86.53
365.623	-1.54
365.834	82.43
366.045	111.1
366.256	92.67
366.467	100.86
366.678	131.58
366.889	111.1
367.1	29.18
367.311	123.39
367.522	37.38
367.733	104.96
367.944	133.63
368.155	80.38
368.366	76.29
368.577	127.49
368.788	123.39
368.999	55.81
369.209	68.09
369.42	143.87
369.631	158.21
369.842	133.63
370.053	84.48
370.264	143.87
370.474	59.9
370.685	64
370.896	147.97
371.107	113.15
371.317	98.81
371.528	70.14
371.739	121.34
371.95	129.53
372.16	133.63
372.371	55.81
372.582	150.01
372.792	47.62
373.003	127.49
373.214	45.57
373.424	90.62
373.635	10.75
373.846	117.25
374.056	39.42
374.267	68.09
374.477	92.67
374.688	59.9
374.898	57.86
375.109	80.38
375.319	80.38
375.53	141.82
375.74	72.19
375.951	100.86
376.161	59.9
376.372	111.1
376.582	121.34
376.793	49.66
377.003	170.49
377.214	119.29
377.424	174.59
377.635	82.43
377.845	84.48
378.055	82.43
378.266	78.33
378.476	96.77
378.686	109.05
378.897	80.38
379.107	109.05
379.317	133.63
379.528	68.09
379.738	100.86
379.948	59.9
380.158	154.11
380.369	111.1
380.579	158.21
380.789	49.66
380.999	82.43
381.21	25.09
381.42	145.92
381.63	92.67
381.84	129.53
382.05	129.53
382.261	211.45
382.471	123.39
382.681	125.44
382.891	49.66
383.101	92.67
383.311	104.96
383.521	109.05
383.731	133.63
383.941	2.56
384.151	107.01
384.361	145.92
384.571	107.01
384.781	82.43
384.991	72.19
385.201	115.2
385.411	86.53
385.621	150.01
385.831	57.86
386.041	145.92
386.251	74.24
386.461	84.48
386.671	166.4
386.881	82.43
387.091	141.82
387.301	184.83
387.511	86.53
387.72	107.01
387.93	213.5
388.14	86.53
388.35	147.97
388.56	74.24
388.769	78.33
388.979	39.42
389.189	96.77
389.399	84.48
389.609	133.63
389.818	96.77
390.028	121.34
390.238	211.45
390.447	182.78
390.657	104.96
390.867	66.05
391.076	94.72
391.286	111.1
391.496	123.39
391.705	84.48
391.915	109.05
392.125	203.26
392.334	107.01
392.544	147.97
392.753	59.9
392.963	59.9
393.172	147.97
393.382	170.49
393.591	158.21
393.801	107.01
394.01	125.44
394.22	90.62
394.429	139.77
394.639	162.3
394.848	115.2
395.058	147.97
395.267	166.4
395.477	96.77
395.686	92.67
395.895	209.4
396.105	213.5
396.314	137.73
396.524	162.3
396.733	207.36
396.942	227.84
397.152	242.17
397.361	117.25
397.57	135.68
397.78	147.97
397.989	182.78
398.198	147.97
398.407	215.55
398.617	205.31
398.826	156.16
399.035	176.64
399.244	135.68
399.453	135.68
399.663	166.4
399.872	236.03
400.081	197.12
400.29	195.07
400.499	109.05
400.708	205.31
400.917	240.12
401.127	225.79
401.336	227.84
401.545	199.16
401.754	219.64
401.963	182.78
402.172	141.82
402.381	125.44
402.59	236.03
402.799	156.16
403.008	211.45
403.217	266.75
403.426	160.25
403.635	264.7
403.844	170.49
404.053	328.19
404.262	176.64
404.471	281.08
404.68	262.65
404.888	186.88
405.097	215.55
405.306	268.8
405.515	270.84
405.724	233.98
405.933	383.48
406.142	233.98
406.35	291.32
406.559	236.03
406.768	270.84
406.977	365.05
407.185	301.56
407.394	301.56
407.603	236.03
407.812	313.85
408.02	256.51
408.229	313.85
408.438	293.37
408.646	219.64
408.855	346.62
409.064	389.63
409.272	328.19
409.481	471.54
409.69	401.91
409.898	412.15
410.107	440.83
410.315	494.07
410.524	528.89
410.733	428.54
410.941	467.45
411.15	539.13
411.358	545.27
411.567	553.46
411.775	520.7
411.984	565.75
412.192	598.52
412.401	598.52
412.609	608.76
412.818	653.81
413.026	719.35
413.234	782.84
413.443	676.34
413.651	760.31
413.86	811.51
414.068	862.71
414.276	903.67
414.485	829.94
414.693	813.56
414.901	973.3
415.11	956.91
415.318	973.3
415.526	920.05
415.734	1042.93
415.943	1133.04
416.151	1096.18
416.359	1151.47
416.567	1165.81
416.776	1227.25
416.984	1255.92
417.192	1364.46
417.4	1389.03
417.608	1341.93
417.817	1376.75
418.025	1456.62
418.233	1655.27
418.441	1559.02
418.649	1663.46
418.857	1741.29
419.065	1669.61
419.273	1749.48
419.481	1804.77
419.689	1923.55
419.897	2054.62
420.105	2142.69
420.313	2154.98
420.521	2099.68
420.729	2204.13
420.937	2333.15
421.145	2492.89
421.353	2492.89
421.561	2658.78
421.769	2750.93
421.977	2836.95
422.185	2677.21
422.393	2783.7
422.601	3135.95
422.809	3117.52
423.017	3152.34
423.224	3430.86
423.432	3469.77
423.64	3500.49
423.848	3832.26
424.056	3848.65
424.263	3873.22
424.471	3893.7
424.679	4080.07
424.887	4399.55
425.094	4405.69
425.302	4487.61
425.51	4612.54
425.718	4823.48
425.925	4796.85
426.133	5087.67
426.341	5013.94
426.548	5294.51
426.756	5358
426.964	5544.36
427.171	5759.4
427.379	6021.54
427.586	5972.39
427.794	6351.26
428.001	6601.12
428.209	6721.95
428.417	6599.07
428.624	7137.68
428.832	7399.82
429.039	7266.71
429.247	7192.98
429.454	7930.25
429.662	8251.78
429.869	7860.62
430.076	8257.92
430.284	8221.06
430.491	8530.3
430.699	8939.9
430.906	9079.16
431.114	9195.89
431.321	9439.6
431.528	9742.7
431.736	10121.57
431.943	10652
432.15	10463.58
432.358	10764.64
432.565	11256.15
432.772	11018.58
432.979	11522.38
433.187	11866.44
433.394	11983.18
433.601	12908.86
433.808	12839.23
434.016	12605.76
434.223	13379.89
434.43	13996.33
434.637	13957.42
434.844	14690.59
435.052	14854.43
435.259	14879
435.466	15147.29
435.673	14852.38
435.88	15911.18
436.087	16539.91
436.294	16709.89
436.501	16390.41
436.708	16539.91
436.915	17209.59
437.122	17950.96
437.329	18063.6
437.537	18499.81
437.743	18907.36
437.95	18737.38
438.157	19478.74
438.364	20261.07
438.571	20299.98
438.778	20336.84
438.985	22116.53
439.192	21485.75
439.399	22161.58
439.606	21475.51
439.813	22681.77
440.02	24092.82
440.227	23918.74
440.433	23525.53
440.64	24588.42
440.847	24297.61
441.054	25041.03
441.261	26306.67
441.467	26230.9
441.674	26482.8
441.881	27508.83
442.088	27474.01
442.294	27306.08
442.501	27992.15
442.708	28776.52
442.914	29896.76
443.121	30971.94
443.328	30197.81
443.534	32507.92
443.741	31371.3
443.948	30830.63
444.154	33431.55
444.361	32804.88
444.568	33380.35
444.774	33515.52
444.981	33798.14
445.187	35137.51
445.394	36024.28
445.6	35508.19
445.807	38866.86
446.013	37605.31
446.22	38313.91
446.426	39210.92
446.633	39772.07
446.839	41295.75
447.046	39548.84
447.252	42006.4
447.459	41875.33
447.665	40986.51
447.871	43329.39
448.078	44687.19
448.284	42993.52
448.491	44167.01
448.697	45672.26
448.903	46331.71
449.11	46466.87
449.316	45514.57
449.522	46300.99
449.728	47712.04
449.935	47812.39
450.141	47468.33
450.347	48936.73
450.553	47488.81
450.76	47804.2
450.966	48901.91
451.172	48844.57
451.378	49733.39
451.584	48928.53
451.791	49940.23
451.997	49698.57
452.203	50671.35
452.409	50149.12
452.615	50052.87
452.821	48281.38
453.027	47800.1
453.233	50134.79
453.44	47994.66
453.646	48553.76
453.852	48283.42
454.058	49182.48
454.264	47454
454.47	48369.44
454.676	47019.83
454.882	48764.7
455.088	44535.64
455.294	44722.01
455.5	45963.07
455.705	46272.32
455.911	44339.04
456.117	43274.09
456.323	43093.87
456.529	40669.08
456.735	42014.59
456.941	41078.67
457.147	40578.96
457.352	39309.22
457.558	38602.67
457.764	38252.47
457.97	37777.34
458.176	37492.68
458.381	36997.07
458.587	35631.07
458.793	35571.68
458.999	33374.21
459.204	35975.13
459.41	34848.75
459.616	32620.56
459.821	32557.07
460.027	32610.32
460.233	31936.54
460.438	30337.07
460.644	30722.09
460.85	29288.51
461.055	28821.58
461.261	28592.2
461.466	26028.15
461.672	25581.69
461.878	27746.39
462.083	26015.86
462.289	25137.28
462.494	24995.97
462.7	23926.93
462.905	23316.64
463.111	24232.08
463.316	24053.9
463.522	23601.3
463.727	23681.17
463.932	23640.22
464.138	23484.57
464.343	23666.84
464.549	23068.83
464.754	23871.64
