Data from USB4F104151__277__10-40-58-310.txt Node

Date: Wed Mar 12 10:40:58 EDT 2025
User: louis
Spectrometer: USB4F10415
Trigger mode: 4
Integration Time (sec): 3.000000E-2
Scans to average: 1
Electric dark correction enabled: true
Nonlinearity correction enabled: false
Boxcar width: 0
XAxis mode: Wavelengths
Number of Pixels in Spectrum: 3648
>>>>>Begin Spectral Data<<<<<
178.204	-159.23
178.424	-159.23
178.644	-159.23
178.864	-65.02
179.084	-69.12
179.304	-24.06
179.524	2.56
179.744	-30.21
179.964	33.28
180.184	-19.97
180.404	14.85
180.624	-1.54
180.844	35.33
181.064	-73.21
181.283	53.76
181.503	4.61
181.723	4.61
181.943	-60.93
182.163	8.7
182.383	49.66
182.602	14.85
182.822	82.43
183.042	-69.12
183.262	25.09
183.482	59.9
183.701	-11.78
183.921	39.42
184.141	-7.68
184.361	-38.4
184.58	55.81
184.8	49.66
185.02	-1.54
185.239	12.8
185.459	14.85
185.679	23.04
185.898	-26.11
186.118	33.28
186.338	8.7
186.557	12.8
186.777	-38.4
186.997	-17.92
187.216	78.33
187.436	41.47
187.655	68.09
187.875	35.33
188.095	-28.16
188.314	12.8
188.534	51.71
188.753	-24.06
188.973	-11.78
189.192	45.57
189.412	41.47
189.631	16.9
189.851	-54.78
190.07	8.7
190.29	59.9
190.509	20.99
190.729	-44.54
190.948	8.7
191.168	92.67
191.387	39.42
191.607	8.7
191.826	45.57
192.045	49.66
192.265	-7.68
192.484	90.62
192.704	53.76
192.923	41.47
193.142	33.28
193.362	37.38
193.581	133.63
193.8	41.47
194.02	61.95
194.239	39.42
194.458	23.04
194.678	-17.92
194.897	74.24
195.116	-50.69
195.335	20.99
195.555	49.66
195.774	-48.64
195.993	27.14
196.212	-19.97
196.432	-40.45
196.651	37.38
196.87	-30.21
197.089	41.47
197.308	20.99
197.528	6.66
197.747	53.76
197.966	49.66
198.185	72.19
198.404	39.42
198.623	0.51
198.842	8.7
199.062	25.09
199.281	84.48
199.5	59.9
199.719	-34.3
199.938	102.91
200.157	-1.54
200.376	59.9
200.595	49.66
200.814	43.52
201.033	-3.58
201.252	70.14
201.471	39.42
201.69	45.57
201.909	49.66
202.128	-9.73
202.347	25.09
202.566	-73.21
202.785	-77.31
203.004	-40.45
203.223	107.01
203.442	31.23
203.661	12.8
203.879	90.62
204.098	16.9
204.317	-24.06
204.536	14.85
204.755	16.9
204.974	23.04
205.193	64
205.411	117.25
205.63	25.09
205.849	16.9
206.068	25.09
206.287	0.51
206.505	70.14
206.724	35.33
206.943	37.38
207.162	57.86
207.381	61.95
207.599	12.8
207.818	96.77
208.037	31.23
208.255	23.04
208.474	37.38
208.693	102.91
208.911	59.9
209.13	43.52
209.349	20.99
209.567	104.96
209.786	27.14
210.005	23.04
210.223	20.99
210.442	-3.58
210.661	51.71
210.879	51.71
211.098	37.38
211.316	29.18
211.535	4.61
211.753	0.51
211.972	66.05
212.191	-46.59
212.409	68.09
212.628	6.66
212.846	41.47
213.065	-13.82
213.283	94.72
213.502	16.9
213.72	72.19
213.938	66.05
214.157	12.8
214.375	-44.54
214.594	33.28
214.812	53.76
215.031	70.14
215.249	-15.87
215.467	-34.3
215.686	18.94
215.904	33.28
216.122	33.28
216.341	33.28
216.559	10.75
216.778	57.86
216.996	66.05
217.214	31.23
217.432	25.09
217.651	-36.35
217.869	66.05
218.087	-7.68
218.306	29.18
218.524	57.86
218.742	51.71
218.96	78.33
219.179	82.43
219.397	41.47
219.615	43.52
219.833	41.47
220.051	31.23
220.27	33.28
220.488	39.42
220.706	20.99
220.924	59.9
221.142	37.38
221.36	70.14
221.578	4.61
221.796	0.51
222.015	-46.59
222.233	8.7
222.451	102.91
222.669	4.61
222.887	59.9
223.105	20.99
223.323	84.48
223.541	16.9
223.759	0.51
223.977	61.95
224.195	74.24
224.413	20.99
224.631	-3.58
224.849	6.66
225.067	68.09
225.285	80.38
225.503	-22.02
225.721	-11.78
225.939	135.68
226.157	64
226.375	61.95
226.592	14.85
226.81	47.62
227.028	59.9
227.246	51.71
227.464	-48.64
227.682	61.95
227.9	25.09
228.117	70.14
228.335	25.09
228.553	6.66
228.771	-7.68
228.989	53.76
229.206	47.62
229.424	-5.63
229.642	47.62
229.86	2.56
230.077	115.2
230.295	111.1
230.513	78.33
230.731	76.29
230.948	57.86
231.166	98.81
231.384	39.42
231.601	-19.97
231.819	61.95
232.037	41.47
232.254	45.57
232.472	61.95
232.689	-1.54
232.907	59.9
233.125	-67.07
233.342	64
233.56	-60.93
233.777	41.47
233.995	39.42
234.213	78.33
234.43	25.09
234.648	16.9
234.865	57.86
235.083	0.51
235.3	-5.63
235.518	86.53
235.735	64
235.953	29.18
236.17	16.9
236.388	51.71
236.605	-9.73
236.822	119.29
237.04	49.66
237.257	4.61
237.475	49.66
237.692	66.05
237.909	47.62
238.127	-32.26
238.344	-11.78
238.562	-48.64
238.779	-32.26
238.996	-19.97
239.214	111.1
239.431	33.28
239.648	25.09
239.865	90.62
240.083	43.52
240.3	100.86
240.517	-1.54
240.735	23.04
240.952	39.42
241.169	-7.68
241.386	-15.87
241.603	55.81
241.821	-3.58
242.038	2.56
242.255	-32.26
242.472	16.9
242.689	-46.59
242.907	-3.58
243.124	35.33
243.341	33.28
243.558	64
243.775	-19.97
243.992	14.85
244.209	137.73
244.426	66.05
244.643	70.14
244.86	-40.45
245.078	18.94
245.295	29.18
245.512	53.76
245.729	57.86
245.946	43.52
246.163	53.76
246.38	-9.73
246.597	23.04
246.814	23.04
247.031	-58.88
247.248	8.7
247.464	49.66
247.681	23.04
247.898	37.38
248.115	31.23
248.332	-36.35
248.549	47.62
248.766	49.66
248.983	94.72
249.2	-5.63
249.417	51.71
249.633	12.8
249.85	76.29
250.067	6.66
250.284	-7.68
250.501	-9.73
250.717	66.05
250.934	0.51
251.151	31.23
251.368	90.62
251.585	68.09
251.801	57.86
252.018	51.71
252.235	16.9
252.451	35.33
252.668	100.86
252.885	49.66
253.102	39.42
253.318	18.94
253.535	53.76
253.752	-24.06
253.968	-22.02
254.185	-40.45
254.401	16.9
254.618	-3.58
254.835	-17.92
255.051	43.52
255.268	41.47
255.484	23.04
255.701	20.99
255.917	64
256.134	-15.87
256.351	82.43
256.567	-13.82
256.784	74.24
257	-34.3
257.217	68.09
257.433	25.09
257.65	27.14
257.866	84.48
258.082	29.18
258.299	-7.68
258.515	47.62
258.732	-5.63
258.948	-60.93
259.165	45.57
259.381	-50.69
259.597	4.61
259.814	57.86
260.03	55.81
260.246	121.34
260.463	29.18
260.679	37.38
260.895	74.24
261.112	59.9
261.328	-1.54
261.544	57.86
261.761	8.7
261.977	0.51
262.193	2.56
262.409	8.7
262.626	23.04
262.842	33.28
263.058	2.56
263.274	74.24
263.49	41.47
263.707	29.18
263.923	16.9
264.139	-67.07
264.355	57.86
264.571	70.14
264.787	-11.78
265.004	64
265.22	10.75
265.436	-7.68
265.652	35.33
265.868	-3.58
266.084	-3.58
266.3	78.33
266.516	-9.73
266.732	55.81
266.948	8.7
267.164	12.8
267.38	0.51
267.596	18.94
267.812	12.8
268.028	84.48
268.244	12.8
268.46	76.29
268.676	37.38
268.892	70.14
269.108	-65.02
269.324	-46.59
269.54	-34.3
269.756	10.75
269.972	45.57
270.188	20.99
270.403	-1.54
270.619	80.38
270.835	27.14
271.051	18.94
271.267	41.47
271.483	6.66
271.698	25.09
271.914	35.33
272.13	43.52
272.346	59.9
272.562	4.61
272.777	55.81
272.993	6.66
273.209	-34.3
273.425	47.62
273.64	-7.68
273.856	131.58
274.072	23.04
274.287	-40.45
274.503	53.76
274.719	14.85
274.934	70.14
275.15	74.24
275.366	29.18
275.581	53.76
275.797	33.28
276.012	27.14
276.228	29.18
276.444	12.8
276.659	74.24
276.875	59.9
277.09	49.66
277.306	-42.5
277.521	49.66
277.737	31.23
277.952	45.57
278.168	8.7
278.383	68.09
278.599	0.51
278.814	25.09
279.03	49.66
279.245	96.77
279.461	39.42
279.676	80.38
279.892	-11.78
280.107	53.76
280.322	-28.16
280.538	6.66
280.753	20.99
280.969	102.91
281.184	25.09
281.399	90.62
281.615	104.96
281.83	57.86
282.045	2.56
282.26	-40.45
282.476	41.47
282.691	6.66
282.906	57.86
283.122	-11.78
283.337	-32.26
283.552	100.86
283.767	-1.54
283.983	61.95
284.198	53.76
284.413	68.09
284.628	-52.74
284.843	45.57
285.058	4.61
285.274	104.96
285.489	12.8
285.704	131.58
285.919	74.24
286.134	113.15
286.349	25.09
286.564	-11.78
286.779	23.04
286.995	-7.68
287.21	6.66
287.425	-22.02
287.64	25.09
287.855	-19.97
288.07	33.28
288.285	43.52
288.5	104.96
288.715	33.28
288.93	2.56
289.145	25.09
289.36	-1.54
289.575	-9.73
289.79	45.57
290.004	-60.93
290.219	55.81
290.434	66.05
290.649	6.66
290.864	64
291.079	57.86
291.294	57.86
291.509	10.75
291.724	80.38
291.938	53.76
292.153	-3.58
292.368	20.99
292.583	8.7
292.798	59.9
293.012	74.24
293.227	43.52
293.442	-26.11
293.657	70.14
293.871	111.1
294.086	92.67
294.301	72.19
294.516	45.57
294.73	4.61
294.945	45.57
295.16	57.86
295.374	18.94
295.589	59.9
295.804	39.42
296.018	43.52
296.233	107.01
296.447	18.94
296.662	33.28
296.877	86.53
297.091	6.66
297.306	10.75
297.52	45.57
297.735	55.81
297.949	70.14
298.164	102.91
298.378	49.66
298.593	33.28
298.807	61.95
299.022	-28.16
299.236	45.57
299.451	109.05
299.665	115.2
299.88	-7.68
300.094	43.52
300.309	43.52
300.523	80.38
300.737	37.38
300.952	-19.97
301.166	107.01
301.381	8.7
301.595	94.72
301.809	20.99
302.024	57.86
302.238	-15.87
302.452	53.76
302.667	47.62
302.881	16.9
303.095	57.86
303.309	49.66
303.524	55.81
303.738	33.28
303.952	41.47
304.166	49.66
304.381	29.18
304.595	76.29
304.809	4.61
305.023	68.09
305.237	41.47
305.452	23.04
305.666	88.57
305.88	33.28
306.094	37.38
306.308	66.05
306.522	23.04
306.736	59.9
306.95	39.42
307.164	68.09
307.379	57.86
307.593	111.1
307.807	72.19
308.021	64
308.235	80.38
308.449	-17.92
308.663	55.81
308.877	119.29
309.091	8.7
309.305	49.66
309.519	-11.78
309.733	102.91
309.947	-11.78
310.161	55.81
310.374	43.52
310.588	29.18
310.802	39.42
311.016	-24.06
311.23	45.57
311.444	20.99
311.658	31.23
311.872	129.53
312.085	66.05
312.299	29.18
312.513	100.86
312.727	145.92
312.941	57.86
313.154	31.23
313.368	53.76
313.582	137.73
313.796	-19.97
314.009	23.04
314.223	-3.58
314.437	66.05
314.651	16.9
314.864	2.56
315.078	0.51
315.292	55.81
315.505	72.19
315.719	2.56
315.933	49.66
316.146	8.7
316.36	18.94
316.573	41.47
316.787	59.9
317.001	29.18
317.214	49.66
317.428	43.52
317.641	25.09
317.855	-3.58
318.068	43.52
318.282	53.76
318.495	86.53
318.709	57.86
318.922	27.14
319.136	70.14
319.349	53.76
319.563	16.9
319.776	25.09
319.99	-52.74
320.203	84.48
320.417	100.86
320.63	102.91
320.843	115.2
321.057	16.9
321.27	98.81
321.483	72.19
321.697	74.24
321.91	66.05
322.124	8.7
322.337	37.38
322.55	-65.02
322.763	72.19
322.977	27.14
323.19	78.33
323.403	137.73
323.617	0.51
323.83	109.05
324.043	12.8
324.256	98.81
324.469	-24.06
324.683	61.95
324.896	-9.73
325.109	82.43
325.322	-15.87
325.535	78.33
325.748	141.82
325.962	-22.02
326.175	57.86
326.388	72.19
326.601	78.33
326.814	115.2
327.027	33.28
327.24	94.72
327.453	4.61
327.666	107.01
327.879	57.86
328.092	119.29
328.305	41.47
328.518	61.95
328.731	-7.68
328.944	49.66
329.157	25.09
329.37	59.9
329.583	70.14
329.796	53.76
330.009	-11.78
330.222	-60.93
330.435	29.18
330.648	80.38
330.861	-44.54
331.073	66.05
331.286	86.53
331.499	53.76
331.712	-91.65
331.925	57.86
332.138	27.14
332.35	78.33
332.563	-3.58
332.776	29.18
332.989	6.66
333.202	78.33
333.414	49.66
333.627	6.66
333.84	41.47
334.053	72.19
334.265	41.47
334.478	55.81
334.691	33.28
334.903	20.99
335.116	64
335.329	57.86
335.541	47.62
335.754	29.18
335.966	92.67
336.179	31.23
336.392	2.56
336.604	92.67
336.817	31.23
337.029	-58.88
337.242	49.66
337.454	45.57
337.667	37.38
337.88	113.15
338.092	45.57
338.305	41.47
338.517	59.9
338.729	102.91
338.942	84.48
339.154	-15.87
339.367	25.09
339.579	47.62
339.792	27.14
340.004	66.05
340.217	14.85
340.429	66.05
340.641	78.33
340.854	18.94
341.066	74.24
341.278	33.28
341.491	14.85
341.703	-19.97
341.915	57.86
342.128	68.09
342.34	39.42
342.552	29.18
342.764	35.33
342.977	-17.92
343.189	90.62
343.401	39.42
343.613	70.14
343.826	-11.78
344.038	66.05
344.25	90.62
344.462	-15.87
344.674	96.77
344.886	66.05
345.099	33.28
345.311	68.09
345.523	33.28
345.735	-5.63
345.947	45.57
346.159	35.33
346.371	61.95
346.583	35.33
346.795	119.29
347.007	45.57
347.219	37.38
347.431	20.99
347.643	100.86
347.855	49.66
348.067	41.47
348.279	47.62
348.491	51.71
348.703	111.1
348.915	27.14
349.127	16.9
349.339	16.9
349.551	57.86
349.763	37.38
349.975	53.76
350.187	102.91
350.399	35.33
350.61	64
350.822	45.57
351.034	23.04
351.246	64
351.458	57.86
351.669	80.38
351.881	8.7
352.093	107.01
352.305	39.42
352.517	45.57
352.728	61.95
352.94	20.99
353.152	61.95
353.363	41.47
353.575	74.24
353.787	80.38
353.999	59.9
354.21	66.05
354.422	82.43
354.633	39.42
354.845	8.7
355.057	133.63
355.268	61.95
355.48	80.38
355.692	4.61
355.903	131.58
356.115	14.85
356.326	6.66
356.538	49.66
356.749	35.33
356.961	41.47
357.172	72.19
357.384	39.42
357.595	86.53
357.807	10.75
358.018	72.19
358.23	137.73
358.441	94.72
358.653	31.23
358.864	14.85
359.075	39.42
359.287	90.62
359.498	86.53
359.709	31.23
359.921	86.53
360.132	41.47
360.344	49.66
360.555	23.04
360.766	127.49
360.977	-3.58
361.189	33.28
361.4	84.48
361.611	78.33
361.823	47.62
362.034	45.57
362.245	70.14
362.456	70.14
362.667	20.99
362.879	80.38
363.09	70.14
363.301	0.51
363.512	51.71
363.723	82.43
363.935	186.88
364.146	72.19
364.357	94.72
364.568	92.67
364.779	-3.58
364.99	12.8
365.201	-17.92
365.412	45.57
365.623	80.38
365.834	39.42
366.045	53.76
366.256	59.9
366.467	98.81
366.678	102.91
366.889	23.04
367.1	49.66
367.311	100.86
367.522	41.47
367.733	10.75
367.944	49.66
368.155	14.85
368.366	82.43
368.577	90.62
368.788	109.05
368.999	53.76
369.209	90.62
369.42	107.01
369.631	90.62
369.842	119.29
370.053	76.29
370.264	55.81
370.474	64
370.685	16.9
370.896	66.05
371.107	23.04
371.317	64
371.528	25.09
371.739	68.09
371.95	98.81
372.16	64
372.371	35.33
372.582	80.38
372.792	90.62
373.003	98.81
373.214	70.14
373.424	123.39
373.635	-5.63
373.846	49.66
374.056	121.34
374.267	4.61
374.477	72.19
374.688	-5.63
374.898	6.66
375.109	53.76
375.319	10.75
375.53	8.7
375.74	10.75
375.951	41.47
376.161	18.94
376.372	125.44
376.582	-5.63
376.793	33.28
377.003	-56.83
377.214	12.8
377.424	51.71
377.635	57.86
377.845	86.53
378.055	113.15
378.266	55.81
378.476	74.24
378.686	64
378.897	125.44
379.107	70.14
379.317	96.77
379.528	25.09
379.738	66.05
379.948	-9.73
380.158	74.24
380.369	-19.97
380.579	74.24
380.789	104.96
380.999	64
381.21	57.86
381.42	203.26
381.63	74.24
381.84	57.86
382.05	152.06
382.261	96.77
382.471	107.01
382.681	37.38
382.891	213.5
383.101	215.55
383.311	-85.5
383.521	49.66
383.731	-1.54
383.941	70.14
384.151	68.09
384.361	92.67
384.571	45.57
384.781	98.81
384.991	113.15
385.201	72.19
385.411	31.23
385.621	43.52
385.831	23.04
386.041	82.43
386.251	76.29
386.461	109.05
386.671	115.2
386.881	90.62
387.091	41.47
387.301	180.73
387.511	51.71
387.72	51.71
387.93	66.05
388.14	12.8
388.35	49.66
388.56	123.39
388.769	64
388.979	92.67
389.189	47.62
389.399	74.24
389.609	47.62
389.818	29.18
390.028	94.72
390.238	115.2
390.447	16.9
390.657	102.91
390.867	33.28
391.076	25.09
391.286	53.76
391.496	41.47
391.705	88.57
391.915	98.81
392.125	59.9
392.334	82.43
392.544	113.15
392.753	27.14
392.963	104.96
393.172	88.57
393.382	111.1
393.591	170.49
393.801	88.57
394.01	139.77
394.22	172.54
394.429	121.34
394.639	45.57
394.848	117.25
395.058	113.15
395.267	94.72
395.477	111.1
395.686	66.05
395.895	186.88
396.105	176.64
396.314	156.16
396.524	150.01
396.733	164.35
396.942	193.02
397.152	121.34
397.361	109.05
397.57	98.81
397.78	27.14
397.989	164.35
398.198	172.54
398.407	137.73
398.617	164.35
398.826	135.68
399.035	131.58
399.244	174.59
399.453	66.05
399.663	160.25
399.872	143.87
400.081	102.91
400.29	154.11
400.499	64
400.708	166.4
400.917	86.53
401.127	100.86
401.336	133.63
401.545	229.88
401.754	168.45
401.963	139.77
402.172	107.01
402.381	156.16
402.59	182.78
402.799	154.11
403.008	221.69
403.217	231.93
403.426	107.01
403.635	129.53
403.844	172.54
404.053	127.49
404.262	129.53
404.471	233.98
404.68	213.5
404.888	205.31
405.097	262.65
405.306	254.46
405.515	264.7
405.724	197.12
405.933	178.69
406.142	223.74
406.35	219.64
406.559	305.66
406.768	211.45
406.977	236.03
407.185	276.99
407.394	250.36
407.603	211.45
407.812	188.93
408.02	266.75
408.229	182.78
408.438	301.56
408.646	320
408.855	369.15
409.064	350.71
409.272	344.57
409.481	348.67
409.69	373.24
409.898	354.81
410.107	410.11
410.315	467.45
410.524	363
410.733	524.79
410.941	522.74
411.15	401.91
411.358	485.88
411.567	555.51
411.775	489.98
411.984	473.59
412.192	553.46
412.401	596.47
412.609	662.01
412.818	692.73
413.026	643.57
413.234	668.15
413.443	623.09
413.651	692.73
413.86	729.59
414.068	770.55
414.276	823.8
414.485	762.36
414.693	786.93
414.901	963.06
415.11	877.04
415.318	913.91
415.526	979.44
415.734	938.48
415.943	1053.17
416.151	1026.54
416.359	1200.62
416.567	1042.93
416.776	1075.7
416.984	1237.49
417.192	1298.92
417.4	1311.21
417.608	1296.88
417.817	1327.6
418.025	1452.52
418.233	1518.06
418.441	1481.19
418.649	1583.59
418.857	1645.03
419.065	1712.61
419.273	1634.79
419.481	1837.54
419.689	1909.22
419.897	1837.54
420.105	2064.86
420.313	2077.15
420.521	2066.91
420.729	2195.93
420.937	2228.7
421.145	2298.33
421.353	2367.96
421.561	2539.99
421.769	2685.4
421.977	2697.69
422.185	2826.71
422.393	2798.04
422.601	3047.89
422.809	3017.17
423.017	3043.79
423.224	3195.34
423.432	3277.26
423.64	3322.32
423.848	3670.47
424.056	3459.53
424.263	3879.36
424.471	3740.1
424.679	3721.67
424.887	3998.15
425.094	4217.28
425.302	4250.05
425.51	4268.48
425.718	4456.89
425.925	4602.3
426.133	4759.99
426.341	5116.34
426.548	5140.91
426.756	5122.48
426.964	5126.58
427.171	5673.39
427.379	5913
427.586	5847.46
427.794	5947.81
428.001	6205.86
428.209	6564.25
428.417	6386.08
428.624	6875.54
428.832	6916.5
429.039	6863.26
429.247	6914.45
429.454	7610.76
429.662	8102.28
429.869	7598.48
430.076	8163.72
430.284	7807.37
430.491	8114.56
430.699	8728.95
430.906	8534.4
431.114	8671.61
431.321	9159.03
431.528	8968.57
431.736	9884.01
431.943	10410.34
432.15	10101.09
432.358	9959.78
432.565	10688.86
432.772	10811.74
432.979	10969.43
433.187	11403.6
433.394	11526.48
433.601	12095.82
433.808	12312.9
434.016	12030.28
434.223	12616
434.43	13480.24
434.637	13115.7
434.844	13846.83
435.052	14381.35
435.259	14061.87
435.466	14311.72
435.673	14010.67
435.88	15124.76
436.087	15872.27
436.294	15812.88
436.501	15282.45
436.708	16005.39
436.915	16296.2
437.122	17025.28
437.329	17152.25
437.537	17488.12
437.743	17864.94
437.95	17752.31
438.157	18526.44
438.364	19409.11
438.571	19656.92
438.778	19421.4
438.985	21248.19
439.192	20263.11
439.399	21061.82
439.606	20558.02
439.813	21881.01
440.02	23214.24
440.227	22683.81
440.433	22276.27
440.64	23347.36
440.847	23214.24
441.054	23785.62
441.261	25327.74
441.467	24965.25
441.674	25579.64
441.881	26210.42
442.088	26382.45
442.294	25786.49
442.501	26527.85
442.708	27388
442.914	28395.6
443.121	29417.54
443.328	28618.83
443.534	30937.13
443.741	30044.21
443.948	29458.49
444.154	31516.7
444.361	31227.94
444.568	31848.47
444.774	31698.97
444.981	32133.14
445.187	32811.02
445.394	34592.75
445.6	33779.71
445.807	36794.32
446.013	35323.88
446.22	36317.14
446.426	37867.45
446.633	38105.02
446.839	38901.68
447.046	37263.3
447.252	39554.98
447.459	39679.91
447.665	39485.35
447.871	41117.58
448.078	42985.33
448.284	40474.52
448.491	41983.87
448.697	43018.1
448.903	44347.23
449.11	44001.12
449.316	43372.39
449.522	44181.34
449.728	45272.91
449.935	45748.04
450.141	45508.43
450.347	46778.17
450.553	45131.6
450.76	45762.37
450.966	46866.23
451.172	46825.27
451.378	47421.23
451.584	46847.8
451.791	47431.47
451.997	47763.24
452.203	48324.38
452.409	47910.69
452.615	47775.53
452.821	46090.05
453.027	45197.13
453.233	47648.55
453.44	46114.62
453.646	46847.8
453.852	46704.44
454.058	47273.77
454.264	45803.33
454.47	46589.75
454.676	45610.82
454.882	47449.9
455.088	43210.6
455.294	43554.66
455.5	43919.2
455.705	44681.05
455.911	42862.45
456.117	42203
456.323	41475.98
456.529	39172.01
456.735	40454.04
456.941	39655.33
457.147	38954.93
457.352	37906.37
457.558	37507.01
457.764	37498.82
457.97	36601.81
458.176	35403.75
458.381	35944.41
458.587	34158.58
458.793	34086.9
458.999	32393.23
459.204	34902
459.41	33855.48
459.616	31674.4
459.821	31461.41
460.027	31320.1
460.233	30691.37
460.438	28975.17
460.644	29933.62
460.85	27848.79
461.055	27451.49
461.261	27551.84
461.466	25677.94
461.672	25206.91
461.878	26802.28
462.083	25014.4
462.289	24539.27
462.494	24264.85
462.7	23298.2
462.905	22616.23
463.111	23367.84
463.316	23722.13
463.522	22978.72
463.727	23072.93
463.932	22886.56
464.138	22761.64
464.343	22608.04
464.549	21999.79
464.754	22960.29
464.959	22925.47
465.165	22458.54
465.37	21493.94
465.575	20779.2
465.781	21915.83
465.986	22069.42
466.191	21143.74
466.397	20820.16
466.602	19751.12
466.807	20451.53
467.012	20598.98
467.218	20572.36
467.423	20342.99
467.628	20392.14
467.833	21006.53
468.038	20195.53
