Data from USB4F104151__42__10-22-41-301.txt Node

Date: Wed Mar 12 10:22:41 EDT 2025
User: louis
Spectrometer: USB4F10415
Trigger mode: 4
Integration Time (sec): 3.000000E-2
Scans to average: 1
Electric dark correction enabled: true
Nonlinearity correction enabled: false
Boxcar width: 0
XAxis mode: Wavelengths
Number of Pixels in Spectrum: 3648
>>>>>Begin Spectral Data<<<<<
178.204	-78.51
178.424	-78.51
178.644	-78.51
178.864	-148.14
179.084	-191.14
179.304	-31.4
179.524	-25.26
179.744	32.08
179.964	-47.79
180.184	27.99
180.404	23.89
180.624	13.65
180.844	64.85
181.064	-2.73
181.283	-10.92
181.503	-41.64
181.723	-2.73
181.943	-23.21
182.163	91.48
182.383	-76.46
182.602	64.85
182.822	7.51
183.042	48.47
183.262	-12.97
183.482	27.99
183.701	48.47
183.921	3.41
184.141	-8.87
184.361	25.94
184.58	-70.31
184.8	48.47
185.02	-10.92
185.239	52.56
185.459	-4.78
185.679	58.71
185.898	-35.5
186.118	-10.92
186.338	75.09
186.557	42.32
186.777	64.85
186.997	52.56
187.216	-25.26
187.436	64.85
187.655	-86.7
187.875	32.08
188.095	-66.22
188.314	13.65
188.534	34.13
188.753	-8.87
188.973	27.99
189.192	60.76
189.412	-12.97
189.631	38.23
189.851	38.23
190.07	21.84
190.29	-25.26
190.509	-2.73
190.729	-53.93
190.948	52.56
191.168	79.19
191.387	124.24
191.607	-74.41
191.826	62.8
192.045	-51.88
192.265	5.46
192.484	25.94
192.704	-27.31
192.923	15.7
193.142	60.76
193.362	13.65
193.581	23.89
193.8	93.52
194.02	-2.73
194.239	19.8
194.458	-27.31
194.678	-25.26
194.897	93.52
195.116	-23.21
195.335	-21.16
195.555	32.08
195.774	-8.87
195.993	75.09
196.212	3.41
196.432	-0.68
196.651	5.46
196.87	73.04
197.089	25.94
197.308	17.75
197.528	64.85
197.747	30.04
197.966	-51.88
198.185	73.04
198.404	36.18
198.623	93.52
198.842	23.89
199.062	60.76
199.281	52.56
199.5	-8.87
199.719	34.13
199.938	54.61
200.157	60.76
200.376	97.62
200.595	13.65
200.814	23.89
201.033	36.18
201.252	-17.07
201.471	32.08
201.69	91.48
201.909	30.04
202.128	-6.83
202.347	27.99
202.566	-37.55
202.785	-4.78
203.004	-4.78
203.223	109.91
203.442	-17.07
203.661	-8.87
203.879	77.14
204.098	32.08
204.317	60.76
204.536	42.32
204.755	27.99
204.974	-74.41
205.193	3.41
205.411	58.71
205.63	32.08
205.849	25.94
206.068	-0.68
206.287	30.04
206.505	38.23
206.724	15.7
206.943	-41.64
207.162	-12.97
207.381	9.56
207.599	-6.83
207.818	15.7
208.037	52.56
208.255	15.7
208.474	13.65
208.693	-8.87
208.911	9.56
209.13	56.66
209.349	1.37
209.567	7.51
209.786	54.61
210.005	15.7
210.223	52.56
210.442	-62.12
210.661	-21.16
210.879	23.89
211.098	36.18
211.316	118.1
211.535	116.05
211.753	-15.02
211.972	52.56
212.191	21.84
212.409	36.18
212.628	-31.4
212.846	27.99
213.065	21.84
213.283	-17.07
213.502	62.8
213.72	46.42
213.938	32.08
214.157	50.52
214.375	52.56
214.594	11.61
214.812	36.18
215.031	3.41
215.249	42.32
215.467	79.19
215.686	56.66
215.904	42.32
216.122	7.51
216.341	46.42
216.559	27.99
216.778	-0.68
216.996	38.23
217.214	-12.97
217.432	36.18
217.651	54.61
217.869	-8.87
218.087	11.61
218.306	48.47
218.524	-41.64
218.742	-41.64
218.96	-0.68
219.179	-10.92
219.397	46.42
219.615	136.53
219.833	60.76
220.051	-58.03
220.27	79.19
220.488	-19.11
220.706	1.37
220.924	15.7
221.142	85.33
221.36	-17.07
221.578	-45.74
221.796	-33.45
222.015	83.28
222.233	11.61
222.451	21.84
222.669	-2.73
222.887	46.42
223.105	-17.07
223.323	83.28
223.541	-37.55
223.759	46.42
223.977	15.7
224.195	7.51
224.413	-6.83
224.631	23.89
224.849	52.56
225.067	81.24
225.285	40.28
225.503	-12.97
225.721	-62.12
225.939	7.51
226.157	27.99
226.375	81.24
226.592	-25.26
226.81	38.23
227.028	-29.35
227.246	103.76
227.464	3.41
227.682	21.84
227.9	23.89
228.117	34.13
228.335	77.14
228.553	62.8
228.771	11.61
228.989	64.85
229.206	-12.97
229.424	3.41
229.642	-62.12
229.86	23.89
230.077	89.43
230.295	85.33
230.513	-25.26
230.731	40.28
230.948	19.8
231.166	54.61
231.384	48.47
231.601	71
231.819	19.8
232.037	15.7
232.254	7.51
232.472	54.61
232.689	30.04
232.907	46.42
233.125	73.04
233.342	15.7
233.56	7.51
233.777	-17.07
233.995	138.58
234.213	62.8
234.43	-39.59
234.648	-6.83
234.865	23.89
235.083	7.51
235.3	56.66
235.518	21.84
235.735	30.04
235.953	15.7
236.17	-39.59
236.388	-10.92
236.605	32.08
236.822	73.04
237.04	19.8
237.257	11.61
237.475	54.61
237.692	13.65
237.909	7.51
238.127	11.61
238.344	19.8
238.562	48.47
238.779	19.8
238.996	-2.73
239.214	40.28
239.431	-0.68
239.648	77.14
239.865	-37.55
240.083	81.24
240.3	46.42
240.517	27.99
240.735	17.75
240.952	79.19
241.169	34.13
241.386	13.65
241.603	64.85
241.821	-27.31
242.038	97.62
242.255	-15.02
242.472	19.8
242.689	64.85
242.907	64.85
243.124	23.89
243.341	56.66
243.558	21.84
243.775	-19.11
243.992	-43.69
244.209	-8.87
244.426	68.95
244.643	-12.97
244.86	7.51
245.078	87.38
245.295	5.46
245.512	3.41
245.729	-17.07
245.946	54.61
246.163	-12.97
246.38	23.89
246.597	56.66
246.814	87.38
247.031	7.51
247.248	-0.68
247.464	-17.07
247.681	-17.07
247.898	15.7
248.115	9.56
248.332	-8.87
248.549	19.8
248.766	111.96
248.983	62.8
249.2	-55.98
249.417	21.84
249.633	15.7
249.85	48.47
250.067	40.28
250.284	44.37
250.501	68.95
250.717	95.57
250.934	-23.21
251.151	13.65
251.368	-21.16
251.585	-19.11
251.801	54.61
252.018	40.28
252.235	13.65
252.451	40.28
252.668	-49.83
252.885	30.04
253.102	-45.74
253.318	-125.61
253.535	48.47
253.752	-29.35
253.968	3.41
254.185	-0.68
254.401	25.94
254.618	109.91
254.835	30.04
255.051	134.48
255.268	7.51
255.484	-25.26
255.701	40.28
255.917	56.66
256.134	-2.73
256.351	17.75
256.567	-53.93
256.784	11.61
257	36.18
257.217	62.8
257.433	-4.78
257.65	44.37
257.866	46.42
258.082	-6.83
258.299	56.66
258.515	81.24
258.732	23.89
258.948	-8.87
259.165	60.76
259.381	23.89
259.597	-10.92
259.814	42.32
260.03	-0.68
260.246	77.14
260.463	44.37
260.679	-60.07
260.895	23.89
261.112	-53.93
261.328	23.89
261.544	68.95
261.761	25.94
261.977	36.18
262.193	-41.64
262.409	32.08
262.626	64.85
262.842	27.99
263.058	23.89
263.274	75.09
263.49	38.23
263.707	38.23
263.923	3.41
264.139	5.46
264.355	32.08
264.571	85.33
264.787	81.24
265.004	101.72
265.22	73.04
265.436	-6.83
265.652	48.47
265.868	52.56
266.084	-4.78
266.3	46.42
266.516	-0.68
266.732	21.84
266.948	30.04
267.164	40.28
267.38	-33.45
267.596	52.56
267.812	42.32
268.028	85.33
268.244	-43.69
268.46	48.47
268.676	13.65
268.892	7.51
269.108	-25.26
269.324	21.84
269.54	21.84
269.756	64.85
269.972	19.8
270.188	44.37
270.403	-66.22
270.619	56.66
270.835	56.66
271.051	54.61
271.267	56.66
271.483	48.47
271.698	34.13
271.914	30.04
272.13	71
272.346	1.37
272.562	32.08
272.777	93.52
272.993	-6.83
273.209	21.84
273.425	68.95
273.64	-21.16
273.856	64.85
274.072	120.15
274.287	-12.97
274.503	60.76
274.719	75.09
274.934	23.89
275.15	17.75
275.366	-27.31
275.581	3.41
275.797	-6.83
276.012	-41.64
276.228	52.56
276.444	-15.02
276.659	79.19
276.875	56.66
277.09	46.42
277.306	-0.68
277.521	38.23
277.737	-35.5
277.952	5.46
278.168	68.95
278.383	19.8
278.599	11.61
278.814	48.47
279.03	-2.73
279.245	-49.83
279.461	-12.97
279.676	7.51
279.892	48.47
280.107	-17.07
280.322	34.13
280.538	46.42
280.753	83.28
280.969	48.47
281.184	-23.21
281.399	97.62
281.615	3.41
281.83	11.61
282.045	-8.87
282.26	-10.92
282.476	-8.87
282.691	73.04
282.906	44.37
283.122	42.32
283.337	-2.73
283.552	40.28
283.767	-29.35
283.983	21.84
284.198	-49.83
284.413	36.18
284.628	-21.16
284.843	105.81
285.058	13.65
285.274	52.56
285.489	52.56
285.704	85.33
285.919	-51.88
286.134	21.84
286.349	-4.78
286.564	46.42
286.779	25.94
286.995	-62.12
287.21	-8.87
287.425	27.99
287.64	15.7
287.855	66.9
288.07	7.51
288.285	95.57
288.5	9.56
288.715	40.28
288.93	-66.22
289.145	38.23
289.36	50.52
289.575	3.41
289.79	46.42
290.004	17.75
290.219	52.56
290.434	-15.02
290.649	-19.11
290.864	46.42
291.079	56.66
291.294	58.71
291.509	23.89
291.724	66.9
291.938	1.37
292.153	50.52
292.368	46.42
292.583	17.75
292.798	42.32
293.012	11.61
293.227	58.71
293.442	38.23
293.657	-8.87
293.871	56.66
294.086	64.85
294.301	44.37
294.516	60.76
294.73	23.89
294.945	23.89
295.16	23.89
295.374	52.56
295.589	34.13
295.804	23.89
296.018	-2.73
296.233	48.47
296.447	-10.92
296.662	21.84
296.877	101.72
297.091	-2.73
297.306	66.9
297.52	66.9
297.735	-21.16
297.949	32.08
298.164	62.8
298.378	-2.73
298.593	-37.55
298.807	68.95
299.022	111.96
299.236	105.81
299.451	-29.35
299.665	5.46
299.88	36.18
300.094	54.61
300.309	5.46
300.523	62.8
300.737	27.99
300.952	-0.68
301.166	23.89
301.381	89.43
301.595	7.51
301.809	27.99
302.024	3.41
302.238	-8.87
302.452	66.9
302.667	5.46
302.881	103.76
303.095	95.57
303.309	91.48
303.524	62.8
303.738	11.61
303.952	-4.78
304.166	111.96
304.381	-62.12
304.595	50.52
304.809	3.41
305.023	46.42
305.237	5.46
305.452	40.28
305.666	-10.92
305.88	73.04
306.094	62.8
306.308	17.75
306.522	11.61
306.736	44.37
306.95	15.7
307.164	15.7
307.379	30.04
307.593	-2.73
307.807	3.41
308.021	-2.73
308.235	42.32
308.449	-21.16
308.663	87.38
308.877	79.19
309.091	19.8
309.305	48.47
309.519	13.65
309.733	36.18
309.947	-23.21
310.161	73.04
310.374	7.51
310.588	58.71
310.802	3.41
311.016	-25.26
311.23	73.04
311.444	-29.35
311.658	32.08
311.872	87.38
312.085	97.62
312.299	3.41
312.513	9.56
312.727	54.61
312.941	19.8
313.154	48.47
313.368	58.71
313.582	36.18
313.796	-33.45
314.009	15.7
314.223	64.85
314.437	-8.87
314.651	36.18
314.864	15.7
315.078	42.32
315.292	-10.92
315.505	-25.26
315.719	152.91
315.933	68.95
316.146	30.04
316.36	3.41
316.573	1.37
316.787	30.04
317.001	64.85
317.214	7.51
317.428	-15.02
317.641	11.61
317.855	109.91
318.068	7.51
318.282	68.95
318.495	52.56
318.709	52.56
318.922	40.28
319.136	15.7
319.349	95.57
319.563	58.71
319.776	56.66
319.99	11.61
320.203	44.37
320.417	68.95
320.63	68.95
320.843	81.24
321.057	21.84
321.27	32.08
321.483	23.89
321.697	77.14
321.91	97.62
322.124	-29.35
322.337	5.46
322.55	17.75
322.763	27.99
322.977	23.89
323.19	-31.4
323.403	64.85
323.617	60.76
323.83	25.94
324.043	3.41
324.256	25.94
324.469	54.61
324.683	17.75
324.896	-27.31
325.109	1.37
325.322	-10.92
325.535	107.86
325.748	83.28
325.962	-2.73
326.175	44.37
326.388	21.84
326.601	107.86
326.814	-98.99
327.027	3.41
327.24	60.76
327.453	-15.02
327.666	40.28
327.879	40.28
328.092	-17.07
328.305	81.24
328.518	15.7
328.731	46.42
328.944	25.94
329.157	44.37
329.37	27.99
329.583	118.1
329.796	83.28
330.009	-0.68
330.222	7.51
330.435	36.18
330.648	73.04
330.861	142.68
331.073	64.85
331.286	44.37
331.499	44.37
331.712	15.7
331.925	48.47
332.138	89.43
332.35	91.48
332.563	-49.83
332.776	73.04
332.989	48.47
333.202	-37.55
333.414	46.42
333.627	46.42
333.84	42.32
334.053	15.7
334.265	40.28
334.478	9.56
334.691	32.08
334.903	30.04
335.116	44.37
335.329	21.84
335.541	52.56
335.754	120.15
335.966	-27.31
336.179	3.41
336.392	60.76
336.604	-21.16
336.817	-27.31
337.029	21.84
337.242	56.66
337.454	48.47
337.667	85.33
337.88	-12.97
338.092	103.76
338.305	52.56
338.517	73.04
338.729	15.7
338.942	-0.68
339.154	46.42
339.367	-21.16
339.579	50.52
339.792	46.42
340.004	23.89
340.217	-17.07
340.429	1.37
340.641	-2.73
340.854	44.37
341.066	58.71
341.278	62.8
341.491	93.52
341.703	85.33
341.915	-35.5
342.128	30.04
342.34	54.61
342.552	46.42
342.764	23.89
342.977	1.37
343.189	-0.68
343.401	7.51
343.613	68.95
343.826	27.99
344.038	36.18
344.25	77.14
344.462	13.65
344.674	11.61
344.886	11.61
345.099	-17.07
345.311	83.28
345.523	97.62
345.735	13.65
345.947	60.76
346.159	136.53
346.371	103.76
346.583	1.37
346.795	71
347.007	-17.07
347.219	-41.64
347.431	-41.64
347.643	13.65
347.855	27.99
348.067	107.86
348.279	44.37
348.491	95.57
348.703	95.57
348.915	-45.74
349.127	-10.92
349.339	21.84
349.551	7.51
349.763	56.66
349.975	32.08
350.187	40.28
350.399	-10.92
350.61	87.38
350.822	-21.16
351.034	71
351.246	32.08
351.458	32.08
351.669	89.43
351.881	36.18
352.093	5.46
352.305	13.65
352.517	109.91
352.728	87.38
352.94	-4.78
353.152	-19.11
353.363	-0.68
353.575	62.8
353.787	-8.87
353.999	-6.83
354.21	136.53
354.422	54.61
354.633	46.42
354.845	38.23
355.057	85.33
355.268	38.23
355.48	97.62
355.692	-0.68
355.903	48.47
356.115	68.95
356.326	-4.78
356.538	79.19
356.749	5.46
356.961	38.23
357.172	40.28
357.384	95.57
357.595	118.1
357.807	23.89
358.018	32.08
358.23	81.24
358.441	79.19
358.653	103.76
358.864	40.28
359.075	42.32
359.287	11.61
359.498	46.42
359.709	89.43
359.921	46.42
360.132	50.52
360.344	1.37
360.555	36.18
360.766	73.04
360.977	93.52
361.189	15.7
361.4	-49.83
361.611	56.66
361.823	32.08
362.034	81.24
362.245	-33.45
362.456	56.66
362.667	46.42
362.879	23.89
363.09	109.91
363.301	60.76
363.512	-12.97
363.723	73.04
363.935	56.66
364.146	-2.73
364.357	-4.78
364.568	50.52
364.779	-78.51
364.99	56.66
365.201	73.04
365.412	25.94
365.623	64.85
365.834	60.76
366.045	89.43
366.256	136.53
366.467	-51.88
366.678	52.56
366.889	66.9
367.1	97.62
367.311	38.23
367.522	-0.68
367.733	25.94
367.944	71
368.155	32.08
368.366	-12.97
368.577	77.14
368.788	19.8
368.999	25.94
369.209	13.65
369.42	132.44
369.631	62.8
369.842	62.8
370.053	62.8
370.264	42.32
370.474	52.56
370.685	11.61
370.896	79.19
371.107	111.96
371.317	-12.97
371.528	-6.83
371.739	87.38
371.95	36.18
372.16	21.84
372.371	-10.92
372.582	32.08
372.792	50.52
373.003	-12.97
373.214	52.56
373.424	21.84
373.635	36.18
373.846	42.32
374.056	66.9
374.267	3.41
374.477	68.95
374.688	50.52
374.898	27.99
375.109	19.8
375.319	-2.73
375.53	56.66
375.74	25.94
375.951	27.99
376.161	48.47
376.372	36.18
376.582	32.08
376.793	85.33
377.003	56.66
377.214	58.71
377.424	-15.02
377.635	109.91
377.845	13.65
378.055	120.15
378.266	-4.78
378.476	60.76
378.686	-17.07
378.897	79.19
379.107	114
379.317	122.2
379.528	7.51
379.738	95.57
379.948	5.46
380.158	56.66
380.369	66.9
380.579	60.76
380.789	60.76
380.999	48.47
381.21	75.09
381.42	99.67
381.63	75.09
381.84	85.33
382.05	83.28
382.261	64.85
382.471	-29.35
382.681	46.42
382.891	38.23
383.101	52.56
383.311	15.7
383.521	38.23
383.731	87.38
383.941	85.33
384.151	27.99
384.361	32.08
384.571	30.04
384.781	-23.21
384.991	23.89
385.201	152.91
385.411	30.04
385.621	95.57
385.831	73.04
386.041	32.08
386.251	38.23
386.461	60.76
386.671	13.65
386.881	118.1
387.091	77.14
387.301	32.08
387.511	23.89
387.72	48.47
387.93	128.34
388.14	-53.93
388.35	11.61
388.56	58.71
388.769	-15.02
388.979	111.96
389.189	15.7
389.399	56.66
389.609	128.34
389.818	30.04
390.028	95.57
390.238	75.09
390.447	73.04
390.657	68.95
390.867	32.08
391.076	48.47
391.286	60.76
391.496	50.52
391.705	46.42
391.915	54.61
392.125	60.76
392.334	79.19
392.544	13.65
392.753	34.13
392.963	-37.55
393.172	11.61
393.382	-21.16
393.591	105.81
393.801	77.14
394.01	93.52
394.22	58.71
394.429	111.96
394.639	21.84
394.848	75.09
395.058	81.24
395.267	111.96
395.477	62.8
395.686	89.43
395.895	183.63
396.105	85.33
396.314	42.32
396.524	107.86
396.733	19.8
396.942	148.82
397.152	97.62
397.361	54.61
397.57	50.52
397.78	124.24
397.989	95.57
398.198	167.25
398.407	19.8
398.617	179.54
398.826	124.24
399.035	132.44
399.244	52.56
399.453	128.34
399.663	89.43
399.872	46.42
400.081	101.72
400.29	191.83
400.499	134.48
400.708	148.82
400.917	81.24
401.127	114
401.336	48.47
401.545	157.01
401.754	136.53
401.963	79.19
402.172	-55.98
402.381	46.42
402.59	19.8
402.799	105.81
403.008	179.54
403.217	83.28
403.426	173.39
403.635	73.04
403.844	163.15
404.053	114
404.262	187.73
404.471	179.54
404.68	146.77
404.888	157.01
405.097	159.06
405.306	91.48
405.515	171.35
405.724	195.92
405.933	154.96
406.142	132.44
406.35	189.78
406.559	247.12
406.768	191.83
406.977	189.78
407.185	204.11
407.394	214.35
407.603	243.03
407.812	204.11
408.02	245.07
408.229	275.79
408.438	175.44
408.646	316.75
408.855	331.09
409.064	306.51
409.272	181.59
409.481	286.03
409.69	380.24
409.898	228.69
410.107	251.22
410.315	318.8
410.524	423.25
410.733	349.52
410.941	384.34
411.15	394.58
411.358	425.29
411.567	417.1
411.775	408.91
411.984	480.59
412.192	417.1
412.401	484.69
412.609	494.93
412.818	552.27
413.026	537.93
413.234	527.69
413.443	523.6
413.651	568.65
413.86	650.57
414.068	673.1
414.276	609.61
414.485	693.58
414.693	773.45
414.901	802.12
415.11	712.01
415.318	714.06
415.526	832.84
415.734	851.27
415.943	795.98
416.151	898.38
416.359	892.23
416.567	881.99
416.776	982.34
416.984	972.1
417.192	1039.69
417.4	1035.59
417.608	1058.12
417.817	1092.93
418.025	1170.76
418.233	1226.05
418.441	1242.43
418.649	1267.01
418.857	1408.32
419.065	1377.6
419.273	1303.87
419.481	1498.43
419.689	1555.77
419.897	1625.4
420.105	1625.4
420.313	1725.75
420.521	1768.76
420.729	1772.86
420.937	1842.49
421.145	1836.35
421.353	2059.57
421.561	2153.78
421.769	2010.42
421.977	2194.74
422.185	2198.84
422.393	2395.44
422.601	2481.46
422.809	2479.41
423.017	2508.08
423.224	2643.24
423.432	2831.66
423.64	2827.56
423.848	2897.19
424.056	2837.8
424.263	3050.79
424.471	3009.83
424.679	3233.06
424.887	3314.98
425.094	3398.95
425.302	3513.63
425.51	3538.21
425.718	3679.52
425.925	3806.49
426.133	3915.03
426.341	4054.3
426.548	4152.6
426.756	4238.61
426.964	4285.72
427.171	4594.96
427.379	4689.17
427.586	4740.36
427.794	4898.06
428.001	5094.66
428.209	5238.02
428.417	5274.88
428.624	5711.1
428.832	5430.53
429.039	5666.05
429.247	5506.31
429.454	6337.78
429.662	6421.75
429.869	6067.45
430.076	6520.05
430.284	6401.27
430.491	6667.5
430.699	6862.06
430.906	6915.31
431.114	7130.34
431.321	7410.92
431.528	7527.65
431.736	7965.92
431.943	8236.25
432.15	8207.58
432.358	8146.14
432.565	8533.2
432.772	8666.32
432.979	9106.63
433.187	9102.54
433.394	9254.09
433.601	9729.22
433.808	9592
434.016	9878.72
434.223	10200.25
434.43	10482.87
434.637	10622.13
434.844	11308.2
435.052	11449.51
435.259	11510.95
435.466	11541.67
435.673	11469.99
435.88	12360.86
436.087	12663.96
436.294	12670.1
436.501	12418.2
436.708	13145.23
436.915	12913.81
437.122	13978.75
437.329	13761.67
437.537	14195.84
437.743	14503.03
437.95	14285.95
438.157	15127.66
438.364	15332.46
438.571	15479.91
438.778	15572.07
438.985	17067.09
439.192	16338.01
439.399	17040.47
439.606	16485.47
439.813	17531.98
440.02	18555.96
440.227	17917
440.433	17841.22
440.64	18699.32
440.847	18457.66
441.054	18912.31
441.261	19821.61
441.467	19641.39
441.674	20216.86
441.881	20855.83
442.088	20855.83
442.294	20782.1
442.501	21113.88
442.708	21732.36
442.914	22139.91
443.121	23211
443.328	22598.65
443.534	24339.43
443.741	23720.94
443.948	23452.66
444.154	25134.04
444.361	24929.24
444.568	25005.02
444.774	25226.2
444.981	25199.57
445.187	25936.84
445.394	27143.1
445.6	26850.24
445.807	29154.2
446.013	28283.81
446.22	28875.68
446.426	29715.34
446.633	29873.04
446.839	30985.08
447.046	29578.13
447.252	31230.84
447.459	31538.04
447.665	31181.69
447.871	32607.08
448.078	33925.97
448.284	32308.07
448.491	33276.76
448.697	34138.96
448.903	34601.8
449.11	35269.44
449.316	34188.11
449.522	35111.74
449.728	36293.42
449.935	36234.03
450.141	36207.4
450.347	37139.23
450.553	35771.19
450.76	36098.86
450.966	37313.31
451.172	36809.51
451.378	37731.09
451.584	37083.94
451.791	37774.1
451.997	37800.72
452.203	38105.87
452.409	38034.19
452.615	38109.97
452.821	36752.16
453.027	36373.29
453.233	38267.66
453.44	36617
453.646	37131.04
453.852	36875.04
454.058	37667.61
454.264	36256.56
454.47	37321.5
454.676	36039.47
454.882	37266.2
455.088	34136.91
455.294	34638.66
455.5	34908.99
455.705	35922.74
455.911	34163.53
456.117	33659.73
456.323	32668.51
456.529	31196.03
456.735	32482.15
456.941	31257.46
457.147	31196.03
457.352	30147.47
457.558	29899.66
457.764	29703.06
457.97	29457.3
458.176	28822.43
458.381	28388.26
458.587	27194.29
458.793	27274.17
458.999	25766.86
459.204	27524.02
459.41	26899.39
459.616	24982.49
459.821	25248.72
460.027	25263.06
460.233	24450.02
460.438	23415.79
460.644	23641.07
460.85	22834.17
461.055	22252.55
461.261	22287.36
461.466	20472.86
461.672	19770.41
461.878	21521.42
462.083	19973.16
462.289	19686.44
462.494	19375.15
462.7	18750.52
462.905	18433.08
463.111	18725.94
463.316	18852.92
463.522	18308.16
463.727	18545.72
463.932	18426.94
464.138	18164.8
464.343	18469.95
464.549	17607.75
464.754	18353.21
464.959	18091.07
465.165	17998.91
465.37	17271.89
465.575	17003.6
465.781	17343.56
465.986	17585.22
466.191	17001.55
466.397	16637.02
466.602	15709.29
466.807	16217.18
467.012	16634.97
467.218	16333.92
467.423	15955.04
