Data from USB4F104151__21__10-21-24-239.txt Node

Date: Wed Mar 12 10:21:24 EDT 2025
User: louis
Spectrometer: USB4F10415
Trigger mode: 4
Integration Time (sec): 3.000000E-2
Scans to average: 1
Electric dark correction enabled: true
Nonlinearity correction enabled: false
Boxcar width: 0
XAxis mode: Wavelengths
Number of Pixels in Spectrum: 3648
>>>>>Begin Spectral Data<<<<<
178.204	-104.96
178.424	-104.96
178.644	-104.96
178.864	-113.15
179.084	-64
179.304	-45.57
179.524	38.4
179.744	5.63
179.964	-49.66
180.184	15.87
180.404	7.68
180.624	13.82
180.844	11.78
181.064	-66.05
181.283	24.06
181.503	-10.75
181.723	54.78
181.943	-14.85
182.163	24.06
182.383	28.16
182.602	34.3
182.822	17.92
183.042	69.12
183.262	81.41
183.482	73.21
183.701	22.02
183.921	13.82
184.141	26.11
184.361	81.41
184.58	36.35
184.8	-2.56
185.02	54.78
185.239	-0.51
185.459	60.93
185.679	81.41
185.898	30.21
186.118	48.64
186.338	48.64
186.557	22.02
186.777	-64
186.997	52.74
187.216	50.69
187.436	108.03
187.655	-23.04
187.875	48.64
188.095	-0.51
188.314	32.26
188.534	22.02
188.753	13.82
188.973	120.32
189.192	50.69
189.412	11.78
189.631	5.63
189.851	30.21
190.07	36.35
190.29	-78.33
190.509	75.26
190.729	-25.09
190.948	30.21
191.168	108.03
191.387	75.26
191.607	-6.66
191.826	38.4
192.045	62.98
192.265	52.74
192.484	3.58
192.704	40.45
192.923	-61.95
193.142	75.26
193.362	26.11
193.581	83.45
193.8	7.68
194.02	13.82
194.239	26.11
194.458	54.78
194.678	5.63
194.897	60.93
195.116	40.45
195.335	69.12
195.555	-2.56
195.774	124.41
195.993	58.88
196.212	19.97
196.432	-2.56
196.651	19.97
196.87	40.45
197.089	71.17
197.308	-39.42
197.528	73.21
197.747	46.59
197.966	26.11
198.185	34.3
198.404	26.11
198.623	1.54
198.842	93.69
199.062	44.54
199.281	44.54
199.5	67.07
199.719	15.87
199.938	103.93
200.157	46.59
200.376	48.64
200.595	103.93
200.814	22.02
201.033	5.63
201.252	58.88
201.471	54.78
201.69	38.4
201.909	65.02
202.128	91.65
202.347	26.11
202.566	69.12
202.785	-35.33
203.004	-29.18
203.223	48.64
203.442	67.07
203.661	3.58
203.879	65.02
204.098	91.65
204.317	13.82
204.536	11.78
204.755	83.45
204.974	101.89
205.193	11.78
205.411	19.97
205.63	7.68
205.849	91.65
206.068	38.4
206.287	-14.85
206.505	24.06
206.724	-31.23
206.943	26.11
207.162	3.58
207.381	-10.75
207.599	-25.09
207.818	-39.42
208.037	71.17
208.255	-49.66
208.474	62.98
208.693	-23.04
208.911	5.63
209.13	-18.94
209.349	-27.14
209.567	114.17
209.786	75.26
210.005	52.74
210.223	13.82
210.442	40.45
210.661	50.69
210.879	-2.56
211.098	17.92
211.316	26.11
211.535	52.74
211.753	-27.14
211.972	75.26
212.191	-43.52
212.409	11.78
212.628	34.3
212.846	54.78
213.065	50.69
213.283	65.02
213.502	44.54
213.72	75.26
213.938	15.87
214.157	22.02
214.375	42.5
214.594	83.45
214.812	48.64
215.031	-4.61
215.249	30.21
215.467	58.88
215.686	34.3
215.904	67.07
216.122	15.87
216.341	91.65
216.559	93.69
216.778	22.02
216.996	32.26
217.214	32.26
217.432	38.4
217.651	-4.61
217.869	-10.75
218.087	30.21
218.306	1.54
218.524	69.12
218.742	-57.86
218.96	40.45
219.179	-70.14
219.397	-35.33
219.615	108.03
219.833	50.69
220.051	46.59
220.27	56.83
220.488	95.74
220.706	67.07
220.924	28.16
221.142	15.87
221.36	-0.51
221.578	30.21
221.796	71.17
222.015	93.69
222.233	42.5
222.451	108.03
222.669	-23.04
222.887	95.74
223.105	42.5
223.323	-8.7
223.541	62.98
223.759	9.73
223.977	9.73
224.195	38.4
224.413	112.13
224.631	17.92
224.849	24.06
225.067	122.37
225.285	-25.09
225.503	101.89
225.721	-43.52
225.939	38.4
226.157	5.63
226.375	132.61
226.592	-2.56
226.81	87.55
227.028	116.22
227.246	89.6
227.464	-49.66
227.682	44.54
227.9	73.21
228.117	24.06
228.335	38.4
228.553	122.37
228.771	67.07
228.989	91.65
229.206	42.5
229.424	67.07
229.642	48.64
229.86	15.87
230.077	81.41
230.295	7.68
230.513	-0.51
230.731	58.88
230.948	46.59
231.166	40.45
231.384	50.69
231.601	28.16
231.819	56.83
232.037	-14.85
232.254	19.97
232.472	-10.75
232.689	3.58
232.907	44.54
233.125	95.74
233.342	-18.94
233.56	58.88
233.777	28.16
233.995	-37.38
234.213	42.5
234.43	-20.99
234.648	75.26
234.865	58.88
235.083	13.82
235.3	38.4
235.518	118.27
235.735	108.03
235.953	36.35
236.17	1.54
236.388	108.03
236.605	38.4
236.822	73.21
237.04	-47.62
237.257	75.26
237.475	17.92
237.692	56.83
237.909	62.98
238.127	83.45
238.344	-20.99
238.562	-4.61
238.779	5.63
238.996	36.35
239.214	28.16
239.431	56.83
239.648	-8.7
239.865	54.78
240.083	97.79
240.3	7.68
240.517	-16.9
240.735	26.11
240.952	116.22
241.169	69.12
241.386	83.45
241.603	-78.33
241.821	34.3
242.038	71.17
242.255	-14.85
242.472	-18.94
242.689	-2.56
242.907	67.07
243.124	7.68
243.341	69.12
243.558	30.21
243.775	-0.51
243.992	34.3
244.209	75.26
244.426	83.45
244.643	69.12
244.86	-4.61
245.078	9.73
245.295	83.45
245.512	1.54
245.729	95.74
245.946	83.45
246.163	7.68
246.38	22.02
246.597	1.54
246.814	-0.51
247.031	26.11
247.248	22.02
247.464	50.69
247.681	48.64
247.898	1.54
248.115	103.93
248.332	83.45
248.549	99.84
248.766	60.93
248.983	93.69
249.2	26.11
249.417	87.55
249.633	36.35
249.85	-43.52
250.067	69.12
250.284	62.98
250.501	5.63
250.717	85.5
250.934	62.98
251.151	-14.85
251.368	103.93
251.585	50.69
251.801	65.02
252.018	58.88
252.235	44.54
252.451	32.26
252.668	30.21
252.885	-8.7
253.102	120.32
253.318	-20.99
253.535	73.21
253.752	-27.14
253.968	17.92
254.185	-31.23
254.401	17.92
254.618	-2.56
254.835	44.54
255.051	34.3
255.268	155.13
255.484	9.73
255.701	79.36
255.917	48.64
256.134	-14.85
256.351	30.21
256.567	26.11
256.784	22.02
257	-45.57
257.217	32.26
257.433	89.6
257.65	103.93
257.866	15.87
258.082	3.58
258.299	110.08
258.515	48.64
258.732	42.5
258.948	-31.23
259.165	73.21
259.381	9.73
259.597	40.45
259.814	56.83
260.03	15.87
260.246	56.83
260.463	50.69
260.679	50.69
260.895	65.02
261.112	67.07
261.328	108.03
261.544	77.31
261.761	99.84
261.977	17.92
262.193	-16.9
262.409	5.63
262.626	40.45
262.842	105.98
263.058	-55.81
263.274	67.07
263.49	87.55
263.707	81.41
263.923	-2.56
264.139	50.69
264.355	15.87
264.571	79.36
264.787	69.12
265.004	30.21
265.22	50.69
265.436	-0.51
265.652	69.12
265.868	-6.66
266.084	71.17
266.3	110.08
266.516	17.92
266.732	54.78
266.948	-23.04
267.164	-4.61
267.38	69.12
267.596	32.26
267.812	120.32
268.028	17.92
268.244	58.88
268.46	-20.99
268.676	60.93
268.892	48.64
269.108	13.82
269.324	15.87
269.54	-0.51
269.756	103.93
269.972	-18.94
270.188	1.54
270.403	-6.66
270.619	46.59
270.835	81.41
271.051	11.78
271.267	28.16
271.483	32.26
271.698	73.21
271.914	54.78
272.13	87.55
272.346	83.45
272.562	28.16
272.777	75.26
272.993	48.64
273.209	-20.99
273.425	-6.66
273.64	-31.23
273.856	65.02
274.072	50.69
274.287	73.21
274.503	40.45
274.719	89.6
274.934	17.92
275.15	-10.75
275.366	97.79
275.581	13.82
275.797	11.78
276.012	-49.66
276.228	50.69
276.444	67.07
276.659	56.83
276.875	22.02
277.09	22.02
277.306	34.3
277.521	42.5
277.737	34.3
277.952	73.21
278.168	56.83
278.383	103.93
278.599	54.78
278.814	38.4
279.03	36.35
279.245	83.45
279.461	-31.23
279.676	126.46
279.892	30.21
280.107	19.97
280.322	-45.57
280.538	24.06
280.753	40.45
280.969	40.45
281.184	73.21
281.399	114.17
281.615	93.69
281.83	83.45
282.045	-47.62
282.26	-0.51
282.476	40.45
282.691	34.3
282.906	32.26
283.122	71.17
283.337	52.74
283.552	83.45
283.767	67.07
283.983	60.93
284.198	17.92
284.413	-14.85
284.628	52.74
284.843	-47.62
285.058	95.74
285.274	-59.9
285.489	46.59
285.704	85.5
285.919	1.54
286.134	9.73
286.349	34.3
286.564	69.12
286.779	42.5
286.995	-61.95
287.21	38.4
287.425	89.6
287.64	34.3
287.855	32.26
288.07	-6.66
288.285	69.12
288.5	99.84
288.715	138.75
288.93	26.11
289.145	32.26
289.36	9.73
289.575	69.12
289.79	65.02
290.004	-8.7
290.219	9.73
290.434	62.98
290.649	62.98
290.864	34.3
291.079	1.54
291.294	73.21
291.509	58.88
291.724	13.82
291.938	15.87
292.153	62.98
292.368	9.73
292.583	54.78
292.798	44.54
293.012	46.59
293.227	32.26
293.442	54.78
293.657	-41.47
293.871	65.02
294.086	60.93
294.301	120.32
294.516	1.54
294.73	28.16
294.945	-14.85
295.16	1.54
295.374	165.37
295.589	140.8
295.804	-27.14
296.018	34.3
296.233	-6.66
296.447	93.69
296.662	34.3
296.877	114.17
297.091	19.97
297.306	13.82
297.52	46.59
297.735	58.88
297.949	26.11
298.164	17.92
298.378	52.74
298.593	11.78
298.807	9.73
299.022	-53.76
299.236	54.78
299.451	50.69
299.665	1.54
299.88	17.92
300.094	28.16
300.309	73.21
300.523	67.07
300.737	32.26
300.952	15.87
301.166	5.63
301.381	-14.85
301.595	-25.09
301.809	42.5
302.024	60.93
302.238	71.17
302.452	122.37
302.667	-33.28
302.881	83.45
303.095	54.78
303.309	-2.56
303.524	34.3
303.738	5.63
303.952	36.35
304.166	73.21
304.381	13.82
304.595	-8.7
304.809	-0.51
305.023	93.69
305.237	-16.9
305.452	60.93
305.666	19.97
305.88	71.17
306.094	36.35
306.308	87.55
306.522	67.07
306.736	40.45
306.95	73.21
307.164	73.21
307.379	69.12
307.593	118.27
307.807	36.35
308.021	60.93
308.235	17.92
308.449	34.3
308.663	-23.04
308.877	71.17
309.091	13.82
309.305	50.69
309.519	32.26
309.733	73.21
309.947	22.02
310.161	91.65
310.374	73.21
310.588	93.69
310.802	22.02
311.016	-16.9
311.23	26.11
311.444	34.3
311.658	87.55
311.872	91.65
312.085	56.83
312.299	124.41
312.513	138.75
312.727	187.9
312.941	-16.9
313.154	62.98
313.368	71.17
313.582	-14.85
313.796	15.87
314.009	13.82
314.223	75.26
314.437	50.69
314.651	142.85
314.864	128.51
315.078	32.26
315.292	81.41
315.505	30.21
315.719	110.08
315.933	26.11
316.146	-27.14
316.36	-18.94
316.573	120.32
316.787	65.02
317.001	93.69
317.214	26.11
317.428	62.98
317.641	-0.51
317.855	24.06
318.068	32.26
318.282	56.83
318.495	71.17
318.709	54.78
318.922	50.69
319.136	77.31
319.349	83.45
319.563	75.26
319.776	48.64
319.99	67.07
320.203	97.79
320.417	79.36
320.63	48.64
320.843	73.21
321.057	40.45
321.27	89.6
321.483	87.55
321.697	71.17
321.91	73.21
322.124	15.87
322.337	91.65
322.55	32.26
322.763	114.17
322.977	40.45
323.19	42.5
323.403	54.78
323.617	79.36
323.83	46.59
324.043	46.59
324.256	-2.56
324.469	-27.14
324.683	15.87
324.896	-10.75
325.109	-10.75
325.322	-29.18
325.535	77.31
325.748	112.13
325.962	87.55
326.175	38.4
326.388	91.65
326.601	54.78
326.814	28.16
327.027	44.54
327.24	44.54
327.453	62.98
327.666	3.58
327.879	46.59
328.092	122.37
328.305	42.5
328.518	71.17
328.731	22.02
328.944	65.02
329.157	60.93
329.37	24.06
329.583	116.22
329.796	112.13
330.009	5.63
330.222	-27.14
330.435	83.45
330.648	56.83
330.861	-25.09
331.073	67.07
331.286	19.97
331.499	32.26
331.712	13.82
331.925	38.4
332.138	28.16
332.35	77.31
332.563	89.6
332.776	71.17
332.989	50.69
333.202	108.03
333.414	-16.9
333.627	81.41
333.84	79.36
334.053	32.26
334.265	-16.9
334.478	-23.04
334.691	62.98
334.903	116.22
335.116	36.35
335.329	58.88
335.541	65.02
335.754	140.8
335.966	-14.85
336.179	9.73
336.392	34.3
336.604	-31.23
336.817	-2.56
337.029	65.02
337.242	71.17
337.454	65.02
337.667	36.35
337.88	118.27
338.092	32.26
338.305	30.21
338.517	-2.56
338.729	130.56
338.942	146.94
339.154	114.17
339.367	1.54
339.579	65.02
339.792	26.11
340.004	65.02
340.217	-53.76
340.429	95.74
340.641	132.61
340.854	71.17
341.066	-10.75
341.278	40.45
341.491	99.84
341.703	34.3
341.915	11.78
342.128	89.6
342.34	-41.47
342.552	-2.56
342.764	50.69
342.977	9.73
343.189	114.17
343.401	77.31
343.613	32.26
343.826	54.78
344.038	36.35
344.25	85.5
344.462	-8.7
344.674	71.17
344.886	9.73
345.099	46.59
345.311	120.32
345.523	48.64
345.735	1.54
345.947	30.21
346.159	85.5
346.371	36.35
346.583	77.31
346.795	110.08
347.007	48.64
347.219	46.59
347.431	54.78
347.643	95.74
347.855	54.78
348.067	75.26
348.279	32.26
348.491	1.54
348.703	99.84
348.915	30.21
349.127	22.02
349.339	73.21
349.551	11.78
349.763	54.78
349.975	7.68
350.187	58.88
350.399	7.68
350.61	69.12
350.822	36.35
351.034	75.26
351.246	9.73
351.458	-20.99
351.669	93.69
351.881	11.78
352.093	144.89
352.305	54.78
352.517	15.87
352.728	136.7
352.94	77.31
353.152	52.74
353.363	38.4
353.575	22.02
353.787	48.64
353.999	67.07
354.21	89.6
354.422	62.98
354.633	56.83
354.845	148.99
355.057	40.45
355.268	-31.23
355.48	73.21
355.692	-2.56
355.903	67.07
356.115	89.6
356.326	-0.51
356.538	132.61
356.749	130.56
356.961	42.5
357.172	69.12
357.384	65.02
357.595	116.22
357.807	83.45
358.018	44.54
358.23	52.74
358.441	97.79
358.653	99.84
358.864	30.21
359.075	54.78
359.287	56.83
359.498	56.83
359.709	32.26
359.921	36.35
360.132	24.06
360.344	58.88
360.555	32.26
360.766	99.84
360.977	44.54
361.189	69.12
361.4	24.06
361.611	30.21
361.823	58.88
362.034	58.88
362.245	42.5
362.456	-10.75
362.667	58.88
362.879	60.93
363.09	-0.51
363.301	97.79
363.512	22.02
363.723	-20.99
363.935	-29.18
364.146	71.17
364.357	42.5
364.568	38.4
364.779	77.31
364.99	114.17
365.201	38.4
365.412	71.17
365.623	-14.85
365.834	134.65
366.045	-8.7
366.256	73.21
366.467	93.69
366.678	40.45
366.889	30.21
367.1	71.17
367.311	83.45
367.522	65.02
367.733	97.79
367.944	34.3
368.155	1.54
368.366	60.93
368.577	110.08
368.788	114.17
368.999	13.82
369.209	50.69
369.42	75.26
369.631	189.95
369.842	56.83
370.053	83.45
370.264	108.03
370.474	13.82
370.685	75.26
370.896	7.68
371.107	118.27
371.317	114.17
371.528	58.88
371.739	79.36
371.95	42.5
372.16	81.41
372.371	36.35
372.582	28.16
372.792	48.64
373.003	79.36
373.214	110.08
373.424	87.55
373.635	48.64
373.846	97.79
374.056	75.26
374.267	95.74
374.477	34.3
374.688	54.78
374.898	103.93
375.109	136.7
375.319	58.88
375.53	89.6
375.74	67.07
375.951	65.02
376.161	118.27
376.372	75.26
376.582	60.93
376.793	112.13
377.003	22.02
377.214	87.55
377.424	-0.51
377.635	30.21
377.845	56.83
378.055	118.27
378.266	83.45
378.476	71.17
378.686	103.93
378.897	50.69
379.107	101.89
379.317	157.18
379.528	65.02
379.738	120.32
379.948	52.74
380.158	153.09
380.369	112.13
380.579	67.07
380.789	13.82
380.999	32.26
381.21	124.41
381.42	108.03
381.63	-43.52
381.84	91.65
382.05	75.26
382.261	81.41
382.471	116.22
382.681	-2.56
382.891	83.45
383.101	155.13
383.311	9.73
383.521	-31.23
383.731	65.02
383.941	71.17
384.151	52.74
384.361	40.45
384.571	81.41
384.781	73.21
384.991	71.17
385.201	42.5
385.411	50.69
385.621	5.63
385.831	83.45
386.041	75.26
386.251	69.12
386.461	50.69
386.671	54.78
386.881	58.88
387.091	22.02
387.301	116.22
387.511	50.69
387.72	93.69
387.93	142.85
388.14	-33.28
388.35	79.36
388.56	105.98
388.769	77.31
388.979	62.98
389.189	3.58
389.399	54.78
389.609	155.13
389.818	52.74
390.028	79.36
390.238	60.93
390.447	58.88
390.657	75.26
390.867	124.41
391.076	54.78
391.286	77.31
391.496	140.8
391.705	42.5
391.915	79.36
392.125	116.22
392.334	1.54
392.544	185.85
392.753	126.46
392.963	56.83
393.172	87.55
393.382	91.65
393.591	181.76
393.801	40.45
394.01	110.08
394.22	144.89
394.429	44.54
394.639	89.6
394.848	89.6
395.058	75.26
395.267	161.28
395.477	196.09
395.686	169.47
395.895	124.41
396.105	155.13
396.314	69.12
396.524	165.37
396.733	75.26
396.942	105.98
397.152	194.05
397.361	91.65
397.57	34.3
397.78	122.37
397.989	161.28
398.198	87.55
398.407	140.8
398.617	83.45
398.826	101.89
399.035	126.46
399.244	214.52
399.453	146.94
399.663	140.8
399.872	89.6
400.081	175.61
400.29	108.03
400.499	62.98
400.708	77.31
400.917	99.84
401.127	69.12
401.336	142.85
401.545	214.52
401.754	165.37
401.963	194.05
402.172	165.37
402.381	136.7
402.59	189.95
402.799	218.62
403.008	134.65
403.217	148.99
403.426	181.76
403.635	58.88
403.844	118.27
404.053	173.57
404.262	142.85
404.471	146.94
404.68	155.13
404.888	163.33
405.097	91.65
405.306	237.05
405.515	153.09
405.724	196.09
405.933	212.48
406.142	255.48
406.35	235
406.559	171.52
406.768	230.91
406.977	239.1
407.185	237.05
407.394	251.39
407.603	271.87
407.812	261.63
408.02	333.31
408.229	175.61
408.438	278.01
408.646	245.24
408.855	284.16
409.064	230.91
409.272	239.1
409.481	335.35
409.69	370.17
409.898	327.16
410.107	425.47
410.315	349.69
410.524	376.31
410.733	384.51
410.941	376.31
411.15	407.03
411.358	335.35
411.567	437.75
411.775	417.27
411.984	484.86
412.192	437.75
412.401	472.57
412.609	595.45
412.818	558.58
413.026	478.71
413.234	546.3
413.443	583.16
413.651	548.34
413.86	652.79
414.068	632.31
414.276	667.13
414.485	669.17
414.693	806.39
414.901	755.19
415.11	802.29
415.318	794.1
415.526	755.19
415.734	851.44
415.943	779.76
416.151	816.63
416.359	878.07
416.567	929.27
416.776	966.13
416.984	996.85
417.192	1117.68
417.4	986.61
417.608	1097.2
417.817	1193.45
418.025	1302
418.233	1254.89
418.441	1285.61
418.649	1283.56
418.857	1340.91
419.065	1412.59
419.273	1363.44
419.481	1426.92
419.689	1496.55
419.897	1541.61
420.105	1611.24
420.313	1660.39
420.521	1803.75
420.729	1816.04
420.937	1781.22
421.145	1996.26
421.353	1979.87
421.561	2045.41
421.769	2229.73
421.977	2242.01
422.185	2205.15
422.393	2487.77
422.601	2504.15
422.809	2395.61
423.017	2571.74
423.224	2688.47
423.432	2807.25
423.64	2782.68
423.848	3028.43
424.056	2858.45
424.263	3179.98
424.471	3089.87
424.679	3360.2
424.887	3552.71
425.094	3558.86
425.302	3544.52
425.51	3632.58
425.718	3683.78
425.925	3841.48
426.133	3915.2
426.341	4126.15
426.548	4402.62
426.756	4294.08
426.964	4410.81
427.171	4646.33
427.379	4701.62
427.586	4814.26
427.794	4816.31
428.001	5121.46
428.209	5467.56
428.417	5338.54
428.624	5961.13
428.832	5711.27
429.039	5625.26
429.247	5713.32
429.454	6270.37
429.662	6593.95
429.869	6190.5
430.076	6671.77
430.284	6602.14
430.491	6851.99
430.699	7028.12
430.906	7267.73
431.114	7228.82
431.321	7433.61
431.528	7767.43
431.736	8144.26
431.943	8566.14
432.15	8242.56
432.358	8357.25
432.565	8822.14
432.772	8723.83
432.979	9336.18
433.187	9332.08
433.394	9440.62
433.601	10235.24
433.808	9932.14
434.016	9940.33
434.223	10397.03
434.43	11238.74
434.637	10790.24
434.844	11459.92
435.052	11775.31
435.259	11887.95
435.466	11861.32
435.673	11814.22
435.88	12447.04
436.087	13034.81
436.294	13067.58
436.501	12653.89
436.708	13100.34
436.915	13518.13
437.122	13970.73
437.329	14075.18
437.537	14368.04
437.743	14628.13
437.95	14546.21
438.157	15498.52
438.364	15844.62
438.571	15645.97
438.778	16139.53
438.985	17632.5
439.192	16772.35
439.399	17419.51
439.606	16766.21
439.813	18119.92
440.02	19076.32
440.227	18476.26
440.433	18511.08
440.64	18951.39
440.847	18994.4
441.054	19360.98
441.261	20651.2
441.467	20632.77
441.674	20747.46
441.881	21660.85
442.088	21607.61
442.294	21501.11
442.501	21826.74
442.708	22207.66
442.914	23090.34
443.121	23907.48
443.328	23823.51
443.534	25064.58
443.741	24126.61
443.948	24200.33
444.154	25992.31
444.361	25623.67
444.568	25957.49
444.774	26020.98
444.981	26113.14
445.187	26715.24
445.394	28060.76
445.6	27638.87
445.807	30510.13
446.013	28818.5
446.22	29299.78
446.426	30346.29
446.633	30741.55
446.839	31632.41
447.046	30483.5
447.252	31999
447.459	32504.85
447.665	32003.1
447.871	33532.93
448.078	34739.18
448.284	33315.84
448.491	34259.96
448.697	35130.34
448.903	35865.56
449.11	36006.87
449.316	35468.26
449.522	35906.52
449.728	36977.61
449.935	37411.78
450.141	36893.65
450.347	37948.35
450.553	36295.64
450.76	37157.83
450.966	38493.11
451.172	37749.7
451.378	38712.24
451.584	38028.22
451.791	38824.88
451.997	38403
452.203	39177.13
452.409	39138.22
452.615	38685.62
452.821	37757.89
453.027	36985.8
453.233	38837.17
453.44	37372.87
453.646	37891.01
453.852	37663.68
454.058	38501.3
454.264	37153.74
454.47	38165.43
454.676	37000.14
454.882	38902.7
455.088	35144.68
455.294	35091.43
455.5	35857.37
455.705	36522.96
455.911	34671.6
456.117	34003.96
456.323	33645.57
456.529	31644.7
456.735	32875.53
456.941	32232.47
457.147	32064.53
457.352	30817.32
457.558	30280.75
457.764	30360.62
457.97	30030.9
458.176	29264.96
458.381	29240.39
458.587	27415.65
458.793	27774.04
458.999	26381.42
459.204	28052.56
459.41	27442.27
459.616	25478.27
459.821	25480.32
460.027	25697.4
460.233	25056.39
460.438	23805.08
460.644	24151.18
460.85	22998.18
461.055	22604.97
461.261	22711.46
461.466	20823.23
461.672	19989.71
461.878	21740.72
462.083	20313.29
462.289	20077.77
462.494	19944.66
462.7	18994.4
462.905	18529.51
463.111	19336.41
463.316	19031.26
463.522	18660.58
463.727	18846.94
463.932	18709.73
464.138	18547.94
464.343	18447.59
464.549	18154.73
464.754	18738.4
464.959	18576.61
465.165	18349.29
465.37	17548.53
465.575	17325.3
465.781	17900.78
465.986	17915.12
466.191	17384.69
466.397	16973.05
466.602	16241.93
466.807	16835.84
467.012	16821.5
467.218	16907.52
