Data from USB4F104151__138__10-25-52-679.txt Node

Date: Wed Mar 12 10:25:52 EDT 2025
User: louis
Spectrometer: USB4F10415
Trigger mode: 4
Integration Time (sec): 3.000000E-2
Scans to average: 1
Electric dark correction enabled: true
Nonlinearity correction enabled: false
Boxcar width: 0
XAxis mode: Wavelengths
Number of Pixels in Spectrum: 3648
>>>>>Begin Spectral Data<<<<<
178.204	-71.34
178.424	-71.34
178.644	-71.34
178.864	-147.11
179.084	-89.77
179.304	-1.71
179.524	35.16
179.744	61.78
179.964	0.34
180.184	69.97
180.404	45.4
180.624	-20.14
180.844	-104.11
181.064	-24.23
181.283	-34.47
181.503	-69.29
181.723	41.3
181.943	-102.06
182.163	80.21
182.383	4.44
182.602	53.59
182.822	143.7
183.042	-11.95
183.262	12.63
183.482	59.73
183.701	59.73
183.921	-13.99
184.141	-32.43
184.361	51.54
184.58	63.83
184.8	24.92
185.02	14.68
185.239	16.73
185.459	18.77
185.679	55.64
185.898	-18.09
186.118	47.44
186.338	41.3
186.557	145.75
186.777	26.96
186.997	-20.14
187.216	-24.23
187.436	78.16
187.655	0.34
187.875	41.3
188.095	-3.75
188.314	41.3
188.534	29.01
188.753	-46.76
188.973	47.44
189.192	55.64
189.412	29.01
189.631	86.36
189.851	-42.67
190.07	53.59
190.29	-30.38
190.509	16.73
190.729	10.58
190.948	86.36
191.168	121.17
191.387	74.07
191.607	-38.57
191.826	-73.39
192.045	24.92
192.265	69.97
192.484	20.82
192.704	-9.9
192.923	-20.14
193.142	110.93
193.362	29.01
193.581	88.4
193.8	31.06
194.02	59.73
194.239	14.68
194.458	96.6
194.678	63.83
194.897	39.25
195.116	37.2
195.335	22.87
195.555	69.97
195.774	22.87
195.993	-11.95
196.212	0.34
196.432	80.21
196.651	37.2
196.87	10.58
197.089	84.31
197.308	86.36
197.528	-3.75
197.747	31.06
197.966	24.92
198.185	82.26
198.404	78.16
198.623	59.73
198.842	26.96
199.062	82.26
199.281	96.6
199.5	37.2
199.719	53.59
199.938	31.06
200.157	76.12
200.376	59.73
200.595	61.78
200.814	80.21
201.033	-57
201.252	63.83
201.471	12.63
201.69	-13.99
201.909	78.16
202.128	61.78
202.347	55.64
202.566	22.87
202.785	6.49
203.004	-13.99
203.223	121.17
203.442	59.73
203.661	-9.9
203.879	26.96
204.098	127.32
204.317	35.16
204.536	92.5
204.755	10.58
204.974	41.3
205.193	45.4
205.411	47.44
205.63	20.82
205.849	-3.75
206.068	20.82
206.287	-11.95
206.505	121.17
206.724	63.83
206.943	0.34
207.162	-13.99
207.381	2.39
207.599	18.77
207.818	96.6
208.037	-65.19
208.255	6.49
208.474	16.73
208.693	47.44
208.911	108.88
209.13	80.21
209.349	-18.09
209.567	57.68
209.786	43.35
210.005	80.21
210.223	16.73
210.442	55.64
210.661	78.16
210.879	45.4
211.098	8.53
211.316	98.64
211.535	100.69
211.753	22.87
211.972	-50.86
212.191	72.02
212.409	43.35
212.628	2.39
212.846	125.27
213.065	24.92
213.283	39.25
213.502	4.44
213.72	63.83
213.938	26.96
214.157	-61.1
214.375	12.63
214.594	76.12
214.812	78.16
215.031	14.68
215.249	-1.71
215.467	-1.71
215.686	100.69
215.904	82.26
216.122	127.32
216.341	39.25
216.559	82.26
216.778	31.06
216.996	14.68
217.214	53.59
217.432	24.92
217.651	76.12
217.869	35.16
218.087	84.31
218.306	22.87
218.524	57.68
218.742	-7.85
218.96	55.64
219.179	72.02
219.397	78.16
219.615	88.4
219.833	43.35
220.051	-3.75
220.27	31.06
220.488	67.92
220.706	67.92
220.924	76.12
221.142	-18.09
221.36	61.78
221.578	39.25
221.796	37.2
222.015	67.92
222.233	4.44
222.451	121.17
222.669	-18.09
222.887	10.58
223.105	8.53
223.323	-1.71
223.541	-3.75
223.759	10.58
223.977	106.84
224.195	80.21
224.413	16.73
224.631	29.01
224.849	26.96
225.067	14.68
225.285	29.01
225.503	69.97
225.721	-50.86
225.939	78.16
226.157	2.39
226.375	143.7
226.592	12.63
226.81	74.07
227.028	12.63
227.246	92.5
227.464	-48.81
227.682	39.25
227.9	59.73
228.117	8.53
228.335	51.54
228.553	-59.05
228.771	53.59
228.989	92.5
229.206	112.98
229.424	51.54
229.642	61.78
229.86	22.87
230.077	35.16
230.295	20.82
230.513	14.68
230.731	94.55
230.948	110.93
231.166	131.41
231.384	-1.71
231.601	-42.67
231.819	98.64
232.037	16.73
232.254	-26.28
232.472	4.44
232.689	-34.47
232.907	41.3
233.125	61.78
233.342	31.06
233.56	-3.75
233.777	35.16
233.995	61.78
234.213	67.92
234.43	24.92
234.648	92.5
234.865	55.64
235.083	-18.09
235.3	78.16
235.518	88.4
235.735	22.87
235.953	63.83
236.17	53.59
236.388	45.4
236.605	35.16
236.822	63.83
237.04	14.68
237.257	39.25
237.475	41.3
237.692	96.6
237.909	-1.71
238.127	-50.86
238.344	72.02
238.562	55.64
238.779	22.87
238.996	12.63
239.214	57.68
239.431	-11.95
239.648	12.63
239.865	35.16
240.083	117.08
240.3	10.58
240.517	-5.8
240.735	14.68
240.952	33.11
241.169	51.54
241.386	55.64
241.603	115.03
241.821	16.73
242.038	69.97
242.255	26.96
242.472	-1.71
242.689	88.4
242.907	61.78
243.124	-22.19
243.341	2.39
243.558	-44.71
243.775	96.6
243.992	90.45
244.209	37.2
244.426	2.39
244.643	61.78
244.86	41.3
245.078	-18.09
245.295	63.83
245.512	106.84
245.729	-5.8
245.946	47.44
246.163	69.97
246.38	55.64
246.597	72.02
246.814	-11.95
247.031	37.2
247.248	-18.09
247.464	80.21
247.681	53.59
247.898	43.35
248.115	33.11
248.332	47.44
248.549	31.06
248.766	26.96
248.983	67.92
249.2	-11.95
249.417	8.53
249.633	33.11
249.85	57.68
250.067	10.58
250.284	24.92
250.501	22.87
250.717	61.78
250.934	63.83
251.151	82.26
251.368	12.63
251.585	41.3
251.801	41.3
252.018	86.36
252.235	35.16
252.451	43.35
252.668	33.11
252.885	24.92
253.102	-26.28
253.318	41.3
253.535	-3.75
253.752	16.73
253.968	24.92
254.185	-52.91
254.401	-3.75
254.618	43.35
254.835	76.12
255.051	143.7
255.268	4.44
255.484	53.59
255.701	35.16
255.917	-30.38
256.134	39.25
256.351	-22.19
256.567	0.34
256.784	12.63
257	-20.14
257.217	-30.38
257.433	-5.8
257.65	49.49
257.866	55.64
258.082	-9.9
258.299	-18.09
258.515	80.21
258.732	92.5
258.948	-9.9
259.165	39.25
259.381	51.54
259.597	4.44
259.814	16.73
260.03	72.02
260.246	80.21
260.463	67.92
260.679	33.11
260.895	53.59
261.112	-18.09
261.328	55.64
261.544	63.83
261.761	123.22
261.977	43.35
262.193	-34.47
262.409	55.64
262.626	37.2
262.842	115.03
263.058	-18.09
263.274	61.78
263.49	-32.43
263.707	55.64
263.923	35.16
264.139	-52.91
264.355	39.25
264.571	41.3
264.787	-44.71
265.004	59.73
265.22	59.73
265.436	22.87
265.652	22.87
265.868	104.79
266.084	88.4
266.3	78.16
266.516	-85.67
266.732	51.54
266.948	41.3
267.164	-3.75
267.38	45.4
267.596	-7.85
267.812	74.07
268.028	-1.71
268.244	0.34
268.46	69.97
268.676	76.12
268.892	0.34
269.108	4.44
269.324	78.16
269.54	12.63
269.756	84.31
269.972	4.44
270.188	35.16
270.403	57.68
270.619	84.31
270.835	-9.9
271.051	35.16
271.267	-38.57
271.483	47.44
271.698	14.68
271.914	78.16
272.13	-36.52
272.346	53.59
272.562	76.12
272.777	72.02
272.993	8.53
273.209	4.44
273.425	43.35
273.64	104.79
273.856	0.34
274.072	90.45
274.287	18.77
274.503	35.16
274.719	76.12
274.934	45.4
275.15	-16.04
275.366	78.16
275.581	-11.95
275.797	10.58
276.012	-1.71
276.228	-38.57
276.444	22.87
276.659	2.39
276.875	-36.52
277.09	43.35
277.306	2.39
277.521	55.64
277.737	31.06
277.952	24.92
278.168	-5.8
278.383	72.02
278.599	41.3
278.814	22.87
279.03	88.4
279.245	45.4
279.461	117.08
279.676	59.73
279.892	-38.57
280.107	51.54
280.322	-30.38
280.538	96.6
280.753	-1.71
280.969	65.88
281.184	37.2
281.399	67.92
281.615	-3.75
281.83	14.68
282.045	-24.23
282.26	24.92
282.476	4.44
282.691	84.31
282.906	14.68
283.122	92.5
283.337	2.39
283.552	14.68
283.767	43.35
283.983	90.45
284.198	-1.71
284.413	98.64
284.628	31.06
284.843	53.59
285.058	26.96
285.274	-18.09
285.489	6.49
285.704	69.97
285.919	20.82
286.134	84.31
286.349	49.49
286.564	29.01
286.779	94.55
286.995	33.11
287.21	20.82
287.425	100.69
287.64	8.53
287.855	43.35
288.07	80.21
288.285	100.69
288.5	22.87
288.715	14.68
288.93	61.78
289.145	76.12
289.36	47.44
289.575	33.11
289.79	22.87
290.004	24.92
290.219	14.68
290.434	-16.04
290.649	-22.19
290.864	35.16
291.079	-26.28
291.294	37.2
291.509	0.34
291.724	37.2
291.938	26.96
292.153	82.26
292.368	2.39
292.583	29.01
292.798	72.02
293.012	22.87
293.227	-7.85
293.442	39.25
293.657	39.25
293.871	55.64
294.086	18.77
294.301	22.87
294.516	117.08
294.73	35.16
294.945	14.68
295.16	2.39
295.374	67.92
295.589	76.12
295.804	55.64
296.018	84.31
296.233	67.92
296.447	110.93
296.662	88.4
296.877	-50.86
297.091	31.06
297.306	59.73
297.52	-44.71
297.735	33.11
297.949	37.2
298.164	61.78
298.378	117.08
298.593	43.35
298.807	-22.19
299.022	39.25
299.236	6.49
299.451	2.39
299.665	53.59
299.88	22.87
300.094	43.35
300.309	-16.04
300.523	-20.14
300.737	61.78
300.952	33.11
301.166	43.35
301.381	-50.86
301.595	72.02
301.809	57.68
302.024	-38.57
302.238	47.44
302.452	39.25
302.667	61.78
302.881	61.78
303.095	131.41
303.309	102.74
303.524	96.6
303.738	31.06
303.952	26.96
304.166	31.06
304.381	-26.28
304.595	65.88
304.809	41.3
305.023	80.21
305.237	78.16
305.452	51.54
305.666	10.58
305.88	65.88
306.094	80.21
306.308	51.54
306.522	61.78
306.736	22.87
306.95	59.73
307.164	35.16
307.379	63.83
307.593	72.02
307.807	39.25
308.021	39.25
308.235	76.12
308.449	-34.47
308.663	55.64
308.877	6.49
309.091	26.96
309.305	53.59
309.519	0.34
309.733	121.17
309.947	59.73
310.161	100.69
310.374	102.74
310.588	55.64
310.802	-16.04
311.016	10.58
311.23	31.06
311.444	16.73
311.658	49.49
311.872	104.79
312.085	80.21
312.299	125.27
312.513	72.02
312.727	18.77
312.941	-28.33
313.154	49.49
313.368	86.36
313.582	20.82
313.796	55.64
314.009	-22.19
314.223	63.83
314.437	63.83
314.651	45.4
314.864	-40.62
315.078	31.06
315.292	69.97
315.505	86.36
315.719	76.12
315.933	123.22
316.146	31.06
316.36	51.54
316.573	37.2
316.787	84.31
317.001	108.88
317.214	35.16
317.428	37.2
317.641	37.2
317.855	-28.33
318.068	80.21
318.282	-26.28
318.495	170.32
318.709	43.35
318.922	84.31
319.136	24.92
319.349	43.35
319.563	16.73
319.776	10.58
319.99	53.59
320.203	47.44
320.417	69.97
320.63	121.17
320.843	125.27
321.057	35.16
321.27	55.64
321.483	39.25
321.697	82.26
321.91	92.5
322.124	29.01
322.337	98.64
322.55	29.01
322.763	22.87
322.977	8.53
323.19	43.35
323.403	63.83
323.617	80.21
323.83	82.26
324.043	6.49
324.256	78.16
324.469	24.92
324.683	45.4
324.896	53.59
325.109	41.3
325.322	31.06
325.535	37.2
325.748	84.31
325.962	8.53
326.175	92.5
326.388	51.54
326.601	-3.75
326.814	-9.9
327.027	121.17
327.24	102.74
327.453	18.77
327.666	10.58
327.879	63.83
328.092	72.02
328.305	92.5
328.518	45.4
328.731	18.77
328.944	12.63
329.157	67.92
329.37	39.25
329.583	92.5
329.796	41.3
330.009	88.4
330.222	108.88
330.435	43.35
330.648	57.68
330.861	80.21
331.073	72.02
331.286	80.21
331.499	6.49
331.712	57.68
331.925	45.4
332.138	12.63
332.35	49.49
332.563	69.97
332.776	39.25
332.989	35.16
333.202	51.54
333.414	94.55
333.627	78.16
333.84	26.96
334.053	8.53
334.265	47.44
334.478	26.96
334.691	41.3
334.903	-20.14
335.116	-22.19
335.329	29.01
335.541	69.97
335.754	82.26
335.966	80.21
336.179	12.63
336.392	-1.71
336.604	12.63
336.817	63.83
337.029	41.3
337.242	86.36
337.454	84.31
337.667	6.49
337.88	164.18
338.092	41.3
338.305	63.83
338.517	-13.99
338.729	37.2
338.942	131.41
339.154	88.4
339.367	57.68
339.579	35.16
339.792	14.68
340.004	51.54
340.217	-20.14
340.429	39.25
340.641	59.73
340.854	29.01
341.066	37.2
341.278	-1.71
341.491	88.4
341.703	-1.71
341.915	80.21
342.128	92.5
342.34	53.59
342.552	65.88
342.764	26.96
342.977	72.02
343.189	80.21
343.401	67.92
343.613	10.58
343.826	0.34
344.038	33.11
344.25	33.11
344.462	22.87
344.674	35.16
344.886	14.68
345.099	49.49
345.311	-13.99
345.523	2.39
345.735	-57
345.947	31.06
346.159	31.06
346.371	18.77
346.583	84.31
346.795	160.08
347.007	72.02
347.219	61.78
347.431	18.77
347.643	63.83
347.855	37.2
348.067	55.64
348.279	2.39
348.491	47.44
348.703	12.63
348.915	74.07
349.127	31.06
349.339	80.21
349.551	74.07
349.763	43.35
349.975	-1.71
350.187	78.16
350.399	35.16
350.61	143.7
350.822	4.44
351.034	67.92
351.246	12.63
351.458	51.54
351.669	55.64
351.881	84.31
352.093	12.63
352.305	106.84
352.517	74.07
352.728	18.77
352.94	43.35
353.152	-69.29
353.363	59.73
353.575	51.54
353.787	4.44
353.999	20.82
354.21	18.77
354.422	22.87
354.633	47.44
354.845	-3.75
355.057	61.78
355.268	37.2
355.48	80.21
355.692	47.44
355.903	51.54
356.115	31.06
356.326	14.68
356.538	131.41
356.749	55.64
356.961	110.93
357.172	18.77
357.384	0.34
357.595	76.12
357.807	59.73
358.018	-32.43
358.23	92.5
358.441	76.12
358.653	92.5
358.864	12.63
359.075	45.4
359.287	65.88
359.498	61.78
359.709	35.16
359.921	-18.09
360.132	35.16
360.344	-34.47
360.555	26.96
360.766	92.5
360.977	35.16
361.189	125.27
361.4	59.73
361.611	35.16
361.823	63.83
362.034	20.82
362.245	-9.9
362.456	41.3
362.667	20.82
362.879	86.36
363.09	72.02
363.301	47.44
363.512	61.78
363.723	14.68
363.935	-13.99
364.146	61.78
364.357	-22.19
364.568	49.49
364.779	2.39
364.99	37.2
365.201	18.77
365.412	86.36
365.623	-28.33
365.834	16.73
366.045	78.16
366.256	92.5
366.467	78.16
366.678	37.2
366.889	31.06
367.1	31.06
367.311	67.92
367.522	29.01
367.733	59.73
367.944	72.02
368.155	106.84
368.366	45.4
368.577	53.59
368.788	63.83
368.999	22.87
369.209	43.35
369.42	119.12
369.631	121.17
369.842	104.79
370.053	-16.04
370.264	88.4
370.474	96.6
370.685	53.59
370.896	47.44
371.107	63.83
371.317	76.12
371.528	45.4
371.739	74.07
371.95	51.54
372.16	72.02
372.371	6.49
372.582	26.96
372.792	45.4
373.003	47.44
373.214	92.5
373.424	16.73
373.635	96.6
373.846	143.7
374.056	51.54
374.267	53.59
374.477	100.69
374.688	63.83
374.898	92.5
375.109	51.54
375.319	63.83
375.53	115.03
375.74	33.11
375.951	63.83
376.161	-7.85
376.372	104.79
376.582	92.5
376.793	26.96
377.003	33.11
377.214	26.96
377.424	33.11
377.635	96.6
377.845	53.59
378.055	131.41
378.266	-7.85
378.476	80.21
378.686	45.4
378.897	72.02
379.107	78.16
379.317	14.68
379.528	45.4
379.738	29.01
379.948	63.83
380.158	4.44
380.369	33.11
380.579	86.36
380.789	45.4
380.999	67.92
381.21	39.25
381.42	115.03
381.63	102.74
381.84	117.08
382.05	20.82
382.261	65.88
382.471	39.25
382.681	80.21
382.891	69.97
383.101	74.07
383.311	-48.81
383.521	43.35
383.731	4.44
383.941	43.35
384.151	2.39
384.361	72.02
384.571	45.4
384.781	69.97
384.991	94.55
385.201	51.54
385.411	59.73
385.621	84.31
385.831	39.25
386.041	47.44
386.251	43.35
386.461	55.64
386.671	115.03
386.881	39.25
387.091	65.88
387.301	78.16
387.511	39.25
387.72	53.59
387.93	0.34
388.14	-13.99
388.35	80.21
388.56	96.6
388.769	129.36
388.979	63.83
389.189	-22.19
389.399	65.88
389.609	59.73
389.818	12.63
390.028	112.98
390.238	94.55
390.447	61.78
390.657	57.68
390.867	88.4
391.076	59.73
391.286	33.11
391.496	96.6
391.705	69.97
391.915	121.17
392.125	88.4
392.334	67.92
392.544	180.56
392.753	88.4
392.963	10.58
393.172	45.4
393.382	80.21
393.591	86.36
393.801	29.01
394.01	80.21
394.22	80.21
394.429	4.44
394.639	119.12
394.848	59.73
395.058	69.97
395.267	84.31
395.477	57.68
395.686	100.69
395.895	65.88
396.105	67.92
396.314	139.6
396.524	131.41
396.733	131.41
396.942	98.64
397.152	108.88
397.361	192.85
397.57	94.55
397.78	153.94
397.989	96.6
398.198	125.27
398.407	80.21
398.617	63.83
398.826	155.99
399.035	147.8
399.244	96.6
399.453	104.79
399.663	88.4
399.872	88.4
400.081	133.46
400.29	135.51
400.499	137.56
400.708	176.47
400.917	88.4
401.127	108.88
401.336	78.16
401.545	112.98
401.754	143.7
401.963	92.5
402.172	129.36
402.381	61.78
402.59	100.69
402.799	76.12
403.008	98.64
403.217	149.84
403.426	61.78
403.635	82.26
403.844	133.46
404.053	223.57
404.262	192.85
404.471	244.05
404.68	176.47
404.888	92.5
405.097	121.17
405.306	121.17
405.515	104.79
405.724	147.8
405.933	174.42
406.142	166.23
406.35	192.85
406.559	178.51
406.768	141.65
406.977	252.24
407.185	145.75
407.394	170.32
407.603	178.51
407.812	162.13
408.02	137.56
408.229	184.66
408.438	153.94
408.646	194.9
408.855	182.61
409.064	151.89
409.272	219.47
409.481	309.58
409.69	297.3
409.898	209.23
410.107	260.43
410.315	272.72
410.524	227.67
410.733	336.21
410.941	256.34
411.15	301.39
411.358	375.12
411.567	334.16
411.775	340.3
411.984	459.09
412.192	393.55
412.401	368.98
412.609	452.94
412.818	428.37
413.026	399.7
413.234	346.45
413.443	475.47
413.651	512.33
413.86	498
414.068	473.42
414.276	602.44
414.485	457.04
414.693	561.48
414.901	575.82
415.11	538.96
415.318	596.3
415.526	645.45
415.734	735.56
415.943	639.31
416.151	700.75
416.359	651.6
416.567	710.99
416.776	727.37
416.984	821.58
417.192	805.19
417.4	708.94
417.608	797
417.817	805.19
418.025	860.49
418.233	1016.13
418.441	870.73
418.649	917.83
418.857	1087.81
419.065	948.55
419.273	1036.61
419.481	1200.45
419.689	1202.5
419.897	1274.18
420.105	1188.16
420.313	1374.53
420.521	1392.96
420.729	1360.19
420.937	1374.53
421.145	1435.97
421.353	1591.61
421.561	1550.65
421.769	1542.46
421.977	1685.82
422.185	1653.05
422.393	1712.44
422.601	1825.08
422.809	1907
423.017	1823.03
423.224	1966.39
423.432	1956.15
423.64	1964.34
423.848	2214.2
424.056	2134.32
424.263	2445.62
424.471	2306.35
424.679	2382.13
424.887	2529.58
425.094	2562.35
425.302	2539.82
425.51	2648.36
425.718	2777.39
425.925	2842.92
426.133	2689.32
426.341	3209.51
426.548	3107.11
426.756	3100.97
426.964	3193.12
427.171	3408.16
427.379	3658.01
427.586	3459.36
427.794	3619.1
428.001	3832.09
428.209	3885.34
428.417	3959.06
428.624	4135.19
428.832	4325.65
429.039	4200.73
429.247	4208.92
429.454	4534.54
429.662	4825.36
429.869	4540.69
430.076	4911.37
430.284	4651.28
430.491	5118.22
430.699	5429.51
430.906	5204.23
431.114	5241.09
431.321	5548.29
431.528	5583.1
431.736	5951.74
431.943	6289.65
432.15	6105.34
432.358	6201.59
432.565	6469.87
432.772	6443.25
432.979	6824.17
433.187	6953.2
433.394	6969.58
433.601	7332.07
433.808	7483.62
434.016	7485.67
434.223	7579.87
434.43	7995.61
434.637	8063.19
434.844	8274.14
435.052	8509.65
435.259	8554.71
435.466	8571.09
435.673	8507.6
435.88	9074.89
436.087	9492.68
436.294	9613.51
436.501	9353.41
436.708	9711.81
436.915	9992.38
437.122	10281.14
437.329	10416.31
437.537	10399.93
437.743	10768.56
437.95	10614.96
438.157	11348.14
438.364	11665.57
438.571	11471.01
438.778	11600.04
438.985	12882.06
439.192	12288.15
439.399	12699.8
439.606	12390.55
439.813	13119.63
440.02	13783.17
440.227	13758.6
440.433	13361.29
440.64	14022.78
440.847	13887.62
441.054	14436.47
441.261	15128.69
441.467	14690.42
441.674	15173.74
441.881	15716.45
442.088	15657.06
442.294	15581.29
442.501	15956.07
442.708	16277.6
442.914	16980.05
443.121	17690.7
443.328	17080.4
443.534	18300.99
443.741	17760.33
443.948	17786.95
444.154	19056.69
444.361	18712.63
444.568	18731.06
444.774	18837.56
444.981	19249.2
445.187	19630.12
445.394	20744.22
445.6	20303.9
445.807	22099.97
446.013	20987.93
446.22	21633.04
446.426	22474.75
446.633	22677.5
446.839	23259.12
447.046	22454.27
447.252	23343.09
447.459	23439.34
447.665	23480.3
447.871	24283.11
448.078	25679.82
448.284	24190.95
448.491	24993.75
448.697	25839.56
448.903	26220.49
449.11	26447.81
449.316	25984.97
449.522	26494.91
449.728	27160.5
449.935	27250.61
450.141	27332.53
450.347	27625.39
450.553	27285.43
450.76	26994.62
450.966	28532.64
451.172	27611.06
451.378	28479.39
451.584	27940.78
451.791	28723.1
451.997	28211.11
452.203	29036.44
452.409	29034.39
452.615	29071.26
452.821	27627.44
453.027	27416.5
453.233	28581.79
453.44	27600.82
453.646	28131.24
453.852	27967.4
454.058	28508.07
454.264	27516.85
454.47	28258.21
454.676	27367.35
454.882	28420
455.088	25954.25
455.294	26384.32
455.5	26564.54
455.705	27217.85
455.911	25855.95
456.117	25403.35
456.323	25110.49
456.529	23644.14
456.735	24639.45
456.941	24008.68
457.147	23793.64
457.352	23009.27
457.558	22843.38
457.764	22659.07
457.97	22284.29
458.176	21776.39
458.381	21630.99
458.587	20207.65
458.793	20523.04
458.999	19406.89
459.204	21071.89
459.41	20246.56
459.616	19058.74
459.821	18970.68
460.027	18950.2
460.233	18466.88
460.438	17811.53
460.644	18186.3
460.85	16982.1
461.055	16765.01
461.261	16679
461.466	15442.03
461.672	14993.52
461.878	16177.25
462.083	15065.2
462.289	14821.49
462.494	14610.55
462.7	13877.38
462.905	13758.6
463.111	14104.7
463.316	14270.59
463.522	13961.34
463.727	13981.82
463.932	13645.96
464.138	13883.52
464.343	13752.45
464.549	13211.79
464.754	13987.97
464.959	13705.35
465.165	13703.3
465.37	13107.34
465.575	12902.54
465.781	13101.2
465.986	13136.01
466.191	12652.69
466.397	12605.59
466.602	11956.38
466.807	12396.7
467.012	12472.47
467.218	12454.04
467.423	12103.84
467.628	12404.89
467.833	12941.46
468.038	12511.38
468.244	11907.23
468.449	12390.55
