Data from USB4F104151__214__10-29-57-003.txt Node

Date: Wed Mar 12 10:29:57 EDT 2025
User: louis
Spectrometer: USB4F10415
Trigger mode: 4
Integration Time (sec): 3.000000E-2
Scans to average: 1
Electric dark correction enabled: true
Nonlinearity correction enabled: false
Boxcar width: 0
XAxis mode: Wavelengths
Number of Pixels in Spectrum: 3648
>>>>>Begin Spectral Data<<<<<
178.204	-103.76
178.424	-103.76
178.644	-103.76
178.864	-54.61
179.084	-85.33
179.304	60.07
179.524	-5.46
179.744	10.92
179.964	-11.61
180.184	-13.65
180.404	-36.18
180.624	15.02
180.844	2.73
181.064	-3.41
181.283	-30.04
181.503	4.78
181.723	6.83
181.943	-54.61
182.163	74.41
182.383	-34.13
182.602	19.11
182.822	29.35
183.042	8.87
183.262	-13.65
183.482	10.92
183.701	55.98
183.921	51.88
184.141	6.83
184.361	64.17
184.58	84.65
184.8	60.07
185.02	10.92
185.239	84.65
185.459	51.88
185.679	39.59
185.898	-42.32
186.118	31.4
186.338	17.07
186.557	0.68
186.777	27.31
186.997	15.02
187.216	-34.13
187.436	109.23
187.655	80.55
187.875	29.35
188.095	43.69
188.314	84.65
188.534	80.55
188.753	-13.65
188.973	6.83
189.192	-48.47
189.412	76.46
189.631	31.4
189.851	51.88
190.07	0.68
190.29	17.07
190.509	21.16
190.729	94.89
190.948	88.75
191.168	88.75
191.387	39.59
191.607	29.35
191.826	29.35
192.045	27.31
192.265	90.79
192.484	-9.56
192.704	19.11
192.923	47.79
193.142	37.55
193.362	76.46
193.581	84.65
193.8	60.07
194.02	27.31
194.239	27.31
194.458	2.73
194.678	10.92
194.897	-3.41
195.116	45.74
195.335	90.79
195.555	25.26
195.774	12.97
195.993	74.41
196.212	41.64
196.432	8.87
196.651	-23.89
196.87	15.02
197.089	70.31
197.308	23.21
197.528	39.59
197.747	43.69
197.966	-5.46
198.185	72.36
198.404	-1.37
198.623	-5.46
198.842	78.51
199.062	39.59
199.281	6.83
199.5	41.64
199.719	-46.42
199.938	53.93
200.157	8.87
200.376	35.5
200.595	98.99
200.814	101.03
201.033	47.79
201.252	17.07
201.471	25.26
201.69	53.93
201.909	15.02
202.128	123.56
202.347	51.88
202.566	31.4
202.785	-7.51
203.004	-1.37
203.223	92.84
203.442	6.83
203.661	-17.75
203.879	27.31
204.098	51.88
204.317	8.87
204.536	72.36
204.755	33.45
204.974	-5.46
205.193	47.79
205.411	105.13
205.63	37.55
205.849	31.4
206.068	49.83
206.287	2.73
206.505	94.89
206.724	55.98
206.943	92.84
207.162	60.07
207.381	21.16
207.599	-44.37
207.818	15.02
208.037	51.88
208.255	12.97
208.474	39.59
208.693	84.65
208.911	-36.18
209.13	6.83
209.349	84.65
209.567	25.26
209.786	92.84
210.005	-1.37
210.223	92.84
210.442	-36.18
210.661	127.66
210.879	49.83
211.098	-13.65
211.316	105.13
211.535	62.12
211.753	-32.08
211.972	19.11
212.191	49.83
212.409	15.02
212.628	74.41
212.846	35.5
213.065	68.27
213.283	90.79
213.502	25.26
213.72	12.97
213.938	12.97
214.157	-23.89
214.375	21.16
214.594	47.79
214.812	107.18
215.031	-3.41
215.249	33.45
215.467	51.88
215.686	66.22
215.904	21.16
216.122	39.59
216.341	37.55
216.559	25.26
216.778	19.11
216.996	66.22
217.214	0.68
217.432	43.69
217.651	43.69
217.869	37.55
218.087	-17.75
218.306	35.5
218.524	68.27
218.742	101.03
218.96	-15.7
219.179	25.26
219.397	58.03
219.615	41.64
219.833	64.17
220.051	-19.8
220.27	60.07
220.488	25.26
220.706	0.68
220.924	51.88
221.142	74.41
221.36	-5.46
221.578	51.88
221.796	51.88
222.015	-17.75
222.233	62.12
222.451	25.26
222.669	84.65
222.887	60.07
223.105	-44.37
223.323	-1.37
223.541	41.64
223.759	117.42
223.977	35.5
224.195	12.97
224.413	43.69
224.631	47.79
224.849	25.26
225.067	12.97
225.285	41.64
225.503	82.6
225.721	15.02
225.939	45.74
226.157	27.31
226.375	51.88
226.592	35.5
226.81	72.36
227.028	64.17
227.246	62.12
227.464	39.59
227.682	60.07
227.9	41.64
228.117	-21.84
228.335	80.55
228.553	78.51
228.771	2.73
228.989	66.22
229.206	-23.89
229.424	-52.56
229.642	-9.56
229.86	6.83
230.077	94.89
230.295	-58.71
230.513	88.75
230.731	68.27
230.948	31.4
231.166	98.99
231.384	10.92
231.601	49.83
231.819	90.79
232.037	8.87
232.254	60.07
232.472	92.84
232.689	6.83
232.907	76.46
233.125	25.26
233.342	49.83
233.56	66.22
233.777	19.11
233.995	25.26
234.213	84.65
234.43	-3.41
234.648	-27.99
234.865	72.36
235.083	6.83
235.3	58.03
235.518	88.75
235.735	35.5
235.953	88.75
236.17	35.5
236.388	90.79
236.605	49.83
236.822	47.79
237.04	78.51
237.257	43.69
237.475	-36.18
237.692	17.07
237.909	-13.65
238.127	17.07
238.344	107.18
238.562	21.16
238.779	-5.46
238.996	43.69
239.214	10.92
239.431	-9.56
239.648	10.92
239.865	37.55
240.083	29.35
240.3	0.68
240.517	49.83
240.735	27.31
240.952	23.21
241.169	37.55
241.386	2.73
241.603	12.97
241.821	35.5
242.038	88.75
242.255	66.22
242.472	-19.8
242.689	15.02
242.907	15.02
243.124	60.07
243.341	-23.89
243.558	-21.84
243.775	35.5
243.992	-1.37
244.209	-9.56
244.426	64.17
244.643	8.87
244.86	-5.46
245.078	58.03
245.295	43.69
245.512	53.93
245.729	2.73
245.946	-1.37
246.163	88.75
246.38	92.84
246.597	-1.37
246.814	12.97
247.031	-7.51
247.248	80.55
247.464	49.83
247.681	-17.75
247.898	137.9
248.115	-11.61
248.332	-40.28
248.549	27.31
248.766	10.92
248.983	103.08
249.2	76.46
249.417	96.94
249.633	43.69
249.85	82.6
250.067	86.7
250.284	80.55
250.501	62.12
250.717	55.98
250.934	-5.46
251.151	6.83
251.368	23.21
251.585	33.45
251.801	72.36
252.018	-9.56
252.235	64.17
252.451	33.45
252.668	25.26
252.885	64.17
253.102	35.5
253.318	43.69
253.535	60.07
253.752	47.79
253.968	66.22
254.185	47.79
254.401	88.75
254.618	6.83
254.835	64.17
255.051	107.18
255.268	-13.65
255.484	-17.75
255.701	-25.94
255.917	68.27
256.134	62.12
256.351	8.87
256.567	-19.8
256.784	51.88
257	27.31
257.217	58.03
257.433	113.32
257.65	51.88
257.866	17.07
258.082	-3.41
258.299	15.02
258.515	51.88
258.732	-60.76
258.948	68.27
259.165	74.41
259.381	-13.65
259.597	29.35
259.814	8.87
260.03	84.65
260.246	101.03
260.463	74.41
260.679	96.94
260.895	45.74
261.112	101.03
261.328	19.11
261.544	15.02
261.761	141.99
261.977	39.59
262.193	6.83
262.409	27.31
262.626	82.6
262.842	15.02
263.058	-17.75
263.274	45.74
263.49	25.26
263.707	62.12
263.923	23.21
264.139	-23.89
264.355	68.27
264.571	6.83
264.787	23.21
265.004	31.4
265.22	68.27
265.436	-15.7
265.652	88.75
265.868	33.45
266.084	66.22
266.3	0.68
266.516	-7.51
266.732	101.03
266.948	-23.89
267.164	68.27
267.38	53.93
267.596	-30.04
267.812	66.22
268.028	27.31
268.244	64.17
268.46	78.51
268.676	-34.13
268.892	4.78
269.108	23.21
269.324	-23.89
269.54	-5.46
269.756	84.65
269.972	55.98
270.188	43.69
270.403	-38.23
270.619	98.99
270.835	8.87
271.051	2.73
271.267	19.11
271.483	49.83
271.698	68.27
271.914	47.79
272.13	60.07
272.346	39.59
272.562	64.17
272.777	58.03
272.993	23.21
273.209	53.93
273.425	47.79
273.64	-3.41
273.856	23.21
274.072	12.97
274.287	-9.56
274.503	25.26
274.719	17.07
274.934	41.64
275.15	51.88
275.366	76.46
275.581	86.7
275.797	41.64
276.012	45.74
276.228	31.4
276.444	25.26
276.659	80.55
276.875	33.45
277.09	35.5
277.306	-32.08
277.521	47.79
277.737	55.98
277.952	31.4
278.168	68.27
278.383	64.17
278.599	23.21
278.814	45.74
279.03	107.18
279.245	10.92
279.461	19.11
279.676	-7.51
279.892	31.4
280.107	-32.08
280.322	17.07
280.538	62.12
280.753	-46.42
280.969	109.23
281.184	37.55
281.399	84.65
281.615	76.46
281.83	101.03
282.045	-1.37
282.26	31.4
282.476	55.98
282.691	19.11
282.906	27.31
283.122	-1.37
283.337	-34.13
283.552	41.64
283.767	2.73
283.983	80.55
284.198	-9.56
284.413	103.08
284.628	27.31
284.843	37.55
285.058	64.17
285.274	0.68
285.489	12.97
285.704	-9.56
285.919	41.64
286.134	-5.46
286.349	-27.99
286.564	4.78
286.779	80.55
286.995	41.64
287.21	2.73
287.425	-52.56
287.64	-40.28
287.855	21.16
288.07	66.22
288.285	37.55
288.5	-1.37
288.715	35.5
288.93	88.75
289.145	27.31
289.36	43.69
289.575	-58.71
289.79	10.92
290.004	-5.46
290.219	117.42
290.434	53.93
290.649	101.03
290.864	21.16
291.079	6.83
291.294	-21.84
291.509	109.23
291.724	10.92
291.938	0.68
292.153	45.74
292.368	62.12
292.583	6.83
292.798	58.03
293.012	53.93
293.227	51.88
293.442	66.22
293.657	109.23
293.871	62.12
294.086	90.79
294.301	170.66
294.516	-17.75
294.73	41.64
294.945	23.21
295.16	4.78
295.374	17.07
295.589	-7.51
295.804	60.07
296.018	78.51
296.233	64.17
296.447	41.64
296.662	-7.51
296.877	43.69
297.091	15.02
297.306	115.37
297.52	68.27
297.735	98.99
297.949	6.83
298.164	47.79
298.378	150.18
298.593	21.16
298.807	19.11
299.022	-15.7
299.236	103.08
299.451	27.31
299.665	25.26
299.88	58.03
300.094	35.5
300.309	105.13
300.523	49.83
300.737	-25.94
300.952	27.31
301.166	-5.46
301.381	-30.04
301.595	62.12
301.809	49.83
302.024	2.73
302.238	-21.84
302.452	66.22
302.667	43.69
302.881	92.84
303.095	6.83
303.309	12.97
303.524	47.79
303.738	72.36
303.952	25.26
304.166	60.07
304.381	47.79
304.595	101.03
304.809	55.98
305.023	-71
305.237	19.11
305.452	-21.84
305.666	80.55
305.88	19.11
306.094	2.73
306.308	92.84
306.522	-1.37
306.736	-19.8
306.95	80.55
307.164	0.68
307.379	10.92
307.593	55.98
307.807	66.22
308.021	60.07
308.235	4.78
308.449	-13.65
308.663	47.79
308.877	139.94
309.091	58.03
309.305	33.45
309.519	-23.89
309.733	6.83
309.947	12.97
310.161	101.03
310.374	76.46
310.588	70.31
310.802	27.31
311.016	88.75
311.23	35.5
311.444	2.73
311.658	66.22
311.872	72.36
312.085	68.27
312.299	70.31
312.513	39.59
312.727	23.21
312.941	-9.56
313.154	53.93
313.368	-11.61
313.582	15.02
313.796	68.27
314.009	60.07
314.223	72.36
314.437	41.64
314.651	2.73
314.864	12.97
315.078	80.55
315.292	17.07
315.505	27.31
315.719	96.94
315.933	19.11
316.146	2.73
316.36	6.83
316.573	41.64
316.787	35.5
317.001	-7.51
317.214	-13.65
317.428	82.6
317.641	10.92
317.855	72.36
318.068	82.6
318.282	66.22
318.495	113.32
318.709	25.26
318.922	27.31
319.136	19.11
319.349	64.17
319.563	90.79
319.776	17.07
319.99	39.59
320.203	58.03
320.417	12.97
320.63	31.4
320.843	129.7
321.057	70.31
321.27	33.45
321.483	64.17
321.697	72.36
321.91	84.65
322.124	60.07
322.337	49.83
322.55	86.7
322.763	133.8
322.977	27.31
323.19	76.46
323.403	82.6
323.617	58.03
323.83	23.21
324.043	41.64
324.256	158.38
324.469	43.69
324.683	60.07
324.896	-5.46
325.109	19.11
325.322	-66.9
325.535	21.16
325.748	43.69
325.962	-19.8
326.175	47.79
326.388	139.94
326.601	10.92
326.814	17.07
327.027	82.6
327.24	92.84
327.453	-13.65
327.666	2.73
327.879	45.74
328.092	64.17
328.305	64.17
328.518	-15.7
328.731	62.12
328.944	68.27
329.157	2.73
329.37	41.64
329.583	96.94
329.796	27.31
330.009	68.27
330.222	68.27
330.435	109.23
330.648	64.17
330.861	19.11
331.073	113.32
331.286	66.22
331.499	84.65
331.712	8.87
331.925	31.4
332.138	31.4
332.35	129.7
332.563	47.79
332.776	62.12
332.989	55.98
333.202	53.93
333.414	66.22
333.627	64.17
333.84	41.64
334.053	115.37
334.265	68.27
334.478	-48.47
334.691	51.88
334.903	49.83
335.116	17.07
335.329	60.07
335.541	64.17
335.754	76.46
335.966	21.16
336.179	64.17
336.392	0.68
336.604	70.31
336.817	31.4
337.029	49.83
337.242	2.73
337.454	53.93
337.667	29.35
337.88	84.65
338.092	41.64
338.305	58.03
338.517	66.22
338.729	137.9
338.942	131.75
339.154	19.11
339.367	31.4
339.579	72.36
339.792	-21.84
340.004	80.55
340.217	17.07
340.429	25.26
340.641	10.92
340.854	41.64
341.066	33.45
341.278	84.65
341.491	23.21
341.703	62.12
341.915	6.83
342.128	133.8
342.34	84.65
342.552	129.7
342.764	92.84
342.977	107.18
343.189	49.83
343.401	45.74
343.613	10.92
343.826	37.55
344.038	76.46
344.25	10.92
344.462	-7.51
344.674	4.78
344.886	53.93
345.099	90.79
345.311	19.11
345.523	-21.84
345.735	64.17
345.947	35.5
346.159	80.55
346.371	0.68
346.583	4.78
346.795	178.86
347.007	8.87
347.219	68.27
347.431	133.8
347.643	105.13
347.855	23.21
348.067	15.02
348.279	-36.18
348.491	15.02
348.703	74.41
348.915	33.45
349.127	-64.85
349.339	92.84
349.551	41.64
349.763	29.35
349.975	12.97
350.187	58.03
350.399	29.35
350.61	115.37
350.822	74.41
351.034	113.32
351.246	-7.51
351.458	35.5
351.669	96.94
351.881	66.22
352.093	60.07
352.305	127.66
352.517	55.98
352.728	170.66
352.94	76.46
353.152	105.13
353.363	17.07
353.575	17.07
353.787	33.45
353.999	43.69
354.21	101.03
354.422	41.64
354.633	29.35
354.845	37.55
355.057	49.83
355.268	10.92
355.48	111.27
355.692	-15.7
355.903	27.31
356.115	103.08
356.326	25.26
356.538	90.79
356.749	58.03
356.961	66.22
357.172	-17.75
357.384	15.02
357.595	82.6
357.807	86.7
358.018	64.17
358.23	39.59
358.441	58.03
358.653	84.65
358.864	-3.41
359.075	109.23
359.287	133.8
359.498	88.75
359.709	105.13
359.921	33.45
360.132	105.13
360.344	0.68
360.555	23.21
360.766	-15.7
360.977	29.35
361.189	88.75
361.4	19.11
361.611	27.31
361.823	92.84
362.034	10.92
362.245	33.45
362.456	21.16
362.667	10.92
362.879	64.17
363.09	47.79
363.301	41.64
363.512	74.41
363.723	19.11
363.935	51.88
364.146	107.18
364.357	2.73
364.568	74.41
364.779	43.69
364.99	105.13
365.201	19.11
365.412	111.27
365.623	66.22
365.834	123.56
366.045	101.03
366.256	88.75
366.467	43.69
366.678	68.27
366.889	66.22
367.1	12.97
367.311	64.17
367.522	15.02
367.733	55.98
367.944	47.79
368.155	58.03
368.366	2.73
368.577	68.27
368.788	96.94
368.999	-1.37
369.209	74.41
369.42	117.42
369.631	76.46
369.842	92.84
370.053	2.73
370.264	84.65
370.474	27.31
370.685	121.51
370.896	35.5
371.107	96.94
371.317	72.36
371.528	111.27
371.739	127.66
371.95	101.03
372.16	76.46
372.371	62.12
372.582	84.65
372.792	84.65
373.003	94.89
373.214	15.02
373.424	125.61
373.635	10.92
373.846	51.88
374.056	-7.51
374.267	58.03
374.477	96.94
374.688	49.83
374.898	51.88
375.109	64.17
375.319	49.83
375.53	88.75
375.74	41.64
375.951	31.4
376.161	109.23
376.372	80.55
376.582	19.11
376.793	58.03
377.003	41.64
377.214	129.7
377.424	101.03
377.635	74.41
377.845	33.45
378.055	105.13
378.266	49.83
378.476	121.51
378.686	60.07
378.897	125.61
379.107	82.6
379.317	111.27
379.528	8.87
379.738	109.23
379.948	51.88
380.158	90.79
380.369	35.5
380.579	86.7
380.789	-11.61
380.999	10.92
381.21	53.93
381.42	174.76
381.63	41.64
381.84	70.31
382.05	103.08
382.261	72.36
382.471	58.03
382.681	37.55
382.891	115.37
383.101	55.98
383.311	80.55
383.521	17.07
383.731	53.93
383.941	115.37
384.151	78.51
384.361	74.41
384.571	90.79
384.781	66.22
384.991	139.94
385.201	92.84
385.411	35.5
385.621	154.28
385.831	60.07
386.041	80.55
386.251	70.31
386.461	68.27
386.671	15.02
386.881	64.17
387.091	17.07
387.301	144.04
387.511	10.92
387.72	121.51
387.93	123.56
388.14	35.5
388.35	113.32
388.56	76.46
388.769	103.08
388.979	129.7
389.189	103.08
389.399	146.09
389.609	21.16
389.818	84.65
390.028	-13.65
390.238	141.99
390.447	35.5
390.657	125.61
390.867	55.98
391.076	135.85
391.286	43.69
391.496	23.21
391.705	141.99
391.915	109.23
392.125	88.75
392.334	133.8
392.544	72.36
392.753	158.38
392.963	82.6
393.172	107.18
393.382	68.27
393.591	158.38
393.801	51.88
394.01	96.94
394.22	101.03
394.429	70.31
394.639	92.84
394.848	135.85
395.058	191.14
395.267	113.32
395.477	129.7
395.686	162.47
395.895	166.57
396.105	70.31
396.314	78.51
396.524	144.04
396.733	47.79
396.942	164.52
397.152	129.7
397.361	135.85
397.57	156.33
397.78	199.34
397.989	90.79
398.198	166.57
398.407	170.66
398.617	156.33
398.826	182.95
399.035	144.04
399.244	213.67
399.453	141.99
399.663	174.76
399.872	205.48
400.081	113.32
400.29	121.51
400.499	215.72
400.708	146.09
400.917	187.05
401.127	187.05
401.336	154.28
401.545	199.34
401.754	144.04
401.963	209.58
402.172	158.38
402.381	203.43
402.59	115.37
402.799	146.09
403.008	225.96
403.217	187.05
403.426	148.14
403.635	273.06
403.844	277.16
404.053	197.29
404.262	141.99
404.471	203.43
404.68	248.49
404.888	213.67
405.097	215.72
405.306	176.81
405.515	158.38
405.724	258.73
405.933	252.58
406.142	244.39
406.35	238.25
406.559	293.54
406.768	189.1
406.977	354.98
407.185	228.01
407.394	289.45
407.603	301.73
407.812	297.64
408.02	326.31
408.229	330.41
408.438	305.83
408.646	326.31
408.855	305.83
409.064	414.37
409.272	350.89
409.481	420.52
409.69	400.04
409.898	465.57
410.107	434.85
410.315	459.43
410.524	420.52
410.733	449.19
410.941	535.2
411.15	549.54
411.358	494.24
411.567	666.27
411.775	656.03
411.984	543.39
412.192	676.51
412.401	672.42
412.609	676.51
412.818	746.14
413.026	746.14
413.234	756.38
413.443	760.48
413.651	645.79
413.86	815.77
414.068	879.26
414.276	922.27
414.485	1022.62
414.693	961.18
414.901	1012.38
415.11	1039
415.318	1002.14
415.526	1051.29
415.734	1165.98
415.943	1229.46
416.151	1192.6
416.359	1233.56
416.567	1206.94
416.776	1374.87
416.984	1438.36
417.192	1530.52
417.4	1551
417.608	1399.45
417.817	1577.62
418.025	1651.35
418.233	1821.33
418.441	1653.39
418.649	1913.49
418.857	2073.23
419.065	1911.44
419.273	1985.16
419.481	1927.82
419.689	2030.22
419.897	2169.48
420.105	2280.07
420.313	2343.56
420.521	2458.25
420.729	2386.57
420.937	2534.02
421.145	2669.19
421.353	2697.86
421.561	2767.49
421.769	2929.28
421.977	3070.59
422.185	3089.02
422.393	3224.19
422.601	3435.13
422.809	3426.93
423.017	3283.58
423.224	3689.07
423.432	3799.66
423.64	3885.68
423.848	4141.68
424.056	3926.64
424.263	4260.46
424.471	4137.58
424.679	4407.91
424.887	4657.76
425.094	4850.27
425.302	4768.35
425.51	5016.16
425.718	5177.95
425.925	5143.13
426.133	5325.4
426.341	5677.65
426.548	5886.54
426.756	5896.78
426.964	6021.71
427.171	6371.91
427.379	6408.78
427.586	6492.74
427.794	6586.95
428.001	7019.07
428.209	7406.14
428.417	7256.64
428.624	7615.03
428.832	7875.12
429.039	7729.72
429.247	7782.96
429.454	8534.57
429.662	9044.51
429.869	8213.04
430.076	8997.41
430.284	8866.34
430.491	9085.47
430.699	9624.09
430.906	9740.82
431.114	9789.97
431.321	10134.03
431.528	10248.72
431.736	10949.12
431.943	11678.2
432.15	11225.6
432.358	11217.41
432.565	11911.67
432.772	11901.43
432.979	12456.43
433.187	12587.5
433.394	13017.57
433.601	13697.5
433.808	13699.55
434.016	13859.29
434.223	13982.17
434.43	15040.97
434.637	14694.86
434.844	15641.02
435.052	15886.78
435.259	15868.34
435.466	16048.57
435.673	15786.43
435.88	17056.17
436.087	17613.21
436.294	17549.73
436.501	17293.73
436.708	17775
436.915	18145.69
437.122	19317.12
437.329	18923.91
437.537	19581.31
437.743	20144.5
437.95	19923.32
438.157	21164.39
438.364	21752.16
438.571	21733.73
438.778	21641.57
438.985	23408.97
439.192	22454.61
439.399	23413.06
439.606	23118.15
439.813	24265.02
440.02	25522.47
440.227	25295.14
440.433	24858.93
440.64	25545
440.847	25657.64
441.054	26153.24
441.261	28010.75
441.467	27758.85
441.674	28027.13
441.881	29255.92
442.088	28893.43
442.294	28639.48
442.501	29573.35
442.708	30222.56
442.914	31412.43
443.121	32467.13
443.328	31647.94
443.534	33999.01
443.741	32891.06
443.948	32428.22
444.154	34619.55
444.361	34451.61
444.568	34537.63
444.774	34719.9
444.981	35278.99
445.187	36266.11
445.394	37644.4
445.6	37185.65
445.807	40730.69
446.013	38647.9
446.22	39729.23
446.426	41418.8
446.633	41513.01
446.839	42709.02
447.046	41437.23
447.252	43653.14
447.459	43534.35
447.665	43200.54
447.871	44845.05
448.078	46673.89
448.284	44609.54
448.491	45492.21
448.697	47415.26
448.903	48283.59
449.11	48150.48
449.316	47552.47
449.522	48582.6
449.728	50091.95
449.935	49997.74
450.141	49881.01
450.347	50741.16
450.553	49080.25
450.76	49737.65
450.966	51449.75
451.172	50892.71
451.378	51799.96
451.584	51259.29
451.791	52113.3
451.997	51842.96
452.203	52604.81
452.409	52653.96
452.615	52543.37
452.821	50835.36
453.027	49938.35
453.233	52959.11
453.44	50198.44
453.646	50890.66
453.852	51027.87
454.058	51605.4
454.264	50253.74
454.47	51476.38
454.676	49985.46
454.882	51632.02
455.088	47208.41
455.294	47783.89
455.5	48074.7
455.705	49264.57
455.911	46858.21
456.117	46084.08
456.323	45529.08
456.529	42831.9
456.735	44906.49
456.941	43882.51
457.147	43122.71
457.352	41564.21
457.558	41416.75
457.764	41156.66
457.97	40538.18
458.176	39600.21
458.381	39809.1
458.587	37687.4
458.793	37871.72
458.999	36001.93
459.204	38402.14
459.41	37517.42
459.616	35020.95
459.821	34721.94
460.027	34666.65
460.233	33996.96
460.438	32133.31
460.644	32770.23
460.85	31008.98
461.055	31006.93
461.261	30750.93
461.466	28619
461.672	27697.41
461.878	29708.52
462.083	27687.17
462.289	27347.21
462.494	26927.38
462.7	25856.29
462.905	25147.69
463.111	25848.1
463.316	26169.63
463.522	25559.33
463.727	25657.64
463.932	25405.74
464.138	25149.74
464.343	25231.66
464.549	24437.05
464.754	25471.27
464.959	25420.07
465.165	25090.35
465.37	24121.66
465.575	23523.65
465.781	24205.63
465.986	24486.2
466.191	23552.32
466.397	22929.74
466.602	22010.2
466.807	22929.74
