Data from USB4F104151__85__10-24-18-041.txt Node

Date: Wed Mar 12 10:24:18 EDT 2025
User: louis
Spectrometer: USB4F10415
Trigger mode: 4
Integration Time (sec): 3.000000E-2
Scans to average: 1
Electric dark correction enabled: true
Nonlinearity correction enabled: false
Boxcar width: 0
XAxis mode: Wavelengths
Number of Pixels in Spectrum: 3648
>>>>>Begin Spectral Data<<<<<
178.204	-80.89
178.424	-80.89
178.644	-80.89
178.864	-136.19
179.084	-99.33
179.304	-17.41
179.524	-33.79
179.744	-21.5
179.964	9.22
180.184	-15.36
180.404	-39.94
180.624	58.37
180.844	-9.22
181.064	-7.17
181.283	50.18
181.503	-48.13
181.723	74.75
181.943	29.7
182.163	56.32
182.383	-56.32
182.602	23.55
182.822	-23.55
183.042	89.09
183.262	9.22
183.482	11.26
183.701	66.56
183.921	44.03
184.141	17.41
184.361	78.85
184.58	31.74
184.8	54.27
185.02	13.31
185.239	84.99
185.459	44.03
185.679	66.56
185.898	1.02
186.118	17.41
186.338	-23.55
186.557	-7.17
186.777	9.22
186.997	44.03
187.216	1.02
187.436	-17.41
187.655	33.79
187.875	68.61
188.095	33.79
188.314	130.05
188.534	105.47
188.753	54.27
188.973	31.74
189.192	93.18
189.412	5.12
189.631	-9.22
189.851	50.18
190.07	1.02
190.29	-25.6
190.509	-7.17
190.729	27.65
190.948	70.65
191.168	119.81
191.387	23.55
191.607	5.12
191.826	31.74
192.045	13.31
192.265	19.46
192.484	76.8
192.704	54.27
192.923	3.07
193.142	41.98
193.362	95.23
193.581	58.37
193.8	11.26
194.02	84.99
194.239	46.08
194.458	33.79
194.678	-23.55
194.897	11.26
195.116	39.94
195.335	7.17
195.555	152.57
195.774	56.32
195.993	99.33
196.212	101.37
196.432	21.5
196.651	56.32
196.87	17.41
197.089	91.13
197.308	9.22
197.528	82.94
197.747	-21.5
197.966	80.89
198.185	72.7
198.404	54.27
198.623	95.23
198.842	37.89
199.062	70.65
199.281	46.08
199.5	-11.26
199.719	107.52
199.938	60.42
200.157	56.32
200.376	64.51
200.595	89.09
200.814	119.81
201.033	-29.7
201.252	66.56
201.471	74.75
201.69	87.04
201.909	7.17
202.128	50.18
202.347	9.22
202.566	52.22
202.785	-7.17
203.004	13.31
203.223	113.66
203.442	56.32
203.661	-46.08
203.879	54.27
204.098	35.84
204.317	23.55
204.536	93.18
204.755	-21.5
204.974	70.65
205.193	27.65
205.411	111.61
205.63	68.61
205.849	50.18
206.068	39.94
206.287	70.65
206.505	29.7
206.724	-23.55
206.943	9.22
207.162	66.56
207.381	39.94
207.599	84.99
207.818	84.99
208.037	60.42
208.255	56.32
208.474	87.04
208.693	66.56
208.911	1.02
209.13	21.5
209.349	11.26
209.567	58.37
209.786	74.75
210.005	25.6
210.223	91.13
210.442	58.37
210.661	78.85
210.879	52.22
211.098	91.13
211.316	7.17
211.535	95.23
211.753	72.7
211.972	97.28
212.191	-39.94
212.409	13.31
212.628	50.18
212.846	25.6
213.065	23.55
213.283	97.28
213.502	25.6
213.72	9.22
213.938	7.17
214.157	91.13
214.375	54.27
214.594	-27.65
214.812	11.26
215.031	74.75
215.249	74.75
215.467	33.79
215.686	33.79
215.904	62.46
216.122	-17.41
216.341	115.71
216.559	-33.79
216.778	148.48
216.996	74.75
217.214	27.65
217.432	-1.02
217.651	17.41
217.869	78.85
218.087	9.22
218.306	-21.5
218.524	15.36
218.742	74.75
218.96	66.56
219.179	-1.02
219.397	39.94
219.615	52.22
219.833	66.56
220.051	17.41
220.27	82.94
220.488	74.75
220.706	29.7
220.924	-56.32
221.142	80.89
221.36	66.56
221.578	41.98
221.796	105.47
222.015	82.94
222.233	31.74
222.451	93.18
222.669	-9.22
222.887	50.18
223.105	25.6
223.323	19.46
223.541	9.22
223.759	78.85
223.977	-3.07
224.195	31.74
224.413	39.94
224.631	54.27
224.849	146.43
225.067	56.32
225.285	52.22
225.503	33.79
225.721	-15.36
225.939	-5.12
226.157	78.85
226.375	99.33
226.592	39.94
226.81	-44.03
227.028	13.31
227.246	48.13
227.464	17.41
227.682	15.36
227.9	74.75
228.117	113.66
228.335	-19.46
228.553	3.07
228.771	103.42
228.989	74.75
229.206	15.36
229.424	9.22
229.642	-62.46
229.86	74.75
230.077	21.5
230.295	-5.12
230.513	66.56
230.731	39.94
230.948	41.98
231.166	52.22
231.384	62.46
231.601	27.65
231.819	125.95
232.037	5.12
232.254	25.6
232.472	17.41
232.689	50.18
232.907	56.32
233.125	95.23
233.342	-54.27
233.56	9.22
233.777	84.99
233.995	52.22
234.213	105.47
234.43	17.41
234.648	82.94
234.865	64.51
235.083	13.31
235.3	19.46
235.518	25.6
235.735	41.98
235.953	128
236.17	54.27
236.388	99.33
236.605	48.13
236.822	103.42
237.04	48.13
237.257	39.94
237.475	44.03
237.692	29.7
237.909	66.56
238.127	-3.07
238.344	80.89
238.562	70.65
238.779	-1.02
238.996	50.18
239.214	37.89
239.431	1.02
239.648	-17.41
239.865	111.61
240.083	91.13
240.3	64.51
240.517	-35.84
240.735	5.12
240.952	33.79
241.169	84.99
241.386	80.89
241.603	27.65
241.821	31.74
242.038	-29.7
242.255	107.52
242.472	50.18
242.689	41.98
242.907	66.56
243.124	-15.36
243.341	44.03
243.558	-17.41
243.775	113.66
243.992	56.32
244.209	44.03
244.426	107.52
244.643	3.07
244.86	7.17
245.078	44.03
245.295	11.26
245.512	44.03
245.729	-3.07
245.946	117.76
246.163	7.17
246.38	-19.46
246.597	72.7
246.814	70.65
247.031	70.65
247.248	91.13
247.464	-62.46
247.681	25.6
247.898	-3.07
248.115	54.27
248.332	13.31
248.549	82.94
248.766	97.28
248.983	66.56
249.2	66.56
249.417	58.37
249.633	58.37
249.85	58.37
250.067	46.08
250.284	44.03
250.501	17.41
250.717	52.22
250.934	3.07
251.151	13.31
251.368	80.89
251.585	15.36
251.801	27.65
252.018	50.18
252.235	25.6
252.451	25.6
252.668	15.36
252.885	97.28
253.102	78.85
253.318	48.13
253.535	-5.12
253.752	56.32
253.968	58.37
254.185	7.17
254.401	15.36
254.618	11.26
254.835	1.02
255.051	115.71
255.268	74.75
255.484	103.42
255.701	44.03
255.917	82.94
256.134	-5.12
256.351	44.03
256.567	31.74
256.784	56.32
257	41.98
257.217	123.9
257.433	93.18
257.65	17.41
257.866	78.85
258.082	17.41
258.299	48.13
258.515	89.09
258.732	-9.22
258.948	64.51
259.165	5.12
259.381	25.6
259.597	87.04
259.814	66.56
260.03	48.13
260.246	37.89
260.463	52.22
260.679	121.85
260.895	9.22
261.112	140.29
261.328	15.36
261.544	35.84
261.761	105.47
261.977	-29.7
262.193	21.5
262.409	99.33
262.626	5.12
262.842	74.75
263.058	70.65
263.274	119.81
263.49	97.28
263.707	48.13
263.923	46.08
264.139	66.56
264.355	66.56
264.571	74.75
264.787	41.98
265.004	68.61
265.22	9.22
265.436	52.22
265.652	-29.7
265.868	39.94
266.084	-1.02
266.3	80.89
266.516	56.32
266.732	54.27
266.948	19.46
267.164	25.6
267.38	39.94
267.596	101.37
267.812	72.7
268.028	117.76
268.244	60.42
268.46	23.55
268.676	9.22
268.892	103.42
269.108	9.22
269.324	9.22
269.54	-7.17
269.756	91.13
269.972	48.13
270.188	7.17
270.403	68.61
270.619	13.31
270.835	70.65
271.051	25.6
271.267	-1.02
271.483	23.55
271.698	74.75
271.914	50.18
272.13	33.79
272.346	82.94
272.562	62.46
272.777	111.61
272.993	66.56
273.209	113.66
273.425	115.71
273.64	44.03
273.856	97.28
274.072	87.04
274.287	7.17
274.503	33.79
274.719	31.74
274.934	109.57
275.15	-1.02
275.366	107.52
275.581	15.36
275.797	70.65
276.012	58.37
276.228	37.89
276.444	99.33
276.659	72.7
276.875	-11.26
277.09	39.94
277.306	89.09
277.521	31.74
277.737	89.09
277.952	31.74
278.168	82.94
278.383	-17.41
278.599	11.26
278.814	56.32
279.03	15.36
279.245	99.33
279.461	15.36
279.676	58.37
279.892	70.65
280.107	-52.22
280.322	21.5
280.538	11.26
280.753	-23.55
280.969	13.31
281.184	56.32
281.399	103.42
281.615	50.18
281.83	62.46
282.045	-39.94
282.26	33.79
282.476	84.99
282.691	3.07
282.906	99.33
283.122	25.6
283.337	-7.17
283.552	56.32
283.767	-3.07
283.983	80.89
284.198	66.56
284.413	62.46
284.628	9.22
284.843	76.8
285.058	97.28
285.274	87.04
285.489	48.13
285.704	76.8
285.919	25.6
286.134	70.65
286.349	46.08
286.564	80.89
286.779	144.38
286.995	76.8
287.21	-9.22
287.425	-1.02
287.64	15.36
287.855	105.47
288.07	13.31
288.285	15.36
288.5	70.65
288.715	15.36
288.93	48.13
289.145	-11.26
289.36	66.56
289.575	29.7
289.79	91.13
290.004	52.22
290.219	89.09
290.434	74.75
290.649	17.41
290.864	17.41
291.079	1.02
291.294	117.76
291.509	39.94
291.724	11.26
291.938	21.5
292.153	37.89
292.368	66.56
292.583	41.98
292.798	132.09
293.012	25.6
293.227	39.94
293.442	21.5
293.657	68.61
293.871	50.18
294.086	35.84
294.301	91.13
294.516	76.8
294.73	39.94
294.945	41.98
295.16	95.23
295.374	25.6
295.589	68.61
295.804	74.75
296.018	-3.07
296.233	46.08
296.447	17.41
296.662	1.02
296.877	27.65
297.091	48.13
297.306	11.26
297.52	13.31
297.735	72.7
297.949	-1.02
298.164	136.19
298.378	54.27
298.593	-1.02
298.807	-5.12
299.022	56.32
299.236	13.31
299.451	-13.31
299.665	37.89
299.88	13.31
300.094	-9.22
300.309	33.79
300.523	132.09
300.737	23.55
300.952	101.37
301.166	23.55
301.381	41.98
301.595	58.37
301.809	33.79
302.024	95.23
302.238	44.03
302.452	66.56
302.667	35.84
302.881	93.18
303.095	87.04
303.309	21.5
303.524	46.08
303.738	78.85
303.952	-66.56
304.166	1.02
304.381	15.36
304.595	80.89
304.809	35.84
305.023	123.9
305.237	25.6
305.452	62.46
305.666	9.22
305.88	84.99
306.094	33.79
306.308	41.98
306.522	113.66
306.736	70.65
306.95	56.32
307.164	64.51
307.379	58.37
307.593	46.08
307.807	80.89
308.021	58.37
308.235	91.13
308.449	-41.98
308.663	78.85
308.877	66.56
309.091	84.99
309.305	56.32
309.519	19.46
309.733	48.13
309.947	37.89
310.161	19.46
310.374	25.6
310.588	21.5
310.802	44.03
311.016	66.56
311.23	89.09
311.444	9.22
311.658	52.22
311.872	56.32
312.085	31.74
312.299	109.57
312.513	54.27
312.727	21.5
312.941	29.7
313.154	27.65
313.368	-21.5
313.582	56.32
313.796	68.61
314.009	52.22
314.223	70.65
314.437	44.03
314.651	60.42
314.864	9.22
315.078	21.5
315.292	1.02
315.505	48.13
315.719	15.36
315.933	41.98
316.146	99.33
316.36	-31.74
316.573	74.75
316.787	37.89
317.001	95.23
317.214	13.31
317.428	70.65
317.641	-9.22
317.855	87.04
318.068	29.7
318.282	60.42
318.495	66.56
318.709	76.8
318.922	134.14
319.136	76.8
319.349	58.37
319.563	-23.55
319.776	-9.22
319.99	-11.26
320.203	140.29
320.417	82.94
320.63	76.8
320.843	97.28
321.057	87.04
321.27	31.74
321.483	111.61
321.697	74.75
321.91	91.13
322.124	23.55
322.337	107.52
322.55	56.32
322.763	-27.65
322.977	29.7
323.19	27.65
323.403	41.98
323.617	74.75
323.83	80.89
324.043	-15.36
324.256	-9.22
324.469	-35.84
324.683	91.13
324.896	74.75
325.109	-25.6
325.322	-7.17
325.535	29.7
325.748	91.13
325.962	41.98
326.175	60.42
326.388	89.09
326.601	-1.02
326.814	-1.02
327.027	54.27
327.24	58.37
327.453	33.79
327.666	17.41
327.879	62.46
328.092	80.89
328.305	99.33
328.518	17.41
328.731	84.99
328.944	35.84
329.157	91.13
329.37	72.7
329.583	41.98
329.796	119.81
330.009	23.55
330.222	121.85
330.435	148.48
330.648	130.05
330.861	80.89
331.073	95.23
331.286	7.17
331.499	84.99
331.712	33.79
331.925	99.33
332.138	41.98
332.35	82.94
332.563	19.46
332.776	37.89
332.989	113.66
333.202	13.31
333.414	-7.17
333.627	89.09
333.84	7.17
334.053	44.03
334.265	-1.02
334.478	66.56
334.691	54.27
334.903	56.32
335.116	17.41
335.329	-27.65
335.541	29.7
335.754	89.09
335.966	82.94
336.179	76.8
336.392	-1.02
336.604	46.08
336.817	66.56
337.029	70.65
337.242	60.42
337.454	62.46
337.667	17.41
337.88	107.52
338.092	41.98
338.305	80.89
338.517	33.79
338.729	33.79
338.942	-15.36
339.154	152.57
339.367	-5.12
339.579	103.42
339.792	9.22
340.004	33.79
340.217	44.03
340.429	115.71
340.641	105.47
340.854	82.94
341.066	3.07
341.278	97.28
341.491	132.09
341.703	105.47
341.915	33.79
342.128	50.18
342.34	78.85
342.552	7.17
342.764	33.79
342.977	121.85
343.189	113.66
343.401	48.13
343.613	50.18
343.826	33.79
344.038	-1.02
344.25	82.94
344.462	78.85
344.674	17.41
344.886	66.56
345.099	41.98
345.311	35.84
345.523	50.18
345.735	31.74
345.947	60.42
346.159	17.41
346.371	52.22
346.583	78.85
346.795	87.04
347.007	64.51
347.219	70.65
347.431	62.46
347.643	80.89
347.855	39.94
348.067	128
348.279	-33.79
348.491	74.75
348.703	52.22
348.915	-3.07
349.127	82.94
349.339	41.98
349.551	31.74
349.763	76.8
349.975	9.22
350.187	99.33
350.399	50.18
350.61	44.03
350.822	19.46
351.034	9.22
351.246	97.28
351.458	66.56
351.669	99.33
351.881	99.33
352.093	-7.17
352.305	72.7
352.517	17.41
352.728	89.09
352.94	128
353.152	70.65
353.363	-19.46
353.575	23.55
353.787	66.56
353.999	111.61
354.21	58.37
354.422	11.26
354.633	66.56
354.845	-52.22
355.057	78.85
355.268	27.65
355.48	56.32
355.692	54.27
355.903	-15.36
356.115	-13.31
356.326	87.04
356.538	29.7
356.749	25.6
356.961	72.7
357.172	103.42
357.384	-7.17
357.595	105.47
357.807	107.52
358.018	15.36
358.23	37.89
358.441	220.16
358.653	107.52
358.864	66.56
359.075	89.09
359.287	44.03
359.498	11.26
359.709	52.22
359.921	44.03
360.132	105.47
360.344	72.7
360.555	74.75
360.766	50.18
360.977	70.65
361.189	54.27
361.4	80.89
361.611	99.33
361.823	37.89
362.034	29.7
362.245	68.61
362.456	56.32
362.667	82.94
362.879	44.03
363.09	74.75
363.301	44.03
363.512	41.98
363.723	5.12
363.935	62.46
364.146	121.85
364.357	130.05
364.568	37.89
364.779	3.07
364.99	87.04
365.201	74.75
365.412	82.94
365.623	46.08
365.834	58.37
366.045	54.27
366.256	74.75
366.467	74.75
366.678	37.89
366.889	87.04
367.1	-1.02
367.311	66.56
367.522	107.52
367.733	15.36
367.944	91.13
368.155	29.7
368.366	99.33
368.577	19.46
368.788	64.51
368.999	111.61
369.209	64.51
369.42	132.09
369.631	115.71
369.842	113.66
370.053	84.99
370.264	103.42
370.474	33.79
370.685	134.14
370.896	31.74
371.107	95.23
371.317	62.46
371.528	29.7
371.739	89.09
371.95	134.14
372.16	99.33
372.371	7.17
372.582	58.37
372.792	117.76
373.003	-13.31
373.214	9.22
373.424	93.18
373.635	52.22
373.846	181.25
374.056	99.33
374.267	-7.17
374.477	41.98
374.688	74.75
374.898	91.13
375.109	19.46
375.319	99.33
375.53	123.9
375.74	78.85
375.951	33.79
376.161	113.66
376.372	121.85
376.582	23.55
376.793	11.26
377.003	21.5
377.214	46.08
377.424	19.46
377.635	60.42
377.845	1.02
378.055	105.47
378.266	50.18
378.476	70.65
378.686	76.8
378.897	111.61
379.107	87.04
379.317	44.03
379.528	29.7
379.738	60.42
379.948	48.13
380.158	68.61
380.369	50.18
380.579	48.13
380.789	168.96
380.999	132.09
381.21	66.56
381.42	95.23
381.63	58.37
381.84	66.56
382.05	66.56
382.261	33.79
382.471	103.42
382.681	148.48
382.891	80.89
383.101	99.33
383.311	46.08
383.521	48.13
383.731	54.27
383.941	78.85
384.151	84.99
384.361	64.51
384.571	60.42
384.781	111.61
384.991	115.71
385.201	140.29
385.411	46.08
385.621	64.51
385.831	31.74
386.041	82.94
386.251	46.08
386.461	93.18
386.671	48.13
386.881	115.71
387.091	123.9
387.301	84.99
387.511	56.32
387.72	25.6
387.93	87.04
388.14	17.41
388.35	70.65
388.56	123.9
388.769	140.29
388.979	39.94
389.189	29.7
389.399	50.18
389.609	82.94
389.818	121.85
390.028	115.71
390.238	76.8
390.447	29.7
390.657	-7.17
390.867	29.7
391.076	21.5
391.286	156.67
391.496	97.28
391.705	52.22
391.915	74.75
392.125	158.72
392.334	37.89
392.544	107.52
392.753	70.65
392.963	76.8
393.172	68.61
393.382	95.23
393.591	140.29
393.801	48.13
394.01	160.77
394.22	80.89
394.429	130.05
394.639	136.19
394.848	101.37
395.058	46.08
395.267	56.32
395.477	97.28
395.686	146.43
395.895	160.77
396.105	187.39
396.314	115.71
396.524	101.37
396.733	154.62
396.942	152.57
397.152	97.28
397.361	193.53
397.57	168.96
397.78	64.51
397.989	185.34
398.198	138.24
398.407	211.96
398.617	95.23
398.826	113.66
399.035	160.77
399.244	166.91
399.453	95.23
399.663	72.7
399.872	152.57
400.081	101.37
400.29	144.38
400.499	132.09
400.708	211.96
400.917	82.94
401.127	189.44
401.336	148.48
401.545	175.1
401.754	168.96
401.963	175.1
402.172	115.71
402.381	109.57
402.59	136.19
402.799	99.33
403.008	181.25
403.217	156.67
403.426	132.09
403.635	117.76
403.844	123.9
404.053	121.85
404.262	177.15
404.471	244.73
404.68	189.44
404.888	246.78
405.097	125.95
405.306	185.34
405.515	197.63
405.724	201.72
405.933	248.83
406.142	168.96
406.35	220.16
406.559	287.74
406.768	189.44
406.977	277.5
407.185	263.16
407.394	230.4
407.603	238.59
407.812	285.69
408.02	275.45
408.229	189.44
408.438	250.88
408.646	275.45
408.855	252.92
409.064	232.44
409.272	254.97
409.481	281.6
409.69	304.12
409.898	277.5
410.107	377.85
410.315	400.38
410.524	328.7
410.733	472.06
410.941	433.15
411.15	435.19
411.358	400.38
411.567	502.78
411.775	472.06
411.984	463.86
412.192	513.02
412.401	521.21
412.609	574.46
412.818	523.26
413.026	596.98
413.234	529.4
413.443	619.51
413.651	570.36
413.86	650.23
414.068	713.72
414.276	680.95
414.485	736.24
414.693	785.4
414.901	719.86
415.11	801.78
415.318	771.06
415.526	787.44
415.734	771.06
415.943	879.6
416.151	936.95
416.359	836.6
416.567	994.29
416.776	926.71
416.984	1104.88
417.192	1086.45
417.4	1084.4
417.608	1137.65
417.817	1156.08
418.025	1180.65
418.233	1256.43
418.441	1233.9
418.649	1315.82
418.857	1469.42
419.065	1491.95
419.273	1455.08
419.481	1537
419.689	1676.26
419.897	1633.26
420.105	1735.65
420.313	1776.61
420.521	1762.28
420.729	1807.33
420.937	1860.58
421.145	1944.55
421.353	2008.03
421.561	2077.66
421.769	2208.73
421.977	2202.59
422.185	2296.8
422.393	2360.28
422.601	2505.69
422.809	2534.36
423.017	2577.37
423.224	2579.42
423.432	2890.71
423.64	2757.59
423.848	2868.18
424.056	2905.04
424.263	3177.42
424.471	3183.57
424.679	3146.7
424.887	3511.24
425.094	3417.04
425.302	3668.94
425.51	3580.87
425.718	3816.39
425.925	3679.18
426.133	3896.26
426.341	4277.18
426.548	4250.56
426.756	4283.33
426.964	4340.67
427.171	4666.3
427.379	4748.22
427.586	4756.41
427.794	4846.52
428.001	5110.71
428.209	5442.48
428.417	5254.06
428.624	5819.3
428.832	5649.32
429.039	5696.43
429.247	5561.26
429.454	6267.81
429.662	6439.84
429.869	6077.35
430.076	6712.22
430.284	6431.65
430.491	6591.39
430.699	7160.72
430.906	7146.39
431.114	7326.61
431.321	7574.41
431.528	7631.76
431.736	8076.16
431.943	8330.11
432.15	8106.88
432.358	8270.72
432.565	8772.47
432.772	8565.63
432.979	9245.55
433.187	9364.34
433.394	9280.37
433.601	10093.41
433.808	10048.36
434.016	9972.58
434.223	10494.82
434.43	11111.25
434.637	10746.72
434.844	11447.12
435.052	11533.14
435.259	11531.09
435.466	11682.64
435.673	11715.41
435.88	12157.77
436.087	12948.28
436.294	12755.77
436.501	12495.68
436.708	12751.68
436.915	13382.45
437.122	14097.19
437.329	13757.23
437.537	14383.91
437.743	14531.36
437.95	14639.9
438.157	15045.4
438.364	15598.35
438.571	15885.07
438.778	15973.13
438.985	17531.64
439.192	16507.65
439.399	16960.25
439.606	16612.1
439.813	17593.08
440.02	18688.74
440.227	18416.36
440.433	18103.02
440.64	18985.69
440.847	18807.52
441.054	19239.64
441.261	20374.22
441.467	20118.22
441.674	20853.44
441.881	21160.64
442.088	21238.46
442.294	20714.18
442.501	21543.61
442.708	21945.01
442.914	22874.79
443.121	23704.21
443.328	23362.2
443.534	24900.23
443.741	24175.25
443.948	23784.09
444.154	25684.6
444.361	25168.51
444.568	25635.45
444.774	25707.13
444.981	25807.48
445.187	26606.19
445.394	27535.96
445.6	26960.48
445.807	29868.6
446.013	28686.92
446.22	28881.48
446.426	29895.22
446.633	30517.81
446.839	31447.58
447.046	29919.8
447.252	31402.53
447.459	31873.56
447.665	31877.66
447.871	33335.81
448.078	34384.37
448.284	32264.72
448.491	33227.27
448.697	34945.51
448.903	35568.1
449.11	35633.63
449.316	35047.91
449.522	35635.68
449.728	36780.49
449.935	36852.17
450.141	36743.63
450.347	37599.68
450.553	36055.51
450.76	36821.45
450.966	37724.61
451.172	37341.64
451.378	38259.13
451.584	37310.92
451.791	38369.72
451.997	38470.07
452.203	38646.19
452.409	38623.67
452.615	38705.59
452.821	37095.88
453.027	36760.02
453.233	38595
453.44	36997.58
453.646	37632.45
453.852	37790.14
454.058	38343.09
454.264	36960.72
454.47	37915.07
454.676	36780.49
454.882	37851.58
455.088	34710
455.294	35293.67
455.5	35564
455.705	36452.82
455.911	34580.98
456.117	33942.01
456.323	33440.26
456.529	31353.38
456.735	32975.37
456.941	32236.05
457.147	31879.71
457.352	30886.44
457.558	30519.85
457.764	30616.11
457.97	29760.06
458.176	29329.98
458.381	29106.76
458.587	27660.89
458.793	27701.85
458.999	26315.37
459.204	28480.08
459.41	27380.32
459.616	25404.03
459.821	25641.59
460.027	25514.62
460.233	24842.88
460.438	23689.88
460.644	23962.26
460.85	22989.47
461.055	22510.25
461.261	22698.66
461.466	21048
461.672	20380.36
461.878	21631.67
462.083	20325.07
462.289	19978.96
462.494	19600.08
462.7	18879.2
462.905	18285.29
463.111	19016.41
463.316	19016.41
463.522	18711.27
463.727	18707.17
463.932	18561.76
464.138	18592.48
464.343	18119.4
464.549	18033.39
464.754	18488.04
464.959	18768.61
465.165	18295.53
465.37	17488.63
465.575	17109.75
465.781	17992.43
465.986	17918.7
466.191	17134.33
466.397	16737.02
466.602	16042.76
466.807	16790.27
467.012	16550.66
467.218	16827.14
467.423	16534.28
467.628	16466.69
