Data from USB4F104151__190__10-28-46-061.txt Node

Date: Wed Mar 12 10:28:46 EDT 2025
User: louis
Spectrometer: USB4F10415
Trigger mode: 4
Integration Time (sec): 3.000000E-2
Scans to average: 1
Electric dark correction enabled: true
Nonlinearity correction enabled: false
Boxcar width: 0
XAxis mode: Wavelengths
Number of Pixels in Spectrum: 3648
>>>>>Begin Spectral Data<<<<<
178.204	-27.99
178.424	-27.99
178.644	-27.99
178.864	-101.72
179.084	-87.38
179.304	45.74
179.524	-40.28
179.744	-42.32
179.964	53.93
180.184	-36.18
180.404	2.73
180.624	2.73
180.844	-13.65
181.064	2.73
181.283	17.07
181.503	-11.61
181.723	19.11
181.943	-42.32
182.163	51.88
182.383	-23.89
182.602	47.79
182.822	103.08
183.042	72.36
183.262	-1.37
183.482	-19.8
183.701	53.93
183.921	70.31
184.141	35.5
184.361	35.5
184.58	76.46
184.8	23.21
185.02	-44.37
185.239	86.7
185.459	4.78
185.679	115.37
185.898	12.97
186.118	92.84
186.338	8.87
186.557	8.87
186.777	8.87
186.997	-7.51
187.216	10.92
187.436	84.65
187.655	103.08
187.875	58.03
188.095	-5.46
188.314	4.78
188.534	10.92
188.753	-11.61
188.973	0.68
189.192	51.88
189.412	2.73
189.631	29.35
189.851	66.22
190.07	45.74
190.29	12.97
190.509	84.65
190.729	64.17
190.948	-7.51
191.168	115.37
191.387	35.5
191.607	35.5
191.826	41.64
192.045	10.92
192.265	23.21
192.484	125.61
192.704	0.68
192.923	31.4
193.142	55.98
193.362	-21.84
193.581	96.94
193.8	82.6
194.02	121.51
194.239	-3.41
194.458	60.07
194.678	-40.28
194.897	90.79
195.116	27.31
195.335	10.92
195.555	37.55
195.774	68.27
195.993	-23.89
196.212	-11.61
196.432	0.68
196.651	0.68
196.87	47.79
197.089	58.03
197.308	27.31
197.528	78.51
197.747	35.5
197.966	37.55
198.185	12.97
198.404	-15.7
198.623	35.5
198.842	80.55
199.062	86.7
199.281	17.07
199.5	-9.56
199.719	12.97
199.938	21.16
200.157	12.97
200.376	12.97
200.595	27.31
200.814	4.78
201.033	-27.99
201.252	-21.84
201.471	45.74
201.69	41.64
201.909	-15.7
202.128	58.03
202.347	49.83
202.566	-15.7
202.785	58.03
203.004	-19.8
203.223	86.7
203.442	25.26
203.661	-5.46
203.879	17.07
204.098	80.55
204.317	0.68
204.536	60.07
204.755	-5.46
204.974	0.68
205.193	23.21
205.411	90.79
205.63	-3.41
205.849	37.55
206.068	-83.28
206.287	-30.04
206.505	33.45
206.724	41.64
206.943	60.07
207.162	-23.89
207.381	25.26
207.599	51.88
207.818	43.69
208.037	37.55
208.255	19.11
208.474	45.74
208.693	82.6
208.911	-3.41
209.13	31.4
209.349	72.36
209.567	27.31
209.786	45.74
210.005	31.4
210.223	0.68
210.442	-15.7
210.661	27.31
210.879	21.16
211.098	51.88
211.316	31.4
211.535	45.74
211.753	19.11
211.972	49.83
212.191	-30.04
212.409	17.07
212.628	-5.46
212.846	-36.18
213.065	45.74
213.283	86.7
213.502	4.78
213.72	-46.42
213.938	62.12
214.157	-71
214.375	23.21
214.594	33.45
214.812	19.11
215.031	68.27
215.249	-15.7
215.467	-38.23
215.686	-11.61
215.904	58.03
216.122	86.7
216.341	49.83
216.559	51.88
216.778	27.31
216.996	70.31
217.214	84.65
217.432	2.73
217.651	4.78
217.869	29.35
218.087	33.45
218.306	10.92
218.524	70.31
218.742	43.69
218.96	49.83
219.179	0.68
219.397	37.55
219.615	92.84
219.833	17.07
220.051	-5.46
220.27	53.93
220.488	76.46
220.706	19.11
220.924	25.26
221.142	23.21
221.36	-23.89
221.578	45.74
221.796	39.59
222.015	17.07
222.233	78.51
222.451	45.74
222.669	-3.41
222.887	66.22
223.105	33.45
223.323	8.87
223.541	-5.46
223.759	17.07
223.977	6.83
224.195	-1.37
224.413	107.18
224.631	12.97
224.849	88.75
225.067	129.7
225.285	84.65
225.503	66.22
225.721	-32.08
225.939	12.97
226.157	8.87
226.375	117.42
226.592	-46.42
226.81	27.31
227.028	27.31
227.246	39.59
227.464	21.16
227.682	47.79
227.9	45.74
228.117	101.03
228.335	-68.95
228.553	45.74
228.771	25.26
228.989	90.79
229.206	62.12
229.424	68.27
229.642	8.87
229.86	-11.61
230.077	-11.61
230.295	55.98
230.513	-19.8
230.731	41.64
230.948	64.17
231.166	37.55
231.384	51.88
231.601	47.79
231.819	33.45
232.037	35.5
232.254	-30.04
232.472	74.41
232.689	-50.52
232.907	39.59
233.125	4.78
233.342	-19.8
233.56	12.97
233.777	19.11
233.995	21.16
234.213	113.32
234.43	-3.41
234.648	27.31
234.865	21.16
235.083	45.74
235.3	-23.89
235.518	29.35
235.735	76.46
235.953	29.35
236.17	43.69
236.388	12.97
236.605	19.11
236.822	68.27
237.04	29.35
237.257	60.07
237.475	-52.56
237.692	-73.04
237.909	29.35
238.127	53.93
238.344	90.79
238.562	4.78
238.779	-52.56
238.996	66.22
239.214	-1.37
239.431	43.69
239.648	-23.89
239.865	33.45
240.083	10.92
240.3	103.08
240.517	84.65
240.735	60.07
240.952	129.7
241.169	70.31
241.386	37.55
241.603	-15.7
241.821	12.97
242.038	39.59
242.255	70.31
242.472	60.07
242.689	27.31
242.907	31.4
243.124	15.02
243.341	0.68
243.558	-38.23
243.775	19.11
243.992	-17.75
244.209	127.66
244.426	82.6
244.643	58.03
244.86	6.83
245.078	84.65
245.295	37.55
245.512	35.5
245.729	-34.13
245.946	74.41
246.163	-15.7
246.38	8.87
246.597	-11.61
246.814	-40.28
247.031	-38.23
247.248	76.46
247.464	35.5
247.681	70.31
247.898	82.6
248.115	41.64
248.332	-25.94
248.549	21.16
248.766	29.35
248.983	23.21
249.2	107.18
249.417	-19.8
249.633	47.79
249.85	33.45
250.067	-1.37
250.284	19.11
250.501	31.4
250.717	115.37
250.934	-52.56
251.151	19.11
251.368	19.11
251.585	33.45
251.801	-3.41
252.018	-32.08
252.235	23.21
252.451	29.35
252.668	-1.37
252.885	86.7
253.102	-7.51
253.318	47.79
253.535	-9.56
253.752	-21.84
253.968	4.78
254.185	-23.89
254.401	15.02
254.618	47.79
254.835	35.5
255.051	66.22
255.268	33.45
255.484	17.07
255.701	27.31
255.917	41.64
256.134	2.73
256.351	82.6
256.567	8.87
256.784	58.03
257	-23.89
257.217	21.16
257.433	-7.51
257.65	-25.94
257.866	51.88
258.082	6.83
258.299	4.78
258.515	68.27
258.732	29.35
258.948	119.46
259.165	6.83
259.381	12.97
259.597	41.64
259.814	-11.61
260.03	19.11
260.246	35.5
260.463	76.46
260.679	53.93
260.895	23.21
261.112	51.88
261.328	10.92
261.544	-23.89
261.761	29.35
261.977	-23.89
262.193	37.55
262.409	23.21
262.626	4.78
262.842	12.97
263.058	-5.46
263.274	8.87
263.49	4.78
263.707	31.4
263.923	78.51
264.139	-15.7
264.355	45.74
264.571	33.45
264.787	47.79
265.004	39.59
265.22	-30.04
265.436	-3.41
265.652	70.31
265.868	29.35
266.084	25.26
266.3	45.74
266.516	62.12
266.732	86.7
266.948	-3.41
267.164	80.55
267.38	45.74
267.596	53.93
267.812	94.89
268.028	23.21
268.244	37.55
268.46	-1.37
268.676	15.02
268.892	6.83
269.108	21.16
269.324	47.79
269.54	33.45
269.756	49.83
269.972	6.83
270.188	15.02
270.403	-7.51
270.619	45.74
270.835	8.87
271.051	6.83
271.267	92.84
271.483	19.11
271.698	-36.18
271.914	39.59
272.13	47.79
272.346	45.74
272.562	33.45
272.777	27.31
272.993	66.22
273.209	17.07
273.425	109.23
273.64	-21.84
273.856	88.75
274.072	-1.37
274.287	12.97
274.503	53.93
274.719	10.92
274.934	-15.7
275.15	-27.99
275.366	76.46
275.581	-5.46
275.797	0.68
276.012	4.78
276.228	68.27
276.444	6.83
276.659	29.35
276.875	6.83
277.09	121.51
277.306	-5.46
277.521	92.84
277.737	39.59
277.952	45.74
278.168	49.83
278.383	41.64
278.599	84.65
278.814	64.17
279.03	49.83
279.245	88.75
279.461	131.75
279.676	82.6
279.892	4.78
280.107	53.93
280.322	49.83
280.538	64.17
280.753	88.75
280.969	70.31
281.184	15.02
281.399	33.45
281.615	70.31
281.83	8.87
282.045	27.31
282.26	27.31
282.476	45.74
282.691	90.79
282.906	43.69
283.122	37.55
283.337	-44.37
283.552	0.68
283.767	70.31
283.983	90.79
284.198	37.55
284.413	6.83
284.628	21.16
284.843	58.03
285.058	53.93
285.274	68.27
285.489	-9.56
285.704	90.79
285.919	33.45
286.134	-19.8
286.349	62.12
286.564	37.55
286.779	84.65
286.995	35.5
287.21	29.35
287.425	-5.46
287.64	88.75
287.855	-19.8
288.07	-21.84
288.285	27.31
288.5	101.03
288.715	109.23
288.93	-3.41
289.145	58.03
289.36	31.4
289.575	-19.8
289.79	76.46
290.004	4.78
290.219	133.8
290.434	86.7
290.649	70.31
290.864	41.64
291.079	35.5
291.294	53.93
291.509	84.65
291.724	37.55
291.938	-19.8
292.153	86.7
292.368	4.78
292.583	76.46
292.798	68.27
293.012	92.84
293.227	0.68
293.442	27.31
293.657	21.16
293.871	119.46
294.086	105.13
294.301	70.31
294.516	62.12
294.73	2.73
294.945	-13.65
295.16	35.5
295.374	41.64
295.589	98.99
295.804	-54.61
296.018	-66.9
296.233	141.99
296.447	37.55
296.662	21.16
296.877	55.98
297.091	-27.99
297.306	23.21
297.52	45.74
297.735	92.84
297.949	49.83
298.164	76.46
298.378	27.31
298.593	-19.8
298.807	19.11
299.022	68.27
299.236	84.65
299.451	-1.37
299.665	6.83
299.88	19.11
300.094	60.07
300.309	43.69
300.523	-19.8
300.737	86.7
300.952	88.75
301.166	51.88
301.381	-17.75
301.595	21.16
301.809	111.27
302.024	49.83
302.238	37.55
302.452	33.45
302.667	33.45
302.881	70.31
303.095	17.07
303.309	37.55
303.524	-44.37
303.738	49.83
303.952	17.07
304.166	2.73
304.381	2.73
304.595	109.23
304.809	60.07
305.023	74.41
305.237	8.87
305.452	-13.65
305.666	53.93
305.88	8.87
306.094	29.35
306.308	27.31
306.522	94.89
306.736	45.74
306.95	21.16
307.164	90.79
307.379	60.07
307.593	84.65
307.807	58.03
308.021	55.98
308.235	-15.7
308.449	-9.56
308.663	58.03
308.877	47.79
309.091	35.5
309.305	58.03
309.519	25.26
309.733	107.18
309.947	27.31
310.161	70.31
310.374	15.02
310.588	76.46
310.802	45.74
311.016	121.51
311.23	39.59
311.444	90.79
311.658	41.64
311.872	121.51
312.085	55.98
312.299	74.41
312.513	47.79
312.727	51.88
312.941	27.31
313.154	2.73
313.368	72.36
313.582	53.93
313.796	21.16
314.009	35.5
314.223	27.31
314.437	31.4
314.651	98.99
314.864	-1.37
315.078	12.97
315.292	21.16
315.505	12.97
315.719	107.18
315.933	53.93
316.146	86.7
316.36	-44.37
316.573	10.92
316.787	4.78
317.001	17.07
317.214	51.88
317.428	-13.65
317.641	103.08
317.855	49.83
318.068	39.59
318.282	90.79
318.495	60.07
318.709	84.65
318.922	51.88
319.136	37.55
319.349	37.55
319.563	55.98
319.776	49.83
319.99	25.26
320.203	62.12
320.417	-3.41
320.63	64.17
320.843	111.27
321.057	62.12
321.27	27.31
321.483	62.12
321.697	94.89
321.91	25.26
322.124	66.22
322.337	58.03
322.55	55.98
322.763	25.26
322.977	62.12
323.19	101.03
323.403	53.93
323.617	51.88
323.83	68.27
324.043	4.78
324.256	-58.71
324.469	60.07
324.683	17.07
324.896	62.12
325.109	-3.41
325.322	35.5
325.535	53.93
325.748	43.69
325.962	82.6
326.175	90.79
326.388	25.26
326.601	123.56
326.814	23.21
327.027	103.08
327.24	72.36
327.453	33.45
327.666	29.35
327.879	86.7
328.092	-5.46
328.305	129.7
328.518	43.69
328.731	-7.51
328.944	49.83
329.157	8.87
329.37	76.46
329.583	133.8
329.796	60.07
330.009	12.97
330.222	23.21
330.435	88.75
330.648	12.97
330.861	64.17
331.073	119.46
331.286	101.03
331.499	35.5
331.712	19.11
331.925	64.17
332.138	64.17
332.35	78.51
332.563	-3.41
332.776	53.93
332.989	92.84
333.202	45.74
333.414	-15.7
333.627	19.11
333.84	58.03
334.053	33.45
334.265	37.55
334.478	2.73
334.691	-34.13
334.903	43.69
335.116	35.5
335.329	43.69
335.541	39.59
335.754	92.84
335.966	-3.41
336.179	43.69
336.392	68.27
336.604	21.16
336.817	29.35
337.029	10.92
337.242	51.88
337.454	76.46
337.667	133.8
337.88	60.07
338.092	23.21
338.305	72.36
338.517	39.59
338.729	103.08
338.942	66.22
339.154	62.12
339.367	-7.51
339.579	-30.04
339.792	21.16
340.004	4.78
340.217	29.35
340.429	51.88
340.641	-50.52
340.854	49.83
341.066	12.97
341.278	90.79
341.491	121.51
341.703	-32.08
341.915	-7.51
342.128	35.5
342.34	86.7
342.552	45.74
342.764	70.31
342.977	17.07
343.189	103.08
343.401	70.31
343.613	-32.08
343.826	-5.46
344.038	4.78
344.25	39.59
344.462	47.79
344.674	51.88
344.886	43.69
345.099	60.07
345.311	25.26
345.523	45.74
345.735	105.13
345.947	152.23
346.159	4.78
346.371	74.41
346.583	-13.65
346.795	64.17
347.007	-56.66
347.219	43.69
347.431	-34.13
347.643	45.74
347.855	2.73
348.067	90.79
348.279	39.59
348.491	29.35
348.703	84.65
348.915	35.5
349.127	58.03
349.339	133.8
349.551	8.87
349.763	62.12
349.975	78.51
350.187	0.68
350.399	115.37
350.61	21.16
350.822	84.65
351.034	27.31
351.246	72.36
351.458	68.27
351.669	41.64
351.881	47.79
352.093	0.68
352.305	17.07
352.517	25.26
352.728	55.98
352.94	0.68
353.152	86.7
353.363	92.84
353.575	37.55
353.787	84.65
353.999	62.12
354.21	109.23
354.422	-11.61
354.633	41.64
354.845	82.6
355.057	86.7
355.268	80.55
355.48	133.8
355.692	10.92
355.903	60.07
356.115	74.41
356.326	62.12
356.538	64.17
356.749	51.88
356.961	144.04
357.172	103.08
357.384	2.73
357.595	105.13
357.807	76.46
358.018	82.6
358.23	51.88
358.441	66.22
358.653	72.36
358.864	86.7
359.075	-9.56
359.287	90.79
359.498	58.03
359.709	60.07
359.921	-3.41
360.132	12.97
360.344	33.45
360.555	-3.41
360.766	15.02
360.977	17.07
361.189	-7.51
361.4	37.55
361.611	58.03
361.823	62.12
362.034	35.5
362.245	45.74
362.456	-56.66
362.667	17.07
362.879	55.98
363.09	29.35
363.301	84.65
363.512	55.98
363.723	92.84
363.935	-3.41
364.146	58.03
364.357	76.46
364.568	111.27
364.779	86.7
364.99	133.8
365.201	-27.99
365.412	125.61
365.623	64.17
365.834	76.46
366.045	53.93
366.256	96.94
366.467	49.83
366.678	76.46
366.889	111.27
367.1	43.69
367.311	49.83
367.522	12.97
367.733	-36.18
367.944	31.4
368.155	49.83
368.366	45.74
368.577	60.07
368.788	105.13
368.999	15.02
369.209	29.35
369.42	141.99
369.631	154.28
369.842	107.18
370.053	111.27
370.264	78.51
370.474	49.83
370.685	76.46
370.896	66.22
371.107	131.75
371.317	-7.51
371.528	125.61
371.739	78.51
371.95	105.13
372.16	90.79
372.371	96.94
372.582	53.93
372.792	127.66
373.003	68.27
373.214	29.35
373.424	21.16
373.635	12.97
373.846	123.56
374.056	37.55
374.267	78.51
374.477	60.07
374.688	37.55
374.898	64.17
375.109	62.12
375.319	66.22
375.53	96.94
375.74	25.26
375.951	86.7
376.161	-34.13
376.372	111.27
376.582	35.5
376.793	31.4
377.003	43.69
377.214	64.17
377.424	37.55
377.635	148.14
377.845	-38.23
378.055	137.9
378.266	68.27
378.476	37.55
378.686	68.27
378.897	84.65
379.107	51.88
379.317	72.36
379.528	-7.51
379.738	94.89
379.948	74.41
380.158	64.17
380.369	96.94
380.579	96.94
380.789	58.03
380.999	55.98
381.21	47.79
381.42	185
381.63	53.93
381.84	133.8
382.05	113.32
382.261	156.33
382.471	119.46
382.681	27.31
382.891	135.85
383.101	53.93
383.311	25.26
383.521	154.28
383.731	62.12
383.941	80.55
384.151	92.84
384.361	70.31
384.571	164.52
384.781	98.99
384.991	133.8
385.201	146.09
385.411	96.94
385.621	43.69
385.831	103.08
386.041	58.03
386.251	98.99
386.461	21.16
386.671	70.31
386.881	109.23
387.091	70.31
387.301	113.32
387.511	115.37
387.72	92.84
387.93	86.7
388.14	47.79
388.35	39.59
388.56	45.74
388.769	72.36
388.979	15.02
389.189	12.97
389.399	60.07
389.609	113.32
389.818	107.18
390.028	25.26
390.238	72.36
390.447	43.69
390.657	72.36
390.867	53.93
391.076	111.27
391.286	43.69
391.496	35.5
391.705	62.12
391.915	72.36
392.125	98.99
392.334	72.36
392.544	94.89
392.753	68.27
392.963	109.23
393.172	60.07
393.382	88.75
393.591	172.71
393.801	70.31
394.01	150.18
394.22	94.89
394.429	144.04
394.639	78.51
394.848	119.46
395.058	105.13
395.267	158.38
395.477	109.23
395.686	96.94
395.895	125.61
396.105	234.15
396.314	109.23
396.524	78.51
396.733	107.18
396.942	82.6
397.152	125.61
397.361	199.34
397.57	119.46
397.78	109.23
397.989	176.81
398.198	199.34
398.407	86.7
398.617	164.52
398.826	131.75
399.035	84.65
399.244	123.56
399.453	144.04
399.663	115.37
399.872	225.96
400.081	58.03
400.29	193.19
400.499	131.75
400.708	135.85
400.917	82.6
401.127	152.23
401.336	119.46
401.545	193.19
401.754	197.29
401.963	191.14
402.172	98.99
402.381	182.95
402.59	156.33
402.799	154.28
403.008	221.86
403.217	195.24
403.426	168.62
403.635	164.52
403.844	172.71
404.053	234.15
404.262	215.72
404.471	217.77
404.68	164.52
404.888	180.9
405.097	225.96
405.306	144.04
405.515	217.77
405.724	273.06
405.933	266.92
406.142	256.68
406.35	291.49
406.559	234.15
406.768	236.2
406.977	271.01
407.185	217.77
407.394	314.02
407.603	271.01
407.812	395.94
408.02	328.36
408.229	299.69
408.438	291.49
408.646	256.68
408.855	307.88
409.064	299.69
409.272	275.11
409.481	363.17
409.69	377.51
409.898	348.84
410.107	420.52
410.315	553.63
410.524	414.37
410.733	492.2
410.941	463.52
411.15	522.91
411.358	557.73
411.567	545.44
411.775	619.17
411.984	594.59
412.192	563.87
412.401	633.51
412.609	678.56
412.818	711.33
413.026	627.36
413.234	715.42
413.443	725.66
413.651	721.57
413.86	725.66
414.068	852.64
414.276	938.65
414.485	879.26
414.693	850.59
414.901	975.52
415.11	922.27
415.318	952.99
415.526	905.88
415.734	1065.63
415.943	1159.83
416.151	1206.94
416.359	1151.64
416.567	1202.84
416.776	1342.1
416.984	1329.81
417.192	1354.39
417.4	1307.29
417.608	1370.77
417.817	1458.84
418.025	1540.76
418.233	1632.91
418.441	1487.51
418.649	1596.05
418.857	1751.7
419.065	1815.18
419.273	1747.6
419.481	1856.14
419.689	2007.69
419.897	1999.5
420.105	2044.56
420.313	2173.58
420.521	2212.49
420.729	2298.5
420.937	2226.82
421.145	2351.75
421.353	2484.87
421.561	2491.01
421.769	2759.3
421.977	2943.61
422.185	2853.5
422.393	3058.3
422.601	3062.4
422.809	3211.9
423.017	3105.4
423.224	3244.67
423.432	3465.85
423.64	3447.41
423.848	3748.47
424.056	3658.35
424.263	3906.16
424.471	3934.83
424.679	4039.28
424.887	4176.49
425.094	4231.79
425.302	4321.9
425.51	4393.58
425.718	4608.61
425.925	4631.14
426.133	4989.53
426.341	5114.46
426.548	5392.98
426.756	5433.94
426.964	5517.91
427.171	5730.9
427.379	5974.61
427.586	5997.14
427.794	6115.92
428.001	6435.4
428.209	6787.65
428.417	6558.28
428.624	7270.97
428.832	7115.33
429.039	7103.04
429.247	7313.98
429.454	7883.31
429.662	8395.31
429.869	7819.83
430.076	8245.8
430.284	8086.06
430.491	8512.04
430.699	8999.46
430.906	8935.97
431.114	9087.52
431.321	9345.56
431.528	9533.98
431.736	10048.02
431.943	10584.59
432.15	10265.1
432.358	10605.06
432.565	11098.63
432.772	11072
432.979	11432.44
433.187	11801.08
433.394	11764.22
433.601	12607.98
433.808	12714.47
434.016	12689.9
434.223	13134.31
434.43	13808.09
434.637	13715.93
434.844	14541.26
435.052	14766.54
435.259	14657.99
435.466	14682.57
435.673	14406.09
435.88	15593.92
436.087	16388.53
436.294	16452.02
436.501	15929.78
436.708	16574.89
436.915	17107.37
437.122	17609.12
437.329	17404.32
437.537	18200.98
437.743	18395.54
437.95	18137.49
438.157	19380.61
438.364	19990.91
438.571	20029.82
438.778	20056.44
438.985	21803.36
439.192	21129.58
439.399	21666.14
439.606	21295.46
439.813	22661.46
440.02	24037.69
440.227	23251.27
440.433	23073.1
440.64	23861.57
440.847	23771.46
441.054	24373.56
441.261	26263.83
441.467	25545
441.674	26061.08
441.881	26859.79
442.088	27306.25
442.294	26673.43
442.501	27306.25
442.708	28094.72
442.914	28944.62
443.121	30212.32
443.328	29200.62
443.534	31428.81
443.741	30316.76
443.948	30136.54
444.154	32454.84
444.361	32155.84
444.568	32405.69
444.774	32563.39
444.981	32655.54
445.187	33734.82
445.394	35049.62
445.6	34738.33
445.807	37785.71
446.013	36159.62
446.22	37001.33
446.426	38367.33
446.633	38711.39
446.839	40017.99
447.046	38258.79
447.252	40656.96
447.459	40056.9
447.665	40243.27
447.871	42178.6
448.078	43536.4
448.284	41977.9
448.491	42702.88
448.697	44425.22
448.903	44943.36
449.11	45156.35
449.316	44161.03
449.522	44853.25
449.728	45971.44
449.935	46438.37
450.141	46929.89
450.347	47513.56
450.553	46325.74
450.76	46600.16
450.966	47859.66
451.172	47624.15
451.378	48797.63
451.584	47925.2
451.791	48297.93
451.997	48773.06
452.203	49436.6
452.409	49457.08
452.615	48797.63
452.821	47552.47
453.027	46786.53
453.233	48979.9
453.44	47077.34
453.646	47830.99
453.852	47818.7
454.058	48480.2
454.264	46811.1
454.47	47820.75
454.676	46737.38
454.882	48209.87
455.088	44146.7
455.294	44810.24
455.5	45508.6
455.705	45699.06
455.911	44023.82
456.117	43462.68
456.323	42844.19
456.529	40663.1
456.735	41963.56
456.941	41220.15
457.147	40675.39
457.352	39327.83
457.558	38959.19
457.764	39168.08
457.97	37992.55
458.176	37286
458.381	37376.11
458.587	35590.28
458.793	35338.38
458.999	33681.58
459.204	35897.48
459.41	34904.21
459.616	32850.1
459.821	32563.39
460.027	32878.77
460.233	32245.95
460.438	30875.86
460.644	30818.52
460.85	29288.68
461.055	29126.89
461.261	28844.27
461.466	26999.05
461.672	26106.14
461.878	27793.67
462.083	25979.17
462.289	25717.03
462.494	25688.35
462.7	24193.34
462.905	23501.12
463.111	24385.85
463.316	24523.06
463.522	24410.42
463.727	24224.06
463.932	24172.86
464.138	23624
464.343	23748.93
464.549	23368.01
464.754	23912.77
464.959	23877.95
465.165	23384.39
465.37	22602.07
465.575	22061.4
465.781	22663.5
465.986	23077.19
466.191	22231.38
466.397	21838.17
466.602	20699.5
466.807	21653.86
467.012	21340.52
467.218	21416.29
467.423	21176.68
