Data from USB4F104151__155__10-27-01-042.txt Node

Date: Wed Mar 12 10:27:01 EDT 2025
User: louis
Spectrometer: USB4F10415
Trigger mode: 4
Integration Time (sec): 3.000000E-2
Scans to average: 1
Electric dark correction enabled: true
Nonlinearity correction enabled: false
Boxcar width: 0
XAxis mode: Wavelengths
Number of Pixels in Spectrum: 3648
>>>>>Begin Spectral Data<<<<<
178.204	-96.94
178.424	-96.94
178.644	-96.94
178.864	-121.51
179.084	-70.31
179.304	-23.21
179.524	-2.73
179.744	-29.35
179.964	1.37
180.184	-10.92
180.404	58.71
180.624	91.48
180.844	1.37
181.064	-96.94
181.283	36.18
181.503	-35.5
181.723	9.56
181.943	-29.35
182.163	-31.4
182.383	30.04
182.602	48.47
182.822	34.13
183.042	81.24
183.262	-43.69
183.482	83.28
183.701	-6.83
183.921	15.7
184.141	-2.73
184.361	-0.68
184.58	58.71
184.8	34.13
185.02	32.08
185.239	27.99
185.459	81.24
185.679	-33.45
185.898	32.08
186.118	75.09
186.338	25.94
186.557	54.61
186.777	-62.12
186.997	1.37
187.216	7.51
187.436	66.9
187.655	60.76
187.875	56.66
188.095	52.56
188.314	79.19
188.534	42.32
188.753	7.51
188.973	-4.78
189.192	48.47
189.412	25.94
189.631	17.75
189.851	-17.07
190.07	99.67
190.29	-6.83
190.509	50.52
190.729	81.24
190.948	60.76
191.168	91.48
191.387	120.15
191.607	-6.83
191.826	79.19
192.045	62.8
192.265	27.99
192.484	17.75
192.704	54.61
192.923	-70.31
193.142	122.2
193.362	34.13
193.581	62.8
193.8	36.18
194.02	25.94
194.239	-2.73
194.458	34.13
194.678	23.89
194.897	34.13
195.116	-21.16
195.335	-6.83
195.555	13.65
195.774	-6.83
195.993	5.46
196.212	71
196.432	44.37
196.651	21.85
196.87	17.75
197.089	132.44
197.308	46.42
197.528	17.75
197.747	42.32
197.966	101.72
198.185	-33.45
198.404	21.85
198.623	21.85
198.842	64.85
199.062	71
199.281	48.47
199.5	7.51
199.719	62.8
199.938	46.42
200.157	17.75
200.376	3.41
200.595	79.19
200.814	85.33
201.033	21.85
201.252	54.61
201.471	34.13
201.69	62.8
201.909	56.66
202.128	21.85
202.347	66.9
202.566	-0.68
202.785	-27.31
203.004	1.37
203.223	64.85
203.442	56.66
203.661	-33.45
203.879	-45.74
204.098	5.46
204.317	-37.55
204.536	81.24
204.755	-23.21
204.974	-23.21
205.193	19.8
205.411	126.29
205.63	34.13
205.849	87.38
206.068	105.81
206.287	-19.11
206.505	62.8
206.724	46.42
206.943	40.28
207.162	23.89
207.381	50.52
207.599	11.61
207.818	46.42
208.037	60.76
208.255	25.94
208.474	85.33
208.693	15.7
208.911	-8.87
209.13	15.7
209.349	19.8
209.567	46.42
209.786	101.72
210.005	17.75
210.223	17.75
210.442	19.8
210.661	62.8
210.879	-10.92
211.098	13.65
211.316	46.42
211.535	42.32
211.753	-0.68
211.972	-10.92
212.191	46.42
212.409	19.8
212.628	60.76
212.846	32.08
213.065	64.85
213.283	58.71
213.502	62.8
213.72	99.67
213.938	9.56
214.157	122.2
214.375	25.94
214.594	-33.45
214.812	46.42
215.031	128.34
215.249	-17.07
215.467	40.28
215.686	-25.26
215.904	97.62
216.122	48.47
216.341	95.57
216.559	-0.68
216.778	87.38
216.996	71
217.214	-19.11
217.432	-0.68
217.651	-25.26
217.869	44.37
218.087	-6.83
218.306	9.56
218.524	58.71
218.742	-15.02
218.96	62.8
219.179	36.18
219.397	3.41
219.615	146.77
219.833	79.19
220.051	-15.02
220.27	103.76
220.488	30.04
220.706	50.52
220.924	56.66
221.142	87.38
221.36	62.8
221.578	19.8
221.796	7.51
222.015	27.99
222.233	-0.68
222.451	38.23
222.669	30.04
222.887	71
223.105	85.33
223.323	46.42
223.541	32.08
223.759	17.75
223.977	-12.97
224.195	32.08
224.413	75.09
224.631	36.18
224.849	27.99
225.067	99.67
225.285	71
225.503	77.14
225.721	30.04
225.939	93.52
226.157	50.52
226.375	56.66
226.592	-39.59
226.81	56.66
227.028	89.43
227.246	109.91
227.464	48.47
227.682	40.28
227.9	36.18
228.117	73.04
228.335	58.71
228.553	44.37
228.771	48.47
228.989	38.23
229.206	89.43
229.424	81.24
229.642	64.85
229.86	34.13
230.077	50.52
230.295	50.52
230.513	116.05
230.731	-8.87
230.948	64.85
231.166	71
231.384	1.37
231.601	-2.73
231.819	34.13
232.037	23.89
232.254	-21.16
232.472	111.96
232.689	-35.5
232.907	17.75
233.125	40.28
233.342	38.23
233.56	68.95
233.777	71
233.995	1.37
234.213	48.47
234.43	107.86
234.648	42.32
234.865	-4.78
235.083	17.75
235.3	38.23
235.518	13.65
235.735	111.96
235.953	11.61
236.17	46.42
236.388	5.46
236.605	13.65
236.822	132.44
237.04	-15.02
237.257	38.23
237.475	-43.69
237.692	25.94
237.909	7.51
238.127	36.18
238.344	64.85
238.562	64.85
238.779	38.23
238.996	7.51
239.214	32.08
239.431	44.37
239.648	95.57
239.865	36.18
240.083	73.04
240.3	-0.68
240.517	66.9
240.735	-45.74
240.952	64.85
241.169	13.65
241.386	-39.59
241.603	25.94
241.821	23.89
242.038	64.85
242.255	34.13
242.472	101.72
242.689	40.28
242.907	99.67
243.124	85.33
243.341	-12.97
243.558	52.56
243.775	1.37
243.992	-10.92
244.209	42.32
244.426	91.48
244.643	34.13
244.86	99.67
245.078	75.09
245.295	25.94
245.512	13.65
245.729	30.04
245.946	54.61
246.163	50.52
246.38	36.18
246.597	25.94
246.814	44.37
247.031	101.72
247.248	54.61
247.464	1.37
247.681	44.37
247.898	54.61
248.115	116.05
248.332	-58.03
248.549	83.28
248.766	62.8
248.983	27.99
249.2	58.71
249.417	107.86
249.633	-6.83
249.85	-10.92
250.067	11.61
250.284	32.08
250.501	3.41
250.717	58.71
250.934	32.08
251.151	34.13
251.368	-8.87
251.585	66.9
251.801	17.75
252.018	50.52
252.235	1.37
252.451	-19.11
252.668	17.75
252.885	99.67
253.102	83.28
253.318	58.71
253.535	-10.92
253.752	25.94
253.968	68.95
254.185	38.23
254.401	21.85
254.618	-17.07
254.835	66.9
255.051	30.04
255.268	13.65
255.484	85.33
255.701	-41.64
255.917	81.24
256.134	-6.83
256.351	21.85
256.567	30.04
256.784	54.61
257	34.13
257.217	62.8
257.433	3.41
257.65	81.24
257.866	66.9
258.082	17.75
258.299	42.32
258.515	25.94
258.732	58.71
258.948	-33.45
259.165	-10.92
259.381	50.52
259.597	124.24
259.814	42.32
260.03	17.75
260.246	19.8
260.463	-25.26
260.679	11.61
260.895	21.85
261.112	132.44
261.328	21.85
261.544	40.28
261.761	68.95
261.977	21.85
262.193	21.85
262.409	-2.73
262.626	46.42
262.842	83.28
263.058	54.61
263.274	95.57
263.49	66.9
263.707	34.13
263.923	64.85
264.139	30.04
264.355	58.71
264.571	95.57
264.787	64.85
265.004	101.72
265.22	-15.02
265.436	50.52
265.652	50.52
265.868	30.04
266.084	13.65
266.3	89.43
266.516	17.75
266.732	111.96
266.948	25.94
267.164	44.37
267.38	58.71
267.596	38.23
267.812	-0.68
268.028	81.24
268.244	-6.83
268.46	25.94
268.676	1.37
268.892	58.71
269.108	-39.59
269.324	25.94
269.54	-2.73
269.756	-0.68
269.972	62.8
270.188	77.14
270.403	21.85
270.619	34.13
270.835	13.65
271.051	50.52
271.267	40.28
271.483	36.18
271.698	11.61
271.914	87.38
272.13	-43.69
272.346	-19.11
272.562	42.32
272.777	50.52
272.993	50.52
273.209	-31.4
273.425	75.09
273.64	79.19
273.856	64.85
274.072	32.08
274.287	13.65
274.503	75.09
274.719	48.47
274.934	44.37
275.15	7.51
275.366	-23.21
275.581	34.13
275.797	5.46
276.012	-2.73
276.228	38.23
276.444	-12.97
276.659	68.95
276.875	5.46
277.09	91.48
277.306	11.61
277.521	146.77
277.737	9.56
277.952	25.94
278.168	-6.83
278.383	30.04
278.599	89.43
278.814	124.24
279.03	-15.02
279.245	103.76
279.461	95.57
279.676	73.04
279.892	-33.45
280.107	91.48
280.322	30.04
280.538	40.28
280.753	34.13
280.969	-43.69
281.184	15.7
281.399	68.95
281.615	52.56
281.83	17.75
282.045	-39.59
282.26	85.33
282.476	68.95
282.691	30.04
282.906	68.95
283.122	71
283.337	48.47
283.552	23.89
283.767	120.15
283.983	81.24
284.198	71
284.413	-27.31
284.628	-37.55
284.843	32.08
285.058	64.85
285.274	27.99
285.489	-25.26
285.704	99.67
285.919	15.7
286.134	25.94
286.349	38.23
286.564	1.37
286.779	19.8
286.995	-15.02
287.21	7.51
287.425	56.66
287.64	50.52
287.855	44.37
288.07	-58.03
288.285	34.13
288.5	152.92
288.715	-6.83
288.93	15.7
289.145	42.32
289.36	34.13
289.575	103.76
289.79	-8.87
290.004	54.61
290.219	58.71
290.434	42.32
290.649	7.51
290.864	52.56
291.079	-27.31
291.294	30.04
291.509	109.91
291.724	73.04
291.938	32.08
292.153	40.28
292.368	42.32
292.583	40.28
292.798	73.04
293.012	7.51
293.227	107.86
293.442	30.04
293.657	105.81
293.871	73.04
294.086	64.85
294.301	64.85
294.516	50.52
294.73	50.52
294.945	50.52
295.16	107.86
295.374	60.76
295.589	-19.11
295.804	-17.07
296.018	48.47
296.233	1.37
296.447	9.56
296.662	50.52
296.877	66.9
297.091	97.62
297.306	54.61
297.52	44.37
297.735	30.04
297.949	34.13
298.164	36.18
298.378	140.63
298.593	44.37
298.807	15.7
299.022	32.08
299.236	17.75
299.451	75.09
299.665	-25.26
299.88	38.23
300.094	32.08
300.309	95.57
300.523	79.19
300.737	-23.21
300.952	64.85
301.166	161.11
301.381	17.75
301.595	46.42
301.809	38.23
302.024	128.34
302.238	9.56
302.452	64.85
302.667	81.24
302.881	103.76
303.095	99.67
303.309	81.24
303.524	34.13
303.738	101.72
303.952	75.09
304.166	124.24
304.381	30.04
304.595	73.04
304.809	38.23
305.023	52.56
305.237	-0.68
305.452	25.94
305.666	52.56
305.88	9.56
306.094	38.23
306.308	9.56
306.522	79.19
306.736	-12.97
306.95	7.51
307.164	25.94
307.379	50.52
307.593	161.11
307.807	32.08
308.021	107.86
308.235	95.57
308.449	58.71
308.663	-4.78
308.877	81.24
309.091	36.18
309.305	44.37
309.519	25.94
309.733	21.85
309.947	25.94
310.161	40.28
310.374	44.37
310.588	142.68
310.802	27.99
311.016	46.42
311.23	95.57
311.444	81.24
311.658	66.9
311.872	91.48
312.085	34.13
312.299	116.05
312.513	91.48
312.727	50.52
312.941	-2.73
313.154	83.28
313.368	13.65
313.582	56.66
313.796	40.28
314.009	73.04
314.223	34.13
314.437	91.48
314.651	-15.02
314.864	25.94
315.078	71
315.292	56.66
315.505	-12.97
315.719	-8.87
315.933	-41.64
316.146	-4.78
316.36	87.38
316.573	71
316.787	34.13
317.001	120.15
317.214	52.56
317.428	40.28
317.641	-31.4
317.855	1.37
318.068	66.9
318.282	9.56
318.495	132.44
318.709	75.09
318.922	3.41
319.136	-4.78
319.349	17.75
319.563	71
319.776	64.85
319.99	68.95
320.203	140.63
320.417	38.23
320.63	50.52
320.843	91.48
321.057	107.86
321.27	-27.31
321.483	23.89
321.697	114
321.91	-39.59
322.124	19.8
322.337	-12.97
322.55	58.71
322.763	42.32
322.977	54.61
323.19	48.47
323.403	73.04
323.617	73.04
323.83	71
324.043	-33.45
324.256	58.71
324.469	-2.73
324.683	99.67
324.896	23.89
325.109	134.48
325.322	-21.16
325.535	71
325.748	75.09
325.962	19.8
326.175	5.46
326.388	66.9
326.601	140.63
326.814	73.04
327.027	62.8
327.24	95.57
327.453	48.47
327.666	9.56
327.879	75.09
328.092	44.37
328.305	87.38
328.518	-23.21
328.731	9.56
328.944	46.42
329.157	58.71
329.37	30.04
329.583	105.81
329.796	60.76
330.009	66.9
330.222	71
330.435	34.13
330.648	75.09
330.861	40.28
331.073	17.75
331.286	27.99
331.499	101.72
331.712	66.9
331.925	58.71
332.138	-12.97
332.35	77.14
332.563	58.71
332.776	40.28
332.989	-23.21
333.202	56.66
333.414	50.52
333.627	36.18
333.84	99.67
334.053	91.48
334.265	58.71
334.478	91.48
334.691	56.66
334.903	58.71
335.116	-8.87
335.329	23.89
335.541	36.18
335.754	81.24
335.966	-23.21
336.179	75.09
336.392	23.89
336.604	23.89
336.817	66.9
337.029	50.52
337.242	-35.5
337.454	48.47
337.667	32.08
337.88	105.81
338.092	62.8
338.305	9.56
338.517	97.62
338.729	21.85
338.942	46.42
339.154	27.99
339.367	27.99
339.579	46.42
339.792	52.56
340.004	19.8
340.217	19.8
340.429	-6.83
340.641	19.8
340.854	62.8
341.066	44.37
341.278	83.28
341.491	44.37
341.703	91.48
341.915	-6.83
342.128	85.33
342.34	58.71
342.552	56.66
342.764	116.05
342.977	54.61
343.189	105.81
343.401	64.85
343.613	-45.74
343.826	-21.16
344.038	17.75
344.25	-6.83
344.462	81.24
344.674	32.08
344.886	32.08
345.099	66.9
345.311	89.43
345.523	38.23
345.735	-0.68
345.947	75.09
346.159	32.08
346.371	-6.83
346.583	13.65
346.795	75.09
347.007	144.72
347.219	62.8
347.431	7.51
347.643	77.14
347.855	-27.31
348.067	25.94
348.279	-17.07
348.491	38.23
348.703	5.46
348.915	-29.35
349.127	66.9
349.339	30.04
349.551	75.09
349.763	62.8
349.975	73.04
350.187	128.34
350.399	68.95
350.61	81.24
350.822	38.23
351.034	99.67
351.246	77.14
351.458	77.14
351.669	58.71
351.881	111.96
352.093	75.09
352.305	32.08
352.517	52.56
352.728	97.62
352.94	56.66
353.152	54.61
353.363	19.8
353.575	66.9
353.787	58.71
353.999	7.51
354.21	128.34
354.422	32.08
354.633	21.85
354.845	56.66
355.057	34.13
355.268	62.8
355.48	116.05
355.692	-35.5
355.903	66.9
356.115	64.85
356.326	48.47
356.538	124.24
356.749	89.43
356.961	97.62
357.172	21.85
357.384	42.32
357.595	183.63
357.807	83.28
358.018	25.94
358.23	34.13
358.441	130.39
358.653	40.28
358.864	46.42
359.075	60.76
359.287	-8.87
359.498	30.04
359.709	111.96
359.921	79.19
360.132	11.61
360.344	44.37
360.555	38.23
360.766	114
360.977	48.47
361.189	66.9
361.4	-2.73
361.611	75.09
361.823	42.32
362.034	64.85
362.245	-0.68
362.456	40.28
362.667	73.04
362.879	30.04
363.09	54.61
363.301	89.43
363.512	79.19
363.723	-23.21
363.935	-4.78
364.146	183.63
364.357	38.23
364.568	122.2
364.779	73.04
364.99	81.24
365.201	40.28
365.412	75.09
365.623	87.38
365.834	50.52
366.045	34.13
366.256	81.24
366.467	95.57
366.678	77.14
366.889	87.38
367.1	21.85
367.311	118.1
367.522	79.19
367.733	105.81
367.944	85.33
368.155	75.09
368.366	52.56
368.577	73.04
368.788	54.61
368.999	25.94
369.209	38.23
369.42	118.1
369.631	120.15
369.842	77.14
370.053	109.91
370.264	48.47
370.474	34.13
370.685	66.9
370.896	81.24
371.107	56.66
371.317	132.44
371.528	71
371.739	64.85
371.95	66.9
372.16	128.34
372.371	36.18
372.582	66.9
372.792	101.72
373.003	103.76
373.214	23.89
373.424	77.14
373.635	44.37
373.846	27.99
374.056	-19.11
374.267	-2.73
374.477	54.61
374.688	99.67
374.898	-33.45
375.109	23.89
375.319	81.24
375.53	-23.21
375.74	25.94
375.951	107.86
376.161	42.32
376.372	79.19
376.582	40.28
376.793	-12.97
377.003	17.75
377.214	87.38
377.424	66.9
377.635	58.71
377.845	58.71
378.055	44.37
378.266	34.13
378.476	161.11
378.686	36.18
378.897	46.42
379.107	-8.87
379.317	-10.92
379.528	105.81
379.738	58.71
379.948	-2.73
380.158	54.61
380.369	103.76
380.579	64.85
380.789	-23.21
380.999	107.86
381.21	116.05
381.42	25.94
381.63	42.32
381.84	66.9
382.05	120.15
382.261	11.61
382.471	40.28
382.681	30.04
382.891	114
383.101	46.42
383.311	-37.55
383.521	46.42
383.731	114
383.941	9.56
384.151	87.38
384.361	71
384.571	-10.92
384.781	46.42
384.991	132.44
385.201	171.35
385.411	89.43
385.621	44.37
385.831	54.61
386.041	103.76
386.251	77.14
386.461	25.94
386.671	54.61
386.881	75.09
387.091	109.91
387.301	85.33
387.511	134.48
387.72	105.81
387.93	38.23
388.14	-6.83
388.35	56.66
388.56	64.85
388.769	134.48
388.979	13.65
389.189	89.43
389.399	95.57
389.609	181.59
389.818	85.33
390.028	73.04
390.238	42.32
390.447	93.52
390.657	97.62
390.867	32.08
391.076	34.13
391.286	64.85
391.496	91.48
391.705	62.8
391.915	116.05
392.125	105.81
392.334	71
392.544	89.43
392.753	44.37
392.963	34.13
393.172	36.18
393.382	11.61
393.591	85.33
393.801	56.66
394.01	81.24
394.22	185.68
394.429	105.81
394.639	73.04
394.848	75.09
395.058	105.81
395.267	111.96
395.477	58.71
395.686	87.38
395.895	124.24
396.105	124.24
396.314	50.52
396.524	122.2
396.733	83.28
396.942	140.63
397.152	109.91
397.361	99.67
397.57	140.63
397.78	56.66
397.989	83.28
398.198	114
398.407	130.39
398.617	136.53
398.826	105.81
399.035	107.86
399.244	71
399.453	146.77
399.663	140.63
399.872	91.48
400.081	73.04
400.29	109.91
400.499	50.52
400.708	179.54
400.917	150.87
401.127	189.78
401.336	46.42
401.545	214.35
401.754	175.44
401.963	154.96
402.172	126.29
402.381	87.38
402.59	157.01
402.799	107.86
403.008	185.68
403.217	140.63
403.426	202.07
403.635	161.11
403.844	120.15
404.053	163.15
404.262	157.01
404.471	228.69
404.68	138.58
404.888	105.81
405.097	157.01
405.306	210.26
405.515	118.1
405.724	232.79
405.933	247.12
406.142	200.02
406.35	165.2
406.559	167.25
406.768	210.26
406.977	214.35
407.185	251.22
407.394	236.88
407.603	283.99
407.812	197.97
408.02	216.4
408.229	283.99
408.438	275.79
408.646	288.08
408.855	193.87
409.064	251.22
409.272	306.51
409.481	267.6
409.69	283.99
409.898	413.01
410.107	345.42
410.315	382.29
410.524	308.56
410.733	419.15
410.941	386.38
411.15	406.86
411.358	406.86
411.567	472.4
411.775	480.59
411.984	451.92
412.192	349.52
412.401	431.44
412.609	554.32
412.818	562.51
413.026	566.6
413.234	562.51
413.443	513.36
413.651	529.74
413.86	554.32
414.068	679.24
414.276	556.36
414.485	722.25
414.693	716.11
414.901	781.64
415.11	793.93
415.318	654.67
415.526	838.98
415.734	789.83
415.943	818.5
416.151	912.71
416.359	898.38
416.567	961.86
416.776	896.33
416.984	986.44
417.192	1051.97
417.4	1031.49
417.608	1107.27
417.817	1115.46
418.025	1150.28
418.233	1267.01
418.441	1224
418.649	1242.43
418.857	1314.11
419.065	1496.38
419.273	1398.08
419.481	1414.46
419.689	1508.67
419.897	1617.21
420.105	1615.16
420.313	1594.69
420.521	1727.8
420.729	1635.64
420.937	1787.19
421.145	1865.02
421.353	1934.65
421.561	2063.67
421.769	2026.81
421.977	2270.51
422.185	2065.72
422.393	2311.47
422.601	2495.79
422.809	2491.7
423.017	2458.93
423.224	2573.61
423.432	2690.35
423.64	2598.19
423.848	2835.75
424.056	2854.19
424.263	3081.51
424.471	2989.35
424.679	3065.13
424.887	3231.01
425.094	3376.42
425.302	3417.38
425.51	3511.58
425.718	3593.5
425.925	3642.65
426.133	3872.03
426.341	3851.55
426.548	4130.07
426.756	4171.03
426.964	4232.47
427.171	4586.77
427.379	4723.98
427.586	4726.03
427.794	4891.91
428.001	4963.59
428.209	5303.56
428.417	5326.08
428.624	5598.46
428.832	5440.77
429.039	5549.31
429.247	5588.22
429.454	6223.09
429.662	6675.7
429.869	5958.91
430.076	6434.04
430.284	6175.99
430.491	6520.05
430.699	7070.95
430.906	6804.72
431.114	7001.32
431.321	7236.84
431.528	7394.53
431.736	7838.94
431.943	8162.52
432.15	7853.28
432.358	8084.7
432.565	8473.81
432.772	8328.41
432.979	8752.34
433.187	9161.93
433.394	9229.51
433.601	9663.68
433.808	9747.65
434.016	9737.41
434.223	10161.34
434.43	10708.15
434.637	10546.36
434.844	10982.57
435.052	11297.96
435.259	11254.95
435.466	11355.3
435.673	11343.02
435.88	11910.3
436.087	12623
436.294	12520.6
436.501	12352.66
436.708	12588.18
436.915	12944.53
437.122	13552.77
437.329	13550.73
437.537	14029.95
437.743	14193.79
437.95	13730.95
438.157	14902.39
438.364	15279.21
438.571	15357.03
438.778	15516.78
438.985	16763.99
439.192	15922.27
439.399	16499.8
439.606	16346.2
439.813	17323.08
440.02	18474.04
440.227	17855.56
440.433	17798.21
440.64	18117.7
440.847	18013.25
441.054	18562.11
441.261	19872.81
441.467	19467.31
441.674	20081.7
441.881	20669.47
442.088	20689.95
442.294	20403.23
442.501	21056.53
442.708	21404.69
442.914	22461.44
443.121	23309.3
443.328	22719.48
443.534	23970.79
443.741	23198.71
443.948	23262.19
444.154	24824.79
444.361	25011.16
444.568	24701.92
444.774	24663
444.981	25082.84
445.187	25658.32
445.394	26657.73
445.6	26602.43
445.807	29238.17
446.013	27894.7
446.22	28267.43
446.426	29213.59
446.633	29492.12
446.839	30210.95
447.046	29174.68
447.252	30557.06
447.459	30995.32
447.665	30819.2
447.871	31853.42
448.078	33250.14
448.284	31976.3
448.491	32637.8
448.697	33672.02
448.903	34388.81
449.11	34390.86
449.316	33633.11
449.522	34511.69
449.728	35582.77
449.935	35769.14
450.141	35722.04
450.347	36385.58
450.553	35005.25
450.76	35617.59
450.966	36528.94
451.172	36244.27
451.378	36997.92
451.584	36487.98
451.791	36858.66
451.997	37165.85
452.203	37559.06
452.409	37169.95
452.615	37550.87
452.821	36059.95
453.027	35834.67
453.233	37194.53
453.44	35763
453.646	36664.1
453.852	36719.4
454.058	36967.2
454.264	35760.95
454.47	36573.99
454.676	35658.55
454.882	36889.38
455.088	33801.04
455.294	33885.01
455.5	34458.44
455.705	35326.78
455.911	33407.83
456.117	32994.14
456.323	32338.79
456.529	30526.34
456.735	32000.88
456.941	31193.98
457.147	30645.12
457.352	29643.66
457.558	29172.63
457.764	29580.18
457.97	29096.86
458.176	28158.89
458.381	28060.59
458.587	26864.57
458.793	26915.77
458.999	25721.8
459.204	27171.77
459.41	26244.04
459.616	24800.22
459.821	24845.27
460.027	24804.31
460.233	24105.96
460.438	22805.5
460.644	22864.89
460.85	22078.47
461.055	21707.79
461.261	21853.19
461.466	20188.19
461.672	19717.16
461.878	20823.06
462.083	19737.64
462.289	18986.04
462.494	19223.6
462.7	18306.11
462.905	17824.84
463.111	18175.04
463.316	18515
463.522	18023.49
463.727	17943.62
463.932	17773.64
464.138	17566.79
464.343	17941.57
464.549	17353.8
464.754	18220.1
464.959	17976.39
465.165	17495.11
465.37	16936.02
465.575	16467.03
465.781	17220.69
465.986	17267.79
466.191	16890.96
466.397	16299.1
466.602	15723.62
466.807	15971.43
467.012	16305.24
467.218	15828.07
467.423	15772.77
467.628	16125.02
467.833	16639.06
