Data from USB4F104151__27__10-21-38-698.txt Node

Date: Wed Mar 12 10:21:38 EDT 2025
User: louis
Spectrometer: USB4F10415
Trigger mode: 4
Integration Time (sec): 3.000000E-2
Scans to average: 1
Electric dark correction enabled: true
Nonlinearity correction enabled: false
Boxcar width: 0
XAxis mode: Wavelengths
Number of Pixels in Spectrum: 3648
>>>>>Begin Spectral Data<<<<<
178.204	-100.52
178.424	-100.52
178.644	-100.52
178.864	-98.47
179.084	-69.8
179.304	-26.79
179.524	10.07
179.744	-22.7
179.964	24.4
180.184	-41.13
180.404	34.64
180.624	28.5
180.844	-4.27
181.064	8.02
181.283	12.12
181.503	1.88
181.723	-24.75
181.943	-32.94
182.163	36.69
182.383	-16.55
182.602	20.31
182.822	87.89
183.042	26.45
183.262	-4.27
183.482	16.21
183.701	1.88
183.921	40.79
184.141	-12.46
184.361	8.02
184.58	-4.27
184.8	16.21
185.02	98.13
185.239	-32.94
185.459	-45.23
185.679	28.5
185.898	-20.65
186.118	104.28
186.338	28.5
186.557	-8.36
186.777	-0.17
186.997	12.12
187.216	42.84
187.436	61.27
187.655	-12.46
187.875	30.55
188.095	-20.65
188.314	-0.17
188.534	28.5
188.753	5.97
188.973	-6.31
189.192	53.08
189.412	20.31
189.631	71.51
189.851	-8.36
190.07	102.23
190.29	22.36
190.509	30.55
190.729	10.07
190.948	65.36
191.168	59.22
191.387	44.88
191.607	-45.23
191.826	77.65
192.045	-20.65
192.265	91.99
192.484	53.08
192.704	59.22
192.923	-49.32
193.142	36.69
193.362	-14.51
193.581	79.7
193.8	36.69
194.02	24.4
194.239	-0.17
194.458	32.6
194.678	36.69
194.897	28.5
195.116	48.98
195.335	44.88
195.555	-8.36
195.774	12.12
195.993	-6.31
196.212	18.26
196.432	12.12
196.651	-2.22
196.87	36.69
197.089	94.04
197.308	83.8
197.528	75.6
197.747	-16.55
197.966	5.97
198.185	71.51
198.404	-10.41
198.623	34.64
198.842	1.88
199.062	98.13
199.281	71.51
199.5	36.69
199.719	38.74
199.938	53.08
200.157	30.55
200.376	53.08
200.595	48.98
200.814	-4.27
201.033	-16.55
201.252	38.74
201.471	-26.79
201.69	94.04
201.909	40.79
202.128	-2.22
202.347	28.5
202.566	-8.36
202.785	20.31
203.004	-12.46
203.223	87.89
203.442	-4.27
203.661	26.45
203.879	12.12
204.098	-4.27
204.317	1.88
204.536	38.74
204.755	38.74
204.974	16.21
205.193	-24.75
205.411	104.28
205.63	36.69
205.849	3.93
206.068	42.84
206.287	59.22
206.505	120.66
206.724	-53.42
206.943	38.74
207.162	-30.89
207.381	36.69
207.599	61.27
207.818	-8.36
208.037	-37.03
208.255	16.21
208.474	10.07
208.693	18.26
208.911	-0.17
209.13	32.6
209.349	8.02
209.567	10.07
209.786	-53.42
210.005	81.75
210.223	12.12
210.442	10.07
210.661	3.93
210.879	-10.41
211.098	10.07
211.316	1.88
211.535	57.17
211.753	32.6
211.972	-4.27
212.191	55.12
212.409	65.36
212.628	20.31
212.846	-26.79
213.065	67.41
213.283	32.6
213.502	-14.51
213.72	8.02
213.938	75.6
214.157	-6.31
214.375	8.02
214.594	-14.51
214.812	108.37
215.031	8.02
215.249	-2.22
215.467	-22.7
215.686	-53.42
215.904	34.64
216.122	-55.47
216.341	28.5
216.559	59.22
216.778	44.88
216.996	100.18
217.214	-4.27
217.432	34.64
217.651	40.79
217.869	-63.66
218.087	40.79
218.306	85.84
218.524	-8.36
218.742	40.79
218.96	65.36
219.179	18.26
219.397	44.88
219.615	36.69
219.833	16.21
220.051	16.21
220.27	67.41
220.488	-34.99
220.706	73.56
220.924	1.88
221.142	-18.6
221.36	-28.84
221.578	46.93
221.796	32.6
222.015	10.07
222.233	71.51
222.451	57.17
222.669	57.17
222.887	44.88
223.105	61.27
223.323	12.12
223.541	30.55
223.759	-34.99
223.977	44.88
224.195	48.98
224.413	81.75
224.631	77.65
224.849	36.69
225.067	73.56
225.285	-65.71
225.503	42.84
225.721	14.17
225.939	22.36
226.157	12.12
226.375	122.71
226.592	26.45
226.81	10.07
227.028	71.51
227.246	-4.27
227.464	61.27
227.682	10.07
227.9	98.13
228.117	18.26
228.335	-24.75
228.553	44.88
228.771	36.69
228.989	16.21
229.206	81.75
229.424	73.56
229.642	-28.84
229.86	20.31
230.077	55.12
230.295	20.31
230.513	24.4
230.731	130.9
230.948	81.75
231.166	116.56
231.384	1.88
231.601	157.52
231.819	3.93
232.037	-14.51
232.254	3.93
232.472	24.4
232.689	-12.46
232.907	77.65
233.125	26.45
233.342	-6.31
233.56	42.84
233.777	34.64
233.995	44.88
234.213	67.41
234.43	61.27
234.648	16.21
234.865	26.45
235.083	71.51
235.3	-34.99
235.518	-8.36
235.735	122.71
235.953	61.27
236.17	59.22
236.388	8.02
236.605	57.17
236.822	38.74
237.04	3.93
237.257	-20.65
237.475	-55.47
237.692	32.6
237.909	59.22
238.127	-2.22
238.344	65.36
238.562	26.45
238.779	-14.51
238.996	32.6
239.214	1.88
239.431	12.12
239.648	16.21
239.865	-24.75
240.083	155.47
240.3	12.12
240.517	38.74
240.735	73.56
240.952	24.4
241.169	118.61
241.386	85.84
241.603	36.69
241.821	-51.37
242.038	85.84
242.255	89.94
242.472	-45.23
242.689	100.18
242.907	69.46
243.124	106.32
243.341	42.84
243.558	-8.36
243.775	-14.51
243.992	-53.42
244.209	26.45
244.426	48.98
244.643	-32.94
244.86	-45.23
245.078	38.74
245.295	8.02
245.512	46.93
245.729	20.31
245.946	-12.46
246.163	69.46
246.38	42.84
246.597	89.94
246.814	44.88
247.031	-4.27
247.248	14.17
247.464	-20.65
247.681	71.51
247.898	46.93
248.115	48.98
248.332	73.56
248.549	61.27
248.766	38.74
248.983	73.56
249.2	61.27
249.417	32.6
249.633	20.31
249.85	1.88
250.067	22.36
250.284	53.08
250.501	3.93
250.717	108.37
250.934	24.4
251.151	44.88
251.368	-4.27
251.585	48.98
251.801	-4.27
252.018	-67.75
252.235	-0.17
252.451	51.03
252.668	3.93
252.885	8.02
253.102	46.93
253.318	32.6
253.535	28.5
253.752	-20.65
253.968	24.4
254.185	-41.13
254.401	38.74
254.618	10.07
254.835	38.74
255.051	73.56
255.268	24.4
255.484	-12.46
255.701	20.31
255.917	53.08
256.134	-39.08
256.351	-10.41
256.567	-10.41
256.784	26.45
257	-43.18
257.217	-14.51
257.433	87.89
257.65	73.56
257.866	8.02
258.082	3.93
258.299	20.31
258.515	34.64
258.732	44.88
258.948	38.74
259.165	34.64
259.381	28.5
259.597	30.55
259.814	44.88
260.03	36.69
260.246	28.5
260.463	106.32
260.679	59.22
260.895	20.31
261.112	59.22
261.328	-4.27
261.544	-37.03
261.761	147.28
261.977	3.93
262.193	-0.17
262.409	46.93
262.626	89.94
262.842	-24.75
263.058	12.12
263.274	-20.65
263.49	65.36
263.707	12.12
263.923	42.84
264.139	5.97
264.355	26.45
264.571	73.56
264.787	61.27
265.004	8.02
265.22	20.31
265.436	30.55
265.652	-4.27
265.868	12.12
266.084	81.75
266.3	51.03
266.516	63.32
266.732	10.07
266.948	36.69
267.164	-28.84
267.38	42.84
267.596	75.6
267.812	128.85
268.028	61.27
268.244	18.26
268.46	44.88
268.676	-47.27
268.892	44.88
269.108	51.03
269.324	-14.51
269.54	-2.22
269.756	79.7
269.972	34.64
270.188	-22.7
270.403	3.93
270.619	28.5
270.835	114.52
271.051	46.93
271.267	83.8
271.483	-18.6
271.698	12.12
271.914	28.5
272.13	-4.27
272.346	77.65
272.562	36.69
272.777	44.88
272.993	36.69
273.209	22.36
273.425	-10.41
273.64	26.45
273.856	44.88
274.072	-4.27
274.287	51.03
274.503	46.93
274.719	83.8
274.934	61.27
275.15	-22.7
275.366	89.94
275.581	-22.7
275.797	20.31
276.012	1.88
276.228	32.6
276.444	-73.9
276.659	57.17
276.875	-0.17
277.09	16.21
277.306	18.26
277.521	16.21
277.737	44.88
277.952	12.12
278.168	8.02
278.383	30.55
278.599	-4.27
278.814	26.45
279.03	32.6
279.245	102.23
279.461	28.5
279.676	-20.65
279.892	34.64
280.107	-2.22
280.322	-45.23
280.538	40.79
280.753	36.69
280.969	36.69
281.184	38.74
281.399	67.41
281.615	26.45
281.83	-0.17
282.045	-4.27
282.26	-55.47
282.476	44.88
282.691	81.75
282.906	-41.13
283.122	30.55
283.337	-2.22
283.552	-14.51
283.767	51.03
283.983	94.04
284.198	28.5
284.413	59.22
284.628	-39.08
284.843	14.17
285.058	100.18
285.274	-4.27
285.489	1.88
285.704	24.4
285.919	51.03
286.134	110.42
286.349	-53.42
286.564	61.27
286.779	48.98
286.995	-12.46
287.21	-8.36
287.425	34.64
287.64	20.31
287.855	26.45
288.07	-61.61
288.285	94.04
288.5	44.88
288.715	104.28
288.93	5.97
289.145	3.93
289.36	36.69
289.575	69.46
289.79	28.5
290.004	-32.94
290.219	63.32
290.434	22.36
290.649	26.45
290.864	44.88
291.079	61.27
291.294	40.79
291.509	53.08
291.724	32.6
291.938	16.21
292.153	98.13
292.368	65.36
292.583	26.45
292.798	91.99
293.012	-16.55
293.227	36.69
293.442	63.32
293.657	-0.17
293.871	96.08
294.086	10.07
294.301	-14.51
294.516	42.84
294.73	67.41
294.945	10.07
295.16	106.32
295.374	61.27
295.589	51.03
295.804	38.74
296.018	3.93
296.233	59.22
296.447	5.97
296.662	38.74
296.877	108.37
297.091	44.88
297.306	94.04
297.52	61.27
297.735	51.03
297.949	12.12
298.164	3.93
298.378	132.95
298.593	75.6
298.807	1.88
299.022	32.6
299.236	135
299.451	57.17
299.665	69.46
299.88	108.37
300.094	67.41
300.309	-26.79
300.523	59.22
300.737	34.64
300.952	53.08
301.166	79.7
301.381	73.56
301.595	65.36
301.809	102.23
302.024	42.84
302.238	28.5
302.452	61.27
302.667	30.55
302.881	83.8
303.095	81.75
303.309	40.79
303.524	32.6
303.738	81.75
303.952	36.69
304.166	24.4
304.381	-24.75
304.595	167.76
304.809	-37.03
305.023	32.6
305.237	51.03
305.452	59.22
305.666	34.64
305.88	51.03
306.094	12.12
306.308	59.22
306.522	77.65
306.736	44.88
306.95	-16.55
307.164	3.93
307.379	28.5
307.593	59.22
307.807	83.8
308.021	116.56
308.235	44.88
308.449	10.07
308.663	-14.51
308.877	40.79
309.091	40.79
309.305	46.93
309.519	-86.19
309.733	100.18
309.947	12.12
310.161	14.17
310.374	20.31
310.588	69.46
310.802	12.12
311.016	46.93
311.23	53.08
311.444	-10.41
311.658	18.26
311.872	55.12
312.085	87.89
312.299	85.84
312.513	94.04
312.727	67.41
312.941	22.36
313.154	116.56
313.368	53.08
313.582	18.26
313.796	26.45
314.009	20.31
314.223	143.19
314.437	87.89
314.651	-32.94
314.864	-12.46
315.078	22.36
315.292	24.4
315.505	10.07
315.719	-0.17
315.933	-4.27
316.146	-16.55
316.36	55.12
316.573	139.09
316.787	46.93
317.001	-18.6
317.214	65.36
317.428	36.69
317.641	10.07
317.855	-10.41
318.068	44.88
318.282	5.97
318.495	48.98
318.709	63.32
318.922	18.26
319.136	61.27
319.349	51.03
319.563	44.88
319.776	34.64
319.99	-32.94
320.203	-4.27
320.417	36.69
320.63	48.98
320.843	87.89
321.057	51.03
321.27	85.84
321.483	8.02
321.697	28.5
321.91	53.08
322.124	12.12
322.337	83.8
322.55	20.31
322.763	83.8
322.977	-8.36
323.19	20.31
323.403	96.08
323.617	38.74
323.83	53.08
324.043	87.89
324.256	51.03
324.469	-73.9
324.683	44.88
324.896	26.45
325.109	-0.17
325.322	-37.03
325.535	16.21
325.748	73.56
325.962	81.75
326.175	12.12
326.388	85.84
326.601	18.26
326.814	79.7
327.027	116.56
327.24	126.8
327.453	-24.75
327.666	108.37
327.879	30.55
328.092	-24.75
328.305	51.03
328.518	28.5
328.731	16.21
328.944	63.32
329.157	1.88
329.37	59.22
329.583	36.69
329.796	28.5
330.009	51.03
330.222	65.36
330.435	1.88
330.648	57.17
330.861	69.46
331.073	83.8
331.286	69.46
331.499	85.84
331.712	69.46
331.925	-49.32
332.138	69.46
332.35	38.74
332.563	44.88
332.776	53.08
332.989	8.02
333.202	79.7
333.414	55.12
333.627	8.02
333.84	-20.65
334.053	34.64
334.265	44.88
334.478	36.69
334.691	85.84
334.903	51.03
335.116	73.56
335.329	5.97
335.541	65.36
335.754	61.27
335.966	61.27
336.179	3.93
336.392	44.88
336.604	77.65
336.817	57.17
337.029	-16.55
337.242	57.17
337.454	-6.31
337.667	-6.31
337.88	116.56
338.092	65.36
338.305	51.03
338.517	-12.46
338.729	-4.27
338.942	34.64
339.154	91.99
339.367	-28.84
339.579	42.84
339.792	3.93
340.004	-10.41
340.217	61.27
340.429	48.98
340.641	59.22
340.854	46.93
341.066	24.4
341.278	16.21
341.491	94.04
341.703	63.32
341.915	-6.31
342.128	12.12
342.34	59.22
342.552	57.17
342.764	71.51
342.977	100.18
343.189	55.12
343.401	81.75
343.613	-2.22
343.826	81.75
344.038	57.17
344.25	42.84
344.462	-8.36
344.674	67.41
344.886	46.93
345.099	51.03
345.311	94.04
345.523	106.32
345.735	12.12
345.947	14.17
346.159	79.7
346.371	24.4
346.583	48.98
346.795	83.8
347.007	3.93
347.219	-0.17
347.431	40.79
347.643	87.89
347.855	28.5
348.067	20.31
348.279	79.7
348.491	120.66
348.703	61.27
348.915	18.26
349.127	-28.84
349.339	24.4
349.551	10.07
349.763	-6.31
349.975	59.22
350.187	151.38
350.399	28.5
350.61	108.37
350.822	63.32
351.034	28.5
351.246	-20.65
351.458	104.28
351.669	20.31
351.881	53.08
352.093	69.46
352.305	16.21
352.517	112.47
352.728	-0.17
352.94	75.6
353.152	-16.55
353.363	24.4
353.575	8.02
353.787	108.37
353.999	91.99
354.21	67.41
354.422	-8.36
354.633	-4.27
354.845	40.79
355.057	14.17
355.268	34.64
355.48	36.69
355.692	-49.32
355.903	28.5
356.115	10.07
356.326	57.17
356.538	32.6
356.749	44.88
356.961	44.88
357.172	91.99
357.384	28.5
357.595	89.94
357.807	59.22
358.018	14.17
358.23	1.88
358.441	63.32
358.653	44.88
358.864	20.31
359.075	-24.75
359.287	34.64
359.498	75.6
359.709	91.99
359.921	34.64
360.132	130.9
360.344	36.69
360.555	32.6
360.766	30.55
360.977	38.74
361.189	51.03
361.4	3.93
361.611	69.46
361.823	1.88
362.034	10.07
362.245	34.64
362.456	12.12
362.667	48.98
362.879	-0.17
363.09	24.4
363.301	44.88
363.512	32.6
363.723	42.84
363.935	53.08
364.146	83.8
364.357	42.84
364.568	59.22
364.779	55.12
364.99	63.32
365.201	24.4
365.412	118.61
365.623	-6.31
365.834	42.84
366.045	128.85
366.256	57.17
366.467	34.64
366.678	71.51
366.889	32.6
367.1	61.27
367.311	48.98
367.522	79.7
367.733	42.84
367.944	26.45
368.155	40.79
368.366	143.19
368.577	-2.22
368.788	98.13
368.999	63.32
369.209	73.56
369.42	96.08
369.631	159.57
369.842	112.47
370.053	-0.17
370.264	53.08
370.474	44.88
370.685	69.46
370.896	63.32
371.107	61.27
371.317	100.18
371.528	48.98
371.739	116.56
371.95	3.93
372.16	59.22
372.371	132.95
372.582	-2.22
372.792	26.45
373.003	51.03
373.214	77.65
373.424	73.56
373.635	3.93
373.846	75.6
374.056	48.98
374.267	69.46
374.477	59.22
374.688	110.42
374.898	1.88
375.109	98.13
375.319	81.75
375.53	106.32
375.74	55.12
375.951	32.6
376.161	67.41
376.372	57.17
376.582	12.12
376.793	44.88
377.003	-16.55
377.214	34.64
377.424	-30.89
377.635	26.45
377.845	28.5
378.055	26.45
378.266	75.6
378.476	81.75
378.686	24.4
378.897	44.88
379.107	100.18
379.317	53.08
379.528	69.46
379.738	36.69
379.948	51.03
380.158	96.08
380.369	67.41
380.579	22.36
380.789	34.64
380.999	46.93
381.21	53.08
381.42	98.13
381.63	79.7
381.84	63.32
382.05	61.27
382.261	96.08
382.471	69.46
382.681	126.8
382.891	102.23
383.101	46.93
383.311	91.99
383.521	32.6
383.731	75.6
383.941	71.51
384.151	100.18
384.361	30.55
384.571	83.8
384.781	46.93
384.991	83.8
385.201	180.05
385.411	89.94
385.621	79.7
385.831	59.22
386.041	65.36
386.251	124.76
386.461	77.65
386.671	8.02
386.881	85.84
387.091	22.36
387.301	135
387.511	51.03
387.72	59.22
387.93	94.04
388.14	73.56
388.35	38.74
388.56	81.75
388.769	73.56
388.979	48.98
389.189	30.55
389.399	26.45
389.609	26.45
389.818	71.51
390.028	81.75
390.238	20.31
390.447	118.61
390.657	124.76
390.867	94.04
391.076	36.69
391.286	83.8
391.496	77.65
391.705	124.76
391.915	145.24
392.125	36.69
392.334	42.84
392.544	59.22
392.753	98.13
392.963	98.13
393.172	57.17
393.382	57.17
393.591	122.71
393.801	63.32
394.01	44.88
394.22	135
394.429	87.89
394.639	83.8
394.848	116.56
395.058	81.75
395.267	102.23
395.477	110.42
395.686	118.61
395.895	69.46
396.105	171.86
396.314	102.23
396.524	69.46
396.733	118.61
396.942	63.32
397.152	147.28
397.361	112.47
397.57	36.69
397.78	124.76
397.989	81.75
398.198	106.32
398.407	16.21
398.617	98.13
398.826	110.42
399.035	141.14
399.244	180.05
399.453	110.42
399.663	44.88
399.872	171.86
400.081	69.46
400.29	126.8
400.499	79.7
400.708	81.75
400.917	75.6
401.127	83.8
401.336	126.8
401.545	167.76
401.754	69.46
401.963	63.32
402.172	110.42
402.381	126.8
402.59	94.04
402.799	114.52
403.008	48.98
403.217	116.56
403.426	137.04
403.635	63.32
403.844	165.71
404.053	122.71
404.262	135
404.471	173.91
404.68	200.53
404.888	171.86
405.097	202.58
405.306	137.04
405.515	151.38
405.724	126.8
405.933	204.63
406.142	239.44
406.35	198.48
406.559	116.56
406.768	159.57
406.977	192.34
407.185	214.87
407.394	192.34
407.603	114.52
407.812	302.93
408.02	255.83
408.229	184.15
408.438	218.96
408.646	153.43
408.855	259.92
409.064	294.74
409.272	245.59
409.481	282.45
409.69	272.21
409.898	233.3
410.107	333.65
410.315	282.45
410.524	294.74
410.733	382.8
410.941	354.13
411.15	393.04
411.358	401.23
411.567	390.99
411.775	450.38
411.984	384.85
412.192	462.67
412.401	464.72
412.609	489.29
412.818	534.35
413.026	470.86
413.234	491.34
413.443	552.78
413.651	507.73
413.86	552.78
414.068	565.07
414.276	606.03
414.485	587.6
414.693	694.09
414.901	716.62
415.11	679.75
415.318	702.28
415.526	735.05
415.734	751.43
415.943	749.39
416.151	933.7
416.359	868.17
416.567	857.93
416.776	976.71
416.984	915.27
417.192	1009.48
417.4	1015.62
417.608	896.84
417.817	1083.2
418.025	1093.44
418.233	1183.56
418.441	1120.07
418.649	1183.56
418.857	1247.04
419.065	1345.34
419.273	1257.28
419.481	1390.4
419.689	1425.22
419.897	1484.61
420.105	1507.13
420.313	1546.05
420.521	1636.16
420.729	1662.78
420.937	1756.99
421.145	1703.74
421.353	1910.58
421.561	1935.16
421.769	1974.07
421.977	2062.13
422.185	2045.75
422.393	2287.41
422.601	2158.39
422.809	2273.07
423.017	2342.71
423.224	2406.19
423.432	2395.95
423.64	2545.45
423.848	2760.49
424.056	2598.7
424.263	2885.42
424.471	2752.3
424.679	2875.18
424.887	3215.14
425.094	3237.67
425.302	3284.77
425.51	3319.59
425.718	3276.58
425.925	3395.36
426.133	3405.6
426.341	3706.65
426.548	4040.47
426.756	3948.31
426.964	3931.93
427.171	4214.55
427.379	4466.45
427.586	4452.11
427.794	4497.17
428.001	4943.63
428.209	5029.64
428.417	4949.77
428.624	5213.96
428.832	5332.74
429.039	5197.57
429.247	5209.86
429.454	5459.71
429.662	6102.78
429.869	5707.52
430.076	6100.73
430.284	5820.16
430.491	6188.79
430.699	6565.62
430.906	6627.06
431.114	6532.85
431.321	6790.89
431.528	7010.03
431.736	7438.05
431.943	7685.86
432.15	7479.01
432.358	7847.65
432.565	8048.35
432.772	7829.21
432.979	8294.1
433.187	8546
433.394	8429.27
433.601	9148.11
433.808	9070.28
434.016	9082.57
434.223	9471.68
434.43	9963.2
434.637	9920.19
434.844	10589.88
435.052	10710.71
435.259	10477.24
435.466	10677.94
435.673	10510
435.88	11394.73
436.087	11941.54
436.294	11830.94
436.501	11673.25
436.708	11994.78
436.915	12236.44
437.122	12756.63
437.329	12684.95
437.537	13012.62
437.743	13315.72
437.95	13217.42
438.157	13739.65
438.364	14192.25
438.571	14210.68
438.778	14509.69
438.985	15912.55
439.192	15187.57
439.399	15656.55
439.606	15339.12
439.813	16225.89
440.02	17245.77
440.227	16774.74
440.433	16856.66
440.64	17370.7
440.847	17352.27
441.054	17598.02
441.261	18581.05
441.467	18400.83
441.674	18855.48
441.881	19459.63
442.088	19353.13
442.294	19246.64
442.501	19678.76
442.708	19961.38
442.914	20862.49
443.121	21976.58
443.328	21249.55
443.534	22957.56
443.741	22011.4
443.948	21558.8
444.154	23440.88
444.361	23223.79
444.568	23604.72
444.774	23318
444.981	23754.22
445.187	24384.99
445.394	25599.44
445.6	24974.81
445.807	27207.09
446.013	26238.4
446.22	26826.17
446.426	27739.57
446.633	27872.68
446.839	28681.63
447.046	27764.14
447.252	29040.03
447.459	28964.25
447.665	28765.6
447.871	30401.93
448.078	31440.25
448.284	29824.4
448.491	30535.04
448.697	32048.49
448.903	32841.06
449.11	32540
449.316	32003.44
449.522	33035.61
449.728	33008.99
449.935	33674.58
450.141	33439.06
450.347	34121.04
450.553	33500.5
450.76	33789.27
450.966	34655.56
451.172	34182.48
451.378	35241.28
451.584	34346.31
451.791	35124.54
451.997	34846.02
452.203	35425.59
452.409	35059.01
452.615	35435.83
452.821	33707.35
453.027	33424.73
453.233	35394.87
453.44	33776.98
453.646	34475.34
453.852	34340.17
454.058	34651.46
454.264	34182.48
454.47	34395.46
454.676	33428.82
454.882	34745.67
455.088	31677.81
455.294	32161.13
455.5	32486.76
455.705	32740.71
455.911	31616.37
456.117	30891.39
456.323	30090.63
456.529	29037.98
456.735	30143.88
456.941	29146.52
457.147	28814.75
457.352	27989.42
457.558	27215.29
457.764	27733.42
457.97	27352.5
458.176	26443.2
458.381	26492.35
458.587	25105.88
458.793	25370.07
458.999	23772.65
459.204	25511.38
459.41	24923.61
459.616	23223.79
459.821	23123.44
460.027	23086.58
460.233	22568.44
460.438	21380.62
460.644	21831.18
460.85	20618.78
461.055	20375.07
461.261	20606.49
461.466	18982.45
461.672	18142.78
461.878	19498.54
462.083	18415.16
462.289	18093.63
462.494	17768.01
462.7	17163.86
462.905	16698.97
463.111	17215.05
463.316	17149.52
463.522	16899.67
463.727	17020.5
463.932	16907.86
464.138	16846.42
464.343	16957.01
464.549	16281.18
464.754	16741.97
464.959	16850.52
465.165	16543.32
465.37	16012.9
465.575	15433.32
465.781	16262.75
465.986	16186.97
466.191	15461.99
466.397	15226.48
466.602	14591.61
466.807	15146.61
467.012	14958.19
467.218	15103.6
467.423	14847.6
467.628	15050.35
467.833	15482.47
