Data from USB4F104151__123__10-25-16-024.txt Node

Date: Wed Mar 12 10:25:16 EDT 2025
User: louis
Spectrometer: USB4F10415
Trigger mode: 4
Integration Time (sec): 3.000000E-2
Scans to average: 1
Electric dark correction enabled: true
Nonlinearity correction enabled: false
Boxcar width: 0
XAxis mode: Wavelengths
Number of Pixels in Spectrum: 3648
>>>>>Begin Spectral Data<<<<<
178.204	-120.66
178.424	-120.66
178.644	-120.66
178.864	-102.23
179.084	-102.23
179.304	-26.45
179.524	22.7
179.744	-46.93
179.964	94.38
180.184	-30.55
180.404	39.08
180.624	6.31
180.844	-32.6
181.064	-59.22
181.283	12.46
181.503	43.18
181.723	-22.36
181.943	-12.12
182.163	22.7
182.383	18.6
182.602	53.42
182.822	39.08
183.042	-20.31
183.262	2.22
183.482	-12.12
183.701	14.51
183.921	67.75
184.141	-34.64
184.361	43.18
184.58	26.79
184.8	-32.6
185.02	20.65
185.239	75.95
185.459	-30.55
185.679	39.08
185.898	6.31
186.118	80.04
186.338	6.31
186.557	24.75
186.777	-5.97
186.997	14.51
187.216	43.18
187.436	34.99
187.655	4.27
187.875	0.17
188.095	0.17
188.314	37.03
188.534	-32.6
188.753	-14.17
188.973	77.99
189.192	51.37
189.412	2.22
189.631	98.47
189.851	73.9
190.07	96.43
190.29	-10.07
190.509	-3.93
190.729	51.37
190.948	116.9
191.168	110.76
191.387	92.33
191.607	-36.69
191.826	98.47
192.045	22.7
192.265	30.89
192.484	82.09
192.704	30.89
192.923	-28.5
193.142	90.28
193.362	39.08
193.581	104.62
193.8	-36.69
194.02	-1.88
194.239	47.27
194.458	-10.07
194.678	-26.45
194.897	41.13
195.116	34.99
195.335	26.79
195.555	53.42
195.774	-24.4
195.993	47.27
196.212	-24.4
196.432	-24.4
196.651	-10.07
196.87	-22.36
197.089	88.23
197.308	67.75
197.528	28.84
197.747	51.37
197.966	53.42
198.185	47.27
198.404	43.18
198.623	69.8
198.842	-10.07
199.062	26.79
199.281	98.47
199.5	-59.22
199.719	-5.97
199.938	18.6
200.157	-3.93
200.376	51.37
200.595	26.79
200.814	49.32
201.033	-1.88
201.252	37.03
201.471	-8.02
201.69	22.7
201.909	100.52
202.128	2.22
202.347	43.18
202.566	47.27
202.785	0.17
203.004	12.46
203.223	143.53
203.442	94.38
203.661	12.46
203.879	39.08
204.098	67.75
204.317	-14.17
204.536	34.99
204.755	16.55
204.974	100.52
205.193	55.47
205.411	30.89
205.63	73.9
205.849	10.41
206.068	57.51
206.287	69.8
206.505	51.37
206.724	75.95
206.943	22.7
207.162	30.89
207.381	-20.31
207.599	22.7
207.818	-42.84
208.037	67.75
208.255	-16.21
208.474	-20.31
208.693	-5.97
208.911	2.22
209.13	8.36
209.349	-26.45
209.567	80.04
209.786	47.27
210.005	14.51
210.223	10.41
210.442	30.89
210.661	55.47
210.879	-34.64
211.098	65.71
211.316	61.61
211.535	168.1
211.753	-38.74
211.972	49.32
212.191	63.66
212.409	4.27
212.628	-14.17
212.846	26.79
213.065	77.99
213.283	37.03
213.502	73.9
213.72	71.85
213.938	133.29
214.157	-10.07
214.375	22.7
214.594	18.6
214.812	28.84
215.031	53.42
215.249	-22.36
215.467	92.33
215.686	39.08
215.904	49.32
216.122	-14.17
216.341	96.43
216.559	14.51
216.778	94.38
216.996	55.47
217.214	18.6
217.432	-46.93
217.651	-34.64
217.869	-18.26
218.087	59.56
218.306	24.75
218.524	-5.97
218.742	55.47
218.96	45.23
219.179	-24.4
219.397	-30.55
219.615	47.27
219.833	96.43
220.051	-10.07
220.27	137.38
220.488	59.56
220.706	-3.93
220.924	20.65
221.142	10.41
221.36	45.23
221.578	-18.26
221.796	104.62
222.015	6.31
222.233	37.03
222.451	16.55
222.669	61.61
222.887	45.23
223.105	51.37
223.323	-12.12
223.541	-3.93
223.759	75.95
223.977	80.04
224.195	43.18
224.413	49.32
224.631	28.84
224.849	-36.69
225.067	45.23
225.285	32.94
225.503	86.19
225.721	8.36
225.939	71.85
226.157	12.46
226.375	125.1
226.592	86.19
226.81	-12.12
227.028	102.57
227.246	55.47
227.464	6.31
227.682	18.6
227.9	26.79
228.117	45.23
228.335	-14.17
228.553	22.7
228.771	0.17
228.989	32.94
229.206	96.43
229.424	34.99
229.642	-3.93
229.86	51.37
230.077	88.23
230.295	57.51
230.513	63.66
230.731	34.99
230.948	34.99
231.166	69.8
231.384	-1.88
231.601	61.61
231.819	112.81
232.037	59.56
232.254	6.31
232.472	-14.17
232.689	-1.88
232.907	59.56
233.125	45.23
233.342	73.9
233.56	18.6
233.777	-67.41
233.995	53.42
234.213	-1.88
234.43	45.23
234.648	2.22
234.865	-16.21
235.083	16.55
235.3	28.84
235.518	110.76
235.735	16.55
235.953	32.94
236.17	-18.26
236.388	67.75
236.605	12.46
236.822	61.61
237.04	22.7
237.257	4.27
237.475	2.22
237.692	49.32
237.909	12.46
238.127	71.85
238.344	65.71
238.562	131.24
238.779	-30.55
238.996	32.94
239.214	24.75
239.431	12.46
239.648	26.79
239.865	-32.6
240.083	110.76
240.3	26.79
240.517	-30.55
240.735	71.85
240.952	10.41
241.169	75.95
241.386	80.04
241.603	94.38
241.821	59.56
242.038	57.51
242.255	20.65
242.472	26.79
242.689	137.38
242.907	49.32
243.124	-12.12
243.341	63.66
243.558	59.56
243.775	65.71
243.992	-28.5
244.209	-44.88
244.426	61.61
244.643	-40.79
244.86	-26.45
245.078	47.27
245.295	69.8
245.512	39.08
245.729	16.55
245.946	39.08
246.163	-22.36
246.38	22.7
246.597	12.46
246.814	-16.21
247.031	37.03
247.248	18.6
247.464	39.08
247.681	88.23
247.898	71.85
248.115	20.65
248.332	-14.17
248.549	6.31
248.766	47.27
248.983	14.51
249.2	14.51
249.417	30.89
249.633	30.89
249.85	69.8
250.067	28.84
250.284	32.94
250.501	6.31
250.717	67.75
250.934	-26.45
251.151	55.47
251.368	57.51
251.585	73.9
251.801	-18.26
252.018	-3.93
252.235	92.33
252.451	22.7
252.668	32.94
252.885	-20.31
253.102	-18.26
253.318	14.51
253.535	-34.64
253.752	-5.97
253.968	55.47
254.185	-34.64
254.401	45.23
254.618	0.17
254.835	88.23
255.051	34.99
255.268	116.9
255.484	28.84
255.701	-12.12
255.917	57.51
256.134	10.41
256.351	-1.88
256.567	-10.07
256.784	63.66
257	30.89
257.217	43.18
257.433	110.76
257.65	67.75
257.866	94.38
258.082	-18.26
258.299	20.65
258.515	2.22
258.732	2.22
258.948	47.27
259.165	2.22
259.381	-1.88
259.597	-51.03
259.814	30.89
260.03	30.89
260.246	8.36
260.463	86.19
260.679	47.27
260.895	-36.69
261.112	63.66
261.328	-12.12
261.544	37.03
261.761	96.43
261.977	12.46
262.193	18.6
262.409	28.84
262.626	6.31
262.842	18.6
263.058	-57.17
263.274	18.6
263.49	71.85
263.707	84.14
263.923	20.65
264.139	-3.93
264.355	-55.12
264.571	65.71
264.787	100.52
265.004	86.19
265.22	16.55
265.436	4.27
265.652	37.03
265.868	84.14
266.084	51.37
266.3	24.75
266.516	10.41
266.732	-30.55
266.948	55.47
267.164	8.36
267.38	55.47
267.596	63.66
267.812	80.04
268.028	61.61
268.244	65.71
268.46	39.08
268.676	14.51
268.892	14.51
269.108	45.23
269.324	-3.93
269.54	-51.03
269.756	110.76
269.972	2.22
270.188	55.47
270.403	-22.36
270.619	26.79
270.835	22.7
271.051	22.7
271.267	18.6
271.483	39.08
271.698	94.38
271.914	96.43
272.13	-5.97
272.346	-30.55
272.562	41.13
272.777	39.08
272.993	10.41
273.209	12.46
273.425	10.41
273.64	69.8
273.856	28.84
274.072	22.7
274.287	59.56
274.503	10.41
274.719	18.6
274.934	0.17
275.15	53.42
275.366	10.41
275.581	6.31
275.797	28.84
276.012	2.22
276.228	55.47
276.444	88.23
276.659	16.55
276.875	4.27
277.09	63.66
277.306	47.27
277.521	-5.97
277.737	12.46
277.952	102.57
278.168	51.37
278.383	55.47
278.599	6.31
278.814	-1.88
279.03	-22.36
279.245	116.9
279.461	34.99
279.676	88.23
279.892	26.79
280.107	0.17
280.322	-3.93
280.538	53.42
280.753	-8.02
280.969	43.18
281.184	47.27
281.399	28.84
281.615	37.03
281.83	80.04
282.045	-26.45
282.26	24.75
282.476	102.57
282.691	84.14
282.906	4.27
283.122	88.23
283.337	20.65
283.552	63.66
283.767	-14.17
283.983	20.65
284.198	63.66
284.413	51.37
284.628	12.46
284.843	-10.07
285.058	65.71
285.274	-5.97
285.489	6.31
285.704	59.56
285.919	-20.31
286.134	-8.02
286.349	-10.07
286.564	84.14
286.779	80.04
286.995	41.13
287.21	22.7
287.425	18.6
287.64	-24.4
287.855	86.19
288.07	0.17
288.285	28.84
288.5	51.37
288.715	59.56
288.93	24.75
289.145	28.84
289.36	61.61
289.575	43.18
289.79	28.84
290.004	-65.36
290.219	84.14
290.434	45.23
290.649	4.27
290.864	-40.79
291.079	59.56
291.294	34.99
291.509	47.27
291.724	-22.36
291.938	32.94
292.153	65.71
292.368	12.46
292.583	71.85
292.798	118.95
293.012	22.7
293.227	73.9
293.442	65.71
293.657	51.37
293.871	67.75
294.086	-10.07
294.301	67.75
294.516	32.94
294.73	45.23
294.945	-8.02
295.16	-48.98
295.374	104.62
295.589	84.14
295.804	2.22
296.018	63.66
296.233	96.43
296.447	77.99
296.662	4.27
296.877	43.18
297.091	65.71
297.306	-32.6
297.52	69.8
297.735	49.32
297.949	32.94
298.164	61.61
298.378	57.51
298.593	8.36
298.807	20.65
299.022	-1.88
299.236	43.18
299.451	49.32
299.665	-1.88
299.88	55.47
300.094	67.75
300.309	16.55
300.523	43.18
300.737	63.66
300.952	55.47
301.166	61.61
301.381	12.46
301.595	12.46
301.809	69.8
302.024	100.52
302.238	51.37
302.452	84.14
302.667	77.99
302.881	22.7
303.095	30.89
303.309	-20.31
303.524	34.99
303.738	22.7
303.952	-3.93
304.166	96.43
304.381	-14.17
304.595	30.89
304.809	102.57
305.023	6.31
305.237	22.7
305.452	2.22
305.666	80.04
305.88	14.51
306.094	80.04
306.308	82.09
306.522	18.6
306.736	16.55
306.95	10.41
307.164	16.55
307.379	47.27
307.593	75.95
307.807	32.94
308.021	80.04
308.235	65.71
308.449	-3.93
308.663	61.61
308.877	178.34
309.091	16.55
309.305	8.36
309.519	-12.12
309.733	71.85
309.947	26.79
310.161	-18.26
310.374	32.94
310.588	96.43
310.802	10.41
311.016	20.65
311.23	53.42
311.444	0.17
311.658	63.66
311.872	102.57
312.085	39.08
312.299	53.42
312.513	137.38
312.727	69.8
312.941	73.9
313.154	4.27
313.368	69.8
313.582	37.03
313.796	102.57
314.009	86.19
314.223	53.42
314.437	4.27
314.651	86.19
314.864	157.86
315.078	-3.93
315.292	28.84
315.505	16.55
315.719	-1.88
315.933	-20.31
316.146	41.13
316.36	28.84
316.573	39.08
316.787	133.29
317.001	30.89
317.214	28.84
317.428	94.38
317.641	14.51
317.855	10.41
318.068	100.52
318.282	22.7
318.495	102.57
318.709	77.99
318.922	67.75
319.136	-14.17
319.349	-1.88
319.563	39.08
319.776	125.1
319.99	0.17
320.203	59.56
320.417	26.79
320.63	41.13
320.843	94.38
321.057	96.43
321.27	22.7
321.483	14.51
321.697	47.27
321.91	112.81
322.124	75.95
322.337	14.51
322.55	51.37
322.763	22.7
322.977	49.32
323.19	30.89
323.403	-18.26
323.617	69.8
323.83	94.38
324.043	30.89
324.256	6.31
324.469	47.27
324.683	94.38
324.896	55.47
325.109	-1.88
325.322	-16.21
325.535	112.81
325.748	0.17
325.962	-36.69
326.175	110.76
326.388	92.33
326.601	14.51
326.814	67.75
327.027	53.42
327.24	100.52
327.453	-61.27
327.666	108.71
327.879	127.14
328.092	69.8
328.305	39.08
328.518	22.7
328.731	-71.51
328.944	73.9
329.157	-18.26
329.37	77.99
329.583	30.89
329.796	28.84
330.009	2.22
330.222	47.27
330.435	-1.88
330.648	84.14
330.861	39.08
331.073	112.81
331.286	-34.64
331.499	55.47
331.712	26.79
331.925	61.61
332.138	71.85
332.35	59.56
332.563	18.6
332.776	37.03
332.989	-22.36
333.202	4.27
333.414	75.95
333.627	53.42
333.84	39.08
334.053	96.43
334.265	-18.26
334.478	-34.64
334.691	96.43
334.903	96.43
335.116	14.51
335.329	84.14
335.541	102.57
335.754	45.23
335.966	53.42
336.179	96.43
336.392	30.89
336.604	26.79
336.817	16.55
337.029	14.51
337.242	94.38
337.454	71.85
337.667	24.75
337.88	139.43
338.092	49.32
338.305	22.7
338.517	14.51
338.729	47.27
338.942	43.18
339.154	6.31
339.367	-36.69
339.579	57.51
339.792	10.41
340.004	88.23
340.217	-18.26
340.429	71.85
340.641	22.7
340.854	14.51
341.066	59.56
341.278	24.75
341.491	102.57
341.703	-1.88
341.915	0.17
342.128	63.66
342.34	-55.12
342.552	41.13
342.764	47.27
342.977	59.56
343.189	4.27
343.401	34.99
343.613	-42.84
343.826	26.79
344.038	53.42
344.25	67.75
344.462	14.51
344.674	22.7
344.886	14.51
345.099	34.99
345.311	69.8
345.523	39.08
345.735	12.46
345.947	18.6
346.159	45.23
346.371	30.89
346.583	123.05
346.795	90.28
347.007	-8.02
347.219	75.95
347.431	57.51
347.643	45.23
347.855	125.1
348.067	57.51
348.279	34.99
348.491	-20.31
348.703	10.41
348.915	67.75
349.127	10.41
349.339	88.23
349.551	-1.88
349.763	133.29
349.975	-48.98
350.187	77.99
350.399	34.99
350.61	18.6
350.822	53.42
351.034	0.17
351.246	20.65
351.458	61.61
351.669	26.79
351.881	96.43
352.093	39.08
352.305	133.29
352.517	63.66
352.728	39.08
352.94	16.55
353.152	34.99
353.363	16.55
353.575	47.27
353.787	45.23
353.999	75.95
354.21	49.32
354.422	6.31
354.633	24.75
354.845	39.08
355.057	8.36
355.268	30.89
355.48	88.23
355.692	41.13
355.903	30.89
356.115	-1.88
356.326	-18.26
356.538	104.62
356.749	47.27
356.961	69.8
357.172	-16.21
357.384	53.42
357.595	182.44
357.807	22.7
358.018	10.41
358.23	53.42
358.441	51.37
358.653	39.08
358.864	37.03
359.075	39.08
359.287	-32.6
359.498	186.54
359.709	57.51
359.921	-10.07
360.132	-38.74
360.344	0.17
360.555	-8.02
360.766	30.89
360.977	12.46
361.189	51.37
361.4	110.76
361.611	118.95
361.823	73.9
362.034	0.17
362.245	-32.6
362.456	-22.36
362.667	84.14
362.879	14.51
363.09	12.46
363.301	86.19
363.512	6.31
363.723	94.38
363.935	-32.6
364.146	14.51
364.357	45.23
364.568	43.18
364.779	-18.26
364.99	32.94
365.201	-1.88
365.412	88.23
365.623	-8.02
365.834	30.89
366.045	6.31
366.256	114.86
366.467	59.56
366.678	-22.36
366.889	41.13
367.1	123.05
367.311	26.79
367.522	61.61
367.733	47.27
367.944	6.31
368.155	106.67
368.366	30.89
368.577	43.18
368.788	77.99
368.999	102.57
369.209	57.51
369.42	174.25
369.631	96.43
369.842	59.56
370.053	110.76
370.264	100.52
370.474	30.89
370.685	51.37
370.896	133.29
371.107	108.71
371.317	104.62
371.528	-8.02
371.739	82.09
371.95	86.19
372.16	80.04
372.371	26.79
372.582	121
372.792	80.04
373.003	80.04
373.214	39.08
373.424	112.81
373.635	82.09
373.846	84.14
374.056	32.94
374.267	82.09
374.477	67.75
374.688	131.24
374.898	43.18
375.109	77.99
375.319	22.7
375.53	84.14
375.74	43.18
375.951	-10.07
376.161	71.85
376.372	131.24
376.582	22.7
376.793	94.38
377.003	55.47
377.214	-12.12
377.424	129.19
377.635	39.08
377.845	20.65
378.055	77.99
378.266	20.65
378.476	-20.31
378.686	-1.88
378.897	-1.88
379.107	96.43
379.317	55.47
379.528	32.94
379.738	114.86
379.948	6.31
380.158	75.95
380.369	82.09
380.579	53.42
380.789	55.47
380.999	49.32
381.21	114.86
381.42	174.25
381.63	80.04
381.84	39.08
382.05	43.18
382.261	18.6
382.471	51.37
382.681	71.85
382.891	84.14
383.101	112.81
383.311	90.28
383.521	67.75
383.731	106.67
383.941	129.19
384.151	-32.6
384.361	96.43
384.571	84.14
384.781	22.7
384.991	63.66
385.201	67.75
385.411	47.27
385.621	67.75
385.831	51.37
386.041	45.23
386.251	26.79
386.461	125.1
386.671	47.27
386.881	131.24
387.091	63.66
387.301	-1.88
387.511	106.67
387.72	121
387.93	96.43
388.14	63.66
388.35	92.33
388.56	82.09
388.769	94.38
388.979	8.36
389.189	34.99
389.399	77.99
389.609	102.57
389.818	121
390.028	-3.93
390.238	110.76
390.447	20.65
390.657	98.47
390.867	43.18
391.076	75.95
391.286	88.23
391.496	32.94
391.705	61.61
391.915	57.51
392.125	61.61
392.334	88.23
392.544	43.18
392.753	53.42
392.963	-5.97
393.172	86.19
393.382	34.99
393.591	131.24
393.801	22.7
394.01	178.34
394.22	65.71
394.429	61.61
394.639	166.06
394.848	92.33
395.058	71.85
395.267	59.56
395.477	145.58
395.686	65.71
395.895	108.71
396.105	143.53
396.314	114.86
396.524	-16.21
396.733	125.1
396.942	73.9
397.152	71.85
397.361	131.24
397.57	129.19
397.78	121
397.989	114.86
398.198	112.81
398.407	104.62
398.617	96.43
398.826	149.67
399.035	104.62
399.244	159.91
399.453	141.48
399.663	125.1
399.872	131.24
400.081	96.43
400.29	155.82
400.499	63.66
400.708	207.02
400.917	71.85
401.127	92.33
401.336	127.14
401.545	108.71
401.754	114.86
401.963	174.25
402.172	133.29
402.381	73.9
402.59	94.38
402.799	114.86
403.008	172.2
403.217	139.43
403.426	110.76
403.635	71.85
403.844	137.38
404.053	161.96
404.262	108.71
404.471	227.5
404.68	145.58
404.888	190.63
405.097	153.77
405.306	110.76
405.515	184.49
405.724	153.77
405.933	125.1
406.142	235.69
406.35	202.92
406.559	170.15
406.768	223.4
406.977	233.64
407.185	272.55
407.394	223.4
407.603	207.02
407.812	213.16
408.02	288.93
408.229	247.97
408.438	280.74
408.646	250.02
408.855	227.5
409.064	266.41
409.272	262.31
409.481	293.03
409.69	235.69
409.898	245.93
410.107	276.65
410.315	409.76
410.524	299.17
410.733	475.3
410.941	286.89
411.15	385.19
411.358	413.86
411.567	415.91
411.775	381.09
411.984	383.14
412.192	514.21
412.401	438.44
412.609	516.26
412.818	553.12
413.026	549.03
413.234	499.88
413.443	594.08
413.651	526.5
413.86	647.33
414.068	620.71
414.276	620.71
414.485	620.71
414.693	782.49
414.901	772.25
415.11	776.35
415.318	714.91
415.526	796.83
415.734	786.59
415.943	862.37
416.151	809.12
416.359	925.85
416.567	895.13
416.776	909.47
416.984	995.48
417.192	1083.55
417.4	1056.92
417.608	1099.93
417.817	1134.75
418.025	1108.12
418.233	1247.38
418.441	1257.62
418.649	1347.73
418.857	1394.84
419.065	1423.51
419.273	1323.16
419.481	1386.65
419.689	1513.62
419.897	1513.62
420.105	1620.11
420.313	1677.46
420.521	1706.13
420.729	1759.38
420.937	1759.38
421.145	1931.41
421.353	1964.17
421.561	2080.91
421.769	2123.91
421.977	2234.5
422.185	2177.16
422.393	2279.56
422.601	2363.53
422.809	2484.36
423.017	2281.61
423.224	2455.69
423.432	2781.31
423.64	2717.83
423.848	2963.58
424.056	2736.26
424.263	2842.75
424.471	3014.78
424.679	3020.92
424.887	3254.39
425.094	3299.45
425.302	3311.74
425.51	3473.53
425.718	3545.2
425.925	3608.69
426.133	3782.77
426.341	3905.65
426.548	4210.79
426.756	4022.38
426.964	4251.75
427.171	4409.45
427.379	4356.2
427.586	4618.34
427.794	4733.03
428.001	4892.77
428.209	5023.84
428.417	5036.13
428.624	5351.51
428.832	5584.98
429.039	5398.62
429.247	5369.94
429.454	6000.72
429.662	6088.78
429.869	5847.12
430.076	6252.62
430.284	6107.21
430.491	6527.05
430.699	6809.67
430.906	6787.14
431.114	6809.67
431.321	7114.81
431.528	7352.38
431.736	7784.5
431.943	8040.5
432.15	7764.02
432.358	7852.08
432.565	8204.33
432.772	8218.67
432.979	8720.42
433.187	8722.47
433.394	9082.91
433.601	9635.86
433.808	9558.04
434.016	9492.51
434.223	10000.4
434.43	10614.79
434.637	10549.26
434.844	11061.25
435.052	11208.7
435.259	11040.77
435.466	11292.67
435.673	11153.41
435.88	11767.8
436.087	12466.16
436.294	12425.2
436.501	12175.34
436.708	12322.8
436.915	12904.42
437.122	13258.72
437.329	13240.29
437.537	13639.64
437.743	14116.82
437.95	13739.99
438.157	14606.28
438.364	15042.5
438.571	15026.12
438.778	15026.12
438.985	16502.7
439.192	15800.25
439.399	16545.71
439.606	15851.45
439.813	16934.82
440.02	17747.87
440.227	17616.8
440.433	17295.27
440.64	18270.1
440.847	17790.88
441.054	18493.33
441.261	19576.7
441.467	19146.63
441.674	19801.98
441.881	20438.9
442.088	20332.4
442.294	20049.78
442.501	20641.65
442.708	20916.08
442.914	21815.13
443.121	23086.92
443.328	22007.64
443.534	23816
443.741	22888.27
443.948	22929.23
444.154	24362.81
444.361	24160.06
444.568	24385.33
444.774	24614.71
444.981	24672.05
445.187	25286.44
445.394	26531.61
445.6	26222.36
445.807	28602.1
446.013	27614.98
446.22	28131.07
446.426	28876.53
446.633	29474.54
446.839	29933.28
447.046	28593.91
447.252	30674.65
447.459	30779.09
447.665	30469.85
447.871	31649.48
448.078	32773.81
448.284	31248.08
448.491	32421.56
448.697	33638.06
448.903	34035.36
449.11	33664.68
449.316	33660.59
449.522	34299.55
449.728	34897.56
449.935	35464.85
450.141	35145.36
450.347	36171.39
450.553	34836.12
450.76	35178.13
450.966	36865.66
451.172	36341.38
451.378	36800.12
451.584	35968.65
451.791	36699.77
451.997	36839.03
452.203	37224.05
452.409	37301.87
452.615	36961.91
452.821	35651.21
453.027	35319.44
453.233	37402.22
453.44	35704.46
453.646	36058.76
453.852	36322.94
454.058	36628.09
454.264	35292.82
454.47	36304.51
454.676	35145.36
454.882	36527.74
455.088	33406.64
455.294	33939.11
455.5	34168.48
455.705	34578.08
455.911	33152.69
456.117	32636.6
456.323	32138.94
456.529	30582.49
456.735	31923.91
456.941	30654.17
457.147	30111.46
457.352	29609.7
457.558	29030.13
457.764	29044.46
457.97	28376.83
458.176	27916.03
458.381	28153.6
458.587	26502.93
458.793	26326.81
458.999	25196.33
459.204	26781.46
459.41	26367.77
459.616	24473.4
459.821	24729.39
460.027	24393.53
460.233	24115
460.438	22968.14
460.644	22779.73
460.85	22005.59
461.055	21757.79
461.261	21585.76
461.466	20092.79
461.672	19357.57
461.878	20721.52
462.083	19279.75
462.289	19054.47
462.494	19199.88
462.7	18163.61
462.905	17776.54
463.111	18284.44
463.316	18116.5
463.522	18096.02
463.727	17876.89
463.932	17799.07
464.138	17799.07
464.343	17969.05
464.549	17332.13
464.754	17893.27
464.959	17749.92
465.165	17641.37
465.37	16656.3
465.575	16357.3
465.781	16928.68
465.986	17108.9
466.191	16189.36
466.397	16056.25
466.602	15394.75
466.807	15972.28
467.012	15949.75
467.218	15857.59
