Data from USB4F104151__289__10-42-22-355.txt Node

Date: Wed Mar 12 10:42:22 EDT 2025
User: louis
Spectrometer: USB4F10415
Trigger mode: 4
Integration Time (sec): 3.000000E-2
Scans to average: 1
Electric dark correction enabled: true
Nonlinearity correction enabled: false
Boxcar width: 0
XAxis mode: Wavelengths
Number of Pixels in Spectrum: 3648
>>>>>Begin Spectral Data<<<<<
178.204	-84.31
178.424	-84.31
178.644	-84.31
178.864	-98.64
179.084	-129.36
179.304	-53.59
179.524	26.28
179.744	52.91
179.964	-10.58
180.184	52.91
180.404	-49.49
180.624	-90.45
180.844	16.04
181.064	1.71
181.283	-39.25
181.503	11.95
181.723	81.58
181.943	-41.3
182.163	1.71
182.383	16.04
182.602	50.86
182.822	5.8
183.042	13.99
183.262	-22.87
183.482	42.67
183.701	67.24
183.921	-22.87
184.141	50.86
184.361	-8.53
184.58	-8.53
184.8	-22.87
185.02	7.85
185.239	65.19
185.459	52.91
185.679	28.33
185.898	7.85
186.118	57
186.338	-2.39
186.557	28.33
186.777	91.82
186.997	-59.73
187.216	38.57
187.436	75.43
187.655	30.38
187.875	3.75
188.095	-57.68
188.314	120.49
188.534	46.76
188.753	52.91
188.973	48.81
189.192	100.01
189.412	1.71
189.631	-18.77
189.851	-104.79
190.07	28.33
190.29	32.43
190.509	44.71
190.729	-18.77
190.948	57
191.168	153.26
191.387	26.28
191.607	9.9
191.826	-18.77
192.045	7.85
192.265	46.76
192.484	28.33
192.704	75.43
192.923	-82.26
193.142	97.96
193.362	46.76
193.581	54.95
193.8	89.77
194.02	79.53
194.239	40.62
194.458	9.9
194.678	-39.25
194.897	34.47
195.116	3.75
195.335	93.87
195.555	110.25
195.774	-12.63
195.993	28.33
196.212	9.9
196.432	57
196.651	69.29
196.87	-4.44
197.089	13.99
197.308	97.96
197.528	54.95
197.747	-4.44
197.966	28.33
198.185	89.77
198.404	40.62
198.623	38.57
198.842	38.57
199.062	65.19
199.281	5.8
199.5	16.04
199.719	-31.06
199.938	28.33
200.157	44.71
200.376	16.04
200.595	46.76
200.814	30.38
201.033	85.67
201.252	93.87
201.471	77.48
201.69	-14.68
201.909	13.99
202.128	-22.87
202.347	48.81
202.566	5.8
202.785	38.57
203.004	16.04
203.223	116.39
203.442	16.04
203.661	91.82
203.879	48.81
204.098	-26.96
204.317	1.71
204.536	52.91
204.755	77.48
204.974	30.38
205.193	22.19
205.411	77.48
205.63	40.62
205.849	1.71
206.068	183.98
206.287	-18.77
206.505	13.99
206.724	71.34
206.943	11.95
207.162	67.24
207.381	-24.92
207.599	59.05
207.818	71.34
208.037	-20.82
208.255	61.1
208.474	-33.11
208.693	42.67
208.911	-10.58
209.13	89.77
209.349	-0.34
209.567	42.67
209.786	65.19
210.005	106.15
210.223	16.04
210.442	-2.39
210.661	18.09
210.879	-37.2
211.098	18.09
211.316	3.75
211.535	44.71
211.753	71.34
211.972	38.57
212.191	13.99
212.409	7.85
212.628	57
212.846	-22.87
213.065	-12.63
213.283	63.15
213.502	16.04
213.72	16.04
213.938	-47.44
214.157	-37.2
214.375	40.62
214.594	24.23
214.812	5.8
215.031	57
215.249	36.52
215.467	73.39
215.686	38.57
215.904	163.5
216.122	-33.11
216.341	67.24
216.559	16.04
216.778	32.43
216.996	93.87
217.214	-14.68
217.432	-0.34
217.651	1.71
217.869	24.23
218.087	48.81
218.306	-33.11
218.524	77.48
218.742	57
218.96	34.47
219.179	-24.92
219.397	48.81
219.615	46.76
219.833	122.54
220.051	30.38
220.27	120.49
220.488	9.9
220.706	9.9
220.924	-10.58
221.142	46.76
221.36	61.1
221.578	38.57
221.796	32.43
222.015	-10.58
222.233	77.48
222.451	97.96
222.669	54.95
222.887	67.24
223.105	24.23
223.323	-24.92
223.541	-53.59
223.759	71.34
223.977	85.67
224.195	89.77
224.413	87.72
224.631	32.43
224.849	52.91
225.067	110.25
225.285	22.19
225.503	67.24
225.721	-45.4
225.939	61.1
226.157	-2.39
226.375	100.01
226.592	52.91
226.81	-4.44
227.028	42.67
227.246	87.72
227.464	-2.39
227.682	50.86
227.9	87.72
228.117	42.67
228.335	59.05
228.553	36.52
228.771	59.05
228.989	26.28
229.206	50.86
229.424	-86.36
229.642	-51.54
229.86	71.34
230.077	13.99
230.295	24.23
230.513	22.19
230.731	-12.63
230.948	95.91
231.166	130.73
231.384	-14.68
231.601	73.39
231.819	54.95
232.037	3.75
232.254	-49.49
232.472	38.57
232.689	57
232.907	-2.39
233.125	-4.44
233.342	11.95
233.56	-0.34
233.777	40.62
233.995	28.33
234.213	73.39
234.43	-29.01
234.648	46.76
234.865	26.28
235.083	32.43
235.3	61.1
235.518	-16.73
235.735	48.81
235.953	75.43
236.17	48.81
236.388	-49.49
236.605	54.95
236.822	46.76
237.04	32.43
237.257	79.53
237.475	-39.25
237.692	-14.68
237.909	40.62
238.127	50.86
238.344	61.1
238.562	79.53
238.779	-61.78
238.996	-22.87
239.214	52.91
239.431	46.76
239.648	-6.49
239.865	13.99
240.083	34.47
240.3	-0.34
240.517	-33.11
240.735	-10.58
240.952	40.62
241.169	40.62
241.386	106.15
241.603	-24.92
241.821	-61.78
242.038	54.95
242.255	32.43
242.472	-10.58
242.689	32.43
242.907	40.62
243.124	89.77
243.341	126.63
243.558	114.34
243.775	48.81
243.992	-18.77
244.209	38.57
244.426	52.91
244.643	79.53
244.86	16.04
245.078	-4.44
245.295	71.34
245.512	-18.77
245.729	-55.64
245.946	93.87
246.163	79.53
246.38	32.43
246.597	91.82
246.814	-2.39
247.031	-4.44
247.248	13.99
247.464	7.85
247.681	-31.06
247.898	11.95
248.115	54.95
248.332	-43.35
248.549	44.71
248.766	95.91
248.983	118.44
249.2	16.04
249.417	28.33
249.633	61.1
249.85	81.58
250.067	40.62
250.284	3.75
250.501	24.23
250.717	79.53
250.934	22.19
251.151	102.06
251.368	40.62
251.585	34.47
251.801	32.43
252.018	83.63
252.235	89.77
252.451	-4.44
252.668	34.47
252.885	11.95
253.102	42.67
253.318	24.23
253.535	11.95
253.752	52.91
253.968	126.63
254.185	50.86
254.401	87.72
254.618	48.81
254.835	7.85
255.051	81.58
255.268	65.19
255.484	81.58
255.701	40.62
255.917	100.01
256.134	36.52
256.351	13.99
256.567	48.81
256.784	48.81
257	-10.58
257.217	71.34
257.433	16.04
257.65	46.76
257.866	11.95
258.082	63.15
258.299	-59.73
258.515	30.38
258.732	22.19
258.948	20.14
259.165	30.38
259.381	-2.39
259.597	108.2
259.814	5.8
260.03	40.62
260.246	71.34
260.463	36.52
260.679	44.71
260.895	102.06
261.112	-6.49
261.328	-37.2
261.544	5.8
261.761	183.98
261.977	28.33
262.193	36.52
262.409	18.09
262.626	26.28
262.842	114.34
263.058	52.91
263.274	81.58
263.49	36.52
263.707	54.95
263.923	110.25
264.139	-14.68
264.355	71.34
264.571	91.82
264.787	-45.4
265.004	75.43
265.22	75.43
265.436	32.43
265.652	-18.77
265.868	75.43
266.084	-59.73
266.3	65.19
266.516	24.23
266.732	9.9
266.948	52.91
267.164	5.8
267.38	46.76
267.596	34.47
267.812	40.62
268.028	7.85
268.244	1.71
268.46	67.24
268.676	36.52
268.892	77.48
269.108	-0.34
269.324	28.33
269.54	-20.82
269.756	44.71
269.972	63.15
270.188	7.85
270.403	-12.63
270.619	-26.96
270.835	3.75
271.051	75.43
271.267	93.87
271.483	143.02
271.698	73.39
271.914	81.58
272.13	52.91
272.346	87.72
272.562	-41.3
272.777	122.54
272.993	40.62
273.209	30.38
273.425	97.96
273.64	-4.44
273.856	102.06
274.072	69.29
274.287	-43.35
274.503	-10.58
274.719	-4.44
274.934	61.1
275.15	-10.58
275.366	16.04
275.581	20.14
275.797	50.86
276.012	-8.53
276.228	-2.39
276.444	73.39
276.659	61.1
276.875	-37.2
277.09	34.47
277.306	81.58
277.521	-31.06
277.737	36.52
277.952	13.99
278.168	79.53
278.383	18.09
278.599	-78.16
278.814	63.15
279.03	114.34
279.245	93.87
279.461	46.76
279.676	61.1
279.892	40.62
280.107	3.75
280.322	-10.58
280.538	-20.82
280.753	-18.77
280.969	-4.44
281.184	13.99
281.399	104.11
281.615	5.8
281.83	75.43
282.045	5.8
282.26	57
282.476	59.05
282.691	63.15
282.906	-0.34
283.122	1.71
283.337	13.99
283.552	63.15
283.767	18.09
283.983	67.24
284.198	-35.16
284.413	16.04
284.628	9.9
284.843	3.75
285.058	-4.44
285.274	134.82
285.489	-20.82
285.704	-2.39
285.919	-8.53
286.134	-2.39
286.349	-0.34
286.564	57
286.779	85.67
286.995	57
287.21	-8.53
287.425	42.67
287.64	36.52
287.855	42.67
288.07	44.71
288.285	81.58
288.5	63.15
288.715	104.11
288.93	30.38
289.145	7.85
289.36	73.39
289.575	46.76
289.79	97.96
290.004	89.77
290.219	116.39
290.434	52.91
290.649	-2.39
290.864	57
291.079	-43.35
291.294	30.38
291.509	22.19
291.724	36.52
291.938	69.29
292.153	-16.73
292.368	24.23
292.583	71.34
292.798	30.38
293.012	38.57
293.227	38.57
293.442	24.23
293.657	44.71
293.871	13.99
294.086	30.38
294.301	102.06
294.516	40.62
294.73	32.43
294.945	7.85
295.16	57
295.374	24.23
295.589	-35.16
295.804	7.85
296.018	32.43
296.233	132.78
296.447	11.95
296.662	11.95
296.877	28.33
297.091	26.28
297.306	-29.01
297.52	89.77
297.735	50.86
297.949	54.95
298.164	7.85
298.378	104.11
298.593	20.14
298.807	1.71
299.022	59.05
299.236	50.86
299.451	36.52
299.665	52.91
299.88	40.62
300.094	18.09
300.309	42.67
300.523	5.8
300.737	85.67
300.952	-31.06
301.166	-35.16
301.381	-24.92
301.595	13.99
301.809	91.82
302.024	112.3
302.238	-22.87
302.452	108.2
302.667	50.86
302.881	77.48
303.095	-6.49
303.309	28.33
303.524	-14.68
303.738	11.95
303.952	30.38
304.166	46.76
304.381	30.38
304.595	5.8
304.809	87.72
305.023	9.9
305.237	63.15
305.452	69.29
305.666	-18.77
305.88	81.58
306.094	59.05
306.308	65.19
306.522	65.19
306.736	11.95
306.95	-0.34
307.164	9.9
307.379	22.19
307.593	59.05
307.807	118.44
308.021	40.62
308.235	22.19
308.449	24.23
308.663	71.34
308.877	59.05
309.091	48.81
309.305	20.14
309.519	73.39
309.733	128.68
309.947	-16.73
310.161	79.53
310.374	93.87
310.588	-24.92
310.802	32.43
311.016	163.5
311.23	114.34
311.444	7.85
311.658	52.91
311.872	73.39
312.085	61.1
312.299	28.33
312.513	22.19
312.727	36.52
312.941	11.95
313.154	24.23
313.368	-26.96
313.582	-0.34
313.796	138.92
314.009	16.04
314.223	13.99
314.437	28.33
314.651	95.91
314.864	-26.96
315.078	87.72
315.292	50.86
315.505	-45.4
315.719	87.72
315.933	106.15
316.146	1.71
316.36	57
316.573	134.82
316.787	24.23
317.001	40.62
317.214	63.15
317.428	-14.68
317.641	-8.53
317.855	13.99
318.068	69.29
318.282	42.67
318.495	93.87
318.709	61.1
318.922	40.62
319.136	50.86
319.349	9.9
319.563	44.71
319.776	7.85
319.99	-29.01
320.203	75.43
320.417	114.34
320.63	112.3
320.843	110.25
321.057	-67.92
321.27	77.48
321.483	89.77
321.697	124.58
321.91	1.71
322.124	102.06
322.337	65.19
322.55	36.52
322.763	67.24
322.977	7.85
323.19	36.52
323.403	65.19
323.617	36.52
323.83	32.43
324.043	5.8
324.256	34.47
324.469	71.34
324.683	73.39
324.896	73.39
325.109	28.33
325.322	69.29
325.535	77.48
325.748	-0.34
325.962	30.38
326.175	118.44
326.388	134.82
326.601	46.76
326.814	30.38
327.027	5.8
327.24	112.3
327.453	-43.35
327.666	95.91
327.879	77.48
328.092	38.57
328.305	24.23
328.518	26.28
328.731	48.81
328.944	116.39
329.157	155.3
329.37	52.91
329.583	65.19
329.796	20.14
330.009	3.75
330.222	36.52
330.435	52.91
330.648	54.95
330.861	26.28
331.073	50.86
331.286	79.53
331.499	91.82
331.712	57
331.925	104.11
332.138	48.81
332.35	38.57
332.563	48.81
332.776	122.54
332.989	-2.39
333.202	104.11
333.414	44.71
333.627	61.1
333.84	61.1
334.053	73.39
334.265	22.19
334.478	52.91
334.691	16.04
334.903	44.71
335.116	22.19
335.329	85.67
335.541	85.67
335.754	69.29
335.966	48.81
336.179	57
336.392	95.91
336.604	11.95
336.817	93.87
337.029	67.24
337.242	-4.44
337.454	126.63
337.667	-0.34
337.88	77.48
338.092	40.62
338.305	7.85
338.517	-0.34
338.729	140.97
338.942	50.86
339.154	20.14
339.367	69.29
339.579	81.58
339.792	-31.06
340.004	50.86
340.217	9.9
340.429	65.19
340.641	57
340.854	-94.55
341.066	-29.01
341.278	116.39
341.491	91.82
341.703	22.19
341.915	65.19
342.128	143.02
342.34	24.23
342.552	54.95
342.764	18.09
342.977	18.09
343.189	75.43
343.401	-10.58
343.613	52.91
343.826	28.33
344.038	18.09
344.25	-49.49
344.462	65.19
344.674	18.09
344.886	-14.68
345.099	16.04
345.311	132.78
345.523	-4.44
345.735	-18.77
345.947	65.19
346.159	42.67
346.371	59.05
346.583	81.58
346.795	102.06
347.007	120.49
347.219	59.05
347.431	7.85
347.643	122.54
347.855	73.39
348.067	71.34
348.279	-57.68
348.491	28.33
348.703	79.53
348.915	79.53
349.127	32.43
349.339	-35.16
349.551	-26.96
349.763	143.02
349.975	65.19
350.187	26.28
350.399	71.34
350.61	67.24
350.822	42.67
351.034	120.49
351.246	50.86
351.458	69.29
351.669	104.11
351.881	-4.44
352.093	48.81
352.305	50.86
352.517	65.19
352.728	163.5
352.94	52.91
353.152	30.38
353.363	22.19
353.575	24.23
353.787	136.87
353.999	54.95
354.21	91.82
354.422	89.77
354.633	-8.53
354.845	95.91
355.057	93.87
355.268	102.06
355.48	50.86
355.692	48.81
355.903	54.95
356.115	-57.68
356.326	71.34
356.538	95.91
356.749	48.81
356.961	61.1
357.172	52.91
357.384	-2.39
357.595	132.78
357.807	65.19
358.018	52.91
358.23	24.23
358.441	44.71
358.653	34.47
358.864	81.58
359.075	30.38
359.287	44.71
359.498	73.39
359.709	95.91
359.921	30.38
360.132	95.91
360.344	110.25
360.555	36.52
360.766	100.01
360.977	32.43
361.189	67.24
361.4	38.57
361.611	114.34
361.823	71.34
362.034	81.58
362.245	59.05
362.456	44.71
362.667	-24.92
362.879	-53.59
363.09	-2.39
363.301	69.29
363.512	36.52
363.723	-4.44
363.935	1.71
364.146	57
364.357	36.52
364.568	16.04
364.779	22.19
364.99	16.04
365.201	22.19
365.412	81.58
365.623	38.57
365.834	124.58
366.045	32.43
366.256	79.53
366.467	77.48
366.678	85.67
366.889	11.95
367.1	91.82
367.311	52.91
367.522	16.04
367.733	42.67
367.944	91.82
368.155	22.19
368.366	36.52
368.577	132.78
368.788	36.52
368.999	40.62
369.209	5.8
369.42	130.73
369.631	63.15
369.842	73.39
370.053	89.77
370.264	-4.44
370.474	-16.73
370.685	79.53
370.896	93.87
371.107	73.39
371.317	81.58
371.528	13.99
371.739	87.72
371.95	13.99
372.16	79.53
372.371	95.91
372.582	61.1
372.792	114.34
373.003	69.29
373.214	40.62
373.424	22.19
373.635	61.1
373.846	89.77
374.056	36.52
374.267	108.2
374.477	89.77
374.688	-14.68
374.898	134.82
375.109	130.73
375.319	87.72
375.53	81.58
375.74	57
375.951	91.82
376.161	-31.06
376.372	83.63
376.582	30.38
376.793	69.29
377.003	-33.11
377.214	75.43
377.424	67.24
377.635	61.1
377.845	32.43
378.055	48.81
378.266	32.43
378.476	102.06
378.686	57
378.897	112.3
379.107	65.19
379.317	120.49
379.528	52.91
379.738	136.87
379.948	-8.53
380.158	112.3
380.369	22.19
380.579	77.48
380.789	22.19
380.999	50.86
381.21	77.48
381.42	67.24
381.63	91.82
381.84	61.1
382.05	114.34
382.261	95.91
382.471	108.2
382.681	48.81
382.891	106.15
383.101	79.53
383.311	24.23
383.521	-6.49
383.731	71.34
383.941	52.91
384.151	69.29
384.361	97.96
384.571	95.91
384.781	71.34
384.991	112.3
385.201	48.81
385.411	57
385.621	108.2
385.831	77.48
386.041	-12.63
386.251	-14.68
386.461	138.92
386.671	13.99
386.881	61.1
387.091	3.75
387.301	116.39
387.511	81.58
387.72	40.62
387.93	104.11
388.14	-0.34
388.35	136.87
388.56	100.01
388.769	130.73
388.979	48.81
389.189	26.28
389.399	22.19
389.609	83.63
389.818	179.88
390.028	-37.2
390.238	87.72
390.447	59.05
390.657	175.78
390.867	77.48
391.076	87.72
391.286	57
391.496	-2.39
391.705	108.2
391.915	153.26
392.125	73.39
392.334	3.75
392.544	102.06
392.753	30.38
392.963	145.06
393.172	50.86
393.382	83.63
393.591	171.69
393.801	118.44
394.01	97.96
394.22	134.82
394.429	87.72
394.639	61.1
394.848	110.25
395.058	118.44
395.267	54.95
395.477	151.21
395.686	36.52
395.895	93.87
396.105	155.3
396.314	114.34
396.524	143.02
396.733	106.15
396.942	145.06
397.152	130.73
397.361	126.63
397.57	151.21
397.78	116.39
397.989	67.24
398.198	202.41
398.407	171.69
398.617	128.68
398.826	179.88
399.035	75.43
399.244	120.49
399.453	63.15
399.663	167.59
399.872	153.26
400.081	159.4
400.29	188.07
400.499	153.26
400.708	124.58
400.917	69.29
401.127	159.4
401.336	65.19
401.545	157.35
401.754	136.87
401.963	106.15
402.172	202.41
402.381	183.98
402.59	120.49
402.799	237.22
403.008	181.93
403.217	169.64
403.426	145.06
403.635	204.46
403.844	171.69
404.053	145.06
404.262	157.35
404.471	204.46
404.68	192.17
404.888	194.22
405.097	147.11
405.306	177.83
405.515	241.32
405.724	212.65
405.933	165.54
406.142	235.18
406.35	204.46
406.559	302.76
406.768	214.7
406.977	245.41
407.185	278.18
407.394	286.37
407.603	212.65
407.812	308.9
408.02	327.33
408.229	261.8
408.438	351.91
408.646	302.76
408.855	290.47
409.064	286.37
409.272	347.81
409.481	433.83
409.69	360.1
409.898	476.84
410.107	396.96
410.315	411.3
410.524	382.63
410.733	399.01
410.941	368.29
411.15	489.12
411.358	437.92
411.567	478.88
411.775	540.32
411.984	540.32
412.192	560.8
412.401	515.75
412.609	528.03
412.818	632.48
413.026	605.86
413.234	655.01
413.443	589.47
413.651	724.64
413.86	691.87
414.068	775.84
414.276	859.81
414.485	736.93
414.693	859.81
414.901	900.76
415.11	845.47
415.318	857.76
415.526	990.88
415.734	1017.5
415.943	1085.08
416.151	1062.55
416.359	1066.65
416.567	1128.09
416.776	1216.15
416.984	1265.3
417.192	1293.97
417.4	1263.26
417.608	1304.21
417.817	1289.88
418.025	1373.85
418.233	1515.16
418.441	1375.89
418.649	1531.54
418.857	1625.75
419.065	1625.75
419.273	1734.29
419.481	1719.95
419.689	1810.06
419.897	1912.46
420.105	1951.37
420.313	2043.53
420.521	2025.1
420.729	2156.17
420.937	2197.13
421.145	2354.82
421.353	2358.92
421.561	2508.42
421.769	2506.37
421.977	2653.83
422.185	2662.02
422.393	2758.27
422.601	2979.45
422.809	3128.95
423.017	3090.04
423.224	3139.19
423.432	3253.88
423.64	3251.83
423.848	3538.55
424.056	3368.57
424.263	3706.48
424.471	3718.77
424.679	3710.58
424.887	4089.45
425.094	4234.86
425.302	4132.46
425.51	4238.95
425.718	4468.33
425.925	4466.28
426.133	4658.79
426.341	5013.09
426.548	5119.58
426.756	5140.06
426.964	5191.26
427.171	5426.78
427.379	5551.7
427.586	5717.59
427.794	5891.66
428.001	6270.54
428.209	6350.41
428.417	6256.2
428.624	6778.44
428.832	6813.25
429.039	6841.92
429.247	6749.76
429.454	7339.58
429.662	7904.82
429.869	7335.48
430.076	7880.24
430.284	7783.99
430.491	8087.09
430.699	8652.33
430.906	8703.53
431.114	8752.68
431.321	8814.12
431.528	9039.39
431.736	9479.71
431.943	10092.05
432.15	9926.16
432.358	10153.49
432.565	10493.45
432.772	10548.75
432.979	11095.55
433.187	10980.87
433.394	11269.63
433.601	12011
433.808	11963.89
434.016	11787.77
434.223	12383.73
434.43	13172.19
434.637	12871.14
434.844	13698.52
435.052	14085.59
435.259	13813.21
435.466	14136.79
435.673	13909.46
435.88	14908.87
436.087	15553.98
436.294	15668.67
436.501	15300.03
436.708	15472.06
436.915	16094.65
437.122	16833.96
437.329	16823.72
437.537	17259.94
437.743	17704.35
437.95	17481.12
438.157	18320.79
438.364	19172.74
438.571	18548.11
438.778	19002.76
438.985	20845.93
439.192	20059.51
439.399	20743.53
439.606	20290.93
439.813	21024.11
440.02	22762.83
440.227	22248.79
440.433	22087
440.64	22703.44
440.847	22537.55
441.054	23309.64
441.261	24909.1
441.467	24249.66
441.674	24827.18
441.881	25703.71
442.088	25838.88
442.294	25355.56
442.501	26369.3
442.708	26875.15
442.914	27809.03
443.121	28763.38
443.328	28101.89
443.534	30092.51
443.741	29230.32
443.948	28957.94
444.154	31024.34
444.361	30610.65
444.568	31259.85
444.774	31192.27
444.981	31212.75
445.187	32208.06
445.394	33608.87
445.6	33047.73
445.807	36465.79
446.013	34995.35
446.22	35486.86
446.426	36981.88
446.633	36949.11
446.839	38181.99
447.046	36836.47
447.252	39052.37
447.459	38773.85
447.665	38401.12
447.871	40473.67
448.078	41831.47
448.284	39685.2
448.491	40901.69
448.697	42404.9
448.903	43170.84
449.11	43521.04
449.316	42507.3
449.522	43168.79
449.728	44538.88
449.935	44846.08
450.141	44459.01
450.347	45536.24
450.553	43996.17
450.76	44704.77
450.966	45870.06
451.172	45706.23
451.378	46474.21
451.584	45439.99
451.791	46523.36
451.997	46345.19
452.203	47358.94
452.409	47016.93
452.615	47076.32
452.821	45339.64
453.027	44780.54
453.233	47217.63
453.44	45200.38
453.646	45499.38
453.852	45921.26
454.058	46328.81
454.264	45222.9
454.47	46263.27
454.676	44639.23
454.882	46310.38
455.088	42517.54
455.294	42738.72
455.5	43729.94
455.705	43844.62
455.911	41892.91
456.117	41110.58
456.323	40897.59
456.529	38644.83
456.735	40010.82
456.941	39019.61
457.147	38308.96
457.352	37287.03
457.558	36539.52
457.764	36750.46
457.97	36162.69
458.176	35202.19
458.381	35450
458.587	33709.22
458.793	33447.08
458.999	31753.41
459.204	34112.67
459.41	33420.46
459.616	31134.93
459.821	31028.43
460.027	30969.04
460.233	30389.47
460.438	28851.44
460.644	29244.65
460.85	27667.72
461.055	27643.14
461.261	27501.83
461.466	25345.32
461.672	24653.11
461.878	26440.98
462.083	24571.19
462.289	24210.75
462.494	24018.24
462.7	23010.64
462.905	22443.35
463.111	23199.05
463.316	22883.66
463.522	22371.67
463.727	22605.14
463.932	22392.15
464.138	22508.88
464.343	22646.1
464.549	22029.66
464.754	22607.19
464.959	22486.36
465.165	22060.38
465.37	21566.82
465.575	20964.71
465.781	21587.3
465.986	21691.74
466.191	21083.5
466.397	20628.85
466.602	19705.21
466.807	20313.46
467.012	20364.66
