Data from USB4F104151__152__10-26-59-362.txt Node

Date: Wed Mar 12 10:26:59 EDT 2025
User: louis
Spectrometer: USB4F10415
Trigger mode: 4
Integration Time (sec): 3.000000E-2
Scans to average: 1
Electric dark correction enabled: true
Nonlinearity correction enabled: false
Boxcar width: 0
XAxis mode: Wavelengths
Number of Pixels in Spectrum: 3648
>>>>>Begin Spectral Data<<<<<
178.204	-96.43
178.424	-96.43
178.644	-96.43
178.864	-123.05
179.084	-102.57
179.304	26.45
179.524	-12.46
179.744	8.02
179.964	36.69
180.184	1.88
180.404	-37.03
180.624	-75.95
180.844	14.17
181.064	1.88
181.283	1.88
181.503	14.17
181.723	20.31
181.943	-16.55
182.163	67.41
182.383	32.6
182.602	40.79
182.822	26.45
183.042	-16.55
183.262	3.93
183.482	5.97
183.701	-96.43
183.921	30.55
184.141	-10.41
184.361	44.88
184.58	-20.65
184.8	63.32
185.02	-18.6
185.239	46.93
185.459	-6.31
185.679	65.36
185.898	-20.65
186.118	18.26
186.338	-22.7
186.557	20.31
186.777	59.22
186.997	-51.37
187.216	-10.41
187.436	14.17
187.655	42.84
187.875	38.74
188.095	-12.46
188.314	102.23
188.534	-18.6
188.753	12.12
188.973	38.74
189.192	10.07
189.412	83.8
189.631	5.97
189.851	30.55
190.07	-51.37
190.29	-104.62
190.509	-14.51
190.729	-10.41
190.948	-45.23
191.168	153.43
191.387	59.22
191.607	-41.13
191.826	40.79
192.045	-41.13
192.265	22.36
192.484	65.36
192.704	32.6
192.923	-49.32
193.142	12.12
193.362	26.45
193.581	67.41
193.8	53.08
194.02	-49.32
194.239	1.88
194.458	10.07
194.678	8.02
194.897	18.26
195.116	-26.79
195.335	-30.89
195.555	8.02
195.774	24.4
195.993	-39.08
196.212	1.88
196.432	-86.19
196.651	53.08
196.87	28.5
197.089	65.36
197.308	26.45
197.528	38.74
197.747	-47.27
197.966	5.97
198.185	24.4
198.404	-6.31
198.623	30.55
198.842	-47.27
199.062	59.22
199.281	67.41
199.5	-14.51
199.719	-24.75
199.938	30.55
200.157	63.32
200.376	38.74
200.595	-20.65
200.814	91.99
201.033	40.79
201.252	53.08
201.471	-12.46
201.69	3.93
201.909	-6.31
202.128	-14.51
202.347	-10.41
202.566	-10.41
202.785	1.88
203.004	5.97
203.223	63.32
203.442	1.88
203.661	5.97
203.879	42.84
204.098	-4.27
204.317	8.02
204.536	36.69
204.755	34.64
204.974	59.22
205.193	36.69
205.411	73.56
205.63	-30.89
205.849	48.98
206.068	-30.89
206.287	16.21
206.505	38.74
206.724	44.88
206.943	24.4
207.162	-2.22
207.381	46.93
207.599	-86.19
207.818	30.55
208.037	3.93
208.255	-18.6
208.474	-18.6
208.693	-4.27
208.911	-63.66
209.13	20.31
209.349	42.84
209.567	-32.94
209.786	-6.31
210.005	40.79
210.223	14.17
210.442	8.02
210.661	42.84
210.879	10.07
211.098	28.5
211.316	12.12
211.535	24.4
211.753	-10.41
211.972	14.17
212.191	53.08
212.409	32.6
212.628	30.55
212.846	32.6
213.065	26.45
213.283	32.6
213.502	-57.51
213.72	-8.36
213.938	16.21
214.157	102.23
214.375	132.95
214.594	28.5
214.812	46.93
215.031	-26.79
215.249	42.84
215.467	-28.84
215.686	18.26
215.904	16.21
216.122	-0.17
216.341	-14.51
216.559	-51.37
216.778	30.55
216.996	10.07
217.214	-12.46
217.432	-104.62
217.651	10.07
217.869	-2.22
218.087	1.88
218.306	46.93
218.524	55.12
218.742	46.93
218.96	130.9
219.179	-6.31
219.397	3.93
219.615	71.51
219.833	34.64
220.051	10.07
220.27	34.64
220.488	24.4
220.706	14.17
220.924	-41.13
221.142	-49.32
221.36	28.5
221.578	36.69
221.796	20.31
222.015	12.12
222.233	75.6
222.451	75.6
222.669	16.21
222.887	75.6
223.105	-61.61
223.323	48.98
223.541	-6.31
223.759	71.51
223.977	-24.75
224.195	51.03
224.413	48.98
224.631	24.4
224.849	22.36
225.067	26.45
225.285	-26.79
225.503	-34.99
225.721	-47.27
225.939	42.84
226.157	24.4
226.375	122.71
226.592	3.93
226.81	-28.84
227.028	38.74
227.246	102.23
227.464	-59.56
227.682	106.32
227.9	67.41
228.117	22.36
228.335	-12.46
228.553	83.8
228.771	-14.51
228.989	51.03
229.206	53.08
229.424	-20.65
229.642	8.02
229.86	3.93
230.077	22.36
230.295	53.08
230.513	83.8
230.731	24.4
230.948	65.36
231.166	42.84
231.384	-47.27
231.601	1.88
231.819	53.08
232.037	-16.55
232.254	75.6
232.472	5.97
232.689	26.45
232.907	30.55
233.125	-0.17
233.342	-61.61
233.56	-32.94
233.777	-14.51
233.995	-34.99
234.213	34.64
234.43	26.45
234.648	-51.37
234.865	-37.03
235.083	44.88
235.3	18.26
235.518	-2.22
235.735	-2.22
235.953	79.7
236.17	-6.31
236.388	-18.6
236.605	22.36
236.822	53.08
237.04	38.74
237.257	24.4
237.475	-47.27
237.692	14.17
237.909	73.56
238.127	-6.31
238.344	-20.65
238.562	79.7
238.779	34.64
238.996	-24.75
239.214	-37.03
239.431	18.26
239.648	16.21
239.865	44.88
240.083	1.88
240.3	26.45
240.517	38.74
240.735	-53.42
240.952	-10.41
241.169	130.9
241.386	16.21
241.603	-18.6
241.821	-16.55
242.038	18.26
242.255	38.74
242.472	94.04
242.689	57.17
242.907	16.21
243.124	-65.71
243.341	14.17
243.558	26.45
243.775	-4.27
243.992	-41.13
244.209	34.64
244.426	24.4
244.643	87.89
244.86	10.07
245.078	16.21
245.295	-30.89
245.512	-18.6
245.729	14.17
245.946	81.75
246.163	-71.85
246.38	32.6
246.597	-43.18
246.814	14.17
247.031	3.93
247.248	18.26
247.464	5.97
247.681	-18.6
247.898	38.74
248.115	-16.55
248.332	34.64
248.549	28.5
248.766	51.03
248.983	34.64
249.2	30.55
249.417	34.64
249.633	-18.6
249.85	-65.71
250.067	18.26
250.284	18.26
250.501	51.03
250.717	61.27
250.934	5.97
251.151	-12.46
251.368	51.03
251.585	53.08
251.801	16.21
252.018	-8.36
252.235	12.12
252.451	-0.17
252.668	-18.6
252.885	65.36
253.102	71.51
253.318	34.64
253.535	-110.76
253.752	-34.99
253.968	-6.31
254.185	-14.51
254.401	-6.31
254.618	36.69
254.835	-18.6
255.051	38.74
255.268	30.55
255.484	-4.27
255.701	-8.36
255.917	40.79
256.134	1.88
256.351	-28.84
256.567	-16.55
256.784	42.84
257	-49.32
257.217	-24.75
257.433	-20.65
257.65	34.64
257.866	26.45
258.082	-34.99
258.299	-51.37
258.515	-39.08
258.732	18.26
258.948	10.07
259.165	10.07
259.381	-20.65
259.597	40.79
259.814	5.97
260.03	28.5
260.246	36.69
260.463	32.6
260.679	28.5
260.895	-53.42
261.112	-14.51
261.328	3.93
261.544	1.88
261.761	108.37
261.977	-10.41
262.193	10.07
262.409	-34.99
262.626	-4.27
262.842	-28.84
263.058	-30.89
263.274	85.84
263.49	24.4
263.707	10.07
263.923	26.45
264.139	26.45
264.355	18.26
264.571	5.97
264.787	-4.27
265.004	110.42
265.22	-2.22
265.436	22.36
265.652	-20.65
265.868	18.26
266.084	-16.55
266.3	34.64
266.516	-6.31
266.732	-34.99
266.948	-12.46
267.164	63.32
267.38	1.88
267.596	-30.89
267.812	48.98
268.028	48.98
268.244	-30.89
268.46	18.26
268.676	16.21
268.892	22.36
269.108	-30.89
269.324	-71.85
269.54	26.45
269.756	96.08
269.972	24.4
270.188	12.12
270.403	-22.7
270.619	-67.75
270.835	44.88
271.051	67.41
271.267	67.41
271.483	30.55
271.698	48.98
271.914	106.32
272.13	1.88
272.346	-8.36
272.562	48.98
272.777	59.22
272.993	81.75
273.209	-18.6
273.425	-16.55
273.64	24.4
273.856	46.93
274.072	24.4
274.287	22.36
274.503	24.4
274.719	20.31
274.934	32.6
275.15	-2.22
275.366	3.93
275.581	-53.42
275.797	91.99
276.012	26.45
276.228	26.45
276.444	30.55
276.659	30.55
276.875	-32.94
277.09	-20.65
277.306	26.45
277.521	-22.7
277.737	53.08
277.952	-0.17
278.168	-47.27
278.383	-6.31
278.599	1.88
278.814	28.5
279.03	67.41
279.245	75.6
279.461	-39.08
279.676	75.6
279.892	-12.46
280.107	5.97
280.322	-39.08
280.538	-22.7
280.753	-43.18
280.969	73.56
281.184	-75.95
281.399	71.51
281.615	18.26
281.83	-28.84
282.045	75.6
282.26	-26.79
282.476	-39.08
282.691	20.31
282.906	34.64
283.122	-6.31
283.337	1.88
283.552	-10.41
283.767	-57.51
283.983	-22.7
284.198	28.5
284.413	83.8
284.628	53.08
284.843	69.46
285.058	24.4
285.274	26.45
285.489	-4.27
285.704	-2.22
285.919	40.79
286.134	10.07
286.349	-49.32
286.564	5.97
286.779	46.93
286.995	40.79
287.21	-6.31
287.425	8.02
287.64	1.88
287.855	57.17
288.07	-14.51
288.285	30.55
288.5	75.6
288.715	116.56
288.93	32.6
289.145	-53.42
289.36	48.98
289.575	3.93
289.79	22.36
290.004	-0.17
290.219	71.51
290.434	-22.7
290.649	-18.6
290.864	14.17
291.079	10.07
291.294	22.36
291.509	-39.08
291.724	26.45
291.938	14.17
292.153	1.88
292.368	26.45
292.583	38.74
292.798	67.41
293.012	32.6
293.227	61.27
293.442	-16.55
293.657	20.31
293.871	1.88
294.086	8.02
294.301	-37.03
294.516	30.55
294.73	-28.84
294.945	-55.47
295.16	-49.32
295.374	-14.51
295.589	38.74
295.804	-16.55
296.018	-0.17
296.233	-10.41
296.447	53.08
296.662	-14.51
296.877	65.36
297.091	3.93
297.306	16.21
297.52	5.97
297.735	36.69
297.949	-24.75
298.164	44.88
298.378	48.98
298.593	26.45
298.807	-14.51
299.022	61.27
299.236	44.88
299.451	18.26
299.665	-24.75
299.88	14.17
300.094	-2.22
300.309	87.89
300.523	-2.22
300.737	20.31
300.952	18.26
301.166	-6.31
301.381	-0.17
301.595	-6.31
301.809	-8.36
302.024	3.93
302.238	10.07
302.452	57.17
302.667	36.69
302.881	100.18
303.095	32.6
303.309	-0.17
303.524	10.07
303.738	55.12
303.952	87.89
304.166	36.69
304.381	8.02
304.595	48.98
304.809	-2.22
305.023	-18.6
305.237	-55.47
305.452	-67.75
305.666	36.69
305.88	53.08
306.094	51.03
306.308	14.17
306.522	24.4
306.736	61.27
306.95	-4.27
307.164	-51.37
307.379	65.36
307.593	42.84
307.807	1.88
308.021	91.99
308.235	83.8
308.449	-14.51
308.663	20.31
308.877	53.08
309.091	-14.51
309.305	20.31
309.519	-8.36
309.733	-39.08
309.947	40.79
310.161	135
310.374	55.12
310.588	5.97
310.802	3.93
311.016	14.17
311.23	5.97
311.444	22.36
311.658	12.12
311.872	104.28
312.085	20.31
312.299	69.46
312.513	96.08
312.727	57.17
312.941	-22.7
313.154	32.6
313.368	114.52
313.582	112.47
313.796	53.08
314.009	22.36
314.223	100.18
314.437	65.36
314.651	-6.31
314.864	-6.31
315.078	8.02
315.292	-32.94
315.505	61.27
315.719	59.22
315.933	69.46
316.146	1.88
316.36	24.4
316.573	65.36
316.787	-22.7
317.001	63.32
317.214	8.02
317.428	18.26
317.641	-2.22
317.855	61.27
318.068	44.88
318.282	42.84
318.495	104.28
318.709	106.32
318.922	36.69
319.136	67.41
319.349	12.12
319.563	40.79
319.776	10.07
319.99	14.17
320.203	59.22
320.417	61.27
320.63	71.51
320.843	48.98
321.057	-4.27
321.27	-41.13
321.483	108.37
321.697	42.84
321.91	32.6
322.124	48.98
322.337	26.45
322.55	79.7
322.763	34.64
322.977	73.56
323.19	-73.9
323.403	34.64
323.617	46.93
323.83	28.5
324.043	-53.42
324.256	42.84
324.469	-24.75
324.683	32.6
324.896	-14.51
325.109	-22.7
325.322	-32.94
325.535	34.64
325.748	-6.31
325.962	-65.71
326.175	44.88
326.388	32.6
326.601	63.32
326.814	-14.51
327.027	20.31
327.24	38.74
327.453	36.69
327.666	124.76
327.879	-22.7
328.092	40.79
328.305	10.07
328.518	-80.04
328.731	8.02
328.944	-32.94
329.157	53.08
329.37	8.02
329.583	55.12
329.796	69.46
330.009	-49.32
330.222	83.8
330.435	55.12
330.648	42.84
330.861	18.26
331.073	-0.17
331.286	32.6
331.499	-57.51
331.712	-88.23
331.925	22.36
332.138	-28.84
332.35	149.33
332.563	14.17
332.776	55.12
332.989	-2.22
333.202	53.08
333.414	24.4
333.627	59.22
333.84	83.8
334.053	20.31
334.265	-16.55
334.478	26.45
334.691	67.41
334.903	128.85
335.116	-47.27
335.329	1.88
335.541	10.07
335.754	122.71
335.966	-80.04
336.179	20.31
336.392	40.79
336.604	-16.55
336.817	-14.51
337.029	53.08
337.242	59.22
337.454	38.74
337.667	65.36
337.88	40.79
338.092	71.51
338.305	55.12
338.517	-49.32
338.729	3.93
338.942	59.22
339.154	34.64
339.367	32.6
339.579	-4.27
339.792	-10.41
340.004	59.22
340.217	-16.55
340.429	44.88
340.641	42.84
340.854	10.07
341.066	14.17
341.278	61.27
341.491	75.6
341.703	24.4
341.915	22.36
342.128	91.99
342.34	51.03
342.552	30.55
342.764	-10.41
342.977	79.7
343.189	-14.51
343.401	10.07
343.613	-24.75
343.826	89.94
344.038	-45.23
344.25	51.03
344.462	1.88
344.674	44.88
344.886	38.74
345.099	24.4
345.311	18.26
345.523	65.36
345.735	30.55
345.947	83.8
346.159	40.79
346.371	26.45
346.583	46.93
346.795	87.89
347.007	32.6
347.219	55.12
347.431	-30.89
347.643	28.5
347.855	3.93
348.067	26.45
348.279	-39.08
348.491	-6.31
348.703	-0.17
348.915	10.07
349.127	18.26
349.339	34.64
349.551	55.12
349.763	-14.51
349.975	30.55
350.187	83.8
350.399	32.6
350.61	5.97
350.822	32.6
351.034	65.36
351.246	48.98
351.458	51.03
351.669	8.02
351.881	98.13
352.093	28.5
352.305	46.93
352.517	18.26
352.728	85.84
352.94	51.03
353.152	-8.36
353.363	26.45
353.575	16.21
353.787	-43.18
353.999	40.79
354.21	91.99
354.422	83.8
354.633	87.89
354.845	87.89
355.057	77.65
355.268	30.55
355.48	65.36
355.692	-41.13
355.903	-22.7
356.115	12.12
356.326	-32.94
356.538	34.64
356.749	8.02
356.961	59.22
357.172	16.21
357.384	42.84
357.595	-0.17
357.807	-32.94
358.018	59.22
358.23	51.03
358.441	61.27
358.653	-10.41
358.864	112.47
359.075	20.31
359.287	-24.75
359.498	-2.22
359.709	-18.6
359.921	-2.22
360.132	51.03
360.344	71.51
360.555	-32.94
360.766	46.93
360.977	-14.51
361.189	67.41
361.4	38.74
361.611	34.64
361.823	-8.36
362.034	42.84
362.245	-69.8
362.456	46.93
362.667	55.12
362.879	-28.84
363.09	-10.41
363.301	75.6
363.512	57.17
363.723	87.89
363.935	40.79
364.146	96.08
364.357	34.64
364.568	22.36
364.779	22.36
364.99	53.08
365.201	-18.6
365.412	18.26
365.623	-30.89
365.834	40.79
366.045	22.36
366.256	89.94
366.467	18.26
366.678	18.26
366.889	137.04
367.1	-22.7
367.311	3.93
367.522	-30.89
367.733	38.74
367.944	85.84
368.155	10.07
368.366	32.6
368.577	132.95
368.788	83.8
368.999	42.84
369.209	22.36
369.42	112.47
369.631	36.69
369.842	108.37
370.053	16.21
370.264	38.74
370.474	36.69
370.685	36.69
370.896	30.55
371.107	114.52
371.317	26.45
371.528	-6.31
371.739	59.22
371.95	42.84
372.16	-0.17
372.371	-30.89
372.582	16.21
372.792	22.36
373.003	-2.22
373.214	-55.47
373.424	59.22
373.635	14.17
373.846	67.41
374.056	83.8
374.267	36.69
374.477	67.41
374.688	81.75
374.898	51.03
375.109	1.88
375.319	-4.27
375.53	38.74
375.74	44.88
375.951	-14.51
376.161	57.17
376.372	81.75
376.582	-32.94
376.793	94.04
377.003	32.6
377.214	-39.08
377.424	-6.31
377.635	-0.17
377.845	10.07
378.055	53.08
378.266	-61.61
378.476	63.32
378.686	16.21
378.897	26.45
379.107	75.6
379.317	83.8
379.528	24.4
379.738	40.79
379.948	42.84
380.158	57.17
380.369	40.79
380.579	98.13
380.789	40.79
380.999	75.6
381.21	-75.95
381.42	91.99
381.63	114.52
381.84	-0.17
382.05	51.03
382.261	57.17
382.471	18.26
382.681	69.46
382.891	61.27
383.101	34.64
383.311	-41.13
383.521	-14.51
383.731	112.47
383.941	75.6
384.151	83.8
384.361	30.55
384.571	18.26
384.781	40.79
384.991	44.88
385.201	124.76
385.411	79.7
385.621	5.97
385.831	81.75
386.041	57.17
386.251	-47.27
386.461	38.74
386.671	-14.51
386.881	26.45
387.091	44.88
387.301	79.7
387.511	8.02
387.72	48.98
387.93	57.17
388.14	10.07
388.35	12.12
388.56	55.12
388.769	30.55
388.979	28.5
389.189	-4.27
389.399	32.6
389.609	34.64
389.818	-6.31
390.028	55.12
390.238	96.08
390.447	8.02
390.657	44.88
390.867	116.56
391.076	36.69
391.286	87.89
391.496	59.22
391.705	-0.17
391.915	48.98
392.125	57.17
392.334	96.08
392.544	55.12
392.753	83.8
392.963	46.93
393.172	32.6
393.382	71.51
393.591	81.75
393.801	83.8
394.01	75.6
394.22	-8.36
394.429	85.84
394.639	71.51
394.848	65.36
395.058	-14.51
395.267	18.26
395.477	104.28
395.686	30.55
395.895	112.47
396.105	112.47
396.314	96.08
396.524	83.8
396.733	40.79
396.942	100.18
397.152	147.28
397.361	112.47
397.57	26.45
397.78	61.27
397.989	130.9
398.198	120.66
398.407	89.94
398.617	14.17
398.826	77.65
399.035	83.8
399.244	75.6
399.453	34.64
399.663	102.23
399.872	65.36
400.081	102.23
400.29	178
400.499	38.74
400.708	173.91
400.917	69.46
401.127	212.82
401.336	75.6
401.545	157.52
401.754	145.24
401.963	116.56
402.172	67.41
402.381	51.03
402.59	89.94
402.799	122.71
403.008	241.49
403.217	149.33
403.426	87.89
403.635	75.6
403.844	94.04
404.053	198.48
404.262	63.32
404.471	83.8
404.68	128.85
404.888	171.86
405.097	155.47
405.306	135
405.515	157.52
405.724	141.14
405.933	112.47
406.142	149.33
406.35	190.29
406.559	175.95
406.768	169.81
406.977	223.06
407.185	171.86
407.394	198.48
407.603	155.47
407.812	237.39
408.02	296.78
408.229	266.07
408.438	255.83
408.646	188.24
408.855	229.2
409.064	274.26
409.272	272.21
409.481	253.78
409.69	333.65
409.898	286.54
410.107	268.11
410.315	307.02
410.524	325.46
410.733	382.8
410.941	386.9
411.15	333.65
411.358	341.84
411.567	399.18
411.775	477.01
411.984	483.15
412.192	491.34
412.401	440.14
412.609	390.99
412.818	474.96
413.026	530.25
413.234	524.11
413.443	517.97
413.651	532.3
413.86	618.32
414.068	696.14
414.276	634.7
414.485	595.79
414.693	646.99
414.901	704.33
415.11	720.71
415.318	649.04
415.526	751.43
415.734	825.16
415.943	784.2
416.151	866.12
416.359	776.01
416.567	884.55
416.776	896.84
416.984	1027.91
417.192	974.66
417.4	1017.67
417.608	1056.58
417.817	1050.44
418.025	1161.03
418.233	1232.71
418.441	1113.92
418.649	1175.36
418.857	1410.88
419.065	1251.14
419.273	1380.16
419.481	1419.07
419.689	1550.14
419.897	1460.03
420.105	1619.77
420.313	1611.58
420.521	1664.83
420.729	1877.82
420.937	1793.85
421.145	1767.23
421.353	1838.91
421.561	1992.5
421.769	2105.14
421.977	2113.33
422.185	2307.89
422.393	2142
422.601	2465.58
422.809	2516.78
423.017	2410.29
423.224	2600.75
423.432	2590.51
423.64	2617.13
423.848	2832.17
424.056	2875.18
424.263	3063.59
424.471	3098.41
424.679	3092.26
424.887	3295.01
425.094	3335.97
425.302	3401.51
425.51	3534.62
425.718	3477.28
425.925	3561.25
426.133	3626.78
426.341	3981.08
426.548	4134.68
426.756	4194.07
426.964	4192.02
427.171	4540.18
427.379	4654.86
427.586	4720.4
427.794	4837.13
428.001	4810.51
428.209	5347.08
428.417	5097.22
428.624	5351.17
428.832	5476.1
429.039	5457.67
429.247	5392.13
429.454	5873.4
429.662	6379.25
429.869	6018.81
430.076	6336.24
430.284	6133.5
430.491	6428.4
430.699	6833.9
430.906	6848.24
431.114	6901.48
431.321	7319.27
431.528	7368.42
431.736	7794.4
431.943	8091.35
432.15	7941.85
432.358	7997.15
432.565	8439.51
432.772	8462.04
432.979	8785.62
433.187	8994.51
433.394	9209.54
433.601	9567.94
433.808	9563.84
434.016	9619.14
434.223	10084.03
434.43	10589.88
434.637	10335.93
434.844	11071.15
435.052	11286.19
435.259	11241.13
435.466	11269.8
435.673	11122.35
435.88	11751.07
436.087	12373.66
436.294	12387.99
436.501	12248.73
436.708	12539.54
436.915	12990.1
437.122	13368.97
437.329	13497.99
437.537	13860.48
437.743	13829.76
437.95	13958.78
438.157	14501.5
438.364	15173.23
438.571	15308.4
438.778	15023.73
438.985	16387.68
439.192	16002.66
439.399	16608.86
439.606	16141.92
439.813	16893.52
440.02	17991.23
440.227	17657.42
440.433	17528.39
440.64	18124.35
440.847	18028.1
441.054	18263.61
441.261	19566.12
441.467	19332.65
441.674	19797.54
441.881	20444.7
442.088	20370.97
442.294	20143.65
442.501	20858.39
442.708	21251.6
442.914	22304.26
443.121	22939.13
443.328	22185.47
443.534	23801.32
443.741	23047.67
443.948	23162.36
444.154	24428
444.361	24145.38
444.568	24921.56
444.774	24896.99
444.981	24870.36
445.187	25730.51
445.394	26885.56
445.6	26475.97
445.807	28806.56
446.013	27518.39
446.22	28192.17
446.426	28974.49
446.633	29154.71
446.839	30143.88
447.046	29109.66
447.252	30707.07
447.459	30580.1
447.665	30418.31
447.871	31706.48
448.078	33174.88
448.284	31610.23
448.491	32413.03
448.697	33293.66
448.903	34248.01
449.11	34295.11
449.316	33269.08
449.522	34258.25
449.728	35220.8
449.935	35392.83
450.141	35102.01
450.347	36203.82
450.553	34983.23
450.76	35253.56
450.966	36373.8
451.172	35988.78
451.378	36797.73
451.584	35990.83
451.791	37014.82
451.997	36695.33
452.203	37199.13
452.409	37227.81
452.615	37164.32
452.821	35560.76
453.027	35495.22
453.233	37315.87
453.44	35644.73
453.646	36322.6
453.852	36175.15
454.058	37076.26
454.264	35501.37
454.47	36275.5
454.676	35179.84
454.882	36744.48
455.088	33348.95
455.294	33791.31
455.5	34514.25
455.705	34446.66
455.911	33215.83
456.117	32761.19
456.323	32003.44
456.529	30297.48
456.735	31765.87
456.941	30711.17
457.147	30514.56
457.352	29537.68
457.558	28978.59
457.764	29072.79
457.97	28779.93
458.176	27942.31
458.381	27907.5
458.587	26711.49
458.793	26592.7
458.999	24980.95
459.204	26742.21
459.41	26144.2
459.616	24688.09
459.821	24632.8
460.027	24215.01
460.233	23836.14
460.438	22433.28
460.644	23000.57
460.85	21726.73
461.055	21714.44
461.261	21376.53
461.466	20022.82
461.672	19279.41
461.878	20655.64
462.083	19371.57
462.289	18908.72
462.494	19002.93
462.7	18118.21
462.905	17638.98
463.111	18032.19
463.316	18339.39
463.522	17679.94
463.727	17942.08
463.932	17778.25
464.138	17659.46
464.343	17645.13
464.549	17204.81
464.754	17804.87
464.959	17538.63
465.165	17481.29
465.37	16715.35
465.575	16416.35
465.781	17065.55
465.986	16830.04
466.191	16553.56
466.397	16133.73
466.602	15447.66
466.807	15976.03
467.012	16217.69
467.218	15881.83
