Data from USB4F104151__211__10-29-52-924.txt Node

Date: Wed Mar 12 10:29:52 EDT 2025
User: louis
Spectrometer: USB4F10415
Trigger mode: 4
Integration Time (sec): 3.000000E-2
Scans to average: 1
Electric dark correction enabled: true
Nonlinearity correction enabled: false
Boxcar width: 0
XAxis mode: Wavelengths
Number of Pixels in Spectrum: 3648
>>>>>Begin Spectral Data<<<<<
178.204	-66.22
178.424	-66.22
178.644	-66.22
178.864	-113.32
179.084	-109.22
179.304	-17.07
179.524	-23.21
179.744	5.46
179.964	60.76
180.184	-4.78
180.404	23.89
180.624	-39.59
180.844	48.47
181.064	-15.02
181.283	-6.83
181.503	-47.79
181.723	15.7
181.943	32.08
182.163	62.8
182.383	34.13
182.602	21.85
182.822	3.41
183.042	-2.73
183.262	-2.73
183.482	54.61
183.701	-43.69
183.921	-41.64
184.141	9.56
184.361	-25.26
184.58	30.04
184.8	87.38
185.02	42.32
185.239	25.94
185.459	120.15
185.679	-45.74
185.898	34.13
186.118	95.57
186.338	-31.4
186.557	60.76
186.777	36.18
186.997	36.18
187.216	-8.87
187.436	25.94
187.655	21.85
187.875	91.48
188.095	-43.69
188.314	34.13
188.534	-31.4
188.753	-17.07
188.973	157.01
189.192	83.28
189.412	122.2
189.631	-0.68
189.851	23.89
190.07	87.38
190.29	-21.16
190.509	-17.07
190.729	54.61
190.948	58.71
191.168	161.11
191.387	83.28
191.607	25.94
191.826	32.08
192.045	-17.07
192.265	11.61
192.484	54.61
192.704	95.57
192.923	-2.73
193.142	107.86
193.362	21.85
193.581	197.97
193.8	46.42
194.02	101.72
194.239	40.28
194.458	116.05
194.678	21.85
194.897	66.9
195.116	13.65
195.335	89.43
195.555	-6.83
195.774	50.52
195.993	73.04
196.212	11.61
196.432	109.91
196.651	64.85
196.87	1.37
197.089	83.28
197.308	107.86
197.528	101.72
197.747	62.8
197.966	83.28
198.185	79.19
198.404	7.51
198.623	-23.21
198.842	85.33
199.062	3.41
199.281	111.96
199.5	75.09
199.719	62.8
199.938	109.91
200.157	97.62
200.376	32.08
200.595	58.71
200.814	58.71
201.033	27.99
201.252	54.61
201.471	93.52
201.69	95.57
201.909	48.47
202.128	58.71
202.347	50.52
202.566	-80.55
202.785	58.71
203.004	-35.5
203.223	56.66
203.442	34.13
203.661	30.04
203.879	3.41
204.098	15.7
204.317	27.99
204.536	34.13
204.755	9.56
204.974	68.95
205.193	83.28
205.411	136.53
205.63	-6.83
205.849	25.94
206.068	50.52
206.287	9.56
206.505	75.09
206.724	-39.59
206.943	34.13
207.162	58.71
207.381	116.05
207.599	42.32
207.818	52.56
208.037	5.46
208.255	36.18
208.474	56.66
208.693	25.94
208.911	-27.31
209.13	83.28
209.349	25.94
209.567	48.47
209.786	140.63
210.005	9.56
210.223	103.76
210.442	62.8
210.661	62.8
210.879	64.85
211.098	-8.87
211.316	19.8
211.535	71
211.753	50.52
211.972	58.71
212.191	15.7
212.409	9.56
212.628	99.67
212.846	-8.87
213.065	87.38
213.283	60.76
213.502	87.38
213.72	34.13
213.938	103.76
214.157	19.8
214.375	3.41
214.594	79.19
214.812	13.65
215.031	38.23
215.249	-2.73
215.467	58.71
215.686	-6.83
215.904	-15.02
216.122	-17.07
216.341	89.43
216.559	9.56
216.778	107.86
216.996	83.28
217.214	50.52
217.432	-2.73
217.651	17.75
217.869	32.08
218.087	107.86
218.306	62.8
218.524	-17.07
218.742	9.56
218.96	89.43
219.179	52.56
219.397	42.32
219.615	44.37
219.833	48.47
220.051	-10.92
220.27	103.76
220.488	-10.92
220.706	64.85
220.924	48.47
221.142	124.24
221.36	-25.26
221.578	40.28
221.796	17.75
222.015	40.28
222.233	64.85
222.451	138.58
222.669	-53.93
222.887	-10.92
223.105	-6.83
223.323	38.23
223.541	-4.78
223.759	-12.97
223.977	13.65
224.195	25.94
224.413	27.99
224.631	62.8
224.849	-10.92
225.067	73.04
225.285	5.46
225.503	50.52
225.721	52.56
225.939	9.56
226.157	64.85
226.375	25.94
226.592	23.89
226.81	7.51
227.028	58.71
227.246	58.71
227.464	58.71
227.682	97.62
227.9	62.8
228.117	-6.83
228.335	-15.02
228.553	42.32
228.771	-25.26
228.989	-2.73
229.206	130.39
229.424	-23.21
229.642	50.52
229.86	89.43
230.077	68.95
230.295	34.13
230.513	81.24
230.731	62.8
230.948	50.52
231.166	73.04
231.384	85.33
231.601	5.46
231.819	132.44
232.037	13.65
232.254	-82.6
232.472	60.76
232.689	48.47
232.907	44.37
233.125	30.04
233.342	23.89
233.56	-25.26
233.777	-4.78
233.995	71
234.213	79.19
234.43	38.23
234.648	42.32
234.865	50.52
235.083	-35.5
235.3	81.24
235.518	38.23
235.735	-15.02
235.953	48.47
236.17	50.52
236.388	87.38
236.605	91.48
236.822	32.08
237.04	-17.07
237.257	75.09
237.475	36.18
237.692	27.99
237.909	111.96
238.127	17.75
238.344	75.09
238.562	48.47
238.779	89.43
238.996	66.9
239.214	85.33
239.431	25.94
239.648	81.24
239.865	42.32
240.083	-58.03
240.3	-51.88
240.517	60.76
240.735	-6.83
240.952	58.71
241.169	25.94
241.386	93.52
241.603	5.46
241.821	42.32
242.038	36.18
242.255	44.37
242.472	32.08
242.689	25.94
242.907	32.08
243.124	77.14
243.341	21.85
243.558	66.9
243.775	52.56
243.992	-45.74
244.209	64.85
244.426	58.71
244.643	64.85
244.86	-15.02
245.078	60.76
245.295	52.56
245.512	56.66
245.729	87.38
245.946	42.32
246.163	116.05
246.38	99.67
246.597	11.61
246.814	-23.21
247.031	107.86
247.248	50.52
247.464	56.66
247.681	50.52
247.898	66.9
248.115	-31.4
248.332	-25.26
248.549	138.58
248.766	40.28
248.983	58.71
249.2	34.13
249.417	44.37
249.633	-0.68
249.85	71
250.067	140.63
250.284	13.65
250.501	146.77
250.717	85.33
250.934	-25.26
251.151	9.56
251.368	-98.99
251.585	128.34
251.801	-4.78
252.018	3.41
252.235	1.37
252.451	36.18
252.668	9.56
252.885	52.56
253.102	83.28
253.318	1.37
253.535	-45.74
253.752	-2.73
253.968	15.7
254.185	73.04
254.401	15.7
254.618	75.09
254.835	-12.97
255.051	66.9
255.268	-2.73
255.484	15.7
255.701	15.7
255.917	97.62
256.134	27.99
256.351	23.89
256.567	83.28
256.784	56.66
257	40.28
257.217	103.76
257.433	105.81
257.65	68.95
257.866	40.28
258.082	81.24
258.299	60.76
258.515	89.43
258.732	116.05
258.948	-35.5
259.165	60.76
259.381	25.94
259.597	44.37
259.814	23.89
260.03	21.85
260.246	64.85
260.463	46.42
260.679	40.28
260.895	36.18
261.112	73.04
261.328	34.13
261.544	19.8
261.761	99.67
261.977	36.18
262.193	30.04
262.409	-0.68
262.626	71
262.842	19.8
263.058	-10.92
263.274	46.42
263.49	-47.79
263.707	120.15
263.923	91.48
264.139	56.66
264.355	56.66
264.571	116.05
264.787	64.85
265.004	79.19
265.22	11.61
265.436	66.9
265.652	71
265.868	128.34
266.084	60.76
266.3	-15.02
266.516	-47.79
266.732	77.14
266.948	27.99
267.164	32.08
267.38	38.23
267.596	83.28
267.812	122.2
268.028	66.9
268.244	-8.87
268.46	-23.21
268.676	5.46
268.892	40.28
269.108	9.56
269.324	50.52
269.54	-43.69
269.756	32.08
269.972	21.85
270.188	85.33
270.403	32.08
270.619	54.61
270.835	-10.92
271.051	44.37
271.267	81.24
271.483	-29.35
271.698	89.43
271.914	107.86
272.13	1.37
272.346	30.04
272.562	71
272.777	73.04
272.993	77.14
273.209	30.04
273.425	9.56
273.64	54.61
273.856	27.99
274.072	-23.21
274.287	17.75
274.503	48.47
274.719	62.8
274.934	58.71
275.15	15.7
275.366	140.63
275.581	68.95
275.797	50.52
276.012	58.71
276.228	-12.97
276.444	93.52
276.659	148.82
276.875	7.51
277.09	-31.4
277.306	11.61
277.521	66.9
277.737	21.85
277.952	50.52
278.168	-12.97
278.383	118.1
278.599	91.48
278.814	116.05
279.03	1.37
279.245	85.33
279.461	126.29
279.676	-49.83
279.892	15.7
280.107	1.37
280.322	50.52
280.538	118.1
280.753	56.66
280.969	109.91
281.184	40.28
281.399	62.8
281.615	-37.55
281.83	-25.26
282.045	21.85
282.26	30.04
282.476	27.99
282.691	73.04
282.906	116.05
283.122	99.67
283.337	34.13
283.552	5.46
283.767	27.99
283.983	68.95
284.198	62.8
284.413	9.56
284.628	32.08
284.843	-25.26
285.058	-10.92
285.274	89.43
285.489	15.7
285.704	134.48
285.919	38.23
286.134	32.08
286.349	-49.83
286.564	56.66
286.779	171.35
286.995	60.76
287.21	13.65
287.425	77.14
287.64	30.04
287.855	91.48
288.07	32.08
288.285	-19.11
288.5	64.85
288.715	27.99
288.93	23.89
289.145	50.52
289.36	13.65
289.575	50.52
289.79	17.75
290.004	48.47
290.219	-10.92
290.434	-10.92
290.649	97.62
290.864	105.81
291.079	68.95
291.294	68.95
291.509	93.52
291.724	75.09
291.938	52.56
292.153	7.51
292.368	75.09
292.583	124.24
292.798	79.19
293.012	-10.92
293.227	91.48
293.442	-8.87
293.657	40.28
293.871	71
294.086	-10.92
294.301	111.96
294.516	34.13
294.73	15.7
294.945	50.52
295.16	50.52
295.374	50.52
295.589	40.28
295.804	109.91
296.018	34.13
296.233	91.48
296.447	17.75
296.662	-49.83
296.877	85.33
297.091	54.61
297.306	60.76
297.52	77.14
297.735	58.71
297.949	-31.4
298.164	52.56
298.378	66.9
298.593	42.32
298.807	42.32
299.022	42.32
299.236	44.37
299.451	-19.11
299.665	36.18
299.88	105.81
300.094	58.71
300.309	46.42
300.523	19.8
300.737	89.43
300.952	34.13
301.166	-39.59
301.381	17.75
301.595	48.47
301.809	79.19
302.024	27.99
302.238	-23.21
302.452	34.13
302.667	-41.64
302.881	107.86
303.095	109.91
303.309	60.76
303.524	7.51
303.738	-51.88
303.952	-76.46
304.166	56.66
304.381	-23.21
304.595	97.62
304.809	-6.83
305.023	48.47
305.237	46.42
305.452	68.95
305.666	73.04
305.88	30.04
306.094	71
306.308	64.85
306.522	50.52
306.736	62.8
306.95	58.71
307.164	58.71
307.379	79.19
307.593	75.09
307.807	1.37
308.021	52.56
308.235	30.04
308.449	105.81
308.663	36.18
308.877	85.33
309.091	5.46
309.305	60.76
309.519	30.04
309.733	138.58
309.947	30.04
310.161	46.42
310.374	1.37
310.588	116.05
310.802	23.89
311.016	56.66
311.23	62.8
311.444	7.51
311.658	107.86
311.872	75.09
312.085	144.72
312.299	99.67
312.513	111.96
312.727	17.75
312.941	9.56
313.154	46.42
313.368	99.67
313.582	58.71
313.796	73.04
314.009	42.32
314.223	97.62
314.437	66.9
314.651	13.65
314.864	27.99
315.078	25.94
315.292	44.37
315.505	9.56
315.719	-8.87
315.933	93.52
316.146	87.38
316.36	-92.84
316.573	71
316.787	81.24
317.001	71
317.214	25.94
317.428	54.61
317.641	5.46
317.855	1.37
318.068	46.42
318.282	11.61
318.495	23.89
318.709	48.47
318.922	77.14
319.136	114
319.349	52.56
319.563	56.66
319.776	111.96
319.99	-6.83
320.203	73.04
320.417	56.66
320.63	54.61
320.843	120.15
321.057	13.65
321.27	62.8
321.483	66.9
321.697	83.28
321.91	75.09
322.124	81.24
322.337	-10.92
322.55	38.23
322.763	64.85
322.977	62.8
323.19	42.32
323.403	71
323.617	-8.87
323.83	99.67
324.043	46.42
324.256	50.52
324.469	-21.16
324.683	99.67
324.896	42.32
325.109	87.38
325.322	21.85
325.535	71
325.748	83.28
325.962	21.85
326.175	54.61
326.388	50.52
326.601	30.04
326.814	-15.02
327.027	42.32
327.24	144.72
327.453	40.28
327.666	5.46
327.879	107.86
328.092	73.04
328.305	-29.35
328.518	46.42
328.731	30.04
328.944	50.52
329.157	93.52
329.37	30.04
329.583	91.48
329.796	36.18
330.009	-4.78
330.222	17.75
330.435	120.15
330.648	-6.83
330.861	1.37
331.073	107.86
331.286	-43.69
331.499	17.75
331.712	23.89
331.925	46.42
332.138	73.04
332.35	97.62
332.563	13.65
332.776	52.56
332.989	-27.31
333.202	17.75
333.414	25.94
333.627	52.56
333.84	17.75
334.053	105.81
334.265	48.47
334.478	83.28
334.691	-33.45
334.903	-19.11
335.116	75.09
335.329	17.75
335.541	83.28
335.754	107.86
335.966	66.9
336.179	36.18
336.392	5.46
336.604	62.8
336.817	97.62
337.029	64.85
337.242	52.56
337.454	36.18
337.667	52.56
337.88	124.24
338.092	79.19
338.305	116.05
338.517	17.75
338.729	75.09
338.942	62.8
339.154	9.56
339.367	62.8
339.579	87.38
339.792	50.52
340.004	40.28
340.217	54.61
340.429	38.23
340.641	-29.35
340.854	38.23
341.066	42.32
341.278	99.67
341.491	52.56
341.703	64.85
341.915	-39.59
342.128	17.75
342.34	66.9
342.552	19.8
342.764	32.08
342.977	60.76
343.189	-12.97
343.401	40.28
343.613	91.48
343.826	71
344.038	-8.87
344.25	97.62
344.462	50.52
344.674	58.71
344.886	3.41
345.099	103.76
345.311	19.8
345.523	3.41
345.735	73.04
345.947	75.09
346.159	23.89
346.371	1.37
346.583	56.66
346.795	107.86
347.007	19.8
347.219	107.86
347.431	9.56
347.643	105.81
347.855	40.28
348.067	21.85
348.279	25.94
348.491	79.19
348.703	15.7
348.915	42.32
349.127	32.08
349.339	40.28
349.551	77.14
349.763	81.24
349.975	-2.73
350.187	77.14
350.399	60.76
350.61	32.08
350.822	-6.83
351.034	130.39
351.246	-10.92
351.458	32.08
351.669	75.09
351.881	58.71
352.093	73.04
352.305	13.65
352.517	34.13
352.728	66.9
352.94	54.61
353.152	89.43
353.363	-8.87
353.575	23.89
353.787	-0.68
353.999	66.9
354.21	62.8
354.422	66.9
354.633	3.41
354.845	99.67
355.057	21.85
355.268	66.9
355.48	71
355.692	9.56
355.903	25.94
356.115	25.94
356.326	-6.83
356.538	42.32
356.749	34.13
356.961	105.81
357.172	44.37
357.384	36.18
357.595	97.62
357.807	11.61
358.018	34.13
358.23	60.76
358.441	159.06
358.653	87.38
358.864	44.37
359.075	58.71
359.287	114
359.498	114
359.709	58.71
359.921	54.61
360.132	66.9
360.344	-25.26
360.555	60.76
360.766	9.56
360.977	89.43
361.189	46.42
361.4	77.14
361.611	62.8
361.823	126.29
362.034	120.15
362.245	66.9
362.456	32.08
362.667	50.52
362.879	34.13
363.09	77.14
363.301	87.38
363.512	15.7
363.723	3.41
363.935	23.89
364.146	79.19
364.357	75.09
364.568	32.08
364.779	32.08
364.99	77.14
365.201	99.67
365.412	9.56
365.623	58.71
365.834	99.67
366.045	52.56
366.256	64.85
366.467	19.8
366.678	-19.11
366.889	95.57
367.1	66.9
367.311	81.24
367.522	-21.16
367.733	75.09
367.944	50.52
368.155	23.89
368.366	71
368.577	48.47
368.788	107.86
368.999	75.09
369.209	-47.79
369.42	122.2
369.631	89.43
369.842	38.23
370.053	-10.92
370.264	105.81
370.474	34.13
370.685	120.15
370.896	19.8
371.107	101.72
371.317	122.2
371.528	27.99
371.739	44.37
371.95	75.09
372.16	50.52
372.371	99.67
372.582	3.41
372.792	75.09
373.003	71
373.214	111.96
373.424	111.96
373.635	111.96
373.846	62.8
374.056	38.23
374.267	144.72
374.477	3.41
374.688	44.37
374.898	99.67
375.109	109.91
375.319	99.67
375.53	79.19
375.74	138.58
375.951	64.85
376.161	71
376.372	75.09
376.582	79.19
376.793	36.18
377.003	32.08
377.214	30.04
377.424	77.14
377.635	27.99
377.845	71
378.055	111.96
378.266	7.51
378.476	87.38
378.686	11.61
378.897	116.05
379.107	50.52
379.317	83.28
379.528	101.72
379.738	120.15
379.948	-0.68
380.158	15.7
380.369	75.09
380.579	68.95
380.789	44.37
380.999	64.85
381.21	42.32
381.42	126.29
381.63	50.52
381.84	68.95
382.05	75.09
382.261	144.72
382.471	152.92
382.681	48.47
382.891	83.28
383.101	11.61
383.311	30.04
383.521	32.08
383.731	81.24
383.941	56.66
384.151	62.8
384.361	79.19
384.571	68.95
384.781	91.48
384.991	99.67
385.201	71
385.411	87.38
385.621	40.28
385.831	157.01
386.041	128.34
386.251	79.19
386.461	48.47
386.671	97.62
386.881	62.8
387.091	13.65
387.301	42.32
387.511	21.85
387.72	71
387.93	97.62
388.14	91.48
388.35	52.56
388.56	66.9
388.769	52.56
388.979	103.76
389.189	68.95
389.399	64.85
389.609	54.61
389.818	25.94
390.028	122.2
390.238	13.65
390.447	34.13
390.657	111.96
390.867	71
391.076	52.56
391.286	87.38
391.496	46.42
391.705	99.67
391.915	32.08
392.125	83.28
392.334	50.52
392.544	62.8
392.753	85.33
392.963	46.42
393.172	142.68
393.382	17.75
393.591	152.92
393.801	-37.55
394.01	105.81
394.22	58.71
394.429	91.48
394.639	114
394.848	97.62
395.058	87.38
395.267	62.8
395.477	83.28
395.686	107.86
395.895	99.67
396.105	171.35
396.314	126.29
396.524	85.33
396.733	136.53
396.942	189.78
397.152	85.33
397.361	99.67
397.57	89.43
397.78	146.77
397.989	124.24
398.198	150.87
398.407	34.13
398.617	79.19
398.826	116.05
399.035	93.52
399.244	85.33
399.453	71
399.663	44.37
399.872	32.08
400.081	58.71
400.29	179.54
400.499	89.43
400.708	197.97
400.917	134.48
401.127	148.82
401.336	150.87
401.545	208.21
401.754	114
401.963	169.3
402.172	150.87
402.381	107.86
402.59	159.06
402.799	83.28
403.008	87.38
403.217	124.24
403.426	240.98
403.635	75.09
403.844	114
404.053	179.54
404.262	132.44
404.471	159.06
404.68	171.35
404.888	200.02
405.097	167.25
405.306	83.28
405.515	185.68
405.724	126.29
405.933	124.24
406.142	165.2
406.35	189.78
406.559	187.73
406.768	148.82
406.977	210.26
407.185	269.65
407.394	245.07
407.603	181.59
407.812	202.07
408.02	197.97
408.229	247.12
408.438	247.12
408.646	200.02
408.855	238.93
409.064	224.59
409.272	355.66
409.481	290.13
409.69	300.37
409.898	296.27
410.107	316.75
410.315	333.14
410.524	288.08
410.733	320.85
410.941	343.38
411.15	365.9
411.358	367.95
411.567	380.24
411.775	361.81
411.984	402.77
412.192	464.21
412.401	386.38
412.609	466.25
412.818	505.17
413.026	449.87
413.234	484.69
413.443	548.17
413.651	580.94
413.86	546.12
414.068	574.8
414.276	664.91
414.485	572.75
414.693	689.48
414.901	709.96
415.11	597.32
415.318	716.11
415.526	728.39
415.734	712.01
415.943	750.92
416.151	881.99
416.359	857.42
416.567	922.95
416.776	898.38
416.984	834.89
417.192	1062.21
417.4	1035.59
417.608	947.53
417.817	1011.01
418.025	1156.42
418.233	1174.85
418.441	1176.9
418.649	1152.32
418.857	1291.59
419.065	1293.63
419.273	1250.63
419.481	1398.08
419.689	1402.18
419.897	1508.67
420.105	1586.49
420.313	1670.46
420.521	1719.61
420.729	1656.12
420.937	1596.73
421.145	1733.95
421.353	1885.5
421.561	2000.18
421.769	2028.85
421.977	1981.75
422.185	2004.28
422.393	2184.5
422.601	2276.66
422.809	2286.9
423.017	2268.47
423.224	2397.49
423.432	2411.82
423.64	2499.89
423.848	2776.36
424.056	2555.18
424.263	2776.36
424.471	2768.17
424.679	2889
424.887	3087.65
425.094	3136.81
425.302	3228.96
425.51	3171.62
425.718	3431.71
425.925	3372.32
426.133	3317.03
426.341	3652.89
426.548	3824.92
426.756	3771.68
426.964	3929.37
427.171	4197.65
427.379	4166.93
427.586	4398.35
427.794	4474.13
428.001	4609.3
428.209	5008.65
428.417	4756.75
428.624	5039.37
428.832	5022.98
429.039	5039.37
429.247	5162.25
429.454	5477.63
429.662	5905.66
429.869	5676.29
430.076	5874.94
430.284	5758.21
430.491	6102.26
430.699	6362.36
430.906	6307.06
431.114	6591.73
431.321	6630.64
431.528	6915.31
431.736	7261.41
431.943	7535.84
432.15	7150.82
432.358	7447.78
432.565	7783.65
432.772	8004.83
432.979	8461.52
433.187	8453.33
433.394	8629.46
433.601	9041.1
433.808	8961.23
434.016	8756.43
434.223	9311.43
434.43	9739.46
434.637	9739.46
434.844	10446.01
435.052	10407.09
435.259	10368.18
435.466	10351.8
435.673	10310.84
435.88	11238.57
436.087	11564.2
436.294	11631.78
436.501	11197.61
436.708	11682.98
436.915	11695.27
437.122	12600.47
437.329	12475.54
437.537	12733.59
437.743	13120.65
437.95	12897.42
438.157	13626.5
438.364	14052.48
438.571	13853.83
438.778	14081.15
438.985	15453.29
439.192	14826.61
439.399	15301.74
439.606	14814.32
439.813	15791.2
440.02	17032.27
440.227	16479.32
440.433	16110.69
440.64	16960.59
440.847	16698.45
441.054	17165.39
441.261	18455.61
441.467	18019.39
441.674	18226.24
441.881	19072.05
442.088	19010.61
442.294	18748.47
442.501	19129.39
442.708	19629.1
442.914	20407.33
443.121	21189.65
443.328	20624.41
443.534	22273.03
443.741	21638.16
443.948	21335.06
444.154	22739.96
444.361	22463.49
444.568	22653.95
444.774	22752.25
444.981	22791.16
445.187	23798.76
445.394	24703.96
445.6	24384.48
445.807	26760.12
446.013	25568.21
446.22	26239.94
446.426	26862.52
446.633	27431.86
446.839	28070.82
447.046	26645.44
447.252	28316.58
447.459	28289.96
447.665	28468.13
447.871	29733.78
448.078	30626.69
448.284	29404.05
448.491	30174.09
448.697	31226.74
448.903	32076.65
449.11	31583.09
449.316	31255.42
449.522	31992.69
449.728	32631.65
449.935	32947.04
450.141	33031.01
450.347	33741.65
450.553	32445.29
450.76	33033.05
450.966	33930.06
451.172	33065.82
451.378	34476.87
451.584	33327.96
451.791	34675.52
451.997	34202.44
452.203	35060.54
452.409	34732.87
452.615	34835.27
452.821	33127.26
453.027	32988
453.233	34925.38
453.44	33274.71
453.646	33856.34
453.852	33598.29
454.058	33868.62
454.264	33037.15
454.47	34022.22
454.676	32973.66
454.882	34259.79
455.088	31189.88
455.294	31943.53
455.5	31710.07
455.705	32058.22
455.911	31089.53
456.117	30213
456.323	30073.74
456.529	28263.33
456.735	29987.72
456.941	28857.24
457.147	28543.91
457.352	27667.38
457.558	26983.35
457.764	27384.76
457.97	26414.02
458.176	26270.66
458.381	26129.35
458.587	24904.67
458.793	24634.33
458.999	23661.55
459.204	25177.05
459.41	24855.51
459.616	23051.25
459.821	22692.86
460.027	22856.7
460.233	22068.23
460.438	21277.71
460.644	21685.26
460.85	20550.68
461.055	20036.64
461.261	20184.1
461.466	18605.11
461.672	18070.59
461.878	19565.61
462.083	18273.34
462.289	17658.95
462.494	17208.4
462.7	16919.64
462.905	16266.33
463.111	17058.9
463.316	16989.27
463.522	16538.71
463.727	16753.75
463.932	16845.91
464.138	16645.21
464.343	16524.38
464.549	15952.99
464.754	16622.68
464.959	16735.32
465.165	16444.51
465.37	15545.45
465.575	15348.84
465.781	15871.08
465.986	15920.23
466.191	15268.97
466.397	15254.64
466.602	14556.28
466.807	14914.67
467.012	14855.28
467.218	14746.74
467.423	14668.92
467.628	15008.88
467.833	15326.32
468.038	14722.16
