Data from USB4F104151__128__10-25-22-173.txt Node

Date: Wed Mar 12 10:25:22 EDT 2025
User: louis
Spectrometer: USB4F10415
Trigger mode: 4
Integration Time (sec): 3.000000E-2
Scans to average: 1
Electric dark correction enabled: true
Nonlinearity correction enabled: false
Boxcar width: 0
XAxis mode: Wavelengths
Number of Pixels in Spectrum: 3648
>>>>>Begin Spectral Data<<<<<
178.204	-136.02
178.424	-136.02
178.644	-136.02
178.864	-90.96
179.084	-115.54
179.304	-19.29
179.524	-4.95
179.744	27.82
179.964	11.43
180.184	1.19
180.404	52.39
180.624	17.58
180.844	-23.38
181.064	-76.63
181.283	46.25
181.503	5.29
181.723	-37.72
181.943	-21.33
182.163	44.2
182.383	56.49
182.602	-35.67
182.822	23.72
183.042	60.59
183.262	3.24
183.482	-41.81
183.701	-0.85
183.921	74.92
184.141	-66.39
184.361	-7
184.58	11.43
184.8	21.67
185.02	7.34
185.239	36.01
185.459	17.58
185.679	46.25
185.898	-21.33
186.118	13.48
186.338	81.07
186.557	-4.95
186.777	11.43
186.997	-21.33
187.216	-21.33
187.436	13.48
187.655	56.49
187.875	19.63
188.095	13.48
188.314	11.43
188.534	56.49
188.753	-47.96
188.973	19.63
189.192	1.19
189.412	21.67
189.631	-27.48
189.851	15.53
190.07	58.54
190.29	19.63
190.509	74.92
190.729	58.54
190.948	7.34
191.168	199.85
191.387	-2.9
191.607	-54.1
191.826	-25.43
192.045	29.87
192.265	-37.72
192.484	52.39
192.704	11.43
192.923	15.53
193.142	113.83
193.362	66.73
193.581	42.15
193.8	3.24
194.02	68.78
194.239	-78.68
194.458	36.01
194.678	-56.15
194.897	-15.19
195.116	19.63
195.335	-9.05
195.555	38.06
195.774	25.77
195.993	38.06
196.212	3.24
196.432	-80.72
196.651	31.91
196.87	-15.19
197.089	-17.24
197.308	-21.33
197.528	54.44
197.747	46.25
197.966	-0.85
198.185	29.87
198.404	23.72
198.623	25.77
198.842	83.11
199.062	87.21
199.281	-27.48
199.5	58.54
199.719	29.87
199.938	64.68
200.157	-0.85
200.376	79.02
200.595	-45.91
200.814	1.19
201.033	-72.53
201.252	81.07
201.471	76.97
201.69	11.43
201.909	-45.91
202.128	19.63
202.347	38.06
202.566	-25.43
202.785	-35.67
203.004	-33.62
203.223	81.07
203.442	19.63
203.661	11.43
203.879	58.54
204.098	72.87
204.317	42.15
204.536	38.06
204.755	5.29
204.974	-4.95
205.193	-19.29
205.411	99.5
205.63	17.58
205.849	58.54
206.068	15.53
206.287	40.11
206.505	76.97
206.724	25.77
206.943	13.48
207.162	27.82
207.381	42.15
207.599	-2.9
207.818	40.11
208.037	29.87
208.255	9.39
208.474	1.19
208.693	-7
208.911	1.19
209.13	11.43
209.349	21.67
209.567	85.16
209.786	72.87
210.005	15.53
210.223	54.44
210.442	-29.52
210.661	27.82
210.879	52.39
211.098	38.06
211.316	-13.14
211.535	64.68
211.753	17.58
211.972	66.73
212.191	44.2
212.409	48.3
212.628	76.97
212.846	74.92
213.065	21.67
213.283	50.35
213.502	74.92
213.72	31.91
213.938	-4.95
214.157	-11.09
214.375	40.11
214.594	48.3
214.812	-15.19
215.031	54.44
215.249	3.24
215.467	19.63
215.686	-9.05
215.904	27.82
216.122	11.43
216.341	13.48
216.559	25.77
216.778	70.83
216.996	60.59
217.214	-15.19
217.432	-29.52
217.651	27.82
217.869	7.34
218.087	23.72
218.306	13.48
218.524	93.35
218.742	7.34
218.96	-37.72
219.179	21.67
219.397	66.73
219.615	-0.85
219.833	81.07
220.051	1.19
220.27	19.63
220.488	83.11
220.706	54.44
220.924	-13.14
221.142	3.24
221.36	-4.95
221.578	9.39
221.796	66.73
222.015	-11.09
222.233	60.59
222.451	56.49
222.669	1.19
222.887	97.45
223.105	3.24
223.323	60.59
223.541	-7
223.759	52.39
223.977	-15.19
224.195	85.16
224.413	52.39
224.631	111.78
224.849	-11.09
225.067	76.97
225.285	19.63
225.503	70.83
225.721	5.29
225.939	17.58
226.157	-2.9
226.375	38.06
226.592	-31.57
226.81	-0.85
227.028	7.34
227.246	99.5
227.464	-7
227.682	58.54
227.9	50.35
228.117	9.39
228.335	23.72
228.553	7.34
228.771	-7
228.989	-0.85
229.206	13.48
229.424	29.87
229.642	3.24
229.86	25.77
230.077	50.35
230.295	-35.67
230.513	-11.09
230.731	11.43
230.948	50.35
231.166	60.59
231.384	-29.52
231.601	-37.72
231.819	19.63
232.037	-27.48
232.254	-39.76
232.472	46.25
232.689	-27.48
232.907	66.73
233.125	-21.33
233.342	15.53
233.56	58.54
233.777	-17.24
233.995	54.44
234.213	33.96
234.43	36.01
234.648	-9.05
234.865	9.39
235.083	70.83
235.3	7.34
235.518	85.16
235.735	52.39
235.953	-50
236.17	46.25
236.388	56.49
236.605	-19.29
236.822	52.39
237.04	15.53
237.257	-17.24
237.475	-21.33
237.692	-31.57
237.909	83.11
238.127	7.34
238.344	-95.06
238.562	15.53
238.779	-29.52
238.996	-54.1
239.214	-78.68
239.431	40.11
239.648	-29.52
239.865	31.91
240.083	111.78
240.3	17.58
240.517	50.35
240.735	103.59
240.952	60.59
241.169	-4.95
241.386	-21.33
241.603	60.59
241.821	-52.05
242.038	64.68
242.255	19.63
242.472	-54.1
242.689	33.96
242.907	74.92
243.124	-7
243.341	7.34
243.558	-39.76
243.775	-35.67
243.992	7.34
244.209	85.16
244.426	11.43
244.643	15.53
244.86	1.19
245.078	27.82
245.295	46.25
245.512	42.15
245.729	-7
245.946	83.11
246.163	62.63
246.38	-2.9
246.597	-109.4
246.814	31.91
247.031	-9.05
247.248	-35.67
247.464	36.01
247.681	111.78
247.898	40.11
248.115	99.5
248.332	25.77
248.549	-17.24
248.766	60.59
248.983	56.49
249.2	97.45
249.417	111.78
249.633	60.59
249.85	13.48
250.067	68.78
250.284	-43.86
250.501	-64.34
250.717	56.49
250.934	-23.38
251.151	33.96
251.368	91.31
251.585	91.31
251.801	7.34
252.018	119.98
252.235	-9.05
252.451	-4.95
252.668	31.91
252.885	50.35
253.102	5.29
253.318	27.82
253.535	-13.14
253.752	-7
253.968	83.11
254.185	27.82
254.401	81.07
254.618	23.72
254.835	15.53
255.051	113.83
255.268	31.91
255.484	-11.09
255.701	-31.57
255.917	33.96
256.134	-68.44
256.351	-0.85
256.567	-15.19
256.784	105.64
257	3.24
257.217	48.3
257.433	3.24
257.65	38.06
257.866	25.77
258.082	-54.1
258.299	122.02
258.515	66.73
258.732	17.58
258.948	33.96
259.165	81.07
259.381	15.53
259.597	60.59
259.814	70.83
260.03	17.58
260.246	15.53
260.463	25.77
260.679	60.59
260.895	-29.52
261.112	52.39
261.328	-27.48
261.544	-29.52
261.761	52.39
261.977	21.67
262.193	68.78
262.409	13.48
262.626	89.26
262.842	-17.24
263.058	-45.91
263.274	-101.2
263.49	15.53
263.707	87.21
263.923	-15.19
264.139	-21.33
264.355	27.82
264.571	38.06
264.787	36.01
265.004	91.31
265.22	-39.76
265.436	-41.81
265.652	-4.95
265.868	-11.09
266.084	15.53
266.3	72.87
266.516	21.67
266.732	-19.29
266.948	9.39
267.164	-27.48
267.38	-50
267.596	33.96
267.812	17.58
268.028	99.5
268.244	-2.9
268.46	126.12
268.676	-19.29
268.892	23.72
269.108	-0.85
269.324	-2.9
269.54	-45.91
269.756	74.92
269.972	-23.38
270.188	52.39
270.403	-15.19
270.619	-54.1
270.835	31.91
271.051	5.29
271.267	42.15
271.483	-7
271.698	-0.85
271.914	54.44
272.13	25.77
272.346	-15.19
272.562	15.53
272.777	95.4
272.993	21.67
273.209	-25.43
273.425	27.82
273.64	1.19
273.856	-13.14
274.072	81.07
274.287	60.59
274.503	40.11
274.719	56.49
274.934	29.87
275.15	-47.96
275.366	7.34
275.581	-66.39
275.797	85.16
276.012	-23.38
276.228	36.01
276.444	38.06
276.659	40.11
276.875	-115.54
277.09	64.68
277.306	36.01
277.521	83.11
277.737	50.35
277.952	-54.1
278.168	42.15
278.383	42.15
278.599	62.63
278.814	60.59
279.03	7.34
279.245	109.74
279.461	46.25
279.676	66.73
279.892	31.91
280.107	64.68
280.322	-15.19
280.538	19.63
280.753	-13.14
280.969	36.01
281.184	-88.92
281.399	19.63
281.615	44.2
281.83	46.25
282.045	11.43
282.26	-27.48
282.476	72.87
282.691	-2.9
282.906	1.19
283.122	-50
283.337	-68.44
283.552	-23.38
283.767	89.26
283.983	27.82
284.198	25.77
284.413	7.34
284.628	70.83
284.843	54.44
285.058	-45.91
285.274	109.74
285.489	19.63
285.704	-9.05
285.919	23.72
286.134	-7
286.349	44.2
286.564	11.43
286.779	40.11
286.995	33.96
287.21	-17.24
287.425	109.74
287.64	-4.95
287.855	-4.95
288.07	-31.57
288.285	7.34
288.5	72.87
288.715	109.74
288.93	-2.9
289.145	-39.76
289.36	54.44
289.575	-33.62
289.79	54.44
290.004	33.96
290.219	21.67
290.434	60.59
290.649	13.48
290.864	62.63
291.079	25.77
291.294	97.45
291.509	25.77
291.724	-2.9
291.938	-33.62
292.153	56.49
292.368	27.82
292.583	19.63
292.798	21.67
293.012	21.67
293.227	1.19
293.442	89.26
293.657	76.97
293.871	9.39
294.086	19.63
294.301	81.07
294.516	132.26
294.73	23.72
294.945	117.93
295.16	13.48
295.374	19.63
295.589	29.87
295.804	7.34
296.018	7.34
296.233	29.87
296.447	46.25
296.662	-64.34
296.877	72.87
297.091	81.07
297.306	17.58
297.52	-23.38
297.735	52.39
297.949	117.93
298.164	21.67
298.378	58.54
298.593	15.53
298.807	27.82
299.022	17.58
299.236	105.64
299.451	126.12
299.665	25.77
299.88	62.63
300.094	52.39
300.309	66.73
300.523	19.63
300.737	5.29
300.952	-9.05
301.166	44.2
301.381	-7
301.595	36.01
301.809	-0.85
302.024	31.91
302.238	-25.43
302.452	150.7
302.667	-13.14
302.881	40.11
303.095	29.87
303.309	44.2
303.524	40.11
303.738	-17.24
303.952	74.92
304.166	29.87
304.381	-27.48
304.595	62.63
304.809	52.39
305.023	-4.95
305.237	-43.86
305.452	56.49
305.666	101.55
305.88	58.54
306.094	60.59
306.308	68.78
306.522	107.69
306.736	113.83
306.95	19.63
307.164	9.39
307.379	29.87
307.593	87.21
307.807	-13.14
308.021	101.55
308.235	60.59
308.449	25.77
308.663	36.01
308.877	107.69
309.091	-62.29
309.305	7.34
309.519	-11.09
309.733	56.49
309.947	-7
310.161	36.01
310.374	72.87
310.588	81.07
310.802	70.83
311.016	58.54
311.23	-21.33
311.444	-45.91
311.658	44.2
311.872	15.53
312.085	31.91
312.299	81.07
312.513	70.83
312.727	31.91
312.941	54.44
313.154	81.07
313.368	70.83
313.582	-0.85
313.796	-19.29
314.009	7.34
314.223	64.68
314.437	58.54
314.651	7.34
314.864	-4.95
315.078	3.24
315.292	27.82
315.505	-2.9
315.719	11.43
315.933	44.2
316.146	13.48
316.36	-9.05
316.573	56.49
316.787	60.59
317.001	48.3
317.214	-27.48
317.428	46.25
317.641	-62.29
317.855	29.87
318.068	-4.95
318.282	-13.14
318.495	156.84
318.709	68.78
318.922	1.19
319.136	76.97
319.349	31.91
319.563	33.96
319.776	11.43
319.99	21.67
320.203	72.87
320.417	40.11
320.63	48.3
320.843	93.35
321.057	58.54
321.27	15.53
321.483	42.15
321.697	132.26
321.91	29.87
322.124	64.68
322.337	126.12
322.55	-19.29
322.763	36.01
322.977	-31.57
323.19	19.63
323.403	36.01
323.617	7.34
323.83	68.78
324.043	111.78
324.256	19.63
324.469	-7
324.683	56.49
324.896	-37.72
325.109	58.54
325.322	60.59
325.535	101.55
325.748	15.53
325.962	74.92
326.175	38.06
326.388	27.82
326.601	93.35
326.814	-23.38
327.027	58.54
327.24	15.53
327.453	36.01
327.666	38.06
327.879	50.35
328.092	27.82
328.305	31.91
328.518	11.43
328.731	-62.29
328.944	19.63
329.157	56.49
329.37	44.2
329.583	38.06
329.796	31.91
330.009	31.91
330.222	89.26
330.435	-17.24
330.648	99.5
330.861	50.35
331.073	-21.33
331.286	74.92
331.499	-21.33
331.712	-4.95
331.925	48.3
332.138	64.68
332.35	17.58
332.563	5.29
332.776	103.59
332.989	7.34
333.202	76.97
333.414	21.67
333.627	60.59
333.84	-27.48
334.053	101.55
334.265	9.39
334.478	50.35
334.691	5.29
334.903	70.83
335.116	17.58
335.329	-13.14
335.541	70.83
335.754	27.82
335.966	5.29
336.179	40.11
336.392	3.24
336.604	-27.48
336.817	83.11
337.029	29.87
337.242	15.53
337.454	52.39
337.667	1.19
337.88	60.59
338.092	25.77
338.305	42.15
338.517	60.59
338.729	54.44
338.942	126.12
339.154	-9.05
339.367	-21.33
339.579	87.21
339.792	68.78
340.004	38.06
340.217	21.67
340.429	81.07
340.641	33.96
340.854	70.83
341.066	54.44
341.278	48.3
341.491	68.78
341.703	5.29
341.915	1.19
342.128	31.91
342.34	31.91
342.552	56.49
342.764	-4.95
342.977	7.34
343.189	70.83
343.401	83.11
343.613	9.39
343.826	46.25
344.038	-41.81
344.25	72.87
344.462	-50
344.674	25.77
344.886	25.77
345.099	60.59
345.311	105.64
345.523	27.82
345.735	-37.72
345.947	27.82
346.159	58.54
346.371	44.2
346.583	1.19
346.795	93.35
347.007	52.39
347.219	54.44
347.431	-7
347.643	64.68
347.855	31.91
348.067	58.54
348.279	-25.43
348.491	17.58
348.703	97.45
348.915	27.82
349.127	81.07
349.339	54.44
349.551	36.01
349.763	36.01
349.975	74.92
350.187	54.44
350.399	99.5
350.61	70.83
350.822	91.31
351.034	36.01
351.246	85.16
351.458	87.21
351.669	-9.05
351.881	72.87
352.093	60.59
352.305	23.72
352.517	48.3
352.728	27.82
352.94	19.63
353.152	66.73
353.363	5.29
353.575	56.49
353.787	91.31
353.999	3.24
354.21	72.87
354.422	48.3
354.633	-9.05
354.845	17.58
355.057	11.43
355.268	-29.52
355.48	17.58
355.692	13.48
355.903	40.11
356.115	44.2
356.326	60.59
356.538	38.06
356.749	97.45
356.961	29.87
357.172	83.11
357.384	19.63
357.595	150.7
357.807	-13.14
358.018	52.39
358.23	-35.67
358.441	64.68
358.653	58.54
358.864	44.2
359.075	-29.52
359.287	-39.76
359.498	107.69
359.709	74.92
359.921	62.63
360.132	83.11
360.344	64.68
360.555	31.91
360.766	52.39
360.977	-17.24
361.189	81.07
361.4	40.11
361.611	50.35
361.823	54.44
362.034	76.97
362.245	52.39
362.456	36.01
362.667	79.02
362.879	42.15
363.09	93.35
363.301	40.11
363.512	99.5
363.723	-31.57
363.935	9.39
364.146	56.49
364.357	56.49
364.568	101.55
364.779	-47.96
364.99	87.21
365.201	25.77
365.412	130.22
365.623	-23.38
365.834	21.67
366.045	15.53
366.256	21.67
366.467	-64.34
366.678	97.45
366.889	93.35
367.1	91.31
367.311	85.16
367.522	68.78
367.733	111.78
367.944	89.26
368.155	58.54
368.366	85.16
368.577	93.35
368.788	44.2
368.999	54.44
369.209	68.78
369.42	74.92
369.631	66.73
369.842	99.5
370.053	83.11
370.264	-13.14
370.474	-4.95
370.685	11.43
370.896	21.67
371.107	64.68
371.317	15.53
371.528	44.2
371.739	85.16
371.95	13.48
372.16	52.39
372.371	-35.67
372.582	175.27
372.792	52.39
373.003	11.43
373.214	-9.05
373.424	38.06
373.635	31.91
373.846	113.83
374.056	-9.05
374.267	64.68
374.477	79.02
374.688	-9.05
374.898	93.35
375.109	38.06
375.319	124.07
375.53	85.16
375.74	87.21
375.951	44.2
376.161	7.34
376.372	95.4
376.582	85.16
376.793	74.92
377.003	50.35
377.214	44.2
377.424	21.67
377.635	85.16
377.845	44.2
378.055	124.07
378.266	40.11
378.476	11.43
378.686	128.17
378.897	40.11
379.107	56.49
379.317	70.83
379.528	79.02
379.738	48.3
379.948	-25.43
380.158	23.72
380.369	76.97
380.579	89.26
380.789	33.96
380.999	122.02
381.21	101.55
381.42	117.93
381.63	-64.34
381.84	113.83
382.05	40.11
382.261	42.15
382.471	17.58
382.681	72.87
382.891	50.35
383.101	48.3
383.311	-0.85
383.521	42.15
383.731	1.19
383.941	27.82
384.151	56.49
384.361	79.02
384.571	19.63
384.781	89.26
384.991	138.41
385.201	-29.52
385.411	11.43
385.621	58.54
385.831	122.02
386.041	-19.29
386.251	42.15
386.461	23.72
386.671	64.68
386.881	68.78
387.091	19.63
387.301	101.55
387.511	27.82
387.72	60.59
387.93	27.82
388.14	44.2
388.35	38.06
388.56	19.63
388.769	91.31
388.979	-27.48
389.189	50.35
389.399	15.53
389.609	31.91
389.818	68.78
390.028	109.74
390.238	56.49
390.447	56.49
390.657	93.35
390.867	11.43
391.076	23.72
391.286	87.21
391.496	83.11
391.705	46.25
391.915	72.87
392.125	79.02
392.334	56.49
392.544	54.44
392.753	81.07
392.963	27.82
393.172	126.12
393.382	76.97
393.591	126.12
393.801	40.11
394.01	19.63
394.22	7.34
394.429	27.82
394.639	56.49
394.848	130.22
395.058	-23.38
395.267	95.4
395.477	95.4
395.686	66.73
395.895	134.31
396.105	134.31
396.314	95.4
396.524	148.65
396.733	68.78
396.942	150.7
397.152	52.39
397.361	148.65
397.57	72.87
397.78	183.46
397.989	167.08
398.198	126.12
398.407	52.39
398.617	50.35
398.826	79.02
399.035	70.83
399.244	27.82
399.453	128.17
399.663	50.35
399.872	74.92
400.081	76.97
400.29	105.64
400.499	58.54
400.708	169.13
400.917	76.97
401.127	93.35
401.336	154.79
401.545	226.47
401.754	165.03
401.963	183.46
402.172	17.58
402.381	134.31
402.59	64.68
402.799	146.6
403.008	117.93
403.217	183.46
403.426	179.37
403.635	144.55
403.844	115.88
404.053	181.42
404.262	85.16
404.471	154.79
404.68	162.98
404.888	148.65
405.097	249
405.306	181.42
405.515	195.75
405.724	119.98
405.933	246.95
406.142	257.19
406.35	218.28
406.559	287.91
406.768	228.52
406.977	306.34
407.185	261.29
407.394	173.22
407.603	236.71
407.812	251.05
408.02	294.05
408.229	298.15
408.438	302.25
408.646	236.71
408.855	263.33
409.064	341.16
409.272	304.29
409.481	326.82
409.69	289.96
409.898	355.49
410.107	232.62
410.315	418.98
410.524	335.01
410.733	435.36
410.941	324.77
411.15	435.36
411.358	371.88
411.567	402.6
411.775	468.13
411.984	480.42
412.192	588.96
412.401	502.95
412.609	578.72
412.818	629.92
413.026	599.2
413.234	672.93
413.443	664.74
413.651	677.02
413.86	703.65
414.068	677.02
414.276	752.8
414.485	738.46
414.693	828.57
414.901	842.91
415.11	900.25
415.318	920.73
415.526	869.53
415.734	986.27
415.943	957.6
416.151	1055.9
416.359	949.4
416.567	984.22
416.776	1094.81
416.984	1021.08
417.192	1117.34
417.4	1197.21
417.608	1182.87
417.817	1217.69
418.025	1301.65
418.233	1449.11
418.441	1277.08
418.649	1350.81
418.857	1559.7
419.065	1469.59
419.273	1561.75
419.481	1526.93
419.689	1711.25
419.897	1711.25
420.105	1756.3
420.313	1991.82
420.521	1948.81
420.729	1944.72
420.937	1997.96
421.145	2071.69
421.353	2296.97
421.561	2260.1
421.769	2352.26
421.977	2393.22
422.185	2344.07
422.393	2632.83
422.601	2673.79
422.809	2731.14
423.017	2788.48
423.224	2849.92
423.432	2911.36
423.64	3046.52
423.848	3198.07
424.056	3097.72
424.263	3419.25
424.471	3355.77
424.679	3353.72
424.887	3681.39
425.094	3665.01
425.302	3828.85
425.51	3886.19
425.718	4072.56
425.925	4080.75
426.133	4228.2
426.341	4547.69
426.548	4682.85
426.756	4625.51
426.964	4777.06
427.171	4969.57
427.379	5246.04
427.586	5219.42
427.794	5368.92
428.001	5727.32
428.209	5825.62
428.417	5860.43
428.624	6216.78
428.832	6229.07
429.039	6188.11
429.247	6138.96
429.454	6640.71
429.662	7195.71
429.869	6757.44
430.076	7218.24
430.284	6876.23
430.491	7400.51
430.699	7672.89
430.906	7806
431.114	7863.35
431.321	8162.35
431.528	8221.74
431.736	8743.97
431.943	9051.17
432.15	9067.55
432.358	8963.11
432.565	9581.59
432.772	9573.4
432.979	9950.23
433.187	10185.74
433.394	10081.3
433.601	10955.78
433.808	11066.37
434.016	10810.37
434.223	11363.33
434.43	11971.57
434.637	11785.21
434.844	12653.55
435.052	12604.39
435.259	12803.05
435.466	12762.09
435.673	12772.33
435.88	13306.85
436.087	14332.88
436.294	14080.98
436.501	13843.42
436.708	14107.6
436.915	14392.27
437.122	15221.7
437.329	14994.37
437.537	15836.09
437.743	16083.89
437.95	15811.51
438.157	16466.86
438.364	17296.29
438.571	17136.55
438.778	17152.93
438.985	18860.94
439.192	18189.21
439.399	18768.78
439.606	18203.54
439.813	19506.05
440.02	20472.69
440.227	20401.01
440.433	19835.77
440.64	20546.42
440.847	20548.47
441.054	20900.72
441.261	22031.19
441.467	22037.34
441.674	22500.18
441.881	23329.61
442.088	23284.55
442.294	23176.01
442.501	23585.6
442.708	23925.57
442.914	24955.69
443.121	26084.12
443.328	25518.89
443.534	27370.25
443.741	26598.16
443.948	25824.03
444.154	27958.02
444.361	28089.09
444.568	28121.85
444.774	28070.65
444.981	28224.25
445.187	29113.07
445.394	30399.19
445.6	29739.75
445.807	32877.24
446.013	31097.55
446.22	31707.85
446.426	32916.15
446.633	33598.12
446.839	34138.79
447.046	32639.67
447.252	34849.43
447.459	34833.05
447.665	34546.33
447.871	35674.76
448.078	37247.6
448.284	35953.29
448.491	36917.88
448.697	38107.75
448.903	38828.63
449.11	39105.11
449.316	38134.37
449.522	39139.93
449.728	39658.06
449.935	40088.13
450.141	40274.5
450.347	41013.82
450.553	39721.55
450.76	40507.97
450.966	41493.04
451.172	40847.93
451.378	42031.66
451.584	41419.31
451.791	42107.43
451.997	41763.37
452.203	42869.28
452.409	42609.18
452.615	42781.21
452.821	40966.71
453.027	40786.49
453.233	42222.12
453.44	40704.57
453.646	41523.76
453.852	41060.92
454.058	41894.44
454.264	40854.08
454.47	41185.85
454.676	40526.4
454.882	41751.09
455.088	38208.1
455.294	38662.75
455.5	39449.17
455.705	39684.69
455.911	37859.94
456.117	37167.73
456.323	36934.26
456.529	34689.69
456.735	36577.92
456.941	35226.26
457.147	34933.4
457.352	33819.3
457.558	32983.73
457.764	33405.61
457.97	32488.12
458.176	32219.84
458.381	31965.89
458.587	30239.45
458.793	30753.49
458.999	28822.26
459.204	31097.55
459.41	30313.18
459.616	27906.82
459.821	28328.7
460.027	27828.99
460.233	27540.23
460.438	26348.31
460.644	26481.43
460.85	25180.97
461.055	24621.87
461.261	25051.95
461.466	23014.22
461.672	22188.89
461.878	23614.27
462.083	22440.79
462.289	21912.41
462.494	21685.09
462.7	20517.75
462.905	20153.21
463.111	20798.32
463.316	20996.97
463.522	20505.46
463.727	20534.13
463.932	20575.09
464.138	20192.12
464.343	20304.76
464.549	19606.4
464.754	20360.05
464.959	20161.4
465.165	19993.47
465.37	19596.16
465.575	18641.81
465.781	19680.13
465.986	19596.16
466.191	18977.67
466.397	18555.79
466.602	17716.12
466.807	18508.69
467.012	18178.97
467.218	18400.15
