Data from USB4F104151__106__10-24-49-627.txt Node

Date: Wed Mar 12 10:24:49 EDT 2025
User: louis
Spectrometer: USB4F10415
Trigger mode: 4
Integration Time (sec): 3.000000E-2
Scans to average: 1
Electric dark correction enabled: true
Nonlinearity correction enabled: false
Boxcar width: 0
XAxis mode: Wavelengths
Number of Pixels in Spectrum: 3648
>>>>>Begin Spectral Data<<<<<
178.204	-163.84
178.424	-163.84
178.644	-163.84
178.864	-92.16
179.084	-61.44
179.304	-4.1
179.524	-26.62
179.744	-2.05
179.964	55.3
180.184	53.25
180.404	-45.06
180.624	-51.2
180.844	-6.14
181.064	-32.77
181.283	20.48
181.503	51.2
181.723	-12.29
181.943	-45.06
182.163	102.4
182.383	-8.19
182.602	26.62
182.822	30.72
183.042	40.96
183.262	-57.34
183.482	38.91
183.701	22.53
183.921	28.67
184.141	16.38
184.361	30.72
184.58	75.77
184.8	86.01
185.02	-20.48
185.239	0
185.459	28.67
185.679	51.2
185.898	81.92
186.118	145.41
186.338	34.82
186.557	12.29
186.777	-45.06
186.997	57.34
187.216	-4.1
187.436	36.86
187.655	67.58
187.875	36.86
188.095	53.25
188.314	73.73
188.534	65.54
188.753	0
188.973	18.43
189.192	49.15
189.412	53.25
189.631	16.38
189.851	-26.62
190.07	14.34
190.29	18.43
190.509	-73.73
190.729	67.58
190.948	49.15
191.168	120.83
191.387	73.73
191.607	67.58
191.826	55.3
192.045	14.34
192.265	20.48
192.484	10.24
192.704	12.29
192.923	-10.24
193.142	106.49
193.362	57.34
193.581	28.67
193.8	14.34
194.02	92.16
194.239	24.58
194.458	10.24
194.678	73.73
194.897	14.34
195.116	61.44
195.335	20.48
195.555	110.59
195.774	57.34
195.993	20.48
196.212	-43.01
196.432	24.58
196.651	40.96
196.87	12.29
197.089	59.39
197.308	8.19
197.528	114.69
197.747	16.38
197.966	16.38
198.185	71.68
198.404	12.29
198.623	16.38
198.842	49.15
199.062	38.91
199.281	102.4
199.5	14.34
199.719	110.59
199.938	-40.96
200.157	24.58
200.376	79.87
200.595	79.87
200.814	2.05
201.033	40.96
201.252	75.77
201.471	32.77
201.69	45.06
201.909	8.19
202.128	10.24
202.347	59.39
202.566	79.87
202.785	4.1
203.004	6.14
203.223	94.21
203.442	-26.62
203.661	12.29
203.879	-43.01
204.098	135.17
204.317	6.14
204.536	81.92
204.755	57.34
204.974	-14.34
205.193	-49.15
205.411	45.06
205.63	12.29
205.849	2.05
206.068	8.19
206.287	88.06
206.505	108.54
206.724	8.19
206.943	20.48
207.162	0
207.381	81.92
207.599	135.17
207.818	-24.58
208.037	53.25
208.255	28.67
208.474	81.92
208.693	49.15
208.911	-2.05
209.13	45.06
209.349	24.58
209.567	12.29
209.786	16.38
210.005	49.15
210.223	83.97
210.442	8.19
210.661	71.68
210.879	51.2
211.098	-20.48
211.316	18.43
211.535	24.58
211.753	-24.58
211.972	59.39
212.191	8.19
212.409	77.82
212.628	22.53
212.846	24.58
213.065	67.58
213.283	-16.38
213.502	34.82
213.72	-16.38
213.938	8.19
214.157	-8.19
214.375	26.62
214.594	65.54
214.812	69.63
215.031	8.19
215.249	30.72
215.467	20.48
215.686	69.63
215.904	28.67
216.122	45.06
216.341	22.53
216.559	26.62
216.778	71.68
216.996	28.67
217.214	36.86
217.432	10.24
217.651	12.29
217.869	65.54
218.087	-22.53
218.306	45.06
218.524	98.3
218.742	32.77
218.96	16.38
219.179	90.11
219.397	8.19
219.615	98.3
219.833	22.53
220.051	-10.24
220.27	77.82
220.488	22.53
220.706	-10.24
220.924	-4.1
221.142	59.39
221.36	18.43
221.578	28.67
221.796	51.2
222.015	18.43
222.233	12.29
222.451	98.3
222.669	12.29
222.887	8.19
223.105	4.1
223.323	57.34
223.541	20.48
223.759	16.38
223.977	63.49
224.195	14.34
224.413	65.54
224.631	61.44
224.849	-20.48
225.067	129.02
225.285	-26.62
225.503	16.38
225.721	28.67
225.939	-12.29
226.157	98.3
226.375	120.83
226.592	-4.1
226.81	57.34
227.028	49.15
227.246	126.97
227.464	30.72
227.682	77.82
227.9	-24.58
228.117	20.48
228.335	4.1
228.553	0
228.771	90.11
228.989	16.38
229.206	67.58
229.424	-57.34
229.642	-8.19
229.86	-14.34
230.077	73.73
230.295	47.1
230.513	14.34
230.731	49.15
230.948	38.91
231.166	24.58
231.384	20.48
231.601	10.24
231.819	114.69
232.037	0
232.254	-55.3
232.472	61.44
232.689	-4.1
232.907	86.01
233.125	40.96
233.342	8.19
233.56	55.3
233.777	77.82
233.995	61.44
234.213	65.54
234.43	86.01
234.648	88.06
234.865	61.44
235.083	24.58
235.3	0
235.518	75.77
235.735	49.15
235.953	36.86
236.17	38.91
236.388	12.29
236.605	28.67
236.822	129.02
237.04	67.58
237.257	43.01
237.475	32.77
237.692	34.82
237.909	16.38
238.127	38.91
238.344	69.63
238.562	30.72
238.779	40.96
238.996	28.67
239.214	28.67
239.431	81.92
239.648	-26.62
239.865	59.39
240.083	90.11
240.3	55.3
240.517	-32.77
240.735	34.82
240.952	63.49
241.169	86.01
241.386	61.44
241.603	100.35
241.821	-8.19
242.038	30.72
242.255	4.1
242.472	26.62
242.689	112.64
242.907	36.86
243.124	49.15
243.341	83.97
243.558	20.48
243.775	2.05
243.992	4.1
244.209	131.07
244.426	112.64
244.643	118.78
244.86	2.05
245.078	47.1
245.295	24.58
245.512	90.11
245.729	79.87
245.946	22.53
246.163	43.01
246.38	-10.24
246.597	77.82
246.814	28.67
247.031	69.63
247.248	47.1
247.464	47.1
247.681	24.58
247.898	63.49
248.115	43.01
248.332	-10.24
248.549	59.39
248.766	88.06
248.983	40.96
249.2	83.97
249.417	22.53
249.633	34.82
249.85	20.48
250.067	63.49
250.284	-2.05
250.501	61.44
250.717	102.4
250.934	32.77
251.151	47.1
251.368	24.58
251.585	90.11
251.801	57.34
252.018	12.29
252.235	2.05
252.451	16.38
252.668	-14.34
252.885	49.15
253.102	4.1
253.318	2.05
253.535	43.01
253.752	12.29
253.968	49.15
254.185	57.34
254.401	88.06
254.618	86.01
254.835	8.19
255.051	124.93
255.268	30.72
255.484	30.72
255.701	40.96
255.917	55.3
256.134	49.15
256.351	36.86
256.567	63.49
256.784	0
257	26.62
257.217	47.1
257.433	71.68
257.65	67.58
257.866	55.3
258.082	14.34
258.299	-49.15
258.515	57.34
258.732	30.72
258.948	43.01
259.165	4.1
259.381	102.4
259.597	36.86
259.814	65.54
260.03	106.49
260.246	47.1
260.463	26.62
260.679	43.01
260.895	12.29
261.112	98.3
261.328	22.53
261.544	12.29
261.761	145.41
261.977	53.25
262.193	-8.19
262.409	26.62
262.626	61.44
262.842	-32.77
263.058	159.74
263.274	6.14
263.49	86.01
263.707	133.12
263.923	102.4
264.139	-4.1
264.355	32.77
264.571	49.15
264.787	49.15
265.004	102.4
265.22	73.73
265.436	-24.58
265.652	43.01
265.868	53.25
266.084	34.82
266.3	43.01
266.516	30.72
266.732	28.67
266.948	51.2
267.164	65.54
267.38	40.96
267.596	73.73
267.812	104.45
268.028	57.34
268.244	2.05
268.46	16.38
268.676	-10.24
268.892	34.82
269.108	10.24
269.324	-6.14
269.54	-65.53
269.756	-26.62
269.972	-18.43
270.188	47.1
270.403	-10.24
270.619	32.77
270.835	47.1
271.051	0
271.267	30.72
271.483	8.19
271.698	51.2
271.914	40.96
272.13	18.43
272.346	83.97
272.562	26.62
272.777	20.48
272.993	8.19
273.209	63.49
273.425	28.67
273.64	-8.19
273.856	67.58
274.072	51.2
274.287	14.34
274.503	40.96
274.719	32.77
274.934	63.49
275.15	14.34
275.366	104.45
275.581	40.96
275.797	0
276.012	49.15
276.228	63.49
276.444	69.63
276.659	32.77
276.875	-8.19
277.09	69.63
277.306	59.39
277.521	100.35
277.737	57.34
277.952	53.25
278.168	-10.24
278.383	18.43
278.599	22.53
278.814	114.69
279.03	22.53
279.245	55.3
279.461	73.73
279.676	67.58
279.892	22.53
280.107	45.06
280.322	32.77
280.538	49.15
280.753	-10.24
280.969	73.73
281.184	22.53
281.399	75.77
281.615	65.54
281.83	73.73
282.045	30.72
282.26	8.19
282.476	81.92
282.691	98.3
282.906	30.72
283.122	22.53
283.337	-16.38
283.552	-16.38
283.767	40.96
283.983	75.77
284.198	-8.19
284.413	73.73
284.628	4.1
284.843	51.2
285.058	73.73
285.274	-4.1
285.489	6.14
285.704	38.91
285.919	65.54
286.134	32.77
286.349	63.49
286.564	45.06
286.779	38.91
286.995	32.77
287.21	-71.68
287.425	104.45
287.64	65.54
287.855	73.73
288.07	45.06
288.285	49.15
288.5	-4.1
288.715	90.11
288.93	73.73
289.145	86.01
289.36	73.73
289.575	79.87
289.79	-16.38
290.004	-22.53
290.219	26.62
290.434	65.54
290.649	36.86
290.864	69.63
291.079	32.77
291.294	45.06
291.509	26.62
291.724	94.21
291.938	-6.14
292.153	81.92
292.368	18.43
292.583	49.15
292.798	86.01
293.012	57.34
293.227	-18.43
293.442	28.67
293.657	90.11
293.871	59.39
294.086	36.86
294.301	57.34
294.516	98.3
294.73	67.58
294.945	-10.24
295.16	30.72
295.374	131.07
295.589	75.77
295.804	49.15
296.018	0
296.233	45.06
296.447	8.19
296.662	38.91
296.877	47.1
297.091	75.77
297.306	30.72
297.52	43.01
297.735	10.24
297.949	47.1
298.164	83.97
298.378	0
298.593	-32.77
298.807	36.86
299.022	110.59
299.236	-8.19
299.451	12.29
299.665	22.53
299.88	16.38
300.094	53.25
300.309	69.63
300.523	65.54
300.737	59.39
300.952	49.15
301.166	53.25
301.381	0
301.595	36.86
301.809	40.96
302.024	28.67
302.238	8.19
302.452	-4.1
302.667	49.15
302.881	57.34
303.095	71.68
303.309	16.38
303.524	-12.29
303.738	-79.87
303.952	4.1
304.166	143.36
304.381	30.72
304.595	114.69
304.809	49.15
305.023	20.48
305.237	24.58
305.452	16.38
305.666	73.73
305.88	12.29
306.094	81.92
306.308	6.14
306.522	81.92
306.736	100.35
306.95	45.06
307.164	86.01
307.379	83.97
307.593	112.64
307.807	88.06
308.021	92.16
308.235	114.69
308.449	22.53
308.663	45.06
308.877	90.11
309.091	67.58
309.305	28.67
309.519	47.1
309.733	69.63
309.947	10.24
310.161	69.63
310.374	98.3
310.588	96.25
310.802	-16.38
311.016	53.25
311.23	22.53
311.444	53.25
311.658	14.34
311.872	77.82
312.085	61.44
312.299	57.34
312.513	63.49
312.727	-30.72
312.941	-8.19
313.154	55.3
313.368	129.02
313.582	28.67
313.796	106.49
314.009	-4.1
314.223	49.15
314.437	49.15
314.651	14.34
314.864	12.29
315.078	26.62
315.292	12.29
315.505	30.72
315.719	26.62
315.933	8.19
316.146	-45.06
316.36	10.24
316.573	55.3
316.787	45.06
317.001	12.29
317.214	22.53
317.428	12.29
317.641	32.77
317.855	69.63
318.068	-24.58
318.282	81.92
318.495	55.3
318.709	43.01
318.922	-18.43
319.136	71.68
319.349	40.96
319.563	90.11
319.776	53.25
319.99	0
320.203	69.63
320.417	77.82
320.63	30.72
320.843	163.84
321.057	28.67
321.27	71.68
321.483	20.48
321.697	16.38
321.91	28.67
322.124	43.01
322.337	38.91
322.55	0
322.763	65.54
322.977	16.38
323.19	-8.19
323.403	65.54
323.617	-16.38
323.83	92.16
324.043	-20.48
324.256	8.19
324.469	0
324.683	55.3
324.896	24.58
325.109	73.73
325.322	49.15
325.535	49.15
325.748	43.01
325.962	90.11
326.175	32.77
326.388	61.44
326.601	88.06
326.814	-18.43
327.027	45.06
327.24	2.05
327.453	-59.39
327.666	94.21
327.879	100.35
328.092	79.87
328.305	2.05
328.518	16.38
328.731	24.58
328.944	106.49
329.157	98.3
329.37	59.39
329.583	110.59
329.796	118.78
330.009	18.43
330.222	92.16
330.435	36.86
330.648	122.88
330.861	122.88
331.073	86.01
331.286	16.38
331.499	83.97
331.712	77.82
331.925	88.06
332.138	0
332.35	88.06
332.563	-8.19
332.776	43.01
332.989	6.14
333.202	112.64
333.414	4.1
333.627	98.3
333.84	28.67
334.053	73.73
334.265	63.49
334.478	90.11
334.691	16.38
334.903	24.58
335.116	20.48
335.329	57.34
335.541	55.3
335.754	116.73
335.966	65.54
336.179	118.78
336.392	16.38
336.604	51.2
336.817	53.25
337.029	92.16
337.242	59.39
337.454	75.77
337.667	-2.05
337.88	81.92
338.092	51.2
338.305	122.88
338.517	20.48
338.729	114.69
338.942	53.25
339.154	67.58
339.367	86.01
339.579	94.21
339.792	32.77
340.004	49.15
340.217	32.77
340.429	63.49
340.641	73.73
340.854	57.34
341.066	32.77
341.278	71.68
341.491	75.77
341.703	81.92
341.915	51.2
342.128	57.34
342.34	63.49
342.552	32.77
342.764	57.34
342.977	57.34
343.189	69.63
343.401	102.4
343.613	6.14
343.826	122.88
344.038	34.82
344.25	83.97
344.462	0
344.674	83.97
344.886	24.58
345.099	79.87
345.311	18.43
345.523	104.45
345.735	22.53
345.947	73.73
346.159	43.01
346.371	83.97
346.583	57.34
346.795	104.45
347.007	57.34
347.219	73.73
347.431	24.58
347.643	77.82
347.855	-6.14
348.067	98.3
348.279	63.49
348.491	104.45
348.703	86.01
348.915	45.06
349.127	43.01
349.339	32.77
349.551	12.29
349.763	86.01
349.975	24.58
350.187	90.11
350.399	30.72
350.61	110.59
350.822	26.62
351.034	43.01
351.246	65.54
351.458	118.78
351.669	40.96
351.881	112.64
352.093	114.69
352.305	90.11
352.517	30.72
352.728	40.96
352.94	61.44
353.152	61.44
353.363	90.11
353.575	86.01
353.787	81.92
353.999	79.87
354.21	122.88
354.422	57.34
354.633	24.58
354.845	116.73
355.057	73.73
355.268	18.43
355.48	69.63
355.692	34.82
355.903	28.67
356.115	51.2
356.326	53.25
356.538	147.45
356.749	92.16
356.961	96.25
357.172	71.68
357.384	36.86
357.595	36.86
357.807	86.01
358.018	28.67
358.23	100.35
358.441	90.11
358.653	92.16
358.864	22.53
359.075	22.53
359.287	63.49
359.498	67.58
359.709	14.34
359.921	59.39
360.132	28.67
360.344	57.34
360.555	14.34
360.766	53.25
360.977	65.54
361.189	63.49
361.4	36.86
361.611	14.34
361.823	22.53
362.034	114.69
362.245	18.43
362.456	65.54
362.667	53.25
362.879	0
363.09	59.39
363.301	79.87
363.512	153.6
363.723	71.68
363.935	73.73
364.146	61.44
364.357	49.15
364.568	104.45
364.779	59.39
364.99	112.64
365.201	53.25
365.412	81.92
365.623	28.67
365.834	81.92
366.045	61.44
366.256	67.58
366.467	110.59
366.678	40.96
366.889	2.05
367.1	71.68
367.311	55.3
367.522	30.72
367.733	57.34
367.944	53.25
368.155	40.96
368.366	45.06
368.577	67.58
368.788	16.38
368.999	137.21
369.209	53.25
369.42	129.02
369.631	63.49
369.842	22.53
370.053	14.34
370.264	53.25
370.474	0
370.685	49.15
370.896	43.01
371.107	120.83
371.317	40.96
371.528	112.64
371.739	77.82
371.95	47.1
372.16	83.97
372.371	45.06
372.582	69.63
372.792	88.06
373.003	45.06
373.214	83.97
373.424	92.16
373.635	53.25
373.846	153.6
374.056	14.34
374.267	30.72
374.477	73.73
374.688	55.3
374.898	59.39
375.109	65.54
375.319	34.82
375.53	94.21
375.74	36.86
375.951	36.86
376.161	75.77
376.372	118.78
376.582	28.67
376.793	55.3
377.003	110.59
377.214	45.06
377.424	169.98
377.635	73.73
377.845	126.97
378.055	40.96
378.266	-32.77
378.476	53.25
378.686	71.68
378.897	-4.1
379.107	131.07
379.317	49.15
379.528	45.06
379.738	-14.34
379.948	65.54
380.158	88.06
380.369	59.39
380.579	20.48
380.789	67.58
380.999	129.02
381.21	90.11
381.42	53.25
381.63	75.77
381.84	126.97
382.05	12.29
382.261	98.3
382.471	49.15
382.681	40.96
382.891	96.25
383.101	47.1
383.311	34.82
383.521	38.91
383.731	110.59
383.941	88.06
384.151	32.77
384.361	32.77
384.571	69.63
384.781	77.82
384.991	122.88
385.201	88.06
385.411	49.15
385.621	63.49
385.831	14.34
386.041	63.49
386.251	55.3
386.461	71.68
386.671	73.73
386.881	135.17
387.091	-2.05
387.301	106.49
387.511	47.1
387.72	75.77
387.93	24.58
388.14	-18.43
388.35	65.54
388.56	143.36
388.769	79.87
388.979	81.92
389.189	-12.29
389.399	92.16
389.609	98.3
389.818	114.69
390.028	28.67
390.238	86.01
390.447	131.07
390.657	69.63
390.867	-4.1
391.076	8.19
391.286	147.45
391.496	53.25
391.705	81.92
391.915	43.01
392.125	155.65
392.334	120.83
392.544	186.37
392.753	114.69
392.963	45.06
393.172	63.49
393.382	40.96
393.591	174.08
393.801	122.88
394.01	137.21
394.22	98.3
394.429	90.11
394.639	114.69
394.848	81.92
395.058	83.97
395.267	18.43
395.477	169.98
395.686	16.38
395.895	110.59
396.105	151.55
396.314	143.36
396.524	100.35
396.733	49.15
396.942	131.07
397.152	172.03
397.361	112.64
397.57	139.26
397.78	90.11
397.989	86.01
398.198	118.78
398.407	190.46
398.617	129.02
398.826	129.02
399.035	43.01
399.244	147.45
399.453	98.3
399.663	131.07
399.872	114.69
400.081	96.25
400.29	219.13
400.499	106.49
400.708	210.94
400.917	94.21
401.127	163.84
401.336	153.6
401.545	202.75
401.754	155.65
401.963	147.45
402.172	104.45
402.381	153.6
402.59	100.35
402.799	112.64
403.008	210.94
403.217	241.66
403.426	212.99
403.635	139.26
403.844	147.45
404.053	165.89
404.262	139.26
404.471	229.37
404.68	192.51
404.888	139.26
405.097	149.5
405.306	169.98
405.515	151.55
405.724	196.61
405.933	200.7
406.142	225.28
406.35	241.66
406.559	180.22
406.768	180.22
406.977	221.18
407.185	260.09
407.394	186.37
407.603	231.42
407.812	274.43
408.02	225.28
408.229	208.89
408.438	243.71
408.646	280.57
408.855	270.33
409.064	280.57
409.272	233.47
409.481	327.67
409.69	294.91
409.898	323.58
410.107	305.15
410.315	385.02
410.524	356.35
410.733	382.97
410.941	405.5
411.15	348.15
411.358	411.64
411.567	473.08
411.775	376.83
411.984	395.26
412.192	405.5
412.401	471.03
412.609	544.76
412.818	571.38
413.026	421.88
413.234	532.47
413.443	511.99
413.651	593.91
413.86	563.19
414.068	624.63
414.276	673.78
414.485	661.49
414.693	643.06
414.901	782.32
415.11	729.08
415.318	733.17
415.526	847.86
415.734	819.19
415.943	774.13
416.151	878.58
416.359	972.79
416.567	808.95
416.776	925.68
416.984	980.98
417.192	1116.14
417.4	954.35
417.608	1034.22
417.817	1208.3
418.025	1245.17
418.233	1259.5
418.441	1159.15
418.649	1167.34
418.857	1404.91
419.065	1308.65
419.273	1433.58
419.481	1310.7
419.689	1601.51
419.897	1523.69
420.105	1628.14
420.313	1658.85
420.521	1812.45
420.729	1689.57
420.937	1894.37
421.145	1779.68
421.353	1978.34
421.561	1920.99
421.769	2019.3
421.977	2189.28
422.185	2121.7
422.393	2322.4
422.601	2398.17
422.809	2432.99
423.017	2367.45
423.224	2465.75
423.432	2584.54
423.64	2682.84
423.848	2895.83
424.056	2754.52
424.263	3008.47
424.471	3059.67
424.679	3151.82
424.887	3162.06
425.094	3362.76
425.302	3325.9
425.51	3438.54
425.718	3444.68
425.925	3727.3
426.133	3729.35
426.341	3985.35
426.548	4257.73
426.756	4038.59
426.964	4163.52
427.171	4411.32
427.379	4485.05
427.586	4523.96
427.794	4808.63
428.001	4919.22
428.209	5023.67
428.417	5210.03
428.624	5463.98
428.832	5449.64
429.039	5484.46
429.247	5316.53
429.454	5994.4
429.662	6381.47
429.869	5978.02
430.076	6371.23
430.284	6244.26
430.491	6393.76
430.699	6862.74
430.906	6731.67
431.114	6799.26
431.321	7016.34
431.528	7290.77
431.736	7761.8
431.943	7948.17
432.15	7786.38
432.358	7841.67
432.565	8476.54
432.772	8277.89
432.979	8781.69
433.187	8824.7
433.394	9078.65
433.601	9463.66
433.808	9514.86
434.016	9377.65
434.223	9867.11
434.43	10334.05
434.637	10092.39
434.844	11036.5
435.052	11089.75
435.259	11243.35
435.466	11249.49
435.673	11071.32
435.88	11833.16
436.087	12205.89
436.294	12367.68
436.501	12140.36
436.708	12318.53
436.915	12728.13
437.122	13002.55
437.329	13295.41
437.537	13973.29
437.743	13868.84
437.95	13819.69
438.157	14522.15
438.364	14835.49
438.571	14862.11
438.778	15122.2
438.985	16414.47
439.192	15802.13
439.399	16090.89
439.606	15793.93
439.813	16967.42
440.02	18011.89
440.227	17802.99
440.433	17340.15
440.64	18140.91
440.847	17704.69
441.054	18394.86
441.261	19269.34
441.467	19328.73
441.674	19654.36
441.881	20475.59
442.088	20088.53
442.294	19955.41
442.501	20641.48
442.708	21049.02
442.914	22005.42
443.121	22531.75
443.328	22300.33
443.534	23701.14
443.741	22812.32
443.948	22789.8
444.154	24374.92
444.361	24391.31
444.568	24393.36
444.774	24374.92
444.981	24358.54
445.187	25417.34
445.394	26377.84
445.6	25869.94
445.807	28464.72
446.013	27403.87
446.22	27940.44
446.426	28821.06
446.633	29285.95
446.839	29705.79
447.046	28575.31
447.252	30402.1
447.459	30395.95
447.665	30187.06
447.871	31634.97
448.078	32996.87
448.284	31139.36
448.491	32019.99
448.697	33379.84
448.903	34330.1
449.11	33936.89
449.316	33306.12
449.522	33969.66
449.728	35147.24
449.935	34852.33
450.141	34817.52
450.347	35853.79
450.553	34784.75
450.76	34850.28
450.966	36402.64
451.172	35341.8
451.378	36806.09
451.584	35720.67
451.791	36752.85
451.997	36552.15
452.203	37057.99
452.409	37131.72
452.615	36990.41
452.821	35515.87
453.027	35122.66
453.233	36869.58
453.44	35530.21
453.646	35950.04
453.852	35669.47
454.058	36470.23
454.264	35345.89
454.47	35816.93
454.676	35147.24
454.882	36455.89
455.088	33164.81
455.294	33728
455.5	33967.61
455.705	34426.35
455.911	32781.84
456.117	32390.67
456.323	31401.5
456.529	30103.09
456.735	31491.62
456.941	30615.08
457.147	30207.54
457.352	29476.41
457.558	28679.75
457.764	28941.89
457.97	28524.11
458.176	27956.82
458.381	27876.95
458.587	26576.49
458.793	26371.69
458.999	25218.69
459.204	26771.05
459.41	26138.23
459.616	24227.47
459.821	24383.12
460.027	24374.92
460.233	23840.4
460.438	22369.96
460.644	22945.44
460.85	21978.8
461.055	21620.41
461.261	21571.25
461.466	20090.57
461.672	19398.36
461.878	20631.24
462.083	19347.16
462.289	19074.78
462.494	18554.6
462.7	17843.95
462.905	17366.77
463.111	18052.84
463.316	18276.07
463.522	17899.25
463.727	17759.98
463.932	17753.84
464.138	17716.98
464.343	17592.05
464.549	17129.21
464.754	18061.04
464.959	17405.69
465.165	17364.73
465.37	16797.44
465.575	16113.42
465.781	16961.28
465.986	16979.71
466.191	16336.65
466.397	15791.89
466.602	15593.23
466.807	15781.65
467.012	15927.05
467.218	15728.4
467.423	15490.84
467.628	15695.63
467.833	16264.97
468.038	15613.71
