Data from USB4F104151__74__10-24-08-501.txt Node

Date: Wed Mar 12 10:24:08 EDT 2025
User: louis
Spectrometer: USB4F10415
Trigger mode: 4
Integration Time (sec): 3.000000E-2
Scans to average: 1
Electric dark correction enabled: true
Nonlinearity correction enabled: false
Boxcar width: 0
XAxis mode: Wavelengths
Number of Pixels in Spectrum: 3648
>>>>>Begin Spectral Data<<<<<
178.204	-124.41
178.424	-124.41
178.644	-124.41
178.864	-124.41
179.084	-116.22
179.304	-26.11
179.524	0.51
179.744	2.56
179.964	12.8
180.184	-5.63
180.404	23.04
180.624	12.8
180.844	37.38
181.064	-60.93
181.283	27.14
181.503	8.7
181.723	-32.26
181.943	-19.97
182.163	10.75
182.383	-17.92
182.602	6.66
182.822	74.24
183.042	16.9
183.262	-11.78
183.482	37.38
183.701	25.09
183.921	43.52
184.141	27.14
184.361	2.56
184.58	33.28
184.8	35.33
185.02	-44.54
185.239	-13.82
185.459	0.51
185.679	12.8
185.898	-1.54
186.118	20.99
186.338	39.42
186.557	117.25
186.777	-19.97
186.997	35.33
187.216	-24.06
187.436	6.66
187.655	18.94
187.875	57.86
188.095	-42.5
188.314	12.8
188.534	31.23
188.753	29.18
188.973	41.47
189.192	-42.5
189.412	-30.21
189.631	123.39
189.851	-34.3
190.07	6.66
190.29	-56.83
190.509	6.66
190.729	-62.98
190.948	70.14
191.168	96.77
191.387	78.33
191.607	-36.35
191.826	-22.02
192.045	18.94
192.265	88.57
192.484	-5.63
192.704	43.52
192.923	-52.74
193.142	47.62
193.362	27.14
193.581	100.86
193.8	61.95
194.02	-19.97
194.239	-22.02
194.458	-62.98
194.678	18.94
194.897	-5.63
195.116	47.62
195.335	39.42
195.555	-9.73
195.774	61.95
195.993	64
196.212	25.09
196.432	-15.87
196.651	43.52
196.87	88.57
197.089	57.86
197.308	27.14
197.528	72.19
197.747	20.99
197.966	-7.68
198.185	20.99
198.404	33.28
198.623	78.33
198.842	33.28
199.062	18.94
199.281	45.57
199.5	-9.73
199.719	35.33
199.938	45.57
200.157	51.71
200.376	72.19
200.595	76.29
200.814	45.57
201.033	10.75
201.252	61.95
201.471	12.8
201.69	137.73
201.909	-30.21
202.128	109.05
202.347	-15.87
202.566	33.28
202.785	23.04
203.004	-5.63
203.223	160.25
203.442	6.66
203.661	-38.4
203.879	-22.02
204.098	16.9
204.317	-7.68
204.536	8.7
204.755	70.14
204.974	18.94
205.193	76.29
205.411	98.81
205.63	113.15
205.849	47.62
206.068	-13.82
206.287	-40.45
206.505	68.09
206.724	104.96
206.943	31.23
207.162	31.23
207.381	49.66
207.599	45.57
207.818	96.77
208.037	27.14
208.255	18.94
208.474	23.04
208.693	59.9
208.911	39.42
209.13	-15.87
209.349	-69.12
209.567	6.66
209.786	16.9
210.005	70.14
210.223	-58.88
210.442	4.61
210.661	20.99
210.879	47.62
211.098	39.42
211.316	-15.87
211.535	10.75
211.753	6.66
211.972	-9.73
212.191	6.66
212.409	8.7
212.628	23.04
212.846	-30.21
213.065	84.48
213.283	35.33
213.502	-40.45
213.72	18.94
213.938	2.56
214.157	-71.17
214.375	6.66
214.594	-19.97
214.812	27.14
215.031	-15.87
215.249	-7.68
215.467	-11.78
215.686	74.24
215.904	94.72
216.122	14.85
216.341	27.14
216.559	14.85
216.778	64
216.996	20.99
217.214	33.28
217.432	-36.35
217.651	10.75
217.869	59.9
218.087	10.75
218.306	-38.4
218.524	70.14
218.742	14.85
218.96	0.51
219.179	-50.69
219.397	25.09
219.615	39.42
219.833	18.94
220.051	12.8
220.27	45.57
220.488	33.28
220.706	61.95
220.924	59.9
221.142	25.09
221.36	78.33
221.578	29.18
221.796	18.94
222.015	90.62
222.233	43.52
222.451	16.9
222.669	10.75
222.887	4.61
223.105	35.33
223.323	-46.59
223.541	-15.87
223.759	86.53
223.977	41.47
224.195	45.57
224.413	23.04
224.631	12.8
224.849	-65.02
225.067	109.05
225.285	-26.11
225.503	27.14
225.721	12.8
225.939	45.57
226.157	0.51
226.375	109.05
226.592	2.56
226.81	29.18
227.028	131.58
227.246	23.04
227.464	14.85
227.682	35.33
227.9	2.56
228.117	10.75
228.335	92.67
228.553	31.23
228.771	37.38
228.989	27.14
229.206	80.38
229.424	90.62
229.642	31.23
229.86	4.61
230.077	96.77
230.295	16.9
230.513	76.29
230.731	27.14
230.948	92.67
231.166	18.94
231.384	27.14
231.601	72.19
231.819	-19.97
232.037	-7.68
232.254	53.76
232.472	33.28
232.689	68.09
232.907	88.57
233.125	-11.78
233.342	16.9
233.56	55.81
233.777	-22.02
233.995	14.85
234.213	61.95
234.43	16.9
234.648	76.29
234.865	39.42
235.083	33.28
235.3	35.33
235.518	49.66
235.735	18.94
235.953	59.9
236.17	27.14
236.388	-65.02
236.605	41.47
236.822	51.71
237.04	31.23
237.257	68.09
237.475	70.14
237.692	61.95
237.909	37.38
238.127	2.56
238.344	90.62
238.562	-1.54
238.779	-5.63
238.996	-48.64
239.214	0.51
239.431	64
239.648	-42.5
239.865	45.57
240.083	70.14
240.3	-28.16
240.517	-11.78
240.735	-3.58
240.952	117.25
241.169	53.76
241.386	92.67
241.603	-32.26
241.821	-75.26
242.038	-30.21
242.255	-15.87
242.472	45.57
242.689	31.23
242.907	61.95
243.124	-3.58
243.341	51.71
243.558	-3.58
243.775	-40.45
243.992	-3.58
244.209	113.15
244.426	37.38
244.643	49.66
244.86	14.85
245.078	27.14
245.295	49.66
245.512	113.15
245.729	-9.73
245.946	74.24
246.163	33.28
246.38	-38.4
246.597	-17.92
246.814	137.73
247.031	80.38
247.248	64
247.464	-1.54
247.681	-15.87
247.898	109.05
248.115	68.09
248.332	27.14
248.549	109.05
248.766	107.01
248.983	35.33
249.2	-50.69
249.417	39.42
249.633	29.18
249.85	131.58
250.067	-5.63
250.284	18.94
250.501	-5.63
250.717	39.42
250.934	-50.69
251.151	-7.68
251.368	25.09
251.585	6.66
251.801	70.14
252.018	12.8
252.235	53.76
252.451	-30.21
252.668	47.62
252.885	104.96
253.102	72.19
253.318	12.8
253.535	-9.73
253.752	10.75
253.968	4.61
254.185	-5.63
254.401	-81.41
254.618	33.28
254.835	43.52
255.051	29.18
255.268	-9.73
255.484	96.77
255.701	23.04
255.917	84.48
256.134	55.81
256.351	-34.3
256.567	-28.16
256.784	10.75
257	41.47
257.217	10.75
257.433	35.33
257.65	102.91
257.866	109.05
258.082	33.28
258.299	-11.78
258.515	-1.54
258.732	113.15
258.948	-1.54
259.165	10.75
259.381	37.38
259.597	51.71
259.814	45.57
260.03	76.29
260.246	-9.73
260.463	51.71
260.679	14.85
260.895	2.56
261.112	10.75
261.328	12.8
261.544	-46.59
261.761	129.53
261.977	23.04
262.193	18.94
262.409	37.38
262.626	68.09
262.842	-9.73
263.058	-22.02
263.274	14.85
263.49	4.61
263.707	72.19
263.923	-50.69
264.139	47.62
264.355	20.99
264.571	61.95
264.787	23.04
265.004	76.29
265.22	37.38
265.436	-7.68
265.652	43.52
265.868	51.71
266.084	-1.54
266.3	64
266.516	4.61
266.732	68.09
266.948	86.53
267.164	31.23
267.38	80.38
267.596	53.76
267.812	82.43
268.028	25.09
268.244	49.66
268.46	-11.78
268.676	35.33
268.892	16.9
269.108	39.42
269.324	47.62
269.54	-17.92
269.756	113.15
269.972	41.47
270.188	33.28
270.403	-52.74
270.619	16.9
270.835	55.81
271.051	4.61
271.267	35.33
271.483	51.71
271.698	18.94
271.914	23.04
272.13	14.85
272.346	-24.06
272.562	33.28
272.777	53.76
272.993	-11.78
273.209	-22.02
273.425	31.23
273.64	53.76
273.856	-1.54
274.072	-36.35
274.287	45.57
274.503	-9.73
274.719	27.14
274.934	35.33
275.15	-44.54
275.366	-5.63
275.581	-22.02
275.797	117.25
276.012	-24.06
276.228	37.38
276.444	-40.45
276.659	76.29
276.875	47.62
277.09	18.94
277.306	59.9
277.521	41.47
277.737	41.47
277.952	76.29
278.168	18.94
278.383	47.62
278.599	37.38
278.814	18.94
279.03	41.47
279.245	76.29
279.461	12.8
279.676	37.38
279.892	-26.11
280.107	27.14
280.322	-42.5
280.538	14.85
280.753	-46.59
280.969	49.66
281.184	-7.68
281.399	57.86
281.615	68.09
281.83	55.81
282.045	-1.54
282.26	78.33
282.476	76.29
282.691	37.38
282.906	66.05
283.122	-15.87
283.337	2.56
283.552	35.33
283.767	78.33
283.983	55.81
284.198	-36.35
284.413	57.86
284.628	23.04
284.843	25.09
285.058	68.09
285.274	8.7
285.489	37.38
285.704	72.19
285.919	70.14
286.134	55.81
286.349	107.01
286.564	33.28
286.779	-5.63
286.995	20.99
287.21	18.94
287.425	35.33
287.64	6.66
287.855	-28.16
288.07	14.85
288.285	76.29
288.5	10.75
288.715	31.23
288.93	-40.45
289.145	18.94
289.36	184.83
289.575	0.51
289.79	64
290.004	55.81
290.219	80.38
290.434	6.66
290.649	-15.87
290.864	78.33
291.079	31.23
291.294	78.33
291.509	51.71
291.724	47.62
291.938	59.9
292.153	68.09
292.368	20.99
292.583	92.67
292.798	74.24
293.012	12.8
293.227	68.09
293.442	23.04
293.657	43.52
293.871	49.66
294.086	47.62
294.301	98.81
294.516	20.99
294.73	98.81
294.945	-19.97
295.16	18.94
295.374	80.38
295.589	88.57
295.804	53.76
296.018	2.56
296.233	61.95
296.447	-46.59
296.662	84.48
296.877	39.42
297.091	10.75
297.306	10.75
297.52	-13.82
297.735	68.09
297.949	104.96
298.164	23.04
298.378	61.95
298.593	-32.26
298.807	14.85
299.022	23.04
299.236	123.39
299.451	27.14
299.665	-28.16
299.88	72.19
300.094	72.19
300.309	8.7
300.523	72.19
300.737	0.51
300.952	-30.21
301.166	6.66
301.381	-9.73
301.595	27.14
301.809	39.42
302.024	72.19
302.238	49.66
302.452	57.86
302.667	-28.16
302.881	100.86
303.095	51.71
303.309	18.94
303.524	-28.16
303.738	68.09
303.952	-40.45
304.166	35.33
304.381	6.66
304.595	18.94
304.809	37.38
305.023	41.47
305.237	6.66
305.452	31.23
305.666	-7.68
305.88	39.42
306.094	14.85
306.308	-7.68
306.522	78.33
306.736	2.56
306.95	37.38
307.164	6.66
307.379	-3.58
307.593	111.1
307.807	76.29
308.021	39.42
308.235	18.94
308.449	-11.78
308.663	18.94
308.877	102.91
309.091	-13.82
309.305	45.57
309.519	-17.92
309.733	-24.06
309.947	37.38
310.161	31.23
310.374	33.28
310.588	90.62
310.802	25.09
311.016	-26.11
311.23	-5.63
311.444	12.8
311.658	18.94
311.872	74.24
312.085	29.18
312.299	43.52
312.513	-1.54
312.727	61.95
312.941	-26.11
313.154	-22.02
313.368	37.38
313.582	96.77
313.796	115.2
314.009	6.66
314.223	39.42
314.437	39.42
314.651	39.42
314.864	-54.78
315.078	88.57
315.292	43.52
315.505	-32.26
315.719	39.42
315.933	29.18
316.146	-1.54
316.36	41.47
316.573	88.57
316.787	39.42
317.001	119.29
317.214	55.81
317.428	111.1
317.641	6.66
317.855	-32.26
318.068	66.05
318.282	23.04
318.495	80.38
318.709	84.48
318.922	-7.68
319.136	143.87
319.349	100.86
319.563	33.28
319.776	18.94
319.99	-1.54
320.203	51.71
320.417	-11.78
320.63	-17.92
320.843	102.91
321.057	8.7
321.27	45.57
321.483	14.85
321.697	64
321.91	59.9
322.124	25.09
322.337	-5.63
322.55	61.95
322.763	102.91
322.977	61.95
323.19	49.66
323.403	59.9
323.617	8.7
323.83	43.52
324.043	-9.73
324.256	20.99
324.469	45.57
324.683	117.25
324.896	47.62
325.109	-7.68
325.322	31.23
325.535	74.24
325.748	78.33
325.962	41.47
326.175	51.71
326.388	61.95
326.601	55.81
326.814	86.53
327.027	4.61
327.24	39.42
327.453	14.85
327.666	31.23
327.879	94.72
328.092	61.95
328.305	43.52
328.518	4.61
328.731	94.72
328.944	31.23
329.157	74.24
329.37	4.61
329.583	37.38
329.796	68.09
330.009	-30.21
330.222	27.14
330.435	45.57
330.648	70.14
330.861	43.52
331.073	45.57
331.286	41.47
331.499	51.71
331.712	-42.5
331.925	12.8
332.138	20.99
332.35	10.75
332.563	33.28
332.776	6.66
332.989	-9.73
333.202	88.57
333.414	-48.64
333.627	49.66
333.84	41.47
334.053	35.33
334.265	72.19
334.478	23.04
334.691	92.67
334.903	64
335.116	14.85
335.329	47.62
335.541	53.76
335.754	59.9
335.966	47.62
336.179	6.66
336.392	45.57
336.604	-19.97
336.817	37.38
337.029	8.7
337.242	23.04
337.454	53.76
337.667	94.72
337.88	35.33
338.092	45.57
338.305	86.53
338.517	-3.58
338.729	55.81
338.942	29.18
339.154	-48.64
339.367	10.75
339.579	84.48
339.792	49.66
340.004	129.53
340.217	53.76
340.429	72.19
340.641	-50.69
340.854	10.75
341.066	10.75
341.278	45.57
341.491	70.14
341.703	61.95
341.915	-58.88
342.128	49.66
342.34	-19.97
342.552	20.99
342.764	33.28
342.977	55.81
343.189	94.72
343.401	47.62
343.613	16.9
343.826	27.14
344.038	92.67
344.25	31.23
344.462	2.56
344.674	45.57
344.886	100.86
345.099	70.14
345.311	-1.54
345.523	-1.54
345.735	-42.5
345.947	68.09
346.159	2.56
346.371	41.47
346.583	0.51
346.795	154.11
347.007	-9.73
347.219	100.86
347.431	78.33
347.643	113.15
347.855	41.47
348.067	96.77
348.279	59.9
348.491	115.2
348.703	59.9
348.915	70.14
349.127	23.04
349.339	27.14
349.551	-58.88
349.763	92.67
349.975	35.33
350.187	98.81
350.399	94.72
350.61	6.66
350.822	31.23
351.034	94.72
351.246	129.53
351.458	86.53
351.669	76.29
351.881	74.24
352.093	66.05
352.305	72.19
352.517	23.04
352.728	55.81
352.94	55.81
353.152	90.62
353.363	55.81
353.575	29.18
353.787	43.52
353.999	102.91
354.21	131.58
354.422	45.57
354.633	-5.63
354.845	10.75
355.057	8.7
355.268	43.52
355.48	43.52
355.692	-15.87
355.903	-38.4
356.115	92.67
356.326	12.8
356.538	43.52
356.749	43.52
356.961	43.52
357.172	4.61
357.384	41.47
357.595	10.75
357.807	23.04
358.018	41.47
358.23	49.66
358.441	96.77
358.653	66.05
358.864	70.14
359.075	33.28
359.287	66.05
359.498	74.24
359.709	51.71
359.921	-1.54
360.132	68.09
360.344	-3.58
360.555	-19.97
360.766	88.57
360.977	8.7
361.189	139.77
361.4	10.75
361.611	35.33
361.823	84.48
362.034	55.81
362.245	-3.58
362.456	51.71
362.667	4.61
362.879	33.28
363.09	72.19
363.301	12.8
363.512	6.66
363.723	84.48
363.935	4.61
364.146	-7.68
364.357	-5.63
364.568	45.57
364.779	41.47
364.99	162.3
365.201	111.1
365.412	102.91
365.623	-5.63
365.834	68.09
366.045	45.57
366.256	61.95
366.467	59.9
366.678	72.19
366.889	20.99
367.1	25.09
367.311	86.53
367.522	-58.88
367.733	12.8
367.944	107.01
368.155	70.14
368.366	119.29
368.577	92.67
368.788	76.29
368.999	47.62
369.209	23.04
369.42	51.71
369.631	84.48
369.842	123.39
370.053	-11.78
370.264	64
370.474	45.57
370.685	59.9
370.896	57.86
371.107	39.42
371.317	31.23
371.528	57.86
371.739	-15.87
371.95	137.73
372.16	39.42
372.371	100.86
372.582	20.99
372.792	90.62
373.003	115.2
373.214	-52.74
373.424	12.8
373.635	-26.11
373.846	31.23
374.056	82.43
374.267	61.95
374.477	94.72
374.688	-3.58
374.898	125.44
375.109	47.62
375.319	64
375.53	139.77
375.74	-9.73
375.951	-19.97
376.161	53.76
376.372	78.33
376.582	25.09
376.793	43.52
377.003	107.01
377.214	51.71
377.424	27.14
377.635	55.81
377.845	2.56
378.055	141.82
378.266	29.18
378.476	86.53
378.686	76.29
378.897	-5.63
379.107	49.66
379.317	64
379.528	51.71
379.738	131.58
379.948	23.04
380.158	94.72
380.369	64
380.579	57.86
380.789	39.42
380.999	166.4
381.21	8.7
381.42	160.25
381.63	57.86
381.84	64
382.05	41.47
382.261	16.9
382.471	90.62
382.681	74.24
382.891	117.25
383.101	18.94
383.311	33.28
383.521	16.9
383.731	43.52
383.941	119.29
384.151	12.8
384.361	53.76
384.571	70.14
384.781	133.63
384.991	182.78
385.201	137.73
385.411	37.38
385.621	20.99
385.831	16.9
386.041	18.94
386.251	12.8
386.461	113.15
386.671	76.29
386.881	96.77
387.091	72.19
387.301	14.85
387.511	2.56
387.72	27.14
387.93	12.8
388.14	18.94
388.35	74.24
388.56	121.34
388.769	39.42
388.979	61.95
389.189	29.18
389.399	8.7
389.609	53.76
389.818	53.76
390.028	74.24
390.238	113.15
390.447	68.09
390.657	133.63
390.867	78.33
391.076	-15.87
391.286	68.09
391.496	86.53
391.705	104.96
391.915	6.66
392.125	113.15
392.334	14.85
392.544	-17.92
392.753	27.14
392.963	-17.92
393.172	72.19
393.382	14.85
393.591	147.97
393.801	49.66
394.01	125.44
394.22	-17.92
394.429	111.1
394.639	86.53
394.848	80.38
395.058	90.62
395.267	92.67
395.477	37.38
395.686	84.48
395.895	156.16
396.105	219.64
396.314	-13.82
396.524	90.62
396.733	80.38
396.942	182.78
397.152	53.76
397.361	80.38
397.57	152.06
397.78	102.91
397.989	137.73
398.198	127.49
398.407	55.81
398.617	115.2
398.826	88.57
399.035	98.81
399.244	141.82
399.453	82.43
399.663	80.38
399.872	143.87
400.081	111.1
400.29	90.62
400.499	61.95
400.708	184.83
400.917	94.72
401.127	49.66
401.336	68.09
401.545	227.84
401.754	160.25
401.963	111.1
402.172	74.24
402.381	102.91
402.59	121.34
402.799	111.1
403.008	80.38
403.217	64
403.426	109.05
403.635	70.14
403.844	137.73
404.053	113.15
404.262	92.67
404.471	145.92
404.68	156.16
404.888	111.1
405.097	145.92
405.306	141.82
405.515	203.26
405.724	201.21
405.933	113.15
406.142	166.4
406.35	279.04
406.559	197.12
406.768	133.63
406.977	205.31
407.185	195.07
407.394	244.22
407.603	176.64
407.812	221.69
408.02	264.7
408.229	250.36
408.438	283.13
408.646	260.6
408.855	242.17
409.064	254.46
409.272	268.8
409.481	309.76
409.69	209.4
409.898	225.79
410.107	338.43
410.315	328.19
410.524	301.56
410.733	358.91
410.941	233.98
411.15	391.67
411.358	373.24
411.567	453.11
411.775	453.11
411.984	442.87
412.192	510.46
412.401	389.63
412.609	428.54
412.818	481.78
413.026	535.03
413.234	512.5
413.443	565.75
413.651	584.18
413.86	547.32
414.068	528.89
414.276	594.42
414.485	643.57
414.693	625.14
414.901	633.33
415.11	762.36
415.318	719.35
415.526	768.5
415.734	713.21
415.943	707.06
416.151	825.84
416.359	780.79
416.567	831.99
416.776	944.63
416.984	930.29
417.192	983.54
417.4	1008.11
417.608	981.49
417.817	956.91
418.025	1110.51
418.233	1278.44
418.441	1169.9
418.649	1200.62
418.857	1241.58
419.065	1360.36
419.273	1319.4
419.481	1370.6
419.689	1368.56
419.897	1468.91
420.105	1501.67
420.313	1599.98
420.521	1690.09
420.729	1608.17
420.937	1759.72
421.145	1761.77
421.353	1886.69
421.561	1929.7
421.769	1993.19
421.977	2054.62
422.185	2161.12
422.393	2259.42
422.601	2308.57
422.809	2240.99
423.017	2398.68
423.224	2484.7
423.432	2619.86
423.64	2574.81
423.848	2865.62
424.056	2703.83
424.263	2953.68
424.471	3002.83
424.679	3045.84
424.887	3072.47
425.094	3328.46
425.302	3224.01
425.51	3398.09
425.718	3412.43
425.925	3365.32
426.133	3713.48
426.341	3912.13
426.548	3963.33
426.756	4035.01
426.964	3996.1
427.171	4368.83
427.379	4315.58
427.586	4577.72
427.794	4530.62
428.001	4823.48
428.209	5015.99
428.417	4860.34
428.624	5271.98
428.832	5263.79
429.039	5108.15
429.247	5411.25
429.454	5681.58
429.662	6074.79
429.869	5732.78
430.076	6044.07
430.284	5933.48
430.491	6224.29
430.699	6496.67
430.906	6476.19
431.114	6656.41
431.321	6961.56
431.528	6936.98
431.736	7674.25
431.943	7833.99
432.15	7547.28
432.358	7803.27
432.565	8219.01
432.772	8184.2
432.979	8235.39
433.187	8497.53
433.394	8841.59
433.601	9384.3
433.808	9257.33
434.016	9150.84
434.223	9548.14
434.43	10307.94
434.637	10019.18
434.844	10508.64
435.052	10805.6
435.259	10746.2
435.466	10461.54
435.673	10766.68
435.88	11346.26
436.087	11854.16
436.294	11913.55
436.501	11749.71
436.708	11915.59
436.915	12450.11
437.122	12896.57
437.329	13093.18
437.537	13064.5
437.743	13515.06
437.95	13209.91
438.157	14102.82
438.364	14225.7
438.571	14582.05
438.778	14645.54
438.985	16046.35
439.192	15468.82
439.399	15679.76
439.606	15382.81
439.813	16161.03
440.02	17213.69
440.227	16926.97
440.433	16922.88
440.64	17373.43
440.847	17103.1
441.054	17787.12
441.261	18536.68
441.467	18933.98
441.674	18907.36
441.881	19615.96
442.088	19486.93
442.294	19222.75
442.501	19742.93
442.708	20271.31
442.914	21000.38
443.121	22124.72
443.328	21205.18
443.534	22665.38
443.741	22202.54
443.948	21622.97
444.154	23621.78
444.361	23316.64
444.568	23500.95
444.774	23548.06
444.981	23771.29
445.187	24440.97
445.394	25434.24
445.6	24987.78
445.807	27785.3
446.013	26198.13
446.22	27052.13
446.426	27684.95
446.633	28387.41
446.839	28647.5
447.046	27777.11
447.252	29270.08
447.459	29315.14
447.665	29378.62
447.871	30517.29
448.078	31686.68
448.284	30201.91
448.491	30949.42
448.697	32055.32
448.903	32456.72
449.11	32776.2
449.316	32098.33
449.522	33026.06
449.728	33730.56
449.935	33642.49
450.141	33949.69
450.347	34719.73
450.553	33437.7
450.76	33808.38
450.966	34512.88
451.172	34123.77
451.378	35379.17
451.584	34867.18
451.791	35297.25
451.997	35153.9
452.203	35612.64
452.409	35805.15
452.615	35483.62
452.821	34252.79
453.027	33939.45
453.233	35481.57
453.44	34017.27
453.646	34607.09
453.852	34783.21
454.058	35205.09
454.264	34185.21
454.47	34701.29
454.676	34062.33
454.882	35028.97
455.088	31784.99
455.294	32514.06
455.5	33239.04
455.705	33161.22
455.911	31645.73
456.117	31387.68
456.323	30890.02
456.529	29188.16
456.735	30535.73
456.941	29519.93
457.147	29225.03
457.352	28291.15
457.558	27938.9
457.764	28174.42
457.97	27074.66
458.176	26703.98
458.381	26548.33
458.587	25454.72
458.793	25292.93
458.999	24238.22
459.204	25647.22
459.41	25452.67
459.616	23406.75
459.821	23599.26
460.027	23371.93
460.233	22864.04
460.438	21719.22
460.644	22321.32
460.85	21088.45
461.055	20959.42
461.261	20631.75
461.466	19155.16
461.672	18526.44
461.878	19808.47
462.083	18655.46
462.289	18485.48
462.494	18114.8
462.7	17471.73
462.905	16830.72
463.111	17385.72
463.316	17668.34
463.522	16931.07
463.727	17180.92
463.932	17162.49
464.138	17006.84
464.343	17056
464.549	16451.84
464.754	17084.67
464.959	17113.34
465.165	16789.76
465.37	16124.17
465.575	15819.02
465.781	16357.64
465.986	16503.04
466.191	15757.58
466.397	15532.31
466.602	15106.33
466.807	15352.09
467.012	15423.76
467.218	15214.87
467.423	15147.29
467.628	15081.75
