Data from USB4F104151__244__10-30-56-907.txt Node

Date: Wed Mar 12 10:30:56 EDT 2025
User: louis
Spectrometer: USB4F10415
Trigger mode: 4
Integration Time (sec): 3.000000E-2
Scans to average: 1
Electric dark correction enabled: true
Nonlinearity correction enabled: false
Boxcar width: 0
XAxis mode: Wavelengths
Number of Pixels in Spectrum: 3648
>>>>>Begin Spectral Data<<<<<
178.204	-123.73
178.424	-123.73
178.644	-123.73
178.864	-125.78
179.084	-133.97
179.304	-56.15
179.524	70.83
179.744	-58.2
179.964	25.77
180.184	29.87
180.404	-43.86
180.624	-4.95
180.844	15.53
181.064	40.11
181.283	3.24
181.503	-31.57
181.723	9.39
181.943	-93.01
182.163	117.93
182.383	58.54
182.602	85.16
182.822	23.72
183.042	74.92
183.262	29.87
183.482	38.06
183.701	56.49
183.921	33.96
184.141	54.44
184.361	87.21
184.58	54.44
184.8	19.63
185.02	15.53
185.239	119.98
185.459	38.06
185.679	66.73
185.898	9.39
186.118	79.02
186.338	5.29
186.557	17.58
186.777	-9.05
186.997	52.39
187.216	33.96
187.436	85.16
187.655	54.44
187.875	54.44
188.095	29.87
188.314	70.83
188.534	79.02
188.753	48.3
188.973	48.3
189.192	107.69
189.412	72.87
189.631	119.98
189.851	3.24
190.07	13.48
190.29	40.11
190.509	31.91
190.729	-45.91
190.948	42.15
191.168	160.94
191.387	1.19
191.607	62.63
191.826	-29.52
192.045	52.39
192.265	66.73
192.484	-15.19
192.704	-2.9
192.923	52.39
193.142	148.65
193.362	46.25
193.581	138.41
193.8	72.87
194.02	58.54
194.239	44.2
194.458	13.48
194.678	54.44
194.897	87.21
195.116	74.92
195.335	95.4
195.555	9.39
195.774	19.63
195.993	70.83
196.212	62.63
196.432	54.44
196.651	21.67
196.87	87.21
197.089	99.5
197.308	38.06
197.528	68.78
197.747	21.67
197.966	44.2
198.185	81.07
198.404	50.35
198.623	62.63
198.842	44.2
199.062	91.31
199.281	136.36
199.5	7.34
199.719	38.06
199.938	83.11
200.157	76.97
200.376	70.83
200.595	19.63
200.814	-11.09
201.033	5.29
201.252	60.59
201.471	42.15
201.69	87.21
201.909	70.83
202.128	54.44
202.347	17.58
202.566	38.06
202.785	19.63
203.004	-31.57
203.223	60.59
203.442	56.49
203.661	38.06
203.879	85.16
204.098	74.92
204.317	54.44
204.536	31.91
204.755	62.63
204.974	3.24
205.193	128.17
205.411	126.12
205.63	5.29
205.849	15.53
206.068	-0.85
206.287	-27.48
206.505	9.39
206.724	60.59
206.943	-56.15
207.162	68.78
207.381	3.24
207.599	27.82
207.818	38.06
208.037	70.83
208.255	-4.95
208.474	83.11
208.693	64.68
208.911	79.02
209.13	38.06
209.349	128.17
209.567	113.83
209.786	89.26
210.005	46.25
210.223	70.83
210.442	44.2
210.661	46.25
210.879	36.01
211.098	152.74
211.316	58.54
211.535	89.26
211.753	-15.19
211.972	21.67
212.191	103.59
212.409	54.44
212.628	42.15
212.846	25.77
213.065	-4.95
213.283	79.02
213.502	68.78
213.72	52.39
213.938	-19.29
214.157	29.87
214.375	-0.85
214.594	99.5
214.812	-4.95
215.031	101.55
215.249	-13.14
215.467	-17.24
215.686	25.77
215.904	124.07
216.122	3.24
216.341	85.16
216.559	56.49
216.778	62.63
216.996	76.97
217.214	36.01
217.432	21.67
217.651	83.11
217.869	17.58
218.087	68.78
218.306	72.87
218.524	23.72
218.742	29.87
218.96	99.5
219.179	-17.24
219.397	-11.09
219.615	52.39
219.833	83.11
220.051	-54.1
220.27	70.83
220.488	52.39
220.706	101.55
220.924	31.91
221.142	62.63
221.36	46.25
221.578	7.34
221.796	105.64
222.015	105.64
222.233	50.35
222.451	70.83
222.669	23.72
222.887	-4.95
223.105	38.06
223.323	38.06
223.541	54.44
223.759	119.98
223.977	93.35
224.195	105.64
224.413	50.35
224.631	60.59
224.849	40.11
225.067	97.45
225.285	-11.09
225.503	56.49
225.721	44.2
225.939	68.78
226.157	74.92
226.375	111.78
226.592	-19.29
226.81	31.91
227.028	38.06
227.246	79.02
227.464	-4.95
227.682	64.68
227.9	68.78
228.117	38.06
228.335	62.63
228.553	97.45
228.771	36.01
228.989	79.02
229.206	107.69
229.424	72.87
229.642	40.11
229.86	3.24
230.077	40.11
230.295	17.58
230.513	64.68
230.731	87.21
230.948	144.55
231.166	93.35
231.384	7.34
231.601	33.96
231.819	76.97
232.037	-19.29
232.254	68.78
232.472	-23.38
232.689	-0.85
232.907	119.98
233.125	5.29
233.342	-11.09
233.56	74.92
233.777	56.49
233.995	9.39
234.213	89.26
234.43	74.92
234.648	124.07
234.865	33.96
235.083	99.5
235.3	44.2
235.518	31.91
235.735	119.98
235.953	-2.9
236.17	27.82
236.388	31.91
236.605	58.54
236.822	31.91
237.04	46.25
237.257	50.35
237.475	27.82
237.692	70.83
237.909	23.72
238.127	7.34
238.344	76.97
238.562	3.24
238.779	46.25
238.996	66.73
239.214	105.64
239.431	95.4
239.648	9.39
239.865	52.39
240.083	19.63
240.3	38.06
240.517	19.63
240.735	56.49
240.952	74.92
241.169	91.31
241.386	124.07
241.603	60.59
241.821	27.82
242.038	-11.09
242.255	76.97
242.472	25.77
242.689	56.49
242.907	52.39
243.124	128.17
243.341	64.68
243.558	60.59
243.775	64.68
243.992	-2.9
244.209	97.45
244.426	62.63
244.643	79.02
244.86	81.07
245.078	74.92
245.295	46.25
245.512	117.93
245.729	93.35
245.946	119.98
246.163	62.63
246.38	64.68
246.597	-7
246.814	83.11
247.031	29.87
247.248	62.63
247.464	33.96
247.681	27.82
247.898	11.43
248.115	17.58
248.332	-13.14
248.549	52.39
248.766	42.15
248.983	52.39
249.2	56.49
249.417	33.96
249.633	113.83
249.85	15.53
250.067	33.96
250.284	44.2
250.501	97.45
250.717	7.34
250.934	76.97
251.151	46.25
251.368	74.92
251.585	99.5
251.801	54.44
252.018	46.25
252.235	113.83
252.451	13.48
252.668	81.07
252.885	11.43
253.102	46.25
253.318	58.54
253.535	40.11
253.752	89.26
253.968	79.02
254.185	-15.19
254.401	29.87
254.618	93.35
254.835	130.22
255.051	111.78
255.268	89.26
255.484	107.69
255.701	5.29
255.917	38.06
256.134	50.35
256.351	21.67
256.567	52.39
256.784	40.11
257	5.29
257.217	40.11
257.433	5.29
257.65	33.96
257.866	109.74
258.082	38.06
258.299	-19.29
258.515	60.59
258.732	3.24
258.948	70.83
259.165	19.63
259.381	66.73
259.597	87.21
259.814	50.35
260.03	21.67
260.246	87.21
260.463	56.49
260.679	33.96
260.895	109.74
261.112	72.87
261.328	-45.91
261.544	52.39
261.761	152.74
261.977	42.15
262.193	7.34
262.409	72.87
262.626	-11.09
262.842	58.54
263.058	11.43
263.274	17.58
263.49	23.72
263.707	3.24
263.923	81.07
264.139	13.48
264.355	60.59
264.571	91.31
264.787	60.59
265.004	109.74
265.22	56.49
265.436	36.01
265.652	66.73
265.868	87.21
266.084	79.02
266.3	66.73
266.516	25.77
266.732	87.21
266.948	5.29
267.164	72.87
267.38	72.87
267.596	91.31
267.812	76.97
268.028	31.91
268.244	58.54
268.46	46.25
268.676	25.77
268.892	107.69
269.108	46.25
269.324	50.35
269.54	-9.05
269.756	74.92
269.972	40.11
270.188	36.01
270.403	38.06
270.619	-7
270.835	93.35
271.051	38.06
271.267	9.39
271.483	42.15
271.698	29.87
271.914	44.2
272.13	68.78
272.346	29.87
272.562	89.26
272.777	81.07
272.993	31.91
273.209	29.87
273.425	48.3
273.64	38.06
273.856	58.54
274.072	97.45
274.287	25.77
274.503	13.48
274.719	25.77
274.934	113.83
275.15	68.78
275.366	58.54
275.581	-19.29
275.797	17.58
276.012	25.77
276.228	33.96
276.444	33.96
276.659	48.3
276.875	27.82
277.09	23.72
277.306	52.39
277.521	156.84
277.737	17.58
277.952	46.25
278.168	-7
278.383	89.26
278.599	38.06
278.814	93.35
279.03	79.02
279.245	105.64
279.461	-25.43
279.676	74.92
279.892	-52.05
280.107	74.92
280.322	60.59
280.538	101.55
280.753	56.49
280.969	33.96
281.184	64.68
281.399	60.59
281.615	36.01
281.83	13.48
282.045	46.25
282.26	13.48
282.476	42.15
282.691	68.78
282.906	29.87
283.122	25.77
283.337	-17.24
283.552	68.78
283.767	-2.9
283.983	115.88
284.198	91.31
284.413	109.74
284.628	46.25
284.843	95.4
285.058	-7
285.274	60.59
285.489	40.11
285.704	99.5
285.919	-47.96
286.134	107.69
286.349	25.77
286.564	70.83
286.779	79.02
286.995	85.16
287.21	-0.85
287.425	150.7
287.64	17.58
287.855	33.96
288.07	50.35
288.285	119.98
288.5	76.97
288.715	117.93
288.93	119.98
289.145	5.29
289.36	58.54
289.575	29.87
289.79	60.59
290.004	50.35
290.219	44.2
290.434	91.31
290.649	46.25
290.864	79.02
291.079	11.43
291.294	89.26
291.509	76.97
291.724	-2.9
291.938	23.72
292.153	76.97
292.368	-29.52
292.583	68.78
292.798	31.91
293.012	27.82
293.227	87.21
293.442	146.6
293.657	119.98
293.871	-11.09
294.086	95.4
294.301	130.22
294.516	130.22
294.73	115.88
294.945	93.35
295.16	91.31
295.374	68.78
295.589	72.87
295.804	60.59
296.018	-17.24
296.233	124.07
296.447	42.15
296.662	21.67
296.877	76.97
297.091	76.97
297.306	62.63
297.52	66.73
297.735	115.88
297.949	46.25
298.164	64.68
298.378	119.98
298.593	-29.52
298.807	38.06
299.022	21.67
299.236	148.65
299.451	-15.19
299.665	64.68
299.88	17.58
300.094	50.35
300.309	-19.29
300.523	62.63
300.737	150.7
300.952	-23.38
301.166	105.64
301.381	-52.05
301.595	101.55
301.809	13.48
302.024	17.58
302.238	44.2
302.452	136.36
302.667	52.39
302.881	136.36
303.095	9.39
303.309	79.02
303.524	9.39
303.738	66.73
303.952	19.63
304.166	70.83
304.381	68.78
304.595	62.63
304.809	9.39
305.023	5.29
305.237	7.34
305.452	66.73
305.666	15.53
305.88	68.78
306.094	113.83
306.308	119.98
306.522	115.88
306.736	72.87
306.95	111.78
307.164	38.06
307.379	42.15
307.593	83.11
307.807	79.02
308.021	66.73
308.235	-0.85
308.449	107.69
308.663	44.2
308.877	162.98
309.091	50.35
309.305	93.35
309.519	38.06
309.733	107.69
309.947	13.48
310.161	93.35
310.374	169.13
310.588	46.25
310.802	3.24
311.016	87.21
311.23	50.35
311.444	40.11
311.658	27.82
311.872	122.02
312.085	33.96
312.299	50.35
312.513	138.41
312.727	60.59
312.941	3.24
313.154	101.55
313.368	-72.53
313.582	99.5
313.796	38.06
314.009	9.39
314.223	128.17
314.437	89.26
314.651	62.63
314.864	23.72
315.078	115.88
315.292	87.21
315.505	17.58
315.719	119.98
315.933	101.55
316.146	58.54
316.36	46.25
316.573	68.78
316.787	68.78
317.001	-11.09
317.214	42.15
317.428	72.87
317.641	60.59
317.855	38.06
318.068	79.02
318.282	52.39
318.495	33.96
318.709	115.88
318.922	76.97
319.136	128.17
319.349	95.4
319.563	85.16
319.776	38.06
319.99	13.48
320.203	103.59
320.417	62.63
320.63	81.07
320.843	56.49
321.057	70.83
321.27	50.35
321.483	50.35
321.697	89.26
321.91	17.58
322.124	115.88
322.337	132.26
322.55	-29.52
322.763	64.68
322.977	60.59
323.19	1.19
323.403	23.72
323.617	15.53
323.83	52.39
324.043	119.98
324.256	27.82
324.469	-60.24
324.683	42.15
324.896	17.58
325.109	19.63
325.322	50.35
325.535	93.35
325.748	66.73
325.962	93.35
326.175	97.45
326.388	107.69
326.601	46.25
326.814	62.63
327.027	66.73
327.24	62.63
327.453	54.44
327.666	113.83
327.879	95.4
328.092	74.92
328.305	101.55
328.518	54.44
328.731	66.73
328.944	15.53
329.157	17.58
329.37	-2.9
329.583	83.11
329.796	103.59
330.009	81.07
330.222	62.63
330.435	142.5
330.648	38.06
330.861	91.31
331.073	56.49
331.286	17.58
331.499	54.44
331.712	58.54
331.925	50.35
332.138	99.5
332.35	91.31
332.563	17.58
332.776	111.78
332.989	113.83
333.202	79.02
333.414	70.83
333.627	48.3
333.84	68.78
334.053	21.67
334.265	25.77
334.478	46.25
334.691	70.83
334.903	48.3
335.116	9.39
335.329	115.88
335.541	99.5
335.754	54.44
335.966	62.63
336.179	11.43
336.392	85.16
336.604	95.4
336.817	119.98
337.029	21.67
337.242	17.58
337.454	38.06
337.667	7.34
337.88	152.74
338.092	44.2
338.305	87.21
338.517	27.82
338.729	132.26
338.942	103.59
339.154	60.59
339.367	85.16
339.579	17.58
339.792	87.21
340.004	132.26
340.217	21.67
340.429	50.35
340.641	83.11
340.854	7.34
341.066	60.59
341.278	11.43
341.491	62.63
341.703	58.54
341.915	40.11
342.128	-19.29
342.34	89.26
342.552	79.02
342.764	58.54
342.977	25.77
343.189	23.72
343.401	101.55
343.613	-11.09
343.826	72.87
344.038	44.2
344.25	162.98
344.462	99.5
344.674	40.11
344.886	68.78
345.099	79.02
345.311	124.07
345.523	9.39
345.735	40.11
345.947	56.49
346.159	58.54
346.371	40.11
346.583	93.35
346.795	44.2
347.007	21.67
347.219	126.12
347.431	33.96
347.643	91.31
347.855	-31.57
348.067	89.26
348.279	11.43
348.491	136.36
348.703	156.84
348.915	126.12
349.127	-29.52
349.339	142.5
349.551	54.44
349.763	83.11
349.975	40.11
350.187	91.31
350.399	52.39
350.61	122.02
350.822	74.92
351.034	79.02
351.246	140.46
351.458	122.02
351.669	56.49
351.881	66.73
352.093	89.26
352.305	181.42
352.517	31.91
352.728	111.78
352.94	11.43
353.152	117.93
353.363	46.25
353.575	87.21
353.787	74.92
353.999	105.64
354.21	95.4
354.422	103.59
354.633	95.4
354.845	87.21
355.057	50.35
355.268	21.67
355.48	93.35
355.692	89.26
355.903	66.73
356.115	119.98
356.326	54.44
356.538	158.89
356.749	56.49
356.961	87.21
357.172	11.43
357.384	119.98
357.595	113.83
357.807	58.54
358.018	93.35
358.23	64.68
358.441	169.13
358.653	156.84
358.864	79.02
359.075	79.02
359.287	66.73
359.498	158.89
359.709	50.35
359.921	134.31
360.132	-2.9
360.344	25.77
360.555	36.01
360.766	64.68
360.977	107.69
361.189	79.02
361.4	50.35
361.611	132.26
361.823	138.41
362.034	83.11
362.245	83.11
362.456	89.26
362.667	117.93
362.879	95.4
363.09	115.88
363.301	79.02
363.512	107.69
363.723	38.06
363.935	79.02
364.146	124.07
364.357	93.35
364.568	87.21
364.779	50.35
364.99	113.83
365.201	126.12
365.412	58.54
365.623	1.19
365.834	29.87
366.045	68.78
366.256	93.35
366.467	29.87
366.678	31.91
366.889	52.39
367.1	113.83
367.311	156.84
367.522	66.73
367.733	81.07
367.944	109.74
368.155	87.21
368.366	128.17
368.577	83.11
368.788	81.07
368.999	54.44
369.209	81.07
369.42	144.55
369.631	193.7
369.842	128.17
370.053	109.74
370.264	101.55
370.474	-0.85
370.685	109.74
370.896	122.02
371.107	132.26
371.317	17.58
371.528	11.43
371.739	142.5
371.95	87.21
372.16	107.69
372.371	113.83
372.582	42.15
372.792	66.73
373.003	72.87
373.214	70.83
373.424	76.97
373.635	103.59
373.846	76.97
374.056	79.02
374.267	38.06
374.477	36.01
374.688	101.55
374.898	107.69
375.109	99.5
375.319	148.65
375.53	175.27
375.74	105.64
375.951	95.4
376.161	76.97
376.372	128.17
376.582	101.55
376.793	105.64
377.003	76.97
377.214	21.67
377.424	97.45
377.635	29.87
377.845	46.25
378.055	130.22
378.266	46.25
378.476	72.87
378.686	134.31
378.897	99.5
379.107	165.03
379.317	74.92
379.528	40.11
379.738	136.36
379.948	130.22
380.158	169.13
380.369	93.35
380.579	79.02
380.789	13.48
380.999	66.73
381.21	85.16
381.42	148.65
381.63	42.15
381.84	101.55
382.05	138.41
382.261	44.2
382.471	38.06
382.681	58.54
382.891	89.26
383.101	113.83
383.311	3.24
383.521	70.83
383.731	40.11
383.941	79.02
384.151	54.44
384.361	160.94
384.571	76.97
384.781	83.11
384.991	148.65
385.201	128.17
385.411	101.55
385.621	70.83
385.831	81.07
386.041	40.11
386.251	109.74
386.461	124.07
386.671	70.83
386.881	70.83
387.091	97.45
387.301	107.69
387.511	89.26
387.72	130.22
387.93	122.02
388.14	74.92
388.35	103.59
388.56	91.31
388.769	52.39
388.979	193.7
389.189	87.21
389.399	117.93
389.609	111.78
389.818	101.55
390.028	87.21
390.238	152.74
390.447	109.74
390.657	40.11
390.867	156.84
391.076	42.15
391.286	117.93
391.496	95.4
391.705	117.93
391.915	156.84
392.125	146.6
392.334	115.88
392.544	126.12
392.753	62.63
392.963	38.06
393.172	115.88
393.382	70.83
393.591	138.41
393.801	97.45
394.01	177.32
394.22	128.17
394.429	179.37
394.639	136.36
394.848	101.55
395.058	144.55
395.267	115.88
395.477	173.22
395.686	72.87
395.895	222.38
396.105	136.36
396.314	87.21
396.524	130.22
396.733	177.32
396.942	134.31
397.152	115.88
397.361	185.51
397.57	158.89
397.78	109.74
397.989	152.74
398.198	201.9
398.407	134.31
398.617	224.42
398.826	142.5
399.035	210.09
399.244	160.94
399.453	132.26
399.663	126.12
399.872	185.51
400.081	185.51
400.29	228.52
400.499	40.11
400.708	144.55
400.917	259.24
401.127	195.75
401.336	169.13
401.545	224.42
401.754	201.9
401.963	261.29
402.172	132.26
402.381	119.98
402.59	193.7
402.799	128.17
403.008	152.74
403.217	236.71
403.426	185.51
403.635	152.74
403.844	226.47
404.053	124.07
404.262	177.32
404.471	224.42
404.68	197.8
404.888	212.14
405.097	222.38
405.306	162.98
405.515	232.62
405.724	228.52
405.933	275.62
406.142	273.57
406.35	332.97
406.559	253.09
406.768	312.49
406.977	332.97
407.185	314.53
407.394	355.49
407.603	283.81
407.812	324.77
408.02	335.01
408.229	390.31
408.438	318.63
408.646	326.82
408.855	332.97
409.064	400.55
409.272	457.89
409.481	394.4
409.69	363.69
409.898	472.23
410.107	410.79
410.315	492.71
410.524	492.71
410.733	504.99
410.941	484.52
411.15	582.82
411.358	609.44
411.567	609.44
411.775	629.92
411.984	595.11
412.192	578.72
412.401	570.53
412.609	715.94
412.818	744.61
413.026	750.75
413.234	754.85
413.443	769.18
413.651	816.29
413.86	879.77
414.068	900.25
414.276	902.3
414.485	887.97
414.693	959.64
414.901	994.46
415.11	1041.56
415.318	992.41
415.526	1150.11
415.734	1203.35
415.943	1133.72
416.151	1184.92
416.359	1193.11
416.567	1184.92
416.776	1346.71
416.984	1393.81
417.192	1385.62
417.4	1473.68
417.608	1412.25
417.817	1614.99
418.025	1617.04
418.233	1721.49
418.441	1516.69
418.649	1723.54
418.857	1891.47
419.065	1983.63
419.273	1836.17
419.481	1914
419.689	2040.97
419.897	2200.71
420.105	2217.1
420.313	2307.21
420.521	2552.96
420.729	2401.41
420.937	2460.81
421.145	2573.44
421.353	2714.75
421.561	2733.18
421.769	2868.35
421.977	3042.43
422.185	2921.6
422.393	3110.01
422.601	3404.92
422.809	3204.22
423.017	3318.9
423.224	3492.98
423.432	3507.32
423.64	3701.87
423.848	4007.02
424.056	3806.32
424.263	4101.23
424.471	4127.85
424.679	4191.34
424.887	4422.76
425.094	4576.36
425.302	4719.71
425.51	4813.92
425.718	4848.74
425.925	5092.44
426.133	5248.09
426.341	5379.16
426.548	5651.54
426.756	5755.99
426.964	5801.04
427.171	6194.25
427.379	6208.59
427.586	6399.05
427.794	6460.49
428.001	6763.59
428.209	7058.49
428.417	6984.77
428.624	7541.82
428.832	7644.21
429.039	7476.28
429.247	7478.33
429.454	8428.59
429.662	8768.55
429.869	8274.99
430.076	8707.11
430.284	8563.75
430.491	8885.28
430.699	9509.91
430.906	9360.41
431.114	9622.55
431.321	9876.5
431.528	10052.63
431.736	10523.66
431.943	11064.32
432.15	10777.61
432.358	11015.17
432.565	11652.09
432.772	11545.59
432.979	11881.46
433.187	12307.44
433.394	12465.13
433.601	13306.85
433.808	13229.02
434.016	13077.48
434.223	13665.24
434.43	14603.21
434.637	14212.05
434.844	15031.24
435.052	15528.89
435.259	15211.46
435.466	15576
435.673	15569.85
435.88	16366.51
436.087	17028.01
436.294	17202.08
436.501	16536.49
436.708	17234.85
436.915	17677.21
437.122	18615.18
437.329	18367.38
437.537	18899.85
437.743	19223.43
437.95	19198.85
438.157	20026.23
438.364	20968.3
438.571	20644.72
438.778	20771.69
438.985	22741.84
439.192	21769.05
439.399	22735.7
439.606	22141.78
439.813	23436.1
440.02	24802.1
440.227	24208.19
440.433	24181.56
440.64	25025.32
440.847	24779.57
441.054	25461.54
441.261	27095.82
441.467	26477.33
441.674	27302.67
441.881	27884.29
442.088	28013.31
442.294	27650.82
442.501	28324.6
442.708	28904.18
442.914	30251.74
443.121	31457.99
443.328	30651.09
443.534	32699.06
443.741	31871.68
443.948	31290.06
444.154	33940.13
444.361	33286.83
444.568	33591.98
444.774	33899.17
444.981	34232.99
445.187	35109.52
445.394	36688.51
445.6	35887.75
445.807	39195.22
446.013	37458.54
446.22	38394.46
446.426	39531.09
446.633	40270.4
446.839	41744.94
447.046	39969.35
447.252	42113.58
447.459	41982.51
447.665	41923.11
447.871	43631.12
448.078	45023.74
448.284	43522.58
448.491	44378.63
448.697	45654.51
448.903	46768.61
449.11	46971.36
449.316	45881.84
449.522	46655.97
449.728	47856.08
449.935	48245.19
450.141	48171.47
450.347	49514.94
450.553	47796.69
450.76	48062.93
450.966	49549.75
451.172	49191.36
451.378	50141.61
451.584	49576.37
451.791	50633.13
451.997	50411.95
452.203	50968.99
452.409	50897.31
452.615	50678.18
452.821	48871.87
453.027	48437.7
453.233	50649.51
453.44	48701.89
453.646	49562.04
453.852	49772.98
454.058	50657.7
454.264	48470.47
454.47	49772.98
454.676	48622.02
454.882	50221.48
455.088	45875.69
455.294	46737.89
455.5	47339.99
455.705	47618.52
455.911	45713.91
456.117	44900.86
456.323	44362.25
456.529	42244.65
456.735	43311.64
456.941	42273.32
457.147	41873.96
457.352	40852.03
457.558	40192.58
457.764	40499.78
457.97	39625.29
458.176	38619.74
458.381	38378.08
458.587	36852.34
458.793	37155.44
458.999	34796.18
459.204	37624.43
459.41	36383.36
459.616	34196.13
459.821	34284.19
460.027	34200.22
460.233	33104.56
460.438	31623.88
460.644	32213.7
460.85	30743.25
461.055	30040.8
461.261	30202.59
461.466	27933.44
461.672	26999.57
461.878	28945.14
462.083	27024.14
462.289	26655.51
462.494	26266.39
462.7	24871.73
462.905	24347.45
463.111	25125.68
463.316	25584.42
463.522	24714.03
463.727	24879.92
463.932	24984.37
464.138	24769.33
464.343	24961.84
464.549	23927.61
464.754	24951.6
464.959	24525.62
465.165	24294.2
465.37	23825.22
465.575	22860.62
