Data from USB4F104151__168__10-27-24-829.txt Node

Date: Wed Mar 12 10:27:24 EDT 2025
User: louis
Spectrometer: USB4F10415
Trigger mode: 4
Integration Time (sec): 3.000000E-2
Scans to average: 1
Electric dark correction enabled: true
Nonlinearity correction enabled: false
Boxcar width: 0
XAxis mode: Wavelengths
Number of Pixels in Spectrum: 3648
>>>>>Begin Spectral Data<<<<<
178.204	-147.11
178.424	-147.11
178.644	-147.11
178.864	-190.12
179.084	-140.97
179.304	-9.9
179.524	-40.62
179.744	14.68
179.964	-1.71
180.184	-18.09
180.404	16.73
180.624	0.34
180.844	65.88
181.064	-42.67
181.283	53.59
181.503	-36.52
181.723	-1.71
181.943	-18.09
182.163	59.73
182.383	-13.99
182.602	22.87
182.822	29.01
183.042	2.39
183.262	-32.43
183.482	-18.09
183.701	-9.9
183.921	-5.8
184.141	22.87
184.361	-18.09
184.58	39.25
184.8	55.64
185.02	16.73
185.239	49.49
185.459	20.82
185.679	92.5
185.898	-13.99
186.118	-16.04
186.338	49.49
186.557	20.82
186.777	-18.09
186.997	8.53
187.216	39.25
187.436	53.59
187.655	-36.52
187.875	18.77
188.095	-18.09
188.314	31.06
188.534	104.79
188.753	-7.85
188.973	-22.19
189.192	57.68
189.412	78.16
189.631	82.26
189.851	12.63
190.07	0.34
190.29	14.68
190.509	-18.09
190.729	-7.85
190.948	55.64
191.168	137.56
191.387	45.4
191.607	-40.62
191.826	39.25
192.045	35.16
192.265	80.21
192.484	24.92
192.704	80.21
192.923	10.58
193.142	39.25
193.362	-16.04
193.581	16.73
193.8	45.4
194.02	84.31
194.239	-1.71
194.458	59.73
194.678	-7.85
194.897	57.68
195.116	31.06
195.335	47.44
195.555	-18.09
195.774	10.58
195.993	53.59
196.212	94.55
196.432	26.96
196.651	10.58
196.87	-1.71
197.089	102.74
197.308	6.49
197.528	2.39
197.747	29.01
197.966	4.44
198.185	108.88
198.404	-3.75
198.623	-24.23
198.842	12.63
199.062	61.78
199.281	2.39
199.5	-9.9
199.719	84.31
199.938	33.11
200.157	33.11
200.376	-3.75
200.595	41.3
200.814	31.06
201.033	37.2
201.252	47.44
201.471	67.92
201.69	59.73
201.909	29.01
202.128	31.06
202.347	8.53
202.566	26.96
202.785	-26.28
203.004	8.53
203.223	131.41
203.442	26.96
203.661	-46.76
203.879	72.02
204.098	117.08
204.317	37.2
204.536	65.88
204.755	-5.8
204.974	12.63
205.193	24.92
205.411	82.26
205.63	16.73
205.849	26.96
206.068	20.82
206.287	35.16
206.505	-5.8
206.724	-13.99
206.943	0.34
207.162	65.88
207.381	39.25
207.599	-36.52
207.818	14.68
208.037	24.92
208.255	-16.04
208.474	63.83
208.693	10.58
208.911	-13.99
209.13	18.77
209.349	39.25
209.567	61.78
209.786	39.25
210.005	61.78
210.223	90.45
210.442	51.54
210.661	-24.23
210.879	-50.86
211.098	74.07
211.316	45.4
211.535	14.68
211.753	18.77
211.972	115.03
212.191	-9.9
212.409	43.35
212.628	61.78
212.846	10.58
213.065	96.6
213.283	69.97
213.502	14.68
213.72	61.78
213.938	31.06
214.157	61.78
214.375	-24.23
214.594	59.73
214.812	53.59
215.031	12.63
215.249	67.92
215.467	-34.47
215.686	-20.14
215.904	129.36
216.122	-63.15
216.341	61.78
216.559	-42.67
216.778	82.26
216.996	29.01
217.214	108.88
217.432	-42.67
217.651	-85.67
217.869	10.58
218.087	76.12
218.306	37.2
218.524	20.82
218.742	-9.9
218.96	74.07
219.179	4.44
219.397	26.96
219.615	22.87
219.833	80.21
220.051	-42.67
220.27	55.64
220.488	26.96
220.706	45.4
220.924	31.06
221.142	6.49
221.36	-1.71
221.578	72.02
221.796	37.2
222.015	22.87
222.233	84.31
222.451	49.49
222.669	2.39
222.887	24.92
223.105	10.58
223.323	-3.75
223.541	-54.95
223.759	20.82
223.977	43.35
224.195	-26.28
224.413	63.83
224.631	39.25
224.849	49.49
225.067	119.12
225.285	-20.14
225.503	10.58
225.721	16.73
225.939	-3.75
226.157	22.87
226.375	112.98
226.592	-67.24
226.81	31.06
227.028	12.63
227.246	151.89
227.464	-16.04
227.682	84.31
227.9	14.68
228.117	20.82
228.335	2.39
228.553	31.06
228.771	49.49
228.989	18.77
229.206	69.97
229.424	-22.19
229.642	-1.71
229.86	-50.86
230.077	39.25
230.295	-7.85
230.513	74.07
230.731	-11.95
230.948	80.21
231.166	2.39
231.384	43.35
231.601	-44.71
231.819	39.25
232.037	92.5
232.254	12.63
232.472	69.97
232.689	-5.8
232.907	55.64
233.125	63.83
233.342	-46.76
233.56	26.96
233.777	22.87
233.995	47.44
234.213	43.35
234.43	-24.23
234.648	37.2
234.865	-18.09
235.083	18.77
235.3	41.3
235.518	45.4
235.735	100.69
235.953	41.3
236.17	-26.28
236.388	10.58
236.605	29.01
236.822	104.79
237.04	86.36
237.257	6.49
237.475	51.54
237.692	31.06
237.909	39.25
238.127	-26.28
238.344	55.64
238.562	-18.09
238.779	6.49
238.996	10.58
239.214	94.55
239.431	29.01
239.648	18.77
239.865	29.01
240.083	-34.47
240.3	53.59
240.517	-42.67
240.735	22.87
240.952	41.3
241.169	102.74
241.386	10.58
241.603	8.53
241.821	31.06
242.038	10.58
242.255	2.39
242.472	2.39
242.689	59.73
242.907	37.2
243.124	14.68
243.341	12.63
243.558	-30.38
243.775	2.39
243.992	-44.71
244.209	119.12
244.426	94.55
244.643	43.35
244.86	6.49
245.078	29.01
245.295	61.78
245.512	-42.67
245.729	-42.67
245.946	98.64
246.163	45.4
246.38	26.96
246.597	72.02
246.814	61.78
247.031	-1.71
247.248	108.88
247.464	31.06
247.681	14.68
247.898	72.02
248.115	49.49
248.332	39.25
248.549	98.64
248.766	96.6
248.983	100.69
249.2	-9.9
249.417	104.79
249.633	12.63
249.85	-13.99
250.067	-11.95
250.284	12.63
250.501	96.6
250.717	129.36
250.934	18.77
251.151	29.01
251.368	96.6
251.585	108.88
251.801	69.97
252.018	49.49
252.235	45.4
252.451	112.98
252.668	14.68
252.885	-26.28
253.102	-1.71
253.318	53.59
253.535	31.06
253.752	-18.09
253.968	35.16
254.185	-5.8
254.401	61.78
254.618	-18.09
254.835	-5.8
255.051	24.92
255.268	57.68
255.484	53.59
255.701	18.77
255.917	37.2
256.134	26.96
256.351	4.44
256.567	-77.48
256.784	84.31
257	-83.63
257.217	22.87
257.433	57.68
257.65	106.84
257.866	-11.95
258.082	31.06
258.299	18.77
258.515	102.74
258.732	0.34
258.948	-16.04
259.165	-40.62
259.381	31.06
259.597	-13.99
259.814	10.58
260.03	-7.85
260.246	-16.04
260.463	63.83
260.679	59.73
260.895	16.73
261.112	29.01
261.328	94.55
261.544	45.4
261.761	82.26
261.977	94.55
262.193	-20.14
262.409	10.58
262.626	69.97
262.842	16.73
263.058	-9.9
263.274	78.16
263.49	39.25
263.707	86.36
263.923	0.34
264.139	22.87
264.355	39.25
264.571	45.4
264.787	82.26
265.004	117.08
265.22	10.58
265.436	-50.86
265.652	10.58
265.868	31.06
266.084	37.2
266.3	53.59
266.516	18.77
266.732	-20.14
266.948	8.53
267.164	41.3
267.38	31.06
267.596	16.73
267.812	53.59
268.028	-61.1
268.244	35.16
268.46	-16.04
268.676	-13.99
268.892	-18.09
269.108	8.53
269.324	43.35
269.54	43.35
269.756	53.59
269.972	39.25
270.188	51.54
270.403	37.2
270.619	76.12
270.835	39.25
271.051	26.96
271.267	-44.71
271.483	39.25
271.698	55.64
271.914	69.97
272.13	-3.75
272.346	57.68
272.562	72.02
272.777	31.06
272.993	8.53
273.209	14.68
273.425	-11.95
273.64	-3.75
273.856	45.4
274.072	37.2
274.287	29.01
274.503	14.68
274.719	45.4
274.934	20.82
275.15	-32.43
275.366	47.44
275.581	43.35
275.797	-34.47
276.012	88.4
276.228	-3.75
276.444	39.25
276.659	2.39
276.875	18.77
277.09	90.45
277.306	-3.75
277.521	-20.14
277.737	39.25
277.952	26.96
278.168	76.12
278.383	33.11
278.599	10.58
278.814	14.68
279.03	72.02
279.245	94.55
279.461	53.59
279.676	88.4
279.892	2.39
280.107	-9.9
280.322	22.87
280.538	-7.85
280.753	47.44
280.969	39.25
281.184	-34.47
281.399	69.97
281.615	8.53
281.83	-30.38
282.045	-20.14
282.26	-3.75
282.476	-52.91
282.691	80.21
282.906	2.39
283.122	61.78
283.337	-34.47
283.552	94.55
283.767	16.73
283.983	110.93
284.198	41.3
284.413	80.21
284.628	92.5
284.843	-50.86
285.058	22.87
285.274	39.25
285.489	102.74
285.704	37.2
285.919	43.35
286.134	24.92
286.349	10.58
286.564	43.35
286.779	94.55
286.995	24.92
287.21	6.49
287.425	65.88
287.64	10.58
287.855	16.73
288.07	-1.71
288.285	100.69
288.5	2.39
288.715	31.06
288.93	4.44
289.145	76.12
289.36	53.59
289.575	12.63
289.79	78.16
290.004	45.4
290.219	43.35
290.434	41.3
290.649	0.34
290.864	-42.67
291.079	-61.1
291.294	29.01
291.509	14.68
291.724	22.87
291.938	35.16
292.153	63.83
292.368	-26.28
292.583	57.68
292.798	117.08
293.012	-5.8
293.227	-26.28
293.442	-13.99
293.657	49.49
293.871	108.88
294.086	-16.04
294.301	43.35
294.516	63.83
294.73	14.68
294.945	80.21
295.16	-3.75
295.374	-16.04
295.589	76.12
295.804	14.68
296.018	96.6
296.233	67.92
296.447	39.25
296.662	106.84
296.877	37.2
297.091	61.78
297.306	53.59
297.52	53.59
297.735	22.87
297.949	37.2
298.164	8.53
298.378	0.34
298.593	31.06
298.807	55.64
299.022	69.97
299.236	6.49
299.451	63.83
299.665	2.39
299.88	47.44
300.094	26.96
300.309	76.12
300.523	4.44
300.737	37.2
300.952	31.06
301.166	131.41
301.381	-46.76
301.595	12.63
301.809	26.96
302.024	-16.04
302.238	53.59
302.452	88.4
302.667	10.58
302.881	78.16
303.095	65.88
303.309	37.2
303.524	22.87
303.738	-18.09
303.952	80.21
304.166	67.92
304.381	-38.57
304.595	131.41
304.809	-26.28
305.023	129.36
305.237	-34.47
305.452	-5.8
305.666	69.97
305.88	41.3
306.094	47.44
306.308	6.49
306.522	31.06
306.736	-108.2
306.95	-16.04
307.164	67.92
307.379	35.16
307.593	108.88
307.807	59.73
308.021	84.31
308.235	86.36
308.449	-52.91
308.663	0.34
308.877	65.88
309.091	59.73
309.305	78.16
309.519	-52.91
309.733	16.73
309.947	14.68
310.161	45.4
310.374	78.16
310.588	65.88
310.802	-5.8
311.016	55.64
311.23	117.08
311.444	6.49
311.658	4.44
311.872	43.35
312.085	20.82
312.299	53.59
312.513	86.36
312.727	35.16
312.941	0.34
313.154	26.96
313.368	100.69
313.582	63.83
313.796	57.68
314.009	35.16
314.223	47.44
314.437	-18.09
314.651	24.92
314.864	-1.71
315.078	-11.95
315.292	22.87
315.505	8.53
315.719	100.69
315.933	49.49
316.146	37.2
316.36	16.73
316.573	31.06
316.787	88.4
317.001	14.68
317.214	-9.9
317.428	47.44
317.641	-20.14
317.855	-63.15
318.068	47.44
318.282	14.68
318.495	37.2
318.709	39.25
318.922	-16.04
319.136	94.55
319.349	106.84
319.563	-1.71
319.776	57.68
319.99	55.64
320.203	-46.76
320.417	-3.75
320.63	35.16
320.843	84.31
321.057	92.5
321.27	26.96
321.483	86.36
321.697	51.54
321.91	14.68
322.124	-34.47
322.337	14.68
322.55	2.39
322.763	47.44
322.977	10.58
323.19	47.44
323.403	37.2
323.617	2.39
323.83	20.82
324.043	37.2
324.256	43.35
324.469	-38.57
324.683	-63.15
324.896	10.58
325.109	-22.19
325.322	-5.8
325.535	33.11
325.748	37.2
325.962	12.63
326.175	37.2
326.388	49.49
326.601	123.22
326.814	-11.95
327.027	41.3
327.24	41.3
327.453	10.58
327.666	-52.91
327.879	26.96
328.092	39.25
328.305	115.03
328.518	0.34
328.731	-7.85
328.944	2.39
329.157	6.49
329.37	61.78
329.583	49.49
329.796	-22.19
330.009	-38.57
330.222	12.63
330.435	31.06
330.648	43.35
330.861	22.87
331.073	76.12
331.286	39.25
331.499	80.21
331.712	29.01
331.925	18.77
332.138	47.44
332.35	102.74
332.563	-18.09
332.776	100.69
332.989	-34.47
333.202	45.4
333.414	10.58
333.627	22.87
333.84	51.54
334.053	29.01
334.265	22.87
334.478	43.35
334.691	-9.9
334.903	67.92
335.116	6.49
335.329	72.02
335.541	41.3
335.754	186.71
335.966	29.01
336.179	59.73
336.392	-38.57
336.604	-3.75
336.817	-1.71
337.029	14.68
337.242	-11.95
337.454	76.12
337.667	43.35
337.88	45.4
338.092	2.39
338.305	24.92
338.517	-20.14
338.729	121.17
338.942	33.11
339.154	115.03
339.367	115.03
339.579	18.77
339.792	88.4
340.004	24.92
340.217	4.44
340.429	-1.71
340.641	76.12
340.854	22.87
341.066	18.77
341.278	8.53
341.491	-40.62
341.703	22.87
341.915	-22.19
342.128	57.68
342.34	59.73
342.552	59.73
342.764	88.4
342.977	31.06
343.189	82.26
343.401	47.44
343.613	-13.99
343.826	96.6
344.038	-67.24
344.25	57.68
344.462	-30.38
344.674	76.12
344.886	31.06
345.099	-3.75
345.311	88.4
345.523	-5.8
345.735	-20.14
345.947	37.2
346.159	55.64
346.371	22.87
346.583	10.58
346.795	29.01
347.007	-40.62
347.219	-16.04
347.431	112.98
347.643	106.84
347.855	96.6
348.067	45.4
348.279	12.63
348.491	41.3
348.703	82.26
348.915	84.31
349.127	94.55
349.339	16.73
349.551	18.77
349.763	12.63
349.975	104.79
350.187	20.82
350.399	55.64
350.61	82.26
350.822	39.25
351.034	51.54
351.246	78.16
351.458	63.83
351.669	78.16
351.881	145.75
352.093	88.4
352.305	76.12
352.517	51.54
352.728	76.12
352.94	39.25
353.152	6.49
353.363	-32.43
353.575	39.25
353.787	141.65
353.999	86.36
354.21	26.96
354.422	43.35
354.633	69.97
354.845	67.92
355.057	16.73
355.268	123.22
355.48	104.79
355.692	67.92
355.903	55.64
356.115	2.39
356.326	51.54
356.538	90.45
356.749	29.01
356.961	127.32
357.172	106.84
357.384	26.96
357.595	47.44
357.807	14.68
358.018	67.92
358.23	53.59
358.441	61.78
358.653	63.83
358.864	43.35
359.075	29.01
359.287	104.79
359.498	51.54
359.709	39.25
359.921	53.59
360.132	26.96
360.344	6.49
360.555	43.35
360.766	-9.9
360.977	74.07
361.189	33.11
361.4	31.06
361.611	47.44
361.823	22.87
362.034	33.11
362.245	39.25
362.456	37.2
362.667	137.56
362.879	49.49
363.09	74.07
363.301	16.73
363.512	51.54
363.723	117.08
363.935	65.88
364.146	-1.71
364.357	59.73
364.568	143.7
364.779	-3.75
364.99	69.97
365.201	43.35
365.412	63.83
365.623	-18.09
365.834	98.64
366.045	39.25
366.256	26.96
366.467	26.96
366.678	22.87
366.889	69.97
367.1	35.16
367.311	51.54
367.522	16.73
367.733	121.17
367.944	22.87
368.155	55.64
368.366	78.16
368.577	0.34
368.788	37.2
368.999	-65.19
369.209	33.11
369.42	119.12
369.631	100.69
369.842	61.78
370.053	4.44
370.264	51.54
370.474	96.6
370.685	35.16
370.896	10.58
371.107	94.55
371.317	29.01
371.528	8.53
371.739	59.73
371.95	-7.85
372.16	20.82
372.371	18.77
372.582	96.6
372.792	108.88
373.003	65.88
373.214	-11.95
373.424	8.53
373.635	22.87
373.846	47.44
374.056	155.99
374.267	96.6
374.477	14.68
374.688	-3.75
374.898	-18.09
375.109	69.97
375.319	92.5
375.53	84.31
375.74	84.31
375.951	4.44
376.161	55.64
376.372	100.69
376.582	22.87
376.793	78.16
377.003	16.73
377.214	78.16
377.424	119.12
377.635	-54.95
377.845	59.73
378.055	129.36
378.266	20.82
378.476	92.5
378.686	110.93
378.897	35.16
379.107	82.26
379.317	108.88
379.528	4.44
379.738	22.87
379.948	-3.75
380.158	98.64
380.369	31.06
380.579	31.06
380.789	24.92
380.999	72.02
381.21	47.44
381.42	155.99
381.63	29.01
381.84	94.55
382.05	-30.38
382.261	-22.19
382.471	12.63
382.681	18.77
382.891	119.12
383.101	65.88
383.311	47.44
383.521	43.35
383.731	55.64
383.941	37.2
384.151	31.06
384.361	22.87
384.571	37.2
384.781	90.45
384.991	135.51
385.201	147.8
385.411	31.06
385.621	26.96
385.831	61.78
386.041	108.88
386.251	-34.47
386.461	86.36
386.671	29.01
386.881	186.71
387.091	12.63
387.301	96.6
387.511	100.69
387.72	121.17
387.93	55.64
388.14	31.06
388.35	98.64
388.56	20.82
388.769	78.16
388.979	86.36
389.189	72.02
389.399	18.77
389.609	47.44
389.818	119.12
390.028	102.74
390.238	80.21
390.447	31.06
390.657	129.36
390.867	33.11
391.076	39.25
391.286	37.2
391.496	55.64
391.705	80.21
391.915	158.03
392.125	69.97
392.334	49.49
392.544	129.36
392.753	104.79
392.963	59.73
393.172	84.31
393.382	92.5
393.591	137.56
393.801	14.68
394.01	51.54
394.22	88.4
394.429	47.44
394.639	26.96
394.848	98.64
395.058	-24.23
395.267	39.25
395.477	135.51
395.686	78.16
395.895	170.32
396.105	100.69
396.314	14.68
396.524	108.88
396.733	4.44
396.942	162.13
397.152	100.69
397.361	90.45
397.57	26.96
397.78	133.46
397.989	117.08
398.198	147.8
398.407	61.78
398.617	135.51
398.826	72.02
399.035	96.6
399.244	170.32
399.453	115.03
399.663	158.03
399.872	76.12
400.081	84.31
400.29	168.27
400.499	88.4
400.708	63.83
400.917	117.08
401.127	6.49
401.336	121.17
401.545	174.42
401.754	94.55
401.963	209.23
402.172	192.85
402.381	84.31
402.59	29.01
402.799	94.55
403.008	98.64
403.217	110.93
403.426	145.75
403.635	82.26
403.844	119.12
404.053	104.79
404.262	43.35
404.471	160.08
404.68	196.95
404.888	133.46
405.097	209.23
405.306	168.27
405.515	258.39
405.724	188.75
405.933	127.32
406.142	231.76
406.35	209.23
406.559	143.7
406.768	201.04
406.977	231.76
407.185	231.76
407.394	203.09
407.603	168.27
407.812	274.77
408.02	223.57
408.229	246.1
408.438	235.86
408.646	217.43
408.855	209.23
409.064	244.05
409.272	242
409.481	285.01
409.69	235.86
409.898	229.71
410.107	346.45
410.315	239.95
410.524	391.5
410.733	379.22
410.941	317.78
411.15	330.06
411.358	297.3
411.567	362.83
411.775	356.69
411.984	368.98
412.192	401.74
412.401	366.93
412.609	522.57
412.818	502.09
413.026	498
413.234	502.09
413.443	536.91
413.651	438.61
413.86	469.33
414.068	596.3
414.276	637.26
414.485	541.01
414.693	653.64
414.901	649.55
415.11	753.99
415.318	700.75
415.526	690.51
415.734	692.55
415.943	739.66
416.151	815.43
416.359	780.62
416.567	823.62
416.776	819.53
416.984	932.17
417.192	874.82
417.4	985.41
417.608	1024.33
417.817	969.03
418.025	1022.28
418.233	1077.57
418.441	1063.24
418.649	1071.43
418.857	1210.69
419.065	1257.79
419.273	1261.89
419.481	1352
419.689	1298.75
419.897	1339.71
420.105	1368.38
420.313	1552.7
420.521	1511.74
420.729	1581.37
420.937	1632.57
421.145	1659.2
421.353	1730.87
421.561	1837.37
421.769	1882.42
421.977	2013.49
422.185	1980.73
422.393	2103.61
422.601	2097.46
422.809	2160.95
423.017	2144.56
423.224	2289.97
423.432	2373.94
423.64	2312.5
423.848	2578.73
424.056	2629.93
424.263	2627.89
424.471	2801.96
424.679	2863.4
424.887	3029.29
425.094	2996.52
425.302	3080.49
425.51	3148.07
425.718	3201.32
425.925	3377.44
426.133	3344.67
426.341	3688.73
426.548	3795.23
426.756	3703.07
426.964	3823.9
427.171	3965.21
427.379	4159.77
427.586	4198.68
427.794	4243.73
428.001	4530.45
428.209	4696.33
428.417	4667.66
428.624	5097.74
428.832	4968.71
429.039	4829.45
429.247	4964.62
429.454	5562.62
429.662	5830.91
429.869	5396.74
430.076	5720.32
430.284	5529.86
430.491	6023.42
430.699	6207.73
430.906	6099.19
431.114	6222.07
431.321	6510.83
431.528	6637.81
431.736	7065.83
431.943	7545.06
432.15	7182.57
432.358	7211.24
432.565	7549.15
432.772	7579.87
432.979	7899.36
433.187	8116.44
433.394	8098.01
433.601	8827.09
433.808	8730.83
434.016	8474.84
434.223	9085.13
434.43	9537.73
434.637	9375.94
434.844	10033.34
435.052	10162.36
435.259	10205.37
435.466	10340.54
435.673	9978.05
435.88	10858.67
436.087	11448.49
436.294	11202.73
436.501	11020.46
436.708	11198.63
436.915	11567.27
437.122	12087.45
437.329	11989.15
437.537	12343.45
437.743	12943.5
437.95	12761.23
438.157	13400.2
438.364	13768.84
438.571	13582.47
438.778	13975.68
438.985	15296.62
439.192	14563.45
439.399	14966.9
439.606	14397.56
439.813	15272.04
440.02	16273.5
440.227	16124
440.433	15816.8
440.64	16482.39
440.847	16312.41
441.054	16726.1
441.261	17799.24
441.467	17643.59
441.674	17985.6
441.881	18772.02
442.088	18403.39
442.294	18274.37
442.501	19044.4
442.708	19023.92
442.914	20221.98
443.121	21028.88
443.328	20453.41
443.534	21782.54
443.741	21184.53
443.948	20715.55
444.154	22644.73
444.361	22300.67
444.568	22497.28
444.774	22296.58
444.981	22609.92
445.187	23103.48
445.394	24442.85
445.6	23836.65
445.807	26189.77
446.013	25098.2
446.22	25540.56
446.426	26773.44
446.633	26658.75
446.839	27570.1
447.046	26638.27
447.252	28000.17
447.459	28153.77
447.665	27926.44
447.871	29153.18
448.078	30029.71
448.284	28667.81
448.491	29812.62
448.697	30631.81
448.903	31176.57
449.11	31037.31
449.316	30652.29
449.522	31192.95
449.728	32018.28
449.935	32274.28
450.141	31940.46
450.347	32642.92
450.553	31897.45
450.76	32288.62
450.966	33001.31
451.172	32907.1
451.378	33722.19
451.584	32784.23
451.791	33720.15
451.997	33638.23
452.203	34291.53
452.409	34187.08
452.615	33668.95
452.821	32409.45
453.027	32083.82
453.233	33871.7
453.44	32032.62
453.646	32700.26
453.852	33294.17
454.058	33431.38
454.264	32223.08
454.47	33023.84
454.676	32368.49
454.882	33574.74
455.088	30234.5
455.294	31092.6
455.5	30898.05
455.705	31700.85
455.911	30154.63
456.117	29413.27
456.323	29370.26
456.529	27381.68
456.735	28745.63
456.941	28094.38
457.147	27359.16
457.352	26904.51
457.558	26286.02
457.764	26548.16
457.97	26267.59
458.176	24954.84
458.381	25278.42
458.587	24088.55
458.793	24127.46
458.999	23011.32
459.204	24586.21
459.41	23961.58
459.616	22091.78
459.821	22345.73
460.027	22431.74
460.233	21704.71
460.438	20490.27
460.644	20834.33
460.85	19857.45
461.055	19785.77
461.261	19683.37
461.466	18313.28
461.672	17741.89
461.878	18634.81
462.083	17584.2
462.289	17115.22
462.494	17092.69
462.7	16549.98
462.905	16117.86
463.111	16586.84
463.316	16666.71
463.522	16369.76
463.727	16214.11
463.932	16310.36
464.138	15792.23
464.343	16093.28
464.549	15673.45
464.754	16095.33
464.959	16244.83
465.165	15880.29
465.37	15044.72
465.575	14811.25
465.781	15419.5
465.986	15579.24
466.191	15003.76
466.397	14848.11
466.602	13975.68
466.807	14846.07
467.012	14495.86
467.218	14567.54
467.423	14053.5
