Data from USB4F104151__29__10-21-51-596.txt Node

Date: Wed Mar 12 10:21:51 EDT 2025
User: louis
Spectrometer: USB4F10415
Trigger mode: 4
Integration Time (sec): 3.000000E-2
Scans to average: 1
Electric dark correction enabled: true
Nonlinearity correction enabled: false
Boxcar width: 0
XAxis mode: Wavelengths
Number of Pixels in Spectrum: 3648
>>>>>Begin Spectral Data<<<<<
178.204	-95.23
178.424	-95.23
178.644	-95.23
178.864	-177.15
179.084	-152.57
179.304	56.32
179.524	-56.32
179.744	-7.17
179.964	56.32
180.184	68.61
180.404	29.7
180.624	-60.42
180.844	37.89
181.064	-82.94
181.283	-44.03
181.503	15.36
181.723	-13.31
181.943	-31.74
182.163	97.28
182.383	29.7
182.602	121.85
182.822	64.51
183.042	54.27
183.262	-19.46
183.482	60.42
183.701	-19.46
183.921	56.32
184.141	-39.94
184.361	46.08
184.58	-25.6
184.8	48.13
185.02	37.89
185.239	52.22
185.459	31.74
185.679	21.5
185.898	31.74
186.118	31.74
186.338	84.99
186.557	29.7
186.777	15.36
186.997	25.6
187.216	-3.07
187.436	87.04
187.655	21.5
187.875	62.46
188.095	-3.07
188.314	21.5
188.534	-23.55
188.753	-5.12
188.973	27.65
189.192	35.84
189.412	46.08
189.631	-9.22
189.851	-1.02
190.07	-19.46
190.29	-29.7
190.509	5.12
190.729	33.79
190.948	82.94
191.168	195.58
191.387	103.42
191.607	-23.55
191.826	60.42
192.045	-5.12
192.265	35.84
192.484	64.51
192.704	-9.22
192.923	-33.79
193.142	41.98
193.362	19.46
193.581	-21.5
193.8	74.75
194.02	115.71
194.239	68.61
194.458	27.65
194.678	-25.6
194.897	13.31
195.116	5.12
195.335	60.42
195.555	80.89
195.774	35.84
195.993	62.46
196.212	13.31
196.432	87.04
196.651	54.27
196.87	39.94
197.089	113.66
197.308	78.85
197.528	62.46
197.747	23.55
197.966	37.89
198.185	39.94
198.404	39.94
198.623	84.99
198.842	25.6
199.062	23.55
199.281	93.18
199.5	23.55
199.719	56.32
199.938	27.65
200.157	128
200.376	76.8
200.595	121.85
200.814	19.46
201.033	130.05
201.252	44.03
201.471	7.17
201.69	-29.7
201.909	7.17
202.128	35.84
202.347	52.22
202.566	54.27
202.785	9.22
203.004	-5.12
203.223	54.27
203.442	70.65
203.661	1.02
203.879	-5.12
204.098	64.51
204.317	15.36
204.536	-9.22
204.755	-27.65
204.974	56.32
205.193	74.75
205.411	68.61
205.63	35.84
205.849	23.55
206.068	52.22
206.287	1.02
206.505	46.08
206.724	21.5
206.943	21.5
207.162	48.13
207.381	29.7
207.599	80.89
207.818	80.89
208.037	-33.79
208.255	1.02
208.474	46.08
208.693	-9.22
208.911	23.55
209.13	72.7
209.349	7.17
209.567	7.17
209.786	72.7
210.005	-48.13
210.223	39.94
210.442	19.46
210.661	56.32
210.879	41.98
211.098	39.94
211.316	72.7
211.535	56.32
211.753	44.03
211.972	-5.12
212.191	52.22
212.409	21.5
212.628	35.84
212.846	-52.22
213.065	33.79
213.283	37.89
213.502	7.17
213.72	58.37
213.938	48.13
214.157	11.26
214.375	35.84
214.594	-3.07
214.812	74.75
215.031	72.7
215.249	35.84
215.467	68.61
215.686	13.31
215.904	66.56
216.122	48.13
216.341	70.65
216.559	54.27
216.778	101.37
216.996	5.12
217.214	91.13
217.432	-13.31
217.651	68.61
217.869	29.7
218.087	50.18
218.306	-29.7
218.524	78.85
218.742	-9.22
218.96	39.94
219.179	29.7
219.397	46.08
219.615	23.55
219.833	27.65
220.051	46.08
220.27	105.47
220.488	-5.12
220.706	66.56
220.924	35.84
221.142	-41.98
221.36	15.36
221.578	76.8
221.796	25.6
222.015	60.42
222.233	-3.07
222.451	46.08
222.669	19.46
222.887	35.84
223.105	3.07
223.323	-7.17
223.541	-41.98
223.759	87.04
223.977	-17.41
224.195	64.51
224.413	31.74
224.631	78.85
224.849	31.74
225.067	101.37
225.285	19.46
225.503	-37.89
225.721	-17.41
225.939	27.65
226.157	33.79
226.375	46.08
226.592	-33.79
226.81	23.55
227.028	7.17
227.246	17.41
227.464	68.61
227.682	62.46
227.9	7.17
228.117	58.37
228.335	13.31
228.553	-19.46
228.771	60.42
228.989	62.46
229.206	-17.41
229.424	-11.26
229.642	15.36
229.86	5.12
230.077	46.08
230.295	-29.7
230.513	89.09
230.731	125.95
230.948	7.17
231.166	29.7
231.384	7.17
231.601	35.84
231.819	72.7
232.037	76.8
232.254	-21.5
232.472	11.26
232.689	29.7
232.907	15.36
233.125	78.85
233.342	-1.02
233.56	15.36
233.777	17.41
233.995	46.08
234.213	70.65
234.43	60.42
234.648	27.65
234.865	-15.36
235.083	80.89
235.3	44.03
235.518	68.61
235.735	39.94
235.953	93.18
236.17	3.07
236.388	11.26
236.605	48.13
236.822	89.09
237.04	64.51
237.257	48.13
237.475	17.41
237.692	70.65
237.909	33.79
238.127	35.84
238.344	-1.02
238.562	31.74
238.779	-1.02
238.996	39.94
239.214	27.65
239.431	84.99
239.648	35.84
239.865	-7.17
240.083	99.33
240.3	-56.32
240.517	-7.17
240.735	9.22
240.952	-7.17
241.169	76.8
241.386	-15.36
241.603	39.94
241.821	-13.31
242.038	52.22
242.255	68.61
242.472	-33.79
242.689	35.84
242.907	44.03
243.124	50.18
243.341	111.61
243.558	-52.22
243.775	23.55
243.992	-17.41
244.209	39.94
244.426	146.43
244.643	80.89
244.86	15.36
245.078	46.08
245.295	-17.41
245.512	54.27
245.729	5.12
245.946	44.03
246.163	72.7
246.38	31.74
246.597	39.94
246.814	3.07
247.031	-19.46
247.248	35.84
247.464	-15.36
247.681	-1.02
247.898	58.37
248.115	48.13
248.332	56.32
248.549	60.42
248.766	48.13
248.983	95.23
249.2	97.28
249.417	62.46
249.633	11.26
249.85	27.65
250.067	17.41
250.284	21.5
250.501	62.46
250.717	82.94
250.934	-1.02
251.151	1.02
251.368	29.7
251.585	-5.12
251.801	11.26
252.018	-13.31
252.235	9.22
252.451	74.75
252.668	35.84
252.885	13.31
253.102	5.12
253.318	-25.6
253.535	7.17
253.752	11.26
253.968	33.79
254.185	35.84
254.401	41.98
254.618	80.89
254.835	-1.02
255.051	54.27
255.268	52.22
255.484	99.33
255.701	-3.07
255.917	52.22
256.134	15.36
256.351	39.94
256.567	27.65
256.784	80.89
257	-7.17
257.217	66.56
257.433	-60.42
257.65	76.8
257.866	5.12
258.082	-52.22
258.299	15.36
258.515	-23.55
258.732	52.22
258.948	27.65
259.165	54.27
259.381	-31.74
259.597	-5.12
259.814	11.26
260.03	19.46
260.246	-3.07
260.463	76.8
260.679	168.96
260.895	-17.41
261.112	70.65
261.328	13.31
261.544	52.22
261.761	95.23
261.977	93.18
262.193	-7.17
262.409	27.65
262.626	50.18
262.842	9.22
263.058	35.84
263.274	148.48
263.49	15.36
263.707	101.37
263.923	19.46
264.139	-1.02
264.355	23.55
264.571	46.08
264.787	-17.41
265.004	144.38
265.22	-17.41
265.436	11.26
265.652	23.55
265.868	62.46
266.084	21.5
266.3	107.52
266.516	5.12
266.732	25.6
266.948	50.18
267.164	37.89
267.38	-15.36
267.596	54.27
267.812	103.42
268.028	13.31
268.244	31.74
268.46	27.65
268.676	72.7
268.892	25.6
269.108	-3.07
269.324	-3.07
269.54	46.08
269.756	113.66
269.972	76.8
270.188	17.41
270.403	-1.02
270.619	50.18
270.835	46.08
271.051	13.31
271.267	-27.65
271.483	76.8
271.698	-11.26
271.914	44.03
272.13	56.32
272.346	109.57
272.562	-37.89
272.777	33.79
272.993	-35.84
273.209	74.75
273.425	35.84
273.64	-3.07
273.856	70.65
274.072	-21.5
274.287	41.98
274.503	1.02
274.719	70.65
274.934	56.32
275.15	17.41
275.366	11.26
275.581	68.61
275.797	-3.07
276.012	87.04
276.228	99.33
276.444	7.17
276.659	72.7
276.875	31.74
277.09	-1.02
277.306	-41.98
277.521	1.02
277.737	68.61
277.952	3.07
278.168	-5.12
278.383	27.65
278.599	125.95
278.814	13.31
279.03	56.32
279.245	54.27
279.461	39.94
279.676	-3.07
279.892	1.02
280.107	-15.36
280.322	-9.22
280.538	39.94
280.753	39.94
280.969	29.7
281.184	21.5
281.399	64.51
281.615	56.32
281.83	15.36
282.045	-46.08
282.26	52.22
282.476	27.65
282.691	52.22
282.906	37.89
283.122	7.17
283.337	21.5
283.552	60.42
283.767	23.55
283.983	11.26
284.198	-3.07
284.413	11.26
284.628	64.51
284.843	72.7
285.058	46.08
285.274	64.51
285.489	54.27
285.704	27.65
285.919	15.36
286.134	17.41
286.349	11.26
286.564	29.7
286.779	50.18
286.995	-1.02
287.21	-19.46
287.425	58.37
287.64	-21.5
287.855	95.23
288.07	-9.22
288.285	78.85
288.5	66.56
288.715	56.32
288.93	37.89
289.145	21.5
289.36	37.89
289.575	-39.94
289.79	-21.5
290.004	19.46
290.219	54.27
290.434	7.17
290.649	11.26
290.864	56.32
291.079	33.79
291.294	117.76
291.509	95.23
291.724	48.13
291.938	13.31
292.153	48.13
292.368	15.36
292.583	44.03
292.798	72.7
293.012	-5.12
293.227	23.55
293.442	46.08
293.657	103.42
293.871	50.18
294.086	13.31
294.301	82.94
294.516	21.5
294.73	72.7
294.945	-1.02
295.16	60.42
295.374	80.89
295.589	35.84
295.804	27.65
296.018	78.85
296.233	60.42
296.447	33.79
296.662	64.51
296.877	119.81
297.091	80.89
297.306	91.13
297.52	-5.12
297.735	48.13
297.949	64.51
298.164	41.98
298.378	7.17
298.593	17.41
298.807	15.36
299.022	46.08
299.236	64.51
299.451	37.89
299.665	33.79
299.88	23.55
300.094	9.22
300.309	-27.65
300.523	-52.22
300.737	9.22
300.952	46.08
301.166	-37.89
301.381	1.02
301.595	60.42
301.809	48.13
302.024	52.22
302.238	37.89
302.452	146.43
302.667	-44.03
302.881	101.37
303.095	80.89
303.309	3.07
303.524	-7.17
303.738	80.89
303.952	50.18
304.166	50.18
304.381	11.26
304.595	13.31
304.809	72.7
305.023	60.42
305.237	72.7
305.452	1.02
305.666	-9.22
305.88	70.65
306.094	97.28
306.308	48.13
306.522	70.65
306.736	48.13
306.95	5.12
307.164	33.79
307.379	13.31
307.593	-46.08
307.807	87.04
308.021	91.13
308.235	7.17
308.449	-37.89
308.663	29.7
308.877	50.18
309.091	82.94
309.305	89.09
309.519	13.31
309.733	-9.22
309.947	-13.31
310.161	25.6
310.374	84.99
310.588	113.66
310.802	25.6
311.016	-33.79
311.23	19.46
311.444	-21.5
311.658	13.31
311.872	66.56
312.085	23.55
312.299	23.55
312.513	128
312.727	128
312.941	13.31
313.154	84.99
313.368	121.85
313.582	-7.17
313.796	3.07
314.009	125.95
314.223	115.71
314.437	-19.46
314.651	-1.02
314.864	23.55
315.078	80.89
315.292	31.74
315.505	11.26
315.719	15.36
315.933	41.98
316.146	50.18
316.36	58.37
316.573	78.85
316.787	31.74
317.001	35.84
317.214	66.56
317.428	97.28
317.641	-82.94
317.855	19.46
318.068	44.03
318.282	70.65
318.495	113.66
318.709	21.5
318.922	84.99
319.136	111.61
319.349	119.81
319.563	80.89
319.776	62.46
319.99	7.17
320.203	76.8
320.417	84.99
320.63	87.04
320.843	48.13
321.057	15.36
321.27	17.41
321.483	-7.17
321.697	37.89
321.91	48.13
322.124	97.28
322.337	9.22
322.55	23.55
322.763	50.18
322.977	17.41
323.19	46.08
323.403	89.09
323.617	68.61
323.83	39.94
324.043	15.36
324.256	105.47
324.469	87.04
324.683	21.5
324.896	111.61
325.109	17.41
325.322	23.55
325.535	101.37
325.748	156.67
325.962	-3.07
326.175	70.65
326.388	66.56
326.601	39.94
326.814	72.7
327.027	37.89
327.24	136.19
327.453	60.42
327.666	64.51
327.879	3.07
328.092	101.37
328.305	35.84
328.518	54.27
328.731	72.7
328.944	84.99
329.157	93.18
329.37	-9.22
329.583	95.23
329.796	39.94
330.009	-58.37
330.222	58.37
330.435	72.7
330.648	54.27
330.861	84.99
331.073	93.18
331.286	70.65
331.499	31.74
331.712	-33.79
331.925	5.12
332.138	52.22
332.35	130.05
332.563	31.74
332.776	60.42
332.989	-5.12
333.202	35.84
333.414	15.36
333.627	78.85
333.84	68.61
334.053	-17.41
334.265	56.32
334.478	13.31
334.691	52.22
334.903	39.94
335.116	39.94
335.329	19.46
335.541	44.03
335.754	60.42
335.966	15.36
336.179	136.19
336.392	39.94
336.604	35.84
336.817	99.33
337.029	68.61
337.242	46.08
337.454	33.79
337.667	-5.12
337.88	23.55
338.092	72.7
338.305	70.65
338.517	23.55
338.729	72.7
338.942	97.28
339.154	54.27
339.367	35.84
339.579	48.13
339.792	33.79
340.004	62.46
340.217	52.22
340.429	23.55
340.641	-1.02
340.854	17.41
341.066	7.17
341.278	82.94
341.491	148.48
341.703	103.42
341.915	-1.02
342.128	19.46
342.34	35.84
342.552	21.5
342.764	39.94
342.977	74.75
343.189	58.37
343.401	115.71
343.613	37.89
343.826	99.33
344.038	97.28
344.25	62.46
344.462	46.08
344.674	99.33
344.886	-1.02
345.099	7.17
345.311	15.36
345.523	87.04
345.735	33.79
345.947	-23.55
346.159	11.26
346.371	64.51
346.583	64.51
346.795	78.85
347.007	44.03
347.219	27.65
347.431	-62.46
347.643	62.46
347.855	74.75
348.067	121.85
348.279	56.32
348.491	97.28
348.703	54.27
348.915	-13.31
349.127	-58.37
349.339	50.18
349.551	39.94
349.763	136.19
349.975	-21.5
350.187	113.66
350.399	-11.26
350.61	68.61
350.822	74.75
351.034	64.51
351.246	37.89
351.458	50.18
351.669	97.28
351.881	72.7
352.093	54.27
352.305	119.81
352.517	95.23
352.728	66.56
352.94	-3.07
353.152	54.27
353.363	-15.36
353.575	68.61
353.787	27.65
353.999	54.27
354.21	144.38
354.422	-3.07
354.633	70.65
354.845	68.61
355.057	54.27
355.268	70.65
355.48	25.6
355.692	66.56
355.903	52.22
356.115	29.7
356.326	23.55
356.538	76.8
356.749	58.37
356.961	41.98
357.172	7.17
357.384	60.42
357.595	23.55
357.807	115.71
358.018	52.22
358.23	99.33
358.441	76.8
358.653	91.13
358.864	46.08
359.075	76.8
359.287	7.17
359.498	107.52
359.709	48.13
359.921	52.22
360.132	48.13
360.344	23.55
360.555	48.13
360.766	78.85
360.977	21.5
361.189	80.89
361.4	46.08
361.611	113.66
361.823	101.37
362.034	109.57
362.245	72.7
362.456	11.26
362.667	-54.27
362.879	78.85
363.09	37.89
363.301	23.55
363.512	56.32
363.723	-11.26
363.935	-33.79
364.146	103.42
364.357	29.7
364.568	46.08
364.779	7.17
364.99	31.74
365.201	21.5
365.412	132.09
365.623	-37.89
365.834	-17.41
366.045	48.13
366.256	117.76
366.467	-23.55
366.678	23.55
366.889	35.84
367.1	7.17
367.311	109.57
367.522	39.94
367.733	7.17
367.944	64.51
368.155	13.31
368.366	52.22
368.577	80.89
368.788	111.61
368.999	39.94
369.209	101.37
369.42	160.77
369.631	87.04
369.842	-1.02
370.053	46.08
370.264	58.37
370.474	19.46
370.685	-9.22
370.896	15.36
371.107	64.51
371.317	70.65
371.528	39.94
371.739	101.37
371.95	50.18
372.16	78.85
372.371	52.22
372.582	39.94
372.792	97.28
373.003	27.65
373.214	54.27
373.424	113.66
373.635	62.46
373.846	3.07
374.056	101.37
374.267	66.56
374.477	56.32
374.688	60.42
374.898	78.85
375.109	64.51
375.319	33.79
375.53	70.65
375.74	39.94
375.951	113.66
376.161	68.61
376.372	60.42
376.582	48.13
376.793	89.09
377.003	82.94
377.214	91.13
377.424	72.7
377.635	74.75
377.845	11.26
378.055	60.42
378.266	64.51
378.476	1.02
378.686	82.94
378.897	35.84
379.107	31.74
379.317	66.56
379.528	-27.65
379.738	119.81
379.948	-5.12
380.158	95.23
380.369	97.28
380.579	99.33
380.789	66.56
380.999	74.75
381.21	15.36
381.42	111.61
381.63	23.55
381.84	25.6
382.05	84.99
382.261	132.09
382.471	93.18
382.681	56.32
382.891	56.32
383.101	103.42
383.311	64.51
383.521	29.7
383.731	84.99
383.941	50.18
384.151	48.13
384.361	78.85
384.571	48.13
384.781	109.57
384.991	128
385.201	41.98
385.411	130.05
385.621	91.13
385.831	62.46
386.041	60.42
386.251	-19.46
386.461	162.81
386.671	35.84
386.881	103.42
387.091	66.56
387.301	9.22
387.511	70.65
387.72	119.81
387.93	130.05
388.14	60.42
388.35	111.61
388.56	50.18
388.769	54.27
388.979	105.47
389.189	58.37
389.399	58.37
389.609	107.52
389.818	56.32
390.028	72.7
390.238	128
390.447	29.7
390.657	148.48
390.867	54.27
391.076	105.47
391.286	56.32
391.496	52.22
391.705	5.12
391.915	89.09
392.125	185.34
392.334	39.94
392.544	78.85
392.753	80.89
392.963	111.61
393.172	76.8
393.382	80.89
393.591	72.7
393.801	89.09
394.01	156.67
394.22	117.76
394.429	66.56
394.639	107.52
394.848	111.61
395.058	80.89
395.267	117.76
395.477	70.65
395.686	211.96
395.895	142.33
396.105	160.77
396.314	37.89
396.524	146.43
396.733	33.79
396.942	99.33
397.152	103.42
397.361	93.18
397.57	64.51
397.78	115.71
397.989	46.08
398.198	189.44
398.407	72.7
398.617	134.14
398.826	74.75
399.035	93.18
399.244	111.61
399.453	78.85
399.663	60.42
399.872	70.65
400.081	134.14
400.29	97.28
400.499	121.85
400.708	123.9
400.917	93.18
401.127	101.37
401.336	97.28
401.545	171.01
401.754	113.66
401.963	175.1
402.172	109.57
402.381	144.38
402.59	84.99
402.799	179.2
403.008	125.95
403.217	158.72
403.426	56.32
403.635	123.9
403.844	195.58
404.053	214.01
404.262	101.37
404.471	238.59
404.68	168.96
404.888	148.48
405.097	166.91
405.306	154.62
405.515	109.57
405.724	228.35
405.933	218.11
406.142	205.82
406.35	152.57
406.559	211.96
406.768	179.2
406.977	183.29
407.185	146.43
407.394	164.86
407.603	173.05
407.812	177.15
408.02	308.22
408.229	263.16
408.438	279.55
408.646	203.77
408.855	279.55
409.064	238.59
409.272	336.89
409.481	297.98
409.69	328.7
409.898	267.26
410.107	265.21
410.315	371.71
410.524	400.38
410.733	455.67
410.941	318.46
411.15	338.94
411.358	418.81
411.567	429.05
411.775	414.71
411.984	453.63
412.192	429.05
412.401	383.99
412.609	535.54
412.818	541.69
413.026	494.58
413.234	558.07
413.443	476.15
413.651	515.06
413.86	500.73
414.068	617.46
414.276	685.05
414.485	654.33
414.693	680.95
414.901	664.57
415.11	625.65
415.318	693.24
415.526	693.24
415.734	726
415.943	734.2
416.151	871.41
416.359	920.56
416.567	893.94
416.776	871.41
416.984	1004.53
417.192	930.8
417.4	992.24
417.608	994.29
417.817	1086.45
418.025	1235.95
418.233	1209.33
418.441	1111.02
418.649	1115.12
418.857	1434.6
419.065	1215.47
419.273	1295.34
419.481	1371.12
419.689	1405.93
419.897	1422.31
420.105	1455.08
420.313	1534.95
420.521	1797.09
420.729	1743.85
420.937	1614.82
421.145	1778.66
421.353	1858.53
421.561	1919.97
421.769	2014.18
421.977	2122.72
422.185	2071.52
422.393	2239.45
422.601	2395.1
422.809	2231.26
423.017	2247.65
423.224	2393.05
423.432	2520.03
423.64	2526.17
423.848	2644.95
424.056	2661.34
424.263	2907.09
424.471	2880.47
424.679	2997.2
424.887	3163.09
425.094	3232.72
425.302	3177.42
425.51	3296.21
425.718	3478.47
425.925	3324.88
426.133	3666.89
426.341	3673.03
426.548	3988.42
426.756	3861.45
426.964	3910.6
427.171	4346.81
427.379	4197.31
427.586	4361.15
427.794	4606.91
428.001	4737.98
428.209	4780.98
428.417	4889.53
428.624	5235.63
428.832	5229.49
429.039	5104.56
429.247	5137.33
429.454	5680.04
429.662	6028.2
429.869	5823.4
430.076	6089.64
430.284	5733.29
430.491	6241.18
430.699	6458.27
430.906	6429.6
431.114	6683.55
431.321	6689.69
431.528	7035.8
431.736	7340.94
431.943	7580.56
432.15	7285.65
432.358	7842.7
432.565	8027.01
432.772	8084.36
432.979	8338.3
433.187	8539.01
433.394	8754.04
433.601	9229.17
433.808	9026.42
434.016	9104.25
434.223	9513.84
434.43	10070.89
434.637	9978.73
434.844	10402.66
435.052	10742.62
435.259	10441.57
435.466	10812.25
435.673	10617.69
435.88	11428.69
436.087	11963.21
436.294	12022.6
436.501	11772.75
436.708	11832.14
436.915	12118.86
437.122	12946.23
437.329	13005.63
437.537	13259.57
437.743	13445.94
437.95	13124.41
438.157	13828.91
438.364	14498.59
438.571	14582.56
438.778	14474.02
438.985	15604.5
439.192	15244.06
439.399	15516.44
439.606	15282.97
439.813	16259.85
440.02	17087.23
440.227	17031.93
440.433	16810.75
440.64	17064.7
440.847	17380.09
441.054	17584.88
441.261	18719.46
441.467	18594.53
441.674	18676.45
441.881	19221.21
442.088	19364.57
442.294	19335.9
442.501	19927.76
442.708	20243.15
442.914	21080.77
443.121	21779.12
443.328	21349.05
443.534	22780.58
443.741	22043.31
443.948	21846.71
444.154	23177.89
444.361	23319.2
444.568	23224.99
444.774	23419.55
444.981	23849.62
445.187	24314.51
445.394	25690.74
445.6	25135.74
445.807	27388.51
446.013	26129.01
446.22	26745.45
446.426	28078.68
446.633	27810.39
446.839	28766.79
447.046	27454.05
447.252	29203.01
447.459	29393.47
447.665	29053.51
447.871	30122.55
448.078	31597.09
448.284	30249.52
448.491	30951.98
448.697	32080.41
448.903	32702.99
449.11	32608.78
449.316	32031.26
449.522	32580.11
449.728	33421.83
449.935	33618.43
450.141	33303.04
450.347	34564.59
450.553	33294.85
450.76	33933.82
450.966	35011.05
451.172	34273.78
451.378	35103.21
451.584	34583.02
451.791	35242.47
451.997	34894.32
452.203	35672.54
452.409	35713.5
452.615	35197.41
452.821	34144.76
453.027	33665.53
453.233	35193.32
453.44	33808.89
453.646	34521.59
453.852	34697.71
454.058	34927.08
454.264	33866.24
454.47	34562.54
454.676	33872.38
454.882	34980.33
455.088	31914.52
455.294	32311.83
455.5	32952.84
455.705	32999.94
455.911	31529.5
456.117	31167.01
456.323	30523.95
456.529	29268.55
456.735	30177.84
456.941	29512.25
457.147	28942.92
457.352	28269.14
457.558	27664.99
457.764	27853.4
457.97	27157.09
458.176	26583.66
458.381	26905.19
458.587	25410.17
458.793	25473.66
458.999	24314.51
459.204	25739.9
459.41	24859.27
459.616	23474.84
459.821	23343.77
460.027	23425.69
460.233	22751.91
460.438	21983.92
460.644	21897.91
460.85	20814.53
461.055	20617.93
461.261	20443.85
461.466	19008.22
461.672	18479.85
461.878	19780.31
462.083	18379.5
462.289	18529
462.494	17836.78
462.7	17433.33
462.905	16859.9
463.111	17285.88
463.316	17253.11
463.522	17218.3
463.727	16915.2
463.932	16972.54
464.138	16868.09
464.343	16894.72
464.549	16483.08
464.754	16866.05
464.959	17017.6
465.165	16763.65
465.37	15885.07
465.575	15797.01
465.781	16309
465.986	16417.54
466.191	15633.17
466.397	15541.01
466.602	14752.54
466.807	15371.03
467.012	15358.74
467.218	15110.94
467.423	15239.96
467.628	15141.66
