Data from USB4F104151__191__10-28-46-724.txt Node

Date: Wed Mar 12 10:28:46 EDT 2025
User: louis
Spectrometer: USB4F10415
Trigger mode: 4
Integration Time (sec): 3.000000E-2
Scans to average: 1
Electric dark correction enabled: true
Nonlinearity correction enabled: false
Boxcar width: 0
XAxis mode: Wavelengths
Number of Pixels in Spectrum: 3648
>>>>>Begin Spectral Data<<<<<
178.204	-21.16
178.424	-21.16
178.644	-21.16
178.864	-131.75
179.084	-82.6
179.304	-4.78
179.524	-29.35
179.744	-15.02
179.964	-29.35
180.184	42.32
180.404	17.75
180.624	27.99
180.844	11.61
181.064	-17.07
181.283	27.99
181.503	-25.26
181.723	-6.83
181.943	-80.55
182.163	85.33
182.383	-35.5
182.602	71
182.822	30.04
183.042	32.08
183.262	-21.16
183.482	56.66
183.701	-25.26
183.921	-12.97
184.141	3.41
184.361	54.61
184.58	19.8
184.8	36.18
185.02	-27.31
185.239	83.28
185.459	60.76
185.679	105.81
185.898	-47.79
186.118	-25.26
186.338	60.76
186.557	-8.87
186.777	-17.07
186.997	44.37
187.216	-0.68
187.436	101.72
187.655	40.28
187.875	-4.78
188.095	-12.97
188.314	56.66
188.534	73.04
188.753	-17.07
188.973	-51.88
189.192	116.05
189.412	17.75
189.631	19.8
189.851	25.94
190.07	52.56
190.29	30.04
190.509	36.18
190.729	134.48
190.948	64.85
191.168	66.9
191.387	44.37
191.607	40.28
191.826	32.08
192.045	-8.87
192.265	23.89
192.484	15.7
192.704	3.41
192.923	-27.31
193.142	154.96
193.362	-4.78
193.581	40.28
193.8	-21.16
194.02	56.66
194.239	23.89
194.458	13.65
194.678	1.37
194.897	64.85
195.116	21.85
195.335	34.13
195.555	46.42
195.774	54.61
195.993	46.42
196.212	44.37
196.432	42.32
196.651	116.05
196.87	46.42
197.089	54.61
197.308	62.8
197.528	11.61
197.747	44.37
197.966	17.75
198.185	109.91
198.404	9.56
198.623	30.04
198.842	42.32
199.062	120.15
199.281	27.99
199.5	36.18
199.719	101.72
199.938	68.95
200.157	30.04
200.376	-37.55
200.595	13.65
200.814	15.7
201.033	77.14
201.252	38.23
201.471	-21.16
201.69	54.61
201.909	75.09
202.128	36.18
202.347	97.62
202.566	40.28
202.785	-37.55
203.004	13.65
203.223	111.96
203.442	3.41
203.661	21.85
203.879	58.71
204.098	42.32
204.317	89.43
204.536	75.09
204.755	-25.26
204.974	75.09
205.193	-10.92
205.411	148.82
205.63	44.37
205.849	99.67
206.068	19.8
206.287	-2.73
206.505	71
206.724	-76.46
206.943	-8.87
207.162	19.8
207.381	-15.02
207.599	-8.87
207.818	58.71
208.037	30.04
208.255	9.56
208.474	3.41
208.693	-2.73
208.911	7.51
209.13	9.56
209.349	9.56
209.567	-12.97
209.786	68.95
210.005	19.8
210.223	77.14
210.442	-6.83
210.661	3.41
210.879	5.46
211.098	30.04
211.316	9.56
211.535	83.28
211.753	11.61
211.972	17.75
212.191	11.61
212.409	23.89
212.628	-8.87
212.846	3.41
213.065	-15.02
213.283	-4.78
213.502	9.56
213.72	-41.64
213.938	62.8
214.157	-0.68
214.375	56.66
214.594	126.29
214.812	83.28
215.031	7.51
215.249	36.18
215.467	15.7
215.686	-33.45
215.904	66.9
216.122	-6.83
216.341	56.66
216.559	66.9
216.778	103.76
216.996	105.81
217.214	11.61
217.432	7.51
217.651	19.8
217.869	5.46
218.087	7.51
218.306	-25.26
218.524	-21.16
218.742	-53.93
218.96	19.8
219.179	11.61
219.397	42.32
219.615	36.18
219.833	44.37
220.051	97.62
220.27	27.99
220.488	19.8
220.706	52.56
220.924	-15.02
221.142	42.32
221.36	101.72
221.578	85.33
221.796	7.51
222.015	-15.02
222.233	21.85
222.451	89.43
222.669	81.24
222.887	15.7
223.105	48.47
223.323	75.09
223.541	-43.69
223.759	52.56
223.977	77.14
224.195	23.89
224.413	34.13
224.631	73.04
224.849	97.62
225.067	107.86
225.285	1.37
225.503	32.08
225.721	-17.07
225.939	-6.83
226.157	27.99
226.375	54.61
226.592	-23.21
226.81	-4.78
227.028	50.52
227.246	73.04
227.464	-25.26
227.682	116.05
227.9	19.8
228.117	107.86
228.335	52.56
228.553	66.9
228.771	1.37
228.989	50.52
229.206	1.37
229.424	36.18
229.642	44.37
229.86	77.14
230.077	7.51
230.295	9.56
230.513	3.41
230.731	52.56
230.948	73.04
231.166	85.33
231.384	25.94
231.601	15.7
231.819	-8.87
232.037	13.65
232.254	-29.35
232.472	62.8
232.689	1.37
232.907	81.24
233.125	-45.74
233.342	83.28
233.56	32.08
233.777	130.39
233.995	58.71
234.213	46.42
234.43	32.08
234.648	93.52
234.865	75.09
235.083	27.99
235.3	23.89
235.518	126.29
235.735	66.9
235.953	19.8
236.17	-25.26
236.388	11.61
236.605	54.61
236.822	107.86
237.04	85.33
237.257	-15.02
237.475	1.37
237.692	83.28
237.909	27.99
238.127	5.46
238.344	77.14
238.562	73.04
238.779	30.04
238.996	19.8
239.214	-4.78
239.431	66.9
239.648	-10.92
239.865	73.04
240.083	60.76
240.3	75.09
240.517	3.41
240.735	79.19
240.952	83.28
241.169	77.14
241.386	-6.83
241.603	50.52
241.821	32.08
242.038	21.85
242.255	73.04
242.472	9.56
242.689	97.62
242.907	27.99
243.124	-62.12
243.341	42.32
243.558	-58.03
243.775	38.23
243.992	-0.68
244.209	7.51
244.426	40.28
244.643	56.66
244.86	-64.17
245.078	56.66
245.295	23.89
245.512	79.19
245.729	34.13
245.946	-0.68
246.163	103.76
246.38	-10.92
246.597	36.18
246.814	-31.4
247.031	23.89
247.248	114
247.464	7.51
247.681	52.56
247.898	13.65
248.115	17.75
248.332	-0.68
248.549	62.8
248.766	89.43
248.983	109.91
249.2	-31.4
249.417	19.8
249.633	13.65
249.85	42.32
250.067	-12.97
250.284	79.19
250.501	66.9
250.717	56.66
250.934	-41.64
251.151	56.66
251.368	85.33
251.585	71
251.801	27.99
252.018	5.46
252.235	118.1
252.451	-0.68
252.668	40.28
252.885	66.9
253.102	27.99
253.318	-15.02
253.535	34.13
253.752	-2.73
253.968	7.51
254.185	-2.73
254.401	66.9
254.618	71
254.835	64.85
255.051	101.72
255.268	48.47
255.484	93.52
255.701	44.37
255.917	36.18
256.134	1.37
256.351	1.37
256.567	21.85
256.784	44.37
257	-31.4
257.217	116.05
257.433	99.67
257.65	13.65
257.866	27.99
258.082	19.8
258.299	68.95
258.515	64.85
258.732	79.19
258.948	27.99
259.165	48.47
259.381	101.72
259.597	25.94
259.814	58.71
260.03	32.08
260.246	-29.35
260.463	34.13
260.679	91.48
260.895	64.85
261.112	3.41
261.328	79.19
261.544	-0.68
261.761	122.2
261.977	9.56
262.193	38.23
262.409	68.95
262.626	60.76
262.842	36.18
263.058	3.41
263.274	40.28
263.49	85.33
263.707	91.48
263.923	34.13
264.139	-2.73
264.355	19.8
264.571	167.25
264.787	64.85
265.004	105.81
265.22	48.47
265.436	-31.4
265.652	-8.87
265.868	105.81
266.084	-17.07
266.3	91.48
266.516	101.72
266.732	101.72
266.948	68.95
267.164	40.28
267.38	32.08
267.596	52.56
267.812	-8.87
268.028	81.24
268.244	44.37
268.46	89.43
268.676	30.04
268.892	68.95
269.108	-29.35
269.324	56.66
269.54	7.51
269.756	77.14
269.972	50.52
270.188	23.89
270.403	5.46
270.619	111.96
270.835	48.47
271.051	79.19
271.267	17.75
271.483	32.08
271.698	44.37
271.914	64.85
272.13	15.7
272.346	44.37
272.562	-23.21
272.777	58.71
272.993	21.85
273.209	11.61
273.425	19.8
273.64	-33.45
273.856	97.62
274.072	38.23
274.287	58.71
274.503	66.9
274.719	118.1
274.934	17.75
275.15	73.04
275.366	42.32
275.581	85.33
275.797	87.38
276.012	17.75
276.228	30.04
276.444	-103.08
276.659	85.33
276.875	87.38
277.09	142.68
277.306	60.76
277.521	71
277.737	30.04
277.952	58.71
278.168	73.04
278.383	21.85
278.599	44.37
278.814	21.85
279.03	36.18
279.245	64.85
279.461	-62.12
279.676	73.04
279.892	-0.68
280.107	48.47
280.322	75.09
280.538	87.38
280.753	17.75
280.969	-12.97
281.184	23.89
281.399	19.8
281.615	32.08
281.83	95.57
282.045	-64.17
282.26	3.41
282.476	3.41
282.691	114
282.906	58.71
283.122	36.18
283.337	19.8
283.552	60.76
283.767	81.24
283.983	99.67
284.198	23.89
284.413	42.32
284.628	-12.97
284.843	58.71
285.058	60.76
285.274	54.61
285.489	52.56
285.704	11.61
285.919	91.48
286.134	81.24
286.349	-0.68
286.564	34.13
286.779	71
286.995	79.19
287.21	97.62
287.425	-12.97
287.64	-4.78
287.855	68.95
288.07	25.94
288.285	44.37
288.5	81.24
288.715	64.85
288.93	56.66
289.145	-35.5
289.36	52.56
289.575	11.61
289.79	44.37
290.004	36.18
290.219	56.66
290.434	66.9
290.649	52.56
290.864	48.47
291.079	50.52
291.294	103.76
291.509	97.62
291.724	-2.73
291.938	44.37
292.153	38.23
292.368	68.95
292.583	42.32
292.798	48.47
293.012	95.57
293.227	122.2
293.442	1.37
293.657	93.52
293.871	130.39
294.086	68.95
294.301	73.04
294.516	60.76
294.73	46.42
294.945	-35.5
295.16	36.18
295.374	1.37
295.589	48.47
295.804	1.37
296.018	52.56
296.233	89.43
296.447	56.66
296.662	19.8
296.877	124.24
297.091	36.18
297.306	11.61
297.52	7.51
297.735	58.71
297.949	9.56
298.164	91.48
298.378	27.99
298.593	56.66
298.807	32.08
299.022	40.28
299.236	81.24
299.451	44.37
299.665	66.9
299.88	124.24
300.094	30.04
300.309	85.33
300.523	13.65
300.737	25.94
300.952	56.66
301.166	36.18
301.381	11.61
301.595	40.28
301.809	77.14
302.024	-25.26
302.238	-49.83
302.452	109.91
302.667	56.66
302.881	42.32
303.095	44.37
303.309	54.61
303.524	11.61
303.738	17.75
303.952	44.37
304.166	56.66
304.381	-4.78
304.595	42.32
304.809	36.18
305.023	34.13
305.237	7.51
305.452	50.52
305.666	15.7
305.88	27.99
306.094	5.46
306.308	71
306.522	128.34
306.736	30.04
306.95	62.8
307.164	58.71
307.379	11.61
307.593	15.7
307.807	107.86
308.021	36.18
308.235	73.04
308.449	30.04
308.663	11.61
308.877	77.14
309.091	101.72
309.305	-12.97
309.519	48.47
309.733	40.28
309.947	-21.16
310.161	107.86
310.374	11.61
310.588	1.37
310.802	46.42
311.016	77.14
311.23	77.14
311.444	46.42
311.658	58.71
311.872	103.76
312.085	62.8
312.299	64.85
312.513	64.85
312.727	101.72
312.941	25.94
313.154	9.56
313.368	27.99
313.582	54.61
313.796	71
314.009	44.37
314.223	95.57
314.437	36.18
314.651	44.37
314.864	3.41
315.078	46.42
315.292	-0.68
315.505	1.37
315.719	50.52
315.933	85.33
316.146	9.56
316.36	-12.97
316.573	79.19
316.787	23.89
317.001	23.89
317.214	5.46
317.428	42.32
317.641	11.61
317.855	5.46
318.068	64.85
318.282	-23.21
318.495	46.42
318.709	21.85
318.922	54.61
319.136	75.09
319.349	34.13
319.563	42.32
319.776	81.24
319.99	36.18
320.203	99.67
320.417	73.04
320.63	30.04
320.843	81.24
321.057	68.95
321.27	73.04
321.483	64.85
321.697	114
321.91	5.46
322.124	130.39
322.337	75.09
322.55	-49.83
322.763	36.18
322.977	128.34
323.19	52.56
323.403	34.13
323.617	91.48
323.83	89.43
324.043	93.52
324.256	99.67
324.469	25.94
324.683	30.04
324.896	93.52
325.109	77.14
325.322	-8.87
325.535	101.72
325.748	99.67
325.962	34.13
326.175	64.85
326.388	107.86
326.601	46.42
326.814	89.43
327.027	60.76
327.24	99.67
327.453	32.08
327.666	68.95
327.879	126.29
328.092	-23.21
328.305	91.48
328.518	107.86
328.731	107.86
328.944	93.52
329.157	30.04
329.37	-12.97
329.583	136.53
329.796	44.37
330.009	11.61
330.222	50.52
330.435	60.76
330.648	42.32
330.861	99.67
331.073	52.56
331.286	9.56
331.499	-6.83
331.712	-41.64
331.925	32.08
332.138	46.42
332.35	40.28
332.563	36.18
332.776	87.38
332.989	19.8
333.202	19.8
333.414	32.08
333.627	23.89
333.84	9.56
334.053	21.85
334.265	68.95
334.478	32.08
334.691	118.1
334.903	62.8
335.116	66.9
335.329	40.28
335.541	48.47
335.754	56.66
335.966	52.56
336.179	85.33
336.392	23.89
336.604	52.56
336.817	93.52
337.029	52.56
337.242	75.09
337.454	71
337.667	11.61
337.88	126.29
338.092	99.67
338.305	36.18
338.517	32.08
338.729	128.34
338.942	109.91
339.154	60.76
339.367	23.89
339.579	68.95
339.792	116.05
340.004	93.52
340.217	54.61
340.429	75.09
340.641	21.85
340.854	-21.16
341.066	142.68
341.278	150.87
341.491	109.91
341.703	56.66
341.915	118.1
342.128	32.08
342.34	7.51
342.552	15.7
342.764	81.24
342.977	30.04
343.189	103.76
343.401	89.43
343.613	58.71
343.826	11.61
344.038	17.75
344.25	87.38
344.462	3.41
344.674	87.38
344.886	36.18
345.099	15.7
345.311	64.85
345.523	52.56
345.735	-29.35
345.947	109.91
346.159	34.13
346.371	27.99
346.583	32.08
346.795	159.06
347.007	-21.16
347.219	-12.97
347.431	93.52
347.643	77.14
347.855	40.28
348.067	150.87
348.279	75.09
348.491	56.66
348.703	81.24
348.915	60.76
349.127	60.76
349.339	85.33
349.551	99.67
349.763	130.39
349.975	27.99
350.187	77.14
350.399	7.51
350.61	42.32
350.822	17.75
351.034	54.61
351.246	77.14
351.458	130.39
351.669	109.91
351.881	62.8
352.093	81.24
352.305	73.04
352.517	81.24
352.728	23.89
352.94	93.52
353.152	128.34
353.363	105.81
353.575	68.95
353.787	66.9
353.999	66.9
354.21	60.76
354.422	40.28
354.633	40.28
354.845	15.7
355.057	101.72
355.268	60.76
355.48	60.76
355.692	46.42
355.903	75.09
356.115	85.33
356.326	40.28
356.538	68.95
356.749	11.61
356.961	161.11
357.172	23.89
357.384	40.28
357.595	77.14
357.807	46.42
358.018	56.66
358.23	68.95
358.441	77.14
358.653	42.32
358.864	34.13
359.075	89.43
359.287	27.99
359.498	66.9
359.709	103.76
359.921	103.76
360.132	17.75
360.344	97.62
360.555	-8.87
360.766	48.47
360.977	-19.11
361.189	91.48
361.4	40.28
361.611	75.09
361.823	93.52
362.034	5.46
362.245	-12.97
362.456	71
362.667	56.66
362.879	60.76
363.09	27.99
363.301	38.23
363.512	44.37
363.723	101.72
363.935	75.09
364.146	93.52
364.357	89.43
364.568	46.42
364.779	81.24
364.99	60.76
365.201	25.94
365.412	103.76
365.623	66.9
365.834	48.47
366.045	1.37
366.256	132.44
366.467	154.96
366.678	62.8
366.889	87.38
367.1	101.72
367.311	79.19
367.522	58.71
367.733	85.33
367.944	118.1
368.155	99.67
368.366	32.08
368.577	64.85
368.788	46.42
368.999	142.68
369.209	64.85
369.42	99.67
369.631	134.48
369.842	-4.78
370.053	101.72
370.264	71
370.474	44.37
370.685	91.48
370.896	77.14
371.107	138.58
371.317	-12.97
371.528	58.71
371.739	68.95
371.95	93.52
372.16	85.33
372.371	91.48
372.582	34.13
372.792	87.38
373.003	71
373.214	91.48
373.424	118.1
373.635	107.86
373.846	114
374.056	34.13
374.267	99.67
374.477	66.9
374.688	15.7
374.898	9.56
375.109	89.43
375.319	120.15
375.53	9.56
375.74	138.58
375.951	30.04
376.161	21.85
376.372	105.81
376.582	15.7
376.793	130.39
377.003	71
377.214	146.77
377.424	44.37
377.635	77.14
377.845	46.42
378.055	99.67
378.266	64.85
378.476	15.7
378.686	146.77
378.897	89.43
379.107	85.33
379.317	138.58
379.528	89.43
379.738	54.61
379.948	101.72
380.158	95.57
380.369	56.66
380.579	48.47
380.789	23.89
380.999	105.81
381.21	42.32
381.42	144.72
381.63	27.99
381.84	116.05
382.05	91.48
382.261	159.06
382.471	101.72
382.681	111.96
382.891	136.53
383.101	62.8
383.311	19.8
383.521	120.15
383.731	126.29
383.941	118.1
384.151	93.52
384.361	48.47
384.571	36.18
384.781	124.24
384.991	202.07
385.201	107.86
385.411	83.28
385.621	66.9
385.831	132.44
386.041	95.57
386.251	52.56
386.461	122.2
386.671	105.81
386.881	89.43
387.091	87.38
387.301	124.24
387.511	62.8
387.72	50.52
387.93	79.19
388.14	89.43
388.35	64.85
388.56	44.37
388.769	75.09
388.979	77.14
389.189	60.76
389.399	126.29
389.609	93.52
389.818	97.62
390.028	56.66
390.238	89.43
390.447	154.96
390.657	157.01
390.867	42.32
391.076	46.42
391.286	-2.73
391.496	103.76
391.705	114
391.915	103.76
392.125	163.15
392.334	83.28
392.544	34.13
392.753	165.2
392.963	62.8
393.172	87.38
393.382	60.76
393.591	228.69
393.801	87.38
394.01	148.82
394.22	97.62
394.429	167.25
394.639	103.76
394.848	81.24
395.058	146.77
395.267	144.72
395.477	77.14
395.686	150.87
395.895	114
396.105	195.92
396.314	89.43
396.524	183.63
396.733	167.25
396.942	179.54
397.152	195.92
397.361	185.68
397.57	105.81
397.78	200.02
397.989	183.63
398.198	144.72
398.407	161.11
398.617	161.11
398.826	195.92
399.035	202.07
399.244	77.14
399.453	144.72
399.663	126.29
399.872	163.15
400.081	200.02
400.29	208.21
400.499	75.09
400.708	187.73
400.917	212.31
401.127	130.39
401.336	214.35
401.545	204.11
401.754	175.44
401.963	214.35
402.172	191.83
402.381	144.72
402.59	97.62
402.799	214.35
403.008	175.44
403.217	220.5
403.426	191.83
403.635	157.01
403.844	171.35
404.053	175.44
404.262	279.89
404.471	347.47
404.68	277.84
404.888	232.79
405.097	181.59
405.306	197.97
405.515	222.55
405.724	228.69
405.933	197.97
406.142	243.03
406.35	281.94
406.559	255.31
406.768	326.99
406.977	259.41
407.185	322.9
407.394	286.03
407.603	249.17
407.812	300.37
408.02	320.85
408.229	281.94
408.438	320.85
408.646	355.66
408.855	286.03
409.064	408.91
409.272	386.38
409.481	396.62
409.69	394.58
409.898	361.81
410.107	542.03
410.315	437.58
410.524	490.83
410.733	560.46
410.941	456.01
411.15	648.52
411.358	560.46
411.567	685.39
411.775	658.76
411.984	640.33
412.192	679.24
412.401	654.67
412.609	714.06
412.818	707.91
413.026	773.45
413.234	775.5
413.443	795.98
413.651	785.74
413.86	804.17
414.068	974.15
414.276	935.24
414.485	1082.69
414.693	1013.06
414.901	1082.69
415.11	1107.27
415.318	1023.3
415.526	1146.18
415.734	1109.32
415.943	1219.91
416.151	1277.25
416.359	1322.31
416.567	1383.74
416.776	1396.03
416.984	1506.62
417.192	1498.43
417.4	1518.91
417.608	1498.43
417.817	1604.92
418.025	1703.23
418.233	1789.24
418.441	1828.15
418.649	1891.64
418.857	1979.7
419.065	2084.15
419.273	1926.46
419.481	2137.4
419.689	2137.4
419.897	2364.72
420.105	2342.19
420.313	2503.98
420.521	2458.93
420.729	2551.09
420.937	2706.73
421.145	2696.49
421.353	2819.37
421.561	3065.13
421.769	3042.6
421.977	3190.05
422.185	3087.65
422.393	3349.79
422.601	3534.11
422.809	3566.88
423.017	3630.37
423.224	3656.99
423.432	3984.66
423.64	3915.03
423.848	4224.28
424.056	4136.21
424.263	4543.76
424.471	4455.7
424.679	4431.12
424.887	4805.9
425.094	4893.96
425.302	4984.07
425.51	5055.75
425.718	5377.28
425.925	5334.28
426.133	5567.74
426.341	5924.09
426.548	5987.58
426.756	6124.79
426.964	6272.25
427.171	6481.14
427.379	6679.79
427.586	6741.23
427.794	7079.15
428.001	7304.42
428.209	7787.74
428.417	7572.71
428.624	8115.42
428.832	8203.48
429.039	8148.19
429.247	8185.05
429.454	8860.88
429.662	9448.65
429.869	8600.79
430.076	9692.35
430.284	9127.11
430.491	9571.52
430.699	10001.6
430.906	9958.59
431.114	10345.66
431.321	10673.33
431.528	10704.05
431.736	11525.29
431.943	12004.51
432.15	11605.16
432.358	11685.03
432.565	12539.03
432.772	12440.73
432.979	13063.31
433.187	13444.23
433.394	13200.52
433.601	14417.02
433.808	14341.24
434.016	14138.49
434.223	14597.24
434.43	15559.78
434.637	15463.53
434.844	16114.78
435.052	16753.75
435.259	16495.71
435.466	16489.56
435.673	16555.1
435.88	17558.6
436.087	18521.15
436.294	18484.28
436.501	18261.05
436.708	18682.94
436.915	19143.73
437.122	20298.78
437.329	19964.96
437.537	20376.61
437.743	20943.89
437.95	20577.31
438.157	21597.2
438.364	22529.02
438.571	22461.44
438.778	22449.15
438.985	24480.74
439.192	23577.58
439.399	24665.05
439.606	23950.31
439.813	25310.16
440.02	26923.96
440.227	26246.08
440.433	26221.51
440.64	27050.94
440.847	26833.85
441.054	27638.7
441.261	29277.08
441.467	28869.53
441.674	29619.09
441.881	30583.68
442.088	30215.05
442.294	30151.56
442.501	31017.85
442.708	31460.21
442.914	32863.07
443.121	33962.83
443.328	33293.15
443.534	35826.48
443.741	34577.22
443.948	34052.94
444.154	36131.63
444.361	36340.52
444.568	36604.71
444.774	36758.31
444.981	36606.76
445.187	37917.46
445.394	39727.86
445.6	38982.4
445.807	42857.16
446.013	40936.16
446.22	41890.52
446.426	43031.24
446.633	43391.68
446.839	45109.92
447.046	43231.94
447.252	45658.78
447.459	45519.52
447.665	45308.58
447.871	47116.93
448.078	48802.41
448.284	46799.5
448.491	47870.59
448.697	49771.1
448.903	50516.56
449.11	50600.53
449.316	49758.81
449.522	50600.53
449.728	52179.51
449.935	52372.02
450.141	52359.73
450.347	53070.38
450.553	51841.6
450.76	52253.24
450.966	53912.09
451.172	53353
451.378	54616.6
451.584	53697.06
451.791	54567.44
451.997	54450.71
452.203	55300.62
452.409	55431.69
452.615	55161.36
452.821	53054
453.027	52238.9
453.233	55165.45
453.44	52818.48
453.646	53895.71
453.852	53479.97
454.058	54620.69
454.264	52931.12
454.47	53754.4
454.676	52754.99
454.882	54288.92
455.088	49822.3
455.294	50514.51
455.5	51489.35
455.705	51427.91
455.911	49279.59
456.117	49082.98
456.323	48403.06
456.529	45765.27
456.735	47590.02
456.941	46095
457.147	45537.95
457.352	44167.86
457.558	43565.76
457.764	43729.59
457.97	43074.24
458.176	42019.54
458.381	41851.61
458.587	40047.35
458.793	39914.23
458.999	37866.26
459.204	40682.22
459.41	40151.79
459.616	36746.02
459.821	36789.03
460.027	36891.43
460.233	36209.45
460.438	34687.81
460.644	34988.86
460.85	33295.19
461.055	32781.15
461.261	32478.05
461.466	30253.96
461.672	29414.29
461.878	31206.27
462.083	29361.05
462.289	28869.53
462.494	28709.79
462.7	27329.46
462.905	26999.74
463.111	27718.57
463.316	27620.27
463.522	26983.35
463.727	27161.53
463.932	27190.2
464.138	26653.63
464.343	27120.57
464.549	26348.48
464.754	27194.29
464.959	26950.59
465.165	26768.32
465.37	25537.49
465.575	24818.65
465.781	25940.94
465.986	25979.85
466.191	25187.28
466.397	24482.78
466.602	23051.25
466.807	24437.73
467.012	23886.82
467.218	24312.8
