Data from USB4F104151__178__10-27-49-989.txt Node

Date: Wed Mar 12 10:27:49 EDT 2025
User: louis
Spectrometer: USB4F10415
Trigger mode: 4
Integration Time (sec): 3.000000E-2
Scans to average: 1
Electric dark correction enabled: true
Nonlinearity correction enabled: false
Boxcar width: 0
XAxis mode: Wavelengths
Number of Pixels in Spectrum: 3648
>>>>>Begin Spectral Data<<<<<
178.204	-124.24
178.424	-124.24
178.644	-124.24
178.864	-144.72
179.084	-77.14
179.304	12.97
179.524	0.68
179.744	12.97
179.964	66.22
180.184	25.26
180.404	10.92
180.624	-17.75
180.844	29.35
181.064	-128.34
181.283	-34.13
181.503	10.92
181.723	10.92
181.943	-99.67
182.163	84.65
182.383	19.11
182.602	2.73
182.822	51.88
183.042	-9.56
183.262	-25.94
183.482	-1.37
183.701	-9.56
183.921	58.03
184.141	-1.37
184.361	58.03
184.58	58.03
184.8	4.78
185.02	60.07
185.239	25.26
185.459	-1.37
185.679	101.03
185.898	6.83
186.118	19.11
186.338	19.11
186.557	19.11
186.777	49.83
186.997	4.78
187.216	-25.94
187.436	47.79
187.655	35.5
187.875	-19.8
188.095	-38.23
188.314	86.7
188.534	72.36
188.753	58.03
188.973	64.17
189.192	64.17
189.412	-9.56
189.631	21.16
189.851	70.31
190.07	64.17
190.29	2.73
190.509	25.26
190.729	47.79
190.948	-3.41
191.168	94.89
191.387	113.32
191.607	-21.84
191.826	43.69
192.045	29.35
192.265	76.46
192.484	-32.08
192.704	37.55
192.923	-19.8
193.142	98.99
193.362	98.99
193.581	45.74
193.8	66.22
194.02	86.7
194.239	43.69
194.458	2.73
194.678	-7.51
194.897	27.31
195.116	49.83
195.335	29.35
195.555	10.92
195.774	45.74
195.993	45.74
196.212	33.45
196.432	41.64
196.651	-1.37
196.87	43.69
197.089	86.7
197.308	49.83
197.528	-25.94
197.747	15.02
197.966	25.26
198.185	123.56
198.404	68.27
198.623	19.11
198.842	39.59
199.062	55.98
199.281	37.55
199.5	92.84
199.719	-15.7
199.938	6.83
200.157	8.87
200.376	101.03
200.595	84.65
200.814	33.45
201.033	0.68
201.252	39.59
201.471	21.16
201.69	58.03
201.909	41.64
202.128	27.31
202.347	84.65
202.566	-30.04
202.785	35.5
203.004	35.5
203.223	133.8
203.442	23.21
203.661	-1.37
203.879	94.89
204.098	76.46
204.317	-7.51
204.536	39.59
204.755	23.21
204.974	10.92
205.193	76.46
205.411	31.4
205.63	70.31
205.849	8.87
206.068	41.64
206.287	74.41
206.505	2.73
206.724	101.03
206.943	31.4
207.162	49.83
207.381	-1.37
207.599	21.16
207.818	92.84
208.037	70.31
208.255	-36.18
208.474	76.46
208.693	51.88
208.911	-19.8
209.13	58.03
209.349	-36.18
209.567	45.74
209.786	17.07
210.005	76.46
210.223	25.26
210.442	10.92
210.661	25.26
210.879	51.88
211.098	-5.46
211.316	41.64
211.535	21.16
211.753	-7.51
211.972	0.68
212.191	-58.71
212.409	-19.8
212.628	49.83
212.846	33.45
213.065	51.88
213.283	62.12
213.502	0.68
213.72	101.03
213.938	68.27
214.157	8.87
214.375	35.5
214.594	12.97
214.812	21.16
215.031	101.03
215.249	60.07
215.467	-23.89
215.686	17.07
215.904	21.16
216.122	6.83
216.341	78.51
216.559	17.07
216.778	31.4
216.996	-13.65
217.214	-68.95
217.432	25.26
217.651	-1.37
217.869	19.11
218.087	39.59
218.306	-1.37
218.524	66.22
218.742	37.55
218.96	2.73
219.179	17.07
219.397	-9.56
219.615	109.23
219.833	70.31
220.051	80.55
220.27	66.22
220.488	0.68
220.706	84.65
220.924	35.5
221.142	51.88
221.36	-7.51
221.578	78.51
221.796	47.79
222.015	60.07
222.233	47.79
222.451	51.88
222.669	2.73
222.887	64.17
223.105	-40.28
223.323	19.11
223.541	-23.89
223.759	4.78
223.977	39.59
224.195	47.79
224.413	25.26
224.631	58.03
224.849	19.11
225.067	15.02
225.285	37.55
225.503	-1.37
225.721	-15.7
225.939	15.02
226.157	39.59
226.375	121.51
226.592	55.98
226.81	45.74
227.028	25.26
227.246	49.83
227.464	43.69
227.682	101.03
227.9	25.26
228.117	66.22
228.335	-5.46
228.553	29.35
228.771	8.87
228.989	64.17
229.206	10.92
229.424	43.69
229.642	64.17
229.86	107.18
230.077	51.88
230.295	72.36
230.513	76.46
230.731	-34.13
230.948	72.36
231.166	76.46
231.384	6.83
231.601	39.59
231.819	68.27
232.037	-62.8
232.254	29.35
232.472	17.07
232.689	-5.46
232.907	78.51
233.125	4.78
233.342	6.83
233.56	-58.71
233.777	15.02
233.995	98.99
234.213	27.31
234.43	47.79
234.648	-25.94
234.865	74.41
235.083	129.7
235.3	25.26
235.518	66.22
235.735	39.59
235.953	121.51
236.17	19.11
236.388	-32.08
236.605	43.69
236.822	60.07
237.04	-32.08
237.257	19.11
237.475	23.21
237.692	31.4
237.909	-5.46
238.127	-9.56
238.344	4.78
238.562	94.89
238.779	29.35
238.996	-15.7
239.214	25.26
239.431	72.36
239.648	49.83
239.865	41.64
240.083	84.65
240.3	12.97
240.517	8.87
240.735	92.84
240.952	107.18
241.169	86.7
241.386	47.79
241.603	29.35
241.821	-13.65
242.038	31.4
242.255	15.02
242.472	35.5
242.689	55.98
242.907	80.55
243.124	84.65
243.341	76.46
243.558	47.79
243.775	6.83
243.992	0.68
244.209	39.59
244.426	64.17
244.643	23.21
244.86	84.65
245.078	80.55
245.295	76.46
245.512	31.4
245.729	-71
245.946	27.31
246.163	8.87
246.38	25.26
246.597	66.22
246.814	-11.61
247.031	25.26
247.248	-15.7
247.464	19.11
247.681	-5.46
247.898	31.4
248.115	19.11
248.332	35.5
248.549	113.32
248.766	45.74
248.983	4.78
249.2	0.68
249.417	39.59
249.633	33.45
249.85	-11.61
250.067	88.75
250.284	-17.75
250.501	41.64
250.717	15.02
250.934	-13.65
251.151	51.88
251.368	109.23
251.585	47.79
251.801	-25.94
252.018	17.07
252.235	64.17
252.451	4.78
252.668	10.92
252.885	-9.56
253.102	21.16
253.318	60.07
253.535	76.46
253.752	90.79
253.968	49.83
254.185	0.68
254.401	8.87
254.618	12.97
254.835	70.31
255.051	64.17
255.268	96.94
255.484	6.83
255.701	31.4
255.917	29.35
256.134	-27.99
256.351	15.02
256.567	4.78
256.784	55.98
257	-81.24
257.217	111.27
257.433	39.59
257.65	53.93
257.866	19.11
258.082	41.64
258.299	31.4
258.515	6.83
258.732	-25.94
258.948	51.88
259.165	17.07
259.381	96.94
259.597	23.21
259.814	31.4
260.03	-3.41
260.246	6.83
260.463	-38.23
260.679	37.55
260.895	53.93
261.112	39.59
261.328	51.88
261.544	-13.65
261.761	115.37
261.977	-1.37
262.193	8.87
262.409	62.12
262.626	64.17
262.842	35.5
263.058	10.92
263.274	-7.51
263.49	8.87
263.707	62.12
263.923	47.79
264.139	2.73
264.355	17.07
264.571	72.36
264.787	31.4
265.004	10.92
265.22	25.26
265.436	25.26
265.652	0.68
265.868	64.17
266.084	-46.42
266.3	29.35
266.516	88.75
266.732	98.99
266.948	92.84
267.164	31.4
267.38	-40.28
267.596	23.21
267.812	144.04
268.028	43.69
268.244	35.5
268.46	-15.7
268.676	-32.08
268.892	43.69
269.108	31.4
269.324	51.88
269.54	74.41
269.756	-9.56
269.972	-87.38
270.188	64.17
270.403	41.64
270.619	19.11
270.835	66.22
271.051	10.92
271.267	2.73
271.483	-17.75
271.698	41.64
271.914	101.03
272.13	58.03
272.346	45.74
272.562	27.31
272.777	25.26
272.993	80.55
273.209	37.55
273.425	-13.65
273.64	111.27
273.856	70.31
274.072	47.79
274.287	29.35
274.503	68.27
274.719	25.26
274.934	37.55
275.15	-1.37
275.366	31.4
275.581	-40.28
275.797	8.87
276.012	41.64
276.228	6.83
276.444	-23.89
276.659	-42.32
276.875	47.79
277.09	23.21
277.306	62.12
277.521	-21.84
277.737	78.51
277.952	64.17
278.168	12.97
278.383	-52.56
278.599	68.27
278.814	64.17
279.03	0.68
279.245	51.88
279.461	8.87
279.676	49.83
279.892	41.64
280.107	10.92
280.322	-87.38
280.538	70.31
280.753	51.88
280.969	-11.61
281.184	115.37
281.399	43.69
281.615	19.11
281.83	37.55
282.045	-75.09
282.26	2.73
282.476	80.55
282.691	45.74
282.906	74.41
283.122	96.94
283.337	-11.61
283.552	23.21
283.767	0.68
283.983	96.94
284.198	-13.65
284.413	60.07
284.628	-17.75
284.843	25.26
285.058	-19.8
285.274	-11.61
285.489	-23.89
285.704	19.11
285.919	31.4
286.134	8.87
286.349	33.45
286.564	39.59
286.779	101.03
286.995	-3.41
287.21	-5.46
287.425	23.21
287.64	31.4
287.855	19.11
288.07	-27.99
288.285	66.22
288.5	-1.37
288.715	55.98
288.93	29.35
289.145	-50.52
289.36	78.51
289.575	-1.37
289.79	88.75
290.004	29.35
290.219	86.7
290.434	47.79
290.649	31.4
290.864	-15.7
291.079	12.97
291.294	19.11
291.509	43.69
291.724	86.7
291.938	-5.46
292.153	37.55
292.368	94.89
292.583	-52.56
292.798	58.03
293.012	64.17
293.227	17.07
293.442	-3.41
293.657	43.69
293.871	53.93
294.086	53.93
294.301	17.07
294.516	-1.37
294.73	-5.46
294.945	8.87
295.16	27.31
295.374	60.07
295.589	45.74
295.804	84.65
296.018	-34.13
296.233	15.02
296.447	29.35
296.662	51.88
296.877	103.08
297.091	51.88
297.306	72.36
297.52	2.73
297.735	70.31
297.949	-17.75
298.164	98.99
298.378	70.31
298.593	8.87
298.807	80.55
299.022	2.73
299.236	129.7
299.451	19.11
299.665	6.83
299.88	6.83
300.094	43.69
300.309	6.83
300.523	-81.24
300.737	60.07
300.952	8.87
301.166	107.18
301.381	84.65
301.595	-11.61
301.809	8.87
302.024	74.41
302.238	10.92
302.452	41.64
302.667	107.18
302.881	17.07
303.095	0.68
303.309	49.83
303.524	35.5
303.738	-11.61
303.952	6.83
304.166	166.57
304.381	68.27
304.595	49.83
304.809	19.11
305.023	35.5
305.237	21.16
305.452	58.03
305.666	15.02
305.88	10.92
306.094	115.37
306.308	49.83
306.522	55.98
306.736	-11.61
306.95	39.59
307.164	4.78
307.379	74.41
307.593	135.85
307.807	92.84
308.021	12.97
308.235	17.07
308.449	58.03
308.663	-68.95
308.877	123.56
309.091	15.02
309.305	66.22
309.519	-21.84
309.733	8.87
309.947	47.79
310.161	86.7
310.374	8.87
310.588	27.31
310.802	10.92
311.016	31.4
311.23	17.07
311.444	27.31
311.658	62.12
311.872	121.51
312.085	111.27
312.299	101.03
312.513	60.07
312.727	53.93
312.941	15.02
313.154	8.87
313.368	39.59
313.582	31.4
313.796	27.31
314.009	39.59
314.223	47.79
314.437	47.79
314.651	31.4
314.864	37.55
315.078	51.88
315.292	0.68
315.505	68.27
315.719	86.7
315.933	31.4
316.146	103.08
316.36	-1.37
316.573	101.03
316.787	-11.61
317.001	94.89
317.214	10.92
317.428	74.41
317.641	41.64
317.855	-11.61
318.068	80.55
318.282	-21.84
318.495	72.36
318.709	72.36
318.922	51.88
319.136	68.27
319.349	29.35
319.563	25.26
319.776	45.74
319.99	-25.94
320.203	10.92
320.417	15.02
320.63	33.45
320.843	27.31
321.057	60.07
321.27	94.89
321.483	-23.89
321.697	111.27
321.91	53.93
322.124	41.64
322.337	-23.89
322.55	-19.8
322.763	45.74
322.977	33.45
323.19	33.45
323.403	62.12
323.617	35.5
323.83	80.55
324.043	-46.42
324.256	25.26
324.469	0.68
324.683	31.4
324.896	15.02
325.109	66.22
325.322	10.92
325.535	109.23
325.748	39.59
325.962	-19.8
326.175	60.07
326.388	62.12
326.601	66.22
326.814	101.03
327.027	39.59
327.24	15.02
327.453	-42.32
327.666	80.55
327.879	-5.46
328.092	43.69
328.305	8.87
328.518	17.07
328.731	37.55
328.944	-5.46
329.157	58.03
329.37	-11.61
329.583	60.07
329.796	51.88
330.009	51.88
330.222	53.93
330.435	6.83
330.648	82.6
330.861	62.12
331.073	17.07
331.286	80.55
331.499	74.41
331.712	76.46
331.925	6.83
332.138	72.36
332.35	55.98
332.563	12.97
332.776	137.9
332.989	64.17
333.202	49.83
333.414	12.97
333.627	-27.99
333.84	17.07
334.053	47.79
334.265	-5.46
334.478	64.17
334.691	64.17
334.903	29.35
335.116	15.02
335.329	45.74
335.541	39.59
335.754	94.89
335.966	37.55
336.179	27.31
336.392	-11.61
336.604	21.16
336.817	2.73
337.029	25.26
337.242	60.07
337.454	19.11
337.667	23.21
337.88	43.69
338.092	88.75
338.305	29.35
338.517	94.89
338.729	51.88
338.942	137.9
339.154	84.65
339.367	-19.8
339.579	31.4
339.792	-23.89
340.004	101.03
340.217	19.11
340.429	4.78
340.641	80.55
340.854	35.5
341.066	51.88
341.278	84.65
341.491	41.64
341.703	72.36
341.915	27.31
342.128	31.4
342.34	8.87
342.552	53.93
342.764	23.21
342.977	72.36
343.189	6.83
343.401	94.89
343.613	19.11
343.826	4.78
344.038	125.61
344.25	98.99
344.462	70.31
344.674	29.35
344.886	39.59
345.099	47.79
345.311	-25.94
345.523	45.74
345.735	68.27
345.947	92.84
346.159	98.99
346.371	0.68
346.583	33.45
346.795	98.99
347.007	68.27
347.219	150.18
347.431	0.68
347.643	125.61
347.855	58.03
348.067	8.87
348.279	74.41
348.491	33.45
348.703	64.17
348.915	27.31
349.127	-77.14
349.339	23.21
349.551	49.83
349.763	15.02
349.975	88.75
350.187	37.55
350.399	29.35
350.61	68.27
350.822	6.83
351.034	31.4
351.246	51.88
351.458	64.17
351.669	15.02
351.881	103.08
352.093	88.75
352.305	23.21
352.517	37.55
352.728	21.16
352.94	43.69
353.152	-40.28
353.363	27.31
353.575	31.4
353.787	47.79
353.999	115.37
354.21	84.65
354.422	-13.65
354.633	70.31
354.845	88.75
355.057	58.03
355.268	37.55
355.48	25.26
355.692	-83.28
355.903	64.17
356.115	-1.37
356.326	-25.94
356.538	84.65
356.749	101.03
356.961	80.55
357.172	19.11
357.384	23.21
357.595	105.13
357.807	-11.61
358.018	-30.04
358.23	117.42
358.441	80.55
358.653	-23.89
358.864	76.46
359.075	64.17
359.287	43.69
359.498	66.22
359.709	19.11
359.921	-5.46
360.132	66.22
360.344	41.64
360.555	27.31
360.766	135.85
360.977	-7.51
361.189	66.22
361.4	55.98
361.611	53.93
361.823	76.46
362.034	64.17
362.245	-1.37
362.456	-13.65
362.667	43.69
362.879	131.75
363.09	4.78
363.301	31.4
363.512	23.21
363.723	-15.7
363.935	49.83
364.146	43.69
364.357	4.78
364.568	10.92
364.779	15.02
364.99	103.08
365.201	55.98
365.412	76.46
365.623	4.78
365.834	55.98
366.045	-1.37
366.256	92.84
366.467	62.12
366.678	49.83
366.889	31.4
367.1	72.36
367.311	127.66
367.522	60.07
367.733	4.78
367.944	15.02
368.155	19.11
368.366	90.79
368.577	96.94
368.788	94.89
368.999	-21.84
369.209	68.27
369.42	37.55
369.631	146.09
369.842	115.37
370.053	0.68
370.264	55.98
370.474	39.59
370.685	-7.51
370.896	68.27
371.107	90.79
371.317	92.84
371.528	74.41
371.739	123.56
371.95	15.02
372.16	58.03
372.371	41.64
372.582	45.74
372.792	76.46
373.003	86.7
373.214	-15.7
373.424	-25.94
373.635	19.11
373.846	78.51
374.056	41.64
374.267	21.16
374.477	19.11
374.688	72.36
374.898	15.02
375.109	92.84
375.319	76.46
375.53	74.41
375.74	17.07
375.951	29.35
376.161	60.07
376.372	96.94
376.582	58.03
376.793	80.55
377.003	33.45
377.214	82.6
377.424	10.92
377.635	39.59
377.845	27.31
378.055	78.51
378.266	-3.41
378.476	39.59
378.686	0.68
378.897	-17.75
379.107	98.99
379.317	49.83
379.528	60.07
379.738	21.16
379.948	-17.75
380.158	193.19
380.369	31.4
380.579	146.09
380.789	64.17
380.999	-54.61
381.21	64.17
381.42	58.03
381.63	37.55
381.84	41.64
382.05	58.03
382.261	15.02
382.471	86.7
382.681	15.02
382.891	27.31
383.101	62.12
383.311	10.92
383.521	27.31
383.731	125.61
383.941	43.69
384.151	41.64
384.361	31.4
384.571	25.26
384.781	68.27
384.991	19.11
385.201	92.84
385.411	10.92
385.621	55.98
385.831	82.6
386.041	43.69
386.251	-13.65
386.461	82.6
386.671	-38.23
386.881	-30.04
387.091	49.83
387.301	19.11
387.511	72.36
387.72	66.22
387.93	29.35
388.14	-11.61
388.35	96.94
388.56	62.12
388.769	51.88
388.979	58.03
389.189	29.35
389.399	8.87
389.609	39.59
389.818	78.51
390.028	58.03
390.238	41.64
390.447	164.52
390.657	101.03
390.867	0.68
391.076	76.46
391.286	35.5
391.496	76.46
391.705	23.21
391.915	58.03
392.125	76.46
392.334	27.31
392.544	90.79
392.753	88.75
392.963	0.68
393.172	129.7
393.382	23.21
393.591	123.56
393.801	84.65
394.01	68.27
394.22	29.35
394.429	-5.46
394.639	92.84
394.848	53.93
395.058	64.17
395.267	141.99
395.477	109.23
395.686	51.88
395.895	144.04
396.105	182.95
396.314	-1.37
396.524	12.97
396.733	107.18
396.942	117.42
397.152	125.61
397.361	139.94
397.57	117.42
397.78	123.56
397.989	55.98
398.198	156.33
398.407	68.27
398.617	80.55
398.826	115.37
399.035	121.51
399.244	33.45
399.453	84.65
399.663	41.64
399.872	117.42
400.081	35.5
400.29	39.59
400.499	66.22
400.708	139.94
400.917	80.55
401.127	123.56
401.336	51.88
401.545	125.61
401.754	182.95
401.963	92.84
402.172	51.88
402.381	68.27
402.59	76.46
402.799	113.32
403.008	141.99
403.217	211.62
403.426	115.37
403.635	137.9
403.844	103.08
404.053	121.51
404.262	101.03
404.471	150.18
404.68	80.55
404.888	88.75
405.097	172.71
405.306	105.13
405.515	164.52
405.724	234.15
405.933	135.85
406.142	88.75
406.35	107.18
406.559	166.57
406.768	113.32
406.977	217.77
407.185	156.33
407.394	160.42
407.603	96.94
407.812	228.01
408.02	139.94
408.229	154.28
408.438	180.9
408.646	170.66
408.855	217.77
409.064	242.34
409.272	301.73
409.481	309.93
409.69	166.57
409.898	223.91
410.107	256.68
410.315	271.01
410.524	303.78
410.733	309.93
410.941	275.11
411.15	207.53
411.358	293.54
411.567	340.65
411.775	293.54
411.984	330.41
412.192	342.69
412.401	361.13
412.609	381.6
412.818	344.74
413.026	389.8
413.234	395.94
413.443	412.32
413.651	451.24
413.86	459.43
414.068	457.38
414.276	453.28
414.485	537.25
414.693	621.22
414.901	486.05
415.11	559.78
415.318	641.7
415.526	584.35
415.734	606.88
415.943	592.55
416.151	674.46
416.359	649.89
416.567	733.86
416.776	703.14
416.984	805.53
417.192	846.49
417.4	768.67
417.608	766.62
417.817	768.67
418.025	934.56
418.233	864.93
418.441	776.86
418.649	959.13
418.857	965.28
419.065	950.94
419.273	1014.43
419.481	1145.5
419.689	1194.65
419.897	1096.35
420.105	1106.59
420.313	1194.65
420.521	1260.18
420.729	1362.58
420.937	1381.01
421.145	1364.63
421.353	1335.96
421.561	1641.11
421.769	1512.08
421.977	1579.67
422.185	1612.43
422.393	1649.3
422.601	1813.13
422.809	1757.84
423.017	1768.08
423.224	1841.81
423.432	1960.59
423.64	1979.02
423.848	1952.4
424.056	2077.32
424.263	2157.19
424.471	2220.68
424.679	2312.84
424.887	2347.65
425.094	2509.44
425.302	2515.59
425.51	2558.6
425.718	2574.98
425.925	2660.99
426.133	2933.37
426.341	2910.85
426.548	3005.05
426.756	2982.53
426.964	3091.07
427.171	3154.55
427.379	3398.26
427.586	3457.65
427.794	3480.18
428.001	3660.4
428.209	3836.53
428.417	3664.5
428.624	4082.28
428.832	4086.38
429.039	4024.94
429.247	3906.16
429.454	4366.95
429.662	4844.13
429.869	4405.86
430.076	4674.15
430.284	4455.01
430.491	4711.01
430.699	4997.73
430.906	5022.3
431.114	5163.61
431.321	5386.84
431.528	5282.39
431.736	5659.22
431.943	5990.99
432.15	5804.63
432.358	6040.14
432.565	6310.47
432.772	5947.98
432.979	6302.28
433.187	6621.77
433.394	6689.35
433.601	7029.31
433.808	7105.09
434.016	7047.74
434.223	7399.99
434.43	7748.15
434.637	7680.57
434.844	8008.24
435.052	8286.76
435.259	8319.53
435.466	8337.96
435.673	8014.38
435.88	8852
436.087	9112.1
436.294	9243.17
436.501	8960.55
436.708	9081.38
436.915	9486.87
437.122	9957.91
437.329	9871.89
437.537	10158.61
437.743	10338.83
437.95	10025.49
438.157	10752.52
438.364	11147.78
438.571	11045.38
438.778	11100.67
438.985	12294.64
439.192	11497.98
439.399	12247.54
439.606	11692.54
439.813	12470.76
440.02	13322.72
440.227	13003.24
440.433	12915.17
440.64	13453.79
440.847	13054.44
441.054	13515.23
441.261	14434.77
441.467	14223.83
441.674	14447.05
441.881	15030.73
442.088	14903.75
442.294	14825.93
442.501	15315.39
442.708	15665.6
442.914	16042.42
443.121	16779.69
443.328	16423.34
443.534	17385.89
443.741	17027.49
443.948	16900.52
444.154	18016.66
444.361	17959.32
444.568	18102.68
444.774	18057.62
444.981	17940.89
445.187	18956.68
445.394	19456.39
445.6	19419.52
445.807	20975.98
446.013	20078.97
446.22	20543.86
446.426	21496.16
446.633	21543.27
446.839	22022.49
447.046	21330.28
447.252	22520.15
447.459	22399.32
447.665	22389.08
447.871	23648.58
448.078	24289.59
448.284	23136.59
448.491	23808.32
448.697	25121.07
448.903	25137.45
449.11	24967.47
449.316	24531.25
449.522	25063.72
449.728	25993.5
449.935	26063.13
450.141	25960.73
450.347	26759.44
450.553	25831.71
450.76	26140.96
450.966	26874.13
451.172	26378.52
451.378	27017.49
451.584	26853.65
451.791	27306.25
451.997	27201.8
452.203	27564.29
452.409	27275.53
452.615	27549.96
452.821	26169.63
453.027	25878.82
453.233	27357.45
453.44	26050.85
453.646	26638.61
453.852	26560.79
454.058	27232.52
454.264	26097.95
454.47	26437.91
454.676	25932.06
454.882	27074.83
455.088	24412.47
455.294	24512.82
455.5	25270.57
455.705	25575.72
455.911	24355.13
456.117	24054.08
456.323	23720.26
456.529	22045.02
456.735	23062.86
456.941	22495.57
457.147	22090.07
457.352	21565.79
457.558	21105
457.764	21608.8
457.97	20973.93
458.176	20402.55
458.381	20517.23
458.587	19509.63
458.793	19274.12
458.999	18520.46
459.204	19798.4
459.41	19337.6
459.616	18057.62
459.821	18131.35
460.027	17856.92
460.233	17154.47
460.438	16673.2
460.644	16777.64
460.85	16107.96
461.055	15817.15
461.261	15790.52
461.466	14569.93
461.672	14137.81
461.878	15114.69
462.083	14268.88
462.289	14023.12
462.494	13969.88
462.7	13318.62
462.905	12915.17
463.111	13347.3
463.316	13490.65
463.522	13038.05
463.727	13021.67
463.932	12943.85
464.138	13007.33
464.343	13054.44
464.549	12544.49
464.754	12933.61
464.959	12960.23
465.165	12859.88
465.37	12302.83
465.575	12118.51
465.781	12495.34
465.986	12544.49
466.191	12104.18
466.397	11866.61
466.602	11188.74
466.807	11616.76
467.012	11594.23
467.218	11807.22
467.423	11377.15
467.628	11815.41
467.833	12124.66
