Data from USB4F104151__162__10-27-14-631.txt Node

Date: Wed Mar 12 10:27:14 EDT 2025
User: louis
Spectrometer: USB4F10415
Trigger mode: 4
Integration Time (sec): 3.000000E-2
Scans to average: 1
Electric dark correction enabled: true
Nonlinearity correction enabled: false
Boxcar width: 0
XAxis mode: Wavelengths
Number of Pixels in Spectrum: 3648
>>>>>Begin Spectral Data<<<<<
178.204	-140.46
178.424	-140.46
178.644	-140.46
178.864	-117.93
179.084	-66.73
179.304	-5.29
179.524	-15.53
179.744	21.33
179.964	64.34
180.184	-23.72
180.404	-25.77
180.624	11.09
180.844	35.67
181.064	-33.96
181.283	-9.39
181.503	-13.48
181.723	-5.29
181.943	-27.82
182.163	-23.72
182.383	113.49
182.602	64.34
182.822	58.2
183.042	47.96
183.262	11.09
183.482	-11.43
183.701	35.67
183.921	-85.16
184.141	-9.39
184.361	21.33
184.58	-17.58
184.8	68.44
185.02	41.81
185.239	17.24
185.459	-9.39
185.679	23.38
185.898	-70.83
186.118	-5.29
186.338	43.86
186.557	7
186.777	23.38
186.997	-17.58
187.216	13.14
187.436	54.1
187.655	2.9
187.875	56.15
188.095	-29.87
188.314	29.52
188.534	43.86
188.753	-50.35
188.973	37.72
189.192	74.58
189.412	-1.19
189.631	-3.24
189.851	9.05
190.07	39.76
190.29	72.53
190.509	64.34
190.729	-42.15
190.948	107.35
191.168	72.53
191.387	95.06
191.607	-50.35
191.826	35.67
192.045	-17.58
192.265	13.14
192.484	37.72
192.704	-85.16
192.923	-58.54
193.142	-17.58
193.362	37.72
193.581	86.87
193.8	9.05
194.02	43.86
194.239	21.33
194.458	11.09
194.678	45.91
194.897	-15.53
195.116	-3.24
195.335	-105.64
195.555	50
195.774	11.09
195.993	23.38
196.212	-42.15
196.432	-33.96
196.651	0.85
196.87	-58.54
197.089	88.92
197.308	11.09
197.528	23.38
197.747	35.67
197.966	-7.34
198.185	33.62
198.404	25.43
198.623	60.24
198.842	11.09
199.062	56.15
199.281	52.05
199.5	-62.63
199.719	27.48
199.938	19.29
200.157	21.33
200.376	9.05
200.595	-25.77
200.814	-27.82
201.033	-11.43
201.252	56.15
201.471	35.67
201.69	39.76
201.909	-42.15
202.128	13.14
202.347	39.76
202.566	35.67
202.785	27.48
203.004	-58.54
203.223	43.86
203.442	-27.82
203.661	-21.67
203.879	-21.67
204.098	0.85
204.317	-19.63
204.536	-29.87
204.755	37.72
204.974	-31.91
205.193	19.29
205.411	15.19
205.63	13.14
205.849	19.29
206.068	4.95
206.287	-3.24
206.505	47.96
206.724	-50.35
206.943	31.57
207.162	-15.53
207.381	-31.91
207.599	35.67
207.818	-5.29
208.037	7
208.255	-1.19
208.474	29.52
208.693	-13.48
208.911	-17.58
209.13	-17.58
209.349	-27.82
209.567	-5.29
209.786	72.53
210.005	35.67
210.223	35.67
210.442	-40.11
210.661	21.33
210.879	0.85
211.098	-19.63
211.316	43.86
211.535	99.16
211.753	-19.63
211.972	23.38
212.191	-36.01
212.409	37.72
212.628	47.96
212.846	-11.43
213.065	-25.77
213.283	-1.19
213.502	-76.97
213.72	35.67
213.938	-1.19
214.157	11.09
214.375	-17.58
214.594	7
214.812	-7.34
215.031	-9.39
215.249	15.19
215.467	43.86
215.686	11.09
215.904	35.67
216.122	-31.91
216.341	72.53
216.559	11.09
216.778	-3.24
216.996	15.19
217.214	68.44
217.432	-40.11
217.651	-11.43
217.869	64.34
218.087	-29.87
218.306	-21.67
218.524	31.57
218.742	29.52
218.96	21.33
219.179	-56.49
219.397	70.48
219.615	35.67
219.833	25.43
220.051	-40.11
220.27	-9.39
220.488	-13.48
220.706	39.76
220.924	15.19
221.142	7
221.36	13.14
221.578	58.2
221.796	68.44
222.015	25.43
222.233	-33.96
222.451	54.1
222.669	9.05
222.887	-7.34
223.105	4.95
223.323	-29.87
223.541	-5.29
223.759	13.14
223.977	-33.96
224.195	52.05
224.413	21.33
224.631	-5.29
224.849	-13.48
225.067	82.77
225.285	45.91
225.503	52.05
225.721	21.33
225.939	11.09
226.157	47.96
226.375	60.24
226.592	0.85
226.81	2.9
227.028	25.43
227.246	58.2
227.464	-13.48
227.682	58.2
227.9	129.88
228.117	-29.87
228.335	25.43
228.553	-13.48
228.771	37.72
228.989	60.24
229.206	7
229.424	-9.39
229.642	-33.96
229.86	15.19
230.077	45.91
230.295	39.76
230.513	43.86
230.731	33.62
230.948	-36.01
231.166	41.81
231.384	-44.2
231.601	-50.35
231.819	25.43
232.037	-21.67
232.254	-11.43
232.472	52.05
232.689	-3.24
232.907	72.53
233.125	-52.39
233.342	-1.19
233.56	15.19
233.777	31.57
233.995	35.67
234.213	15.19
234.43	-40.11
234.648	39.76
234.865	2.9
235.083	15.19
235.3	27.48
235.518	23.38
235.735	19.29
235.953	-1.19
236.17	-31.91
236.388	41.81
236.605	29.52
236.822	23.38
237.04	-5.29
237.257	43.86
237.475	-25.77
237.692	76.63
237.909	-19.63
238.127	-50.35
238.344	37.72
238.562	-13.48
238.779	15.19
238.996	-60.59
239.214	-33.96
239.431	-17.58
239.648	37.72
239.865	47.96
240.083	13.14
240.3	-17.58
240.517	-13.48
240.735	7
240.952	45.91
241.169	21.33
241.386	39.76
241.603	-64.68
241.821	-68.78
242.038	27.48
242.255	39.76
242.472	-27.82
242.689	-19.63
242.907	52.05
243.124	23.38
243.341	33.62
243.558	7
243.775	-85.16
243.992	-44.2
244.209	-13.48
244.426	84.82
244.643	0.85
244.86	-25.77
245.078	-36.01
245.295	-50.35
245.512	-46.25
245.729	-19.63
245.946	-1.19
246.163	23.38
246.38	25.43
246.597	27.48
246.814	-3.24
247.031	-13.48
247.248	62.29
247.464	31.57
247.681	-29.87
247.898	-13.48
248.115	0.85
248.332	-40.11
248.549	33.62
248.766	45.91
248.983	35.67
249.2	-5.29
249.417	-1.19
249.633	21.33
249.85	23.38
250.067	50
250.284	39.76
250.501	39.76
250.717	-5.29
250.934	-91.31
251.151	21.33
251.368	-31.91
251.585	25.43
251.801	7
252.018	23.38
252.235	15.19
252.451	82.77
252.668	-9.39
252.885	-9.39
253.102	27.48
253.318	7
253.535	-38.06
253.752	-19.63
253.968	-46.25
254.185	15.19
254.401	-62.63
254.618	7
254.835	54.1
255.051	41.81
255.268	4.95
255.484	45.91
255.701	7
255.917	0.85
256.134	-42.15
256.351	13.14
256.567	-36.01
256.784	-17.58
257	-42.15
257.217	9.05
257.433	-5.29
257.65	0.85
257.866	15.19
258.082	2.9
258.299	9.05
258.515	19.29
258.732	2.9
258.948	-5.29
259.165	29.52
259.381	23.38
259.597	21.33
259.814	27.48
260.03	-3.24
260.246	35.67
260.463	43.86
260.679	47.96
260.895	58.2
261.112	47.96
261.328	-1.19
261.544	21.33
261.761	23.38
261.977	25.43
262.193	-3.24
262.409	21.33
262.626	39.76
262.842	72.53
263.058	23.38
263.274	17.24
263.49	-62.63
263.707	25.43
263.923	33.62
264.139	-38.06
264.355	-13.48
264.571	-15.53
264.787	15.19
265.004	27.48
265.22	11.09
265.436	64.34
265.652	-42.15
265.868	21.33
266.084	-19.63
266.3	-1.19
266.516	-101.55
266.732	31.57
266.948	52.05
267.164	31.57
267.38	80.72
267.596	43.86
267.812	31.57
268.028	19.29
268.244	-36.01
268.46	31.57
268.676	66.39
268.892	21.33
269.108	66.39
269.324	43.86
269.54	35.67
269.756	54.1
269.972	4.95
270.188	-1.19
270.403	13.14
270.619	43.86
270.835	41.81
271.051	-33.96
271.267	33.62
271.483	-11.43
271.698	80.72
271.914	-9.39
272.13	-36.01
272.346	47.96
272.562	-21.67
272.777	52.05
272.993	-9.39
273.209	52.05
273.425	-42.15
273.64	15.19
273.856	-1.19
274.072	-74.92
274.287	2.9
274.503	31.57
274.719	-33.96
274.934	-38.06
275.15	-85.16
275.366	70.48
275.581	-3.24
275.797	74.58
276.012	13.14
276.228	-3.24
276.444	47.96
276.659	15.19
276.875	7
277.09	33.62
277.306	-17.58
277.521	58.2
277.737	-27.82
277.952	74.58
278.168	-5.29
278.383	-5.29
278.599	-29.87
278.814	-25.77
279.03	25.43
279.245	17.24
279.461	54.1
279.676	15.19
279.892	2.9
280.107	-19.63
280.322	64.34
280.538	17.24
280.753	-42.15
280.969	2.9
281.184	54.1
281.399	62.29
281.615	45.91
281.83	-36.01
282.045	35.67
282.26	-11.43
282.476	-33.96
282.691	27.48
282.906	-1.19
283.122	21.33
283.337	-54.44
283.552	62.29
283.767	11.09
283.983	60.24
284.198	47.96
284.413	-9.39
284.628	-46.25
284.843	-29.87
285.058	52.05
285.274	-7.34
285.489	-79.02
285.704	27.48
285.919	43.86
286.134	-1.19
286.349	7
286.564	-1.19
286.779	90.96
286.995	-50.35
287.21	-19.63
287.425	-87.21
287.64	9.05
287.855	-3.24
288.07	37.72
288.285	23.38
288.5	72.53
288.715	29.52
288.93	43.86
289.145	19.29
289.36	52.05
289.575	-17.58
289.79	58.2
290.004	-36.01
290.219	13.14
290.434	31.57
290.649	-1.19
290.864	31.57
291.079	-3.24
291.294	-19.63
291.509	27.48
291.724	86.87
291.938	62.29
292.153	-52.39
292.368	-58.54
292.583	52.05
292.798	-21.67
293.012	64.34
293.227	-25.77
293.442	-25.77
293.657	35.67
293.871	-29.87
294.086	-44.2
294.301	31.57
294.516	37.72
294.73	2.9
294.945	-13.48
295.16	35.67
295.374	101.2
295.589	-27.82
295.804	-31.91
296.018	-5.29
296.233	35.67
296.447	19.29
296.662	-38.06
296.877	-9.39
297.091	-23.72
297.306	25.43
297.52	-17.58
297.735	-9.39
297.949	-70.83
298.164	-21.67
298.378	-42.15
298.593	43.86
298.807	-25.77
299.022	-17.58
299.236	-17.58
299.451	-33.96
299.665	47.96
299.88	-27.82
300.094	-9.39
300.309	-38.06
300.523	-21.67
300.737	33.62
300.952	-60.59
301.166	43.86
301.381	41.81
301.595	72.53
301.809	17.24
302.024	-1.19
302.238	54.1
302.452	37.72
302.667	-13.48
302.881	72.53
303.095	13.14
303.309	37.72
303.524	-1.19
303.738	39.76
303.952	-9.39
304.166	29.52
304.381	-46.25
304.595	58.2
304.809	43.86
305.023	-17.58
305.237	37.72
305.452	2.9
305.666	50
305.88	-33.96
306.094	90.96
306.308	68.44
306.522	-11.43
306.736	15.19
306.95	60.24
307.164	82.77
307.379	2.9
307.593	76.63
307.807	66.39
308.021	0.85
308.235	13.14
308.449	-40.11
308.663	56.15
308.877	78.68
309.091	-87.21
309.305	-36.01
309.519	-21.67
309.733	60.24
309.947	37.72
310.161	35.67
310.374	-7.34
310.588	11.09
310.802	-74.92
311.016	35.67
311.23	60.24
311.444	17.24
311.658	-21.67
311.872	33.62
312.085	11.09
312.299	43.86
312.513	21.33
312.727	-54.44
312.941	-27.82
313.154	37.72
313.368	31.57
313.582	11.09
313.796	47.96
314.009	-36.01
314.223	52.05
314.437	37.72
314.651	-19.63
314.864	9.05
315.078	9.05
315.292	-21.67
315.505	-56.49
315.719	-27.82
315.933	45.91
316.146	58.2
316.36	-62.63
316.573	29.52
316.787	66.39
317.001	-11.43
317.214	4.95
317.428	7
317.641	41.81
317.855	-17.58
318.068	47.96
318.282	52.05
318.495	29.52
318.709	76.63
318.922	-36.01
319.136	-17.58
319.349	47.96
319.563	-36.01
319.776	15.19
319.99	-50.35
320.203	-9.39
320.417	68.44
320.63	-19.63
320.843	95.06
321.057	19.29
321.27	74.58
321.483	39.76
321.697	99.16
321.91	-17.58
322.124	-21.67
322.337	-42.15
322.55	35.67
322.763	109.4
322.977	33.62
323.19	37.72
323.403	-25.77
323.617	-3.24
323.83	7
324.043	-27.82
324.256	31.57
324.469	17.24
324.683	35.67
324.896	-83.11
325.109	15.19
325.322	-50.35
325.535	31.57
325.748	52.05
325.962	-17.58
326.175	-21.67
326.388	74.58
326.601	23.38
326.814	27.48
327.027	4.95
327.24	74.58
327.453	-7.34
327.666	72.53
327.879	56.15
328.092	-17.58
328.305	7
328.518	21.33
328.731	15.19
328.944	15.19
329.157	-11.43
329.37	80.72
329.583	41.81
329.796	-13.48
330.009	-40.11
330.222	17.24
330.435	4.95
330.648	23.38
330.861	39.76
331.073	35.67
331.286	54.1
331.499	76.63
331.712	-23.72
331.925	56.15
332.138	39.76
332.35	62.29
332.563	35.67
332.776	76.63
332.989	29.52
333.202	17.24
333.414	54.1
333.627	2.9
333.84	-15.53
334.053	58.2
334.265	-7.34
334.478	17.24
334.691	31.57
334.903	47.96
335.116	9.05
335.329	39.76
335.541	74.58
335.754	54.1
335.966	-25.77
336.179	58.2
336.392	7
336.604	52.05
336.817	29.52
337.029	70.48
337.242	68.44
337.454	56.15
337.667	31.57
337.88	39.76
338.092	-17.58
338.305	21.33
338.517	4.95
338.729	-52.39
338.942	13.14
339.154	-19.63
339.367	-29.87
339.579	29.52
339.792	-25.77
340.004	31.57
340.217	-27.82
340.429	27.48
340.641	11.09
340.854	-42.15
341.066	-1.19
341.278	23.38
341.491	31.57
341.703	9.05
341.915	2.9
342.128	-60.59
342.34	-13.48
342.552	-29.87
342.764	11.09
342.977	-27.82
343.189	56.15
343.401	15.19
343.613	37.72
343.826	-13.48
344.038	-66.73
344.25	27.48
344.462	15.19
344.674	15.19
344.886	39.76
345.099	72.53
345.311	-17.58
345.523	-33.96
345.735	-56.49
345.947	15.19
346.159	35.67
346.371	0.85
346.583	9.05
346.795	50
347.007	15.19
347.219	-15.53
347.431	52.05
347.643	-5.29
347.855	-15.53
348.067	39.76
348.279	-31.91
348.491	-1.19
348.703	62.29
348.915	19.29
349.127	7
349.339	-50.35
349.551	-31.91
349.763	29.52
349.975	-50.35
350.187	2.9
350.399	-1.19
350.61	25.43
350.822	54.1
351.034	35.67
351.246	86.87
351.458	0.85
351.669	27.48
351.881	84.82
352.093	45.91
352.305	76.63
352.517	-17.58
352.728	60.24
352.94	-31.91
353.152	35.67
353.363	-40.11
353.575	64.34
353.787	62.29
353.999	43.86
354.21	2.9
354.422	-23.72
354.633	-17.58
354.845	-19.63
355.057	-62.63
355.268	-42.15
355.48	31.57
355.692	-60.59
355.903	41.81
356.115	-25.77
356.326	-13.48
356.538	58.2
356.749	-7.34
356.961	76.63
357.172	2.9
357.384	-38.06
357.595	13.14
357.807	47.96
358.018	-58.54
358.23	-42.15
358.441	68.44
358.653	4.95
358.864	-25.77
359.075	105.3
359.287	0.85
359.498	60.24
359.709	-66.73
359.921	-66.73
360.132	27.48
360.344	82.77
360.555	-21.67
360.766	37.72
360.977	9.05
361.189	64.34
361.4	-58.54
361.611	27.48
361.823	80.72
362.034	52.05
362.245	-21.67
362.456	-31.91
362.667	47.96
362.879	60.24
363.09	-31.91
363.301	21.33
363.512	-13.48
363.723	-23.72
363.935	56.15
364.146	25.43
364.357	13.14
364.568	64.34
364.779	37.72
364.99	84.82
365.201	-31.91
365.412	82.77
365.623	13.14
365.834	35.67
366.045	-5.29
366.256	13.14
366.467	-42.15
366.678	109.4
366.889	54.1
367.1	64.34
367.311	80.72
367.522	-7.34
367.733	52.05
367.944	60.24
368.155	-17.58
368.366	41.81
368.577	54.1
368.788	39.76
368.999	-31.91
369.209	-13.48
369.42	60.24
369.631	90.96
369.842	-31.91
370.053	31.57
370.264	29.52
370.474	0.85
370.685	13.14
370.896	4.95
371.107	-1.19
371.317	11.09
371.528	-21.67
371.739	58.2
371.95	47.96
372.16	19.29
372.371	-33.96
372.582	-1.19
372.792	-7.34
373.003	72.53
373.214	-13.48
373.424	72.53
373.635	19.29
373.846	19.29
374.056	-27.82
374.267	13.14
374.477	-9.39
374.688	43.86
374.898	47.96
375.109	62.29
375.319	4.95
375.53	27.48
375.74	-52.39
375.951	86.87
376.161	31.57
376.372	47.96
376.582	7
376.793	-13.48
377.003	78.68
377.214	27.48
377.424	29.52
377.635	13.14
377.845	-17.58
378.055	-25.77
378.266	-25.77
378.476	50
378.686	35.67
378.897	29.52
379.107	-3.24
379.317	99.16
379.528	-15.53
379.738	82.77
379.948	-23.72
380.158	45.91
380.369	-19.63
380.579	-40.11
380.789	23.38
380.999	-42.15
381.21	7
381.42	78.68
381.63	31.57
381.84	43.86
382.05	52.05
382.261	35.67
382.471	56.15
382.681	35.67
382.891	66.39
383.101	45.91
383.311	-44.2
383.521	19.29
383.731	56.15
383.941	-13.48
384.151	-58.54
384.361	68.44
384.571	17.24
384.781	37.72
384.991	15.19
385.201	35.67
385.411	29.52
385.621	152.4
385.831	78.68
386.041	25.43
386.251	43.86
386.461	0.85
386.671	21.33
386.881	25.43
387.091	78.68
387.301	2.9
387.511	21.33
387.72	35.67
387.93	-42.15
388.14	11.09
388.35	54.1
388.56	162.64
388.769	103.25
388.979	43.86
389.189	-25.77
389.399	-56.49
389.609	41.81
389.818	15.19
390.028	-36.01
390.238	11.09
390.447	19.29
390.657	62.29
390.867	47.96
391.076	23.38
391.286	-1.19
391.496	33.62
391.705	-29.87
391.915	15.19
392.125	58.2
392.334	60.24
392.544	-19.63
392.753	31.57
392.963	95.06
393.172	72.53
393.382	33.62
393.591	58.2
393.801	27.48
394.01	56.15
394.22	68.44
394.429	37.72
394.639	47.96
394.848	47.96
395.058	101.2
395.267	64.34
395.477	41.81
395.686	93.01
395.895	78.68
396.105	11.09
396.314	99.16
396.524	66.39
396.733	52.05
396.942	131.92
397.152	93.01
397.361	43.86
397.57	-1.19
397.78	70.48
397.989	64.34
398.198	140.12
398.407	23.38
398.617	23.38
398.826	45.91
399.035	88.92
399.244	31.57
399.453	99.16
399.663	35.67
399.872	37.72
400.081	4.95
400.29	105.3
400.499	95.06
400.708	103.25
400.917	13.14
401.127	144.21
401.336	72.53
401.545	150.36
401.754	47.96
401.963	179.03
402.172	117.59
402.381	56.15
402.59	97.11
402.799	64.34
403.008	99.16
403.217	109.4
403.426	109.4
403.635	50
403.844	64.34
404.053	105.3
404.262	154.45
404.471	123.73
404.68	123.73
404.888	103.25
405.097	144.21
405.306	133.97
405.515	72.53
405.724	119.64
405.933	160.59
406.142	160.59
406.35	154.45
406.559	154.45
406.768	146.26
406.977	187.22
407.185	138.07
407.394	172.88
407.603	156.5
407.812	189.27
408.02	191.31
408.229	191.31
408.438	146.26
408.646	127.83
408.855	183.12
409.064	242.51
409.272	242.51
409.481	262.99
409.69	256.85
409.898	148.31
410.107	166.74
410.315	226.13
410.524	226.13
410.733	318.29
410.941	269.14
411.15	310.1
411.358	324.43
411.567	418.64
411.775	328.53
411.984	332.62
412.192	473.93
412.401	375.63
412.609	414.54
412.818	432.97
413.026	412.5
413.234	344.91
413.443	439.12
413.651	424.78
413.86	506.7
414.068	504.65
414.276	633.68
414.485	498.51
414.693	551.76
414.901	566.09
415.11	586.57
415.318	637.77
415.526	676.68
415.734	668.49
415.943	656.2
416.151	729.93
416.359	645.96
416.567	645.96
416.776	711.5
416.984	869.19
417.192	891.72
417.4	842.57
417.608	813.9
417.817	930.63
418.025	957.25
418.233	1028.93
418.441	996.17
418.649	928.58
418.857	1002.31
419.065	1063.75
419.273	1094.47
419.481	1241.92
419.689	1250.11
419.897	1260.35
420.105	1321.79
420.313	1282.88
420.521	1432.38
420.729	1327.94
420.937	1467.2
421.145	1506.11
421.353	1534.78
421.561	1719.1
421.769	1669.95
421.977	1790.78
422.185	1678.14
422.393	1760.06
422.601	2077.49
422.809	1997.62
423.017	1968.95
423.224	2011.96
423.432	2227
423.64	2181.94
423.848	2460.46
424.056	2353.97
424.263	2554.67
424.471	2493.23
424.679	2450.22
424.887	2675.5
425.094	2755.37
425.302	2718.51
425.51	2837.29
425.718	3046.18
425.925	3040.04
426.133	2994.98
426.341	3267.36
426.548	3365.67
426.756	3300.13
426.964	3543.84
427.171	3545.89
427.379	3785.5
427.586	3758.88
427.794	4000.54
428.001	4184.85
428.209	4152.09
428.417	4240.15
428.624	4500.24
428.832	4524.82
429.039	4524.82
429.247	4487.95
429.454	4885.26
429.662	5278.47
429.869	4942.6
430.076	5194.5
430.284	5098.25
430.491	5405.44
430.699	5520.13
430.906	5483.27
431.114	5681.92
431.321	5927.67
431.528	6005.5
431.736	6445.81
431.943	6599.41
432.15	6505.2
432.358	6673.14
432.565	6843.12
432.772	6945.52
432.979	7187.18
433.187	7330.53
433.394	7461.6
433.601	7885.53
433.808	7760.61
434.016	7969.5
434.223	8157.91
434.43	8544.98
434.637	8504.02
434.844	9077.45
435.052	9302.73
435.259	8843.98
435.466	9089.74
435.673	9132.75
435.88	9691.84
436.087	10410.68
436.294	10207.93
436.501	10007.23
436.708	10042.04
436.915	10654.39
437.122	11055.79
437.329	10924.72
437.537	11139.76
437.743	11575.97
437.95	11379.37
438.157	12315.29
438.364	12442.26
438.571	12399.26
438.778	12434.07
438.985	13589.13
439.192	13142.67
439.399	13634.18
439.606	13263.5
439.813	13916.8
440.02	14817.91
440.227	14424.7
440.433	14379.64
440.64	14754.42
440.847	14805.62
441.054	15022.7
441.261	16018.02
441.467	16083.55
441.674	16382.56
441.881	16964.18
442.088	16591.45
442.294	16558.68
442.501	17054.29
442.708	17445.45
442.914	18149.95
443.121	18827.83
443.328	18485.82
443.534	19884.58
443.741	18883.13
443.948	18676.28
444.154	20304.42
444.361	20245.02
444.568	20156.96
444.774	20101.67
444.981	20691.48
445.187	20873.75
445.394	21725.71
445.6	21371.41
445.807	23806.44
446.013	22307.33
446.22	23020.02
446.426	24054.25
446.633	24148.45
446.839	25010.65
447.046	23828.97
447.252	24971.74
447.459	25215.44
447.665	25047.51
447.871	26415.55
448.078	27138.49
448.284	26175.94
448.491	26685.89
448.697	27767.21
448.903	28107.18
449.11	28277.16
449.316	27681.2
449.522	28117.42
449.728	28926.36
449.935	29172.12
450.141	28926.36
450.347	29651.34
450.553	28674.46
450.76	29168.02
450.966	29661.58
451.172	29747.6
451.378	30413.19
451.584	29704.59
451.791	30480.77
451.997	30478.72
452.203	30714.24
452.409	30787.97
452.615	30450.05
452.821	29563.28
453.027	29251.99
453.233	30652.8
453.44	29278.61
453.646	29637.01
453.852	29864.33
454.058	30415.24
454.264	29202.84
454.47	30050.7
454.676	29362.58
454.882	30216.58
455.088	27453.87
455.294	27632.05
455.5	28244.39
455.705	28740
455.911	27167.16
456.117	26970.55
456.323	26438.08
456.529	25070.04
456.735	26280.39
456.941	25303.51
457.147	25139.67
457.352	23984.62
457.558	23804.39
457.764	23914.98
457.97	23687.66
458.176	22557.18
458.381	22929.91
458.587	21924.36
458.793	21924.36
458.999	20685.34
459.204	21801.48
459.41	21477.9
459.616	19919.4
459.821	20163.11
460.027	20257.31
460.233	19763.75
460.438	18725.43
460.644	18891.32
460.85	18233.92
461.055	17721.93
461.261	17713.74
461.466	16374.36
461.672	16126.56
461.878	17119.82
462.083	16015.97
462.289	15813.22
462.494	15370.86
462.7	14676.6
462.905	14539.38
463.111	14838.39
463.316	14930.55
463.522	14469.75
463.727	14789.24
463.932	14428.79
464.138	14658.17
464.343	14545.53
464.549	14072.45
464.754	14469.75
464.959	14566.01
465.165	14299.77
465.37	13894.27
465.575	13466.25
465.781	13949.57
465.986	13980.29
466.191	13539.97
466.397	13449.86
466.602	12518.04
466.807	12966.54
467.012	13333.13
