Data from USB4F104151__212__10-29-56-073.txt Node

Date: Wed Mar 12 10:29:56 EDT 2025
User: louis
Spectrometer: USB4F10415
Trigger mode: 4
Integration Time (sec): 3.000000E-2
Scans to average: 1
Electric dark correction enabled: true
Nonlinearity correction enabled: false
Boxcar width: 0
XAxis mode: Wavelengths
Number of Pixels in Spectrum: 3648
>>>>>Begin Spectral Data<<<<<
178.204	-76.12
178.424	-76.12
178.644	-76.12
178.864	-110.93
179.084	-88.4
179.304	7.85
179.524	28.33
179.744	-8.53
179.964	28.33
180.184	-41.3
180.404	13.99
180.624	-24.92
180.844	44.71
181.064	-14.68
181.283	-26.96
181.503	-16.73
181.723	9.9
181.943	-18.77
182.163	54.95
182.383	38.57
182.602	89.77
182.822	18.09
183.042	38.57
183.262	-22.87
183.482	59.05
183.701	7.85
183.921	40.62
184.141	7.85
184.361	71.34
184.58	83.63
184.8	9.9
185.02	-0.34
185.239	3.75
185.459	-10.58
185.679	7.85
185.898	36.52
186.118	3.75
186.338	30.38
186.557	69.29
186.777	67.24
186.997	-2.39
187.216	-47.44
187.436	73.39
187.655	48.81
187.875	52.91
188.095	-12.63
188.314	87.72
188.534	79.53
188.753	-6.49
188.973	102.06
189.192	91.82
189.412	22.19
189.631	83.63
189.851	26.28
190.07	-16.73
190.29	-47.44
190.509	40.62
190.729	54.95
190.948	120.49
191.168	83.63
191.387	91.82
191.607	-26.96
191.826	67.24
192.045	108.2
192.265	97.96
192.484	16.04
192.704	1.71
192.923	34.47
193.142	106.15
193.362	-4.44
193.581	38.57
193.8	38.57
194.02	42.67
194.239	50.86
194.458	-8.53
194.678	18.09
194.897	18.09
195.116	79.53
195.335	67.24
195.555	-6.49
195.774	69.29
195.993	61.1
196.212	-37.2
196.432	65.19
196.651	67.24
196.87	87.72
197.089	100.01
197.308	106.15
197.528	-6.49
197.747	-37.2
197.966	108.2
198.185	132.78
198.404	40.62
198.623	77.48
198.842	48.81
199.062	77.48
199.281	85.67
199.5	-39.25
199.719	16.04
199.938	-6.49
200.157	120.49
200.376	81.58
200.595	28.33
200.814	34.47
201.033	61.1
201.252	26.28
201.471	34.47
201.69	3.75
201.909	34.47
202.128	42.67
202.347	-6.49
202.566	28.33
202.785	-10.58
203.004	-33.11
203.223	44.71
203.442	9.9
203.661	13.99
203.879	-2.39
204.098	13.99
204.317	13.99
204.536	44.71
204.755	-33.11
204.974	16.04
205.193	65.19
205.411	110.25
205.63	81.58
205.849	-16.73
206.068	1.71
206.287	38.57
206.505	71.34
206.724	40.62
206.943	63.15
207.162	13.99
207.381	-0.34
207.599	79.53
207.818	22.19
208.037	16.04
208.255	20.14
208.474	79.53
208.693	83.63
208.911	36.52
209.13	-6.49
209.349	87.72
209.567	11.95
209.786	30.38
210.005	77.48
210.223	46.76
210.442	24.23
210.661	34.47
210.879	48.81
211.098	46.76
211.316	83.63
211.535	42.67
211.753	75.43
211.972	32.43
212.191	16.04
212.409	-39.25
212.628	-31.06
212.846	46.76
213.065	46.76
213.283	38.57
213.502	57
213.72	36.52
213.938	79.53
214.157	48.81
214.375	108.2
214.594	9.9
214.812	75.43
215.031	52.91
215.249	-22.87
215.467	13.99
215.686	5.8
215.904	75.43
216.122	52.91
216.341	18.09
216.559	75.43
216.778	69.29
216.996	32.43
217.214	54.95
217.432	-35.16
217.651	24.23
217.869	69.29
218.087	30.38
218.306	79.53
218.524	38.57
218.742	26.28
218.96	46.76
219.179	5.8
219.397	110.25
219.615	91.82
219.833	50.86
220.051	91.82
220.27	147.11
220.488	46.76
220.706	48.81
220.924	26.28
221.142	26.28
221.36	38.57
221.578	75.43
221.796	-20.82
222.015	38.57
222.233	59.05
222.451	34.47
222.669	46.76
222.887	16.04
223.105	-10.58
223.323	42.67
223.541	83.63
223.759	48.81
223.977	83.63
224.195	59.05
224.413	18.09
224.631	106.15
224.849	13.99
225.067	102.06
225.285	16.04
225.503	77.48
225.721	13.99
225.939	24.23
226.157	71.34
226.375	112.3
226.592	24.23
226.81	-10.58
227.028	18.09
227.246	83.63
227.464	28.33
227.682	-12.63
227.9	-33.11
228.117	52.91
228.335	75.43
228.553	1.71
228.771	48.81
228.989	9.9
229.206	67.24
229.424	59.05
229.642	-0.34
229.86	32.43
230.077	50.86
230.295	34.47
230.513	59.05
230.731	73.39
230.948	54.95
231.166	57
231.384	61.1
231.601	11.95
231.819	1.71
232.037	67.24
232.254	-2.39
232.472	50.86
232.689	-6.49
232.907	54.95
233.125	3.75
233.342	30.38
233.56	69.29
233.777	-2.39
233.995	40.62
234.213	48.81
234.43	-24.92
234.648	52.91
234.865	-24.92
235.083	63.15
235.3	-39.25
235.518	116.39
235.735	69.29
235.953	89.77
236.17	52.91
236.388	30.38
236.605	34.47
236.822	69.29
237.04	100.01
237.257	13.99
237.475	11.95
237.692	11.95
237.909	32.43
238.127	122.54
238.344	1.71
238.562	120.49
238.779	9.9
238.996	77.48
239.214	32.43
239.431	91.82
239.648	130.73
239.865	61.1
240.083	40.62
240.3	3.75
240.517	32.43
240.735	32.43
240.952	91.82
241.169	83.63
241.386	87.72
241.603	69.29
241.821	-39.25
242.038	100.01
242.255	1.71
242.472	-59.73
242.689	26.28
242.907	46.76
243.124	36.52
243.341	22.19
243.558	16.04
243.775	-14.68
243.992	114.34
244.209	50.86
244.426	104.11
244.643	40.62
244.86	9.9
245.078	48.81
245.295	48.81
245.512	42.67
245.729	65.19
245.946	46.76
246.163	112.3
246.38	42.67
246.597	13.99
246.814	-22.87
247.031	38.57
247.248	100.01
247.464	38.57
247.681	54.95
247.898	110.25
248.115	79.53
248.332	-98.64
248.549	93.87
248.766	93.87
248.983	61.1
249.2	63.15
249.417	91.82
249.633	85.67
249.85	59.05
250.067	24.23
250.284	-14.68
250.501	32.43
250.717	61.1
250.934	40.62
251.151	-45.4
251.368	26.28
251.585	13.99
251.801	18.09
252.018	59.05
252.235	32.43
252.451	20.14
252.668	40.62
252.885	67.24
253.102	3.75
253.318	61.1
253.535	61.1
253.752	-41.3
253.968	52.91
254.185	28.33
254.401	73.39
254.618	67.24
254.835	-51.54
255.051	59.05
255.268	61.1
255.484	-10.58
255.701	34.47
255.917	65.19
256.134	-39.25
256.351	-20.82
256.567	-2.39
256.784	36.52
257	30.38
257.217	40.62
257.433	71.34
257.65	102.06
257.866	44.71
258.082	5.8
258.299	-41.3
258.515	69.29
258.732	128.68
258.948	34.47
259.165	-39.25
259.381	54.95
259.597	30.38
259.814	73.39
260.03	-4.44
260.246	30.38
260.463	65.19
260.679	63.15
260.895	34.47
261.112	48.81
261.328	79.53
261.544	24.23
261.761	108.2
261.977	3.75
262.193	42.67
262.409	118.44
262.626	59.05
262.842	65.19
263.058	-35.16
263.274	83.63
263.49	-14.68
263.707	120.49
263.923	83.63
264.139	-2.39
264.355	46.76
264.571	132.78
264.787	42.67
265.004	97.96
265.22	44.71
265.436	40.62
265.652	-2.39
265.868	95.91
266.084	30.38
266.3	52.91
266.516	26.28
266.732	75.43
266.948	22.19
267.164	18.09
267.38	102.06
267.596	36.52
267.812	143.02
268.028	5.8
268.244	-2.39
268.46	63.15
268.676	20.14
268.892	54.95
269.108	22.19
269.324	28.33
269.54	71.34
269.756	54.95
269.972	36.52
270.188	1.71
270.403	9.9
270.619	7.85
270.835	30.38
271.051	50.86
271.267	46.76
271.483	61.1
271.698	42.67
271.914	104.11
272.13	106.15
272.346	-2.39
272.562	-2.39
272.777	67.24
272.993	9.9
273.209	42.67
273.425	16.04
273.64	-33.11
273.856	116.39
274.072	-0.34
274.287	-18.77
274.503	89.77
274.719	-59.73
274.934	52.91
275.15	65.19
275.366	85.67
275.581	71.34
275.797	95.91
276.012	50.86
276.228	16.04
276.444	1.71
276.659	120.49
276.875	89.77
277.09	28.33
277.306	42.67
277.521	71.34
277.737	-10.58
277.952	91.82
278.168	42.67
278.383	34.47
278.599	106.15
278.814	34.47
279.03	67.24
279.245	48.81
279.461	59.05
279.676	9.9
279.892	-6.49
280.107	-16.73
280.322	9.9
280.538	30.38
280.753	61.1
280.969	61.1
281.184	18.09
281.399	138.92
281.615	83.63
281.83	67.24
282.045	-18.77
282.26	42.67
282.476	38.57
282.691	106.15
282.906	83.63
283.122	1.71
283.337	11.95
283.552	48.81
283.767	18.09
283.983	57
284.198	3.75
284.413	22.19
284.628	-2.39
284.843	118.44
285.058	87.72
285.274	83.63
285.489	16.04
285.704	122.54
285.919	38.57
286.134	-20.82
286.349	20.14
286.564	46.76
286.779	46.76
286.995	79.53
287.21	-43.35
287.425	40.62
287.64	-14.68
287.855	95.91
288.07	26.28
288.285	59.05
288.5	5.8
288.715	54.95
288.93	-59.73
289.145	46.76
289.36	34.47
289.575	-6.49
289.79	118.44
290.004	11.95
290.219	75.43
290.434	-22.87
290.649	18.09
290.864	34.47
291.079	77.48
291.294	28.33
291.509	-37.2
291.724	79.53
291.938	18.09
292.153	54.95
292.368	-8.53
292.583	112.3
292.798	9.9
293.012	26.28
293.227	36.52
293.442	77.48
293.657	95.91
293.871	97.96
294.086	102.06
294.301	116.39
294.516	79.53
294.73	28.33
294.945	50.86
295.16	11.95
295.374	-14.68
295.589	100.01
295.804	9.9
296.018	100.01
296.233	75.43
296.447	7.85
296.662	34.47
296.877	93.87
297.091	46.76
297.306	42.67
297.52	22.19
297.735	38.57
297.949	9.9
298.164	63.15
298.378	34.47
298.593	38.57
298.807	44.71
299.022	87.72
299.236	87.72
299.451	87.72
299.665	13.99
299.88	24.23
300.094	79.53
300.309	71.34
300.523	-43.35
300.737	75.43
300.952	57
301.166	54.95
301.381	42.67
301.595	87.72
301.809	71.34
302.024	-26.96
302.238	26.28
302.452	165.54
302.667	-2.39
302.881	57
303.095	26.28
303.309	7.85
303.524	34.47
303.738	91.82
303.952	24.23
304.166	46.76
304.381	18.09
304.595	120.49
304.809	140.97
305.023	89.77
305.237	57
305.452	40.62
305.666	13.99
305.88	16.04
306.094	108.2
306.308	-12.63
306.522	79.53
306.736	52.91
306.95	140.97
307.164	89.77
307.379	26.28
307.593	208.55
307.807	106.15
308.021	54.95
308.235	95.91
308.449	-10.58
308.663	-37.2
308.877	73.39
309.091	63.15
309.305	108.2
309.519	1.71
309.733	83.63
309.947	1.71
310.161	-18.77
310.374	52.91
310.588	97.96
310.802	38.57
311.016	48.81
311.23	30.38
311.444	30.38
311.658	54.95
311.872	75.43
312.085	28.33
312.299	118.44
312.513	71.34
312.727	89.77
312.941	67.24
313.154	54.95
313.368	48.81
313.582	28.33
313.796	59.05
314.009	106.15
314.223	-6.49
314.437	128.68
314.651	34.47
314.864	-12.63
315.078	24.23
315.292	-2.39
315.505	42.67
315.719	85.67
315.933	-0.34
316.146	22.19
316.36	-10.58
316.573	65.19
316.787	28.33
317.001	38.57
317.214	52.91
317.428	67.24
317.641	42.67
317.855	46.76
318.068	73.39
318.282	59.05
318.495	93.87
318.709	57
318.922	85.67
319.136	-10.58
319.349	28.33
319.563	24.23
319.776	18.09
319.99	59.05
320.203	87.72
320.417	73.39
320.63	69.29
320.843	97.96
321.057	-6.49
321.27	3.75
321.483	40.62
321.697	22.19
321.91	59.05
322.124	75.43
322.337	-2.39
322.55	61.1
322.763	77.48
322.977	-2.39
323.19	5.8
323.403	48.81
323.617	-10.58
323.83	54.95
324.043	32.43
324.256	34.47
324.469	30.38
324.683	34.47
324.896	57
325.109	36.52
325.322	1.71
325.535	116.39
325.748	34.47
325.962	38.57
326.175	87.72
326.388	75.43
326.601	114.34
326.814	91.82
327.027	81.58
327.24	126.63
327.453	13.99
327.666	-0.34
327.879	73.39
328.092	85.67
328.305	22.19
328.518	38.57
328.731	18.09
328.944	50.86
329.157	26.28
329.37	-16.73
329.583	38.57
329.796	179.88
330.009	-24.92
330.222	118.44
330.435	-6.49
330.648	28.33
330.861	71.34
331.073	44.71
331.286	24.23
331.499	112.3
331.712	63.15
331.925	73.39
332.138	32.43
332.35	77.48
332.563	-8.53
332.776	50.86
332.989	36.52
333.202	54.95
333.414	30.38
333.627	44.71
333.84	44.71
334.053	59.05
334.265	57
334.478	91.82
334.691	71.34
334.903	54.95
335.116	50.86
335.329	32.43
335.541	50.86
335.754	50.86
335.966	71.34
336.179	24.23
336.392	87.72
336.604	50.86
336.817	20.14
337.029	81.58
337.242	40.62
337.454	50.86
337.667	28.33
337.88	5.8
338.092	79.53
338.305	18.09
338.517	59.05
338.729	-4.44
338.942	89.77
339.154	114.34
339.367	5.8
339.579	118.44
339.792	67.24
340.004	13.99
340.217	57
340.429	161.45
340.641	83.63
340.854	75.43
341.066	22.19
341.278	167.59
341.491	34.47
341.703	59.05
341.915	38.57
342.128	54.95
342.34	63.15
342.552	57
342.764	20.14
342.977	46.76
343.189	-4.44
343.401	112.3
343.613	95.91
343.826	52.91
344.038	50.86
344.25	75.43
344.462	-2.39
344.674	97.96
344.886	67.24
345.099	44.71
345.311	89.77
345.523	112.3
345.735	65.19
345.947	89.77
346.159	-45.4
346.371	85.67
346.583	54.95
346.795	97.96
347.007	38.57
347.219	20.14
347.431	128.68
347.643	153.26
347.855	18.09
348.067	126.63
348.279	57
348.491	157.35
348.703	75.43
348.915	71.34
349.127	59.05
349.339	77.48
349.551	-49.49
349.763	61.1
349.975	71.34
350.187	145.06
350.399	114.34
350.61	97.96
350.822	63.15
351.034	69.29
351.246	46.76
351.458	81.58
351.669	83.63
351.881	93.87
352.093	79.53
352.305	147.11
352.517	61.1
352.728	79.53
352.94	63.15
353.152	71.34
353.363	87.72
353.575	77.48
353.787	59.05
353.999	93.87
354.21	132.78
354.422	71.34
354.633	48.81
354.845	40.62
355.057	75.43
355.268	1.71
355.48	130.73
355.692	71.34
355.903	32.43
356.115	40.62
356.326	38.57
356.538	95.91
356.749	59.05
356.961	71.34
357.172	130.73
357.384	-2.39
357.595	100.01
357.807	30.38
358.018	116.39
358.23	81.58
358.441	112.3
358.653	108.2
358.864	28.33
359.075	54.95
359.287	69.29
359.498	67.24
359.709	108.2
359.921	-6.49
360.132	30.38
360.344	9.9
360.555	95.91
360.766	97.96
360.977	71.34
361.189	28.33
361.4	32.43
361.611	126.63
361.823	100.01
362.034	46.76
362.245	-10.58
362.456	75.43
362.667	89.77
362.879	18.09
363.09	71.34
363.301	63.15
363.512	32.43
363.723	54.95
363.935	95.91
364.146	108.2
364.357	95.91
364.568	89.77
364.779	16.04
364.99	73.39
365.201	100.01
365.412	87.72
365.623	50.86
365.834	67.24
366.045	59.05
366.256	59.05
366.467	44.71
366.678	138.92
366.889	97.96
367.1	87.72
367.311	116.39
367.522	48.81
367.733	38.57
367.944	136.87
368.155	65.19
368.366	26.28
368.577	106.15
368.788	63.15
368.999	95.91
369.209	100.01
369.42	102.06
369.631	171.69
369.842	75.43
370.053	128.68
370.264	120.49
370.474	71.34
370.685	28.33
370.896	9.9
371.107	38.57
371.317	36.52
371.528	34.47
371.739	124.58
371.95	104.11
372.16	124.58
372.371	57
372.582	24.23
372.792	89.77
373.003	71.34
373.214	20.14
373.424	149.16
373.635	87.72
373.846	100.01
374.056	54.95
374.267	63.15
374.477	85.67
374.688	38.57
374.898	100.01
375.109	69.29
375.319	48.81
375.53	63.15
375.74	130.73
375.951	36.52
376.161	116.39
376.372	118.44
376.582	38.57
376.793	106.15
377.003	26.28
377.214	57
377.424	136.87
377.635	63.15
377.845	97.96
378.055	186.02
378.266	89.77
378.476	71.34
378.686	75.43
378.897	149.16
379.107	61.1
379.317	118.44
379.528	75.43
379.738	124.58
379.948	34.47
380.158	132.78
380.369	132.78
380.579	71.34
380.789	110.25
380.999	67.24
381.21	81.58
381.42	108.2
381.63	65.19
381.84	87.72
382.05	128.68
382.261	87.72
382.471	83.63
382.681	83.63
382.891	32.43
383.101	83.63
383.311	-47.44
383.521	89.77
383.731	83.63
383.941	83.63
384.151	116.39
384.361	34.47
384.571	106.15
384.781	114.34
384.991	126.63
385.201	147.11
385.411	102.06
385.621	18.09
385.831	77.48
386.041	91.82
386.251	89.77
386.461	114.34
386.671	104.11
386.881	81.58
387.091	122.54
387.301	71.34
387.511	114.34
387.72	91.82
387.93	114.34
388.14	71.34
388.35	83.63
388.56	87.72
388.769	114.34
388.979	89.77
389.189	104.11
389.399	52.91
389.609	153.26
389.818	83.63
390.028	67.24
390.238	159.4
390.447	100.01
390.657	108.2
390.867	138.92
391.076	28.33
391.286	149.16
391.496	81.58
391.705	16.04
391.915	69.29
392.125	110.25
392.334	122.54
392.544	118.44
392.753	73.39
392.963	116.39
393.172	206.5
393.382	128.68
393.591	179.88
393.801	102.06
394.01	171.69
394.22	110.25
394.429	149.16
394.639	118.44
394.848	136.87
395.058	153.26
395.267	83.63
395.477	134.82
395.686	91.82
395.895	122.54
396.105	161.45
396.314	167.59
396.524	136.87
396.733	130.73
396.942	149.16
397.152	100.01
397.361	214.7
397.57	114.34
397.78	128.68
397.989	222.89
398.198	175.78
398.407	132.78
398.617	118.44
398.826	138.92
399.035	165.54
399.244	110.25
399.453	153.26
399.663	140.97
399.872	153.26
400.081	175.78
400.29	247.46
400.499	136.87
400.708	165.54
400.917	181.93
401.127	177.83
401.336	159.4
401.545	255.65
401.754	161.45
401.963	132.78
402.172	126.63
402.381	122.54
402.59	157.35
402.799	241.32
403.008	222.89
403.217	155.3
403.426	196.26
403.635	190.12
403.844	204.46
404.053	224.94
404.262	192.17
404.471	302.76
404.68	190.12
404.888	226.98
405.097	222.89
405.306	249.51
405.515	286.37
405.724	200.36
405.933	339.62
406.142	286.37
406.35	308.9
406.559	235.18
406.768	313
406.977	360.1
407.185	267.94
407.394	251.56
407.603	241.32
407.812	274.09
408.02	333.48
408.229	337.57
408.438	358.05
408.646	304.81
408.855	356.01
409.064	409.25
409.272	399.01
409.481	431.78
409.69	394.92
409.898	366.25
410.107	513.7
410.315	495.27
410.524	497.32
410.733	562.85
410.941	454.31
411.15	505.51
411.358	542.37
411.567	624.29
411.775	622.24
411.984	554.66
412.192	644.77
412.401	661.15
412.609	767.65
412.818	710.3
413.026	790.17
413.234	781.98
413.443	755.36
413.651	816.8
413.86	841.37
414.068	865.95
414.276	941.72
414.485	894.62
414.693	1017.5
414.901	1080.99
415.11	1099.42
415.318	1054.36
415.526	1148.57
415.734	1169.05
415.943	1154.71
416.151	1207.96
416.359	1173.14
416.567	1330.84
416.776	1279.64
416.984	1423
417.192	1506.96
417.4	1392.28
417.608	1437.33
417.817	1496.72
418.025	1674.9
418.233	1765.01
418.441	1765.01
418.649	1838.73
418.857	1926.8
419.065	1945.23
419.273	1873.55
419.481	2014.86
419.689	2195.08
419.897	2244.23
420.105	2401.93
420.313	2279.05
420.521	2350.73
420.729	2434.69
420.937	2477.7
421.145	2590.34
421.353	2784.9
421.561	2997.88
421.769	2954.88
421.977	3053.18
422.185	3069.56
422.393	3282.55
422.601	3509.88
422.809	3413.62
423.017	3430.01
423.224	3659.38
423.432	3683.95
423.64	3716.72
423.848	4011.63
424.056	3921.52
424.263	4271.72
424.471	4310.63
424.679	4327.02
424.887	4638.31
425.094	4863.58
425.302	4781.67
425.51	4877.92
425.718	5144.16
425.925	5199.45
426.133	5301.85
426.341	5584.47
426.548	5932.62
426.756	5916.24
426.964	5979.73
427.171	6301.26
427.379	6438.47
427.586	6723.14
427.794	6645.32
428.001	7110.21
428.209	7390.78
428.417	7222.84
428.624	7988.78
428.832	7775.8
429.039	7743.03
429.247	7894.58
429.454	8521.26
429.662	9033.25
429.869	8461.87
430.076	9074.21
430.284	8816.16
430.491	9365.02
430.699	9885.2
430.906	9580.06
431.114	9786.9
431.321	10421.77
431.528	10427.92
431.736	11083.27
431.943	11372.03
432.15	11179.52
432.358	11531.77
432.565	12029.43
432.772	11863.54
432.979	12379.63
433.187	12756.46
433.394	12740.07
433.601	13694.43
433.808	13665.75
434.016	13643.23
434.223	14370.26
434.43	15130.05
434.637	14790.09
434.844	15916.47
435.052	16115.12
435.259	16018.87
435.466	15945.14
435.673	15805.88
435.88	17214.88
436.087	17694.11
436.294	17819.03
436.501	17401.25
436.708	17485.22
436.915	18253.2
437.122	19090.82
437.329	19023.24
437.537	19697.02
437.743	20215.16
437.95	19975.55
438.157	20927.85
438.364	21454.18
438.571	21521.76
438.778	21663.07
438.985	23727.42
439.192	22742.35
439.399	23338.31
439.606	22775.12
439.813	24337.72
440.02	25787.68
440.227	25138.48
440.433	25144.62
440.64	25908.51
440.847	25881.89
441.054	26432.79
441.261	28200.19
441.467	27700.48
441.674	27917.57
441.881	29218.03
442.088	28978.42
442.294	28871.92
442.501	29709.54
442.708	30080.22
442.914	31358.16
443.121	32560.31
443.328	31831.24
443.534	34118.82
443.741	33090.74
443.948	32502.97
444.154	35288.21
444.361	34716.82
444.568	35185.81
444.774	35009.68
444.981	35792.01
445.187	36459.65
445.394	37911.66
445.6	37536.88
445.807	40735.81
446.013	39285.84
446.22	39746.64
446.426	41565.23
446.633	41528.37
446.839	42658.85
447.046	41624.62
447.252	43443.22
447.459	43588.63
447.665	43226.14
447.871	45147.13
448.078	46967.77
448.284	44803.07
448.491	46089.2
448.697	47199.19
448.903	48507.85
449.11	48966.59
449.316	47770.58
449.522	48679.88
449.728	49826.74
449.935	50224.04
450.141	49585.08
450.347	51170.21
450.553	49558.45
450.76	50099.12
450.966	51202.97
451.172	50781.09
451.378	51631
451.584	51116.96
451.791	52106.13
451.997	52104.08
452.203	53105.54
452.409	52501.39
452.615	52501.39
452.821	50338.73
453.027	50328.49
453.233	52622.22
453.44	50174.89
453.646	51270.56
453.852	51293.08
454.058	51983.25
454.264	50070.45
454.47	51067.81
454.676	49974.19
454.882	51741.59
455.088	47313.88
455.294	48063.44
455.5	48647.11
455.705	48892.86
455.911	46916.57
456.117	46003.18
456.323	45634.55
456.529	43084.83
456.735	45089.79
456.941	43435.03
457.147	43201.56
457.352	41409.59
457.558	41178.17
457.764	41354.29
457.97	40811.58
458.176	39795.79
458.381	39552.08
458.587	38075.49
458.793	37459.06
458.999	35888.26
459.204	38505.57
459.41	37555.31
459.616	34737.3
459.821	35146.9
460.027	34856.09
460.233	34174.11
460.438	32459.96
460.644	33051.83
460.85	31442.12
461.055	31106.26
461.261	30733.53
461.466	28460.28
461.672	27528.45
461.878	29654.25
462.083	27854.08
462.289	27434.25
462.494	26815.76
462.7	25736.48
462.905	25396.52
463.111	25904.42
463.316	26017.05
463.522	25417
463.727	25793.83
463.932	25666.85
464.138	25044.27
464.343	25341.22
464.549	24595.76
464.754	25318.7
464.959	25244.97
465.165	24843.57
465.37	24114.49
465.575	23416.13
465.781	24184.12
465.986	24628.53
466.191	23590.21
466.397	23020.88
