Data from USB4F104151__43__10-23-05-268.txt Node

Date: Wed Mar 12 10:23:05 EDT 2025
User: louis
Spectrometer: USB4F10415
Trigger mode: 4
Integration Time (sec): 3.000000E-2
Scans to average: 1
Electric dark correction enabled: true
Nonlinearity correction enabled: false
Boxcar width: 0
XAxis mode: Wavelengths
Number of Pixels in Spectrum: 3648
>>>>>Begin Spectral Data<<<<<
178.204	-133.97
178.424	-133.97
178.644	-133.97
178.864	-90.96
179.084	-66.39
179.304	-37.72
179.524	48.3
179.744	-50
179.964	46.25
180.184	79.02
180.404	-37.72
180.624	5.29
180.844	11.43
181.064	-93.01
181.283	-9.05
181.503	-27.48
181.723	64.68
181.943	-68.44
182.163	33.96
182.383	-39.76
182.602	-2.9
182.822	-19.29
183.042	97.45
183.262	-47.96
183.482	-25.43
183.701	44.2
183.921	-4.95
184.141	-11.09
184.361	95.4
184.58	-29.52
184.8	-0.85
185.02	-21.33
185.239	68.78
185.459	27.82
185.679	42.15
185.898	-50
186.118	-19.29
186.338	-43.86
186.557	48.3
186.777	52.39
186.997	-56.15
187.216	-35.67
187.436	70.83
187.655	-15.19
187.875	54.44
188.095	48.3
188.314	52.39
188.534	56.49
188.753	-27.48
188.973	93.35
189.192	60.59
189.412	7.34
189.631	31.91
189.851	64.68
190.07	74.92
190.29	-37.72
190.509	38.06
190.729	27.82
190.948	54.44
191.168	36.01
191.387	11.43
191.607	-50
191.826	56.49
192.045	-4.95
192.265	23.72
192.484	-13.14
192.704	25.77
192.923	56.49
193.142	91.31
193.362	7.34
193.581	15.53
193.8	54.44
194.02	128.17
194.239	38.06
194.458	46.25
194.678	23.72
194.897	-17.24
195.116	60.59
195.335	134.31
195.555	11.43
195.774	64.68
195.993	27.82
196.212	-11.09
196.432	60.59
196.651	-50
196.87	-11.09
197.089	81.07
197.308	-15.19
197.528	25.77
197.747	-35.67
197.966	60.59
198.185	64.68
198.404	48.3
198.623	64.68
198.842	1.19
199.062	68.78
199.281	83.11
199.5	31.91
199.719	-9.05
199.938	5.29
200.157	79.02
200.376	97.45
200.595	23.72
200.814	36.01
201.033	13.48
201.252	21.67
201.471	33.96
201.69	-17.24
201.909	97.45
202.128	-21.33
202.347	122.02
202.566	38.06
202.785	5.29
203.004	-4.95
203.223	68.78
203.442	-4.95
203.661	36.01
203.879	-33.62
204.098	50.35
204.317	-21.33
204.536	36.01
204.755	38.06
204.974	66.73
205.193	15.53
205.411	46.25
205.63	13.48
205.849	66.73
206.068	31.91
206.287	7.34
206.505	64.68
206.724	13.48
206.943	-19.29
207.162	7.34
207.381	-9.05
207.599	38.06
207.818	29.87
208.037	81.07
208.255	15.53
208.474	46.25
208.693	79.02
208.911	-15.19
209.13	-11.09
209.349	27.82
209.567	11.43
209.786	87.21
210.005	21.67
210.223	-17.24
210.442	-25.43
210.661	76.97
210.879	72.87
211.098	-7
211.316	-29.52
211.535	36.01
211.753	68.78
211.972	3.24
212.191	15.53
212.409	54.44
212.628	5.29
212.846	42.15
213.065	40.11
213.283	48.3
213.502	21.67
213.72	13.48
213.938	17.58
214.157	42.15
214.375	38.06
214.594	70.83
214.812	76.97
215.031	56.49
215.249	25.77
215.467	-54.1
215.686	31.91
215.904	42.15
216.122	31.91
216.341	-82.77
216.559	5.29
216.778	19.63
216.996	5.29
217.214	64.68
217.432	-95.06
217.651	27.82
217.869	83.11
218.087	-17.24
218.306	74.92
218.524	68.78
218.742	-19.29
218.96	23.72
219.179	38.06
219.397	58.54
219.615	13.48
219.833	5.29
220.051	48.3
220.27	81.07
220.488	-17.24
220.706	58.54
220.924	29.87
221.142	-33.62
221.36	-9.05
221.578	11.43
221.796	-0.85
222.015	54.44
222.233	31.91
222.451	19.63
222.669	5.29
222.887	103.59
223.105	-58.2
223.323	66.73
223.541	-29.52
223.759	23.72
223.977	5.29
224.195	42.15
224.413	64.68
224.631	62.63
224.849	-2.9
225.067	23.72
225.285	-72.53
225.503	36.01
225.721	1.19
225.939	31.91
226.157	21.67
226.375	48.3
226.592	25.77
226.81	99.5
227.028	21.67
227.246	115.88
227.464	-9.05
227.682	109.74
227.9	62.63
228.117	-72.53
228.335	21.67
228.553	-62.29
228.771	42.15
228.989	25.77
229.206	-17.24
229.424	-9.05
229.642	64.68
229.86	83.11
230.077	130.22
230.295	-4.95
230.513	-13.14
230.731	21.67
230.948	29.87
231.166	160.94
231.384	7.34
231.601	40.11
231.819	9.39
232.037	136.36
232.254	-4.95
232.472	40.11
232.689	25.77
232.907	46.25
233.125	5.29
233.342	152.74
233.56	40.11
233.777	70.83
233.995	42.15
234.213	66.73
234.43	97.45
234.648	-52.05
234.865	7.34
235.083	87.21
235.3	70.83
235.518	40.11
235.735	56.49
235.953	87.21
236.17	46.25
236.388	-11.09
236.605	46.25
236.822	68.78
237.04	68.78
237.257	44.2
237.475	5.29
237.692	44.2
237.909	54.44
238.127	23.72
238.344	97.45
238.562	15.53
238.779	-50
238.996	-33.62
239.214	19.63
239.431	105.64
239.648	79.02
239.865	64.68
240.083	48.3
240.3	23.72
240.517	-43.86
240.735	154.79
240.952	-35.67
241.169	48.3
241.386	40.11
241.603	13.48
241.821	29.87
242.038	54.44
242.255	31.91
242.472	21.67
242.689	7.34
242.907	89.26
243.124	36.01
243.341	58.54
243.558	1.19
243.775	-15.19
243.992	72.87
244.209	11.43
244.426	54.44
244.643	58.54
244.86	3.24
245.078	15.53
245.295	38.06
245.512	25.77
245.729	70.83
245.946	3.24
246.163	81.07
246.38	48.3
246.597	-54.1
246.814	15.53
247.031	15.53
247.248	89.26
247.464	54.44
247.681	25.77
247.898	72.87
248.115	91.31
248.332	-21.33
248.549	44.2
248.766	-2.9
248.983	-0.85
249.2	27.82
249.417	48.3
249.633	-19.29
249.85	70.83
250.067	-43.86
250.284	5.29
250.501	85.16
250.717	54.44
250.934	9.39
251.151	-2.9
251.368	21.67
251.585	23.72
251.801	-2.9
252.018	58.54
252.235	79.02
252.451	3.24
252.668	-2.9
252.885	68.78
253.102	17.58
253.318	76.97
253.535	-4.95
253.752	99.5
253.968	-23.38
254.185	-0.85
254.401	5.29
254.618	64.68
254.835	31.91
255.051	70.83
255.268	-23.38
255.484	79.02
255.701	15.53
255.917	124.07
256.134	-29.52
256.351	15.53
256.567	7.34
256.784	-101.2
257	-0.85
257.217	38.06
257.433	62.63
257.65	62.63
257.866	36.01
258.082	23.72
258.299	31.91
258.515	-23.38
258.732	56.49
258.948	62.63
259.165	60.59
259.381	56.49
259.597	29.87
259.814	54.44
260.03	95.4
260.246	113.83
260.463	97.45
260.679	27.82
260.895	79.02
261.112	44.2
261.328	7.34
261.544	23.72
261.761	115.88
261.977	27.82
262.193	-64.34
262.409	-0.85
262.626	62.63
262.842	33.96
263.058	19.63
263.274	103.59
263.49	103.59
263.707	-0.85
263.923	23.72
264.139	-54.1
264.355	97.45
264.571	-25.43
264.787	27.82
265.004	72.87
265.22	40.11
265.436	15.53
265.652	7.34
265.868	13.48
266.084	13.48
266.3	11.43
266.516	-0.85
266.732	-43.86
266.948	19.63
267.164	-4.95
267.38	50.35
267.596	66.73
267.812	27.82
268.028	-0.85
268.244	-21.33
268.46	119.98
268.676	68.78
268.892	44.2
269.108	13.48
269.324	19.63
269.54	1.19
269.756	111.78
269.972	27.82
270.188	111.78
270.403	3.24
270.619	79.02
270.835	15.53
271.051	72.87
271.267	27.82
271.483	-4.95
271.698	76.97
271.914	107.69
272.13	70.83
272.346	81.07
272.562	5.29
272.777	79.02
272.993	36.01
273.209	27.82
273.425	72.87
273.64	15.53
273.856	7.34
274.072	38.06
274.287	-21.33
274.503	44.2
274.719	3.24
274.934	23.72
275.15	-39.76
275.366	113.83
275.581	40.11
275.797	64.68
276.012	-4.95
276.228	-11.09
276.444	89.26
276.659	70.83
276.875	-90.96
277.09	66.73
277.306	44.2
277.521	31.91
277.737	-27.48
277.952	29.87
278.168	50.35
278.383	50.35
278.599	36.01
278.814	33.96
279.03	40.11
279.245	122.02
279.461	-70.48
279.676	23.72
279.892	-23.38
280.107	36.01
280.322	-76.63
280.538	23.72
280.753	-43.86
280.969	-41.81
281.184	19.63
281.399	-13.14
281.615	-17.24
281.83	81.07
282.045	-9.05
282.26	50.35
282.476	-35.67
282.691	17.58
282.906	40.11
283.122	68.78
283.337	-9.05
283.552	56.49
283.767	5.29
283.983	64.68
284.198	9.39
284.413	27.82
284.628	-33.62
284.843	72.87
285.058	-2.9
285.274	44.2
285.489	-0.85
285.704	79.02
285.919	60.59
286.134	-2.9
286.349	46.25
286.564	15.53
286.779	72.87
286.995	23.72
287.21	-74.58
287.425	81.07
287.64	48.3
287.855	48.3
288.07	-88.92
288.285	89.26
288.5	-4.95
288.715	74.92
288.93	38.06
289.145	23.72
289.36	89.26
289.575	13.48
289.79	89.26
290.004	60.59
290.219	27.82
290.434	54.44
290.649	23.72
290.864	46.25
291.079	76.97
291.294	56.49
291.509	19.63
291.724	64.68
291.938	79.02
292.153	124.07
292.368	-25.43
292.583	23.72
292.798	-54.1
293.012	5.29
293.227	42.15
293.442	5.29
293.657	19.63
293.871	62.63
294.086	56.49
294.301	42.15
294.516	42.15
294.73	40.11
294.945	-93.01
295.16	1.19
295.374	52.39
295.589	89.26
295.804	-2.9
296.018	-0.85
296.233	105.64
296.447	54.44
296.662	64.68
296.877	144.55
297.091	-4.95
297.306	62.63
297.52	38.06
297.735	40.11
297.949	9.39
298.164	-17.24
298.378	-11.09
298.593	-9.05
298.807	-25.43
299.022	3.24
299.236	44.2
299.451	-39.76
299.665	27.82
299.88	44.2
300.094	70.83
300.309	25.77
300.523	13.48
300.737	56.49
300.952	36.01
301.166	7.34
301.381	-11.09
301.595	1.19
301.809	-9.05
302.024	13.48
302.238	-9.05
302.452	89.26
302.667	38.06
302.881	85.16
303.095	17.58
303.309	33.96
303.524	33.96
303.738	48.3
303.952	27.82
304.166	68.78
304.381	15.53
304.595	38.06
304.809	7.34
305.023	25.77
305.237	27.82
305.452	-0.85
305.666	76.97
305.88	52.39
306.094	89.26
306.308	83.11
306.522	48.3
306.736	89.26
306.95	95.4
307.164	76.97
307.379	36.01
307.593	76.97
307.807	134.31
308.021	56.49
308.235	85.16
308.449	1.19
308.663	-13.14
308.877	79.02
309.091	-13.14
309.305	38.06
309.519	40.11
309.733	7.34
309.947	15.53
310.161	3.24
310.374	7.34
310.588	11.43
310.802	1.19
311.016	142.5
311.23	5.29
311.444	15.53
311.658	79.02
311.872	-47.96
312.085	40.11
312.299	68.78
312.513	105.64
312.727	17.58
312.941	-0.85
313.154	68.78
313.368	54.44
313.582	66.73
313.796	101.55
314.009	-21.33
314.223	27.82
314.437	40.11
314.651	23.72
314.864	23.72
315.078	11.43
315.292	85.16
315.505	-4.95
315.719	-0.85
315.933	142.5
316.146	50.35
316.36	7.34
316.573	72.87
316.787	119.98
317.001	76.97
317.214	-0.85
317.428	-4.95
317.641	17.58
317.855	-35.67
318.068	87.21
318.282	87.21
318.495	60.59
318.709	97.45
318.922	-11.09
319.136	89.26
319.349	38.06
319.563	89.26
319.776	23.72
319.99	11.43
320.203	48.3
320.417	5.29
320.63	58.54
320.843	62.63
321.057	23.72
321.27	60.59
321.483	81.07
321.697	15.53
321.91	9.39
322.124	58.54
322.337	52.39
322.55	83.11
322.763	126.12
322.977	46.25
323.19	62.63
323.403	-31.57
323.617	-29.52
323.83	29.87
324.043	-35.67
324.256	-0.85
324.469	-0.85
324.683	101.55
324.896	11.43
325.109	42.15
325.322	-15.19
325.535	7.34
325.748	27.82
325.962	-0.85
326.175	-17.24
326.388	97.45
326.601	23.72
326.814	-4.95
327.027	72.87
327.24	70.83
327.453	-9.05
327.666	31.91
327.879	-9.05
328.092	72.87
328.305	113.83
328.518	21.67
328.731	3.24
328.944	52.39
329.157	50.35
329.37	54.44
329.583	54.44
329.796	89.26
330.009	33.96
330.222	40.11
330.435	38.06
330.648	5.29
330.861	95.4
331.073	52.39
331.286	50.35
331.499	38.06
331.712	68.78
331.925	33.96
332.138	46.25
332.35	109.74
332.563	-11.09
332.776	99.5
332.989	7.34
333.202	21.67
333.414	31.91
333.627	15.53
333.84	31.91
334.053	74.92
334.265	31.91
334.478	89.26
334.691	70.83
334.903	15.53
335.116	3.24
335.329	42.15
335.541	7.34
335.754	15.53
335.966	-60.24
336.179	-0.85
336.392	19.63
336.604	9.39
336.817	40.11
337.029	62.63
337.242	48.3
337.454	85.16
337.667	56.49
337.88	62.63
338.092	33.96
338.305	58.54
338.517	52.39
338.729	42.15
338.942	23.72
339.154	42.15
339.367	54.44
339.579	13.48
339.792	23.72
340.004	44.2
340.217	-9.05
340.429	56.49
340.641	83.11
340.854	13.48
341.066	52.39
341.278	31.91
341.491	7.34
341.703	85.16
341.915	72.87
342.128	64.68
342.34	-29.52
342.552	-9.05
342.764	3.24
342.977	5.29
343.189	48.3
343.401	68.78
343.613	-19.29
343.826	56.49
344.038	27.82
344.25	21.67
344.462	7.34
344.674	48.3
344.886	56.49
345.099	19.63
345.311	85.16
345.523	70.83
345.735	9.39
345.947	72.87
346.159	44.2
346.371	27.82
346.583	101.55
346.795	40.11
347.007	79.02
347.219	36.01
347.431	31.91
347.643	64.68
347.855	15.53
348.067	99.5
348.279	7.34
348.491	44.2
348.703	44.2
348.915	68.78
349.127	-4.95
349.339	-31.57
349.551	23.72
349.763	13.48
349.975	-0.85
350.187	113.83
350.399	134.31
350.61	60.59
350.822	97.45
351.034	5.29
351.246	126.12
351.458	19.63
351.669	60.59
351.881	-47.96
352.093	130.22
352.305	36.01
352.517	56.49
352.728	46.25
352.94	56.49
353.152	-60.24
353.363	15.53
353.575	21.67
353.787	11.43
353.999	62.63
354.21	68.78
354.422	52.39
354.633	56.49
354.845	-0.85
355.057	27.82
355.268	87.21
355.48	-9.05
355.692	40.11
355.903	27.82
356.115	19.63
356.326	-17.24
356.538	48.3
356.749	66.73
356.961	38.06
357.172	74.92
357.384	31.91
357.595	64.68
357.807	36.01
358.018	21.67
358.23	56.49
358.441	72.87
358.653	7.34
358.864	97.45
359.075	62.63
359.287	107.69
359.498	89.26
359.709	46.25
359.921	46.25
360.132	72.87
360.344	42.15
360.555	38.06
360.766	64.68
360.977	115.88
361.189	107.69
361.4	58.54
361.611	62.63
361.823	19.63
362.034	101.55
362.245	36.01
362.456	101.55
362.667	119.98
362.879	-43.86
363.09	5.29
363.301	48.3
363.512	-2.9
363.723	23.72
363.935	44.2
364.146	19.63
364.357	-4.95
364.568	60.59
364.779	62.63
364.99	7.34
365.201	74.92
365.412	44.2
365.623	-58.2
365.834	89.26
366.045	44.2
366.256	113.83
366.467	38.06
366.678	-19.29
366.889	52.39
367.1	85.16
367.311	31.91
367.522	-41.81
367.733	74.92
367.944	97.45
368.155	46.25
368.366	72.87
368.577	66.73
368.788	60.59
368.999	-21.33
369.209	58.54
369.42	76.97
369.631	113.83
369.842	64.68
370.053	40.11
370.264	97.45
370.474	93.35
370.685	19.63
370.896	95.4
371.107	31.91
371.317	91.31
371.528	48.3
371.739	33.96
371.95	31.91
372.16	52.39
372.371	62.63
372.582	17.58
372.792	21.67
373.003	58.54
373.214	70.83
373.424	91.31
373.635	60.59
373.846	185.51
374.056	13.48
374.267	66.73
374.477	5.29
374.688	89.26
374.898	68.78
375.109	48.3
375.319	44.2
375.53	27.82
375.74	66.73
375.951	64.68
376.161	33.96
376.372	5.29
376.582	74.92
376.793	52.39
377.003	101.55
377.214	42.15
377.424	38.06
377.635	128.17
377.845	40.11
378.055	105.64
378.266	68.78
378.476	48.3
378.686	-9.05
378.897	48.3
379.107	33.96
379.317	154.79
379.528	58.54
379.738	156.84
379.948	-7
380.158	60.59
380.369	11.43
380.579	33.96
380.789	46.25
380.999	27.82
381.21	76.97
381.42	48.3
381.63	62.63
381.84	79.02
382.05	15.53
382.261	93.35
382.471	27.82
382.681	87.21
382.891	109.74
383.101	93.35
383.311	79.02
383.521	31.91
383.731	60.59
383.941	79.02
384.151	103.59
384.361	-9.05
384.571	85.16
384.781	66.73
384.991	29.87
385.201	52.39
385.411	126.12
385.621	93.35
385.831	79.02
386.041	66.73
386.251	36.01
386.461	40.11
386.671	89.26
386.881	89.26
387.091	-25.43
387.301	91.31
387.511	58.54
387.72	103.59
387.93	7.34
388.14	33.96
388.35	79.02
388.56	64.68
388.769	105.64
388.979	38.06
389.189	19.63
389.399	107.69
389.609	64.68
389.818	81.07
390.028	27.82
390.238	89.26
390.447	40.11
390.657	46.25
390.867	60.59
391.076	-56.15
391.286	74.92
391.496	29.87
391.705	31.91
391.915	83.11
392.125	122.02
392.334	89.26
392.544	76.97
392.753	56.49
392.963	48.3
393.172	15.53
393.382	89.26
393.591	160.94
393.801	115.88
394.01	158.89
394.22	154.79
394.429	27.82
394.639	68.78
394.848	91.31
395.058	-0.85
395.267	7.34
395.477	66.73
395.686	95.4
395.895	171.18
396.105	130.22
396.314	89.26
396.524	156.84
396.733	85.16
396.942	79.02
397.152	66.73
397.361	132.26
397.57	105.64
397.78	79.02
397.989	70.83
398.198	177.32
398.407	74.92
398.617	113.83
398.826	97.45
399.035	81.07
399.244	130.22
399.453	62.63
399.663	109.74
399.872	146.6
400.081	70.83
400.29	160.94
400.499	105.64
400.708	140.46
400.917	64.68
401.127	62.63
401.336	156.84
401.545	146.6
401.754	222.38
401.963	132.26
402.172	91.31
402.381	189.61
402.59	85.16
402.799	160.94
403.008	165.03
403.217	150.7
403.426	119.98
403.635	113.83
403.844	160.94
404.053	113.83
404.262	150.7
404.471	183.46
404.68	134.31
404.888	199.85
405.097	220.33
405.306	130.22
405.515	122.02
405.724	107.69
405.933	234.66
406.142	289.96
406.35	277.67
406.559	273.57
406.768	169.13
406.977	236.71
407.185	222.38
407.394	232.62
407.603	142.5
407.812	232.62
408.02	347.3
408.229	218.28
408.438	341.16
408.646	208.04
408.855	308.39
409.064	294.05
409.272	253.09
409.481	281.77
409.69	224.42
409.898	259.24
410.107	386.21
410.315	335.01
410.524	306.34
410.733	281.77
410.941	300.2
411.15	382.12
411.358	408.74
411.567	412.84
411.775	449.7
411.984	466.08
412.192	548
412.401	474.28
412.609	486.56
412.818	613.54
413.026	550.05
413.234	584.87
413.443	595.11
413.651	605.35
413.86	605.35
414.068	666.78
414.276	722.08
414.485	668.83
414.693	674.98
414.901	847.01
415.11	789.66
415.318	746.66
415.526	720.03
415.734	816.29
415.943	890.01
416.151	849.05
416.359	908.44
416.567	935.07
416.776	1068.19
416.984	978.08
417.192	1164.44
417.4	1035.42
417.608	1117.34
417.817	1133.72
418.025	1162.39
418.233	1309.85
418.441	1246.36
418.649	1338.52
418.857	1449.11
419.065	1473.68
419.273	1399.96
419.481	1528.98
419.689	1625.23
419.897	1621.14
420.105	1676.43
420.313	1789.07
420.521	1780.88
420.729	1893.52
420.937	1850.51
421.145	1924.24
421.353	1926.29
421.561	2116.75
421.769	2057.36
421.977	2223.24
422.185	2274.44
422.393	2348.17
422.601	2608.26
422.809	2403.46
423.017	2479.24
423.224	2712.71
423.432	2669.7
423.64	2722.95
423.848	2921.6
424.056	2950.27
424.263	3173.5
424.471	3044.48
424.679	3069.05
424.887	3361.91
425.094	3452.02
425.302	3429.49
425.51	3632.24
425.718	3796.08
425.925	3767.41
426.133	3828.85
426.341	4056.17
426.548	4215.91
426.756	4297.83
426.964	4310.12
427.171	4639.84
427.379	4660.32
427.586	4893.79
427.794	4873.31
428.001	5162.08
428.209	5456.98
428.417	5196.89
428.624	5602.39
428.832	5586.01
429.039	5606.49
429.247	5743.7
429.454	6149.2
429.662	6552.65
429.869	6200.4
430.076	6503.5
430.284	6317.13
430.491	6648.9
430.699	7126.08
430.906	7257.15
431.114	7218.24
431.321	7294.01
431.528	7513.14
431.736	7867.44
431.943	8338.48
432.15	8010.8
432.358	8178.73
432.565	8784.93
432.772	8559.66
432.979	9126.94
433.187	9294.88
433.394	9247.77
433.601	9909.27
433.808	9843.73
434.016	9958.42
434.223	10241.04
434.43	10908.68
434.637	10824.71
434.844	11252.73
435.052	11561.98
435.259	11475.96
435.466	11590.65
435.673	11449.34
435.88	12164.08
436.087	12784.62
436.294	12913.64
436.501	12418.03
436.708	12891.11
436.915	13063.14
437.122	13765.59
437.329	13675.48
437.537	14140.37
437.743	14445.52
437.95	14365.65
438.157	14900.17
438.364	15373.25
438.571	15375.3
438.778	15633.34
438.985	17073.06
439.192	16647.08
439.399	16931.75
439.606	16425.9
439.813	17331.11
440.02	18492.3
440.227	18041.75
440.433	17947.54
440.64	18469.78
440.847	18539.41
441.054	18822.03
441.261	20296.56
441.467	19729.28
441.674	20466.55
441.881	20935.53
442.088	21027.69
442.294	20781.93
442.501	21406.56
442.708	21803.87
442.914	22367.06
443.121	23663.43
443.328	22930.25
443.534	24353.59
443.741	23870.27
443.948	23376.71
444.154	25260.84
444.361	24881.97
444.568	24961.84
444.774	25078.57
444.981	25594.66
445.187	26245.91
445.394	27392.78
445.6	26723.09
445.807	29113.07
446.013	28467.96
446.22	28613.37
446.426	29481.7
446.633	29969.12
446.839	30741.21
447.046	29514.47
447.252	31535.82
447.459	31064.78
447.665	30991.06
447.871	32490.17
448.078	33954.47
448.284	32268.99
448.491	32930.48
448.697	34171.55
448.903	34898.58
449.11	34783.9
449.316	34337.44
449.522	34980.5
449.728	36037.25
449.935	36252.29
450.141	36096.64
450.347	37331.57
450.553	35521.16
450.76	36180.61
450.966	37130.87
451.172	37235.31
451.378	37864.04
451.584	36838.01
451.791	37552.75
451.997	37225.07
452.203	38056.55
452.409	37915.24
452.615	37966.44
452.821	36393.6
453.027	36080.26
453.233	37888.62
453.44	36242.05
453.646	36553.34
453.852	36940.41
454.058	37739.11
454.264	36123.27
454.47	36774.52
454.676	36225.67
454.882	37522.03
455.088	34073.25
455.294	34878.1
455.5	34675.35
455.705	35578.51
455.911	33872.55
456.117	33069.75
456.323	32484.03
456.529	30782.16
456.735	32318.14
456.941	31410.89
457.147	30778.07
457.352	30067.42
457.558	29457.13
457.764	29696.74
457.97	29070.06
458.176	28560.12
458.381	28568.31
458.587	27032.33
458.793	27122.44
458.999	25643.81
459.204	27505.41
459.41	26878.74
459.616	24920.88
459.821	24947.5
460.027	24963.89
460.233	24714.03
460.438	23192.39
460.644	23716.67
460.85	22455.12
461.055	21980
461.261	22158.17
461.466	20294.52
461.672	20231.03
461.878	21128.04
462.083	19819.39
462.289	19753.85
462.494	19200.9
462.7	18416.53
462.905	17929.11
463.111	18588.56
463.316	18801.55
463.522	18178.97
463.727	18160.53
463.932	18123.67
464.138	18115.48
464.343	18113.43
464.549	17488.8
464.754	18113.43
464.959	17879.96
465.165	18058.14
465.37	17408.93
465.575	16772.01
465.781	17511.33
465.986	17501.09
466.191	16815.02
466.397	16511.92
466.602	15895.48
466.807	16452.53
467.012	16155.57
467.218	16182.2
467.423	15981.49
467.628	16112.56
