Data from USB4F104151__265__10-40-20-334.txt Node

Date: Wed Mar 12 10:40:20 EDT 2025
User: louis
Spectrometer: USB4F10415
Trigger mode: 4
Integration Time (sec): 3.000000E-2
Scans to average: 1
Electric dark correction enabled: true
Nonlinearity correction enabled: false
Boxcar width: 0
XAxis mode: Wavelengths
Number of Pixels in Spectrum: 3648
>>>>>Begin Spectral Data<<<<<
178.204	-86.19
178.424	-86.19
178.644	-86.19
178.864	-180.39
179.084	-174.25
179.304	-43.18
179.524	-12.46
179.744	-51.37
179.964	46.93
180.184	69.46
180.404	-37.03
180.624	-10.41
180.844	16.21
181.064	-24.75
181.283	22.36
181.503	-14.51
181.723	38.74
181.943	-71.85
182.163	102.23
182.383	-28.84
182.602	75.6
182.822	51.03
183.042	42.84
183.262	5.97
183.482	-18.6
183.701	55.12
183.921	14.17
184.141	12.12
184.361	12.12
184.58	40.79
184.8	22.36
185.02	75.6
185.239	40.79
185.459	8.02
185.679	22.36
185.898	5.97
186.118	104.28
186.338	44.88
186.557	22.36
186.777	51.03
186.997	-30.89
187.216	55.12
187.436	87.89
187.655	175.95
187.875	186.19
188.095	-10.41
188.314	22.36
188.534	87.89
188.753	38.74
188.973	71.51
189.192	85.84
189.412	26.45
189.631	73.56
189.851	75.6
190.07	44.88
190.29	-10.41
190.509	-8.36
190.729	71.51
190.948	79.7
191.168	161.62
191.387	38.74
191.607	38.74
191.826	38.74
192.045	89.94
192.265	30.55
192.484	67.41
192.704	40.79
192.923	-20.65
193.142	128.85
193.362	28.5
193.581	89.94
193.8	26.45
194.02	51.03
194.239	22.36
194.458	100.18
194.678	22.36
194.897	73.56
195.116	20.31
195.335	16.21
195.555	36.69
195.774	63.32
195.993	48.98
196.212	167.76
196.432	-22.7
196.651	44.88
196.87	46.93
197.089	65.36
197.308	69.46
197.528	61.27
197.747	12.12
197.966	18.26
198.185	46.93
198.404	87.89
198.623	-8.36
198.842	20.31
199.062	100.18
199.281	40.79
199.5	14.17
199.719	59.22
199.938	135
200.157	-20.65
200.376	73.56
200.595	51.03
200.814	112.47
201.033	67.41
201.252	46.93
201.471	61.27
201.69	69.46
201.909	63.32
202.128	48.98
202.347	61.27
202.566	75.6
202.785	83.8
203.004	32.6
203.223	89.94
203.442	75.6
203.661	44.88
203.879	46.93
204.098	100.18
204.317	30.55
204.536	67.41
204.755	36.69
204.974	87.89
205.193	57.17
205.411	132.95
205.63	106.32
205.849	69.46
206.068	87.89
206.287	-0.17
206.505	63.32
206.724	28.5
206.943	57.17
207.162	48.98
207.381	51.03
207.599	59.22
207.818	61.27
208.037	53.08
208.255	81.75
208.474	135
208.693	53.08
208.911	110.42
209.13	114.52
209.349	51.03
209.567	67.41
209.786	61.27
210.005	75.6
210.223	-4.27
210.442	22.36
210.661	73.56
210.879	20.31
211.098	32.6
211.316	22.36
211.535	59.22
211.753	71.51
211.972	116.56
212.191	1.88
212.409	26.45
212.628	22.36
212.846	79.7
213.065	104.28
213.283	104.28
213.502	-2.22
213.72	36.69
213.938	91.99
214.157	42.84
214.375	-10.41
214.594	24.4
214.812	104.28
215.031	12.12
215.249	53.08
215.467	38.74
215.686	44.88
215.904	12.12
216.122	53.08
216.341	106.32
216.559	34.64
216.778	85.84
216.996	32.6
217.214	32.6
217.432	-80.04
217.651	75.6
217.869	16.21
218.087	73.56
218.306	22.36
218.524	26.45
218.742	-14.51
218.96	75.6
219.179	28.5
219.397	67.41
219.615	108.37
219.833	81.75
220.051	77.65
220.27	83.8
220.488	147.28
220.706	69.46
220.924	34.64
221.142	46.93
221.36	26.45
221.578	44.88
221.796	161.62
222.015	87.89
222.233	114.52
222.451	104.28
222.669	30.55
222.887	63.32
223.105	28.5
223.323	59.22
223.541	71.51
223.759	104.28
223.977	59.22
224.195	63.32
224.413	106.32
224.631	61.27
224.849	81.75
225.067	79.7
225.285	38.74
225.503	-4.27
225.721	-59.56
225.939	20.31
226.157	73.56
226.375	67.41
226.592	-2.22
226.81	26.45
227.028	32.6
227.246	96.08
227.464	-24.75
227.682	34.64
227.9	46.93
228.117	75.6
228.335	48.98
228.553	55.12
228.771	161.62
228.989	108.37
229.206	87.89
229.424	14.17
229.642	-8.36
229.86	65.36
230.077	108.37
230.295	14.17
230.513	102.23
230.731	34.64
230.948	48.98
231.166	98.13
231.384	8.02
231.601	48.98
231.819	-26.79
232.037	89.94
232.254	14.17
232.472	26.45
232.689	-34.99
232.907	143.19
233.125	-10.41
233.342	55.12
233.56	53.08
233.777	-8.36
233.995	20.31
234.213	75.6
234.43	79.7
234.648	81.75
234.865	-34.99
235.083	51.03
235.3	126.8
235.518	30.55
235.735	98.13
235.953	135
236.17	-77.99
236.388	22.36
236.605	-30.89
236.822	79.7
237.04	28.5
237.257	63.32
237.475	-0.17
237.692	30.55
237.909	77.65
238.127	98.13
238.344	69.46
238.562	83.8
238.779	22.36
238.996	30.55
239.214	59.22
239.431	1.88
239.648	20.31
239.865	104.28
240.083	61.27
240.3	65.36
240.517	63.32
240.735	87.89
240.952	59.22
241.169	22.36
241.386	59.22
241.603	59.22
241.821	44.88
242.038	104.28
242.255	94.04
242.472	34.64
242.689	32.6
242.907	79.7
243.124	73.56
243.341	98.13
243.558	57.17
243.775	-0.17
243.992	-24.75
244.209	85.84
244.426	110.42
244.643	51.03
244.86	24.4
245.078	51.03
245.295	42.84
245.512	44.88
245.729	-8.36
245.946	116.56
246.163	75.6
246.38	10.07
246.597	18.26
246.814	73.56
247.031	10.07
247.248	69.46
247.464	46.93
247.681	79.7
247.898	53.08
248.115	18.26
248.332	46.93
248.549	91.99
248.766	108.37
248.983	53.08
249.2	5.97
249.417	67.41
249.633	36.69
249.85	46.93
250.067	20.31
250.284	71.51
250.501	81.75
250.717	69.46
250.934	26.45
251.151	-10.41
251.368	94.04
251.585	79.7
251.801	91.99
252.018	91.99
252.235	34.64
252.451	42.84
252.668	44.88
252.885	91.99
253.102	69.46
253.318	36.69
253.535	85.84
253.752	-92.33
253.968	38.74
254.185	42.84
254.401	16.21
254.618	59.22
254.835	-6.31
255.051	98.13
255.268	57.17
255.484	98.13
255.701	63.32
255.917	85.84
256.134	5.97
256.351	83.8
256.567	-2.22
256.784	75.6
257	1.88
257.217	40.79
257.433	126.8
257.65	-49.32
257.866	36.69
258.082	65.36
258.299	-37.03
258.515	73.56
258.732	-4.27
258.948	30.55
259.165	94.04
259.381	53.08
259.597	34.64
259.814	46.93
260.03	-2.22
260.246	59.22
260.463	36.69
260.679	91.99
260.895	91.99
261.112	81.75
261.328	94.04
261.544	67.41
261.761	79.7
261.977	-16.55
262.193	26.45
262.409	89.94
262.626	22.36
262.842	104.28
263.058	30.55
263.274	89.94
263.49	85.84
263.707	77.65
263.923	102.23
264.139	63.32
264.355	46.93
264.571	53.08
264.787	38.74
265.004	77.65
265.22	81.75
265.436	10.07
265.652	65.36
265.868	57.17
266.084	26.45
266.3	38.74
266.516	22.36
266.732	75.6
266.948	42.84
267.164	36.69
267.38	48.98
267.596	57.17
267.812	132.95
268.028	46.93
268.244	44.88
268.46	132.95
268.676	55.12
268.892	102.23
269.108	46.93
269.324	-41.13
269.54	10.07
269.756	106.32
269.972	67.41
270.188	26.45
270.403	-28.84
270.619	18.26
270.835	26.45
271.051	5.97
271.267	75.6
271.483	42.84
271.698	100.18
271.914	75.6
272.13	48.98
272.346	42.84
272.562	116.56
272.777	55.12
272.993	-12.46
273.209	73.56
273.425	32.6
273.64	-57.51
273.856	67.41
274.072	38.74
274.287	22.36
274.503	8.02
274.719	26.45
274.934	53.08
275.15	65.36
275.366	59.22
275.581	100.18
275.797	5.97
276.012	69.46
276.228	83.8
276.444	51.03
276.659	67.41
276.875	16.21
277.09	51.03
277.306	12.12
277.521	71.51
277.737	83.8
277.952	77.65
278.168	46.93
278.383	118.61
278.599	87.89
278.814	32.6
279.03	96.08
279.245	79.7
279.461	73.56
279.676	85.84
279.892	3.93
280.107	3.93
280.322	20.31
280.538	77.65
280.753	32.6
280.969	24.4
281.184	22.36
281.399	69.46
281.615	81.75
281.83	96.08
282.045	14.17
282.26	-20.65
282.476	61.27
282.691	128.85
282.906	67.41
283.122	20.31
283.337	3.93
283.552	126.8
283.767	-26.79
283.983	53.08
284.198	14.17
284.413	75.6
284.628	-43.18
284.843	57.17
285.058	65.36
285.274	-37.03
285.489	32.6
285.704	44.88
285.919	14.17
286.134	32.6
286.349	65.36
286.564	96.08
286.779	120.66
286.995	10.07
287.21	-32.94
287.425	48.98
287.64	42.84
287.855	81.75
288.07	10.07
288.285	132.95
288.5	32.6
288.715	40.79
288.93	18.26
289.145	38.74
289.36	71.51
289.575	79.7
289.79	1.88
290.004	77.65
290.219	122.71
290.434	42.84
290.649	22.36
290.864	67.41
291.079	20.31
291.294	63.32
291.509	42.84
291.724	53.08
291.938	48.98
292.153	69.46
292.368	30.55
292.583	167.76
292.798	1.88
293.012	51.03
293.227	96.08
293.442	51.03
293.657	20.31
293.871	128.85
294.086	61.27
294.301	120.66
294.516	30.55
294.73	83.8
294.945	28.5
295.16	57.17
295.374	67.41
295.589	71.51
295.804	55.12
296.018	79.7
296.233	108.37
296.447	91.99
296.662	63.32
296.877	87.89
297.091	61.27
297.306	116.56
297.52	77.65
297.735	59.22
297.949	30.55
298.164	3.93
298.378	55.12
298.593	3.93
298.807	73.56
299.022	30.55
299.236	51.03
299.451	89.94
299.665	87.89
299.88	75.6
300.094	100.18
300.309	75.6
300.523	-14.51
300.737	98.13
300.952	20.31
301.166	100.18
301.381	3.93
301.595	69.46
301.809	18.26
302.024	-24.75
302.238	114.52
302.452	112.47
302.667	63.32
302.881	-10.41
303.095	48.98
303.309	116.56
303.524	24.4
303.738	141.14
303.952	5.97
304.166	79.7
304.381	-57.51
304.595	55.12
304.809	-39.08
305.023	102.23
305.237	12.12
305.452	59.22
305.666	100.18
305.88	83.8
306.094	108.37
306.308	83.8
306.522	48.98
306.736	55.12
306.95	102.23
307.164	32.6
307.379	104.28
307.593	108.37
307.807	30.55
308.021	104.28
308.235	116.56
308.449	8.02
308.663	71.51
308.877	102.23
309.091	57.17
309.305	102.23
309.519	42.84
309.733	81.75
309.947	67.41
310.161	34.64
310.374	10.07
310.588	38.74
310.802	34.64
311.016	73.56
311.23	102.23
311.444	83.8
311.658	96.08
311.872	153.43
312.085	77.65
312.299	42.84
312.513	75.6
312.727	94.04
312.941	67.41
313.154	87.89
313.368	40.79
313.582	26.45
313.796	65.36
314.009	55.12
314.223	71.51
314.437	83.8
314.651	59.22
314.864	8.02
315.078	-4.27
315.292	77.65
315.505	59.22
315.719	77.65
315.933	83.8
316.146	79.7
316.36	-12.46
316.573	114.52
316.787	85.84
317.001	102.23
317.214	5.97
317.428	118.61
317.641	36.69
317.855	118.61
318.068	124.76
318.282	34.64
318.495	112.47
318.709	63.32
318.922	87.89
319.136	69.46
319.349	102.23
319.563	69.46
319.776	44.88
319.99	61.27
320.203	87.89
320.417	71.51
320.63	61.27
320.843	57.17
321.057	83.8
321.27	46.93
321.483	14.17
321.697	14.17
321.91	132.95
322.124	89.94
322.337	98.13
322.55	-8.36
322.763	44.88
322.977	26.45
323.19	63.32
323.403	59.22
323.617	61.27
323.83	118.61
324.043	71.51
324.256	22.36
324.469	46.93
324.683	30.55
324.896	67.41
325.109	116.56
325.322	53.08
325.535	102.23
325.748	112.47
325.962	-0.17
326.175	102.23
326.388	112.47
326.601	94.04
326.814	51.03
327.027	75.6
327.24	85.84
327.453	44.88
327.666	94.04
327.879	44.88
328.092	94.04
328.305	28.5
328.518	46.93
328.731	77.65
328.944	44.88
329.157	53.08
329.37	108.37
329.583	114.52
329.796	110.42
330.009	79.7
330.222	44.88
330.435	116.56
330.648	75.6
330.861	71.51
331.073	96.08
331.286	106.32
331.499	132.95
331.712	124.76
331.925	3.93
332.138	24.4
332.35	83.8
332.563	53.08
332.776	75.6
332.989	130.9
333.202	53.08
333.414	30.55
333.627	59.22
333.84	104.28
334.053	159.57
334.265	26.45
334.478	12.12
334.691	81.75
334.903	55.12
335.116	79.7
335.329	32.6
335.541	42.84
335.754	112.47
335.966	94.04
336.179	34.64
336.392	28.5
336.604	42.84
336.817	63.32
337.029	48.98
337.242	26.45
337.454	71.51
337.667	59.22
337.88	67.41
338.092	53.08
338.305	55.12
338.517	24.4
338.729	-8.36
338.942	114.52
339.154	44.88
339.367	55.12
339.579	102.23
339.792	18.26
340.004	128.85
340.217	-10.41
340.429	61.27
340.641	53.08
340.854	28.5
341.066	51.03
341.278	153.43
341.491	126.8
341.703	77.65
341.915	57.17
342.128	79.7
342.34	100.18
342.552	8.02
342.764	53.08
342.977	77.65
343.189	128.85
343.401	104.28
343.613	63.32
343.826	26.45
344.038	83.8
344.25	89.94
344.462	-34.99
344.674	44.88
344.886	44.88
345.099	87.89
345.311	75.6
345.523	77.65
345.735	5.97
345.947	65.36
346.159	83.8
346.371	14.17
346.583	110.42
346.795	128.85
347.007	85.84
347.219	110.42
347.431	100.18
347.643	75.6
347.855	38.74
348.067	112.47
348.279	42.84
348.491	94.04
348.703	65.36
348.915	-4.27
349.127	28.5
349.339	44.88
349.551	44.88
349.763	61.27
349.975	69.46
350.187	120.66
350.399	87.89
350.61	75.6
350.822	-6.31
351.034	26.45
351.246	42.84
351.458	67.41
351.669	102.23
351.881	108.37
352.093	130.9
352.305	108.37
352.517	22.36
352.728	71.51
352.94	40.79
353.152	71.51
353.363	137.04
353.575	63.32
353.787	135
353.999	104.28
354.21	30.55
354.422	30.55
354.633	53.08
354.845	114.52
355.057	63.32
355.268	118.61
355.48	110.42
355.692	3.93
355.903	75.6
356.115	85.84
356.326	28.5
356.538	126.8
356.749	28.5
356.961	71.51
357.172	91.99
357.384	91.99
357.595	98.13
357.807	83.8
358.018	71.51
358.23	26.45
358.441	128.85
358.653	124.76
358.864	34.64
359.075	124.76
359.287	51.03
359.498	61.27
359.709	10.07
359.921	30.55
360.132	40.79
360.344	75.6
360.555	67.41
360.766	36.69
360.977	44.88
361.189	145.24
361.4	51.03
361.611	71.51
361.823	112.47
362.034	98.13
362.245	44.88
362.456	171.86
362.667	85.84
362.879	32.6
363.09	83.8
363.301	145.24
363.512	112.47
363.723	91.99
363.935	22.36
364.146	96.08
364.357	16.21
364.568	57.17
364.779	24.4
364.99	167.76
365.201	-6.31
365.412	128.85
365.623	57.17
365.834	67.41
366.045	102.23
366.256	96.08
366.467	116.56
366.678	87.89
366.889	77.65
367.1	-8.36
367.311	89.94
367.522	91.99
367.733	130.9
367.944	34.64
368.155	108.37
368.366	71.51
368.577	75.6
368.788	122.71
368.999	87.89
369.209	120.66
369.42	100.18
369.631	112.47
369.842	73.56
370.053	100.18
370.264	71.51
370.474	30.55
370.685	67.41
370.896	83.8
371.107	51.03
371.317	100.18
371.528	96.08
371.739	57.17
371.95	59.22
372.16	34.64
372.371	63.32
372.582	63.32
372.792	89.94
373.003	141.14
373.214	73.56
373.424	36.69
373.635	98.13
373.846	128.85
374.056	79.7
374.267	102.23
374.477	104.28
374.688	32.6
374.898	-67.75
375.109	94.04
375.319	48.98
375.53	149.33
375.74	94.04
375.951	24.4
376.161	-6.31
376.372	85.84
376.582	34.64
376.793	149.33
377.003	55.12
377.214	75.6
377.424	69.46
377.635	110.42
377.845	87.89
378.055	87.89
378.266	79.7
378.476	118.61
378.686	100.18
378.897	71.51
379.107	48.98
379.317	87.89
379.528	38.74
379.738	22.36
379.948	65.36
380.158	87.89
380.369	3.93
380.579	122.71
380.789	-39.08
380.999	22.36
381.21	83.8
381.42	65.36
381.63	89.94
381.84	112.47
382.05	73.56
382.261	141.14
382.471	218.96
382.681	96.08
382.891	98.13
383.101	81.75
383.311	67.41
383.521	8.02
383.731	81.75
383.941	153.43
384.151	83.8
384.361	85.84
384.571	100.18
384.781	55.12
384.991	120.66
385.201	135
385.411	151.38
385.621	120.66
385.831	96.08
386.041	77.65
386.251	83.8
386.461	108.37
386.671	44.88
386.881	137.04
387.091	91.99
387.301	81.75
387.511	169.81
387.72	102.23
387.93	128.85
388.14	53.08
388.35	106.32
388.56	120.66
388.769	69.46
388.979	51.03
389.189	128.85
389.399	71.51
389.609	167.76
389.818	102.23
390.028	71.51
390.238	151.38
390.447	77.65
390.657	69.46
390.867	96.08
391.076	69.46
391.286	83.8
391.496	112.47
391.705	132.95
391.915	104.28
392.125	89.94
392.334	112.47
392.544	120.66
392.753	116.56
392.963	135
393.172	206.67
393.382	112.47
393.591	184.15
393.801	141.14
394.01	216.91
394.22	143.19
394.429	114.52
394.639	8.02
394.848	153.43
395.058	135
395.267	139.09
395.477	87.89
395.686	124.76
395.895	184.15
396.105	124.76
396.314	124.76
396.524	104.28
396.733	89.94
396.942	135
397.152	171.86
397.361	135
397.57	91.99
397.78	165.71
397.989	145.24
398.198	163.67
398.407	71.51
398.617	89.94
398.826	161.62
399.035	98.13
399.244	141.14
399.453	159.57
399.663	143.19
399.872	161.62
400.081	63.32
400.29	161.62
400.499	165.71
400.708	159.57
400.917	135
401.127	227.15
401.336	198.48
401.545	216.91
401.754	249.68
401.963	175.95
402.172	192.34
402.381	167.76
402.59	147.28
402.799	167.76
403.008	208.72
403.217	83.8
403.426	94.04
403.635	137.04
403.844	214.87
404.053	139.09
404.262	120.66
404.471	186.19
404.68	175.95
404.888	178
405.097	180.05
405.306	167.76
405.515	212.82
405.724	114.52
405.933	208.72
406.142	290.64
406.35	282.45
406.559	214.87
406.768	290.64
406.977	243.54
407.185	255.83
407.394	403.28
407.603	296.78
407.812	257.87
408.02	319.31
408.229	307.02
408.438	317.26
408.646	247.63
408.855	317.26
409.064	276.31
409.272	345.94
409.481	366.42
409.69	333.65
409.898	341.84
410.107	329.55
410.315	386.9
410.524	421.71
410.733	448.33
410.941	345.94
411.15	489.29
411.358	438.09
411.567	546.64
411.775	542.54
411.984	497.49
412.192	540.49
412.401	614.22
412.609	550.73
412.818	597.84
413.026	689.99
413.234	700.23
413.443	585.55
413.651	661.32
413.86	730.95
414.068	823.11
414.276	843.59
414.485	776.01
414.693	757.58
414.901	814.92
415.11	841.54
415.318	796.49
415.526	915.27
415.734	982.85
415.943	888.65
416.151	935.75
416.359	1013.57
416.567	1062.73
416.776	1072.96
416.984	1107.78
417.192	1212.23
417.4	1148.74
417.608	1204.03
417.817	1300.29
418.025	1335.1
418.233	1490.75
418.441	1396.54
418.649	1441.6
418.857	1587.01
419.065	1494.85
419.273	1503.04
419.481	1603.39
419.689	1756.99
419.897	1851.19
420.105	1840.95
420.313	1935.16
420.521	1935.16
420.729	1945.4
420.937	2043.7
421.145	2156.34
421.353	2162.48
421.561	2246.45
421.769	2344.75
421.977	2342.71
422.185	2469.68
422.393	2729.77
422.601	2785.07
422.809	2694.96
423.017	2758.44
423.224	2840.36
423.432	2971.43
423.64	3073.83
423.848	3385.12
424.056	3182.37
424.263	3497.76
424.471	3444.51
424.679	3497.76
424.887	3673.89
425.094	3913.5
425.302	3866.39
425.51	4077.34
425.718	3997.46
425.925	4157.21
426.133	4329.24
426.341	4618
426.548	4628.24
426.756	4718.35
426.964	4787.98
427.171	5125.9
427.379	5283.59
427.586	5371.65
427.794	5488.39
428.001	5861.12
428.209	5779.2
428.417	6047.48
428.624	6330.1
428.832	6397.68
429.039	6274.81
429.247	6485.75
429.454	6928.11
429.662	7411.43
429.869	6774.51
430.076	7245.54
430.284	7079.66
430.491	7483.11
430.699	7882.46
430.906	7872.22
431.114	7948
431.321	8398.55
431.528	8464.08
431.736	8908.49
431.943	9440.97
432.15	9293.51
432.358	9328.33
432.565	9842.37
432.772	9852.61
432.979	10116.79
433.187	10303.16
433.394	10452.66
433.601	11069.1
433.808	11220.65
434.016	11148.97
434.223	11681.44
434.43	12431
434.637	12066.46
434.844	12803.73
435.052	13061.77
435.259	13094.54
435.466	12965.52
435.673	12961.42
435.88	13913.73
436.087	14411.39
436.294	14581.37
436.501	14073.47
436.708	14517.88
436.915	15109.74
437.122	15926.88
437.329	15642.21
437.537	16135.78
437.743	16457.31
437.95	16430.68
438.157	17126.99
438.364	17733.19
438.571	17665.61
438.778	17710.66
438.985	19564.07
439.192	18738.74
439.399	19430.96
439.606	18884.15
439.813	19973.67
440.02	21190.16
440.227	21052.95
440.433	20551.2
440.64	21372.43
440.847	21048.85
441.054	21704.2
441.261	23068.15
441.467	22887.93
441.674	23246.32
441.881	24075.75
442.088	24012.26
442.294	23780.84
442.501	24737.24
442.708	25056.73
442.914	26217.93
443.121	27061.69
443.328	26676.67
443.534	28204.45
443.741	27745.71
443.948	27172.28
444.154	29347.22
444.361	29156.76
444.568	29324.69
444.774	29058.46
444.981	29418.9
445.187	30246.28
445.394	31745.39
445.6	31325.56
445.807	34211.15
446.013	32632.16
446.22	33699.16
446.426	34819.39
446.633	34751.81
446.839	36060.46
447.046	34368.84
447.252	36150.57
447.459	36644.13
447.665	36179.25
447.871	37625.11
448.078	39099.65
448.284	37707.03
448.491	38501.64
448.697	40342.77
448.903	40328.43
449.11	40611.05
449.316	39785.72
449.522	41020.64
449.728	42034.39
449.935	42081.49
450.141	41788.63
450.347	43152.58
450.553	41444.57
450.76	42278.1
450.966	43300.03
451.172	42988.74
451.378	43644.09
451.584	42892.49
451.791	43723.96
451.997	43764.92
452.203	44606.64
452.409	43928.76
452.615	44047.54
452.821	42218.71
453.027	42005.72
453.233	44287.15
453.44	42212.56
453.646	42992.84
453.852	43052.23
454.058	43486.4
454.264	41966.8
454.47	42829
454.676	41897.17
454.882	43162.82
455.088	39595.26
455.294	40295.66
455.5	40484.08
455.705	40981.73
455.911	39271.68
456.117	38731.01
456.323	38173.97
456.529	35812.66
456.735	37242.14
456.941	36396.33
457.147	35695.92
457.352	34760
457.558	34596.17
457.764	34596.17
457.97	33688.92
458.176	33422.68
458.381	32779.62
458.587	31063.42
458.793	31280.5
458.999	29486.48
459.204	31923.57
459.41	30950.78
459.616	28884.38
459.821	28945.82
460.027	28937.63
460.233	28214.69
460.438	26717.63
460.644	27096.5
460.85	25542.1
461.055	25335.25
461.261	25494.99
461.466	23461.36
461.672	22674.94
461.878	24239.59
462.083	22676.99
462.289	22230.53
462.494	21949.96
462.7	20960.79
462.905	20571.68
463.111	21257.74
463.316	21327.38
463.522	20751.9
463.727	21063.19
463.932	20950.55
464.138	20557.34
464.343	20708.89
464.549	20098.59
464.754	21147.15
464.959	20950.55
465.165	20506.14
465.37	19678.76
465.575	19297.84
465.781	20272.67
465.986	20217.38
466.191	19559.98
466.397	19119.67
466.602	18052.67
466.807	18751.03
