Data from USB4F104151__100__10-24-41-101.txt Node

Date: Wed Mar 12 10:24:41 EDT 2025
User: louis
Spectrometer: USB4F10415
Trigger mode: 4
Integration Time (sec): 3.000000E-2
Scans to average: 1
Electric dark correction enabled: true
Nonlinearity correction enabled: false
Boxcar width: 0
XAxis mode: Wavelengths
Number of Pixels in Spectrum: 3648
>>>>>Begin Spectral Data<<<<<
178.204	-54.61
178.424	-54.61
178.644	-54.61
178.864	-134.48
179.084	-122.2
179.304	35.5
179.524	-50.52
179.744	41.64
179.964	-3.41
180.184	4.78
180.404	27.31
180.624	-46.42
180.844	17.07
181.064	4.78
181.283	-38.23
181.503	17.07
181.723	-9.56
181.943	-60.76
182.163	49.83
182.383	33.45
182.602	137.9
182.822	78.51
183.042	39.59
183.262	53.93
183.482	96.94
183.701	-21.84
183.921	-3.41
184.141	2.73
184.361	15.02
184.58	23.21
184.8	33.45
185.02	-44.37
185.239	70.31
185.459	-52.56
185.679	12.97
185.898	41.64
186.118	101.03
186.338	-11.61
186.557	74.41
186.777	8.87
186.997	0.68
187.216	6.83
187.436	66.22
187.655	29.35
187.875	35.5
188.095	49.83
188.314	41.64
188.534	70.31
188.753	10.92
188.973	12.97
189.192	68.27
189.412	10.92
189.631	-30.04
189.851	39.59
190.07	25.26
190.29	-30.04
190.509	94.89
190.729	25.26
190.948	8.87
191.168	121.51
191.387	70.31
191.607	37.55
191.826	51.88
192.045	4.78
192.265	33.45
192.484	29.35
192.704	-19.8
192.923	-75.09
193.142	68.27
193.362	117.42
193.581	55.98
193.8	60.07
194.02	29.35
194.239	53.93
194.458	0.68
194.678	-66.9
194.897	4.78
195.116	45.74
195.335	-13.65
195.555	21.16
195.774	0.68
195.993	62.12
196.212	-38.23
196.432	-25.94
196.651	10.92
196.87	55.98
197.089	64.17
197.308	-3.41
197.528	12.97
197.747	-30.04
197.966	6.83
198.185	37.55
198.404	10.92
198.623	121.51
198.842	-15.7
199.062	62.12
199.281	94.89
199.5	-19.8
199.719	66.22
199.938	8.87
200.157	60.07
200.376	45.74
200.595	84.65
200.814	33.45
201.033	37.55
201.252	49.83
201.471	6.83
201.69	-5.46
201.909	-5.46
202.128	45.74
202.347	31.4
202.566	51.88
202.785	-17.75
203.004	21.16
203.223	90.79
203.442	33.45
203.661	68.27
203.879	35.5
204.098	39.59
204.317	-21.84
204.536	8.87
204.755	12.97
204.974	27.31
205.193	-27.99
205.411	60.07
205.63	4.78
205.849	10.92
206.068	-13.65
206.287	-101.72
206.505	0.68
206.724	35.5
206.943	4.78
207.162	-5.46
207.381	45.74
207.599	-21.84
207.818	12.97
208.037	-7.51
208.255	21.16
208.474	90.79
208.693	70.31
208.911	-36.18
209.13	60.07
209.349	39.59
209.567	35.5
209.786	78.51
210.005	10.92
210.223	21.16
210.442	-15.7
210.661	47.79
210.879	-30.04
211.098	41.64
211.316	58.03
211.535	29.35
211.753	21.16
211.972	111.27
212.191	8.87
212.409	49.83
212.628	51.88
212.846	-19.8
213.065	51.88
213.283	49.83
213.502	8.87
213.72	53.93
213.938	-23.89
214.157	8.87
214.375	35.5
214.594	-21.84
214.812	37.55
215.031	23.21
215.249	55.98
215.467	17.07
215.686	86.7
215.904	-30.04
216.122	29.35
216.341	-11.61
216.559	49.83
216.778	23.21
216.996	-3.41
217.214	-44.37
217.432	64.17
217.651	-13.65
217.869	-3.41
218.087	29.35
218.306	62.12
218.524	-27.99
218.742	4.78
218.96	70.31
219.179	49.83
219.397	25.26
219.615	111.27
219.833	-5.46
220.051	60.07
220.27	109.23
220.488	29.35
220.706	53.93
220.924	21.16
221.142	21.16
221.36	25.26
221.578	21.16
221.796	-27.99
222.015	58.03
222.233	-7.51
222.451	88.75
222.669	-13.65
222.887	55.98
223.105	45.74
223.323	-21.84
223.541	39.59
223.759	80.55
223.977	37.55
224.195	76.46
224.413	-13.65
224.631	4.78
224.849	45.74
225.067	62.12
225.285	0.68
225.503	21.16
225.721	15.02
225.939	-19.8
226.157	43.69
226.375	31.4
226.592	2.73
226.81	2.73
227.028	70.31
227.246	74.41
227.464	-11.61
227.682	98.99
227.9	103.08
228.117	-13.65
228.335	70.31
228.553	-30.04
228.771	21.16
228.989	12.97
229.206	-48.47
229.424	60.07
229.642	4.78
229.86	-11.61
230.077	51.88
230.295	84.65
230.513	74.41
230.731	33.45
230.948	98.99
231.166	70.31
231.384	60.07
231.601	8.87
231.819	58.03
232.037	17.07
232.254	76.46
232.472	-19.8
232.689	35.5
232.907	70.31
233.125	17.07
233.342	4.78
233.56	15.02
233.777	4.78
233.995	78.51
234.213	35.5
234.43	119.46
234.648	33.45
234.865	49.83
235.083	78.51
235.3	68.27
235.518	41.64
235.735	21.16
235.953	80.55
236.17	66.22
236.388	-54.61
236.605	15.02
236.822	96.94
237.04	58.03
237.257	94.89
237.475	2.73
237.692	21.16
237.909	-19.8
238.127	49.83
238.344	12.97
238.562	23.21
238.779	27.31
238.996	-40.28
239.214	94.89
239.431	47.79
239.648	68.27
239.865	4.78
240.083	-7.51
240.3	23.21
240.517	31.4
240.735	33.45
240.952	27.31
241.169	53.93
241.386	-34.13
241.603	-1.37
241.821	8.87
242.038	39.59
242.255	64.17
242.472	15.02
242.689	107.18
242.907	-3.41
243.124	8.87
243.341	84.65
243.558	-9.56
243.775	-3.41
243.992	35.5
244.209	25.26
244.426	51.88
244.643	-15.7
244.86	12.97
245.078	19.11
245.295	51.88
245.512	47.79
245.729	-40.28
245.946	111.27
246.163	-17.75
246.38	35.5
246.597	-3.41
246.814	62.12
247.031	-7.51
247.248	37.55
247.464	-15.7
247.681	47.79
247.898	78.51
248.115	119.46
248.332	0.68
248.549	25.26
248.766	19.11
248.983	80.55
249.2	-32.08
249.417	4.78
249.633	66.22
249.85	31.4
250.067	-36.18
250.284	96.94
250.501	35.5
250.717	101.03
250.934	17.07
251.151	80.55
251.368	10.92
251.585	66.22
251.801	53.93
252.018	41.64
252.235	12.97
252.451	41.64
252.668	80.55
252.885	23.21
253.102	37.55
253.318	-5.46
253.535	4.78
253.752	41.64
253.968	10.92
254.185	17.07
254.401	21.16
254.618	62.12
254.835	2.73
255.051	98.99
255.268	55.98
255.484	4.78
255.701	49.83
255.917	27.31
256.134	21.16
256.351	55.98
256.567	25.26
256.784	86.7
257	53.93
257.217	74.41
257.433	107.18
257.65	29.35
257.866	-7.51
258.082	21.16
258.299	33.45
258.515	-11.61
258.732	55.98
258.948	12.97
259.165	-11.61
259.381	-52.56
259.597	60.07
259.814	53.93
260.03	4.78
260.246	-21.84
260.463	78.51
260.679	39.59
260.895	127.66
261.112	-30.04
261.328	94.89
261.544	-3.41
261.761	113.32
261.977	74.41
262.193	8.87
262.409	64.17
262.626	58.03
262.842	37.55
263.058	-19.8
263.274	-3.41
263.49	-15.7
263.707	45.74
263.923	-5.46
264.139	19.11
264.355	47.79
264.571	58.03
264.787	-15.7
265.004	29.35
265.22	0.68
265.436	-46.42
265.652	-32.08
265.868	45.74
266.084	-11.61
266.3	62.12
266.516	31.4
266.732	55.98
266.948	35.5
267.164	45.74
267.38	33.45
267.596	12.97
267.812	33.45
268.028	37.55
268.244	78.51
268.46	21.16
268.676	17.07
268.892	2.73
269.108	94.89
269.324	21.16
269.54	-116.05
269.756	76.46
269.972	-23.89
270.188	-5.46
270.403	-42.32
270.619	10.92
270.835	23.21
271.051	-23.89
271.267	-44.37
271.483	33.45
271.698	51.88
271.914	41.64
272.13	-3.41
272.346	0.68
272.562	78.51
272.777	12.97
272.993	82.6
273.209	2.73
273.425	-21.84
273.64	-27.99
273.856	-25.94
274.072	43.69
274.287	-17.75
274.503	94.89
274.719	4.78
274.934	33.45
275.15	-5.46
275.366	21.16
275.581	23.21
275.797	31.4
276.012	37.55
276.228	43.69
276.444	35.5
276.659	2.73
276.875	15.02
277.09	84.65
277.306	12.97
277.521	70.31
277.737	4.78
277.952	-40.28
278.168	-5.46
278.383	39.59
278.599	12.97
278.814	72.36
279.03	2.73
279.245	137.9
279.461	-13.65
279.676	45.74
279.892	4.78
280.107	4.78
280.322	-9.56
280.538	-23.89
280.753	-17.75
280.969	23.21
281.184	62.12
281.399	23.21
281.615	23.21
281.83	92.84
282.045	41.64
282.26	-17.75
282.476	15.02
282.691	58.03
282.906	19.11
283.122	51.88
283.337	68.27
283.552	27.31
283.767	-13.65
283.983	2.73
284.198	49.83
284.413	-9.56
284.628	6.83
284.843	2.73
285.058	70.31
285.274	29.35
285.489	-19.8
285.704	21.16
285.919	31.4
286.134	-21.84
286.349	86.7
286.564	90.79
286.779	31.4
286.995	35.5
287.21	-103.76
287.425	64.17
287.64	58.03
287.855	62.12
288.07	-11.61
288.285	8.87
288.5	-17.75
288.715	74.41
288.93	43.69
289.145	12.97
289.36	31.4
289.575	92.84
289.79	17.07
290.004	6.83
290.219	86.7
290.434	-11.61
290.649	19.11
290.864	74.41
291.079	-7.51
291.294	23.21
291.509	62.12
291.724	-25.94
291.938	15.02
292.153	31.4
292.368	29.35
292.583	17.07
292.798	117.42
293.012	47.79
293.227	-85.33
293.442	-19.8
293.657	41.64
293.871	133.8
294.086	49.83
294.301	168.62
294.516	68.27
294.73	58.03
294.945	2.73
295.16	35.5
295.374	35.5
295.589	62.12
295.804	76.46
296.018	-79.19
296.233	58.03
296.447	66.22
296.662	62.12
296.877	-9.56
297.091	66.22
297.306	31.4
297.52	41.64
297.735	123.56
297.949	-19.8
298.164	129.7
298.378	47.79
298.593	-15.7
298.807	45.74
299.022	-13.65
299.236	74.41
299.451	113.32
299.665	98.99
299.88	17.07
300.094	92.84
300.309	37.55
300.523	92.84
300.737	-13.65
300.952	45.74
301.166	82.6
301.381	58.03
301.595	29.35
301.809	10.92
302.024	76.46
302.238	47.79
302.452	72.36
302.667	-5.46
302.881	2.73
303.095	88.75
303.309	47.79
303.524	41.64
303.738	49.83
303.952	-5.46
304.166	-3.41
304.381	29.35
304.595	53.93
304.809	-19.8
305.023	43.69
305.237	45.74
305.452	58.03
305.666	12.97
305.88	76.46
306.094	-19.8
306.308	113.32
306.522	62.12
306.736	82.6
306.95	101.03
307.164	51.88
307.379	-11.61
307.593	10.92
307.807	76.46
308.021	96.94
308.235	37.55
308.449	0.68
308.663	8.87
308.877	115.37
309.091	45.74
309.305	45.74
309.519	-3.41
309.733	12.97
309.947	-1.37
310.161	10.92
310.374	76.46
310.588	70.31
310.802	23.21
311.016	39.59
311.23	60.07
311.444	15.02
311.658	70.31
311.872	86.7
312.085	41.64
312.299	125.61
312.513	53.93
312.727	0.68
312.941	41.64
313.154	-3.41
313.368	-19.8
313.582	41.64
313.796	23.21
314.009	53.93
314.223	74.41
314.437	103.08
314.651	150.18
314.864	-30.04
315.078	43.69
315.292	4.78
315.505	41.64
315.719	2.73
315.933	84.65
316.146	31.4
316.36	-48.47
316.573	27.31
316.787	21.16
317.001	90.79
317.214	49.83
317.428	41.64
317.641	10.92
317.855	101.03
318.068	60.07
318.282	4.78
318.495	35.5
318.709	23.21
318.922	21.16
319.136	88.75
319.349	92.84
319.563	-27.99
319.776	88.75
319.99	45.74
320.203	45.74
320.417	17.07
320.63	62.12
320.843	111.27
321.057	80.55
321.27	82.6
321.483	25.26
321.697	117.42
321.91	-32.08
322.124	74.41
322.337	4.78
322.55	10.92
322.763	-3.41
322.977	80.55
323.19	62.12
323.403	-9.56
323.617	12.97
323.83	160.42
324.043	62.12
324.256	58.03
324.469	-19.8
324.683	90.79
324.896	19.11
325.109	23.21
325.322	-19.8
325.535	98.99
325.748	53.93
325.962	-27.99
326.175	8.87
326.388	-11.61
326.601	37.55
326.814	45.74
327.027	21.16
327.24	29.35
327.453	25.26
327.666	33.45
327.879	62.12
328.092	51.88
328.305	19.11
328.518	12.97
328.731	12.97
328.944	39.59
329.157	-1.37
329.37	66.22
329.583	101.03
329.796	43.69
330.009	-13.65
330.222	-11.61
330.435	51.88
330.648	0.68
330.861	74.41
331.073	37.55
331.286	74.41
331.499	33.45
331.712	25.26
331.925	33.45
332.138	47.79
332.35	19.11
332.563	17.07
332.776	53.93
332.989	2.73
333.202	8.87
333.414	-13.65
333.627	15.02
333.84	-13.65
334.053	58.03
334.265	4.78
334.478	45.74
334.691	21.16
334.903	60.07
335.116	12.97
335.329	39.59
335.541	17.07
335.754	119.46
335.966	21.16
336.179	55.98
336.392	41.64
336.604	-5.46
336.817	94.89
337.029	72.36
337.242	51.88
337.454	74.41
337.667	47.79
337.88	-9.56
338.092	51.88
338.305	62.12
338.517	-50.52
338.729	-27.99
338.942	33.45
339.154	25.26
339.367	-32.08
339.579	19.11
339.792	8.87
340.004	82.6
340.217	53.93
340.429	37.55
340.641	-27.99
340.854	45.74
341.066	96.94
341.278	66.22
341.491	37.55
341.703	51.88
341.915	41.64
342.128	-3.41
342.34	10.92
342.552	68.27
342.764	-23.89
342.977	70.31
343.189	70.31
343.401	88.75
343.613	23.21
343.826	49.83
344.038	-23.89
344.25	68.27
344.462	-1.37
344.674	19.11
344.886	43.69
345.099	-25.94
345.311	33.45
345.523	82.6
345.735	17.07
345.947	31.4
346.159	49.83
346.371	21.16
346.583	41.64
346.795	158.38
347.007	58.03
347.219	-9.56
347.431	49.83
347.643	29.35
347.855	51.88
348.067	72.36
348.279	-13.65
348.491	31.4
348.703	-21.84
348.915	43.69
349.127	-23.89
349.339	45.74
349.551	27.31
349.763	45.74
349.975	29.35
350.187	33.45
350.399	19.11
350.61	58.03
350.822	10.92
351.034	-3.41
351.246	-7.51
351.458	58.03
351.669	29.35
351.881	92.84
352.093	58.03
352.305	86.7
352.517	86.7
352.728	105.13
352.94	123.56
353.152	80.55
353.363	29.35
353.575	78.51
353.787	35.5
353.999	10.92
354.21	70.31
354.422	-11.61
354.633	86.7
354.845	66.22
355.057	101.03
355.268	41.64
355.48	4.78
355.692	-15.7
355.903	58.03
356.115	70.31
356.326	2.73
356.538	68.27
356.749	55.98
356.961	92.84
357.172	-15.7
357.384	-3.41
357.595	135.85
357.807	6.83
358.018	17.07
358.23	4.78
358.441	62.12
358.653	78.51
358.864	29.35
359.075	-27.99
359.287	37.55
359.498	37.55
359.709	-5.46
359.921	72.36
360.132	76.46
360.344	10.92
360.555	17.07
360.766	-9.56
360.977	35.5
361.189	37.55
361.4	17.07
361.611	101.03
361.823	115.37
362.034	-13.65
362.245	-7.51
362.456	41.64
362.667	51.88
362.879	-30.04
363.09	62.12
363.301	-7.51
363.512	70.31
363.723	35.5
363.935	86.7
364.146	12.97
364.357	17.07
364.568	47.79
364.779	-25.94
364.99	94.89
365.201	-5.46
365.412	19.11
365.623	-44.37
365.834	144.04
366.045	43.69
366.256	105.13
366.467	55.98
366.678	117.42
366.889	23.21
367.1	41.64
367.311	74.41
367.522	41.64
367.733	103.08
367.944	90.79
368.155	29.35
368.366	90.79
368.577	152.23
368.788	45.74
368.999	-3.41
369.209	37.55
369.42	82.6
369.631	92.84
369.842	17.07
370.053	45.74
370.264	-13.65
370.474	62.12
370.685	88.75
370.896	-13.65
371.107	82.6
371.317	84.65
371.528	31.4
371.739	17.07
371.95	29.35
372.16	119.46
372.371	12.97
372.582	47.79
372.792	-5.46
373.003	60.07
373.214	-17.75
373.424	74.41
373.635	68.27
373.846	76.46
374.056	4.78
374.267	21.16
374.477	70.31
374.688	35.5
374.898	72.36
375.109	92.84
375.319	55.98
375.53	164.52
375.74	84.65
375.951	33.45
376.161	-3.41
376.372	144.04
376.582	58.03
376.793	-19.8
377.003	58.03
377.214	82.6
377.424	80.55
377.635	21.16
377.845	86.7
378.055	144.04
378.266	45.74
378.476	68.27
378.686	25.26
378.897	51.88
379.107	82.6
379.317	135.85
379.528	27.31
379.738	27.31
379.948	-30.04
380.158	137.9
380.369	25.26
380.579	101.03
380.789	33.45
380.999	31.4
381.21	15.02
381.42	58.03
381.63	23.21
381.84	62.12
382.05	2.73
382.261	84.65
382.471	76.46
382.681	78.51
382.891	8.87
383.101	74.41
383.311	-21.84
383.521	101.03
383.731	137.9
383.941	39.59
384.151	78.51
384.361	76.46
384.571	80.55
384.781	70.31
384.991	86.7
385.201	105.13
385.411	0.68
385.621	2.73
385.831	66.22
386.041	35.5
386.251	45.74
386.461	23.21
386.671	41.64
386.881	51.88
387.091	41.64
387.301	19.11
387.511	45.74
387.72	88.75
387.93	86.7
388.14	68.27
388.35	68.27
388.56	37.55
388.769	-15.7
388.979	64.17
389.189	64.17
389.399	84.65
389.609	74.41
389.818	-19.8
390.028	66.22
390.238	94.89
390.447	86.7
390.657	113.32
390.867	78.51
391.076	4.78
391.286	92.84
391.496	70.31
391.705	29.35
391.915	78.51
392.125	45.74
392.334	58.03
392.544	115.37
392.753	31.4
392.963	119.46
393.172	66.22
393.382	25.26
393.591	62.12
393.801	27.31
394.01	39.59
394.22	66.22
394.429	135.85
394.639	74.41
394.848	84.65
395.058	133.8
395.267	29.35
395.477	127.66
395.686	4.78
395.895	64.17
396.105	117.42
396.314	119.46
396.524	117.42
396.733	45.74
396.942	135.85
397.152	82.6
397.361	193.19
397.57	86.7
397.78	127.66
397.989	103.08
398.198	154.28
398.407	60.07
398.617	41.64
398.826	96.94
399.035	47.79
399.244	94.89
399.453	37.55
399.663	133.8
399.872	105.13
400.081	133.8
400.29	121.51
400.499	133.8
400.708	205.48
400.917	109.23
401.127	90.79
401.336	86.7
401.545	133.8
401.754	158.38
401.963	123.56
402.172	139.94
402.381	96.94
402.59	141.99
402.799	107.18
403.008	72.36
403.217	129.7
403.426	60.07
403.635	94.89
403.844	86.7
404.053	135.85
404.262	144.04
404.471	191.14
404.68	94.89
404.888	135.85
405.097	170.66
405.306	139.94
405.515	162.47
405.724	141.99
405.933	209.58
406.142	139.94
406.35	170.66
406.559	139.94
406.768	189.1
406.977	209.58
407.185	205.48
407.394	215.72
407.603	215.72
407.812	195.24
408.02	275.11
408.229	244.39
408.438	211.62
408.646	277.16
408.855	291.49
409.064	234.15
409.272	285.35
409.481	303.78
409.69	213.67
409.898	277.16
410.107	338.6
410.315	342.69
410.524	301.73
410.733	369.32
410.941	324.26
411.15	430.76
411.358	397.99
411.567	424.61
411.775	361.13
411.984	473.76
412.192	420.52
412.401	512.67
412.609	516.77
412.818	512.67
413.026	502.44
413.234	459.43
413.443	516.77
413.651	510.63
413.86	578.21
414.068	602.79
414.276	699.04
414.485	649.89
414.693	613.03
414.901	674.46
415.11	742.05
415.318	686.75
415.526	737.95
415.734	811.68
415.943	764.58
416.151	848.54
416.359	881.31
416.567	942.75
416.776	1002.14
416.984	940.7
417.192	1030.81
417.4	1110.68
417.608	1004.19
417.817	1047.19
418.025	1086.11
418.233	1190.55
418.441	1280.66
418.649	1223.32
418.857	1381.01
419.065	1327.77
419.273	1381.01
419.481	1385.11
419.689	1413.78
419.897	1532.56
420.105	1561.23
420.313	1587.86
420.521	1712.78
420.729	1727.12
420.937	1694.35
421.145	1798.8
421.353	1872.53
421.561	2005.64
421.769	1950.35
421.977	2005.64
422.185	2185.87
422.393	2212.49
422.601	2341.51
422.809	2237.06
423.017	2347.65
423.224	2460.29
423.432	2556.55
423.64	2460.29
423.848	2732.67
424.056	2589.32
424.263	2953.85
424.471	2892.41
424.679	2888.32
424.887	3211.9
425.094	3240.57
425.302	3285.62
425.51	3342.97
425.718	3463.8
425.925	3533.43
426.133	3646.07
426.341	3764.85
426.548	3930.73
426.756	3906.16
426.964	4070
427.171	4213.35
427.379	4459.11
427.586	4358.76
427.794	4567.65
428.001	4825.7
428.209	5126.75
428.417	4921.95
428.624	5276.25
428.832	5304.92
429.039	5280.35
429.247	5177.95
429.454	5708.37
429.662	6132.3
429.869	5714.52
430.076	6277.71
430.284	6009.42
430.491	6306.38
430.699	6562.37
430.906	6601.29
431.114	6730.31
431.321	6885.95
431.528	7154.24
431.736	7483.96
431.943	7932.47
432.15	7506.49
432.358	7684.66
432.565	8176.17
432.772	8342.06
432.979	8528.42
433.187	8696.36
433.394	8759.85
433.601	9513.5
433.808	9128.48
434.016	9202.21
434.223	9605.66
434.43	10134.03
434.637	10095.12
434.844	10549.77
435.052	10816.01
435.259	10846.73
435.466	10879.49
435.673	10707.46
435.88	11502.08
436.087	11942.39
436.294	12104.18
436.501	11715.06
436.708	11995.64
436.915	12282.35
437.122	12890.6
437.329	12831.21
437.537	13300.19
437.743	13527.52
437.95	13498.84
438.157	13949.4
438.364	14733.77
438.571	14531.02
438.778	14793.16
438.985	16126.39
439.192	15403.46
439.399	15786.43
439.606	15440.32
439.813	16157.11
440.02	16945.58
440.227	16933.29
440.433	16732.59
440.64	17228.2
440.847	17308.07
441.054	17770.91
441.261	18729.36
441.467	18760.08
441.674	19052.94
441.881	19683.71
442.088	19663.23
442.294	19376.51
442.501	20042.1
442.708	20214.13
442.914	21295.46
443.121	22065.5
443.328	21627.23
443.534	22913.36
443.741	22569.3
443.948	21864.8
444.154	23656.77
444.361	23376.2
444.568	23501.12
444.774	23810.37
444.981	23931.2
445.187	24760.62
445.394	25616.68
445.6	25176.36
445.807	27926.78
446.013	26560.79
446.22	26994.96
446.426	28072.19
446.633	28279.04
446.839	29167.85
447.046	27857.15
447.252	29405.42
447.459	29417.71
447.665	28961.01
447.871	30603.48
448.078	31701.19
448.284	30128.35
448.491	31103.18
448.697	32059.59
448.903	32686.26
449.11	33071.28
449.316	32667.83
449.522	33063.09
449.728	33839.27
449.935	33935.52
450.141	33714.34
450.347	34967.7
450.553	33472.68
450.76	33693.86
450.966	34914.45
451.172	34597.02
451.378	35551.37
451.584	34910.36
451.791	35829.9
451.997	35678.35
452.203	36321.41
452.409	35874.95
452.615	35461.26
452.821	34412.7
453.027	34320.54
453.233	35811.46
453.44	34392.22
453.646	34525.34
453.852	35086.48
454.058	35066
454.264	34420.89
454.47	34822.3
454.676	33568.94
454.882	35240.08
455.088	32170.18
455.294	32692.41
455.5	33163.44
455.705	33673.38
455.911	31895.75
456.117	31502.54
456.323	31226.06
456.529	29360.36
456.735	30505.18
456.941	29505.77
457.147	29655.27
457.352	28430.58
457.558	27859.2
457.764	27801.86
457.97	27513.09
458.176	26806.55
458.381	26757.39
458.587	25352.49
458.793	25583.91
458.999	24185.15
459.204	25819.42
459.41	25041.2
459.616	23822.66
459.821	23718.21
460.027	23509.32
460.233	22968.65
460.438	21877.08
460.644	21926.24
460.85	21143.91
461.055	20867.44
461.261	20701.55
461.466	19040.65
461.672	18719.12
461.878	19964.28
462.083	18708.88
462.289	18487.7
462.494	18356.63
462.7	17467.81
462.905	17050.02
463.111	17666.46
463.316	17557.92
463.522	17170.85
463.727	17277.35
463.932	17090.98
464.138	17138.09
464.343	17138.09
464.549	16574.89
464.754	17271.2
464.959	17189.28
465.165	16765.35
465.37	16208.31
465.575	15641.02
465.781	16427.44
465.986	16447.92
466.191	15759.8
466.397	15686.08
466.602	15040.97
466.807	15567.29
467.012	15417.79
467.218	15268.29
467.423	15172.04
467.628	15391.17
