Data from USB4F104151__151__10-26-58-795.txt Node

Date: Wed Mar 12 10:26:58 EDT 2025
User: louis
Spectrometer: USB4F10415
Trigger mode: 4
Integration Time (sec): 3.000000E-2
Scans to average: 1
Electric dark correction enabled: true
Nonlinearity correction enabled: false
Boxcar width: 0
XAxis mode: Wavelengths
Number of Pixels in Spectrum: 3648
>>>>>Begin Spectral Data<<<<<
178.204	-131.24
178.424	-131.24
178.644	-131.24
178.864	-125.1
179.084	-174.25
179.304	-63.66
179.524	22.36
179.744	-16.55
179.964	16.21
180.184	18.26
180.404	46.93
180.624	14.17
180.844	8.02
181.064	-37.03
181.283	8.02
181.503	12.12
181.723	-28.84
181.943	-28.84
182.163	51.03
182.383	-77.99
182.602	57.17
182.822	-0.17
183.042	-2.22
183.262	12.12
183.482	-12.46
183.701	-8.36
183.921	59.22
184.141	5.97
184.361	67.41
184.58	-20.65
184.8	14.17
185.02	-24.75
185.239	57.17
185.459	-14.51
185.679	51.03
185.898	-59.56
186.118	5.97
186.338	22.36
186.557	26.45
186.777	-65.71
186.997	-16.55
187.216	-22.7
187.436	36.69
187.655	24.4
187.875	53.08
188.095	-39.08
188.314	46.93
188.534	8.02
188.753	5.97
188.973	-53.42
189.192	24.4
189.412	75.6
189.631	38.74
189.851	42.84
190.07	79.7
190.29	18.26
190.509	69.46
190.729	12.12
190.948	59.22
191.168	106.32
191.387	40.79
191.607	20.31
191.826	-18.6
192.045	-49.32
192.265	63.32
192.484	-14.51
192.704	79.7
192.923	14.17
193.142	91.99
193.362	-0.17
193.581	32.6
193.8	28.5
194.02	55.12
194.239	-4.27
194.458	16.21
194.678	-10.41
194.897	71.51
195.116	10.07
195.335	-30.89
195.555	20.31
195.774	18.26
195.993	18.26
196.212	48.98
196.432	44.88
196.651	36.69
196.87	-61.61
197.089	48.98
197.308	67.41
197.528	-4.27
197.747	-16.55
197.966	53.08
198.185	102.23
198.404	48.98
198.623	65.36
198.842	26.45
199.062	40.79
199.281	51.03
199.5	10.07
199.719	16.21
199.938	-0.17
200.157	104.28
200.376	91.99
200.595	-30.89
200.814	96.08
201.033	67.41
201.252	36.69
201.471	-4.27
201.69	28.5
201.909	18.26
202.128	-6.31
202.347	55.12
202.566	36.69
202.785	44.88
203.004	-45.23
203.223	122.71
203.442	79.7
203.661	14.17
203.879	32.6
204.098	75.6
204.317	-24.75
204.536	85.84
204.755	-0.17
204.974	22.36
205.193	-26.79
205.411	36.69
205.63	55.12
205.849	61.27
206.068	46.93
206.287	-30.89
206.505	67.41
206.724	38.74
206.943	63.32
207.162	-28.84
207.381	20.31
207.599	-43.18
207.818	-12.46
208.037	16.21
208.255	12.12
208.474	20.31
208.693	61.27
208.911	55.12
209.13	42.84
209.349	34.64
209.567	96.08
209.786	48.98
210.005	38.74
210.223	24.4
210.442	5.97
210.661	53.08
210.879	-22.7
211.098	44.88
211.316	77.65
211.535	53.08
211.753	-37.03
211.972	85.84
212.191	3.93
212.409	71.51
212.628	53.08
212.846	-30.89
213.065	28.5
213.283	42.84
213.502	44.88
213.72	30.55
213.938	26.45
214.157	59.22
214.375	100.18
214.594	36.69
214.812	-45.23
215.031	24.4
215.249	-41.13
215.467	-16.55
215.686	3.93
215.904	30.55
216.122	38.74
216.341	24.4
216.559	24.4
216.778	3.93
216.996	1.88
217.214	14.17
217.432	63.32
217.651	-43.18
217.869	55.12
218.087	28.5
218.306	53.08
218.524	5.97
218.742	-96.43
218.96	59.22
219.179	46.93
219.397	14.17
219.615	79.7
219.833	18.26
220.051	20.31
220.27	77.65
220.488	20.31
220.706	42.84
220.924	-2.22
221.142	-8.36
221.36	38.74
221.578	28.5
221.796	-10.41
222.015	36.69
222.233	91.99
222.451	63.32
222.669	-51.37
222.887	44.88
223.105	22.36
223.323	20.31
223.541	5.97
223.759	44.88
223.977	87.89
224.195	12.12
224.413	-2.22
224.631	1.88
224.849	16.21
225.067	51.03
225.285	83.8
225.503	14.17
225.721	22.36
225.939	79.7
226.157	69.46
226.375	83.8
226.592	22.36
226.81	22.36
227.028	18.26
227.246	73.56
227.464	77.65
227.682	8.02
227.9	34.64
228.117	40.79
228.335	-26.79
228.553	-22.7
228.771	-6.31
228.989	-0.17
229.206	-28.84
229.424	22.36
229.642	34.64
229.86	-41.13
230.077	-55.47
230.295	73.56
230.513	44.88
230.731	-10.41
230.948	63.32
231.166	-6.31
231.384	30.55
231.601	59.22
231.819	89.94
232.037	-24.75
232.254	116.56
232.472	38.74
232.689	-20.65
232.907	81.75
233.125	-2.22
233.342	1.88
233.56	-18.6
233.777	57.17
233.995	46.93
234.213	28.5
234.43	12.12
234.648	-30.89
234.865	46.93
235.083	38.74
235.3	18.26
235.518	8.02
235.735	94.04
235.953	24.4
236.17	-2.22
236.388	-2.22
236.605	-34.99
236.822	34.64
237.04	59.22
237.257	85.84
237.475	-43.18
237.692	-30.89
237.909	34.64
238.127	16.21
238.344	28.5
238.562	-45.23
238.779	5.97
238.996	-16.55
239.214	34.64
239.431	26.45
239.648	-30.89
239.865	-0.17
240.083	89.94
240.3	20.31
240.517	46.93
240.735	28.5
240.952	34.64
241.169	100.18
241.386	38.74
241.603	5.97
241.821	-16.55
242.038	83.8
242.255	77.65
242.472	-10.41
242.689	46.93
242.907	14.17
243.124	18.26
243.341	32.6
243.558	65.36
243.775	-12.46
243.992	-0.17
244.209	51.03
244.426	59.22
244.643	20.31
244.86	26.45
245.078	-18.6
245.295	1.88
245.512	-6.31
245.729	-10.41
245.946	46.93
246.163	79.7
246.38	26.45
246.597	51.03
246.814	69.46
247.031	-8.36
247.248	-2.22
247.464	36.69
247.681	30.55
247.898	-30.89
248.115	34.64
248.332	5.97
248.549	59.22
248.766	59.22
248.983	102.23
249.2	36.69
249.417	-12.46
249.633	-34.99
249.85	46.93
250.067	-80.04
250.284	32.6
250.501	53.08
250.717	87.89
250.934	-20.65
251.151	-26.79
251.368	44.88
251.585	16.21
251.801	-10.41
252.018	-53.42
252.235	8.02
252.451	-8.36
252.668	5.97
252.885	96.08
253.102	38.74
253.318	10.07
253.535	-10.41
253.752	1.88
253.968	67.41
254.185	-26.79
254.401	-26.79
254.618	-0.17
254.835	28.5
255.051	61.27
255.268	32.6
255.484	87.89
255.701	20.31
255.917	112.47
256.134	-51.37
256.351	34.64
256.567	-2.22
256.784	81.75
257	-53.42
257.217	79.7
257.433	61.27
257.65	30.55
257.866	83.8
258.082	28.5
258.299	40.79
258.515	-10.41
258.732	-0.17
258.948	-41.13
259.165	-12.46
259.381	61.27
259.597	40.79
259.814	8.02
260.03	40.79
260.246	16.21
260.463	44.88
260.679	1.88
260.895	-2.22
261.112	69.46
261.328	-47.27
261.544	30.55
261.761	32.6
261.977	51.03
262.193	-37.03
262.409	-8.36
262.626	53.08
262.842	120.66
263.058	12.12
263.274	38.74
263.49	44.88
263.707	73.56
263.923	59.22
264.139	73.56
264.355	30.55
264.571	63.32
264.787	28.5
265.004	94.04
265.22	14.17
265.436	-0.17
265.652	38.74
265.868	94.04
266.084	36.69
266.3	-16.55
266.516	22.36
266.732	20.31
266.948	57.17
267.164	20.31
267.38	34.64
267.596	34.64
267.812	51.03
268.028	12.12
268.244	-37.03
268.46	28.5
268.676	14.17
268.892	5.97
269.108	57.17
269.324	-32.94
269.54	20.31
269.756	100.18
269.972	24.4
270.188	8.02
270.403	3.93
270.619	14.17
270.835	155.47
271.051	96.08
271.267	61.27
271.483	-18.6
271.698	-14.51
271.914	61.27
272.13	-8.36
272.346	51.03
272.562	-49.32
272.777	42.84
272.993	3.93
273.209	38.74
273.425	67.41
273.64	16.21
273.856	24.4
274.072	24.4
274.287	10.07
274.503	51.03
274.719	65.36
274.934	42.84
275.15	18.26
275.366	48.98
275.581	-6.31
275.797	40.79
276.012	-20.65
276.228	-100.52
276.444	53.08
276.659	71.51
276.875	-6.31
277.09	5.97
277.306	-8.36
277.521	30.55
277.737	38.74
277.952	63.32
278.168	63.32
278.383	38.74
278.599	8.02
278.814	112.47
279.03	10.07
279.245	46.93
279.461	55.12
279.676	91.99
279.892	-18.6
280.107	38.74
280.322	-51.37
280.538	42.84
280.753	77.65
280.969	53.08
281.184	75.6
281.399	147.28
281.615	-8.36
281.83	114.52
282.045	-6.31
282.26	83.8
282.476	24.4
282.691	59.22
282.906	-18.6
283.122	38.74
283.337	14.17
283.552	-6.31
283.767	-34.99
283.983	3.93
284.198	5.97
284.413	-8.36
284.628	71.51
284.843	44.88
285.058	79.7
285.274	5.97
285.489	22.36
285.704	36.69
285.919	26.45
286.134	69.46
286.349	-34.99
286.564	42.84
286.779	3.93
286.995	-10.41
287.21	18.26
287.425	55.12
287.64	-8.36
287.855	67.41
288.07	-8.36
288.285	44.88
288.5	71.51
288.715	14.17
288.93	-49.32
289.145	65.36
289.36	32.6
289.575	-24.75
289.79	14.17
290.004	5.97
290.219	61.27
290.434	65.36
290.649	8.02
290.864	77.65
291.079	55.12
291.294	22.36
291.509	-20.65
291.724	-2.22
291.938	-37.03
292.153	51.03
292.368	-20.65
292.583	-10.41
292.798	102.23
293.012	40.79
293.227	-53.42
293.442	46.93
293.657	30.55
293.871	18.26
294.086	20.31
294.301	46.93
294.516	102.23
294.73	1.88
294.945	3.93
295.16	26.45
295.374	51.03
295.589	71.51
295.804	30.55
296.018	36.69
296.233	51.03
296.447	73.56
296.662	12.12
296.877	26.45
297.091	30.55
297.306	12.12
297.52	63.32
297.735	-55.47
297.949	-20.65
298.164	53.08
298.378	1.88
298.593	63.32
298.807	12.12
299.022	106.32
299.236	30.55
299.451	-28.84
299.665	5.97
299.88	-37.03
300.094	59.22
300.309	-18.6
300.523	10.07
300.737	1.88
300.952	55.12
301.166	83.8
301.381	-34.99
301.595	36.69
301.809	28.5
302.024	59.22
302.238	67.41
302.452	3.93
302.667	28.5
302.881	55.12
303.095	112.47
303.309	67.41
303.524	-26.79
303.738	-47.27
303.952	51.03
304.166	91.99
304.381	18.26
304.595	-18.6
304.809	22.36
305.023	-4.27
305.237	16.21
305.452	46.93
305.666	28.5
305.88	108.37
306.094	120.66
306.308	61.27
306.522	108.37
306.736	22.36
306.95	79.7
307.164	81.75
307.379	3.93
307.593	24.4
307.807	44.88
308.021	24.4
308.235	87.89
308.449	22.36
308.663	30.55
308.877	77.65
309.091	3.93
309.305	51.03
309.519	71.51
309.733	85.84
309.947	22.36
310.161	20.31
310.374	-30.89
310.588	165.71
310.802	-43.18
311.016	42.84
311.23	-26.79
311.444	5.97
311.658	18.26
311.872	87.89
312.085	71.51
312.299	30.55
312.513	53.08
312.727	-8.36
312.941	30.55
313.154	38.74
313.368	53.08
313.582	-20.65
313.796	48.98
314.009	28.5
314.223	75.6
314.437	-28.84
314.651	59.22
314.864	10.07
315.078	10.07
315.292	26.45
315.505	53.08
315.719	61.27
315.933	-47.27
316.146	-2.22
316.36	61.27
316.573	104.28
316.787	38.74
317.001	46.93
317.214	-26.79
317.428	48.98
317.641	-28.84
317.855	59.22
318.068	5.97
318.282	20.31
318.495	40.79
318.709	77.65
318.922	-2.22
319.136	16.21
319.349	30.55
319.563	12.12
319.776	132.95
319.99	51.03
320.203	46.93
320.417	81.75
320.63	24.4
320.843	46.93
321.057	-30.89
321.27	34.64
321.483	10.07
321.697	96.08
321.91	73.56
322.124	94.04
322.337	-53.42
322.55	26.45
322.763	42.84
322.977	94.04
323.19	48.98
323.403	110.42
323.617	34.64
323.83	67.41
324.043	57.17
324.256	14.17
324.469	14.17
324.683	28.5
324.896	36.69
325.109	-0.17
325.322	-12.46
325.535	120.66
325.748	75.6
325.962	12.12
326.175	-32.94
326.388	18.26
326.601	22.36
326.814	-6.31
327.027	83.8
327.24	46.93
327.453	-34.99
327.666	46.93
327.879	34.64
328.092	89.94
328.305	1.88
328.518	44.88
328.731	55.12
328.944	-10.41
329.157	-18.6
329.37	44.88
329.583	104.28
329.796	59.22
330.009	-6.31
330.222	63.32
330.435	38.74
330.648	-8.36
330.861	69.46
331.073	48.98
331.286	36.69
331.499	38.74
331.712	87.89
331.925	36.69
332.138	-30.89
332.35	96.08
332.563	-34.99
332.776	100.18
332.989	-10.41
333.202	3.93
333.414	46.93
333.627	-8.36
333.84	-12.46
334.053	59.22
334.265	75.6
334.478	53.08
334.691	51.03
334.903	16.21
335.116	3.93
335.329	83.8
335.541	10.07
335.754	126.8
335.966	28.5
336.179	-71.85
336.392	40.79
336.604	16.21
336.817	73.56
337.029	30.55
337.242	12.12
337.454	16.21
337.667	135
337.88	38.74
338.092	32.6
338.305	112.47
338.517	46.93
338.729	77.65
338.942	36.69
339.154	114.52
339.367	38.74
339.579	89.94
339.792	132.95
340.004	55.12
340.217	42.84
340.429	96.08
340.641	-55.47
340.854	-28.84
341.066	79.7
341.278	85.84
341.491	18.26
341.703	40.79
341.915	26.45
342.128	85.84
342.34	24.4
342.552	-53.42
342.764	57.17
342.977	38.74
343.189	-39.08
343.401	57.17
343.613	-63.66
343.826	38.74
344.038	34.64
344.25	73.56
344.462	1.88
344.674	18.26
344.886	3.93
345.099	100.18
345.311	10.07
345.523	30.55
345.735	-43.18
345.947	44.88
346.159	-4.27
346.371	71.51
346.583	51.03
346.795	126.8
347.007	20.31
347.219	34.64
347.431	79.7
347.643	53.08
347.855	-0.17
348.067	40.79
348.279	24.4
348.491	32.6
348.703	55.12
348.915	-14.51
349.127	83.8
349.339	46.93
349.551	-0.17
349.763	96.08
349.975	96.08
350.187	24.4
350.399	51.03
350.61	120.66
350.822	-18.6
351.034	69.46
351.246	44.88
351.458	85.84
351.669	63.32
351.881	26.45
352.093	98.13
352.305	8.02
352.517	-63.66
352.728	71.51
352.94	10.07
353.152	75.6
353.363	32.6
353.575	38.74
353.787	85.84
353.999	106.32
354.21	108.37
354.422	14.17
354.633	77.65
354.845	10.07
355.057	38.74
355.268	3.93
355.48	-0.17
355.692	1.88
355.903	30.55
356.115	46.93
356.326	-43.18
356.538	94.04
356.749	5.97
356.961	69.46
357.172	69.46
357.384	32.6
357.595	69.46
357.807	51.03
358.018	81.75
358.23	106.32
358.441	112.47
358.653	34.64
358.864	44.88
359.075	-18.6
359.287	104.28
359.498	96.08
359.709	65.36
359.921	71.51
360.132	46.93
360.344	44.88
360.555	-8.36
360.766	102.23
360.977	-43.18
361.189	30.55
361.4	55.12
361.611	147.28
361.823	57.17
362.034	63.32
362.245	-73.9
362.456	28.5
362.667	-12.46
362.879	51.03
363.09	46.93
363.301	53.08
363.512	30.55
363.723	53.08
363.935	61.27
364.146	53.08
364.357	22.36
364.568	85.84
364.779	42.84
364.99	77.65
365.201	55.12
365.412	75.6
365.623	34.64
365.834	120.66
366.045	46.93
366.256	96.08
366.467	87.89
366.678	12.12
366.889	28.5
367.1	30.55
367.311	63.32
367.522	-6.31
367.733	34.64
367.944	46.93
368.155	55.12
368.366	79.7
368.577	91.99
368.788	63.32
368.999	30.55
369.209	91.99
369.42	36.69
369.631	44.88
369.842	63.32
370.053	44.88
370.264	114.52
370.474	63.32
370.685	96.08
370.896	-34.99
371.107	77.65
371.317	8.02
371.528	-18.6
371.739	104.28
371.95	36.69
372.16	112.47
372.371	-39.08
372.582	130.9
372.792	51.03
373.003	96.08
373.214	81.75
373.424	51.03
373.635	-20.65
373.846	46.93
374.056	22.36
374.267	-16.55
374.477	36.69
374.688	61.27
374.898	65.36
375.109	-18.6
375.319	28.5
375.53	5.97
375.74	16.21
375.951	-16.55
376.161	112.47
376.372	-14.51
376.582	42.84
376.793	40.79
377.003	-0.17
377.214	38.74
377.424	87.89
377.635	26.45
377.845	55.12
378.055	59.22
378.266	-26.79
378.476	-59.56
378.686	57.17
378.897	167.76
379.107	24.4
379.317	3.93
379.528	26.45
379.738	36.69
379.948	-20.65
380.158	53.08
380.369	71.51
380.579	79.7
380.789	51.03
380.999	65.36
381.21	20.31
381.42	108.37
381.63	104.28
381.84	108.37
382.05	53.08
382.261	139.09
382.471	55.12
382.681	-6.31
382.891	190.29
383.101	42.84
383.311	-10.41
383.521	18.26
383.731	59.22
383.941	61.27
384.151	59.22
384.361	12.12
384.571	104.28
384.781	30.55
384.991	30.55
385.201	79.7
385.411	116.56
385.621	28.5
385.831	38.74
386.041	71.51
386.251	12.12
386.461	112.47
386.671	38.74
386.881	32.6
387.091	14.17
387.301	118.61
387.511	28.5
387.72	91.99
387.93	42.84
388.14	46.93
388.35	104.28
388.56	32.6
388.769	59.22
388.979	10.07
389.189	116.56
389.399	128.85
389.609	65.36
389.818	61.27
390.028	36.69
390.238	26.45
390.447	81.75
390.657	112.47
390.867	1.88
391.076	14.17
391.286	38.74
391.496	67.41
391.705	42.84
391.915	116.56
392.125	116.56
392.334	42.84
392.544	112.47
392.753	55.12
392.963	71.51
393.172	22.36
393.382	-4.27
393.591	145.24
393.801	98.13
394.01	18.26
394.22	59.22
394.429	-14.51
394.639	53.08
394.848	46.93
395.058	98.13
395.267	36.69
395.477	108.37
395.686	61.27
395.895	112.47
396.105	122.71
396.314	135
396.524	132.95
396.733	110.42
396.942	143.19
397.152	75.6
397.361	141.14
397.57	53.08
397.78	61.27
397.989	161.62
398.198	61.27
398.407	91.99
398.617	83.8
398.826	77.65
399.035	149.33
399.244	51.03
399.453	83.8
399.663	63.32
399.872	108.37
400.081	139.09
400.29	159.57
400.499	98.13
400.708	143.19
400.917	126.8
401.127	110.42
401.336	94.04
401.545	137.04
401.754	104.28
401.963	147.28
402.172	81.75
402.381	106.32
402.59	67.41
402.799	196.43
403.008	120.66
403.217	132.95
403.426	128.85
403.635	28.5
403.844	143.19
404.053	175.95
404.262	65.36
404.471	98.13
404.68	192.34
404.888	198.48
405.097	192.34
405.306	180.05
405.515	124.76
405.724	200.53
405.933	202.58
406.142	85.84
406.35	237.39
406.559	145.24
406.768	175.95
406.977	210.77
407.185	216.91
407.394	216.91
407.603	200.53
407.812	304.98
408.02	247.63
408.229	282.45
408.438	188.24
408.646	276.31
408.855	266.07
409.064	276.31
409.272	282.45
409.481	307.02
409.69	296.78
409.898	325.46
410.107	356.18
410.315	374.61
410.524	323.41
410.733	317.26
410.941	323.41
411.15	397.14
411.358	397.14
411.567	464.72
411.775	395.09
411.984	429.9
412.192	450.38
412.401	483.15
412.609	468.81
412.818	513.87
413.026	544.59
413.234	499.53
413.443	489.29
413.651	601.93
413.86	626.51
414.068	661.32
414.276	653.13
414.485	657.23
414.693	657.23
414.901	667.47
415.11	733
415.318	683.85
415.526	816.97
415.734	776.01
415.943	786.25
416.151	880.46
416.359	913.22
416.567	890.7
416.776	888.65
416.984	1027.91
417.192	1046.34
417.4	974.66
417.608	999.24
417.817	1099.59
418.025	1152.84
418.233	1290.05
418.441	1279.81
418.649	1279.81
418.857	1259.33
419.065	1345.34
419.273	1349.44
419.481	1394.5
419.689	1525.57
419.897	1447.74
420.105	1689.4
420.313	1658.68
420.521	1750.84
420.729	1693.5
420.937	1761.08
421.145	1849.15
421.353	1935.16
421.561	1982.26
421.769	2137.91
421.977	2187.06
422.185	2176.82
422.393	2291.51
422.601	2348.85
422.809	2336.56
423.017	2383.66
423.224	2590.51
423.432	2625.33
423.64	2590.51
423.848	2961.19
424.056	2807.59
424.263	3010.34
424.471	3061.54
424.679	3133.22
424.887	3233.57
425.094	3350.31
425.302	3352.35
425.51	3503.9
425.718	3594.01
425.925	3682.08
426.133	3774.24
426.341	3903.26
426.548	4144.92
426.756	3987.22
426.964	4196.12
427.171	4556.56
427.379	4409.11
427.586	4683.53
427.794	4769.55
428.001	4937.48
428.209	5224.2
428.417	5132.04
428.624	5551.87
428.832	5390.08
429.039	5496.58
429.247	5582.59
429.454	5873.4
429.662	6491.89
429.869	6104.82
430.076	6371.06
430.284	6199.03
430.491	6442.74
430.699	6993.64
430.906	6862.57
431.114	6770.41
431.321	7362.28
431.528	7366.37
431.736	7870.17
431.943	8097.5
432.15	7800.54
432.358	8011.48
432.565	8138.46
432.772	8388.31
432.979	8806.09
433.187	9004.75
433.394	9070.28
433.601	9678.53
433.808	9729.73
434.016	9510.6
434.223	10098.36
434.43	10675.89
434.637	10194.62
434.844	11009.71
435.052	11329.19
435.259	11095.72
435.466	11495.08
435.673	11212.46
435.88	11880.1
436.087	12510.87
436.294	12347.03
436.501	11935.39
436.708	12373.66
436.915	12865.17
437.122	13403.78
437.329	13401.74
437.537	13790.85
437.743	13842.05
437.95	13958.78
438.157	14612.09
438.364	15261.29
438.571	15296.11
438.778	15240.81
438.985	16522.84
439.192	15797.86
439.399	16397.92
439.606	16164.45
439.813	16957.01
440.02	17976.9
440.227	17772.1
440.433	17645.13
440.64	18200.13
440.847	18046.53
441.054	18273.85
441.261	19654.19
441.467	19299.89
441.674	19719.72
441.881	20348.45
442.088	20487.71
442.294	20248.1
442.501	20760.09
442.708	21141.01
442.914	22165
443.121	22584.83
443.328	22375.94
443.534	23707.12
443.741	23215.6
443.948	22836.73
444.154	24507.87
444.361	24356.32
444.568	24374.75
444.774	24495.58
444.981	25077.21
445.187	25263.57
445.394	26471.87
445.6	26226.12
445.807	28591.52
446.013	27418.03
446.22	27839.92
446.426	29244.82
446.633	28589.47
446.839	30373.25
447.046	28741.02
447.252	30778.75
447.459	30553.48
447.665	30322.05
447.871	31446.39
448.078	33181.02
448.284	31114.62
448.491	32056.68
448.697	33408.34
448.903	33930.58
449.11	33996.11
449.316	33246.55
449.522	33957.2
449.728	35138.88
449.935	35347.77
450.141	35038.53
450.347	35937.58
450.553	34989.38
450.76	35040.57
450.966	36140.33
451.172	35917.11
451.378	36621.61
451.584	36109.61
451.791	36482.34
451.997	36932.9
452.203	37047.58
452.409	37070.11
452.615	37039.39
452.821	35736.88
453.027	35491.13
453.233	37207.33
453.44	35585.33
453.646	35820.85
453.852	36113.71
454.058	36517.16
454.264	35786.04
454.47	36138.29
454.676	35016
454.882	36082.99
455.088	33058.14
455.294	33303.9
455.5	34092.37
455.705	34295.11
455.911	33301.85
456.117	32222.57
456.323	32179.56
456.529	30430.6
456.735	31698.29
456.941	30729.6
457.147	30123.4
457.352	29293.97
457.558	28724.64
457.764	29031.83
457.97	28429.73
458.176	27807.15
458.381	27938.22
458.587	26484.16
458.793	26238.4
458.999	25249.24
459.204	26586.56
459.41	26303.94
459.616	24475.1
459.821	24454.62
460.027	24286.69
460.233	23682.54
460.438	22388.22
460.644	23045.62
460.85	21925.38
461.055	21644.81
461.261	21462.54
461.466	20319.78
461.672	19258.93
461.878	20868.63
462.083	19469.87
462.289	18884.15
462.494	19088.95
462.7	18171.46
462.905	17331.79
463.111	18118.21
463.316	18179.65
463.522	17692.23
463.727	17823.3
463.932	17671.75
464.138	17405.52
464.343	17419.85
464.549	17335.88
464.754	17516.11
464.959	17514.06
465.165	17573.45
465.37	16664.15
465.575	16383.58
465.781	16672.34
465.986	17038.93
466.191	16195.17
466.397	16264.8
466.602	15310.44
466.807	15844.96
467.012	15953.51
467.218	15978.08
