Data from USB4F104151__279__10-41-12-499.txt Node

Date: Wed Mar 12 10:41:12 EDT 2025
User: louis
Spectrometer: USB4F10415
Trigger mode: 4
Integration Time (sec): 3.000000E-2
Scans to average: 1
Electric dark correction enabled: true
Nonlinearity correction enabled: false
Boxcar width: 0
XAxis mode: Wavelengths
Number of Pixels in Spectrum: 3648
>>>>>Begin Spectral Data<<<<<
178.204	-119.98
178.424	-119.98
178.644	-119.98
178.864	-68.78
179.084	-19.63
179.304	11.09
179.524	-7.34
179.744	-40.11
179.964	68.44
180.184	-15.53
180.404	15.19
180.624	21.33
180.844	-50.35
181.064	2.9
181.283	-15.53
181.503	-46.25
181.723	56.15
181.943	-27.82
182.163	97.11
182.383	-19.63
182.602	90.96
182.822	33.62
183.042	60.24
183.262	88.92
183.482	88.92
183.701	35.67
183.921	-23.72
184.141	56.15
184.361	142.16
184.58	11.09
184.8	58.2
185.02	21.33
185.239	76.63
185.459	103.25
185.679	156.5
185.898	-19.63
186.118	66.39
186.338	29.52
186.557	21.33
186.777	-5.29
186.997	27.48
187.216	60.24
187.436	88.92
187.655	70.48
187.875	70.48
188.095	-42.15
188.314	58.2
188.534	101.2
188.753	103.25
188.973	35.67
189.192	72.53
189.412	-50.35
189.631	62.29
189.851	37.72
190.07	107.35
190.29	27.48
190.509	-3.24
190.729	70.48
190.948	45.91
191.168	162.64
191.387	111.44
191.607	-29.87
191.826	9.05
192.045	-13.48
192.265	-7.34
192.484	43.86
192.704	-27.82
192.923	31.57
193.142	170.83
193.362	82.77
193.581	103.25
193.8	88.92
194.02	41.81
194.239	68.44
194.458	37.72
194.678	-33.96
194.897	121.68
195.116	72.53
195.335	86.87
195.555	99.16
195.774	52.05
195.993	60.24
196.212	41.81
196.432	62.29
196.651	97.11
196.87	45.91
197.089	90.96
197.308	84.82
197.528	17.24
197.747	-13.48
197.966	66.39
198.185	101.2
198.404	4.95
198.623	107.35
198.842	95.06
199.062	150.36
199.281	101.2
199.5	11.09
199.719	13.14
199.938	68.44
200.157	45.91
200.376	105.3
200.595	-13.48
200.814	66.39
201.033	-48.3
201.252	25.43
201.471	95.06
201.69	76.63
201.909	35.67
202.128	74.58
202.347	101.2
202.566	4.95
202.785	-9.39
203.004	2.9
203.223	82.77
203.442	25.43
203.661	64.34
203.879	37.72
204.098	113.49
204.317	33.62
204.536	90.96
204.755	62.29
204.974	41.81
205.193	15.19
205.411	105.3
205.63	103.25
205.849	21.33
206.068	37.72
206.287	47.96
206.505	78.68
206.724	68.44
206.943	13.14
207.162	-3.24
207.381	11.09
207.599	37.72
207.818	93.01
208.037	52.05
208.255	-1.19
208.474	84.82
208.693	78.68
208.911	60.24
209.13	66.39
209.349	95.06
209.567	123.73
209.786	47.96
210.005	23.38
210.223	54.1
210.442	-7.34
210.661	58.2
210.879	47.96
211.098	13.14
211.316	-13.48
211.535	-17.58
211.753	119.64
211.972	2.9
212.191	56.15
212.409	60.24
212.628	84.82
212.846	84.82
213.065	82.77
213.283	97.11
213.502	54.1
213.72	37.72
213.938	9.05
214.157	74.58
214.375	54.1
214.594	68.44
214.812	64.34
215.031	105.3
215.249	13.14
215.467	109.4
215.686	39.76
215.904	21.33
216.122	17.24
216.341	123.73
216.559	86.87
216.778	111.44
216.996	47.96
217.214	-44.2
217.432	47.96
217.651	58.2
217.869	23.38
218.087	-23.72
218.306	70.48
218.524	68.44
218.742	105.3
218.96	88.92
219.179	56.15
219.397	41.81
219.615	45.91
219.833	-17.58
220.051	-52.39
220.27	99.16
220.488	-3.24
220.706	84.82
220.924	11.09
221.142	140.12
221.36	82.77
221.578	60.24
221.796	43.86
222.015	25.43
222.233	74.58
222.451	82.77
222.669	21.33
222.887	86.87
223.105	70.48
223.323	70.48
223.541	35.67
223.759	97.11
223.977	-3.24
224.195	74.58
224.413	103.25
224.631	58.2
224.849	101.2
225.067	72.53
225.285	45.91
225.503	-15.53
225.721	13.14
225.939	84.82
226.157	76.63
226.375	54.1
226.592	62.29
226.81	2.9
227.028	25.43
227.246	105.3
227.464	35.67
227.682	23.38
227.9	13.14
228.117	31.57
228.335	56.15
228.553	86.87
228.771	25.43
228.989	-15.53
229.206	90.96
229.424	82.77
229.642	54.1
229.86	45.91
230.077	78.68
230.295	50
230.513	123.73
230.731	82.77
230.948	72.53
231.166	33.62
231.384	62.29
231.601	-11.43
231.819	72.53
232.037	72.53
232.254	66.39
232.472	7
232.689	125.78
232.907	93.01
233.125	47.96
233.342	43.86
233.56	68.44
233.777	-33.96
233.995	25.43
234.213	54.1
234.43	60.24
234.648	62.29
234.865	115.54
235.083	56.15
235.3	70.48
235.518	103.25
235.735	99.16
235.953	90.96
236.17	21.33
236.388	56.15
236.605	68.44
236.822	54.1
237.04	58.2
237.257	-25.77
237.475	62.29
237.692	74.58
237.909	43.86
238.127	4.95
238.344	78.68
238.562	19.29
238.779	58.2
238.996	-54.44
239.214	95.06
239.431	76.63
239.648	31.57
239.865	123.73
240.083	90.96
240.3	2.9
240.517	-11.43
240.735	56.15
240.952	54.1
241.169	86.87
241.386	-19.63
241.603	37.72
241.821	62.29
242.038	15.19
242.255	41.81
242.472	15.19
242.689	136.02
242.907	31.57
243.124	31.57
243.341	66.39
243.558	50
243.775	84.82
243.992	17.24
244.209	50
244.426	136.02
244.643	52.05
244.86	31.57
245.078	15.19
245.295	78.68
245.512	80.72
245.729	43.86
245.946	74.58
246.163	17.24
246.38	103.25
246.597	37.72
246.814	-7.34
247.031	2.9
247.248	95.06
247.464	45.91
247.681	54.1
247.898	39.76
248.115	72.53
248.332	9.05
248.549	76.63
248.766	136.02
248.983	37.72
249.2	17.24
249.417	80.72
249.633	33.62
249.85	54.1
250.067	43.86
250.284	2.9
250.501	54.1
250.717	41.81
250.934	25.43
251.151	15.19
251.368	113.49
251.585	56.15
251.801	0.85
252.018	54.1
252.235	70.48
252.451	0.85
252.668	-21.67
252.885	62.29
253.102	62.29
253.318	15.19
253.535	86.87
253.752	4.95
253.968	101.2
254.185	19.29
254.401	25.43
254.618	97.11
254.835	9.05
255.051	78.68
255.268	27.48
255.484	72.53
255.701	0.85
255.917	99.16
256.134	43.86
256.351	-3.24
256.567	39.76
256.784	88.92
257	70.48
257.217	-19.63
257.433	115.54
257.65	52.05
257.866	86.87
258.082	50
258.299	52.05
258.515	52.05
258.732	37.72
258.948	-25.77
259.165	95.06
259.381	50
259.597	72.53
259.814	-9.39
260.03	43.86
260.246	27.48
260.463	68.44
260.679	84.82
260.895	31.57
261.112	119.64
261.328	133.97
261.544	29.52
261.761	86.87
261.977	90.96
262.193	21.33
262.409	78.68
262.626	115.54
262.842	123.73
263.058	39.76
263.274	123.73
263.49	60.24
263.707	113.49
263.923	54.1
264.139	37.72
264.355	60.24
264.571	121.68
264.787	70.48
265.004	133.97
265.22	103.25
265.436	41.81
265.652	2.9
265.868	109.4
266.084	86.87
266.3	121.68
266.516	4.95
266.732	86.87
266.948	35.67
267.164	-11.43
267.38	74.58
267.596	99.16
267.812	111.44
268.028	35.67
268.244	4.95
268.46	52.05
268.676	13.14
268.892	68.44
269.108	2.9
269.324	0.85
269.54	84.82
269.756	33.62
269.972	82.77
270.188	88.92
270.403	101.2
270.619	47.96
270.835	17.24
271.051	0.85
271.267	21.33
271.483	88.92
271.698	70.48
271.914	-13.48
272.13	88.92
272.346	103.25
272.562	76.63
272.777	90.96
272.993	35.67
273.209	47.96
273.425	93.01
273.64	-11.43
273.856	82.77
274.072	41.81
274.287	-1.19
274.503	119.64
274.719	31.57
274.934	60.24
275.15	4.95
275.366	70.48
275.581	60.24
275.797	17.24
276.012	70.48
276.228	72.53
276.444	29.52
276.659	52.05
276.875	82.77
277.09	29.52
277.306	23.38
277.521	119.64
277.737	25.43
277.952	121.68
278.168	13.14
278.383	70.48
278.599	-33.96
278.814	27.48
279.03	80.72
279.245	58.2
279.461	105.3
279.676	113.49
279.892	-9.39
280.107	60.24
280.322	-25.77
280.538	21.33
280.753	64.34
280.969	45.91
281.184	43.86
281.399	27.48
281.615	68.44
281.83	86.87
282.045	97.11
282.26	31.57
282.476	56.15
282.691	25.43
282.906	19.29
283.122	13.14
283.337	21.33
283.552	90.96
283.767	47.96
283.983	39.76
284.198	68.44
284.413	43.86
284.628	52.05
284.843	15.19
285.058	82.77
285.274	129.88
285.489	62.29
285.704	119.64
285.919	2.9
286.134	66.39
286.349	43.86
286.564	52.05
286.779	86.87
286.995	7
287.21	-5.29
287.425	0.85
287.64	19.29
287.855	97.11
288.07	-38.06
288.285	54.1
288.5	74.58
288.715	31.57
288.93	4.95
289.145	45.91
289.36	111.44
289.575	99.16
289.79	90.96
290.004	-3.24
290.219	101.2
290.434	35.67
290.649	70.48
290.864	9.05
291.079	-5.29
291.294	-23.72
291.509	90.96
291.724	101.2
291.938	58.2
292.153	72.53
292.368	23.38
292.583	13.14
292.798	25.43
293.012	111.44
293.227	15.19
293.442	23.38
293.657	115.54
293.871	31.57
294.086	123.73
294.301	33.62
294.516	103.25
294.73	66.39
294.945	-13.48
295.16	-23.72
295.374	84.82
295.589	84.82
295.804	113.49
296.018	60.24
296.233	111.44
296.447	41.81
296.662	-9.39
296.877	109.4
297.091	97.11
297.306	-5.29
297.52	31.57
297.735	58.2
297.949	76.63
298.164	105.3
298.378	45.91
298.593	17.24
298.807	15.19
299.022	21.33
299.236	105.3
299.451	90.96
299.665	109.4
299.88	43.86
300.094	41.81
300.309	95.06
300.523	62.29
300.737	29.52
300.952	11.09
301.166	95.06
301.381	25.43
301.595	37.72
301.809	90.96
302.024	76.63
302.238	-13.48
302.452	123.73
302.667	62.29
302.881	90.96
303.095	162.64
303.309	31.57
303.524	43.86
303.738	80.72
303.952	78.68
304.166	76.63
304.381	-29.87
304.595	127.83
304.809	50
305.023	43.86
305.237	7
305.452	37.72
305.666	82.77
305.88	72.53
306.094	111.44
306.308	117.59
306.522	97.11
306.736	60.24
306.95	25.43
307.164	66.39
307.379	33.62
307.593	45.91
307.807	31.57
308.021	107.35
308.235	25.43
308.449	-72.87
308.663	103.25
308.877	76.63
309.091	86.87
309.305	107.35
309.519	29.52
309.733	54.1
309.947	52.05
310.161	35.67
310.374	82.77
310.588	95.06
310.802	-17.58
311.016	-3.24
311.23	74.58
311.444	37.72
311.658	107.35
311.872	70.48
312.085	97.11
312.299	95.06
312.513	99.16
312.727	45.91
312.941	31.57
313.154	70.48
313.368	68.44
313.582	72.53
313.796	97.11
314.009	66.39
314.223	74.58
314.437	50
314.651	123.73
314.864	-11.43
315.078	88.92
315.292	72.53
315.505	19.29
315.719	9.05
315.933	95.06
316.146	86.87
316.36	9.05
316.573	93.01
316.787	33.62
317.001	78.68
317.214	93.01
317.428	25.43
317.641	17.24
317.855	80.72
318.068	70.48
318.282	25.43
318.495	111.44
318.709	39.76
318.922	-11.43
319.136	111.44
319.349	60.24
319.563	156.5
319.776	27.48
319.99	7
320.203	142.16
320.417	13.14
320.63	60.24
320.843	156.5
321.057	88.92
321.27	107.35
321.483	25.43
321.697	156.5
321.91	105.3
322.124	84.82
322.337	70.48
322.55	78.68
322.763	78.68
322.977	133.97
323.19	27.48
323.403	50
323.617	107.35
323.83	88.92
324.043	74.58
324.256	97.11
324.469	76.63
324.683	156.5
324.896	82.77
325.109	90.96
325.322	4.95
325.535	58.2
325.748	78.68
325.962	58.2
326.175	99.16
326.388	52.05
326.601	68.44
326.814	103.25
327.027	80.72
327.24	58.2
327.453	-23.72
327.666	95.06
327.879	121.68
328.092	70.48
328.305	84.82
328.518	13.14
328.731	43.86
328.944	72.53
329.157	25.43
329.37	123.73
329.583	62.29
329.796	86.87
330.009	-5.29
330.222	80.72
330.435	109.4
330.648	74.58
330.861	43.86
331.073	82.77
331.286	107.35
331.499	19.29
331.712	11.09
331.925	72.53
332.138	11.09
332.35	66.39
332.563	82.77
332.776	68.44
332.989	43.86
333.202	29.52
333.414	68.44
333.627	64.34
333.84	111.44
334.053	97.11
334.265	4.95
334.478	-1.19
334.691	39.76
334.903	74.58
335.116	45.91
335.329	35.67
335.541	33.62
335.754	119.64
335.966	21.33
336.179	54.1
336.392	115.54
336.604	123.73
336.817	13.14
337.029	62.29
337.242	33.62
337.454	93.01
337.667	45.91
337.88	142.16
338.092	140.12
338.305	101.2
338.517	84.82
338.729	101.2
338.942	86.87
339.154	111.44
339.367	15.19
339.579	50
339.792	41.81
340.004	72.53
340.217	4.95
340.429	39.76
340.641	15.19
340.854	9.05
341.066	4.95
341.278	97.11
341.491	80.72
341.703	62.29
341.915	117.59
342.128	109.4
342.34	60.24
342.552	-50.35
342.764	105.3
342.977	115.54
343.189	35.67
343.401	23.38
343.613	43.86
343.826	97.11
344.038	62.29
344.25	45.91
344.462	121.68
344.674	29.52
344.886	74.58
345.099	76.63
345.311	58.2
345.523	41.81
345.735	70.48
345.947	80.72
346.159	109.4
346.371	80.72
346.583	62.29
346.795	168.79
347.007	19.29
347.219	105.3
347.431	72.53
347.643	172.88
347.855	66.39
348.067	31.57
348.279	29.52
348.491	74.58
348.703	82.77
348.915	109.4
349.127	115.54
349.339	58.2
349.551	-36.01
349.763	99.16
349.975	33.62
350.187	78.68
350.399	105.3
350.61	127.83
350.822	37.72
351.034	86.87
351.246	45.91
351.458	68.44
351.669	50
351.881	101.2
352.093	58.2
352.305	158.55
352.517	111.44
352.728	101.2
352.94	31.57
353.152	62.29
353.363	54.1
353.575	60.24
353.787	17.24
353.999	148.31
354.21	68.44
354.422	37.72
354.633	93.01
354.845	80.72
355.057	76.63
355.268	66.39
355.48	154.45
355.692	60.24
355.903	27.48
356.115	60.24
356.326	58.2
356.538	136.02
356.749	156.5
356.961	113.49
357.172	52.05
357.384	58.2
357.595	189.27
357.807	29.52
358.018	25.43
358.23	-36.01
358.441	131.92
358.653	131.92
358.864	37.72
359.075	74.58
359.287	84.82
359.498	29.52
359.709	93.01
359.921	70.48
360.132	45.91
360.344	115.54
360.555	103.25
360.766	58.2
360.977	74.58
361.189	121.68
361.4	93.01
361.611	164.69
361.823	29.52
362.034	93.01
362.245	82.77
362.456	78.68
362.667	54.1
362.879	54.1
363.09	41.81
363.301	82.77
363.512	35.67
363.723	41.81
363.935	15.19
364.146	80.72
364.357	21.33
364.568	66.39
364.779	45.91
364.99	103.25
365.201	50
365.412	138.07
365.623	101.2
365.834	72.53
366.045	95.06
366.256	109.4
366.467	119.64
366.678	58.2
366.889	80.72
367.1	74.58
367.311	93.01
367.522	103.25
367.733	125.78
367.944	60.24
368.155	86.87
368.366	60.24
368.577	84.82
368.788	54.1
368.999	35.67
369.209	168.79
369.42	138.07
369.631	138.07
369.842	43.86
370.053	119.64
370.264	88.92
370.474	99.16
370.685	103.25
370.896	39.76
371.107	152.4
371.317	82.77
371.528	78.68
371.739	78.68
371.95	76.63
372.16	115.54
372.371	21.33
372.582	66.39
372.792	109.4
373.003	29.52
373.214	203.6
373.424	97.11
373.635	72.53
373.846	138.07
374.056	60.24
374.267	62.29
374.477	88.92
374.688	93.01
374.898	133.97
375.109	80.72
375.319	-11.43
375.53	58.2
375.74	129.88
375.951	82.77
376.161	78.68
376.372	123.73
376.582	107.35
376.793	97.11
377.003	125.78
377.214	105.3
377.424	74.58
377.635	99.16
377.845	52.05
378.055	152.4
378.266	117.59
378.476	41.81
378.686	103.25
378.897	95.06
379.107	72.53
379.317	109.4
379.528	50
379.738	45.91
379.948	-7.34
380.158	133.97
380.369	66.39
380.579	136.02
380.789	82.77
380.999	37.72
381.21	103.25
381.42	150.36
381.63	25.43
381.84	121.68
382.05	72.53
382.261	164.69
382.471	66.39
382.681	84.82
382.891	156.5
383.101	152.4
383.311	0.85
383.521	111.44
383.731	99.16
383.941	35.67
384.151	13.14
384.361	82.77
384.571	74.58
384.781	119.64
384.991	185.17
385.201	117.59
385.411	107.35
385.621	109.4
385.831	60.24
386.041	50
386.251	62.29
386.461	146.26
386.671	25.43
386.881	15.19
387.091	50
387.301	152.4
387.511	103.25
387.72	43.86
387.93	150.36
388.14	88.92
388.35	136.02
388.56	84.82
388.769	54.1
388.979	152.4
389.189	19.29
389.399	64.34
389.609	78.68
389.818	125.78
390.028	109.4
390.238	84.82
390.447	54.1
390.657	93.01
390.867	62.29
391.076	95.06
391.286	101.2
391.496	129.88
391.705	119.64
391.915	148.31
392.125	86.87
392.334	121.68
392.544	123.73
392.753	97.11
392.963	86.87
393.172	74.58
393.382	90.96
393.591	201.55
393.801	138.07
394.01	158.55
394.22	160.59
394.429	97.11
394.639	115.54
394.848	115.54
395.058	101.2
395.267	99.16
395.477	144.21
395.686	86.87
395.895	234.32
396.105	107.35
396.314	189.27
396.524	174.93
396.733	119.64
396.942	129.88
397.152	133.97
397.361	162.64
397.57	74.58
397.78	109.4
397.989	181.07
398.198	146.26
398.407	172.88
398.617	142.16
398.826	133.97
399.035	172.88
399.244	97.11
399.453	158.55
399.663	170.83
399.872	176.98
400.081	138.07
400.29	185.17
400.499	185.17
400.708	181.07
400.917	172.88
401.127	76.63
401.336	113.49
401.545	209.75
401.754	197.46
401.963	267.09
402.172	164.69
402.381	119.64
402.59	133.97
402.799	107.35
403.008	117.59
403.217	148.31
403.426	234.32
403.635	219.99
403.844	168.79
404.053	152.4
404.262	160.59
404.471	138.07
404.68	254.8
404.888	150.36
405.097	209.75
405.306	179.03
405.515	197.46
405.724	211.79
405.933	334.67
406.142	324.43
406.35	217.94
406.559	230.23
406.768	222.03
406.977	324.43
407.185	297.81
407.394	265.04
407.603	273.23
407.812	258.9
408.02	250.71
408.229	283.47
408.438	195.41
408.646	330.58
408.855	273.23
409.064	404.3
409.272	295.76
409.481	387.92
409.69	359.25
409.898	394.06
410.107	424.78
410.315	406.35
410.524	435.02
410.733	471.89
410.941	377.68
411.15	478.03
411.358	455.5
411.567	510.8
411.775	502.61
411.984	475.98
412.192	518.99
412.401	484.17
412.609	539.47
412.818	527.18
413.026	578.38
413.234	596.81
413.443	637.77
413.651	678.73
413.86	660.3
414.068	717.64
414.276	643.92
414.485	652.11
414.693	789.32
414.901	832.33
415.11	799.56
415.318	758.6
415.526	863.05
415.734	897.86
415.943	985.93
416.151	947.01
416.359	1006.41
416.567	994.12
416.776	996.17
416.984	1090.37
417.192	1149.76
417.4	1178.44
417.608	1088.32
417.817	1112.9
418.025	1286.98
418.233	1299.27
418.441	1309.51
418.649	1424.19
418.857	1401.66
419.065	1551.17
419.273	1416
419.481	1540.93
419.689	1663.8
419.897	1626.94
420.105	1676.09
420.313	1667.9
420.521	1868.6
420.729	1823.55
420.937	1887.03
421.145	1962.81
421.353	1985.34
421.561	2216.76
421.769	2059.06
421.977	2382.64
422.185	2310.96
422.393	2274.1
422.601	2472.75
422.809	2452.27
423.017	2552.62
423.224	2669.36
423.432	2771.76
423.64	2751.28
423.848	2943.78
424.056	2962.22
424.263	3066.66
424.471	3132.2
424.679	3207.97
424.887	3392.29
425.094	3527.46
425.302	3570.46
425.51	3660.57
425.718	3785.5
425.925	3785.5
426.133	3881.75
426.341	4203.29
426.548	4270.87
426.756	4377.36
426.964	4395.79
427.171	4655.89
427.379	4692.75
427.586	4741.9
427.794	5001.99
428.001	5174.02
428.209	5483.27
428.417	5344
428.624	5878.52
428.832	5735.17
429.039	5673.73
429.247	5776.13
429.454	6277.88
429.662	6714.09
429.869	6318.84
430.076	6767.34
430.284	6503.15
430.491	6908.65
430.699	7125.74
430.906	7299.81
431.114	7279.33
431.321	7369.44
431.528	7768.8
431.736	8147.67
431.943	8587.99
432.15	8313.56
432.358	8331.99
432.565	8983.24
432.772	8755.92
432.979	9532.1
433.187	9370.31
433.394	9460.42
433.601	10265.27
433.808	10195.64
434.016	10056.38
434.223	10595
434.43	11260.59
434.637	11115.18
434.844	11719.33
435.052	11760.29
435.259	12022.43
435.466	12024.48
435.673	11612.84
435.88	12706.45
436.087	13177.48
436.294	13380.23
436.501	13083.28
436.708	13218.44
436.915	13857.41
437.122	14172.8
437.329	14248.57
437.537	14617.21
437.743	14955.12
437.95	14865.01
438.157	15876.71
438.364	16470.62
438.571	16108.13
438.778	16192.09
438.985	17631.82
439.192	16953.94
439.399	17482.31
439.606	17293.9
439.813	18457.15
440.02	19296.81
440.227	18950.71
440.433	18917.94
440.64	19427.88
440.847	19198.51
441.054	19597.87
441.261	21258.77
441.467	20877.85
441.674	21494.29
441.881	22051.33
442.088	21887.5
442.294	21627.4
442.501	22411.78
442.708	22600.19
442.914	23792.11
443.121	24556
443.328	23896.55
443.534	25668.05
443.741	25053.66
443.948	24734.17
444.154	26462.66
444.361	26204.61
444.568	26556.86
444.774	26575.3
444.981	26941.88
445.187	27539.89
445.394	28920.22
445.6	28520.87
445.807	31150.46
446.013	29641.11
446.22	30413.19
446.426	31725.94
446.633	31951.21
446.839	32772.45
447.046	31338.87
447.252	33184.09
447.459	33565.01
447.665	33065.31
447.871	34509.13
448.078	35903.79
448.284	34470.22
448.491	35291.45
448.697	36542.76
448.903	37400.86
449.11	37521.69
449.316	36555.05
449.522	37447.96
449.728	38193.42
449.935	38566.15
450.141	37992.72
450.347	39098.62
450.553	38160.66
450.76	38533.39
450.966	39997.68
451.172	39473.4
451.378	40214.77
451.584	39010.56
451.791	40290.54
451.997	40196.34
452.203	40892.65
452.409	40999.14
452.615	40747.24
452.821	38797.57
453.027	38990.08
453.233	40302.83
453.44	38623.5
453.646	39311.61
453.852	39784.69
454.058	39973.11
454.264	38836.48
454.47	39481.59
454.676	38445.32
454.882	39975.16
455.088	36358.44
455.294	36579.62
455.5	37320.99
455.705	37886.23
455.911	36254
456.117	35582.26
456.323	34851.14
456.529	33116.51
456.735	34617.67
456.941	33614.16
457.147	33057.12
457.352	31768.94
457.558	31418.74
457.764	31822.19
457.97	31050.11
458.176	30224.78
458.381	30347.65
458.587	28979.61
458.793	28922.27
458.999	27359.67
459.204	29399.44
459.41	28582.31
459.616	26880.44
459.821	26565.06
460.027	26397.12
460.233	26382.79
460.438	24838.62
460.644	25176.53
460.85	23998.95
461.055	23568.88
461.261	23540.21
461.466	21893.64
461.672	21338.64
461.878	22620.67
462.083	21238.29
462.289	20834.84
462.494	20611.61
462.7	19841.57
462.905	19118.64
463.111	19767.85
463.316	19661.35
463.522	19235.38
463.727	19536.43
463.932	19474.99
464.138	19139.12
464.343	19194.42
464.549	18790.97
464.754	19268.14
464.959	19143.22
465.165	19100.21
465.37	18057.79
465.575	17814.09
465.781	18395.71
465.986	18500.16
466.191	17711.69
466.397	17498.7
466.602	16611.93
466.807	17433.16
467.012	17351.24
