Data from USB4F104151__108__10-24-50-527.txt Node

Date: Wed Mar 12 10:24:50 EDT 2025
User: louis
Spectrometer: USB4F10415
Trigger mode: 4
Integration Time (sec): 3.000000E-2
Scans to average: 1
Electric dark correction enabled: true
Nonlinearity correction enabled: false
Boxcar width: 0
XAxis mode: Wavelengths
Number of Pixels in Spectrum: 3648
>>>>>Begin Spectral Data<<<<<
178.204	-99.5
178.424	-99.5
178.644	-99.5
178.864	-107.69
179.084	-62.63
179.304	9.05
179.524	-60.59
179.744	15.19
179.964	99.16
180.184	-13.48
180.404	-40.11
180.624	-21.67
180.844	-5.29
181.064	-25.77
181.283	27.48
181.503	88.92
181.723	-72.87
181.943	-44.2
182.163	56.15
182.383	2.9
182.602	-9.39
182.822	0.85
183.042	25.43
183.262	-13.48
183.482	-1.19
183.701	4.95
183.921	-17.58
184.141	23.38
184.361	37.72
184.58	68.44
184.8	-42.15
185.02	-56.49
185.239	-9.39
185.459	97.11
185.679	64.34
185.898	-36.01
186.118	-11.43
186.338	64.34
186.557	66.39
186.777	-42.15
186.997	66.39
187.216	2.9
187.436	78.68
187.655	-3.24
187.875	131.92
188.095	45.91
188.314	74.58
188.534	37.72
188.753	72.53
188.973	88.92
189.192	9.05
189.412	19.29
189.631	29.52
189.851	19.29
190.07	43.86
190.29	4.95
190.509	43.86
190.729	80.72
190.948	47.96
191.168	56.15
191.387	21.33
191.607	39.76
191.826	35.67
192.045	41.81
192.265	7
192.484	23.38
192.704	-3.24
192.923	7
193.142	111.44
193.362	4.95
193.581	7
193.8	111.44
194.02	56.15
194.239	-5.29
194.458	27.48
194.678	27.48
194.897	31.57
195.116	58.2
195.335	-5.29
195.555	70.48
195.774	35.67
195.993	23.38
196.212	64.34
196.432	72.53
196.651	84.82
196.87	-27.82
197.089	62.29
197.308	50
197.528	-1.19
197.747	-21.67
197.966	-17.58
198.185	47.96
198.404	-48.3
198.623	17.24
198.842	47.96
199.062	74.58
199.281	76.63
199.5	41.81
199.719	78.68
199.938	80.72
200.157	31.57
200.376	68.44
200.595	33.62
200.814	47.96
201.033	-36.01
201.252	47.96
201.471	56.15
201.69	90.96
201.909	45.91
202.128	15.19
202.347	80.72
202.566	29.52
202.785	-13.48
203.004	-1.19
203.223	117.59
203.442	113.49
203.661	-13.48
203.879	-21.67
204.098	19.29
204.317	-13.48
204.536	54.1
204.755	-9.39
204.974	162.64
205.193	78.68
205.411	119.64
205.63	17.24
205.849	56.15
206.068	58.2
206.287	-5.29
206.505	15.19
206.724	15.19
206.943	52.05
207.162	39.76
207.381	54.1
207.599	70.48
207.818	-3.24
208.037	93.01
208.255	7
208.474	7
208.693	-13.48
208.911	-3.24
209.13	103.25
209.349	80.72
209.567	-11.43
209.786	31.57
210.005	41.81
210.223	29.52
210.442	-70.83
210.661	82.77
210.879	54.1
211.098	64.34
211.316	11.09
211.535	52.05
211.753	7
211.972	117.59
212.191	7
212.409	43.86
212.628	39.76
212.846	60.24
213.065	90.96
213.283	31.57
213.502	-29.87
213.72	62.29
213.938	-5.29
214.157	25.43
214.375	21.33
214.594	11.09
214.812	9.05
215.031	33.62
215.249	15.19
215.467	9.05
215.686	43.86
215.904	64.34
216.122	7
216.341	47.96
216.559	60.24
216.778	27.48
216.996	88.92
217.214	19.29
217.432	-31.91
217.651	15.19
217.869	4.95
218.087	72.53
218.306	-17.58
218.524	56.15
218.742	-13.48
218.96	31.57
219.179	33.62
219.397	64.34
219.615	95.06
219.833	2.9
220.051	-23.72
220.27	27.48
220.488	66.39
220.706	-17.58
220.924	60.24
221.142	-7.34
221.36	-17.58
221.578	64.34
221.796	13.14
222.015	47.96
222.233	68.44
222.451	93.01
222.669	39.76
222.887	50
223.105	-50.35
223.323	-9.39
223.541	-38.06
223.759	76.63
223.977	-9.39
224.195	105.3
224.413	2.9
224.631	86.87
224.849	-5.29
225.067	52.05
225.285	-13.48
225.503	-52.39
225.721	33.62
225.939	2.9
226.157	45.91
226.375	93.01
226.592	13.14
226.81	27.48
227.028	43.86
227.246	31.57
227.464	-9.39
227.682	15.19
227.9	29.52
228.117	54.1
228.335	0.85
228.553	-15.53
228.771	13.14
228.989	101.2
229.206	45.91
229.424	17.24
229.642	-11.43
229.86	-9.39
230.077	62.29
230.295	15.19
230.513	50
230.731	17.24
230.948	23.38
231.166	13.14
231.384	39.76
231.601	13.14
231.819	19.29
232.037	15.19
232.254	19.29
232.472	43.86
232.689	52.05
232.907	47.96
233.125	7
233.342	19.29
233.56	-3.24
233.777	97.11
233.995	35.67
234.213	11.09
234.43	129.88
234.648	0.85
234.865	2.9
235.083	47.96
235.3	50
235.518	7
235.735	113.49
235.953	127.83
236.17	11.09
236.388	109.4
236.605	58.2
236.822	60.24
237.04	82.77
237.257	52.05
237.475	62.29
237.692	35.67
237.909	17.24
238.127	72.53
238.344	37.72
238.562	35.67
238.779	-85.16
238.996	13.14
239.214	70.48
239.431	82.77
239.648	9.05
239.865	-17.58
240.083	39.76
240.3	2.9
240.517	19.29
240.735	97.11
240.952	62.29
241.169	78.68
241.386	23.38
241.603	19.29
241.821	19.29
242.038	60.24
242.255	60.24
242.472	27.48
242.689	41.81
242.907	64.34
243.124	-44.2
243.341	-3.24
243.558	39.76
243.775	-3.24
243.992	17.24
244.209	43.86
244.426	56.15
244.643	123.73
244.86	9.05
245.078	101.2
245.295	31.57
245.512	52.05
245.729	4.95
245.946	60.24
246.163	58.2
246.38	45.91
246.597	76.63
246.814	62.29
247.031	-17.58
247.248	29.52
247.464	43.86
247.681	-33.96
247.898	76.63
248.115	39.76
248.332	-11.43
248.549	21.33
248.766	111.44
248.983	25.43
249.2	74.58
249.417	56.15
249.633	0.85
249.85	60.24
250.067	-9.39
250.284	-9.39
250.501	50
250.717	29.52
250.934	-50.35
251.151	41.81
251.368	13.14
251.585	47.96
251.801	27.48
252.018	-29.87
252.235	17.24
252.451	54.1
252.668	-21.67
252.885	60.24
253.102	31.57
253.318	39.76
253.535	-79.02
253.752	-21.67
253.968	-21.67
254.185	41.81
254.401	39.76
254.618	70.48
254.835	9.05
255.051	54.1
255.268	45.91
255.484	27.48
255.701	41.81
255.917	35.67
256.134	11.09
256.351	37.72
256.567	-27.82
256.784	-87.21
257	-36.01
257.217	21.33
257.433	66.39
257.65	27.48
257.866	-9.39
258.082	21.33
258.299	-13.48
258.515	-72.87
258.732	60.24
258.948	58.2
259.165	50
259.381	39.76
259.597	31.57
259.814	23.38
260.03	-38.06
260.246	-44.2
260.463	39.76
260.679	17.24
260.895	-31.91
261.112	52.05
261.328	2.9
261.544	9.05
261.761	64.34
261.977	33.62
262.193	-38.06
262.409	23.38
262.626	21.33
262.842	25.43
263.058	52.05
263.274	62.29
263.49	41.81
263.707	7
263.923	56.15
264.139	39.76
264.355	60.24
264.571	133.97
264.787	-13.48
265.004	4.95
265.22	31.57
265.436	7
265.652	13.14
265.868	33.62
266.084	74.58
266.3	62.29
266.516	35.67
266.732	41.81
266.948	82.77
267.164	33.62
267.38	72.53
267.596	58.2
267.812	93.01
268.028	60.24
268.244	21.33
268.46	-31.91
268.676	50
268.892	37.72
269.108	37.72
269.324	31.57
269.54	45.91
269.756	45.91
269.972	43.86
270.188	60.24
270.403	15.19
270.619	23.38
270.835	31.57
271.051	25.43
271.267	-17.58
271.483	15.19
271.698	95.06
271.914	-27.82
272.13	56.15
272.346	-3.24
272.562	4.95
272.777	11.09
272.993	60.24
273.209	56.15
273.425	15.19
273.64	64.34
273.856	64.34
274.072	-3.24
274.287	13.14
274.503	4.95
274.719	25.43
274.934	31.57
275.15	27.48
275.366	47.96
275.581	64.34
275.797	86.87
276.012	64.34
276.228	31.57
276.444	-23.72
276.659	39.76
276.875	-13.48
277.09	0.85
277.306	64.34
277.521	39.76
277.737	37.72
277.952	39.76
278.168	19.29
278.383	56.15
278.599	-9.39
278.814	56.15
279.03	-27.82
279.245	43.86
279.461	-11.43
279.676	136.02
279.892	9.05
280.107	2.9
280.322	-27.82
280.538	27.48
280.753	-50.35
280.969	2.9
281.184	99.16
281.399	103.25
281.615	-27.82
281.83	58.2
282.045	13.14
282.26	19.29
282.476	80.72
282.691	66.39
282.906	88.92
283.122	84.82
283.337	64.34
283.552	15.19
283.767	15.19
283.983	54.1
284.198	35.67
284.413	47.96
284.628	-25.77
284.843	50
285.058	27.48
285.274	60.24
285.489	37.72
285.704	62.29
285.919	37.72
286.134	19.29
286.349	2.9
286.564	64.34
286.779	29.52
286.995	4.95
287.21	7
287.425	-5.29
287.64	62.29
287.855	86.87
288.07	-11.43
288.285	50
288.5	72.53
288.715	56.15
288.93	-1.19
289.145	19.29
289.36	86.87
289.575	45.91
289.79	-1.19
290.004	23.38
290.219	52.05
290.434	2.9
290.649	50
290.864	64.34
291.079	23.38
291.294	11.09
291.509	-46.25
291.724	-21.67
291.938	47.96
292.153	-27.82
292.368	35.67
292.583	103.25
292.798	170.83
293.012	23.38
293.227	84.82
293.442	21.33
293.657	33.62
293.871	70.48
294.086	70.48
294.301	35.67
294.516	37.72
294.73	-31.91
294.945	21.33
295.16	66.39
295.374	80.72
295.589	72.53
295.804	50
296.018	43.86
296.233	66.39
296.447	19.29
296.662	21.33
296.877	76.63
297.091	-9.39
297.306	107.35
297.52	29.52
297.735	27.48
297.949	21.33
298.164	52.05
298.378	-33.96
298.593	29.52
298.807	-25.77
299.022	56.15
299.236	125.78
299.451	58.2
299.665	56.15
299.88	60.24
300.094	-38.06
300.309	4.95
300.523	54.1
300.737	9.05
300.952	64.34
301.166	0.85
301.381	-33.96
301.595	58.2
301.809	-25.77
302.024	23.38
302.238	47.96
302.452	78.68
302.667	74.58
302.881	-1.19
303.095	23.38
303.309	47.96
303.524	15.19
303.738	66.39
303.952	97.11
304.166	86.87
304.381	-36.01
304.595	27.48
304.809	31.57
305.023	72.53
305.237	58.2
305.452	-15.53
305.666	93.01
305.88	60.24
306.094	-3.24
306.308	35.67
306.522	64.34
306.736	101.2
306.95	-1.19
307.164	45.91
307.379	-21.67
307.593	82.77
307.807	70.48
308.021	111.44
308.235	58.2
308.449	-13.48
308.663	58.2
308.877	35.67
309.091	52.05
309.305	113.49
309.519	-17.58
309.733	105.3
309.947	43.86
310.161	88.92
310.374	80.72
310.588	90.96
310.802	70.48
311.016	146.26
311.23	45.91
311.444	29.52
311.658	54.1
311.872	66.39
312.085	47.96
312.299	45.91
312.513	84.82
312.727	17.24
312.941	0.85
313.154	78.68
313.368	84.82
313.582	80.72
313.796	62.29
314.009	66.39
314.223	68.44
314.437	39.76
314.651	56.15
314.864	9.05
315.078	47.96
315.292	84.82
315.505	19.29
315.719	64.34
315.933	-1.19
316.146	74.58
316.36	-52.39
316.573	117.59
316.787	27.48
317.001	101.2
317.214	7
317.428	56.15
317.641	70.48
317.855	39.76
318.068	76.63
318.282	52.05
318.495	103.25
318.709	23.38
318.922	-1.19
319.136	76.63
319.349	37.72
319.563	29.52
319.776	25.43
319.99	-5.29
320.203	39.76
320.417	37.72
320.63	21.33
320.843	156.5
321.057	60.24
321.27	82.77
321.483	4.95
321.697	99.16
321.91	101.2
322.124	117.59
322.337	9.05
322.55	27.48
322.763	62.29
322.977	4.95
323.19	62.29
323.403	47.96
323.617	-25.77
323.83	58.2
324.043	50
324.256	86.87
324.469	-1.19
324.683	84.82
324.896	54.1
325.109	84.82
325.322	88.92
325.535	31.57
325.748	-42.15
325.962	64.34
326.175	56.15
326.388	-1.19
326.601	2.9
326.814	54.1
327.027	50
327.24	117.59
327.453	56.15
327.666	-1.19
327.879	56.15
328.092	107.35
328.305	7
328.518	2.9
328.731	23.38
328.944	31.57
329.157	88.92
329.37	43.86
329.583	72.53
329.796	144.21
330.009	-25.77
330.222	-17.58
330.435	9.05
330.648	47.96
330.861	58.2
331.073	84.82
331.286	27.48
331.499	-5.29
331.712	2.9
331.925	86.87
332.138	86.87
332.35	52.05
332.563	-21.67
332.776	97.11
332.989	60.24
333.202	52.05
333.414	62.29
333.627	27.48
333.84	82.77
334.053	-11.43
334.265	7
334.478	25.43
334.691	31.57
334.903	76.63
335.116	-21.67
335.329	25.43
335.541	68.44
335.754	183.12
335.966	-11.43
336.179	15.19
336.392	64.34
336.604	64.34
336.817	88.92
337.029	7
337.242	7
337.454	23.38
337.667	11.09
337.88	47.96
338.092	25.43
338.305	68.44
338.517	-11.43
338.729	23.38
338.942	62.29
339.154	7
339.367	27.48
339.579	15.19
339.792	7
340.004	62.29
340.217	39.76
340.429	25.43
340.641	-23.72
340.854	9.05
341.066	-29.87
341.278	56.15
341.491	56.15
341.703	-13.48
341.915	47.96
342.128	86.87
342.34	60.24
342.552	17.24
342.764	129.88
342.977	64.34
343.189	56.15
343.401	140.12
343.613	11.09
343.826	52.05
344.038	21.33
344.25	72.53
344.462	-21.67
344.674	-1.19
344.886	29.52
345.099	64.34
345.311	29.52
345.523	35.67
345.735	31.57
345.947	25.43
346.159	-1.19
346.371	29.52
346.583	33.62
346.795	146.26
347.007	29.52
347.219	86.87
347.431	52.05
347.643	86.87
347.855	23.38
348.067	27.48
348.279	-21.67
348.491	21.33
348.703	25.43
348.915	74.58
349.127	-42.15
349.339	97.11
349.551	-17.58
349.763	68.44
349.975	-31.91
350.187	172.88
350.399	68.44
350.61	7
350.822	84.82
351.034	84.82
351.246	-1.19
351.458	64.34
351.669	64.34
351.881	93.01
352.093	80.72
352.305	58.2
352.517	111.44
352.728	56.15
352.94	17.24
353.152	35.67
353.363	21.33
353.575	-25.77
353.787	52.05
353.999	105.3
354.21	74.58
354.422	47.96
354.633	54.1
354.845	76.63
355.057	78.68
355.268	58.2
355.48	43.86
355.692	-21.67
355.903	-1.19
356.115	88.92
356.326	-60.59
356.538	72.53
356.749	23.38
356.961	31.57
357.172	80.72
357.384	-91.31
357.595	43.86
357.807	4.95
358.018	50
358.23	62.29
358.441	93.01
358.653	107.35
358.864	25.43
359.075	72.53
359.287	56.15
359.498	123.73
359.709	-11.43
359.921	23.38
360.132	54.1
360.344	0.85
360.555	113.49
360.766	74.58
360.977	17.24
361.189	88.92
361.4	115.54
361.611	62.29
361.823	11.09
362.034	131.92
362.245	-7.34
362.456	29.52
362.667	97.11
362.879	72.53
363.09	45.91
363.301	64.34
363.512	-9.39
363.723	11.09
363.935	78.68
364.146	101.2
364.357	64.34
364.568	86.87
364.779	35.67
364.99	66.39
365.201	31.57
365.412	86.87
365.623	-33.96
365.834	72.53
366.045	43.86
366.256	43.86
366.467	50
366.678	60.24
366.889	-7.34
367.1	15.19
367.311	95.06
367.522	35.67
367.733	-21.67
367.944	93.01
368.155	31.57
368.366	56.15
368.577	125.78
368.788	78.68
368.999	-21.67
369.209	68.44
369.42	101.2
369.631	97.11
369.842	17.24
370.053	25.43
370.264	97.11
370.474	15.19
370.685	68.44
370.896	41.81
371.107	74.58
371.317	146.26
371.528	76.63
371.739	146.26
371.95	82.77
372.16	84.82
372.371	-9.39
372.582	72.53
372.792	72.53
373.003	7
373.214	72.53
373.424	15.19
373.635	-11.43
373.846	72.53
374.056	58.2
374.267	123.73
374.477	58.2
374.688	103.25
374.898	15.19
375.109	72.53
375.319	31.57
375.53	52.05
375.74	-9.39
375.951	56.15
376.161	47.96
376.372	88.92
376.582	23.38
376.793	15.19
377.003	31.57
377.214	45.91
377.424	54.1
377.635	80.72
377.845	43.86
378.055	39.76
378.266	52.05
378.476	88.92
378.686	52.05
378.897	70.48
379.107	97.11
379.317	93.01
379.528	-9.39
379.738	93.01
379.948	31.57
380.158	43.86
380.369	47.96
380.579	88.92
380.789	23.38
380.999	62.29
381.21	62.29
381.42	74.58
381.63	109.4
381.84	133.97
382.05	70.48
382.261	-25.77
382.471	93.01
382.681	-38.06
382.891	47.96
383.101	25.43
383.311	70.48
383.521	-3.24
383.731	74.58
383.941	97.11
384.151	119.64
384.361	74.58
384.571	41.81
384.781	37.72
384.991	152.4
385.201	47.96
385.411	88.92
385.621	47.96
385.831	21.33
386.041	68.44
386.251	-1.19
386.461	183.12
386.671	45.91
386.881	125.78
387.091	105.3
387.301	54.1
387.511	17.24
387.72	35.67
387.93	109.4
388.14	21.33
388.35	21.33
388.56	31.57
388.769	119.64
388.979	84.82
389.189	45.91
389.399	80.72
389.609	84.82
389.818	70.48
390.028	58.2
390.238	95.06
390.447	-42.15
390.657	60.24
390.867	11.09
391.076	60.24
391.286	41.81
391.496	60.24
391.705	72.53
391.915	35.67
392.125	187.22
392.334	66.39
392.544	156.5
392.753	82.77
392.963	105.3
393.172	101.2
393.382	2.9
393.591	82.77
393.801	76.63
394.01	66.39
394.22	117.59
394.429	103.25
394.639	56.15
394.848	123.73
395.058	103.25
395.267	101.2
395.477	109.4
395.686	56.15
395.895	121.68
396.105	136.02
396.314	97.11
396.524	90.96
396.733	15.19
396.942	50
397.152	54.1
397.361	101.2
397.57	82.77
397.78	66.39
397.989	70.48
398.198	119.64
398.407	158.55
398.617	136.02
398.826	144.21
399.035	158.55
399.244	76.63
399.453	95.06
399.663	164.69
399.872	152.4
400.081	80.72
400.29	152.4
400.499	39.76
400.708	170.83
400.917	97.11
401.127	93.01
401.336	142.16
401.545	181.07
401.754	144.21
401.963	88.92
402.172	142.16
402.381	64.34
402.59	156.5
402.799	193.36
403.008	82.77
403.217	136.02
403.426	131.92
403.635	72.53
403.844	129.88
404.053	172.88
404.262	74.58
404.471	162.64
404.68	195.41
404.888	181.07
405.097	195.41
405.306	183.12
405.515	168.79
405.724	228.18
405.933	150.36
406.142	152.4
406.35	193.36
406.559	205.65
406.768	201.55
406.977	131.92
407.185	258.9
407.394	185.17
407.603	281.43
407.812	244.56
408.02	267.09
408.229	215.89
408.438	187.22
408.646	168.79
408.855	199.51
409.064	256.85
409.272	240.47
409.481	275.28
409.69	275.28
409.898	297.81
410.107	402.26
410.315	326.48
410.524	385.87
410.733	332.62
410.941	400.21
411.15	420.69
411.358	340.82
411.567	410.45
411.775	435.02
411.984	478.03
412.192	457.55
412.401	387.92
412.609	535.37
412.818	490.32
413.026	576.33
413.234	502.61
413.443	541.52
413.651	516.94
413.86	602.96
414.068	693.07
414.276	549.71
414.485	609.1
414.693	768.84
414.901	760.65
415.11	756.55
415.318	766.79
415.526	805.71
415.734	736.07
415.943	797.51
416.151	822.09
416.359	951.11
416.567	867.14
416.776	969.54
416.984	965.45
417.192	1039.17
417.4	1102.66
417.608	977.73
417.817	1004.36
418.025	1162.05
418.233	1164.1
418.441	1137.48
418.649	1274.69
418.857	1317.7
419.065	1418.05
419.273	1381.18
419.481	1450.82
419.689	1416
419.897	1583.93
420.105	1510.21
420.313	1784.63
420.521	1702.72
420.729	1729.34
420.937	1780.54
421.145	1813.31
421.353	1880.89
421.561	1971
421.769	2114.36
421.977	2329.39
422.185	2222.9
422.393	2179.89
422.601	2372.4
422.809	2421.55
423.017	2372.4
423.224	2564.91
423.432	2665.26
423.64	2616.11
423.848	2857.77
424.056	2751.28
424.263	3095.33
424.471	3029.8
424.679	2980.65
424.887	3023.66
425.094	3339.04
425.302	3343.14
425.51	3410.72
425.718	3595.04
425.925	3664.67
426.133	3668.77
426.341	3914.52
426.548	4023.06
426.756	4025.11
426.964	4211.48
427.171	4446.99
427.379	4549.39
427.586	4492.05
427.794	4705.04
428.001	4811.53
428.209	5067.53
428.417	5180.17
428.624	5356.29
428.832	5513.99
429.039	5362.44
429.247	5495.55
429.454	5970.68
429.662	6214.39
429.869	5950.2
430.076	6427.38
430.284	6021.88
430.491	6460.15
430.699	6777.58
430.906	6802.16
431.114	6863.6
431.321	7205.61
431.528	7240.42
431.736	7609.06
431.943	8092.38
432.15	7826.14
432.358	7981.79
432.565	8481.49
432.772	8383.19
432.979	8780.5
433.187	8993.48
433.394	8936.14
433.601	9650.88
433.808	9644.74
434.016	9339.59
434.223	10025.66
434.43	10418.87
434.637	10320.57
434.844	10853.04
435.052	11039.4
435.259	10855.09
435.466	11168.43
435.673	11027.12
435.88	11874.98
436.087	12358.3
436.294	12182.17
436.501	11958.94
436.708	12176.03
436.915	12587.67
437.122	13372.04
437.329	13240.97
437.537	13507.21
437.743	13914.75
437.95	13619.85
438.157	14762.61
438.364	15100.53
438.571	15002.22
438.778	15045.23
438.985	16454.23
439.192	15774.31
439.399	16314.97
439.606	15743.59
439.813	16671.32
440.02	17857.09
440.227	17592.9
440.433	17422.92
440.64	18086.47
440.847	17967.68
441.054	18481.72
441.261	19358.25
441.467	18928.18
441.674	19624.49
441.881	20458.01
442.088	20095.52
442.294	19888.68
442.501	20810.26
442.708	20916.76
442.914	21889.54
443.121	22530.56
443.328	22061.57
443.534	23839.21
443.741	23169.52
443.948	22548.99
444.154	24443.36
444.361	24195.56
444.568	24363.49
444.774	24476.13
444.981	24553.95
445.187	25164.25
445.394	26083.78
445.6	25792.97
445.807	28588.45
446.013	27560.37
446.22	28123.56
446.426	28690.85
446.633	29057.43
446.839	29872.53
447.046	28670.37
447.252	30357.89
447.459	30546.31
447.665	30056.84
447.871	31506.8
448.078	32641.38
448.284	31441.27
448.491	32166.25
448.697	33376.6
448.903	33911.12
449.11	33689.94
449.316	33124.7
449.522	33712.47
449.728	34906.43
449.935	35074.37
450.141	35197.24
450.347	35754.29
450.553	34736.45
450.76	34855.23
450.966	35805.49
451.172	35707.19
451.378	36960.55
451.584	35920.18
451.791	36575.53
451.997	36690.21
452.203	37181.73
452.409	36852
452.615	37302.56
452.821	35529.02
453.027	34906.43
453.233	36868.39
453.44	35139.9
453.646	36221.23
453.852	36079.92
454.058	36598.05
454.264	35356.99
454.47	36110.64
454.676	34869.57
454.882	36401.45
455.088	33401.18
455.294	33620.31
455.5	34113.87
455.705	34496.84
455.911	33212.76
456.117	32125.29
456.323	31914.35
456.529	29862.29
456.735	31492.47
456.941	30718.34
457.147	30325.13
457.352	29292.95
457.558	28570.02
457.764	29110.68
457.97	28307.88
458.176	27918.76
458.381	27675.06
458.587	26507.71
458.793	26417.6
458.999	24986.07
459.204	26735.04
459.41	26141.13
459.616	24162.79
459.821	24265.19
460.027	24295.91
460.233	23658.99
460.438	22653.44
460.644	22946.3
460.85	21799.43
461.055	21449.23
461.261	21475.85
461.466	19954.21
461.672	19229.23
461.878	20486.68
462.083	19327.53
462.289	18868.79
462.494	18772.53
462.7	17898.05
462.905	17263.18
463.111	18086.47
463.316	18209.34
463.522	17828.42
463.727	17756.74
463.932	17625.67
464.138	17584.71
464.343	17670.73
464.549	17048.15
464.754	17670.73
464.959	17533.51
465.165	17363.53
465.37	16943.7
465.575	16120.42
465.781	16955.99
465.986	17025.62
466.191	16314.97
466.397	16022.11
466.602	15284.84
466.807	15942.24
467.012	15782.5
467.218	16034.4
467.423	15559.27
467.628	15774.31
467.833	16431.71
468.038	15813.22
468.244	15422.06
468.449	15827.56
468.654	15192.69
