Data from USB4F104151__107__10-24-50-012.txt Node

Date: Wed Mar 12 10:24:50 EDT 2025
User: louis
Spectrometer: USB4F10415
Trigger mode: 4
Integration Time (sec): 3.000000E-2
Scans to average: 1
Electric dark correction enabled: true
Nonlinearity correction enabled: false
Boxcar width: 0
XAxis mode: Wavelengths
Number of Pixels in Spectrum: 3648
>>>>>Begin Spectral Data<<<<<
178.204	-159.23
178.424	-159.23
178.644	-159.23
178.864	-65.02
179.084	-95.74
179.304	31.23
179.524	23.04
179.744	-95.74
179.964	59.9
180.184	-13.82
180.404	51.71
180.624	-40.45
180.844	25.09
181.064	-22.02
181.283	16.9
181.503	-46.59
181.723	10.75
181.943	-46.59
182.163	-3.58
182.383	-15.87
182.602	27.14
182.822	23.04
183.042	35.33
183.262	-15.87
183.482	2.56
183.701	-65.02
183.921	84.48
184.141	-30.21
184.361	64
184.58	-19.97
184.8	14.85
185.02	-7.68
185.239	47.62
185.459	20.99
185.679	66.05
185.898	41.47
186.118	0.51
186.338	-26.11
186.557	61.95
186.777	-52.74
186.997	-11.78
187.216	4.61
187.436	10.75
187.655	-26.11
187.875	57.86
188.095	45.57
188.314	78.33
188.534	53.76
188.753	-69.12
188.973	18.94
189.192	94.72
189.412	4.61
189.631	47.62
189.851	35.33
190.07	8.7
190.29	33.28
190.509	-26.11
190.729	-1.54
190.948	-30.21
191.168	162.3
191.387	129.53
191.607	61.95
191.826	-30.21
192.045	4.61
192.265	96.77
192.484	-56.83
192.704	45.57
192.923	-79.36
193.142	57.86
193.362	-34.3
193.581	25.09
193.8	-5.63
194.02	10.75
194.239	29.18
194.458	74.24
194.678	31.23
194.897	18.94
195.116	25.09
195.335	23.04
195.555	20.99
195.774	29.18
195.993	35.33
196.212	43.52
196.432	-5.63
196.651	39.42
196.87	39.42
197.089	25.09
197.308	64
197.528	94.72
197.747	-58.88
197.966	74.24
198.185	14.85
198.404	-5.63
198.623	-19.97
198.842	57.86
199.062	86.53
199.281	96.77
199.5	-7.68
199.719	45.57
199.938	43.52
200.157	-22.02
200.376	4.61
200.595	92.67
200.814	33.28
201.033	66.05
201.252	55.81
201.471	20.99
201.69	-19.97
201.909	29.18
202.128	10.75
202.347	-9.73
202.566	-5.63
202.785	18.94
203.004	10.75
203.223	88.57
203.442	-71.17
203.661	29.18
203.879	-13.82
204.098	39.42
204.317	16.9
204.536	61.95
204.755	-11.78
204.974	20.99
205.193	31.23
205.411	57.86
205.63	72.19
205.849	-28.16
206.068	-48.64
206.287	10.75
206.505	78.33
206.724	-11.78
206.943	-1.54
207.162	-28.16
207.381	18.94
207.599	-11.78
207.818	-54.78
208.037	33.28
208.255	-3.58
208.474	-28.16
208.693	72.19
208.911	94.72
209.13	14.85
209.349	-1.54
209.567	2.56
209.786	12.8
210.005	45.57
210.223	104.96
210.442	-5.63
210.661	8.7
210.879	-3.58
211.098	23.04
211.316	39.42
211.535	57.86
211.753	2.56
211.972	61.95
212.191	109.05
212.409	92.67
212.628	4.61
212.846	18.94
213.065	39.42
213.283	27.14
213.502	8.7
213.72	8.7
213.938	0.51
214.157	49.66
214.375	94.72
214.594	64
214.812	-24.06
215.031	23.04
215.249	-5.63
215.467	90.62
215.686	20.99
215.904	16.9
216.122	-24.06
216.341	4.61
216.559	-15.87
216.778	76.29
216.996	76.29
217.214	12.8
217.432	16.9
217.651	74.24
217.869	4.61
218.087	6.66
218.306	4.61
218.524	6.66
218.742	-48.64
218.96	47.62
219.179	2.56
219.397	55.81
219.615	-13.82
219.833	53.76
220.051	16.9
220.27	43.52
220.488	-17.92
220.706	-40.45
220.924	-22.02
221.142	20.99
221.36	-52.74
221.578	59.9
221.796	-9.73
222.015	-77.31
222.233	-15.87
222.451	45.57
222.669	-11.78
222.887	12.8
223.105	-77.31
223.323	8.7
223.541	-44.54
223.759	-1.54
223.977	41.47
224.195	-9.73
224.413	100.86
224.631	41.47
224.849	72.19
225.067	16.9
225.285	-5.63
225.503	59.9
225.721	-65.02
225.939	29.18
226.157	-15.87
226.375	61.95
226.592	12.8
226.81	-50.69
227.028	18.94
227.246	10.75
227.464	59.9
227.682	76.29
227.9	82.43
228.117	35.33
228.335	45.57
228.553	16.9
228.771	66.05
228.989	23.04
229.206	4.61
229.424	49.66
229.642	-7.68
229.86	-44.54
230.077	-3.58
230.295	43.52
230.513	4.61
230.731	45.57
230.948	0.51
231.166	78.33
231.384	-11.78
231.601	-44.54
231.819	59.9
232.037	-73.21
232.254	-11.78
232.472	35.33
232.689	-34.3
232.907	45.57
233.125	-58.88
233.342	39.42
233.56	25.09
233.777	-28.16
233.995	39.42
234.213	88.57
234.43	53.76
234.648	135.68
234.865	-5.63
235.083	-17.92
235.3	-69.12
235.518	-19.97
235.735	10.75
235.953	55.81
236.17	45.57
236.388	-9.73
236.605	72.19
236.822	-34.3
237.04	4.61
237.257	33.28
237.475	-22.02
237.692	47.62
237.909	37.38
238.127	12.8
238.344	53.76
238.562	6.66
238.779	-24.06
238.996	8.7
239.214	-60.93
239.431	55.81
239.648	57.86
239.865	80.38
240.083	88.57
240.3	-52.74
240.517	-5.63
240.735	8.7
240.952	23.04
241.169	94.72
241.386	43.52
241.603	78.33
241.821	-60.93
242.038	-24.06
242.255	39.42
242.472	4.61
242.689	45.57
242.907	31.23
243.124	2.56
243.341	45.57
243.558	-11.78
243.775	-36.35
243.992	8.7
244.209	84.48
244.426	94.72
244.643	-1.54
244.86	-34.3
245.078	33.28
245.295	68.09
245.512	33.28
245.729	-13.82
245.946	86.53
246.163	78.33
246.38	35.33
246.597	78.33
246.814	20.99
247.031	4.61
247.248	37.38
247.464	18.94
247.681	107.01
247.898	45.57
248.115	39.42
248.332	18.94
248.549	-11.78
248.766	0.51
248.983	31.23
249.2	86.53
249.417	10.75
249.633	23.04
249.85	10.75
250.067	-9.73
250.284	66.05
250.501	-5.63
250.717	43.52
250.934	8.7
251.151	0.51
251.368	31.23
251.585	29.18
251.801	-7.68
252.018	4.61
252.235	82.43
252.451	12.8
252.668	61.95
252.885	-3.58
253.102	92.67
253.318	-3.58
253.535	-5.63
253.752	-11.78
253.968	-11.78
254.185	107.01
254.401	37.38
254.618	41.47
254.835	45.57
255.051	49.66
255.268	37.38
255.484	18.94
255.701	37.38
255.917	16.9
256.134	4.61
256.351	-36.35
256.567	4.61
256.784	16.9
257	-3.58
257.217	16.9
257.433	88.57
257.65	25.09
257.866	86.53
258.082	-13.82
258.299	111.1
258.515	57.86
258.732	57.86
258.948	16.9
259.165	47.62
259.381	-58.88
259.597	53.76
259.814	6.66
260.03	92.67
260.246	-44.54
260.463	82.43
260.679	70.14
260.895	-3.58
261.112	88.57
261.328	-13.82
261.544	76.29
261.761	133.63
261.977	57.86
262.193	-69.12
262.409	33.28
262.626	4.61
262.842	6.66
263.058	-56.83
263.274	-15.87
263.49	-42.5
263.707	0.51
263.923	-24.06
264.139	2.56
264.355	-32.26
264.571	14.85
264.787	16.9
265.004	25.09
265.22	41.47
265.436	-1.54
265.652	-60.93
265.868	70.14
266.084	-42.5
266.3	-11.78
266.516	-110.08
266.732	-32.26
266.948	-56.83
267.164	-44.54
267.38	33.28
267.596	37.38
267.812	61.95
268.028	37.38
268.244	-7.68
268.46	37.38
268.676	55.81
268.892	80.38
269.108	-24.06
269.324	-22.02
269.54	-36.35
269.756	72.19
269.972	86.53
270.188	12.8
270.403	25.09
270.619	49.66
270.835	66.05
271.051	64
271.267	-28.16
271.483	33.28
271.698	51.71
271.914	23.04
272.13	31.23
272.346	43.52
272.562	18.94
272.777	59.9
272.993	37.38
273.209	12.8
273.425	12.8
273.64	49.66
273.856	27.14
274.072	35.33
274.287	-36.35
274.503	33.28
274.719	-5.63
274.934	20.99
275.15	-15.87
275.366	90.62
275.581	10.75
275.797	35.33
276.012	-22.02
276.228	-38.4
276.444	51.71
276.659	61.95
276.875	14.85
277.09	53.76
277.306	61.95
277.521	-34.3
277.737	33.28
277.952	45.57
278.168	-1.54
278.383	51.71
278.599	41.47
278.814	-7.68
279.03	-24.06
279.245	27.14
279.461	53.76
279.676	74.24
279.892	-30.21
280.107	-7.68
280.322	-44.54
280.538	43.52
280.753	-11.78
280.969	-13.82
281.184	35.33
281.399	23.04
281.615	-60.93
281.83	33.28
282.045	14.85
282.26	-40.45
282.476	4.61
282.691	20.99
282.906	33.28
283.122	4.61
283.337	-69.12
283.552	4.61
283.767	-15.87
283.983	45.57
284.198	-22.02
284.413	25.09
284.628	-13.82
284.843	45.57
285.058	27.14
285.274	-42.5
285.489	43.52
285.704	53.76
285.919	-19.97
286.134	12.8
286.349	35.33
286.564	0.51
286.779	78.33
286.995	45.57
287.21	-54.78
287.425	6.66
287.64	53.76
287.855	-95.74
288.07	-15.87
288.285	8.7
288.5	-5.63
288.715	37.38
288.93	18.94
289.145	57.86
289.36	33.28
289.575	-3.58
289.79	92.67
290.004	23.04
290.219	25.09
290.434	-11.78
290.649	-11.78
290.864	16.9
291.079	-48.64
291.294	23.04
291.509	59.9
291.724	90.62
291.938	-32.26
292.153	45.57
292.368	-48.64
292.583	18.94
292.798	33.28
293.012	37.38
293.227	4.61
293.442	27.14
293.657	43.52
293.871	78.33
294.086	12.8
294.301	113.15
294.516	86.53
294.73	27.14
294.945	-5.63
295.16	6.66
295.374	68.09
295.589	57.86
295.804	10.75
296.018	-5.63
296.233	27.14
296.447	20.99
296.662	78.33
296.877	59.9
297.091	76.29
297.306	53.76
297.52	-11.78
297.735	53.76
297.949	-75.26
298.164	-3.58
298.378	4.61
298.593	61.95
298.807	12.8
299.022	43.52
299.236	43.52
299.451	31.23
299.665	-40.45
299.88	-36.35
300.094	74.24
300.309	10.75
300.523	-1.54
300.737	43.52
300.952	29.18
301.166	0.51
301.381	47.62
301.595	-7.68
301.809	20.99
302.024	-15.87
302.238	2.56
302.452	66.05
302.667	2.56
302.881	49.66
303.095	14.85
303.309	66.05
303.524	-19.97
303.738	18.94
303.952	-36.35
304.166	107.01
304.381	-120.32
304.595	78.33
304.809	-69.12
305.023	10.75
305.237	-17.92
305.452	-11.78
305.666	86.53
305.88	-3.58
306.094	25.09
306.308	-15.87
306.522	31.23
306.736	66.05
306.95	-3.58
307.164	55.81
307.379	66.05
307.593	59.9
307.807	70.14
308.021	78.33
308.235	-62.98
308.449	-24.06
308.663	10.75
308.877	70.14
309.091	6.66
309.305	41.47
309.519	-58.88
309.733	84.48
309.947	27.14
310.161	78.33
310.374	16.9
310.588	152.06
310.802	-30.21
311.016	18.94
311.23	57.86
311.444	23.04
311.658	72.19
311.872	109.05
312.085	29.18
312.299	92.67
312.513	33.28
312.727	111.1
312.941	12.8
313.154	-28.16
313.368	2.56
313.582	23.04
313.796	37.38
314.009	51.71
314.223	76.29
314.437	-7.68
314.651	31.23
314.864	53.76
315.078	82.43
315.292	-1.54
315.505	29.18
315.719	57.86
315.933	25.09
316.146	6.66
316.36	51.71
316.573	41.47
316.787	-7.68
317.001	29.18
317.214	-36.35
317.428	55.81
317.641	12.8
317.855	14.85
318.068	-15.87
318.282	27.14
318.495	102.91
318.709	53.76
318.922	33.28
319.136	20.99
319.349	33.28
319.563	29.18
319.776	41.47
319.99	-44.54
320.203	37.38
320.417	16.9
320.63	29.18
320.843	57.86
321.057	2.56
321.27	33.28
321.483	45.57
321.697	90.62
321.91	-15.87
322.124	-19.97
322.337	88.57
322.55	61.95
322.763	-24.06
322.977	4.61
323.19	-48.64
323.403	84.48
323.617	66.05
323.83	12.8
324.043	45.57
324.256	-22.02
324.469	8.7
324.683	115.2
324.896	39.42
325.109	61.95
325.322	27.14
325.535	68.09
325.748	37.38
325.962	-3.58
326.175	29.18
326.388	18.94
326.601	55.81
326.814	96.77
327.027	-7.68
327.24	66.05
327.453	-89.6
327.666	74.24
327.879	57.86
328.092	68.09
328.305	104.96
328.518	-7.68
328.731	102.91
328.944	102.91
329.157	66.05
329.37	29.18
329.583	41.47
329.796	45.57
330.009	-3.58
330.222	-3.58
330.435	25.09
330.648	33.28
330.861	-5.63
331.073	-24.06
331.286	29.18
331.499	16.9
331.712	-9.73
331.925	14.85
332.138	25.09
332.35	57.86
332.563	70.14
332.776	23.04
332.989	-46.59
333.202	31.23
333.414	-19.97
333.627	-7.68
333.84	-36.35
334.053	78.33
334.265	6.66
334.478	-32.26
334.691	51.71
334.903	82.43
335.116	29.18
335.329	64
335.541	12.8
335.754	119.29
335.966	33.28
336.179	10.75
336.392	-26.11
336.604	6.66
336.817	47.62
337.029	98.81
337.242	20.99
337.454	23.04
337.667	8.7
337.88	14.85
338.092	37.38
338.305	37.38
338.517	-50.69
338.729	68.09
338.942	-26.11
339.154	29.18
339.367	92.67
339.579	18.94
339.792	-24.06
340.004	68.09
340.217	4.61
340.429	29.18
340.641	-73.21
340.854	-54.78
341.066	76.29
341.278	27.14
341.491	43.52
341.703	66.05
341.915	-19.97
342.128	29.18
342.34	33.28
342.552	-15.87
342.764	0.51
342.977	8.7
343.189	25.09
343.401	27.14
343.613	-13.82
343.826	-19.97
344.038	49.66
344.25	4.61
344.462	27.14
344.674	55.81
344.886	59.9
345.099	55.81
345.311	47.62
345.523	16.9
345.735	-26.11
345.947	76.29
346.159	37.38
346.371	35.33
346.583	25.09
346.795	66.05
347.007	25.09
347.219	4.61
347.431	96.77
347.643	-50.69
347.855	-34.3
348.067	82.43
348.279	10.75
348.491	14.85
348.703	47.62
348.915	64
349.127	66.05
349.339	16.9
349.551	-3.58
349.763	66.05
349.975	-11.78
350.187	-11.78
350.399	80.38
350.61	51.71
350.822	51.71
351.034	45.57
351.246	20.99
351.458	20.99
351.669	-9.73
351.881	27.14
352.093	68.09
352.305	59.9
352.517	100.86
352.728	86.53
352.94	29.18
353.152	96.77
353.363	33.28
353.575	100.86
353.787	111.1
353.999	68.09
354.21	123.39
354.422	78.33
354.633	57.86
354.845	-15.87
355.057	33.28
355.268	35.33
355.48	27.14
355.692	23.04
355.903	6.66
356.115	2.56
356.326	37.38
356.538	-15.87
356.749	14.85
356.961	8.7
357.172	43.52
357.384	25.09
357.595	39.42
357.807	45.57
358.018	29.18
358.23	-3.58
358.441	76.29
358.653	59.9
358.864	4.61
359.075	41.47
359.287	4.61
359.498	96.77
359.709	70.14
359.921	27.14
360.132	45.57
360.344	37.38
360.555	64
360.766	92.67
360.977	8.7
361.189	102.91
361.4	8.7
361.611	66.05
361.823	39.42
362.034	25.09
362.245	-9.73
362.456	64
362.667	-73.21
362.879	31.23
363.09	43.52
363.301	18.94
363.512	2.56
363.723	76.29
363.935	23.04
364.146	0.51
364.357	23.04
364.568	10.75
364.779	-9.73
364.99	59.9
365.201	92.67
365.412	43.52
365.623	4.61
365.834	59.9
366.045	35.33
366.256	49.66
366.467	66.05
366.678	41.47
366.889	49.66
367.1	127.49
367.311	78.33
367.522	23.04
367.733	78.33
367.944	61.95
368.155	-22.02
368.366	-65.02
368.577	84.48
368.788	68.09
368.999	16.9
369.209	25.09
369.42	172.54
369.631	123.39
369.842	61.95
370.053	55.81
370.264	43.52
370.474	-15.87
370.685	16.9
370.896	27.14
371.107	-15.87
371.317	100.86
371.528	37.38
371.739	70.14
371.95	68.09
372.16	29.18
372.371	-3.58
372.582	80.38
372.792	55.81
373.003	66.05
373.214	4.61
373.424	82.43
373.635	27.14
373.846	31.23
374.056	-28.16
374.267	64
374.477	18.94
374.688	10.75
374.898	27.14
375.109	29.18
375.319	-3.58
375.53	57.86
375.74	-22.02
375.951	45.57
376.161	41.47
376.372	57.86
376.582	49.66
376.793	61.95
377.003	35.33
377.214	2.56
377.424	-36.35
377.635	53.76
377.845	16.9
378.055	61.95
378.266	-36.35
378.476	35.33
378.686	16.9
378.897	41.47
379.107	43.52
379.317	98.81
379.528	53.76
379.738	59.9
379.948	-36.35
380.158	8.7
380.369	-13.82
380.579	102.91
380.789	-11.78
380.999	102.91
381.21	78.33
381.42	4.61
381.63	25.09
381.84	-5.63
382.05	90.62
382.261	117.25
382.471	27.14
382.681	-32.26
382.891	53.76
383.101	-52.74
383.311	-15.87
383.521	-30.21
383.731	84.48
383.941	113.15
384.151	31.23
384.361	72.19
384.571	41.47
384.781	66.05
384.991	117.25
385.201	74.24
385.411	61.95
385.621	82.43
385.831	35.33
386.041	53.76
386.251	147.97
386.461	59.9
386.671	-54.78
386.881	57.86
387.091	102.91
387.301	92.67
387.511	43.52
387.72	45.57
387.93	92.67
388.14	2.56
388.35	35.33
388.56	41.47
388.769	35.33
388.979	8.7
389.189	27.14
389.399	-1.54
389.609	43.52
389.818	107.01
390.028	29.18
390.238	78.33
390.447	61.95
390.657	57.86
390.867	35.33
391.076	-1.54
391.286	61.95
391.496	80.38
391.705	33.28
391.915	86.53
392.125	109.05
392.334	86.53
392.544	66.05
392.753	76.29
392.963	33.28
393.172	39.42
393.382	25.09
393.591	4.61
393.801	-9.73
394.01	111.1
394.22	141.82
394.429	4.61
394.639	51.71
394.848	86.53
395.058	43.52
395.267	70.14
395.477	55.81
395.686	55.81
395.895	100.86
396.105	166.4
396.314	119.29
396.524	41.47
396.733	49.66
396.942	147.97
397.152	141.82
397.361	158.21
397.57	119.29
397.78	64
397.989	68.09
398.198	107.01
398.407	90.62
398.617	76.29
398.826	96.77
399.035	61.95
399.244	205.31
399.453	162.3
399.663	119.29
399.872	209.4
400.081	78.33
400.29	96.77
400.499	43.52
400.708	184.83
400.917	119.29
401.127	55.81
401.336	133.63
401.545	188.93
401.754	104.96
401.963	156.16
402.172	119.29
402.381	150.01
402.59	143.87
402.799	119.29
403.008	133.63
403.217	31.23
403.426	141.82
403.635	174.59
403.844	131.58
404.053	92.67
404.262	125.44
404.471	143.87
404.68	37.38
404.888	100.86
405.097	135.68
405.306	180.73
405.515	135.68
405.724	139.77
405.933	182.78
406.142	193.02
406.35	129.53
406.559	166.4
406.768	158.21
406.977	256.51
407.185	174.59
407.394	225.79
407.603	193.02
407.812	279.04
408.02	344.57
408.229	272.89
408.438	252.41
408.646	135.68
408.855	233.98
409.064	274.94
409.272	225.79
409.481	266.75
409.69	258.56
409.898	363
410.107	311.8
410.315	324.09
410.524	356.86
410.733	352.76
410.941	338.43
411.15	369.15
411.358	473.59
411.567	475.64
411.775	363
411.984	453.11
412.192	449.02
412.401	438.78
412.609	422.39
412.818	528.89
413.026	510.46
413.234	528.89
413.443	569.85
413.651	561.66
413.86	639.48
414.068	647.67
414.276	664.05
414.485	608.76
414.693	723.44
414.901	682.49
415.11	756.21
415.318	670.2
415.526	780.79
415.734	823.8
415.943	827.89
416.151	844.28
416.359	827.89
416.567	883.19
416.776	862.71
416.984	1008.11
417.192	1094.13
417.4	1083.89
417.608	1069.55
417.817	993.78
418.025	1098.22
418.233	1247.72
418.441	1145.33
418.649	1237.49
418.857	1323.5
419.065	1425.9
419.273	1337.84
419.481	1423.85
419.689	1444.33
419.897	1475.05
420.105	1544.68
420.313	1679.85
420.521	1712.61
420.729	1802.72
420.937	1796.58
421.145	1843.68
421.353	1939.94
421.561	1948.13
421.769	1999.33
421.977	2120.16
422.185	2167.26
422.393	2318.81
422.601	2372.06
422.809	2345.44
423.017	2466.27
423.224	2462.17
423.432	2482.65
423.64	2597.34
423.848	2773.46
424.056	2828.76
424.263	3107.28
424.471	2882
424.679	3234.25
424.887	3215.82
425.094	3187.15
425.302	3342.8
425.51	3637.7
425.718	3533.26
425.925	3545.55
426.133	3623.37
426.341	3918.28
426.548	3908.04
426.756	4035.01
426.964	4125.12
427.171	4465.08
427.379	4463.04
427.586	4657.59
427.794	4749.75
428.001	4942.26
428.209	5147.06
428.417	5091.76
428.624	5458.35
428.832	5540.27
429.039	5433.77
429.247	5435.82
429.454	5890.47
429.662	6240.67
429.869	5931.43
430.076	6298.02
430.284	6214.05
430.491	6420.89
430.699	6650.27
430.906	6697.37
431.114	6775.19
431.321	7066
431.528	7252.37
431.736	7711.11
431.943	8040.84
432.15	7545.23
432.358	7725.45
432.565	8186.24
432.772	8169.86
432.979	8595.84
433.187	8796.54
433.394	8728.95
433.601	9582.96
433.808	9734.51
434.016	9429.36
434.223	9843.05
434.43	10359.14
434.637	10144.1
434.844	10834.27
435.052	11053.4
435.259	10754.4
435.466	11280.72
435.673	11034.97
435.88	11811.15
436.087	12208.45
436.294	12194.12
436.501	12024.14
436.708	12360
436.915	12808.51
437.122	13330.74
437.329	13238.58
437.537	13586.74
437.743	14141.74
437.95	13775.15
438.157	14293.29
438.364	15008.03
438.571	15055.13
438.778	15108.38
438.985	16568.58
439.192	15733.01
439.399	16146.7
439.606	15919.37
439.813	17060.09
440.02	17826.03
440.227	17361.14
440.433	17330.42
440.64	17981.68
440.847	17670.39
441.054	18188.52
441.261	19511.51
441.467	19372.25
441.674	19353.82
441.881	20486.34
442.088	20326.6
442.294	20111.57
442.501	20414.66
442.708	20809.92
442.914	21801.14
443.121	22569.13
443.328	22210.73
443.534	23779.48
443.741	22661.29
443.948	22689.96
444.154	24447.11
444.361	24221.84
444.568	24309.9
444.774	24455.31
444.981	24658.06
445.187	24969.35
445.394	26460.27
445.6	26157.17
445.807	28434.51
446.013	27234.4
446.22	27842.65
446.426	28850.25
446.633	28827.72
446.839	30144.56
447.046	29110.34
447.252	30160.95
447.459	30543.92
447.665	29995.06
447.871	31399.97
448.078	32569.36
448.284	31125.54
448.491	31922.2
448.697	33193.99
448.903	33861.63
449.11	33642.49
449.316	33355.78
449.522	33826.81
449.728	34961.39
449.935	34912.24
450.141	34881.52
450.347	35786.72
450.553	34625.52
450.76	34629.62
450.966	36480.98
451.172	35157.99
451.378	36413.4
451.584	36143.06
451.791	36546.51
451.997	36263.89
452.203	37158.86
452.409	37115.85
452.615	36810.7
452.821	35422.18
453.027	35346.4
453.233	36976.59
453.44	35170.28
453.646	35915.74
453.852	35837.92
454.058	36673.49
454.264	35069.93
454.47	35801.05
454.676	35123.18
454.882	36265.94
455.088	33007.62
455.294	33556.48
455.5	33939.45
455.705	34652.14
455.911	32643.09
456.117	32192.53
456.323	31805.47
456.529	30226.48
456.735	31348.77
456.941	30472.24
457.147	30283.83
457.352	29233.22
457.558	28665.93
457.764	29022.28
457.97	28334.16
458.176	27615.32
458.381	27732.06
458.587	26519.66
458.793	26323.05
458.999	25086.08
459.204	26648.68
459.41	25839.73
459.616	24262.8
459.821	24473.74
460.027	24219.79
460.233	23515.29
460.438	22280.36
460.644	23058.59
460.85	21838
461.055	21606.58
461.261	21170.36
461.466	20076.75
461.672	19232.99
461.878	20580.55
462.083	19243.23
462.289	18962.65
462.494	18774.24
462.7	18147.56
462.905	17424.63
463.111	18086.12
463.316	18020.59
463.522	17737.97
463.727	17842.42
463.932	17678.58
464.138	17461.49
464.343	17580.28
464.549	17297.66
464.754	17801.46
464.959	17391.86
465.165	17344.76
465.37	16324.87
465.575	15960.33
465.781	16791.81
465.986	17084.67
466.191	16072.97
466.397	15843.6
466.602	15370.52
466.807	15896.85
467.012	15814.93
467.218	15886.61
467.423	15552.79
