Data from USB4F104151__286__10-42-20-982.txt Node

Date: Wed Mar 12 10:42:20 EDT 2025
User: louis
Spectrometer: USB4F10415
Trigger mode: 4
Integration Time (sec): 3.000000E-2
Scans to average: 1
Electric dark correction enabled: true
Nonlinearity correction enabled: false
Boxcar width: 0
XAxis mode: Wavelengths
Number of Pixels in Spectrum: 3648
>>>>>Begin Spectral Data<<<<<
178.204	-146.77
178.424	-146.77
178.644	-146.77
178.864	-140.63
179.084	-159.06
179.304	70.31
179.524	4.78
179.744	-60.76
179.964	-40.28
180.184	27.31
180.404	39.59
180.624	-13.65
180.844	15.02
181.064	-71
181.283	31.4
181.503	-42.32
181.723	39.59
181.943	51.88
182.163	15.02
182.383	4.78
182.602	43.69
182.822	12.97
183.042	-7.51
183.262	49.83
183.482	33.45
183.701	31.4
183.921	-17.75
184.141	-11.61
184.361	74.41
184.58	53.93
184.8	21.16
185.02	15.02
185.239	6.83
185.459	10.92
185.679	51.88
185.898	2.73
186.118	-25.94
186.338	27.31
186.557	37.55
186.777	15.02
186.997	15.02
187.216	-34.13
187.436	41.64
187.655	-40.28
187.875	62.12
188.095	6.83
188.314	68.27
188.534	113.32
188.753	-9.56
188.973	45.74
189.192	31.4
189.412	27.31
189.631	78.51
189.851	6.83
190.07	121.51
190.29	33.45
190.509	4.78
190.729	86.7
190.948	17.07
191.168	162.47
191.387	-15.7
191.607	12.97
191.826	33.45
192.045	-19.8
192.265	80.55
192.484	23.21
192.704	-36.18
192.923	64.17
193.142	62.12
193.362	55.98
193.581	70.31
193.8	41.64
194.02	47.79
194.239	-1.37
194.458	70.31
194.678	25.26
194.897	6.83
195.116	-73.04
195.335	-36.18
195.555	-5.46
195.774	-5.46
195.993	4.78
196.212	103.08
196.432	37.55
196.651	-44.37
196.87	15.02
197.089	137.9
197.308	29.35
197.528	2.73
197.747	-7.51
197.966	-23.89
198.185	6.83
198.404	12.97
198.623	23.21
198.842	35.5
199.062	31.4
199.281	2.73
199.5	115.37
199.719	68.27
199.938	-21.85
200.157	68.27
200.376	76.46
200.595	39.59
200.814	-21.85
201.033	35.5
201.252	60.07
201.471	10.92
201.69	80.55
201.909	113.32
202.128	17.07
202.347	60.07
202.566	27.31
202.785	60.07
203.004	0.68
203.223	115.37
203.442	10.92
203.661	10.92
203.879	41.64
204.098	15.02
204.317	60.07
204.536	74.41
204.755	-66.9
204.974	74.41
205.193	39.59
205.411	84.65
205.63	35.5
205.849	76.46
206.068	72.36
206.287	2.73
206.505	107.18
206.724	2.73
206.943	68.27
207.162	90.79
207.381	119.46
207.599	70.31
207.818	12.97
208.037	60.07
208.255	4.78
208.474	27.31
208.693	53.93
208.911	-34.13
209.13	31.4
209.349	-38.23
209.567	23.21
209.786	25.26
210.005	19.11
210.223	0.68
210.442	-13.65
210.661	47.79
210.879	41.64
211.098	105.13
211.316	-15.7
211.535	74.41
211.753	23.21
211.972	19.11
212.191	55.98
212.409	-58.71
212.628	2.73
212.846	-9.56
213.065	51.88
213.283	55.98
213.502	6.83
213.72	15.02
213.938	37.55
214.157	-1.37
214.375	-75.09
214.594	6.83
214.812	39.59
215.031	64.17
215.249	-13.65
215.467	41.64
215.686	80.55
215.904	51.88
216.122	70.31
216.341	53.93
216.559	37.55
216.778	49.83
216.996	41.64
217.214	55.98
217.432	-52.56
217.651	-13.65
217.869	29.35
218.087	76.46
218.306	21.16
218.524	23.21
218.742	-11.61
218.96	43.69
219.179	88.75
219.397	86.7
219.615	43.69
219.833	-9.56
220.051	21.16
220.27	70.31
220.488	-1.37
220.706	47.79
220.924	60.07
221.142	0.68
221.36	-19.8
221.578	-3.41
221.796	41.64
222.015	43.69
222.233	51.88
222.451	90.79
222.669	-60.76
222.887	78.51
223.105	-32.08
223.323	29.35
223.541	12.97
223.759	-3.41
223.977	-23.89
224.195	27.31
224.413	49.83
224.631	10.92
224.849	15.02
225.067	80.55
225.285	51.88
225.503	58.03
225.721	-1.37
225.939	-7.51
226.157	39.59
226.375	19.11
226.592	55.98
226.81	33.45
227.028	6.83
227.246	105.13
227.464	105.13
227.682	94.89
227.9	15.02
228.117	15.02
228.335	4.78
228.553	15.02
228.771	119.46
228.989	64.17
229.206	-7.51
229.424	8.87
229.642	29.35
229.86	4.78
230.077	4.78
230.295	-50.52
230.513	0.68
230.731	-50.52
230.948	49.83
231.166	12.97
231.384	-9.56
231.601	27.31
231.819	37.55
232.037	47.79
232.254	21.16
232.472	62.12
232.689	21.16
232.907	72.36
233.125	55.98
233.342	29.35
233.56	-34.13
233.777	49.83
233.995	35.5
234.213	64.17
234.43	6.83
234.648	-48.47
234.865	6.83
235.083	-5.46
235.3	-13.65
235.518	33.45
235.735	80.55
235.953	68.27
236.17	-58.71
236.388	45.74
236.605	-46.42
236.822	-1.37
237.04	-3.41
237.257	-11.61
237.475	45.74
237.692	27.31
237.909	-19.8
238.127	-38.23
238.344	45.74
238.562	2.73
238.779	15.02
238.996	-11.61
239.214	-9.56
239.431	109.23
239.648	17.07
239.865	62.12
240.083	39.59
240.3	29.35
240.517	29.35
240.735	51.88
240.952	96.94
241.169	33.45
241.386	101.03
241.603	15.02
241.821	8.87
242.038	53.93
242.255	58.03
242.472	64.17
242.689	19.11
242.907	31.4
243.124	-1.37
243.341	2.73
243.558	27.31
243.775	49.83
243.992	-11.61
244.209	-9.56
244.426	39.59
244.643	70.31
244.86	96.94
245.078	92.84
245.295	12.97
245.512	39.59
245.729	-79.19
245.946	53.93
246.163	103.08
246.38	84.65
246.597	27.31
246.814	15.02
247.031	21.16
247.248	39.59
247.464	64.17
247.681	82.6
247.898	60.07
248.115	-13.65
248.332	29.35
248.549	74.41
248.766	66.22
248.983	47.79
249.2	35.5
249.417	80.55
249.633	10.92
249.85	39.59
250.067	-9.56
250.284	37.55
250.501	-5.46
250.717	4.78
250.934	43.69
251.151	-66.9
251.368	-66.9
251.585	68.27
251.801	-19.8
252.018	62.12
252.235	105.13
252.451	-36.18
252.668	-25.94
252.885	76.46
253.102	2.73
253.318	74.41
253.535	58.03
253.752	19.11
253.968	70.31
254.185	70.31
254.401	49.83
254.618	12.97
254.835	19.11
255.051	70.31
255.268	-11.61
255.484	64.17
255.701	-9.56
255.917	43.69
256.134	23.21
256.351	70.31
256.567	29.35
256.784	60.07
257	0.68
257.217	47.79
257.433	35.5
257.65	74.41
257.866	96.94
258.082	23.21
258.299	60.07
258.515	74.41
258.732	-23.89
258.948	27.31
259.165	43.69
259.381	49.83
259.597	64.17
259.814	12.97
260.03	80.55
260.246	-40.28
260.463	21.16
260.679	66.22
260.895	80.55
261.112	19.11
261.328	35.5
261.544	-27.99
261.761	88.75
261.977	47.79
262.193	47.79
262.409	96.94
262.626	8.87
262.842	-19.8
263.058	10.92
263.274	19.11
263.49	31.4
263.707	10.92
263.923	55.98
264.139	23.21
264.355	94.89
264.571	27.31
264.787	4.78
265.004	47.79
265.22	-7.51
265.436	129.7
265.652	-7.51
265.868	10.92
266.084	2.73
266.3	6.83
266.516	-17.75
266.732	72.36
266.948	27.31
267.164	60.07
267.38	19.11
267.596	-21.85
267.812	131.75
268.028	-15.7
268.244	49.83
268.46	0.68
268.676	25.26
268.892	17.07
269.108	10.92
269.324	15.02
269.54	-1.37
269.756	-15.7
269.972	-3.41
270.188	-93.52
270.403	29.35
270.619	19.11
270.835	84.65
271.051	74.41
271.267	64.17
271.483	60.07
271.698	21.16
271.914	6.83
272.13	86.7
272.346	-13.65
272.562	-42.32
272.777	12.97
272.993	-13.65
273.209	-11.61
273.425	51.88
273.64	-56.66
273.856	51.88
274.072	62.12
274.287	-27.99
274.503	64.17
274.719	29.35
274.934	0.68
275.15	10.92
275.366	-13.65
275.581	-1.37
275.797	45.74
276.012	27.31
276.228	-3.41
276.444	23.21
276.659	125.61
276.875	15.02
277.09	105.13
277.306	23.21
277.521	33.45
277.737	-9.56
277.952	49.83
278.168	35.5
278.383	41.64
278.599	0.68
278.814	39.59
279.03	23.21
279.245	68.27
279.461	62.12
279.676	41.64
279.892	-9.56
280.107	35.5
280.322	23.21
280.538	10.92
280.753	6.83
280.969	29.35
281.184	47.79
281.399	76.46
281.615	58.03
281.83	31.4
282.045	49.83
282.26	23.21
282.476	45.74
282.691	62.12
282.906	-13.65
283.122	101.03
283.337	55.98
283.552	-13.65
283.767	25.26
283.983	29.35
284.198	70.31
284.413	60.07
284.628	66.22
284.843	41.64
285.058	39.59
285.274	-5.46
285.489	-44.37
285.704	109.23
285.919	-25.94
286.134	41.64
286.349	10.92
286.564	55.98
286.779	74.41
286.995	21.16
287.21	21.16
287.425	41.64
287.64	29.35
287.855	27.31
288.07	43.69
288.285	51.88
288.5	49.83
288.715	64.17
288.93	-7.51
289.145	-40.28
289.36	17.07
289.575	-9.56
289.79	33.45
290.004	53.93
290.219	137.9
290.434	-42.32
290.649	21.16
290.864	23.21
291.079	-13.65
291.294	21.16
291.509	41.64
291.724	0.68
291.938	4.78
292.153	10.92
292.368	-40.28
292.583	15.02
292.798	15.02
293.012	70.31
293.227	-7.51
293.442	76.46
293.657	-13.65
293.871	58.03
294.086	6.83
294.301	123.56
294.516	0.68
294.73	53.93
294.945	-30.04
295.16	31.4
295.374	43.69
295.589	88.75
295.804	31.4
296.018	41.64
296.233	27.31
296.447	2.73
296.662	47.79
296.877	23.21
297.091	23.21
297.306	29.35
297.52	55.98
297.735	-38.23
297.949	25.26
298.164	2.73
298.378	39.59
298.593	-23.89
298.807	37.55
299.022	-19.8
299.236	21.16
299.451	49.83
299.665	51.88
299.88	35.5
300.094	78.51
300.309	84.65
300.523	37.55
300.737	66.22
300.952	92.84
301.166	35.5
301.381	-7.51
301.595	25.26
301.809	-27.99
302.024	15.02
302.238	45.74
302.452	72.36
302.667	10.92
302.881	72.36
303.095	4.78
303.309	21.16
303.524	-46.42
303.738	10.92
303.952	60.07
304.166	76.46
304.381	29.35
304.595	25.26
304.809	47.79
305.023	88.75
305.237	27.31
305.452	64.17
305.666	21.16
305.88	41.64
306.094	31.4
306.308	80.55
306.522	37.55
306.736	39.59
306.95	23.21
307.164	15.02
307.379	49.83
307.593	72.36
307.807	60.07
308.021	109.23
308.235	72.36
308.449	15.02
308.663	39.59
308.877	72.36
309.091	45.74
309.305	23.21
309.519	-44.37
309.733	31.4
309.947	10.92
310.161	23.21
310.374	103.08
310.588	12.97
310.802	53.93
311.016	-46.42
311.23	47.79
311.444	19.11
311.658	74.41
311.872	37.55
312.085	17.07
312.299	51.88
312.513	58.03
312.727	82.6
312.941	-9.56
313.154	66.22
313.368	10.92
313.582	55.98
313.796	43.69
314.009	35.5
314.223	58.03
314.437	-3.41
314.651	-25.94
314.864	-21.85
315.078	-58.71
315.292	-25.94
315.505	-11.61
315.719	23.21
315.933	31.4
316.146	-36.18
316.36	25.26
316.573	82.6
316.787	82.6
317.001	66.22
317.214	-60.76
317.428	90.79
317.641	29.35
317.855	-9.56
318.068	62.12
318.282	-21.85
318.495	123.56
318.709	121.51
318.922	4.78
319.136	88.75
319.349	-19.8
319.563	-77.14
319.776	64.17
319.99	15.02
320.203	146.09
320.417	60.07
320.63	31.4
320.843	92.84
321.057	29.35
321.27	74.41
321.483	15.02
321.697	37.55
321.91	70.31
322.124	74.41
322.337	-25.94
322.55	4.78
322.763	37.55
322.977	-34.13
323.19	33.45
323.403	55.98
323.617	23.21
323.83	10.92
324.043	-21.85
324.256	-7.51
324.469	-1.37
324.683	10.92
324.896	27.31
325.109	72.36
325.322	31.4
325.535	27.31
325.748	23.21
325.962	51.88
326.175	12.97
326.388	62.12
326.601	66.22
326.814	74.41
327.027	10.92
327.24	53.93
327.453	31.4
327.666	43.69
327.879	74.41
328.092	0.68
328.305	53.93
328.518	43.69
328.731	10.92
328.944	41.64
329.157	49.83
329.37	23.21
329.583	80.55
329.796	47.79
330.009	23.21
330.222	43.69
330.435	80.55
330.648	-58.71
330.861	-11.61
331.073	41.64
331.286	-9.56
331.499	15.02
331.712	-15.7
331.925	96.94
332.138	43.69
332.35	98.99
332.563	-5.46
332.776	43.69
332.989	-19.8
333.202	-21.85
333.414	78.51
333.627	-19.8
333.84	35.5
334.053	25.26
334.265	135.85
334.478	-7.51
334.691	27.31
334.903	58.03
335.116	0.68
335.329	25.26
335.541	8.87
335.754	72.36
335.966	4.78
336.179	-9.56
336.392	35.5
336.604	33.45
336.817	-3.41
337.029	45.74
337.242	-3.41
337.454	15.02
337.667	51.88
337.88	-11.61
338.092	64.17
338.305	41.64
338.517	19.11
338.729	15.02
338.942	23.21
339.154	68.27
339.367	23.21
339.579	-58.71
339.792	70.31
340.004	47.79
340.217	96.94
340.429	-19.8
340.641	55.98
340.854	10.92
341.066	45.74
341.278	45.74
341.491	125.61
341.703	72.36
341.915	-5.46
342.128	43.69
342.34	70.31
342.552	-11.61
342.764	45.74
342.977	-75.09
343.189	76.46
343.401	-7.51
343.613	53.93
343.826	107.18
344.038	27.31
344.25	117.42
344.462	33.45
344.674	-7.51
344.886	6.83
345.099	-17.75
345.311	-1.37
345.523	-3.41
345.735	51.88
345.947	-32.08
346.159	15.02
346.371	68.27
346.583	0.68
346.795	86.7
347.007	78.51
347.219	58.03
347.431	105.13
347.643	121.51
347.855	27.31
348.067	27.31
348.279	25.26
348.491	51.88
348.703	6.83
348.915	-5.46
349.127	0.68
349.339	55.98
349.551	0.68
349.763	41.64
349.975	15.02
350.187	80.55
350.399	88.75
350.61	80.55
350.822	23.21
351.034	84.65
351.246	47.79
351.458	62.12
351.669	21.16
351.881	27.31
352.093	47.79
352.305	113.32
352.517	41.64
352.728	64.17
352.94	51.88
353.152	27.31
353.363	51.88
353.575	8.87
353.787	31.4
353.999	-5.46
354.21	60.07
354.422	29.35
354.633	-66.9
354.845	-7.51
355.057	47.79
355.268	33.45
355.48	49.83
355.692	15.02
355.903	-13.65
356.115	4.78
356.326	19.11
356.538	64.17
356.749	-48.47
356.961	43.69
357.172	62.12
357.384	72.36
357.595	109.23
357.807	39.59
358.018	76.46
358.23	154.28
358.441	119.46
358.653	125.61
358.864	51.88
359.075	2.73
359.287	70.31
359.498	119.46
359.709	23.21
359.921	-32.08
360.132	49.83
360.344	51.88
360.555	6.83
360.766	86.7
360.977	-7.51
361.189	88.75
361.4	60.07
361.611	148.14
361.823	72.36
362.034	55.98
362.245	37.55
362.456	-25.94
362.667	53.93
362.879	62.12
363.09	94.89
363.301	146.09
363.512	15.02
363.723	-5.46
363.935	-48.47
364.146	178.86
364.357	-1.37
364.568	84.65
364.779	-13.65
364.99	92.84
365.201	72.36
365.412	23.21
365.623	-42.32
365.834	60.07
366.045	101.03
366.256	105.13
366.467	39.59
366.678	39.59
366.889	146.09
367.1	62.12
367.311	84.65
367.522	21.16
367.733	148.14
367.944	-1.37
368.155	68.27
368.366	51.88
368.577	92.84
368.788	19.11
368.999	21.16
369.209	88.75
369.42	113.32
369.631	-5.46
369.842	47.79
370.053	-7.51
370.264	70.31
370.474	17.07
370.685	70.31
370.896	55.98
371.107	43.69
371.317	92.84
371.528	72.36
371.739	92.84
371.95	2.73
372.16	53.93
372.371	-66.9
372.582	70.31
372.792	37.55
373.003	84.65
373.214	39.59
373.424	92.84
373.635	62.12
373.846	125.61
374.056	84.65
374.267	41.64
374.477	35.5
374.688	2.73
374.898	35.5
375.109	-5.46
375.319	62.12
375.53	78.51
375.74	45.74
375.951	53.93
376.161	33.45
376.372	94.89
376.582	10.92
376.793	58.03
377.003	66.22
377.214	94.89
377.424	82.6
377.635	15.02
377.845	117.42
378.055	43.69
378.266	27.31
378.476	-9.56
378.686	-32.08
378.897	64.17
379.107	101.03
379.317	41.64
379.528	111.27
379.738	-32.08
379.948	35.5
380.158	64.17
380.369	0.68
380.579	-23.89
380.789	84.65
380.999	47.79
381.21	64.17
381.42	68.27
381.63	45.74
381.84	23.21
382.05	53.93
382.261	86.7
382.471	60.07
382.681	31.4
382.891	41.64
383.101	45.74
383.311	53.93
383.521	68.27
383.731	82.6
383.941	62.12
384.151	82.6
384.361	84.65
384.571	41.64
384.781	84.65
384.991	125.61
385.201	119.46
385.411	60.07
385.621	76.46
385.831	80.55
386.041	78.51
386.251	111.27
386.461	45.74
386.671	49.83
386.881	70.31
387.091	68.27
387.301	10.92
387.511	31.4
387.72	76.46
387.93	62.12
388.14	43.69
388.35	25.26
388.56	109.23
388.769	43.69
388.979	98.99
389.189	92.84
389.399	133.8
389.609	86.7
389.818	139.94
390.028	27.31
390.238	39.59
390.447	27.31
390.657	123.56
390.867	49.83
391.076	90.79
391.286	78.51
391.496	37.55
391.705	15.02
391.915	158.38
392.125	166.57
392.334	101.03
392.544	72.36
392.753	-21.85
392.963	31.4
393.172	105.13
393.382	105.13
393.591	113.32
393.801	86.7
394.01	51.88
394.22	150.18
394.429	37.55
394.639	146.09
394.848	64.17
395.058	182.95
395.267	62.12
395.477	105.13
395.686	119.46
395.895	113.32
396.105	119.46
396.314	139.94
396.524	103.08
396.733	80.55
396.942	174.76
397.152	172.71
397.361	107.18
397.57	76.46
397.78	141.99
397.989	109.23
398.198	193.19
398.407	43.69
398.617	103.08
398.826	45.74
399.035	154.28
399.244	160.42
399.453	105.13
399.663	176.81
399.872	80.55
400.081	133.8
400.29	119.46
400.499	103.08
400.708	148.14
400.917	156.33
401.127	92.84
401.336	117.42
401.545	107.18
401.754	111.27
401.963	197.29
402.172	187.05
402.381	121.51
402.59	141.99
402.799	176.81
403.008	158.38
403.217	133.8
403.426	160.42
403.635	137.9
403.844	135.85
404.053	174.76
404.262	139.94
404.471	137.9
404.68	158.38
404.888	166.57
405.097	176.81
405.306	146.09
405.515	180.9
405.724	209.58
405.933	244.39
406.142	189.1
406.35	293.54
406.559	176.81
406.768	213.67
406.977	295.59
407.185	152.23
407.394	293.54
407.603	209.58
407.812	238.25
408.02	273.06
408.229	289.45
408.438	301.73
408.646	187.05
408.855	354.98
409.064	303.78
409.272	365.22
409.481	410.28
409.69	346.79
409.898	309.93
410.107	414.37
410.315	455.33
410.524	361.13
410.733	381.6
410.941	369.32
411.15	420.52
411.358	545.44
411.567	531.11
411.775	463.52
411.984	518.82
412.192	492.2
412.401	516.77
412.609	545.44
412.818	623.27
413.026	578.21
413.234	684.7
413.443	658.08
413.651	715.42
413.86	662.18
414.068	785.05
414.276	793.25
414.485	768.67
414.693	793.25
414.901	864.93
415.11	891.55
415.318	846.49
415.526	946.84
415.734	1088.15
415.943	924.32
416.151	1018.52
416.359	1039
416.567	1088.15
416.776	1208.98
416.984	1170.07
417.192	1329.81
417.4	1251.99
417.608	1202.84
417.817	1276.57
418.025	1407.64
418.233	1475.22
418.441	1581.71
418.649	1448.6
418.857	1604.24
419.065	1620.63
419.273	1747.6
419.481	1690.26
419.689	1854.09
419.897	1811.09
420.105	1972.88
420.313	1907.34
420.521	2105.99
420.729	2062.99
420.937	2101.9
421.145	2245.26
421.353	2329.22
421.561	2407.05
421.769	2501.25
421.977	2572.93
422.185	2519.68
422.393	2841.22
422.601	2998.91
422.809	3037.82
423.017	2904.7
423.224	3181.18
423.432	3179.13
423.64	3181.18
423.848	3365.5
424.056	3420.79
424.263	3684.98
424.471	3697.27
424.679	3854.96
424.887	4110.96
425.094	4084.33
425.302	4049.52
425.51	4252.27
425.718	4360.81
425.925	4430.44
426.133	4557.41
426.341	4954.72
426.548	5196.38
426.756	4952.67
426.964	5106.27
427.171	5571.16
427.379	5616.21
427.586	5732.95
427.794	5855.83
428.001	6115.92
428.209	6378.06
428.417	6210.12
428.624	6816.32
428.832	6795.84
429.039	6623.81
429.247	6918.72
429.454	7367.23
429.662	7846.45
429.869	7395.9
430.076	7832.12
430.284	7543.35
430.491	7946.8
430.699	8460.84
430.906	8436.27
431.114	8364.59
431.321	8823.33
431.528	8925.73
431.736	9519.64
431.943	10064.4
432.15	9646.62
432.358	9861.65
432.565	10435.08
432.772	10365.45
432.979	11008.51
433.187	10979.84
433.394	11135.49
433.601	11887.09
433.808	12065.27
434.016	11665.91
434.223	12444.14
434.43	13062.63
434.637	12583.4
434.844	13597.15
435.052	13959.64
435.259	13599.2
435.466	13918.68
435.673	14057.94
435.88	14731.72
436.087	15548.86
436.294	15491.52
436.501	14961.09
436.708	15446.46
436.915	16030.13
437.122	16931.24
437.329	16581.04
437.537	16978.34
437.743	17248.68
437.95	17582.49
438.157	18168.21
438.364	18753.93
438.571	18563.47
438.778	18768.27
438.985	20781.42
439.192	19835.26
439.399	20244.85
439.606	20150.65
439.813	21137.77
440.02	22374.74
440.227	21879.13
440.433	21774.69
440.64	22471
440.847	22485.33
441.054	23140.68
441.261	24271.16
441.467	24107.32
441.674	24764.72
441.881	25545
442.088	25510.18
442.294	25200.94
442.501	26011.93
442.708	26192.15
442.914	27683.08
443.121	28588.28
443.328	27721.99
443.534	29786.34
443.741	29016.3
443.948	28774.64
444.154	30761.17
444.361	30279.9
444.568	30914.77
444.774	30439.64
444.981	31074.51
445.187	31877.32
445.394	33198.26
445.6	32882.87
445.807	36155.52
446.013	34205.86
446.22	34891.93
446.426	36329.6
446.633	36515.97
446.839	37804.14
447.046	36206.72
447.252	38334.56
447.459	38281.31
447.665	38334.56
447.871	39706.7
448.078	41594.93
448.284	39692.36
448.491	40460.35
448.697	42127.4
448.903	42952.73
449.11	42719.26
449.316	42111.02
449.522	42614.82
449.728	44240.9
449.935	44351.49
450.141	44781.57
450.347	44980.22
450.553	43403.28
450.76	44480.52
450.966	45647.86
451.172	45221.88
451.378	45969.39
451.584	45271.03
451.791	46311.4
451.997	46198.76
452.203	47411.16
452.409	46845.92
452.615	46981.09
452.821	44886.01
453.027	44449.8
453.233	46981.09
453.44	44421.12
453.646	44865.53
453.852	45510.64
454.058	45983.72
454.264	44507.14
454.47	45334.52
454.676	44687.36
454.882	45697.01
455.088	42160.17
455.294	42209.32
455.5	42731.55
455.705	43806.73
455.911	41734.19
456.117	40753.21
456.323	40468.55
456.529	37855.34
456.735	39891.02
456.941	38807.64
457.147	38244.45
457.352	37060.73
457.558	35907.72
457.764	36438.14
457.97	35852.42
458.176	34969.75
458.381	34986.13
458.587	33093.81
458.793	33095.86
458.999	31295.69
459.204	33714.34
459.41	33226.93
459.616	30488.79
459.821	30845.14
460.027	30888.15
460.233	29913.31
460.438	28608.76
460.644	29018.35
460.85	27654.4
461.055	27150.6
461.261	27064.59
461.466	25102.64
461.672	24318.26
461.878	25936.16
462.083	24379.7
462.289	24072.51
462.494	23710.02
462.7	22643.03
462.905	22057.31
463.111	22864.21
463.316	23124.3
463.522	22735.18
463.727	22612.31
463.932	22569.3
464.138	22083.93
464.343	22399.32
464.549	21647.71
464.754	22157.66
464.959	22217.05
465.165	21856.61
465.37	21281.13
465.575	20769.13
465.781	21408.1
465.986	21676.38
466.191	20900.2
466.397	20283.77
466.602	19470.72
466.807	20351.35
467.012	19976.57
