Data from USB4F104151__87__10-24-22-810.txt Node

Date: Wed Mar 12 10:24:22 EDT 2025
User: louis
Spectrometer: USB4F10415
Trigger mode: 4
Integration Time (sec): 3.000000E-2
Scans to average: 1
Electric dark correction enabled: true
Nonlinearity correction enabled: false
Boxcar width: 0
XAxis mode: Wavelengths
Number of Pixels in Spectrum: 3648
>>>>>Begin Spectral Data<<<<<
178.204	-104.28
178.424	-104.28
178.644	-104.28
178.864	-94.04
179.084	-118.61
179.304	18.6
179.524	-63.32
179.744	-44.88
179.964	57.51
180.184	-24.4
180.404	37.03
180.624	12.46
180.844	14.51
181.064	-32.6
181.283	82.09
181.503	-36.69
181.723	-20.31
181.943	-48.98
182.163	-3.93
182.383	-63.32
182.602	39.08
182.822	45.23
183.042	-8.02
183.262	47.27
183.482	8.36
183.701	-22.36
183.921	14.51
184.141	37.03
184.361	61.61
184.58	-14.17
184.8	57.51
185.02	16.55
185.239	110.76
185.459	73.9
185.679	28.84
185.898	-20.31
186.118	-30.55
186.338	-53.08
186.557	94.38
186.777	-5.97
186.997	-55.12
187.216	-3.93
187.436	39.08
187.655	2.22
187.875	53.42
188.095	-32.6
188.314	16.55
188.534	28.84
188.753	-75.6
188.973	10.41
189.192	59.56
189.412	-5.97
189.631	32.94
189.851	10.41
190.07	30.89
190.29	-38.74
190.509	22.7
190.729	2.22
190.948	39.08
191.168	116.9
191.387	49.32
191.607	-10.07
191.826	55.47
192.045	-28.5
192.265	26.79
192.484	10.41
192.704	16.55
192.923	-69.46
193.142	34.99
193.362	-20.31
193.581	55.47
193.8	-20.31
194.02	69.8
194.239	-24.4
194.458	28.84
194.678	-53.08
194.897	-20.31
195.116	-18.26
195.335	39.08
195.555	69.8
195.774	-30.55
195.993	34.99
196.212	43.18
196.432	49.32
196.651	0.17
196.87	-12.12
197.089	18.6
197.308	43.18
197.528	-1.88
197.747	-40.79
197.966	12.46
198.185	20.65
198.404	47.27
198.623	-12.12
198.842	55.47
199.062	4.27
199.281	32.94
199.5	-14.17
199.719	28.84
199.938	63.66
200.157	32.94
200.376	-20.31
200.595	37.03
200.814	41.13
201.033	51.37
201.252	26.79
201.471	-46.93
201.69	61.61
201.909	12.46
202.128	4.27
202.347	98.47
202.566	53.42
202.785	-22.36
203.004	-81.75
203.223	57.51
203.442	41.13
203.661	-18.26
203.879	65.71
204.098	102.57
204.317	-10.07
204.536	10.41
204.755	-5.97
204.974	55.47
205.193	8.36
205.411	141.48
205.63	30.89
205.849	24.75
206.068	-12.12
206.287	-34.64
206.505	14.51
206.724	24.75
206.943	-16.21
207.162	-22.36
207.381	59.56
207.599	-3.93
207.818	45.23
208.037	-3.93
208.255	47.27
208.474	55.47
208.693	61.61
208.911	24.75
209.13	34.99
209.349	55.47
209.567	-20.31
209.786	100.52
210.005	6.31
210.223	14.51
210.442	20.65
210.661	45.23
210.879	37.03
211.098	6.31
211.316	53.42
211.535	16.55
211.753	6.31
211.972	45.23
212.191	32.94
212.409	80.04
212.628	45.23
212.846	-67.41
213.065	-44.88
213.283	45.23
213.502	-3.93
213.72	77.99
213.938	0.17
214.157	37.03
214.375	51.37
214.594	32.94
214.812	57.51
215.031	-36.69
215.249	-51.03
215.467	4.27
215.686	84.14
215.904	57.51
216.122	-22.36
216.341	22.7
216.559	32.94
216.778	34.99
216.996	-1.88
217.214	-24.4
217.432	-3.93
217.651	26.79
217.869	18.6
218.087	63.66
218.306	-24.4
218.524	94.38
218.742	-67.41
218.96	-24.4
219.179	20.65
219.397	-40.79
219.615	41.13
219.833	-1.88
220.051	-12.12
220.27	8.36
220.488	-16.21
220.706	2.22
220.924	14.51
221.142	20.65
221.36	-22.36
221.578	10.41
221.796	-3.93
222.015	53.42
222.233	24.75
222.451	45.23
222.669	-24.4
222.887	47.27
223.105	45.23
223.323	4.27
223.541	-40.79
223.759	57.51
223.977	-53.08
224.195	51.37
224.413	110.76
224.631	53.42
224.849	51.37
225.067	92.33
225.285	2.22
225.503	-59.22
225.721	0.17
225.939	-22.36
226.157	55.47
226.375	49.32
226.592	41.13
226.81	-3.93
227.028	6.31
227.246	114.86
227.464	12.46
227.682	39.08
227.9	0.17
228.117	37.03
228.335	14.51
228.553	43.18
228.771	30.89
228.989	14.51
229.206	30.89
229.424	-18.26
229.642	57.51
229.86	-8.02
230.077	12.46
230.295	20.65
230.513	75.95
230.731	-5.97
230.948	67.75
231.166	-8.02
231.384	0.17
231.601	39.08
231.819	104.62
232.037	6.31
232.254	-61.27
232.472	37.03
232.689	-44.88
232.907	61.61
233.125	32.94
233.342	2.22
233.56	-3.93
233.777	92.33
233.995	-20.31
234.213	69.8
234.43	26.79
234.648	-42.84
234.865	-65.36
235.083	69.8
235.3	-12.12
235.518	57.51
235.735	45.23
235.953	45.23
236.17	0.17
236.388	53.42
236.605	20.65
236.822	65.71
237.04	37.03
237.257	16.55
237.475	-14.17
237.692	20.65
237.909	28.84
238.127	59.56
238.344	24.75
238.562	45.23
238.779	0.17
238.996	-10.07
239.214	102.57
239.431	37.03
239.648	16.55
239.865	0.17
240.083	12.46
240.3	-16.21
240.517	-77.65
240.735	28.84
240.952	86.19
241.169	-3.93
241.386	53.42
241.603	0.17
241.821	71.85
242.038	82.09
242.255	41.13
242.472	-18.26
242.689	2.22
242.907	65.71
243.124	45.23
243.341	-59.22
243.558	-77.65
243.775	26.79
243.992	12.46
244.209	28.84
244.426	96.43
244.643	10.41
244.86	12.46
245.078	-12.12
245.295	-5.97
245.512	-42.84
245.729	-36.69
245.946	4.27
246.163	10.41
246.38	28.84
246.597	-34.64
246.814	-24.4
247.031	24.75
247.248	16.55
247.464	-5.97
247.681	65.71
247.898	6.31
248.115	39.08
248.332	28.84
248.549	14.51
248.766	34.99
248.983	37.03
249.2	-18.26
249.417	-20.31
249.633	-28.5
249.85	37.03
250.067	-44.88
250.284	65.71
250.501	77.99
250.717	139.43
250.934	43.18
251.151	55.47
251.368	-18.26
251.585	-30.55
251.801	12.46
252.018	-10.07
252.235	-18.26
252.451	-28.5
252.668	-44.88
252.885	51.37
253.102	51.37
253.318	12.46
253.535	39.08
253.752	43.18
253.968	98.47
254.185	30.89
254.401	57.51
254.618	20.65
254.835	-28.5
255.051	73.9
255.268	96.43
255.484	63.66
255.701	-5.97
255.917	80.04
256.134	12.46
256.351	10.41
256.567	45.23
256.784	45.23
257	-38.74
257.217	-3.93
257.433	-10.07
257.65	20.65
257.866	37.03
258.082	-42.84
258.299	-81.75
258.515	-12.12
258.732	53.42
258.948	49.32
259.165	41.13
259.381	-40.79
259.597	45.23
259.814	-53.08
260.03	-18.26
260.246	67.75
260.463	69.8
260.679	73.9
260.895	41.13
261.112	45.23
261.328	20.65
261.544	51.37
261.761	41.13
261.977	10.41
262.193	-77.65
262.409	61.61
262.626	-32.6
262.842	2.22
263.058	-26.45
263.274	65.71
263.49	20.65
263.707	90.28
263.923	80.04
264.139	30.89
264.355	4.27
264.571	41.13
264.787	39.08
265.004	26.79
265.22	-12.12
265.436	-8.02
265.652	-22.36
265.868	30.89
266.084	-30.55
266.3	16.55
266.516	-10.07
266.732	4.27
266.948	45.23
267.164	-10.07
267.38	28.84
267.596	41.13
267.812	77.99
268.028	-30.55
268.244	14.51
268.46	88.23
268.676	65.71
268.892	10.41
269.108	39.08
269.324	65.71
269.54	116.9
269.756	24.75
269.972	20.65
270.188	16.55
270.403	63.66
270.619	-30.55
270.835	12.46
271.051	39.08
271.267	2.22
271.483	45.23
271.698	-3.93
271.914	86.19
272.13	12.46
272.346	16.55
272.562	30.89
272.777	90.28
272.993	45.23
273.209	61.61
273.425	32.94
273.64	75.95
273.856	86.19
274.072	-3.93
274.287	20.65
274.503	104.62
274.719	16.55
274.934	47.27
275.15	12.46
275.366	45.23
275.581	49.32
275.797	59.56
276.012	96.43
276.228	-12.12
276.444	-30.55
276.659	110.76
276.875	-36.69
277.09	-40.79
277.306	61.61
277.521	14.51
277.737	-44.88
277.952	86.19
278.168	73.9
278.383	16.55
278.599	37.03
278.814	51.37
279.03	118.95
279.245	71.85
279.461	43.18
279.676	32.94
279.892	65.71
280.107	-18.26
280.322	59.56
280.538	30.89
280.753	-71.51
280.969	8.36
281.184	82.09
281.399	98.47
281.615	26.79
281.83	63.66
282.045	-24.4
282.26	-24.4
282.476	12.46
282.691	45.23
282.906	63.66
283.122	26.79
283.337	51.37
283.552	49.32
283.767	12.46
283.983	20.65
284.198	24.75
284.413	34.99
284.628	-55.12
284.843	-16.21
285.058	37.03
285.274	32.94
285.489	-12.12
285.704	49.32
285.919	-30.55
286.134	8.36
286.349	45.23
286.564	59.56
286.779	77.99
286.995	-12.12
287.21	-20.31
287.425	16.55
287.64	22.7
287.855	90.28
288.07	2.22
288.285	77.99
288.5	43.18
288.715	12.46
288.93	77.99
289.145	-14.17
289.36	-8.02
289.575	-14.17
289.79	80.04
290.004	-46.93
290.219	59.56
290.434	-32.6
290.649	-44.88
290.864	16.55
291.079	0.17
291.294	98.47
291.509	39.08
291.724	45.23
291.938	57.51
292.153	61.61
292.368	57.51
292.583	-30.55
292.798	14.51
293.012	86.19
293.227	20.65
293.442	112.81
293.657	0.17
293.871	55.47
294.086	24.75
294.301	43.18
294.516	16.55
294.73	69.8
294.945	28.84
295.16	-20.31
295.374	59.56
295.589	34.99
295.804	30.89
296.018	22.7
296.233	102.57
296.447	34.99
296.662	37.03
296.877	49.32
297.091	59.56
297.306	45.23
297.52	55.47
297.735	51.37
297.949	-5.97
298.164	49.32
298.378	-5.97
298.593	28.84
298.807	10.41
299.022	-32.6
299.236	65.71
299.451	26.79
299.665	51.37
299.88	77.99
300.094	45.23
300.309	53.42
300.523	41.13
300.737	45.23
300.952	43.18
301.166	-5.97
301.381	8.36
301.595	28.84
301.809	45.23
302.024	28.84
302.238	-16.21
302.452	67.75
302.667	-40.79
302.881	116.9
303.095	41.13
303.309	61.61
303.524	16.55
303.738	32.94
303.952	10.41
304.166	45.23
304.381	32.94
304.595	-14.17
304.809	12.46
305.023	51.37
305.237	53.42
305.452	41.13
305.666	100.52
305.88	51.37
306.094	59.56
306.308	61.61
306.522	43.18
306.736	32.94
306.95	59.56
307.164	84.14
307.379	-28.5
307.593	125.1
307.807	96.43
308.021	-1.88
308.235	39.08
308.449	-5.97
308.663	-3.93
308.877	147.62
309.091	61.61
309.305	57.51
309.519	-87.89
309.733	32.94
309.947	-34.64
310.161	69.8
310.374	121
310.588	43.18
310.802	28.84
311.016	-16.21
311.23	20.65
311.444	-53.08
311.658	-14.17
311.872	49.32
312.085	12.46
312.299	67.75
312.513	-5.97
312.727	12.46
312.941	-12.12
313.154	32.94
313.368	22.7
313.582	84.14
313.796	57.51
314.009	37.03
314.223	34.99
314.437	67.75
314.651	51.37
314.864	18.6
315.078	53.42
315.292	4.27
315.505	20.65
315.719	55.47
315.933	26.79
316.146	131.24
316.36	12.46
316.573	108.71
316.787	-5.97
317.001	-26.45
317.214	-53.08
317.428	34.99
317.641	20.65
317.855	59.56
318.068	77.99
318.282	4.27
318.495	67.75
318.709	82.09
318.922	-3.93
319.136	77.99
319.349	-1.88
319.563	34.99
319.776	61.61
319.99	22.7
320.203	-10.07
320.417	4.27
320.63	16.55
320.843	30.89
321.057	10.41
321.27	-28.5
321.483	53.42
321.697	137.38
321.91	41.13
322.124	69.8
322.337	43.18
322.55	14.51
322.763	45.23
322.977	59.56
323.19	-38.74
323.403	61.61
323.617	22.7
323.83	0.17
324.043	45.23
324.256	65.71
324.469	22.7
324.683	108.71
324.896	49.32
325.109	61.61
325.322	2.22
325.535	57.51
325.748	-22.36
325.962	-32.6
326.175	43.18
326.388	41.13
326.601	90.28
326.814	53.42
327.027	82.09
327.24	94.38
327.453	24.75
327.666	14.51
327.879	37.03
328.092	47.27
328.305	53.42
328.518	-48.98
328.731	59.56
328.944	30.89
329.157	110.76
329.37	28.84
329.583	106.67
329.796	8.36
330.009	-10.07
330.222	-22.36
330.435	65.71
330.648	63.66
330.861	65.71
331.073	32.94
331.286	100.52
331.499	82.09
331.712	53.42
331.925	-3.93
332.138	8.36
332.35	0.17
332.563	37.03
332.776	-22.36
332.989	18.6
333.202	43.18
333.414	-32.6
333.627	4.27
333.84	22.7
334.053	10.41
334.265	63.66
334.478	39.08
334.691	90.28
334.903	53.42
335.116	12.46
335.329	53.42
335.541	71.85
335.754	118.95
335.966	-22.36
336.179	10.41
336.392	24.75
336.604	0.17
336.817	77.99
337.029	86.19
337.242	100.52
337.454	61.61
337.667	32.94
337.88	71.85
338.092	61.61
338.305	16.55
338.517	34.99
338.729	-22.36
338.942	118.95
339.154	-36.69
339.367	-1.88
339.579	30.89
339.792	10.41
340.004	88.23
340.217	59.56
340.429	28.84
340.641	20.65
340.854	41.13
341.066	55.47
341.278	65.71
341.491	4.27
341.703	47.27
341.915	32.94
342.128	114.86
342.34	45.23
342.552	12.46
342.764	-22.36
342.977	32.94
343.189	127.14
343.401	98.47
343.613	65.71
343.826	-10.07
344.038	-57.17
344.25	104.62
344.462	-1.88
344.674	39.08
344.886	18.6
345.099	77.99
345.311	-16.21
345.523	16.55
345.735	-10.07
345.947	65.71
346.159	-8.02
346.371	-20.31
346.583	20.65
346.795	84.14
347.007	102.57
347.219	55.47
347.431	-5.97
347.643	168.1
347.855	16.55
348.067	63.66
348.279	-18.26
348.491	-20.31
348.703	26.79
348.915	0.17
349.127	26.79
349.339	108.71
349.551	2.22
349.763	106.67
349.975	22.7
350.187	90.28
350.399	45.23
350.61	26.79
350.822	80.04
351.034	59.56
351.246	69.8
351.458	12.46
351.669	77.99
351.881	84.14
352.093	61.61
352.305	61.61
352.517	45.23
352.728	77.99
352.94	20.65
353.152	59.56
353.363	77.99
353.575	39.08
353.787	32.94
353.999	118.95
354.21	92.33
354.422	71.85
354.633	47.27
354.845	69.8
355.057	49.32
355.268	57.51
355.48	4.27
355.692	10.41
355.903	73.9
356.115	41.13
356.326	0.17
356.538	20.65
356.749	45.23
356.961	26.79
357.172	8.36
357.384	18.6
357.595	26.79
357.807	14.51
358.018	-28.5
358.23	45.23
358.441	84.14
358.653	-5.97
358.864	98.47
359.075	75.95
359.287	18.6
359.498	61.61
359.709	57.51
359.921	-5.97
360.132	-3.93
360.344	6.31
360.555	4.27
360.766	47.27
360.977	14.51
361.189	22.7
361.4	41.13
361.611	80.04
361.823	0.17
362.034	116.9
362.245	-14.17
362.456	86.19
362.667	24.75
362.879	6.31
363.09	20.65
363.301	2.22
363.512	57.51
363.723	32.94
363.935	-53.08
364.146	10.41
364.357	4.27
364.568	53.42
364.779	59.56
364.99	61.61
365.201	6.31
365.412	86.19
365.623	4.27
365.834	45.23
366.045	77.99
366.256	75.95
366.467	53.42
366.678	57.51
366.889	-16.21
367.1	86.19
367.311	22.7
367.522	67.75
367.733	26.79
367.944	45.23
368.155	98.47
368.366	45.23
368.577	147.62
368.788	94.38
368.999	-18.26
369.209	100.52
369.42	172.2
369.631	65.71
369.842	67.75
370.053	53.42
370.264	8.36
370.474	16.55
370.685	12.46
370.896	30.89
371.107	118.95
371.317	123.05
371.528	53.42
371.739	155.82
371.95	-28.5
372.16	110.76
372.371	28.84
372.582	69.8
372.792	41.13
373.003	24.75
373.214	-12.12
373.424	88.23
373.635	73.9
373.846	37.03
374.056	34.99
374.267	45.23
374.477	20.65
374.688	49.32
374.898	131.24
375.109	32.94
375.319	55.47
375.53	22.7
375.74	114.86
375.951	14.51
376.161	39.08
376.372	102.57
376.582	53.42
376.793	104.62
377.003	47.27
377.214	84.14
377.424	-8.02
377.635	41.13
377.845	-3.93
378.055	41.13
378.266	53.42
378.476	84.14
378.686	-46.93
378.897	88.23
379.107	14.51
379.317	43.18
379.528	16.55
379.738	96.43
379.948	37.03
380.158	-1.88
380.369	8.36
380.579	57.51
380.789	10.41
380.999	125.1
381.21	45.23
381.42	77.99
381.63	-22.36
381.84	75.95
382.05	51.37
382.261	47.27
382.471	102.57
382.681	32.94
382.891	59.56
383.101	4.27
383.311	65.71
383.521	65.71
383.731	98.47
383.941	41.13
384.151	45.23
384.361	69.8
384.571	43.18
384.781	41.13
384.991	77.99
385.201	100.52
385.411	67.75
385.621	55.47
385.831	-53.08
386.041	-16.21
386.251	24.75
386.461	102.57
386.671	-8.02
386.881	67.75
387.091	39.08
387.301	100.52
387.511	47.27
387.72	71.85
387.93	10.41
388.14	-8.02
388.35	131.24
388.56	59.56
388.769	55.47
388.979	102.57
389.189	63.66
389.399	133.29
389.609	75.95
389.818	47.27
390.028	26.79
390.238	77.99
390.447	55.47
390.657	67.75
390.867	63.66
391.076	-3.93
391.286	14.51
391.496	71.85
391.705	127.14
391.915	45.23
392.125	100.52
392.334	77.99
392.544	32.94
392.753	59.56
392.963	51.37
393.172	59.56
393.382	59.56
393.591	102.57
393.801	112.81
394.01	135.34
394.22	57.51
394.429	28.84
394.639	96.43
394.848	123.05
395.058	86.19
395.267	80.04
395.477	69.8
395.686	131.24
395.895	166.06
396.105	102.57
396.314	127.14
396.524	94.38
396.733	123.05
396.942	176.3
397.152	90.28
397.361	77.99
397.57	131.24
397.78	61.61
397.989	106.67
398.198	131.24
398.407	143.53
398.617	141.48
398.826	123.05
399.035	112.81
399.244	45.23
399.453	161.96
399.663	59.56
399.872	84.14
400.081	114.86
400.29	82.09
400.499	16.55
400.708	157.86
400.917	116.9
401.127	110.76
401.336	82.09
401.545	227.5
401.754	112.81
401.963	231.59
402.172	125.1
402.381	139.43
402.59	180.39
402.799	104.62
403.008	192.68
403.217	125.1
403.426	135.34
403.635	96.43
403.844	135.34
404.053	196.78
404.262	127.14
404.471	217.26
404.68	143.53
404.888	192.68
405.097	155.82
405.306	143.53
405.515	176.3
405.724	207.02
405.933	143.53
406.142	213.16
406.35	204.97
406.559	223.4
406.768	182.44
406.977	231.59
407.185	204.97
407.394	225.45
407.603	209.06
407.812	241.83
408.02	254.12
408.229	245.93
408.438	305.32
408.646	254.12
408.855	278.69
409.064	295.08
409.272	338.09
409.481	385.19
409.69	307.37
409.898	303.27
410.107	377
410.315	415.91
410.524	321.7
410.733	450.72
410.941	430.24
411.15	446.63
411.358	536.74
411.567	549.03
411.775	456.87
411.984	512.16
412.192	546.98
412.401	518.31
412.609	520.35
412.818	620.71
413.026	608.42
413.234	616.61
413.443	682.14
413.651	639.14
413.86	632.99
414.068	790.69
414.276	719.01
414.485	774.3
414.693	719.01
414.901	905.37
415.11	790.69
415.318	825.5
415.526	913.56
415.734	942.24
415.943	954.52
416.151	981.15
416.359	985.24
416.567	938.14
416.776	1155.23
416.984	1192.09
417.192	1222.81
417.4	1126.55
417.608	1181.85
417.817	1296.53
418.025	1284.25
418.233	1339.54
418.441	1288.34
418.649	1538.2
418.857	1581.2
419.065	1595.54
419.273	1515.67
419.481	1611.92
419.689	1661.07
419.897	1917.07
420.105	1769.62
420.313	1892.49
420.521	2064.52
420.729	2017.42
420.937	2101.39
421.145	2105.48
421.353	2173.07
421.561	2367.62
421.769	2248.84
421.977	2490.5
422.185	2566.28
422.393	2582.66
422.601	2912.38
422.809	2883.71
423.017	2844.8
423.224	2877.57
423.432	3049.6
423.64	3065.98
423.848	3340.41
424.056	3162.23
424.263	3479.67
424.471	3541.11
424.679	3547.25
424.887	3815.54
425.094	3825.78
425.302	3870.83
425.51	3981.42
425.718	4028.53
425.925	4186.22
426.133	4358.25
426.341	4517.99
426.548	4857.95
426.756	4816.99
426.964	4890.72
427.171	5105.76
427.379	5316.7
427.586	5218.4
427.794	5525.59
428.001	5673.04
428.209	5949.52
428.417	5924.94
428.624	6418.5
428.832	6266.96
429.039	6320.2
429.247	6260.81
429.454	6854.72
429.662	7450.68
429.869	6768.71
430.076	7467.06
430.284	7098.43
430.491	7434.3
430.699	7694.39
430.906	7604.28
431.114	7809.08
431.321	8409.13
431.528	8470.57
431.736	8933.41
431.943	9281.57
432.15	9093.15
432.358	9207.84
432.565	9666.58
432.772	9734.17
432.979	10041.36
433.187	10336.27
433.394	10401.8
433.601	11173.89
433.808	10876.93
434.016	11063.3
434.223	11612.15
434.43	12173.3
434.637	12005.36
434.844	12699.62
435.052	13113.31
435.259	12759.02
435.466	12779.5
435.673	12609.51
435.88	13692.89
436.087	14421.97
436.294	14407.63
436.501	14041.04
436.708	14469.07
436.915	14749.64
437.122	15361.98
437.329	15343.55
437.537	15904.7
437.743	16021.43
437.95	16009.14
438.157	16783.27
438.364	17608.61
438.571	17313.7
438.778	17561.5
438.985	19173.25
439.192	18204.56
439.399	18925.45
439.606	18329.49
439.813	19605.38
440.02	20713.33
440.227	20467.57
440.433	19986.3
440.64	20817.77
440.847	20565.87
441.054	21460.84
441.261	22501.2
441.467	22290.26
441.674	22703.95
441.881	23383.88
442.088	23598.91
442.294	23451.46
442.501	23891.77
442.708	24348.47
442.914	25478.95
443.121	26455.83
443.328	25911.07
443.534	27510.53
443.741	26695.44
443.948	26427.16
444.154	28161.79
444.361	27879.17
444.568	28288.76
444.774	28020.48
444.981	28645.11
445.187	29415.15
445.394	30731.99
445.6	30410.46
445.807	32724.66
446.013	31499.98
446.22	32032.45
446.426	33380.01
446.633	33785.51
446.839	34885.27
447.046	33302.19
447.252	35337.87
447.459	35444.37
447.665	35040.92
447.871	36574.84
448.078	37944.94
448.284	36048.52
448.491	37004.92
448.697	38721.12
448.903	39122.52
449.11	39595.6
449.316	38454.88
449.522	39556.69
449.728	40607.3
449.935	40697.41
450.141	40445.51
450.347	41236.02
450.553	40072.78
450.76	40472.13
450.966	41606.7
451.172	41301.56
451.378	42022.44
451.584	41211.45
451.791	42542.63
451.997	42219.05
452.203	43322.9
452.409	42915.36
452.615	42511.91
452.821	41018.94
453.027	40629.82
453.233	42898.97
453.44	40621.63
453.646	41070.14
453.852	41573.94
454.058	42024.49
454.264	40810.04
454.47	41551.41
454.676	40474.18
454.882	41768.49
455.088	38450.78
455.294	38700.64
455.5	39360.08
455.705	39679.57
455.911	38116.97
456.117	37273.2
456.323	37017.21
456.529	34997.91
456.735	36746.87
456.941	35786.38
457.147	34928.28
457.352	33822.37
457.558	33324.72
457.764	33074.87
457.97	32925.36
458.176	32118.46
458.381	31831.75
458.587	30443.23
458.793	30418.65
458.999	28376.83
459.204	31147.73
459.41	30150.37
459.616	28245.76
459.821	28108.54
460.027	28241.66
460.233	27516.68
460.438	25925.41
460.644	26638.1
460.85	25095.98
461.055	24782.64
461.261	24590.13
461.466	22650.71
461.672	22019.93
461.878	23756.61
462.083	22144.86
462.289	21938.01
462.494	21606.24
462.7	20746.09
462.905	20207.48
463.111	20991.85
463.316	21155.69
463.522	20494.19
463.727	20494.19
463.932	20469.62
464.138	20266.87
464.343	20344.69
464.549	19785.6
464.754	20500.34
464.959	20449.14
465.165	20060.02
465.37	19343.24
465.575	18685.84
465.781	19433.35
465.986	19783.55
466.191	18794.38
466.397	18427.79
