Data from USB4F104151__156__10-27-08-152.txt Node

Date: Wed Mar 12 10:27:08 EDT 2025
User: louis
Spectrometer: USB4F10415
Trigger mode: 4
Integration Time (sec): 3.000000E-2
Scans to average: 1
Electric dark correction enabled: true
Nonlinearity correction enabled: false
Boxcar width: 0
XAxis mode: Wavelengths
Number of Pixels in Spectrum: 3648
>>>>>Begin Spectral Data<<<<<
178.204	-72.36
178.424	-72.36
178.644	-72.36
178.864	-88.75
179.084	-58.03
179.304	5.46
179.524	46.42
179.744	17.75
179.964	48.47
180.184	1.37
180.404	-43.69
180.624	54.61
180.844	-33.45
181.064	-39.59
181.283	-6.83
181.503	-60.07
181.723	9.56
181.943	-53.93
182.163	15.7
182.383	-17.07
182.602	34.13
182.822	52.56
183.042	-0.68
183.262	9.56
183.482	48.47
183.701	9.56
183.921	36.18
184.141	42.32
184.361	56.66
184.58	62.8
184.8	42.32
185.02	34.13
185.239	105.81
185.459	101.72
185.679	66.9
185.898	-10.92
186.118	71
186.338	21.84
186.557	99.67
186.777	-4.78
186.997	-15.02
187.216	27.99
187.436	66.9
187.655	83.28
187.875	32.08
188.095	71
188.314	56.66
188.534	19.8
188.753	15.7
188.973	50.52
189.192	126.29
189.412	30.04
189.631	40.28
189.851	60.76
190.07	73.04
190.29	-15.02
190.509	-10.92
190.729	30.04
190.948	79.19
191.168	64.85
191.387	50.52
191.607	15.7
191.826	64.85
192.045	17.75
192.265	15.7
192.484	54.61
192.704	-8.87
192.923	60.76
193.142	52.56
193.362	58.71
193.581	50.52
193.8	23.89
194.02	93.52
194.239	64.85
194.458	25.94
194.678	56.66
194.897	-8.87
195.116	83.28
195.335	40.28
195.555	40.28
195.774	73.04
195.993	30.04
196.212	-60.07
196.432	-6.83
196.651	36.18
196.87	38.23
197.089	75.09
197.308	-51.88
197.528	46.42
197.747	19.8
197.966	50.52
198.185	48.47
198.404	27.99
198.623	40.28
198.842	114
199.062	83.28
199.281	83.28
199.5	5.46
199.719	71
199.938	9.56
200.157	42.32
200.376	97.62
200.595	25.94
200.814	62.8
201.033	-23.21
201.252	34.13
201.471	54.61
201.69	34.13
201.909	73.04
202.128	30.04
202.347	52.56
202.566	1.37
202.785	-0.68
203.004	-49.83
203.223	120.15
203.442	-6.83
203.661	-19.11
203.879	-12.97
204.098	116.05
204.317	27.99
204.536	42.32
204.755	-27.31
204.974	85.33
205.193	21.84
205.411	210.26
205.63	11.61
205.849	46.42
206.068	122.2
206.287	9.56
206.505	111.96
206.724	-2.73
206.943	62.8
207.162	52.56
207.381	48.47
207.599	21.84
207.818	15.7
208.037	68.95
208.255	25.94
208.474	77.14
208.693	42.32
208.911	21.84
209.13	58.71
209.349	75.09
209.567	32.08
209.786	87.38
210.005	56.66
210.223	36.18
210.442	73.04
210.661	3.41
210.879	62.8
211.098	91.48
211.316	34.13
211.535	-41.64
211.753	32.08
211.972	-39.59
212.191	46.42
212.409	40.28
212.628	50.52
212.846	56.66
213.065	85.33
213.283	136.53
213.502	77.14
213.72	66.9
213.938	19.8
214.157	-23.21
214.375	79.19
214.594	25.94
214.812	87.38
215.031	30.04
215.249	30.04
215.467	48.47
215.686	3.41
215.904	17.75
216.122	97.62
216.341	68.95
216.559	48.47
216.778	79.19
216.996	44.37
217.214	81.24
217.432	62.8
217.651	-33.45
217.869	-10.92
218.087	7.51
218.306	38.23
218.524	81.24
218.742	60.76
218.96	122.2
219.179	81.24
219.397	-68.27
219.615	91.48
219.833	77.14
220.051	13.65
220.27	54.61
220.488	77.14
220.706	150.87
220.924	17.75
221.142	21.84
221.36	58.71
221.578	32.08
221.796	-10.92
222.015	64.85
222.233	50.52
222.451	99.67
222.669	93.52
222.887	42.32
223.105	-25.26
223.323	13.65
223.541	27.99
223.759	27.99
223.977	62.8
224.195	68.95
224.413	140.63
224.631	56.66
224.849	5.46
225.067	66.9
225.285	11.61
225.503	54.61
225.721	124.24
225.939	17.75
226.157	40.28
226.375	97.62
226.592	7.51
226.81	1.37
227.028	75.09
227.246	56.66
227.464	30.04
227.682	50.52
227.9	99.67
228.117	-2.73
228.335	34.13
228.553	40.28
228.771	40.28
228.989	66.9
229.206	-0.68
229.424	19.8
229.642	-0.68
229.86	17.75
230.077	27.99
230.295	7.51
230.513	56.66
230.731	19.8
230.948	99.67
231.166	75.09
231.384	25.94
231.601	73.04
231.819	15.7
232.037	27.99
232.254	3.41
232.472	58.71
232.689	62.8
232.907	81.24
233.125	34.13
233.342	-10.92
233.56	-55.98
233.777	21.84
233.995	42.32
234.213	161.11
234.43	40.28
234.648	75.09
234.865	79.19
235.083	-25.26
235.3	38.23
235.518	66.9
235.735	66.9
235.953	13.65
236.17	97.62
236.388	-17.07
236.605	-35.5
236.822	97.62
237.04	81.24
237.257	-8.87
237.475	71
237.692	66.9
237.909	54.61
238.127	73.04
238.344	23.89
238.562	68.95
238.779	-6.83
238.996	-4.78
239.214	-6.83
239.431	99.67
239.648	17.75
239.865	103.76
240.083	95.57
240.3	15.7
240.517	30.04
240.735	60.76
240.952	34.13
241.169	66.9
241.386	25.94
241.603	77.14
241.821	-2.73
242.038	124.24
242.255	73.04
242.472	13.65
242.689	73.04
242.907	46.42
243.124	9.56
243.341	19.8
243.558	44.37
243.775	114
243.992	56.66
244.209	60.76
244.426	36.18
244.643	122.2
244.86	50.52
245.078	71
245.295	36.18
245.512	-10.92
245.729	58.71
245.946	34.13
246.163	73.04
246.38	103.76
246.597	34.13
246.814	73.04
247.031	83.28
247.248	120.15
247.464	50.52
247.681	9.56
247.898	25.94
248.115	27.99
248.332	-12.97
248.549	75.09
248.766	60.76
248.983	128.34
249.2	56.66
249.417	68.95
249.633	-10.92
249.85	34.13
250.067	42.32
250.284	50.52
250.501	15.7
250.717	89.43
250.934	-6.83
251.151	48.47
251.368	42.32
251.585	107.86
251.801	48.47
252.018	7.51
252.235	38.23
252.451	5.46
252.668	-19.11
252.885	71
253.102	68.95
253.318	71
253.535	11.61
253.752	-103.08
253.968	7.51
254.185	-21.16
254.401	25.94
254.618	71
254.835	7.51
255.051	85.33
255.268	77.14
255.484	-43.69
255.701	95.57
255.917	11.61
256.134	15.7
256.351	1.37
256.567	17.75
256.784	-19.11
257	-10.92
257.217	34.13
257.433	56.66
257.65	36.18
257.866	9.56
258.082	34.13
258.299	79.19
258.515	101.72
258.732	27.99
258.948	38.23
259.165	21.84
259.381	79.19
259.597	15.7
259.814	48.47
260.03	25.94
260.246	30.04
260.463	75.09
260.679	93.52
260.895	89.43
261.112	68.95
261.328	7.51
261.544	71
261.761	167.25
261.977	85.33
262.193	83.28
262.409	68.95
262.626	85.33
262.842	46.42
263.058	1.37
263.274	146.77
263.49	79.19
263.707	114
263.923	17.75
264.139	13.65
264.355	71
264.571	107.86
264.787	81.24
265.004	-8.87
265.22	-0.68
265.436	38.23
265.652	54.61
265.868	46.42
266.084	-6.83
266.3	34.13
266.516	81.24
266.732	-15.02
266.948	50.52
267.164	75.09
267.38	44.37
267.596	21.84
267.812	85.33
268.028	75.09
268.244	-21.16
268.46	34.13
268.676	71
268.892	71
269.108	-8.87
269.324	48.47
269.54	-31.4
269.756	13.65
269.972	81.24
270.188	50.52
270.403	75.09
270.619	48.47
270.835	64.85
271.051	7.51
271.267	36.18
271.483	71
271.698	140.63
271.914	38.23
272.13	34.13
272.346	99.67
272.562	-23.21
272.777	30.04
272.993	56.66
273.209	62.8
273.425	19.8
273.64	27.99
273.856	89.43
274.072	56.66
274.287	48.47
274.503	79.19
274.719	44.37
274.934	36.18
275.15	34.13
275.366	34.13
275.581	19.8
275.797	91.48
276.012	23.89
276.228	46.42
276.444	19.8
276.659	138.58
276.875	122.2
277.09	87.38
277.306	87.38
277.521	44.37
277.737	-17.07
277.952	111.96
278.168	19.8
278.383	27.99
278.599	60.76
278.814	58.71
279.03	25.94
279.245	154.96
279.461	15.7
279.676	25.94
279.892	-0.68
280.107	21.84
280.322	5.46
280.538	124.24
280.753	21.84
280.969	95.57
281.184	44.37
281.399	-27.31
281.615	25.94
281.83	38.23
282.045	-6.83
282.26	27.99
282.476	87.38
282.691	62.8
282.906	52.56
283.122	64.85
283.337	-2.73
283.552	58.71
283.767	79.19
283.983	25.94
284.198	-15.02
284.413	34.13
284.628	-39.59
284.843	19.8
285.058	95.57
285.274	36.18
285.489	-49.83
285.704	99.67
285.919	-0.68
286.134	19.8
286.349	40.28
286.564	-19.11
286.779	95.57
286.995	103.76
287.21	36.18
287.425	46.42
287.64	52.56
287.855	40.28
288.07	46.42
288.285	114
288.5	75.09
288.715	152.91
288.93	19.8
289.145	71
289.36	48.47
289.575	50.52
289.79	107.86
290.004	66.9
290.219	71
290.434	19.8
290.649	107.86
290.864	21.84
291.079	-19.11
291.294	46.42
291.509	81.24
291.724	138.58
291.938	38.23
292.153	64.85
292.368	48.47
292.583	50.52
292.798	36.18
293.012	66.9
293.227	34.13
293.442	77.14
293.657	138.58
293.871	87.38
294.086	38.23
294.301	40.28
294.516	103.76
294.73	66.9
294.945	60.76
295.16	-23.21
295.374	114
295.589	50.52
295.804	7.51
296.018	-2.73
296.233	171.35
296.447	36.18
296.662	5.46
296.877	64.85
297.091	54.61
297.306	54.61
297.52	40.28
297.735	-17.07
297.949	62.8
298.164	66.9
298.378	9.56
298.593	40.28
298.807	11.61
299.022	111.96
299.236	46.42
299.451	97.62
299.665	-23.21
299.88	23.89
300.094	58.71
300.309	73.04
300.523	9.56
300.737	122.2
300.952	134.48
301.166	79.19
301.381	15.7
301.595	60.76
301.809	32.08
302.024	-21.16
302.238	-8.87
302.452	25.94
302.667	1.37
302.881	111.96
303.095	99.67
303.309	154.96
303.524	34.13
303.738	38.23
303.952	66.9
304.166	111.96
304.381	-80.55
304.595	54.61
304.809	62.8
305.023	73.04
305.237	73.04
305.452	62.8
305.666	68.95
305.88	107.86
306.094	38.23
306.308	56.66
306.522	83.28
306.736	64.85
306.95	34.13
307.164	48.47
307.379	40.28
307.593	91.48
307.807	87.38
308.021	21.84
308.235	1.37
308.449	95.57
308.663	9.56
308.877	30.04
309.091	-6.83
309.305	38.23
309.519	99.67
309.733	85.33
309.947	17.75
310.161	97.62
310.374	83.28
310.588	150.87
310.802	111.96
311.016	105.81
311.23	46.42
311.444	105.81
311.658	62.8
311.872	68.95
312.085	9.56
312.299	99.67
312.513	73.04
312.727	68.95
312.941	32.08
313.154	-15.02
313.368	50.52
313.582	-19.11
313.796	15.7
314.009	64.85
314.223	97.62
314.437	75.09
314.651	75.09
314.864	71
315.078	-25.26
315.292	66.9
315.505	58.71
315.719	32.08
315.933	44.37
316.146	-19.11
316.36	46.42
316.573	73.04
316.787	-0.68
317.001	48.47
317.214	34.13
317.428	62.8
317.641	1.37
317.855	64.85
318.068	66.9
318.282	81.24
318.495	44.37
318.709	62.8
318.922	30.04
319.136	40.28
319.349	99.67
319.563	25.94
319.776	11.61
319.99	30.04
320.203	116.05
320.417	30.04
320.63	64.85
320.843	187.73
321.057	13.65
321.27	83.28
321.483	9.56
321.697	118.1
321.91	32.08
322.124	148.82
322.337	27.99
322.55	91.48
322.763	114
322.977	79.19
323.19	54.61
323.403	38.23
323.617	3.41
323.83	64.85
324.043	66.9
324.256	66.9
324.469	50.52
324.683	71
324.896	30.04
325.109	116.05
325.322	-35.5
325.535	81.24
325.748	64.85
325.962	38.23
326.175	-2.73
326.388	62.8
326.601	83.28
326.814	-27.31
327.027	58.71
327.24	97.62
327.453	56.66
327.666	81.24
327.879	17.75
328.092	93.52
328.305	17.75
328.518	-4.78
328.731	17.75
328.944	58.71
329.157	95.57
329.37	116.05
329.583	116.05
329.796	169.3
330.009	30.04
330.222	95.57
330.435	15.7
330.648	103.76
330.861	85.33
331.073	99.67
331.286	71
331.499	62.8
331.712	56.66
331.925	46.42
332.138	9.56
332.35	68.95
332.563	42.32
332.776	-0.68
332.989	-6.83
333.202	64.85
333.414	128.34
333.627	5.46
333.84	9.56
334.053	15.7
334.265	73.04
334.478	75.09
334.691	64.85
334.903	107.86
335.116	34.13
335.329	48.47
335.541	66.9
335.754	87.38
335.966	60.76
336.179	56.66
336.392	13.65
336.604	89.43
336.817	87.38
337.029	71
337.242	34.13
337.454	97.62
337.667	73.04
337.88	71
338.092	17.75
338.305	58.71
338.517	71
338.729	46.42
338.942	17.75
339.154	87.38
339.367	30.04
339.579	56.66
339.792	32.08
340.004	19.8
340.217	-27.31
340.429	48.47
340.641	62.8
340.854	66.9
341.066	-27.31
341.278	83.28
341.491	87.38
341.703	91.48
341.915	48.47
342.128	91.48
342.34	1.37
342.552	44.37
342.764	71
342.977	64.85
343.189	103.76
343.401	89.43
343.613	62.8
343.826	62.8
344.038	13.65
344.25	95.57
344.462	126.29
344.674	36.18
344.886	32.08
345.099	48.47
345.311	118.1
345.523	75.09
345.735	34.13
345.947	58.71
346.159	111.96
346.371	40.28
346.583	34.13
346.795	89.43
347.007	54.61
347.219	71
347.431	3.41
347.643	122.2
347.855	93.52
348.067	50.52
348.279	46.42
348.491	46.42
348.703	21.84
348.915	25.94
349.127	-68.27
349.339	25.94
349.551	58.71
349.763	124.24
349.975	85.33
350.187	111.96
350.399	89.43
350.61	101.72
350.822	60.76
351.034	114
351.246	54.61
351.458	56.66
351.669	91.48
351.881	103.76
352.093	66.9
352.305	36.18
352.517	17.75
352.728	44.37
352.94	25.94
353.152	46.42
353.363	11.61
353.575	-10.92
353.787	140.63
353.999	50.52
354.21	60.76
354.422	87.38
354.633	64.85
354.845	42.32
355.057	25.94
355.268	68.95
355.48	30.04
355.692	75.09
355.903	58.71
356.115	-12.97
356.326	-6.83
356.538	91.48
356.749	81.24
356.961	134.48
357.172	77.14
357.384	23.89
357.595	122.2
357.807	34.13
358.018	77.14
358.23	-8.87
358.441	83.28
358.653	91.48
358.864	40.28
359.075	30.04
359.287	103.76
359.498	68.95
359.709	132.44
359.921	19.8
360.132	75.09
360.344	64.85
360.555	48.47
360.766	87.38
360.977	17.75
361.189	54.61
361.4	11.61
361.611	122.2
361.823	23.89
362.034	79.19
362.245	75.09
362.456	21.84
362.667	66.9
362.879	38.23
363.09	5.46
363.301	89.43
363.512	62.8
363.723	75.09
363.935	5.46
364.146	52.56
364.357	83.28
364.568	68.95
364.779	64.85
364.99	85.33
365.201	21.84
365.412	58.71
365.623	25.94
365.834	36.18
366.045	95.57
366.256	165.2
366.467	97.62
366.678	11.61
366.889	91.48
367.1	83.28
367.311	83.28
367.522	124.24
367.733	105.81
367.944	38.23
368.155	73.04
368.366	58.71
368.577	38.23
368.788	75.09
368.999	62.8
369.209	64.85
369.42	97.62
369.631	146.77
369.842	56.66
370.053	-27.31
370.264	73.04
370.474	48.47
370.685	68.95
370.896	32.08
371.107	11.61
371.317	99.67
371.528	38.23
371.739	89.43
371.95	68.95
372.16	38.23
372.371	25.94
372.582	75.09
372.792	5.46
373.003	95.57
373.214	91.48
373.424	77.14
373.635	-0.68
373.846	56.66
374.056	23.89
374.267	97.62
374.477	73.04
374.688	107.86
374.898	91.48
375.109	73.04
375.319	99.67
375.53	114
375.74	54.61
375.951	75.09
376.161	40.28
376.372	38.23
376.582	73.04
376.793	34.13
377.003	-47.79
377.214	30.04
377.424	81.24
377.635	64.85
377.845	11.61
378.055	91.48
378.266	62.8
378.476	95.57
378.686	54.61
378.897	42.32
379.107	97.62
379.317	17.75
379.528	120.15
379.738	56.66
379.948	27.99
380.158	128.34
380.369	-10.92
380.579	64.85
380.789	71
380.999	64.85
381.21	68.95
381.42	177.49
381.63	38.23
381.84	114
382.05	17.75
382.261	64.85
382.471	116.05
382.681	62.8
382.891	114
383.101	83.28
383.311	30.04
383.521	13.65
383.731	95.57
383.941	126.29
384.151	50.52
384.361	75.09
384.571	97.62
384.781	79.19
384.991	91.48
385.201	81.24
385.411	48.47
385.621	73.04
385.831	60.76
386.041	15.7
386.251	38.23
386.461	52.56
386.671	75.09
386.881	68.95
387.091	95.57
387.301	95.57
387.511	79.19
387.72	85.33
387.93	54.61
388.14	58.71
388.35	93.52
388.56	95.57
388.769	109.91
388.979	91.48
389.189	73.04
389.399	71
389.609	83.28
389.818	124.24
390.028	103.76
390.238	30.04
390.447	30.04
390.657	71
390.867	77.14
391.076	68.95
391.286	30.04
391.496	32.08
391.705	64.85
391.915	114
392.125	40.28
392.334	163.15
392.544	103.76
392.753	77.14
392.963	40.28
393.172	97.62
393.382	68.95
393.591	144.72
393.801	38.23
394.01	165.2
394.22	85.33
394.429	79.19
394.639	58.71
394.848	130.39
395.058	36.18
395.267	85.33
395.477	163.15
395.686	150.87
395.895	167.25
396.105	159.06
396.314	58.71
396.524	95.57
396.733	77.14
396.942	179.54
397.152	142.68
397.361	154.96
397.57	130.39
397.78	71
397.989	126.29
398.198	101.72
398.407	138.58
398.617	167.25
398.826	132.44
399.035	95.57
399.244	167.25
399.453	75.09
399.663	116.05
399.872	173.39
400.081	175.44
400.29	224.59
400.499	101.72
400.708	105.81
400.917	99.67
401.127	107.86
401.336	171.35
401.545	142.68
401.754	146.77
401.963	128.34
402.172	130.39
402.381	109.91
402.59	138.58
402.799	97.62
403.008	191.83
403.217	111.96
403.426	130.39
403.635	132.44
403.844	95.57
404.053	181.59
404.262	68.95
404.471	216.4
404.68	140.63
404.888	204.11
405.097	216.4
405.306	116.05
405.515	214.35
405.724	214.35
405.933	218.45
406.142	189.78
406.35	210.26
406.559	257.36
406.768	142.68
406.977	197.97
407.185	255.31
407.394	210.26
407.603	243.03
407.812	222.55
408.02	306.51
408.229	267.6
408.438	292.18
408.646	279.89
408.855	286.03
409.064	220.5
409.272	275.79
409.481	322.9
409.69	365.9
409.898	322.9
410.107	349.52
410.315	417.1
410.524	324.94
410.733	398.67
410.941	365.9
411.15	398.67
411.358	423.25
411.567	501.07
411.775	410.96
411.984	382.29
412.192	501.07
412.401	544.08
412.609	488.78
412.818	560.46
413.026	576.84
413.234	556.36
413.443	517.45
413.651	636.24
413.86	656.72
414.068	648.52
414.276	703.82
414.485	609.61
414.693	638.28
414.901	748.87
415.11	644.43
415.318	779.59
415.526	740.68
415.734	783.69
415.943	810.31
416.151	894.28
416.359	902.47
416.567	937.29
416.776	922.95
416.984	951.62
417.192	1054.02
417.4	1017.16
417.608	1029.45
417.817	1152.32
418.025	1117.51
418.233	1168.71
418.441	1166.66
418.649	1269.06
418.857	1381.7
419.065	1432.9
419.273	1389.89
419.481	1416.51
419.689	1531.2
419.897	1590.59
420.105	1686.84
420.313	1754.43
420.521	1688.89
420.729	1776.95
420.937	1748.28
421.145	1901.88
421.353	2020.66
421.561	2082.1
421.769	2024.76
421.977	2182.45
422.185	2186.55
422.393	2196.79
422.601	2475.31
422.809	2385.2
423.017	2405.68
423.224	2473.26
423.432	2514.22
423.64	2643.24
423.848	2745.64
424.056	2745.64
424.263	2940.2
424.471	2985.26
424.679	3046.69
424.887	3235.11
425.094	3376.42
425.302	3400.99
425.51	3521.82
425.718	3521.82
425.925	3527.97
426.133	3691.8
426.341	3935.51
426.548	4144.41
426.756	3984.66
426.964	4130.07
427.171	4447.51
427.379	4502.8
427.586	4572.43
427.794	4838.67
428.001	4945.16
428.209	5289.22
428.417	5158.15
428.624	5438.72
428.832	5393.67
429.039	5485.83
429.247	5401.86
429.454	5897.47
429.662	6331.64
429.869	5917.95
430.076	6399.22
430.284	6143.22
430.491	6438.13
430.699	6774
430.906	6743.28
431.114	6937.84
431.321	7167.21
431.528	7306.47
431.736	7648.48
431.943	8062.17
432.15	7898.33
432.358	7752.93
432.565	8283.35
432.772	8262.87
432.979	8664.27
433.187	8961.23
433.394	9032.91
433.601	9614.53
433.808	9561.28
434.016	9442.5
434.223	9764.03
434.43	10310.84
434.637	10321.08
434.844	10800.3
435.052	11238.57
435.259	11074.73
435.466	11072.68
435.673	11095.21
435.88	11748.51
436.087	12205.21
436.294	12262.55
436.501	11947.17
436.708	12369.05
436.915	12985.49
437.122	13356.17
437.329	13192.33
437.537	13798.53
437.743	13974.66
437.95	13712.52
438.157	14627.96
438.364	14908.53
438.571	14873.71
438.778	15139.95
438.985	16190.56
439.192	15815.78
439.399	16260.19
439.606	15907.94
439.813	16927.83
440.02	17792.07
440.227	17511.5
440.433	17243.21
440.64	17849.41
440.847	18046.02
441.054	18236.48
441.261	19315.76
441.467	18998.32
441.674	19471.4
441.881	20149.28
442.088	20249.63
442.294	19876.9
442.501	20507.68
442.708	20847.64
442.914	21801.99
443.121	22897.66
443.328	22057.99
443.534	23546.86
443.741	22774.78
443.948	22672.38
444.154	24568.8
444.361	24200.16
444.568	24480.74
444.774	24357.86
444.981	24525.79
445.187	25347.03
445.394	26186.69
445.6	25988.04
445.807	28582.82
446.013	27360.18
446.22	27999.15
446.426	28953.5
446.633	29234.07
446.839	30024.59
447.046	28605.34
447.252	30163.85
447.459	30237.58
447.665	30317.45
447.871	31525.75
448.078	32791.39
448.284	31138.68
448.491	32375.66
448.697	33291.1
448.903	33778.51
449.11	33545.05
449.316	33215.32
449.522	33993.55
449.728	34814.79
449.935	34933.57
450.141	34491.21
450.347	35713.84
450.553	34554.69
450.76	35044.16
450.966	35969.84
451.172	35568.44
451.378	36305.71
451.584	35832.63
451.791	36324.14
451.997	36285.23
452.203	36938.53
452.409	36817.7
452.615	36686.63
452.821	35121.98
453.027	35033.92
453.233	36973.35
453.44	34980.67
453.646	35334.97
453.852	35793.72
454.058	36326.19
454.264	35246.91
454.47	35990.32
454.676	35281.72
454.882	35967.79
455.088	33053.53
455.294	33413.98
455.5	33878.86
455.705	34505.54
455.911	32738.15
456.117	32252.78
456.323	31591.28
456.529	29963.15
456.735	31232.89
456.941	30399.37
457.147	30086.03
457.352	28949.4
457.558	28480.42
457.764	28552.1
457.97	28011.43
458.176	27567.02
458.381	27601.84
458.587	26227.65
458.793	26168.26
458.999	24769.5
459.204	26831.8
459.41	26102.73
459.616	24177.64
459.821	24300.51
460.027	24232.93
460.233	23475.18
460.438	22395.9
460.644	22686.72
460.85	21410.83
461.055	21062.68
461.261	21312.53
461.466	19772.46
461.672	19360.81
461.878	20479
462.083	19076.15
462.289	19149.87
462.494	18480.19
462.7	17771.59
462.905	17284.17
463.111	17902.66
463.316	17771.59
463.522	17763.4
463.727	17718.34
463.932	17390.67
464.138	17546.31
464.343	17546.31
464.549	17075.28
464.754	17507.4
464.959	17472.59
465.165	17415.24
465.37	16520.28
465.575	16272.48
465.781	16673.88
465.986	16942.16
466.191	16260.19
466.397	15934.56
466.602	15316.08
466.807	15973.47
467.012	15942.75
467.218	15625.32
467.423	15395.95
467.628	15627.37
467.833	16129.12
468.038	15637.61
468.244	15389.8
468.449	15721.57
468.654	15359.08
468.859	15293.55
