Data from USB4F104151__290__10-42-28-031.txt Node

Date: Wed Mar 12 10:42:28 EDT 2025
User: louis
Spectrometer: USB4F10415
Trigger mode: 4
Integration Time (sec): 3.000000E-2
Scans to average: 1
Electric dark correction enabled: true
Nonlinearity correction enabled: false
Boxcar width: 0
XAxis mode: Wavelengths
Number of Pixels in Spectrum: 3648
>>>>>Begin Spectral Data<<<<<
178.204	-144.21
178.424	-144.21
178.644	-144.21
178.864	-152.4
179.084	-90.96
179.304	-13.14
179.524	83.11
179.744	-23.38
179.964	1.19
180.184	-19.29
180.404	13.48
180.624	46.25
180.844	-54.1
181.064	-23.38
181.283	52.39
181.503	-2.9
181.723	-60.24
181.943	21.67
182.163	29.87
182.383	21.67
182.602	9.39
182.822	87.21
183.042	23.72
183.262	-54.1
183.482	68.78
183.701	29.87
183.921	29.87
184.141	13.48
184.361	9.39
184.58	27.82
184.8	68.78
185.02	56.49
185.239	-13.14
185.459	81.07
185.679	25.77
185.898	-19.29
186.118	58.54
186.338	48.3
186.557	46.25
186.777	-13.14
186.997	17.58
187.216	-2.9
187.436	36.01
187.655	5.29
187.875	29.87
188.095	33.96
188.314	52.39
188.534	66.73
188.753	25.77
188.973	-4.95
189.192	72.87
189.412	56.49
189.631	62.63
189.851	58.54
190.07	74.92
190.29	-27.48
190.509	-27.48
190.729	-23.38
190.948	109.74
191.168	177.32
191.387	62.63
191.607	5.29
191.826	60.59
192.045	-11.09
192.265	-2.9
192.484	13.48
192.704	46.25
192.923	-11.09
193.142	29.87
193.362	97.45
193.581	25.77
193.8	48.3
194.02	81.07
194.239	52.39
194.458	50.35
194.678	15.53
194.897	19.63
195.116	83.11
195.335	-11.09
195.555	-60.24
195.774	-2.9
195.993	38.06
196.212	42.15
196.432	-7
196.651	117.93
196.87	19.63
197.089	62.63
197.308	1.19
197.528	21.67
197.747	50.35
197.966	-9.05
198.185	93.35
198.404	-4.95
198.623	107.69
198.842	23.72
199.062	66.73
199.281	31.91
199.5	-2.9
199.719	5.29
199.938	62.63
200.157	54.44
200.376	36.01
200.595	19.63
200.814	23.72
201.033	93.35
201.252	93.35
201.471	25.77
201.69	91.31
201.909	50.35
202.128	42.15
202.347	-2.9
202.566	-58.2
202.785	5.29
203.004	38.06
203.223	74.92
203.442	68.78
203.661	70.83
203.879	13.48
204.098	52.39
204.317	36.01
204.536	29.87
204.755	64.68
204.974	46.25
205.193	52.39
205.411	91.31
205.63	19.63
205.849	83.11
206.068	44.2
206.287	42.15
206.505	-0.85
206.724	50.35
206.943	54.44
207.162	79.02
207.381	-15.19
207.599	81.07
207.818	23.72
208.037	1.19
208.255	-0.85
208.474	-56.15
208.693	60.59
208.911	52.39
209.13	95.4
209.349	72.87
209.567	13.48
209.786	89.26
210.005	21.67
210.223	-11.09
210.442	42.15
210.661	81.07
210.879	15.53
211.098	42.15
211.316	-25.43
211.535	101.55
211.753	7.34
211.972	17.58
212.191	25.77
212.409	15.53
212.628	46.25
212.846	11.43
213.065	58.54
213.283	146.6
213.502	-11.09
213.72	48.3
213.938	11.43
214.157	40.11
214.375	64.68
214.594	46.25
214.812	74.92
215.031	56.49
215.249	-4.95
215.467	-11.09
215.686	25.77
215.904	-37.72
216.122	76.97
216.341	58.54
216.559	-11.09
216.778	40.11
216.996	33.96
217.214	50.35
217.432	-21.33
217.651	-35.67
217.869	56.49
218.087	11.43
218.306	23.72
218.524	1.19
218.742	-2.9
218.96	33.96
219.179	19.63
219.397	52.39
219.615	54.44
219.833	25.77
220.051	19.63
220.27	42.15
220.488	74.92
220.706	58.54
220.924	-2.9
221.142	40.11
221.36	66.73
221.578	-15.19
221.796	15.53
222.015	17.58
222.233	19.63
222.451	46.25
222.669	-2.9
222.887	70.83
223.105	-0.85
223.323	27.82
223.541	-52.05
223.759	54.44
223.977	27.82
224.195	50.35
224.413	-15.19
224.631	17.58
224.849	54.44
225.067	54.44
225.285	-21.33
225.503	23.72
225.721	-43.86
225.939	36.01
226.157	89.26
226.375	74.92
226.592	40.11
226.81	7.34
227.028	89.26
227.246	36.01
227.464	56.49
227.682	50.35
227.9	54.44
228.117	113.83
228.335	-15.19
228.553	50.35
228.771	-19.29
228.989	1.19
229.206	38.06
229.424	40.11
229.642	31.91
229.86	-29.52
230.077	38.06
230.295	7.34
230.513	85.16
230.731	17.58
230.948	79.02
231.166	60.59
231.384	-56.15
231.601	9.39
231.819	152.74
232.037	31.91
232.254	-41.81
232.472	48.3
232.689	13.48
232.907	56.49
233.125	36.01
233.342	64.68
233.56	11.43
233.777	-23.38
233.995	29.87
234.213	27.82
234.43	99.5
234.648	33.96
234.865	46.25
235.083	68.78
235.3	99.5
235.518	17.58
235.735	83.11
235.953	38.06
236.17	5.29
236.388	-13.14
236.605	76.97
236.822	9.39
237.04	62.63
237.257	95.4
237.475	29.87
237.692	48.3
237.909	46.25
238.127	9.39
238.344	13.48
238.562	68.78
238.779	-39.76
238.996	-52.05
239.214	56.49
239.431	87.21
239.648	-15.19
239.865	23.72
240.083	27.82
240.3	-27.48
240.517	-37.72
240.735	3.24
240.952	36.01
241.169	40.11
241.386	124.07
241.603	25.77
241.821	19.63
242.038	42.15
242.255	52.39
242.472	62.63
242.689	42.15
242.907	54.44
243.124	27.82
243.341	-2.9
243.558	27.82
243.775	-99.16
243.992	-56.15
244.209	36.01
244.426	74.92
244.643	60.59
244.86	11.43
245.078	-11.09
245.295	13.48
245.512	46.25
245.729	11.43
245.946	42.15
246.163	50.35
246.38	13.48
246.597	72.87
246.814	31.91
247.031	21.67
247.248	-23.38
247.464	79.02
247.681	-13.14
247.898	107.69
248.115	64.68
248.332	5.29
248.549	81.07
248.766	44.2
248.983	38.06
249.2	44.2
249.417	79.02
249.633	-13.14
249.85	42.15
250.067	-29.52
250.284	44.2
250.501	103.59
250.717	79.02
250.934	89.26
251.151	15.53
251.368	58.54
251.585	46.25
251.801	50.35
252.018	48.3
252.235	9.39
252.451	27.82
252.668	-33.62
252.885	-25.43
253.102	-2.9
253.318	46.25
253.535	-11.09
253.752	-0.85
253.968	101.55
254.185	-43.86
254.401	9.39
254.618	74.92
254.835	-41.81
255.051	117.93
255.268	44.2
255.484	62.63
255.701	87.21
255.917	72.87
256.134	3.24
256.351	68.78
256.567	11.43
256.784	54.44
257	29.87
257.217	54.44
257.433	83.11
257.65	101.55
257.866	74.92
258.082	17.58
258.299	58.54
258.515	-2.9
258.732	36.01
258.948	-31.57
259.165	13.48
259.381	17.58
259.597	-9.05
259.814	-33.62
260.03	17.58
260.246	15.53
260.463	44.2
260.679	25.77
260.895	62.63
261.112	-11.09
261.328	21.67
261.544	25.77
261.761	87.21
261.977	31.91
262.193	9.39
262.409	70.83
262.626	31.91
262.842	89.26
263.058	-13.14
263.274	42.15
263.49	68.78
263.707	13.48
263.923	101.55
264.139	-4.95
264.355	72.87
264.571	76.97
264.787	17.58
265.004	54.44
265.22	38.06
265.436	-2.9
265.652	105.64
265.868	50.35
266.084	-43.86
266.3	44.2
266.516	3.24
266.732	70.83
266.948	44.2
267.164	58.54
267.38	27.82
267.596	156.84
267.812	83.11
268.028	31.91
268.244	72.87
268.46	3.24
268.676	21.67
268.892	117.93
269.108	5.29
269.324	15.53
269.54	-35.67
269.756	38.06
269.972	-7
270.188	9.39
270.403	27.82
270.619	9.39
270.835	87.21
271.051	-23.38
271.267	7.34
271.483	19.63
271.698	52.39
271.914	66.73
272.13	-7
272.346	27.82
272.562	44.2
272.777	91.31
272.993	-45.91
273.209	119.98
273.425	42.15
273.64	13.48
273.856	-7
274.072	5.29
274.287	50.35
274.503	48.3
274.719	48.3
274.934	15.53
275.15	15.53
275.366	31.91
275.581	-84.82
275.797	58.54
276.012	87.21
276.228	50.35
276.444	-7
276.659	70.83
276.875	46.25
277.09	-2.9
277.306	48.3
277.521	52.39
277.737	70.83
277.952	62.63
278.168	62.63
278.383	56.49
278.599	42.15
278.814	15.53
279.03	17.58
279.245	74.92
279.461	-21.33
279.676	38.06
279.892	-29.52
280.107	-7
280.322	-4.95
280.538	33.96
280.753	52.39
280.969	44.2
281.184	-47.96
281.399	27.82
281.615	31.91
281.83	3.24
282.045	56.49
282.26	60.59
282.476	-17.24
282.691	58.54
282.906	-25.43
283.122	15.53
283.337	-72.53
283.552	52.39
283.767	27.82
283.983	72.87
284.198	3.24
284.413	-4.95
284.628	-35.67
284.843	76.97
285.058	85.16
285.274	17.58
285.489	-13.14
285.704	79.02
285.919	54.44
286.134	5.29
286.349	9.39
286.564	21.67
286.779	111.78
286.995	-11.09
287.21	-13.14
287.425	54.44
287.64	7.34
287.855	115.88
288.07	62.63
288.285	38.06
288.5	25.77
288.715	1.19
288.93	38.06
289.145	40.11
289.36	-7
289.575	25.77
289.79	142.5
290.004	-15.19
290.219	60.59
290.434	-7
290.649	13.48
290.864	58.54
291.079	-25.43
291.294	91.31
291.509	70.83
291.724	36.01
291.938	64.68
292.153	54.44
292.368	-33.62
292.583	-21.33
292.798	46.25
293.012	85.16
293.227	36.01
293.442	13.48
293.657	140.46
293.871	79.02
294.086	-15.19
294.301	91.31
294.516	-2.9
294.73	-31.57
294.945	-0.85
295.16	9.39
295.374	58.54
295.589	91.31
295.804	-23.38
296.018	50.35
296.233	60.59
296.447	3.24
296.662	19.63
296.877	25.77
297.091	29.87
297.306	70.83
297.52	31.91
297.735	52.39
297.949	31.91
298.164	58.54
298.378	-13.14
298.593	-4.95
298.807	29.87
299.022	-21.33
299.236	130.22
299.451	-13.14
299.665	-29.52
299.88	21.67
300.094	91.31
300.309	19.63
300.523	107.69
300.737	-43.86
300.952	42.15
301.166	13.48
301.381	29.87
301.595	76.97
301.809	-52.05
302.024	60.59
302.238	-11.09
302.452	74.92
302.667	50.35
302.881	126.12
303.095	40.11
303.309	46.25
303.524	9.39
303.738	52.39
303.952	-21.33
304.166	3.24
304.381	-105.3
304.595	95.4
304.809	48.3
305.023	23.72
305.237	33.96
305.452	-7
305.666	52.39
305.88	58.54
306.094	62.63
306.308	44.2
306.522	103.59
306.736	60.59
306.95	25.77
307.164	38.06
307.379	27.82
307.593	74.92
307.807	74.92
308.021	44.2
308.235	25.77
308.449	72.87
308.663	56.49
308.877	60.59
309.091	5.29
309.305	89.26
309.519	-27.48
309.733	76.97
309.947	-13.14
310.161	107.69
310.374	74.92
310.588	140.46
310.802	-27.48
311.016	38.06
311.23	62.63
311.444	-39.76
311.658	33.96
311.872	146.6
312.085	83.11
312.299	93.35
312.513	13.48
312.727	11.43
312.941	21.67
313.154	93.35
313.368	-23.38
313.582	-19.29
313.796	44.2
314.009	-50
314.223	38.06
314.437	31.91
314.651	25.77
314.864	48.3
315.078	62.63
315.292	-19.29
315.505	-13.14
315.719	13.48
315.933	62.63
316.146	-70.48
316.36	-39.76
316.573	148.65
316.787	83.11
317.001	-25.43
317.214	52.39
317.428	181.42
317.641	-4.95
317.855	-11.09
318.068	15.53
318.282	119.98
318.495	64.68
318.709	44.2
318.922	64.68
319.136	95.4
319.349	29.87
319.563	42.15
319.776	72.87
319.99	124.07
320.203	38.06
320.417	25.77
320.63	44.2
320.843	97.45
321.057	-7
321.27	64.68
321.483	13.48
321.697	87.21
321.91	25.77
322.124	27.82
322.337	-62.29
322.55	13.48
322.763	52.39
322.977	83.11
323.19	58.54
323.403	66.73
323.617	40.11
323.83	50.35
324.043	38.06
324.256	13.48
324.469	-11.09
324.683	103.59
324.896	1.19
325.109	58.54
325.322	11.43
325.535	58.54
325.748	-7
325.962	89.26
326.175	68.78
326.388	-17.24
326.601	54.44
326.814	38.06
327.027	66.73
327.24	33.96
327.453	46.25
327.666	42.15
327.879	103.59
328.092	68.78
328.305	29.87
328.518	-17.24
328.731	33.96
328.944	9.39
329.157	72.87
329.37	50.35
329.583	29.87
329.796	3.24
330.009	60.59
330.222	13.48
330.435	-0.85
330.648	74.92
330.861	113.83
331.073	52.39
331.286	25.77
331.499	1.19
331.712	89.26
331.925	-11.09
332.138	76.97
332.35	36.01
332.563	68.78
332.776	25.77
332.989	29.87
333.202	-19.29
333.414	36.01
333.627	1.19
333.84	1.19
334.053	66.73
334.265	-2.9
334.478	36.01
334.691	66.73
334.903	23.72
335.116	42.15
335.329	27.82
335.541	38.06
335.754	119.98
335.966	1.19
336.179	97.45
336.392	83.11
336.604	91.31
336.817	11.43
337.029	42.15
337.242	-2.9
337.454	44.2
337.667	9.39
337.88	179.37
338.092	38.06
338.305	5.29
338.517	74.92
338.729	72.87
338.942	103.59
339.154	27.82
339.367	44.2
339.579	50.35
339.792	-11.09
340.004	13.48
340.217	107.69
340.429	9.39
340.641	9.39
340.854	13.48
341.066	95.4
341.278	52.39
341.491	132.26
341.703	72.87
341.915	-56.15
342.128	74.92
342.34	101.55
342.552	25.77
342.764	115.88
342.977	52.39
343.189	36.01
343.401	50.35
343.613	-41.81
343.826	-33.62
344.038	33.96
344.25	40.11
344.462	5.29
344.674	31.91
344.886	25.77
345.099	40.11
345.311	79.02
345.523	-21.33
345.735	5.29
345.947	36.01
346.159	62.63
346.371	5.29
346.583	42.15
346.795	52.39
347.007	-13.14
347.219	42.15
347.431	50.35
347.643	76.97
347.855	113.83
348.067	50.35
348.279	-13.14
348.491	33.96
348.703	25.77
348.915	79.02
349.127	64.68
349.339	42.15
349.551	13.48
349.763	62.63
349.975	-35.67
350.187	142.5
350.399	5.29
350.61	115.88
350.822	54.44
351.034	19.63
351.246	70.83
351.458	93.35
351.669	42.15
351.881	66.73
352.093	68.78
352.305	64.68
352.517	115.88
352.728	36.01
352.94	42.15
353.152	52.39
353.363	-13.14
353.575	54.44
353.787	134.31
353.999	-0.85
354.21	74.92
354.422	38.06
354.633	-7
354.845	54.44
355.057	-2.9
355.268	72.87
355.48	38.06
355.692	62.63
355.903	68.78
356.115	11.43
356.326	-17.24
356.538	62.63
356.749	122.02
356.961	54.44
357.172	111.78
357.384	13.48
357.595	132.26
357.807	27.82
358.018	21.67
358.23	144.55
358.441	99.5
358.653	9.39
358.864	93.35
359.075	103.59
359.287	62.63
359.498	66.73
359.709	58.54
359.921	74.92
360.132	23.72
360.344	21.67
360.555	91.31
360.766	25.77
360.977	46.25
361.189	58.54
361.4	-4.95
361.611	173.22
361.823	54.44
362.034	68.78
362.245	60.59
362.456	81.07
362.667	60.59
362.879	9.39
363.09	-27.48
363.301	-2.9
363.512	64.68
363.723	-39.76
363.935	70.83
364.146	76.97
364.357	-23.38
364.568	70.83
364.779	-41.81
364.99	99.5
365.201	70.83
365.412	1.19
365.623	25.77
365.834	99.5
366.045	89.26
366.256	99.5
366.467	27.82
366.678	3.24
366.889	44.2
367.1	-17.24
367.311	40.11
367.522	19.63
367.733	72.87
367.944	9.39
368.155	38.06
368.366	64.68
368.577	38.06
368.788	138.41
368.999	-31.57
369.209	54.44
369.42	79.02
369.631	105.64
369.842	70.83
370.053	13.48
370.264	19.63
370.474	66.73
370.685	38.06
370.896	21.67
371.107	85.16
371.317	68.78
371.528	23.72
371.739	101.55
371.95	48.3
372.16	13.48
372.371	11.43
372.582	79.02
372.792	113.83
373.003	132.26
373.214	38.06
373.424	-27.48
373.635	38.06
373.846	107.69
374.056	38.06
374.267	5.29
374.477	79.02
374.688	76.97
374.898	66.73
375.109	9.39
375.319	31.91
375.53	50.35
375.74	66.73
375.951	-9.05
376.161	54.44
376.372	138.41
376.582	58.54
376.793	44.2
377.003	46.25
377.214	126.12
377.424	115.88
377.635	25.77
377.845	33.96
378.055	13.48
378.266	-4.95
378.476	87.21
378.686	99.5
378.897	107.69
379.107	31.91
379.317	33.96
379.528	76.97
379.738	122.02
379.948	38.06
380.158	97.45
380.369	-23.38
380.579	38.06
380.789	11.43
380.999	74.92
381.21	40.11
381.42	109.74
381.63	54.44
381.84	62.63
382.05	60.59
382.261	54.44
382.471	103.59
382.681	91.31
382.891	36.01
383.101	72.87
383.311	97.45
383.521	36.01
383.731	36.01
383.941	68.78
384.151	62.63
384.361	105.64
384.571	128.17
384.781	64.68
384.991	76.97
385.201	87.21
385.411	85.16
385.621	107.69
385.831	38.06
386.041	60.59
386.251	58.54
386.461	113.83
386.671	99.5
386.881	50.35
387.091	21.67
387.301	46.25
387.511	60.59
387.72	36.01
387.93	89.26
388.14	33.96
388.35	40.11
388.56	29.87
388.769	54.44
388.979	29.87
389.189	93.35
389.399	3.24
389.609	38.06
389.818	160.94
390.028	40.11
390.238	113.83
390.447	56.49
390.657	119.98
390.867	74.92
391.076	40.11
391.286	74.92
391.496	48.3
391.705	79.02
391.915	91.31
392.125	62.63
392.334	33.96
392.544	111.78
392.753	36.01
392.963	76.97
393.172	23.72
393.382	83.11
393.591	99.5
393.801	62.63
394.01	128.17
394.22	99.5
394.429	74.92
394.639	97.45
394.848	54.44
395.058	105.64
395.267	46.25
395.477	81.07
395.686	144.55
395.895	130.22
396.105	146.6
396.314	87.21
396.524	142.5
396.733	103.59
396.942	76.97
397.152	165.03
397.361	191.66
397.57	117.93
397.78	68.78
397.989	117.93
398.198	128.17
398.407	126.12
398.617	122.02
398.826	136.36
399.035	58.54
399.244	128.17
399.453	144.55
399.663	138.41
399.872	138.41
400.081	70.83
400.29	124.07
400.499	54.44
400.708	122.02
400.917	95.4
401.127	185.51
401.336	87.21
401.545	144.55
401.754	244.9
401.963	132.26
402.172	150.7
402.381	99.5
402.59	128.17
402.799	132.26
403.008	189.61
403.217	150.7
403.426	146.6
403.635	85.16
403.844	152.74
404.053	156.84
404.262	171.18
404.471	183.46
404.68	199.85
404.888	122.02
405.097	79.02
405.306	201.9
405.515	185.51
405.724	160.94
405.933	165.03
406.142	177.32
406.35	214.18
406.559	181.42
406.768	187.56
406.977	279.72
407.185	265.38
407.394	201.9
407.603	263.33
407.812	214.18
408.02	349.35
408.229	228.52
408.438	257.19
408.646	232.62
408.855	181.42
409.064	351.4
409.272	312.49
409.481	275.62
409.69	308.39
409.898	300.2
410.107	347.3
410.315	402.6
410.524	394.4
410.733	429.22
410.941	349.35
411.15	521.38
411.358	480.42
411.567	402.6
411.775	482.47
411.984	504.99
412.192	451.75
412.401	539.81
412.609	461.99
412.818	535.71
413.026	545.95
413.234	500.9
413.443	580.77
413.651	560.29
413.86	656.54
414.068	652.45
414.276	656.54
414.485	638.11
414.693	754.85
414.901	713.89
415.11	746.66
415.318	763.04
415.526	887.97
415.734	887.97
415.943	887.97
416.151	965.79
416.359	953.5
416.567	1006.75
416.776	875.68
416.984	1027.23
417.192	1094.81
417.4	1115.29
417.608	1062.04
417.817	1178.78
418.025	1156.25
418.233	1295.51
418.441	1264.79
418.649	1356.95
418.857	1377.43
419.065	1332.37
419.273	1391.77
419.481	1524.88
419.689	1594.51
419.897	1703.06
420.105	1717.39
420.313	1746.06
420.521	1787.02
420.729	1764.5
420.937	1926.29
421.145	1942.67
421.353	2077.83
421.561	2231.43
421.769	2137.23
421.977	2286.73
422.185	2251.91
422.393	2258.06
422.601	2520.2
422.809	2559.11
423.017	2546.82
423.224	2794.62
423.432	2737.28
423.64	2724.99
423.848	3054.72
424.056	2950.27
424.263	3265.66
424.471	3224.7
424.679	3288.18
424.887	3425.4
425.094	3564.66
425.302	3548.28
425.51	3648.63
425.718	3751.03
425.925	3841.14
426.133	3949.68
426.341	4213.87
426.548	4349.03
426.756	4365.42
426.964	4455.53
427.171	4772.96
427.379	4770.91
427.586	4793.44
427.794	5078.11
428.001	5127.26
428.209	5540.95
428.417	5475.42
428.624	5831.76
428.832	5768.27
429.039	5667.92
429.247	5835.86
429.454	6110.29
429.662	6616.13
429.869	6188.11
430.076	6603.85
430.284	6507.59
430.491	6949.95
430.699	7128.13
430.906	7048.26
431.114	7218.24
431.321	7498.81
431.528	7623.73
431.736	8088.62
431.943	8571.94
432.15	8274.99
432.358	8287.28
432.565	8760.36
432.772	8739.88
432.979	9290.78
433.187	9466.91
433.394	9434.14
433.601	9999.38
433.808	10157.07
434.016	10009.62
434.223	10462.22
434.43	11164.67
434.637	11000.83
434.844	11351.04
435.052	11873.27
435.259	11471.87
435.466	11701.24
435.673	11658.23
435.88	12393.45
436.087	13102.05
436.294	13028.32
436.501	12792.81
436.708	12995.56
436.915	13472.73
437.122	14242.77
437.329	13923.29
437.537	14267.34
437.743	14910.41
437.95	14605.26
438.157	15369.15
438.364	15756.22
438.571	15829.95
438.778	16028.6
438.985	17603.49
439.192	16784.3
439.399	17540
439.606	16782.25
439.813	17832.86
440.02	18865.03
440.227	18602.89
440.433	18486.16
440.64	19108.74
440.847	18785.16
441.054	19518.34
441.261	20536.18
441.467	20347.76
441.674	21050.22
441.881	21506.91
442.088	21255.01
442.294	21328.74
442.501	22160.22
442.708	22426.45
442.914	23010.12
443.121	24138.55
443.328	23452.48
443.534	25107.24
443.741	24376.12
443.948	24255.29
444.154	25899.81
444.361	25752.35
444.568	25731.87
444.774	26346.26
444.981	26139.42
445.187	26778.39
445.394	28048.13
445.6	27947.78
445.807	30431.96
446.013	29338.35
446.22	29612.77
446.426	30903
446.633	30907.09
446.839	32058.05
447.046	30917.33
447.252	32694.97
447.459	32455.36
447.665	32281.28
447.871	33786.54
448.078	34929.3
448.284	33526.44
448.491	34564.76
448.697	35582.6
448.903	36395.65
449.11	36463.23
449.316	35598.99
449.522	36240
449.728	37595.76
449.935	37595.76
450.141	37403.25
450.347	38355.55
450.553	37030.52
450.76	37661.29
450.966	38535.77
451.172	38273.63
451.378	39180.88
451.584	38505.06
451.791	39424.59
451.997	38716
452.203	39772.75
452.409	39926.35
452.615	39127.64
452.821	38177.38
453.027	37622.38
453.233	39744.08
453.44	37698.16
453.646	38500.96
453.852	38935.13
454.058	39119.45
454.264	37659.24
454.47	38804.06
454.676	37536.37
454.882	39076.44
455.088	35539.6
455.294	36059.78
455.5	36465.28
455.705	37022.33
455.911	35162.77
456.117	34413.21
456.323	33708.71
456.529	32297.66
456.735	33661.61
456.941	32766.65
457.147	32406.2
457.352	31242.96
457.558	31218.38
457.764	31070.93
457.97	30161.63
458.176	29960.93
458.381	29909.73
458.587	28465.91
458.793	28177.15
458.999	27063.05
459.204	28488.44
459.41	28003.07
459.616	26133.28
459.821	25975.58
460.027	25783.07
460.233	25393.96
460.438	24073.02
460.644	24464.18
460.85	23384.9
461.055	22920.01
461.261	22598.48
461.466	21037.93
461.672	20665.2
461.878	21853.02
462.083	20855.66
462.289	20364.15
462.494	19925.88
462.7	19209.09
462.905	18516.88
463.111	19299.2
463.316	19573.63
463.522	19035.02
463.727	19196.81
463.932	19016.58
464.138	18822.03
464.343	18869.13
464.549	18398.1
464.754	19104.65
464.959	18957.19
465.165	18750.35
465.37	17990.55
465.575	17400.74
465.781	17998.74
465.986	18164.63
466.191	17525.66
466.397	17363.87
466.602	16397.23
466.807	17017.77
467.012	17093.54
467.218	16866.22
467.423	16907.18
