Data from USB4F104151__127__10-25-21-573.txt Node

Date: Wed Mar 12 10:25:21 EDT 2025
User: louis
Spectrometer: USB4F10415
Trigger mode: 4
Integration Time (sec): 3.000000E-2
Scans to average: 1
Electric dark correction enabled: true
Nonlinearity correction enabled: false
Boxcar width: 0
XAxis mode: Wavelengths
Number of Pixels in Spectrum: 3648
>>>>>Begin Spectral Data<<<<<
178.204	-111.61
178.424	-111.61
178.644	-111.61
178.864	-166.91
179.084	-64.51
179.304	-3.07
179.524	-1.02
179.744	17.41
179.964	33.79
180.184	-37.89
180.404	15.36
180.624	33.79
180.844	25.6
181.064	-68.61
181.283	33.79
181.503	-37.89
181.723	-11.26
181.943	-50.18
182.163	54.27
182.383	-19.46
182.602	62.46
182.822	-5.12
183.042	39.94
183.262	19.46
183.482	-3.07
183.701	52.22
183.921	9.22
184.141	54.27
184.361	-5.12
184.58	50.18
184.8	21.5
185.02	21.5
185.239	91.13
185.459	41.98
185.679	107.52
185.898	13.31
186.118	31.74
186.338	13.31
186.557	80.89
186.777	82.94
186.997	15.36
187.216	7.17
187.436	109.57
187.655	74.75
187.875	64.51
188.095	-31.74
188.314	35.84
188.534	119.81
188.753	-56.32
188.973	39.94
189.192	37.89
189.412	29.7
189.631	-21.5
189.851	-11.26
190.07	58.37
190.29	46.08
190.509	64.51
190.729	78.85
190.948	27.65
191.168	95.23
191.387	19.46
191.607	13.31
191.826	17.41
192.045	17.41
192.265	13.31
192.484	11.26
192.704	-11.26
192.923	-7.17
193.142	29.7
193.362	52.22
193.581	48.13
193.8	54.27
194.02	68.61
194.239	-31.74
194.458	56.32
194.678	-31.74
194.897	21.5
195.116	-44.03
195.335	58.37
195.555	9.22
195.774	87.04
195.993	33.79
196.212	29.7
196.432	56.32
196.651	3.07
196.87	-15.36
197.089	68.61
197.308	-7.17
197.528	29.7
197.747	46.08
197.966	-23.55
198.185	107.52
198.404	70.65
198.623	-17.41
198.842	19.46
199.062	29.7
199.281	82.94
199.5	13.31
199.719	-11.26
199.938	62.46
200.157	17.41
200.376	95.23
200.595	70.65
200.814	68.61
201.033	13.31
201.252	72.7
201.471	48.13
201.69	21.5
201.909	44.03
202.128	11.26
202.347	82.94
202.566	78.85
202.785	-13.31
203.004	13.31
203.223	95.23
203.442	60.42
203.661	29.7
203.879	48.13
204.098	44.03
204.317	-76.8
204.536	70.65
204.755	-1.02
204.974	39.94
205.193	91.13
205.411	87.04
205.63	29.7
205.849	103.42
206.068	19.46
206.287	35.84
206.505	48.13
206.724	46.08
206.943	-44.03
207.162	5.12
207.381	74.75
207.599	-5.12
207.818	17.41
208.037	13.31
208.255	13.31
208.474	21.5
208.693	44.03
208.911	17.41
209.13	25.6
209.349	-11.26
209.567	76.8
209.786	60.42
210.005	37.89
210.223	13.31
210.442	-99.33
210.661	39.94
210.879	-25.6
211.098	82.94
211.316	13.31
211.535	-31.74
211.753	9.22
211.972	44.03
212.191	48.13
212.409	84.99
212.628	41.98
212.846	-11.26
213.065	54.27
213.283	5.12
213.502	21.5
213.72	-52.22
213.938	19.46
214.157	48.13
214.375	-37.89
214.594	-29.7
214.812	13.31
215.031	46.08
215.249	25.6
215.467	29.7
215.686	-5.12
215.904	9.22
216.122	107.52
216.341	21.5
216.559	44.03
216.778	35.84
216.996	21.5
217.214	37.89
217.432	33.79
217.651	9.22
217.869	74.75
218.087	44.03
218.306	-1.02
218.524	13.31
218.742	-3.07
218.96	41.98
219.179	11.26
219.397	-5.12
219.615	109.57
219.833	87.04
220.051	50.18
220.27	156.67
220.488	35.84
220.706	78.85
220.924	41.98
221.142	54.27
221.36	-13.31
221.578	87.04
221.796	-56.32
222.015	11.26
222.233	44.03
222.451	41.98
222.669	-7.17
222.887	19.46
223.105	13.31
223.323	15.36
223.541	1.02
223.759	21.5
223.977	29.7
224.195	11.26
224.413	-11.26
224.631	91.13
224.849	21.5
225.067	101.37
225.285	-11.26
225.503	50.18
225.721	1.02
225.939	19.46
226.157	27.65
226.375	60.42
226.592	-11.26
226.81	13.31
227.028	44.03
227.246	54.27
227.464	-23.55
227.682	5.12
227.9	35.84
228.117	54.27
228.335	58.37
228.553	35.84
228.771	44.03
228.989	107.52
229.206	39.94
229.424	11.26
229.642	107.52
229.86	35.84
230.077	-27.65
230.295	62.46
230.513	41.98
230.731	29.7
230.948	70.65
231.166	113.66
231.384	9.22
231.601	-11.26
231.819	52.22
232.037	11.26
232.254	101.37
232.472	5.12
232.689	21.5
232.907	23.55
233.125	105.47
233.342	-44.03
233.56	31.74
233.777	1.02
233.995	-13.31
234.213	156.67
234.43	11.26
234.648	-15.36
234.865	-15.36
235.083	25.6
235.3	41.98
235.518	21.5
235.735	60.42
235.953	44.03
236.17	11.26
236.388	80.89
236.605	11.26
236.822	46.08
237.04	3.07
237.257	84.99
237.475	11.26
237.692	-15.36
237.909	21.5
238.127	37.89
238.344	-15.36
238.562	35.84
238.779	11.26
238.996	44.03
239.214	101.37
239.431	31.74
239.648	25.6
239.865	29.7
240.083	56.32
240.3	68.61
240.517	72.7
240.735	15.36
240.952	115.71
241.169	87.04
241.386	29.7
241.603	-13.31
241.821	1.02
242.038	37.89
242.255	35.84
242.472	-23.55
242.689	60.42
242.907	46.08
243.124	5.12
243.341	27.65
243.558	39.94
243.775	-3.07
243.992	11.26
244.209	29.7
244.426	119.81
244.643	11.26
244.86	15.36
245.078	3.07
245.295	80.89
245.512	37.89
245.729	5.12
245.946	23.55
246.163	-9.22
246.38	3.07
246.597	35.84
246.814	-56.32
247.031	3.07
247.248	54.27
247.464	121.85
247.681	66.56
247.898	41.98
248.115	19.46
248.332	41.98
248.549	29.7
248.766	50.18
248.983	121.85
249.2	35.84
249.417	128
249.633	66.56
249.85	-17.41
250.067	70.65
250.284	-5.12
250.501	60.42
250.717	37.89
250.934	87.04
251.151	3.07
251.368	-11.26
251.585	29.7
251.801	1.02
252.018	-46.08
252.235	60.42
252.451	66.56
252.668	56.32
252.885	74.75
253.102	-52.22
253.318	60.42
253.535	31.74
253.752	-1.02
253.968	52.22
254.185	-23.55
254.401	-27.65
254.618	15.36
254.835	3.07
255.051	50.18
255.268	91.13
255.484	46.08
255.701	-41.98
255.917	50.18
256.134	23.55
256.351	17.41
256.567	7.17
256.784	-1.02
257	44.03
257.217	62.46
257.433	25.6
257.65	41.98
257.866	39.94
258.082	-25.6
258.299	48.13
258.515	31.74
258.732	74.75
258.948	70.65
259.165	29.7
259.381	54.27
259.597	11.26
259.814	66.56
260.03	58.37
260.246	-19.46
260.463	50.18
260.679	97.28
260.895	-87.04
261.112	111.61
261.328	-19.46
261.544	-41.98
261.761	76.8
261.977	25.6
262.193	-5.12
262.409	105.47
262.626	21.5
262.842	37.89
263.058	72.7
263.274	9.22
263.49	5.12
263.707	99.33
263.923	21.5
264.139	5.12
264.355	97.28
264.571	103.42
264.787	76.8
265.004	25.6
265.22	37.89
265.436	35.84
265.652	39.94
265.868	70.65
266.084	27.65
266.3	58.37
266.516	3.07
266.732	-27.65
266.948	-35.84
267.164	46.08
267.38	5.12
267.596	11.26
267.812	-11.26
268.028	66.56
268.244	19.46
268.46	41.98
268.676	-7.17
268.892	56.32
269.108	7.17
269.324	-1.02
269.54	23.55
269.756	-11.26
269.972	21.5
270.188	50.18
270.403	-1.02
270.619	103.42
270.835	-5.12
271.051	-3.07
271.267	82.94
271.483	5.12
271.698	35.84
271.914	29.7
272.13	33.79
272.346	13.31
272.562	103.42
272.777	52.22
272.993	62.46
273.209	-37.89
273.425	21.5
273.64	3.07
273.856	17.41
274.072	78.85
274.287	-44.03
274.503	33.79
274.719	-11.26
274.934	29.7
275.15	-11.26
275.366	66.56
275.581	41.98
275.797	25.6
276.012	80.89
276.228	52.22
276.444	72.7
276.659	13.31
276.875	-7.17
277.09	72.7
277.306	13.31
277.521	56.32
277.737	27.65
277.952	99.33
278.168	82.94
278.383	-11.26
278.599	35.84
278.814	101.37
279.03	64.51
279.245	15.36
279.461	-31.74
279.676	74.75
279.892	17.41
280.107	3.07
280.322	-3.07
280.538	95.23
280.753	44.03
280.969	72.7
281.184	17.41
281.399	117.76
281.615	66.56
281.83	99.33
282.045	7.17
282.26	-3.07
282.476	7.17
282.691	54.27
282.906	35.84
283.122	89.09
283.337	78.85
283.552	-31.74
283.767	44.03
283.983	44.03
284.198	5.12
284.413	52.22
284.628	39.94
284.843	-7.17
285.058	-11.26
285.274	64.51
285.489	-3.07
285.704	136.19
285.919	25.6
286.134	76.8
286.349	-9.22
286.564	82.94
286.779	103.42
286.995	-1.02
287.21	13.31
287.425	62.46
287.64	9.22
287.855	107.52
288.07	-1.02
288.285	35.84
288.5	70.65
288.715	101.37
288.93	50.18
289.145	17.41
289.36	41.98
289.575	70.65
289.79	15.36
290.004	68.61
290.219	-9.22
290.434	25.6
290.649	19.46
290.864	35.84
291.079	41.98
291.294	48.13
291.509	13.31
291.724	13.31
291.938	7.17
292.153	19.46
292.368	37.89
292.583	74.75
292.798	52.22
293.012	84.99
293.227	54.27
293.442	3.07
293.657	125.95
293.871	21.5
294.086	89.09
294.301	93.18
294.516	70.65
294.73	-7.17
294.945	-11.26
295.16	-84.99
295.374	37.89
295.589	107.52
295.804	33.79
296.018	109.57
296.233	-7.17
296.447	44.03
296.662	-27.65
296.877	95.23
297.091	-44.03
297.306	-1.02
297.52	27.65
297.735	87.04
297.949	3.07
298.164	46.08
298.378	23.55
298.593	41.98
298.807	19.46
299.022	58.37
299.236	37.89
299.451	52.22
299.665	87.04
299.88	41.98
300.094	48.13
300.309	103.42
300.523	39.94
300.737	-23.55
300.952	7.17
301.166	7.17
301.381	13.31
301.595	25.6
301.809	-48.13
302.024	44.03
302.238	68.61
302.452	54.27
302.667	66.56
302.881	74.75
303.095	58.37
303.309	-5.12
303.524	33.79
303.738	31.74
303.952	44.03
304.166	68.61
304.381	-3.07
304.595	87.04
304.809	68.61
305.023	52.22
305.237	48.13
305.452	50.18
305.666	72.7
305.88	119.81
306.094	76.8
306.308	-27.65
306.522	29.7
306.736	62.46
306.95	111.61
307.164	54.27
307.379	29.7
307.593	76.8
307.807	119.81
308.021	119.81
308.235	23.55
308.449	-29.7
308.663	-3.07
308.877	68.61
309.091	134.14
309.305	37.89
309.519	-19.46
309.733	62.46
309.947	-31.74
310.161	54.27
310.374	21.5
310.588	52.22
310.802	15.36
311.016	62.46
311.23	60.42
311.444	-7.17
311.658	58.37
311.872	21.5
312.085	70.65
312.299	70.65
312.513	39.94
312.727	58.37
312.941	13.31
313.154	41.98
313.368	84.99
313.582	5.12
313.796	37.89
314.009	37.89
314.223	-3.07
314.437	-1.02
314.651	62.46
314.864	13.31
315.078	3.07
315.292	44.03
315.505	-19.46
315.719	136.19
315.933	56.32
316.146	-44.03
316.36	29.7
316.573	103.42
316.787	74.75
317.001	82.94
317.214	-27.65
317.428	23.55
317.641	-44.03
317.855	21.5
318.068	103.42
318.282	-3.07
318.495	74.75
318.709	1.02
318.922	41.98
319.136	1.02
319.349	101.37
319.563	41.98
319.776	52.22
319.99	-15.36
320.203	46.08
320.417	44.03
320.63	17.41
320.843	107.52
321.057	17.41
321.27	1.02
321.483	29.7
321.697	117.76
321.91	105.47
322.124	31.74
322.337	103.42
322.55	15.36
322.763	-11.26
322.977	-46.08
323.19	-7.17
323.403	33.79
323.617	70.65
323.83	31.74
324.043	46.08
324.256	70.65
324.469	-46.08
324.683	58.37
324.896	50.18
325.109	66.56
325.322	37.89
325.535	107.52
325.748	107.52
325.962	78.85
326.175	60.42
326.388	66.56
326.601	52.22
326.814	87.04
327.027	29.7
327.24	115.71
327.453	33.79
327.666	31.74
327.879	60.42
328.092	52.22
328.305	46.08
328.518	3.07
328.731	48.13
328.944	-39.94
329.157	121.85
329.37	46.08
329.583	50.18
329.796	80.89
330.009	-39.94
330.222	105.47
330.435	-15.36
330.648	-21.5
330.861	93.18
331.073	7.17
331.286	56.32
331.499	46.08
331.712	62.46
331.925	80.89
332.138	27.65
332.35	115.71
332.563	17.41
332.776	54.27
332.989	-11.26
333.202	-7.17
333.414	37.89
333.627	-13.31
333.84	109.57
334.053	29.7
334.265	-19.46
334.478	103.42
334.691	37.89
334.903	19.46
335.116	33.79
335.329	62.46
335.541	117.76
335.754	13.31
335.966	13.31
336.179	9.22
336.392	23.55
336.604	68.61
336.817	97.28
337.029	37.89
337.242	91.13
337.454	9.22
337.667	3.07
337.88	25.6
338.092	37.89
338.305	56.32
338.517	19.46
338.729	29.7
338.942	95.23
339.154	37.89
339.367	68.61
339.579	35.84
339.792	-7.17
340.004	46.08
340.217	-31.74
340.429	37.89
340.641	39.94
340.854	35.84
341.066	72.7
341.278	29.7
341.491	105.47
341.703	91.13
341.915	58.37
342.128	66.56
342.34	109.57
342.552	37.89
342.764	50.18
342.977	17.41
343.189	80.89
343.401	56.32
343.613	3.07
343.826	119.81
344.038	78.85
344.25	41.98
344.462	-11.26
344.674	50.18
344.886	27.65
345.099	15.36
345.311	54.27
345.523	111.61
345.735	21.5
345.947	37.89
346.159	25.6
346.371	74.75
346.583	66.56
346.795	121.85
347.007	-3.07
347.219	70.65
347.431	-25.6
347.643	37.89
347.855	74.75
348.067	58.37
348.279	3.07
348.491	68.61
348.703	54.27
348.915	50.18
349.127	70.65
349.339	74.75
349.551	72.7
349.763	5.12
349.975	-7.17
350.187	115.71
350.399	95.23
350.61	29.7
350.822	5.12
351.034	19.46
351.246	74.75
351.458	107.52
351.669	70.65
351.881	3.07
352.093	99.33
352.305	68.61
352.517	62.46
352.728	132.09
352.94	-11.26
353.152	50.18
353.363	46.08
353.575	46.08
353.787	9.22
353.999	-9.22
354.21	89.09
354.422	99.33
354.633	17.41
354.845	37.89
355.057	66.56
355.268	33.79
355.48	70.65
355.692	87.04
355.903	41.98
356.115	101.37
356.326	-11.26
356.538	48.13
356.749	74.75
356.961	60.42
357.172	-62.46
357.384	54.27
357.595	136.19
357.807	13.31
358.018	-21.5
358.23	31.74
358.441	19.46
358.653	66.56
358.864	107.52
359.075	44.03
359.287	121.85
359.498	130.05
359.709	72.7
359.921	5.12
360.132	52.22
360.344	82.94
360.555	74.75
360.766	54.27
360.977	31.74
361.189	41.98
361.4	39.94
361.611	144.38
361.823	25.6
362.034	87.04
362.245	27.65
362.456	97.28
362.667	54.27
362.879	33.79
363.09	64.51
363.301	17.41
363.512	95.23
363.723	41.98
363.935	44.03
364.146	29.7
364.357	72.7
364.568	64.51
364.779	56.32
364.99	54.27
365.201	7.17
365.412	33.79
365.623	29.7
365.834	27.65
366.045	97.28
366.256	97.28
366.467	62.46
366.678	54.27
366.889	17.41
367.1	37.89
367.311	99.33
367.522	74.75
367.733	72.7
367.944	60.42
368.155	-17.41
368.366	41.98
368.577	82.94
368.788	37.89
368.999	-15.36
369.209	138.24
369.42	87.04
369.631	99.33
369.842	74.75
370.053	19.46
370.264	-3.07
370.474	1.02
370.685	84.99
370.896	37.89
371.107	144.38
371.317	23.55
371.528	50.18
371.739	91.13
371.95	19.46
372.16	1.02
372.371	37.89
372.582	35.84
372.792	95.23
373.003	87.04
373.214	84.99
373.424	117.76
373.635	33.79
373.846	60.42
374.056	58.37
374.267	82.94
374.477	44.03
374.688	5.12
374.898	95.23
375.109	-1.02
375.319	56.32
375.53	91.13
375.74	37.89
375.951	62.46
376.161	-19.46
376.372	78.85
376.582	44.03
376.793	39.94
377.003	3.07
377.214	87.04
377.424	78.85
377.635	21.5
377.845	37.89
378.055	60.42
378.266	62.46
378.476	128
378.686	109.57
378.897	91.13
379.107	97.28
379.317	54.27
379.528	50.18
379.738	134.14
379.948	-3.07
380.158	128
380.369	-13.31
380.579	99.33
380.789	101.37
380.999	99.33
381.21	70.65
381.42	160.77
381.63	-50.18
381.84	78.85
382.05	78.85
382.261	58.37
382.471	72.7
382.681	11.26
382.891	82.94
383.101	58.37
383.311	68.61
383.521	33.79
383.731	89.09
383.941	132.09
384.151	132.09
384.361	19.46
384.571	109.57
384.781	113.66
384.991	68.61
385.201	128
385.411	54.27
385.621	25.6
385.831	103.42
386.041	9.22
386.251	21.5
386.461	91.13
386.671	54.27
386.881	50.18
387.091	74.75
387.301	111.61
387.511	91.13
387.72	130.05
387.93	164.86
388.14	107.52
388.35	50.18
388.56	27.65
388.769	117.76
388.979	64.51
389.189	144.38
389.399	35.84
389.609	76.8
389.818	60.42
390.028	62.46
390.238	74.75
390.447	27.65
390.657	91.13
390.867	78.85
391.076	95.23
391.286	76.8
391.496	3.07
391.705	91.13
391.915	109.57
392.125	62.46
392.334	158.72
392.544	31.74
392.753	82.94
392.963	95.23
393.172	154.62
393.382	82.94
393.591	160.77
393.801	80.89
394.01	58.37
394.22	117.76
394.429	101.37
394.639	87.04
394.848	218.11
395.058	60.42
395.267	107.52
395.477	54.27
395.686	87.04
395.895	11.26
396.105	191.49
396.314	164.86
396.524	107.52
396.733	54.27
396.942	146.43
397.152	64.51
397.361	62.46
397.57	119.81
397.78	195.58
397.989	119.81
398.198	179.2
398.407	82.94
398.617	105.47
398.826	150.53
399.035	78.85
399.244	128
399.453	103.42
399.663	115.71
399.872	105.47
400.081	193.53
400.29	119.81
400.499	136.19
400.708	152.57
400.917	82.94
401.127	171.01
401.336	111.61
401.545	160.77
401.754	103.42
401.963	148.48
402.172	179.2
402.381	164.86
402.59	140.29
402.799	156.67
403.008	125.95
403.217	164.86
403.426	84.99
403.635	132.09
403.844	160.77
404.053	201.72
404.262	123.9
404.471	166.91
404.68	220.16
404.888	125.95
405.097	201.72
405.306	179.2
405.515	205.82
405.724	199.68
405.933	193.53
406.142	216.06
406.35	224.25
406.559	238.59
406.768	265.21
406.977	234.49
407.185	220.16
407.394	351.23
407.603	242.68
407.812	246.78
408.02	263.16
408.229	265.21
408.438	289.79
408.646	300.03
408.855	216.06
409.064	316.41
409.272	287.74
409.481	336.89
409.69	271.36
409.898	435.19
410.107	357.37
410.315	365.56
410.524	375.8
410.733	373.75
410.941	416.76
411.15	470.01
411.358	373.75
411.567	506.87
411.775	457.72
411.984	527.35
412.192	513.02
412.401	486.39
412.609	611.32
412.818	633.85
413.026	541.69
413.234	642.04
413.443	611.32
413.651	670.71
413.86	775.16
414.068	707.57
414.276	705.53
414.485	726
414.693	754.68
414.901	840.69
415.11	863.22
415.318	824.31
415.526	820.21
415.734	822.26
415.943	898.03
416.151	1002.48
416.359	977.91
416.567	947.19
416.776	1111.02
416.984	1094.64
417.192	1147.89
417.4	1119.21
417.608	1227.76
417.817	1211.37
418.025	1242.09
418.233	1369.07
418.441	1336.3
418.649	1420.27
418.857	1528.81
419.065	1600.49
419.273	1537
419.481	1545.19
419.689	1637.35
419.897	1782.76
420.105	1842.15
420.313	1815.52
420.521	1827.81
420.729	1958.88
420.937	1962.98
421.145	2139.1
421.353	2175.97
421.561	2251.74
421.769	2339.8
421.977	2378.72
422.185	2393.05
422.393	2667.48
422.601	2755.54
422.809	2616.28
423.017	2769.88
423.224	2909.14
423.432	2882.52
423.64	2970.58
423.848	3273.68
424.056	3075.03
424.263	3345.36
424.471	3437.52
424.679	3496.91
424.887	3615.69
425.094	3750.85
425.302	3879.88
425.51	3890.12
425.718	3947.46
425.925	4256.7
426.133	4213.7
426.341	4461.5
426.548	4617.15
426.756	4740.02
426.964	4787.13
427.171	5090.23
427.379	5133.23
427.586	5194.67
427.794	5485.48
428.001	5602.22
428.209	5899.17
428.417	5792.68
428.624	6226.85
428.832	6153.12
429.039	6235.04
429.247	6134.69
429.454	6675.35
429.662	7142.29
429.869	6855.58
430.076	7351.18
430.284	7203.73
430.491	7271.31
430.699	7730.06
430.906	7844.74
431.114	8090.5
431.321	8121.22
431.528	8399.74
431.736	8768.38
431.943	9206.64
432.15	8958.84
432.358	9026.42
432.565	9657.2
432.772	9433.97
432.979	9958.25
433.187	10267.49
433.394	10175.33
433.601	10824.54
433.808	10937.18
434.016	10814.3
434.223	11440.98
434.43	11957.07
434.637	11836.24
434.844	12600.13
435.052	12632.9
435.259	12409.67
435.466	12874.56
435.673	12772.16
435.88	13511.47
436.087	14109.48
436.294	14168.87
436.501	13816.62
436.708	14177.06
436.915	14707.49
437.122	15225.62
437.329	15215.38
437.537	15565.59
437.743	16075.53
437.95	15858.45
438.157	16679.68
438.364	17289.98
438.571	16990.97
438.778	17476.34
438.985	18825.95
439.192	18117.36
439.399	18766.56
439.606	18281.19
439.813	19639
440.02	20474.57
440.227	20398.79
440.433	20067.02
440.64	20574.92
440.847	20699.84
441.054	21127.87
441.261	22184.62
441.467	22096.56
441.674	22497.96
441.881	23364.25
442.088	23171.74
442.294	23184.03
442.501	24087.18
442.708	24066.7
442.914	24877.7
443.121	26141.3
443.328	25254.53
443.534	27359.84
443.741	26509.93
443.948	25991.8
444.154	27963.99
444.361	27816.54
444.568	28136.02
444.774	27961.94
444.981	28250.7
445.187	29305.41
445.394	30335.54
445.6	29725.24
445.807	32741.9
446.013	31162.92
446.22	32049.69
446.426	33014.28
446.633	33079.82
446.839	34392.56
447.046	32762.38
447.252	34912.75
447.459	34925.04
447.665	34564.59
447.871	36372.95
448.078	37571.01
448.284	36063.71
448.491	36813.26
448.697	38291.9
448.903	39053.74
449.11	39084.46
449.316	38136.25
449.522	39123.37
449.728	40057.24
449.935	40188.31
450.141	40161.69
450.347	41480.58
450.553	39825.82
450.76	40202.65
450.966	41531.78
451.172	41197.96
451.378	42137.98
451.584	41286.03
451.791	42058.11
451.997	42338.68
452.203	42432.89
452.409	42375.55
452.615	42490.23
452.821	40683.92
453.027	40239.51
453.233	42273.15
453.44	40593.81
453.646	41478.54
453.852	41453.96
454.058	41949.57
454.264	40679.83
454.47	41419.14
454.676	40716.69
454.882	41922.94
455.088	38242.74
455.294	38578.61
455.5	39334.31
455.705	39582.12
455.911	37876.16
456.117	37165.51
456.323	36626.9
456.529	34701.81
456.735	36561.36
456.941	35256.81
457.147	34920.94
457.352	33751.55
457.558	33552.9
457.764	33206.79
457.97	32746
458.176	32051.73
458.381	32135.7
458.587	30550.57
458.793	30644.78
458.999	29135.43
459.204	31089.19
459.41	30323.25
459.616	27968.09
459.821	27777.62
460.027	28088.92
460.233	27615.83
460.438	25973.36
460.644	26323.57
460.85	25377.4
461.055	25156.22
461.261	24683.14
461.466	23069.34
461.672	22391.47
461.878	24064.66
462.083	22201.01
462.289	21828.27
462.494	21686.97
462.7	20583.11
462.905	20079.31
463.111	21043.9
463.316	20873.92
463.522	20495.05
463.727	20437.7
463.932	20423.37
464.138	20507.34
464.343	20546.25
464.549	20052.69
464.754	20462.28
464.959	20161.23
465.165	20142.8
465.37	19352.28
465.575	19282.65
465.781	19364.57
465.986	19811.03
466.191	18969.31
466.397	18713.31
466.602	17730.29
466.807	18377.45
467.012	18330.34
467.218	18127.6
467.423	17830.64
