Data from USB4F104151__161__10-27-14-091.txt Node

Date: Wed Mar 12 10:27:14 EDT 2025
User: louis
Spectrometer: USB4F10415
Trigger mode: 4
Integration Time (sec): 3.000000E-2
Scans to average: 1
Electric dark correction enabled: true
Nonlinearity correction enabled: false
Boxcar width: 0
XAxis mode: Wavelengths
Number of Pixels in Spectrum: 3648
>>>>>Begin Spectral Data<<<<<
178.204	-107.01
178.424	-107.01
178.644	-107.01
178.864	-61.95
179.084	-45.57
179.304	-57.86
179.524	40.45
179.744	-0.51
179.964	73.21
180.184	-8.7
180.404	-6.66
180.624	-41.47
180.844	-8.7
181.064	-18.94
181.283	-0.51
181.503	-25.09
181.723	54.78
181.943	-98.81
182.163	28.16
182.383	-6.66
182.602	22.02
182.822	62.98
183.042	103.93
183.262	9.73
183.482	38.4
183.701	124.41
183.921	22.02
184.141	40.45
184.361	138.75
184.58	52.74
184.8	9.73
185.02	91.65
185.239	71.17
185.459	13.82
185.679	73.21
185.898	-6.66
186.118	-33.28
186.338	24.06
186.557	69.12
186.777	7.68
186.997	7.68
187.216	17.92
187.436	58.88
187.655	105.98
187.875	38.4
188.095	73.21
188.314	75.26
188.534	34.3
188.753	11.78
188.973	52.74
189.192	58.88
189.412	-8.7
189.631	114.17
189.851	79.36
190.07	62.98
190.29	67.07
190.509	-8.7
190.729	7.68
190.948	17.92
191.168	114.17
191.387	22.02
191.607	62.98
191.826	77.31
192.045	40.45
192.265	7.68
192.484	67.07
192.704	40.45
192.923	-20.99
193.142	165.37
193.362	108.03
193.581	54.78
193.8	60.93
194.02	17.92
194.239	132.61
194.458	13.82
194.678	13.82
194.897	38.4
195.116	24.06
195.335	28.16
195.555	40.45
195.774	15.87
195.993	30.21
196.212	62.98
196.432	69.12
196.651	40.45
196.87	54.78
197.089	116.22
197.308	19.97
197.528	110.08
197.747	-70.14
197.966	28.16
198.185	103.93
198.404	48.64
198.623	-2.56
198.842	99.84
199.062	95.74
199.281	-35.33
199.5	54.78
199.719	65.02
199.938	11.78
200.157	38.4
200.376	112.13
200.595	19.97
200.814	32.26
201.033	126.46
201.252	128.51
201.471	112.13
201.69	116.22
201.909	30.21
202.128	17.92
202.347	54.78
202.566	24.06
202.785	-10.75
203.004	15.87
203.223	116.22
203.442	54.78
203.661	3.58
203.879	-37.38
204.098	124.41
204.317	38.4
204.536	13.82
204.755	19.97
204.974	116.22
205.193	-6.66
205.411	110.08
205.63	93.69
205.849	46.59
206.068	-8.7
206.287	60.93
206.505	110.08
206.724	22.02
206.943	-23.04
207.162	9.73
207.381	85.5
207.599	-27.14
207.818	58.88
208.037	85.5
208.255	48.64
208.474	58.88
208.693	146.94
208.911	65.02
209.13	97.79
209.349	60.93
209.567	60.93
209.786	155.13
210.005	-20.99
210.223	42.5
210.442	7.68
210.661	120.32
210.879	22.02
211.098	24.06
211.316	36.35
211.535	-0.51
211.753	40.45
211.972	62.98
212.191	-4.61
212.409	-0.51
212.628	13.82
212.846	42.5
213.065	95.74
213.283	38.4
213.502	62.98
213.72	36.35
213.938	38.4
214.157	17.92
214.375	62.98
214.594	44.54
214.812	128.51
215.031	1.54
215.249	50.69
215.467	-18.94
215.686	62.98
215.904	77.31
216.122	79.36
216.341	71.17
216.559	28.16
216.778	75.26
216.996	65.02
217.214	60.93
217.432	85.5
217.651	-2.56
217.869	52.74
218.087	48.64
218.306	97.79
218.524	-10.75
218.742	52.74
218.96	-12.8
219.179	56.83
219.397	79.36
219.615	105.98
219.833	60.93
220.051	30.21
220.27	89.6
220.488	36.35
220.706	56.83
220.924	83.45
221.142	32.26
221.36	44.54
221.578	48.64
221.796	17.92
222.015	-43.52
222.233	48.64
222.451	42.5
222.669	62.98
222.887	48.64
223.105	85.5
223.323	34.3
223.541	81.41
223.759	67.07
223.977	32.26
224.195	7.68
224.413	-29.18
224.631	36.35
224.849	7.68
225.067	112.13
225.285	36.35
225.503	1.54
225.721	-20.99
225.939	-8.7
226.157	73.21
226.375	116.22
226.592	-53.76
226.81	62.98
227.028	62.98
227.246	85.5
227.464	-10.75
227.682	101.89
227.9	30.21
228.117	52.74
228.335	-2.56
228.553	3.58
228.771	-33.28
228.989	58.88
229.206	36.35
229.424	-33.28
229.642	-37.38
229.86	-41.47
230.077	77.31
230.295	54.78
230.513	77.31
230.731	101.89
230.948	71.17
231.166	40.45
231.384	26.11
231.601	13.82
231.819	50.69
232.037	-80.38
232.254	-43.52
232.472	62.98
232.689	69.12
232.907	122.37
233.125	58.88
233.342	5.63
233.56	26.11
233.777	-12.8
233.995	-12.8
234.213	134.65
234.43	38.4
234.648	-0.51
234.865	54.78
235.083	40.45
235.3	11.78
235.518	32.26
235.735	11.78
235.953	118.27
236.17	54.78
236.388	-8.7
236.605	30.21
236.822	9.73
237.04	38.4
237.257	54.78
237.475	40.45
237.692	-8.7
237.909	11.78
238.127	56.83
238.344	32.26
238.562	91.65
238.779	3.58
238.996	-12.8
239.214	-29.18
239.431	34.3
239.648	44.54
239.865	124.41
240.083	40.45
240.3	34.3
240.517	-25.09
240.735	-6.66
240.952	9.73
241.169	56.83
241.386	36.35
241.603	15.87
241.821	-45.57
242.038	32.26
242.255	17.92
242.472	5.63
242.689	97.79
242.907	11.78
243.124	42.5
243.341	11.78
243.558	5.63
243.775	-8.7
243.992	65.02
244.209	69.12
244.426	56.83
244.643	73.21
244.86	9.73
245.078	32.26
245.295	-14.85
245.512	15.87
245.729	3.58
245.946	85.5
246.163	42.5
246.38	1.54
246.597	56.83
246.814	32.26
247.031	50.69
247.248	-4.61
247.464	24.06
247.681	99.84
247.898	46.59
248.115	97.79
248.332	26.11
248.549	130.56
248.766	65.02
248.983	130.56
249.2	40.45
249.417	85.5
249.633	9.73
249.85	58.88
250.067	56.83
250.284	71.17
250.501	-16.9
250.717	50.69
250.934	32.26
251.151	5.63
251.368	54.78
251.585	26.11
251.801	103.93
252.018	22.02
252.235	19.97
252.451	-12.8
252.668	44.54
252.885	46.59
253.102	40.45
253.318	-29.18
253.535	22.02
253.752	69.12
253.968	5.63
254.185	7.68
254.401	-29.18
254.618	118.27
254.835	93.69
255.051	65.02
255.268	40.45
255.484	11.78
255.701	7.68
255.917	112.13
256.134	-59.9
256.351	93.69
256.567	-6.66
256.784	77.31
257	24.06
257.217	105.98
257.433	40.45
257.65	65.02
257.866	153.09
258.082	73.21
258.299	-31.23
258.515	15.87
258.732	134.65
258.948	-14.85
259.165	101.89
259.381	15.87
259.597	42.5
259.814	-2.56
260.03	44.54
260.246	3.58
260.463	81.41
260.679	56.83
260.895	-8.7
261.112	30.21
261.328	5.63
261.544	26.11
261.761	69.12
261.977	3.58
262.193	38.4
262.409	83.45
262.626	67.07
262.842	101.89
263.058	56.83
263.274	48.64
263.49	-18.94
263.707	69.12
263.923	-41.47
264.139	-43.52
264.355	44.54
264.571	3.58
264.787	87.55
265.004	93.69
265.22	-6.66
265.436	52.74
265.652	34.3
265.868	24.06
266.084	17.92
266.3	7.68
266.516	-57.86
266.732	24.06
266.948	-57.86
267.164	1.54
267.38	118.27
267.596	101.89
267.812	62.98
268.028	73.21
268.244	-39.42
268.46	32.26
268.676	13.82
268.892	15.87
269.108	67.07
269.324	26.11
269.54	-10.75
269.756	67.07
269.972	46.59
270.188	15.87
270.403	1.54
270.619	95.74
270.835	93.69
271.051	69.12
271.267	-0.51
271.483	81.41
271.698	26.11
271.914	-14.85
272.13	36.35
272.346	42.5
272.562	40.45
272.777	108.03
272.993	60.93
273.209	13.82
273.425	36.35
273.64	22.02
273.856	71.17
274.072	38.4
274.287	38.4
274.503	99.84
274.719	56.83
274.934	32.26
275.15	1.54
275.366	79.36
275.581	30.21
275.797	22.02
276.012	15.87
276.228	36.35
276.444	34.3
276.659	85.5
276.875	-14.85
277.09	-10.75
277.306	24.06
277.521	87.55
277.737	48.64
277.952	36.35
278.168	83.45
278.383	-10.75
278.599	-4.61
278.814	3.58
279.03	99.84
279.245	71.17
279.461	22.02
279.676	30.21
279.892	38.4
280.107	22.02
280.322	3.58
280.538	24.06
280.753	-8.7
280.969	95.74
281.184	-8.7
281.399	71.17
281.615	73.21
281.83	46.59
282.045	89.6
282.26	28.16
282.476	5.63
282.691	69.12
282.906	-2.56
283.122	105.98
283.337	26.11
283.552	101.89
283.767	28.16
283.983	69.12
284.198	56.83
284.413	48.64
284.628	7.68
284.843	15.87
285.058	30.21
285.274	30.21
285.489	22.02
285.704	1.54
285.919	87.55
286.134	52.74
286.349	40.45
286.564	22.02
286.779	36.35
286.995	-12.8
287.21	-31.23
287.425	56.83
287.64	-8.7
287.855	9.73
288.07	38.4
288.285	85.5
288.5	-2.56
288.715	-18.94
288.93	22.02
289.145	75.26
289.36	7.68
289.575	-29.18
289.79	-29.18
290.004	38.4
290.219	13.82
290.434	15.87
290.649	13.82
290.864	3.58
291.079	69.12
291.294	71.17
291.509	52.74
291.724	42.5
291.938	30.21
292.153	30.21
292.368	7.68
292.583	65.02
292.798	62.98
293.012	71.17
293.227	48.64
293.442	15.87
293.657	-4.61
293.871	46.59
294.086	118.27
294.301	71.17
294.516	24.06
294.73	-18.94
294.945	-2.56
295.16	7.68
295.374	110.08
295.589	71.17
295.804	56.83
296.018	67.07
296.233	32.26
296.447	34.3
296.662	24.06
296.877	87.55
297.091	77.31
297.306	7.68
297.52	34.3
297.735	1.54
297.949	85.5
298.164	40.45
298.378	81.41
298.593	30.21
298.807	-14.85
299.022	36.35
299.236	-8.7
299.451	46.59
299.665	-0.51
299.88	19.97
300.094	48.64
300.309	9.73
300.523	60.93
300.737	44.54
300.952	38.4
301.166	62.98
301.381	11.78
301.595	65.02
301.809	-4.61
302.024	42.5
302.238	-29.18
302.452	110.08
302.667	79.36
302.881	22.02
303.095	97.79
303.309	-25.09
303.524	103.93
303.738	36.35
303.952	11.78
304.166	103.93
304.381	-35.33
304.595	62.98
304.809	32.26
305.023	48.64
305.237	7.68
305.452	48.64
305.666	79.36
305.88	36.35
306.094	75.26
306.308	34.3
306.522	24.06
306.736	40.45
306.95	-53.76
307.164	-0.51
307.379	71.17
307.593	89.6
307.807	58.88
308.021	36.35
308.235	93.69
308.449	11.78
308.663	71.17
308.877	124.41
309.091	24.06
309.305	83.45
309.519	28.16
309.733	83.45
309.947	32.26
310.161	13.82
310.374	54.78
310.588	36.35
310.802	-8.7
311.016	42.5
311.23	91.65
311.444	46.59
311.658	32.26
311.872	62.98
312.085	105.98
312.299	11.78
312.513	50.69
312.727	95.74
312.941	126.46
313.154	36.35
313.368	-4.61
313.582	17.92
313.796	46.59
314.009	24.06
314.223	83.45
314.437	40.45
314.651	15.87
314.864	11.78
315.078	11.78
315.292	101.89
315.505	50.69
315.719	17.92
315.933	42.5
316.146	-25.09
316.36	46.59
316.573	54.78
316.787	40.45
317.001	77.31
317.214	114.17
317.428	110.08
317.641	-37.38
317.855	5.63
318.068	22.02
318.282	36.35
318.495	58.88
318.709	120.32
318.922	38.4
319.136	46.59
319.349	71.17
319.563	19.97
319.776	83.45
319.99	-12.8
320.203	91.65
320.417	40.45
320.63	93.69
320.843	48.64
321.057	99.84
321.27	26.11
321.483	42.5
321.697	44.54
321.91	34.3
322.124	97.79
322.337	1.54
322.55	69.12
322.763	32.26
322.977	60.93
323.19	-33.28
323.403	103.93
323.617	-23.04
323.83	7.68
324.043	52.74
324.256	5.63
324.469	-51.71
324.683	19.97
324.896	44.54
325.109	56.83
325.322	-8.7
325.535	26.11
325.748	79.36
325.962	67.07
326.175	42.5
326.388	77.31
326.601	-14.85
326.814	-8.7
327.027	34.3
327.24	85.5
327.453	-61.95
327.666	91.65
327.879	-18.94
328.092	110.08
328.305	79.36
328.518	97.79
328.731	73.21
328.944	40.45
329.157	62.98
329.37	22.02
329.583	32.26
329.796	144.89
330.009	24.06
330.222	54.78
330.435	24.06
330.648	15.87
330.861	52.74
331.073	103.93
331.286	50.69
331.499	44.54
331.712	19.97
331.925	85.5
332.138	1.54
332.35	71.17
332.563	44.54
332.776	167.42
332.989	5.63
333.202	34.3
333.414	30.21
333.627	7.68
333.84	40.45
334.053	-6.66
334.265	93.69
334.478	67.07
334.691	34.3
334.903	44.54
335.116	-20.99
335.329	48.64
335.541	5.63
335.754	169.47
335.966	3.58
336.179	-16.9
336.392	26.11
336.604	132.61
336.817	71.17
337.029	69.12
337.242	77.31
337.454	13.82
337.667	73.21
337.88	71.17
338.092	40.45
338.305	44.54
338.517	17.92
338.729	91.65
338.942	105.98
339.154	7.68
339.367	81.41
339.579	22.02
339.792	-16.9
340.004	-33.28
340.217	71.17
340.429	42.5
340.641	71.17
340.854	7.68
341.066	-2.56
341.278	62.98
341.491	75.26
341.703	112.13
341.915	24.06
342.128	-41.47
342.34	105.98
342.552	-14.85
342.764	-18.94
342.977	-2.56
343.189	69.12
343.401	44.54
343.613	-29.18
343.826	38.4
344.038	52.74
344.25	130.56
344.462	81.41
344.674	40.45
344.886	-6.66
345.099	26.11
345.311	50.69
345.523	58.88
345.735	-25.09
345.947	34.3
346.159	56.83
346.371	81.41
346.583	60.93
346.795	87.55
347.007	42.5
347.219	73.21
347.431	24.06
347.643	52.74
347.855	46.59
348.067	71.17
348.279	26.11
348.491	46.59
348.703	67.07
348.915	1.54
349.127	101.89
349.339	26.11
349.551	83.45
349.763	36.35
349.975	67.07
350.187	56.83
350.399	112.13
350.61	34.3
350.822	-8.7
351.034	40.45
351.246	103.93
351.458	-12.8
351.669	5.63
351.881	36.35
352.093	56.83
352.305	36.35
352.517	99.84
352.728	77.31
352.94	36.35
353.152	56.83
353.363	13.82
353.575	38.4
353.787	77.31
353.999	36.35
354.21	79.36
354.422	28.16
354.633	-29.18
354.845	60.93
355.057	142.85
355.268	62.98
355.48	99.84
355.692	28.16
355.903	62.98
356.115	95.74
356.326	-16.9
356.538	126.46
356.749	73.21
356.961	79.36
357.172	93.69
357.384	26.11
357.595	167.42
357.807	91.65
358.018	-4.61
358.23	38.4
358.441	50.69
358.653	91.65
358.864	-20.99
359.075	89.6
359.287	-0.51
359.498	9.73
359.709	120.32
359.921	69.12
360.132	56.83
360.344	34.3
360.555	60.93
360.766	81.41
360.977	46.59
361.189	118.27
361.4	-25.09
361.611	148.99
361.823	19.97
362.034	60.93
362.245	46.59
362.456	60.93
362.667	112.13
362.879	19.97
363.09	95.74
363.301	17.92
363.512	24.06
363.723	48.64
363.935	83.45
364.146	75.26
364.357	65.02
364.568	75.26
364.779	48.64
364.99	93.69
365.201	56.83
365.412	81.41
365.623	52.74
365.834	60.93
366.045	65.02
366.256	69.12
366.467	105.98
366.678	87.55
366.889	36.35
367.1	15.87
367.311	110.08
367.522	85.5
367.733	62.98
367.944	42.5
368.155	1.54
368.366	91.65
368.577	85.5
368.788	56.83
368.999	40.45
369.209	58.88
369.42	146.94
369.631	71.17
369.842	7.68
370.053	1.54
370.264	110.08
370.474	40.45
370.685	22.02
370.896	50.69
371.107	79.36
371.317	103.93
371.528	34.3
371.739	52.74
371.95	11.78
372.16	73.21
372.371	-20.99
372.582	87.55
372.792	65.02
373.003	36.35
373.214	85.5
373.424	114.17
373.635	34.3
373.846	87.55
374.056	-12.8
374.267	103.93
374.477	48.64
374.688	54.78
374.898	38.4
375.109	54.78
375.319	5.63
375.53	58.88
375.74	36.35
375.951	19.97
376.161	65.02
376.372	93.69
376.582	134.65
376.793	65.02
377.003	42.5
377.214	44.54
377.424	1.54
377.635	-2.56
377.845	-12.8
378.055	128.51
378.266	22.02
378.476	7.68
378.686	46.59
378.897	40.45
379.107	85.5
379.317	87.55
379.528	15.87
379.738	85.5
379.948	83.45
380.158	101.89
380.369	81.41
380.579	87.55
380.789	69.12
380.999	114.17
381.21	58.88
381.42	112.13
381.63	65.02
381.84	118.27
382.05	1.54
382.261	140.8
382.471	5.63
382.681	-33.28
382.891	77.31
383.101	97.79
383.311	34.3
383.521	9.73
383.731	15.87
383.941	122.37
384.151	81.41
384.361	44.54
384.571	77.31
384.781	17.92
384.991	89.6
385.201	36.35
385.411	73.21
385.621	73.21
385.831	44.54
386.041	28.16
386.251	81.41
386.461	146.94
386.671	73.21
386.881	153.09
387.091	60.93
387.301	79.36
387.511	91.65
387.72	62.98
387.93	77.31
388.14	105.98
388.35	73.21
388.56	28.16
388.769	114.17
388.979	9.73
389.189	40.45
389.399	128.51
389.609	42.5
389.818	62.98
390.028	50.69
390.238	118.27
390.447	24.06
390.657	54.78
390.867	40.45
391.076	77.31
391.286	114.17
391.496	73.21
391.705	19.97
391.915	112.13
392.125	93.69
392.334	40.45
392.544	46.59
392.753	67.07
392.963	48.64
393.172	142.85
393.382	26.11
393.591	112.13
393.801	50.69
394.01	54.78
394.22	157.18
394.429	28.16
394.639	136.7
394.848	144.89
395.058	81.41
395.267	103.93
395.477	112.13
395.686	167.42
395.895	79.36
396.105	81.41
396.314	65.02
396.524	120.32
396.733	15.87
396.942	73.21
397.152	110.08
397.361	116.22
397.57	56.83
397.78	103.93
397.989	91.65
398.198	81.41
398.407	75.26
398.617	108.03
398.826	118.27
399.035	108.03
399.244	71.17
399.453	140.8
399.663	163.33
399.872	85.5
400.081	114.17
400.29	124.41
400.499	75.26
400.708	169.47
400.917	122.37
401.127	65.02
401.336	48.64
401.545	171.52
401.754	189.95
401.963	179.71
402.172	69.12
402.381	93.69
402.59	134.65
402.799	169.47
403.008	161.28
403.217	210.43
403.426	101.89
403.635	95.74
403.844	153.09
404.053	46.59
404.262	28.16
404.471	130.56
404.68	181.76
404.888	153.09
405.097	48.64
405.306	124.41
405.515	224.76
405.724	112.13
405.933	187.9
406.142	183.81
406.35	183.81
406.559	99.84
406.768	173.57
406.977	187.9
407.185	122.37
407.394	245.24
407.603	179.71
407.812	228.86
408.02	204.28
408.229	224.76
408.438	204.28
408.646	259.58
408.855	155.13
409.064	294.4
409.272	259.58
409.481	267.77
409.69	263.68
409.898	269.82
410.107	288.25
410.315	304.64
410.524	241.15
410.733	323.07
410.941	300.54
411.15	267.77
411.358	349.69
411.567	421.37
411.775	409.08
411.984	359.93
412.192	372.22
412.401	378.36
412.609	400.89
412.818	370.17
413.026	534.01
413.234	470.52
413.443	462.33
413.651	474.62
413.86	488.95
414.068	587.26
414.276	538.1
414.485	523.77
414.693	601.59
414.901	607.73
415.11	693.75
415.318	648.69
415.526	593.4
415.734	685.56
415.943	673.27
416.151	736.76
416.359	792.05
416.567	751.09
416.776	749.04
416.984	861.68
417.192	830.96
417.4	822.77
417.608	908.79
417.817	982.51
418.025	1064.43
418.233	988.66
418.441	976.37
418.649	986.61
418.857	1162.73
419.065	1056.24
419.273	1056.24
419.481	1279.47
419.689	1269.23
419.897	1314.28
420.105	1342.96
420.313	1375.72
420.521	1486.31
420.729	1390.06
420.937	1510.89
421.145	1551.85
421.353	1670.63
421.561	1822.18
421.769	1656.29
421.977	1811.94
422.185	1809.89
422.393	1922.53
422.601	2090.46
422.809	2104.8
423.017	2024.93
423.224	2096.61
423.432	2160.1
423.64	2213.34
423.848	2366.94
424.056	2430.43
424.263	2514.39
424.471	2444.76
424.679	2538.97
424.887	2692.57
425.094	2883.03
425.302	2713.05
425.51	2854.36
425.718	2995.67
425.925	3034.58
426.133	3149.26
426.341	3298.77
426.548	3458.51
426.756	3452.36
426.964	3591.63
427.171	3821
427.379	3751.37
427.586	3843.53
427.794	4009.41
428.001	4156.86
428.209	4279.74
428.417	4330.94
428.624	4566.46
428.832	4582.84
429.039	4525.5
429.247	4646.33
429.454	5107.12
429.662	5408.17
429.869	4896.18
430.076	5301.68
430.284	5088.69
430.491	5365.17
430.699	5674.41
430.906	5641.64
431.114	5907.88
431.321	6120.87
431.528	6170.02
431.736	6421.92
431.943	6671.77
432.15	6354.34
432.358	6602.14
432.565	6938.01
432.772	7011.73
432.979	7335.31
433.187	7460.24
433.394	7562.64
433.601	8101.25
433.808	7873.93
434.016	8025.48
434.223	8156.55
434.43	8797.56
434.637	8732.03
434.844	9215.35
435.052	9262.45
435.259	9139.57
435.466	9450.86
435.673	9237.88
435.88	9969
436.087	10276.2
436.294	10526.05
436.501	10257.76
436.708	10546.53
436.915	10769.76
437.122	11136.34
437.329	11267.41
437.537	11513.17
437.743	11793.74
437.95	11560.27
438.157	12250.44
438.364	12582.21
438.571	12635.46
438.778	12518.72
438.985	13845.8
439.192	13335.86
439.399	13841.71
439.606	13368.63
439.813	14267.69
440.02	14624.03
440.227	14677.28
440.433	14626.08
440.64	15117.59
440.847	14933.28
441.054	15172.89
441.261	16479.49
441.467	16155.91
441.674	16352.52
441.881	16872.7
442.088	16852.22
442.294	16829.7
442.501	17222.91
442.708	17632.5
442.914	18230.51
443.121	18799.84
443.328	18500.84
443.534	19659.99
443.741	19094.75
443.948	18881.76
444.154	20249.8
444.361	20204.75
444.568	20356.3
444.774	20317.39
444.981	20403.4
445.187	20982.98
445.394	21867.7
445.6	21630.13
445.807	23891.09
446.013	22828.2
446.22	23008.42
446.426	23923.86
446.633	24442
446.839	24927.36
447.046	23882.9
447.252	25343.1
447.459	25531.51
447.665	25220.22
447.871	26166.38
448.078	27415.65
448.284	26412.14
448.491	26991.72
448.697	27839.58
448.903	28544.08
449.11	28302.42
449.316	27735.13
449.522	28316.75
449.728	29094.98
449.935	29252.67
450.141	29211.71
450.347	30075.96
450.553	28689.48
450.76	29500.48
450.966	30155.83
451.172	29991.99
451.378	30702.64
451.584	29893.69
451.791	30886.95
451.997	30182.45
452.203	31478.82
452.409	31204.39
452.615	31128.61
452.821	29615.16
453.027	29207.62
453.233	30805.03
453.44	29631.55
453.646	29762.62
453.852	30299.19
454.058	30413.87
454.264	29375.55
454.47	30250.03
454.676	29361.22
454.882	30157.88
455.088	27665.5
455.294	28124.24
455.5	28097.62
455.705	28841.03
455.911	27548.76
456.117	27010.15
456.323	26965.09
456.529	25255.04
456.735	26299.5
456.941	25422.97
457.147	24980.61
457.352	24444.04
457.558	24157.33
457.764	24505.48
457.97	23792.79
458.176	23041.18
458.381	23071.9
458.587	22039.73
458.793	22123.69
458.999	20798.66
459.204	22277.29
459.41	21587.13
459.616	20294.86
459.821	20301
460.027	20245.71
460.233	19713.24
460.438	18603.24
460.644	18990.3
460.85	17913.07
461.055	18216.17
461.261	17921.26
461.466	16600.32
461.672	16125.19
461.878	17183.99
462.083	16117
462.289	15590.67
462.494	15807.76
462.7	14828.83
462.905	14617.89
463.111	14941.47
463.316	15148.31
463.522	14669.09
463.727	14816.54
463.932	14654.75
464.138	14552.35
464.343	14589.22
464.549	14171.43
464.754	15017.24
464.959	14646.56
465.165	14669.09
465.37	13872.43
465.575	13458.74
465.781	14093.61
465.986	14140.71
466.191	13708.59
466.397	13266.23
466.602	12711.23
466.807	13237.56
467.012	13266.23
467.218	13231.41
467.423	12854.59
467.628	13284.66
467.833	13729.07
