Data from USB4F104151__139__10-25-53-280.txt Node

Date: Wed Mar 12 10:25:53 EDT 2025
User: louis
Spectrometer: USB4F10415
Trigger mode: 4
Integration Time (sec): 3.000000E-2
Scans to average: 1
Electric dark correction enabled: true
Nonlinearity correction enabled: false
Boxcar width: 0
XAxis mode: Wavelengths
Number of Pixels in Spectrum: 3648
>>>>>Begin Spectral Data<<<<<
178.204	-143.53
178.424	-143.53
178.644	-143.53
178.864	-184.49
179.084	-143.53
179.304	69.46
179.524	12.12
179.744	46.93
179.964	12.12
180.184	8.02
180.404	5.97
180.624	-49.32
180.844	-6.31
181.064	-28.84
181.283	57.17
181.503	-53.42
181.723	-73.9
181.943	-24.75
182.163	94.04
182.383	61.27
182.602	16.21
182.822	30.55
183.042	8.02
183.262	-20.65
183.482	-4.27
183.701	-37.03
183.921	-39.08
184.141	-12.46
184.361	53.08
184.58	8.02
184.8	-0.17
185.02	-14.51
185.239	5.97
185.459	48.98
185.679	-12.46
185.898	-39.08
186.118	65.36
186.338	40.79
186.557	10.07
186.777	-53.42
186.997	-28.84
187.216	42.84
187.436	24.4
187.655	40.79
187.875	116.56
188.095	116.56
188.314	22.36
188.534	132.95
188.753	-14.51
188.973	-18.6
189.192	1.88
189.412	14.17
189.631	89.94
189.851	32.6
190.07	18.26
190.29	-4.27
190.509	-14.51
190.729	-65.71
190.948	24.4
191.168	167.76
191.387	94.04
191.607	8.02
191.826	-0.17
192.045	51.03
192.265	12.12
192.484	-10.41
192.704	30.55
192.923	12.12
193.142	65.36
193.362	67.41
193.581	83.8
193.8	40.79
194.02	-6.31
194.239	36.69
194.458	16.21
194.678	83.8
194.897	48.98
195.116	40.79
195.335	-22.7
195.555	14.17
195.774	34.64
195.993	8.02
196.212	-16.55
196.432	36.69
196.651	16.21
196.87	-20.65
197.089	53.08
197.308	57.17
197.528	69.46
197.747	-18.6
197.966	-22.7
198.185	57.17
198.404	3.93
198.623	89.94
198.842	10.07
199.062	40.79
199.281	38.74
199.5	8.02
199.719	34.64
199.938	10.07
200.157	16.21
200.376	-6.31
200.595	61.27
200.814	67.41
201.033	69.46
201.252	14.17
201.471	-22.7
201.69	59.22
201.909	87.89
202.128	-57.51
202.347	77.65
202.566	-10.41
202.785	-30.89
203.004	-47.27
203.223	53.08
203.442	73.56
203.661	-39.08
203.879	108.37
204.098	-39.08
204.317	-51.37
204.536	-2.22
204.755	24.4
204.974	-53.42
205.193	28.5
205.411	36.69
205.63	48.98
205.849	1.88
206.068	48.98
206.287	-8.36
206.505	42.84
206.724	46.93
206.943	-30.89
207.162	20.31
207.381	26.45
207.599	24.4
207.818	51.03
208.037	-53.42
208.255	51.03
208.474	14.17
208.693	61.27
208.911	63.32
209.13	16.21
209.349	75.6
209.567	-69.8
209.786	-4.27
210.005	69.46
210.223	77.65
210.442	12.12
210.661	-32.94
210.879	36.69
211.098	5.97
211.316	55.12
211.535	24.4
211.753	14.17
211.972	-18.6
212.191	-2.22
212.409	51.03
212.628	-12.46
212.846	-20.65
213.065	-6.31
213.283	36.69
213.502	1.88
213.72	-37.03
213.938	61.27
214.157	-32.94
214.375	24.4
214.594	30.55
214.812	53.08
215.031	20.31
215.249	-16.55
215.467	44.88
215.686	46.93
215.904	44.88
216.122	44.88
216.341	116.56
216.559	28.5
216.778	40.79
216.996	77.65
217.214	20.31
217.432	51.03
217.651	-8.36
217.869	48.98
218.087	-53.42
218.306	44.88
218.524	24.4
218.742	-18.6
218.96	32.6
219.179	20.31
219.397	87.89
219.615	40.79
219.833	65.36
220.051	-6.31
220.27	55.12
220.488	30.55
220.706	48.98
220.924	10.07
221.142	44.88
221.36	51.03
221.578	-22.7
221.796	16.21
222.015	71.51
222.233	36.69
222.451	12.12
222.669	-4.27
222.887	-30.89
223.105	-14.51
223.323	26.45
223.541	-28.84
223.759	42.84
223.977	24.4
224.195	124.76
224.413	-45.23
224.631	75.6
224.849	5.97
225.067	42.84
225.285	-12.46
225.503	-28.84
225.721	-20.65
225.939	53.08
226.157	16.21
226.375	73.56
226.592	-69.8
226.81	30.55
227.028	8.02
227.246	139.09
227.464	-16.55
227.682	14.17
227.9	42.84
228.117	42.84
228.335	-28.84
228.553	36.69
228.771	75.6
228.989	12.12
229.206	94.04
229.424	-16.55
229.642	24.4
229.86	20.31
230.077	48.98
230.295	-22.7
230.513	22.36
230.731	-20.65
230.948	36.69
231.166	26.45
231.384	-57.51
231.601	57.17
231.819	-20.65
232.037	-63.66
232.254	67.41
232.472	87.89
232.689	-0.17
232.907	61.27
233.125	5.97
233.342	38.74
233.56	46.93
233.777	-45.23
233.995	69.46
234.213	44.88
234.43	-24.75
234.648	8.02
234.865	63.32
235.083	3.93
235.3	-4.27
235.518	32.6
235.735	61.27
235.953	53.08
236.17	-28.84
236.388	-8.36
236.605	77.65
236.822	79.7
237.04	14.17
237.257	59.22
237.475	44.88
237.692	61.27
237.909	-0.17
238.127	-4.27
238.344	5.97
238.562	12.12
238.779	-0.17
238.996	24.4
239.214	32.6
239.431	3.93
239.648	40.79
239.865	75.6
240.083	85.84
240.3	24.4
240.517	-45.23
240.735	10.07
240.952	-4.27
241.169	69.46
241.386	-8.36
241.603	36.69
241.821	-0.17
242.038	77.65
242.255	-24.75
242.472	-77.99
242.689	18.26
242.907	57.17
243.124	8.02
243.341	53.08
243.558	-51.37
243.775	-10.41
243.992	-2.22
244.209	59.22
244.426	-4.27
244.643	79.7
244.86	-4.27
245.078	79.7
245.295	67.41
245.512	20.31
245.729	-4.27
245.946	22.36
246.163	36.69
246.38	5.97
246.597	12.12
246.814	44.88
247.031	18.26
247.248	51.03
247.464	-4.27
247.681	30.55
247.898	-4.27
248.115	10.07
248.332	61.27
248.549	94.04
248.766	26.45
248.983	73.56
249.2	-6.31
249.417	-8.36
249.633	44.88
249.85	67.41
250.067	1.88
250.284	32.6
250.501	28.5
250.717	36.69
250.934	-43.18
251.151	22.36
251.368	48.98
251.585	26.45
251.801	-14.51
252.018	-34.99
252.235	-16.55
252.451	57.17
252.668	-24.75
252.885	8.02
253.102	-63.66
253.318	63.32
253.535	-4.27
253.752	67.41
253.968	18.26
254.185	-96.43
254.401	-24.75
254.618	26.45
254.835	-65.71
255.051	48.98
255.268	73.56
255.484	59.22
255.701	18.26
255.917	24.4
256.134	-22.7
256.351	-6.31
256.567	20.31
256.784	53.08
257	-4.27
257.217	61.27
257.433	48.98
257.65	12.12
257.866	16.21
258.082	-32.94
258.299	18.26
258.515	-14.51
258.732	30.55
258.948	65.36
259.165	-4.27
259.381	42.84
259.597	-0.17
259.814	-6.31
260.03	-26.79
260.246	77.65
260.463	-6.31
260.679	12.12
260.895	22.36
261.112	85.84
261.328	8.02
261.544	96.08
261.761	61.27
261.977	12.12
262.193	-6.31
262.409	89.94
262.626	1.88
262.842	51.03
263.058	42.84
263.274	12.12
263.49	8.02
263.707	20.31
263.923	1.88
264.139	63.32
264.355	3.93
264.571	40.79
264.787	3.93
265.004	65.36
265.22	-37.03
265.436	77.65
265.652	-18.6
265.868	44.88
266.084	10.07
266.3	28.5
266.516	36.69
266.732	28.5
266.948	3.93
267.164	51.03
267.38	26.45
267.596	61.27
267.812	89.94
268.028	-14.51
268.244	10.07
268.46	38.74
268.676	40.79
268.892	53.08
269.108	36.69
269.324	-30.89
269.54	-14.51
269.756	75.6
269.972	-20.65
270.188	20.31
270.403	-16.55
270.619	65.36
270.835	20.31
271.051	48.98
271.267	-4.27
271.483	16.21
271.698	3.93
271.914	-4.27
272.13	53.08
272.346	-37.03
272.562	26.45
272.777	34.64
272.993	-14.51
273.209	-28.84
273.425	87.89
273.64	-61.61
273.856	5.97
274.072	108.37
274.287	12.12
274.503	63.32
274.719	20.31
274.934	22.36
275.15	16.21
275.366	-43.18
275.581	42.84
275.797	-39.08
276.012	-14.51
276.228	16.21
276.444	-34.99
276.659	26.45
276.875	5.97
277.09	18.26
277.306	3.93
277.521	57.17
277.737	-20.65
277.952	57.17
278.168	14.17
278.383	8.02
278.599	-16.55
278.814	-45.23
279.03	53.08
279.245	77.65
279.461	26.45
279.676	94.04
279.892	36.69
280.107	10.07
280.322	-30.89
280.538	18.26
280.753	16.21
280.969	40.79
281.184	36.69
281.399	48.98
281.615	-0.17
281.83	5.97
282.045	8.02
282.26	79.7
282.476	24.4
282.691	48.98
282.906	20.31
283.122	73.56
283.337	12.12
283.552	20.31
283.767	36.69
283.983	3.93
284.198	67.41
284.413	3.93
284.628	-37.03
284.843	3.93
285.058	-0.17
285.274	46.93
285.489	-24.75
285.704	36.69
285.919	55.12
286.134	-114.86
286.349	-12.46
286.564	1.88
286.779	-0.17
286.995	32.6
287.21	-30.89
287.425	116.56
287.64	10.07
287.855	12.12
288.07	3.93
288.285	69.46
288.5	46.93
288.715	75.6
288.93	34.64
289.145	-16.55
289.36	30.55
289.575	44.88
289.79	1.88
290.004	10.07
290.219	30.55
290.434	36.69
290.649	-28.84
290.864	-55.47
291.079	3.93
291.294	8.02
291.509	85.84
291.724	-12.46
291.938	8.02
292.153	36.69
292.368	-43.18
292.583	67.41
292.798	46.93
293.012	14.17
293.227	3.93
293.442	-47.27
293.657	5.97
293.871	102.23
294.086	12.12
294.301	126.8
294.516	40.79
294.73	20.31
294.945	-12.46
295.16	106.32
295.374	48.98
295.589	75.6
295.804	-14.51
296.018	65.36
296.233	12.12
296.447	12.12
296.662	-61.61
296.877	-4.27
297.091	61.27
297.306	-106.67
297.52	77.65
297.735	36.69
297.949	16.21
298.164	59.22
298.378	34.64
298.593	59.22
298.807	-4.27
299.022	1.88
299.236	63.32
299.451	36.69
299.665	16.21
299.88	14.17
300.094	75.6
300.309	26.45
300.523	85.84
300.737	-49.32
300.952	114.52
301.166	32.6
301.381	-84.14
301.595	-12.46
301.809	81.75
302.024	-30.89
302.238	-32.94
302.452	32.6
302.667	5.97
302.881	-4.27
303.095	57.17
303.309	79.7
303.524	-28.84
303.738	77.65
303.952	8.02
304.166	51.03
304.381	-127.14
304.595	22.36
304.809	12.12
305.023	91.99
305.237	-53.42
305.452	12.12
305.666	1.88
305.88	75.6
306.094	30.55
306.308	55.12
306.522	53.08
306.736	12.12
306.95	89.94
307.164	-41.13
307.379	24.4
307.593	89.94
307.807	3.93
308.021	-6.31
308.235	44.88
308.449	-22.7
308.663	-16.55
308.877	81.75
309.091	30.55
309.305	126.8
309.519	-61.61
309.733	-16.55
309.947	-20.65
310.161	75.6
310.374	-8.36
310.588	69.46
310.802	-2.22
311.016	-14.51
311.23	12.12
311.444	40.79
311.658	12.12
311.872	44.88
312.085	-0.17
312.299	44.88
312.513	34.64
312.727	26.45
312.941	-14.51
313.154	44.88
313.368	5.97
313.582	-8.36
313.796	32.6
314.009	65.36
314.223	53.08
314.437	12.12
314.651	18.26
314.864	18.26
315.078	-20.65
315.292	77.65
315.505	18.26
315.719	18.26
315.933	14.17
316.146	20.31
316.36	-12.46
316.573	36.69
316.787	-24.75
317.001	65.36
317.214	10.07
317.428	22.36
317.641	1.88
317.855	-20.65
318.068	59.22
318.282	-14.51
318.495	10.07
318.709	-4.27
318.922	51.03
319.136	42.84
319.349	51.03
319.563	-12.46
319.776	-4.27
319.99	40.79
320.203	18.26
320.417	34.64
320.63	36.69
320.843	106.32
321.057	57.17
321.27	42.84
321.483	8.02
321.697	79.7
321.91	36.69
322.124	12.12
322.337	87.89
322.55	12.12
322.763	5.97
322.977	77.65
323.19	3.93
323.403	-4.27
323.617	10.07
323.83	44.88
324.043	59.22
324.256	46.93
324.469	-6.31
324.683	34.64
324.896	16.21
325.109	30.55
325.322	10.07
325.535	20.31
325.748	20.31
325.962	79.7
326.175	20.31
326.388	5.97
326.601	61.27
326.814	3.93
327.027	40.79
327.24	106.32
327.453	-12.46
327.666	108.37
327.879	30.55
328.092	-2.22
328.305	22.36
328.518	53.08
328.731	14.17
328.944	-6.31
329.157	28.5
329.37	-22.7
329.583	65.36
329.796	79.7
330.009	3.93
330.222	-0.17
330.435	73.56
330.648	48.98
330.861	38.74
331.073	18.26
331.286	14.17
331.499	32.6
331.712	-14.51
331.925	8.02
332.138	-22.7
332.35	-12.46
332.563	-39.08
332.776	38.74
332.989	12.12
333.202	18.26
333.414	12.12
333.627	53.08
333.84	3.93
334.053	28.5
334.265	-45.23
334.478	24.4
334.691	-71.85
334.903	53.08
335.116	42.84
335.329	18.26
335.541	36.69
335.754	87.89
335.966	48.98
336.179	20.31
336.392	-0.17
336.604	42.84
336.817	81.75
337.029	22.36
337.242	1.88
337.454	102.23
337.667	3.93
337.88	30.55
338.092	53.08
338.305	106.32
338.517	44.88
338.729	79.7
338.942	32.6
339.154	-4.27
339.367	22.36
339.579	42.84
339.792	-32.94
340.004	20.31
340.217	-10.41
340.429	24.4
340.641	36.69
340.854	-0.17
341.066	57.17
341.278	44.88
341.491	-2.22
341.703	53.08
341.915	1.88
342.128	57.17
342.34	24.4
342.552	53.08
342.764	-4.27
342.977	122.71
343.189	-28.84
343.401	30.55
343.613	1.88
343.826	53.08
344.038	18.26
344.25	34.64
344.462	-47.27
344.674	-67.75
344.886	63.32
345.099	30.55
345.311	51.03
345.523	-8.36
345.735	-22.7
345.947	32.6
346.159	1.88
346.371	67.41
346.583	61.27
346.795	16.21
347.007	12.12
347.219	46.93
347.431	-30.89
347.643	40.79
347.855	42.84
348.067	30.55
348.279	40.79
348.491	3.93
348.703	20.31
348.915	20.31
349.127	32.6
349.339	26.45
349.551	34.64
349.763	53.08
349.975	34.64
350.187	104.28
350.399	40.79
350.61	67.41
350.822	28.5
351.034	46.93
351.246	42.84
351.458	10.07
351.669	-24.75
351.881	67.41
352.093	51.03
352.305	14.17
352.517	10.07
352.728	108.37
352.94	34.64
353.152	57.17
353.363	3.93
353.575	59.22
353.787	61.27
353.999	22.36
354.21	79.7
354.422	-0.17
354.633	5.97
354.845	44.88
355.057	-22.7
355.268	-10.41
355.48	24.4
355.692	-67.75
355.903	96.08
356.115	8.02
356.326	-43.18
356.538	38.74
356.749	12.12
356.961	120.66
357.172	-63.66
357.384	12.12
357.595	12.12
357.807	24.4
358.018	-51.37
358.23	104.28
358.441	36.69
358.653	-12.46
358.864	12.12
359.075	46.93
359.287	22.36
359.498	20.31
359.709	3.93
359.921	120.66
360.132	51.03
360.344	57.17
360.555	36.69
360.766	53.08
360.977	-0.17
361.189	120.66
361.4	26.45
361.611	59.22
361.823	18.26
362.034	34.64
362.245	-18.6
362.456	18.26
362.667	122.71
362.879	36.69
363.09	75.6
363.301	28.5
363.512	42.84
363.723	57.17
363.935	59.22
364.146	69.46
364.357	-10.41
364.568	22.36
364.779	10.07
364.99	85.84
365.201	14.17
365.412	94.04
365.623	18.26
365.834	73.56
366.045	-8.36
366.256	96.08
366.467	24.4
366.678	26.45
366.889	-4.27
367.1	-22.7
367.311	67.41
367.522	-6.31
367.733	44.88
367.944	5.97
368.155	-16.55
368.366	20.31
368.577	38.74
368.788	12.12
368.999	32.6
369.209	91.99
369.42	132.95
369.631	51.03
369.842	-55.47
370.053	42.84
370.264	24.4
370.474	20.31
370.685	32.6
370.896	-0.17
371.107	53.08
371.317	-39.08
371.528	61.27
371.739	106.32
371.95	-20.65
372.16	85.84
372.371	-0.17
372.582	44.88
372.792	106.32
373.003	85.84
373.214	26.45
373.424	48.98
373.635	-12.46
373.846	71.51
374.056	-26.79
374.267	75.6
374.477	32.6
374.688	77.65
374.898	20.31
375.109	85.84
375.319	71.51
375.53	91.99
375.74	106.32
375.951	85.84
376.161	91.99
376.372	34.64
376.582	79.7
376.793	102.23
377.003	14.17
377.214	59.22
377.424	-6.31
377.635	18.26
377.845	-4.27
378.055	106.32
378.266	34.64
378.476	24.4
378.686	34.64
378.897	44.88
379.107	79.7
379.317	48.98
379.528	-30.89
379.738	112.47
379.948	-14.51
380.158	91.99
380.369	-6.31
380.579	30.55
380.789	34.64
380.999	16.21
381.21	79.7
381.42	135
381.63	-22.7
381.84	63.32
382.05	61.27
382.261	71.51
382.471	61.27
382.681	63.32
382.891	108.37
383.101	53.08
383.311	-4.27
383.521	-6.31
383.731	34.64
383.941	42.84
384.151	48.98
384.361	24.4
384.571	34.64
384.781	18.26
384.991	26.45
385.201	116.56
385.411	3.93
385.621	89.94
385.831	63.32
386.041	65.36
386.251	94.04
386.461	130.9
386.671	81.75
386.881	55.12
387.091	128.85
387.301	26.45
387.511	51.03
387.72	38.74
387.93	34.64
388.14	-4.27
388.35	10.07
388.56	104.28
388.769	108.37
388.979	77.65
389.189	32.6
389.399	20.31
389.609	61.27
389.818	44.88
390.028	51.03
390.238	61.27
390.447	44.88
390.657	79.7
390.867	100.18
391.076	71.51
391.286	3.93
391.496	-22.7
391.705	51.03
391.915	96.08
392.125	18.26
392.334	108.37
392.544	22.36
392.753	91.99
392.963	100.18
393.172	85.84
393.382	20.31
393.591	42.84
393.801	-12.46
394.01	147.28
394.22	83.8
394.429	57.17
394.639	100.18
394.848	51.03
395.058	59.22
395.267	89.94
395.477	77.65
395.686	30.55
395.895	184.15
396.105	161.62
396.314	120.66
396.524	53.08
396.733	110.42
396.942	149.33
397.152	61.27
397.361	71.51
397.57	-20.65
397.78	34.64
397.989	85.84
398.198	135
398.407	83.8
398.617	38.74
398.826	40.79
399.035	108.37
399.244	83.8
399.453	120.66
399.663	135
399.872	73.56
400.081	46.93
400.29	100.18
400.499	53.08
400.708	114.52
400.917	110.42
401.127	75.6
401.336	46.93
401.545	132.95
401.754	96.08
401.963	51.03
402.172	61.27
402.381	126.8
402.59	110.42
402.799	51.03
403.008	132.95
403.217	87.89
403.426	79.7
403.635	20.31
403.844	104.28
404.053	94.04
404.262	48.98
404.471	175.95
404.68	116.56
404.888	155.47
405.097	137.04
405.306	10.07
405.515	141.14
405.724	155.47
405.933	165.71
406.142	110.42
406.35	202.58
406.559	173.91
406.768	143.19
406.977	153.43
407.185	180.05
407.394	192.34
407.603	126.8
407.812	227.15
408.02	151.38
408.229	151.38
408.438	206.67
408.646	147.28
408.855	233.3
409.064	223.06
409.272	286.54
409.481	210.77
409.69	143.19
409.898	155.47
410.107	257.87
410.315	264.02
410.524	147.28
410.733	216.91
410.941	307.02
411.15	315.22
411.358	300.88
411.567	384.85
411.775	257.87
411.984	360.27
412.192	413.52
412.401	311.12
412.609	337.74
412.818	411.47
413.026	409.42
413.234	397.14
413.443	444.24
413.651	431.95
413.86	464.72
414.068	499.53
414.276	497.49
414.485	532.3
414.693	606.03
414.901	589.64
415.11	489.29
415.318	526.16
415.526	567.12
415.734	616.27
415.943	626.51
416.151	730.95
416.359	694.09
416.567	640.84
416.776	630.6
416.984	769.87
417.192	759.63
417.4	833.35
417.608	769.87
417.817	843.59
418.025	919.37
418.233	933.7
418.441	898.89
418.649	929.61
418.857	1044.29
419.065	1052.49
419.273	1015.62
419.481	1036.1
419.689	1191.75
419.897	1148.74
420.105	1171.27
420.313	1201.99
420.521	1347.39
420.729	1328.96
420.937	1367.87
421.145	1392.45
421.353	1468.22
421.561	1525.57
421.769	1478.46
421.977	1675.07
422.185	1621.82
422.393	1707.84
422.601	1771.32
422.809	1832.76
423.017	1834.81
423.224	1849.15
423.432	2041.65
423.64	2027.32
423.848	2115.38
424.056	2117.43
424.263	2385.71
424.471	2142
424.679	2414.38
424.887	2424.62
425.094	2557.74
425.302	2631.47
425.51	2664.24
425.718	2690.86
425.925	2764.59
426.133	2834.22
426.341	3002.15
426.548	3047.21
426.756	3092.26
426.964	3174.18
427.171	3534.62
427.379	3354.4
427.586	3557.15
427.794	3632.93
428.001	3569.44
428.209	3966.74
428.417	3854.11
428.624	4267.8
428.832	4003.61
429.039	4183.83
429.247	4120.34
429.454	4495.12
429.662	4935.43
429.869	4488.98
430.076	4828.94
430.284	4714.25
430.491	4816.65
430.699	5089.03
430.906	5189.38
431.114	5216.01
431.321	5564.16
431.528	5363.46
431.736	5961.47
431.943	6090.49
432.15	6016.76
432.358	6049.53
432.565	6526.71
432.772	6487.79
432.979	6655.73
433.187	6821.61
433.394	6770.41
433.601	7182.06
433.808	7276.26
434.016	7180.01
434.223	7423.72
434.43	7939.8
434.637	7671.52
434.844	8128.22
435.052	8503
435.259	8466.13
435.466	8568.53
435.673	8376.02
435.88	9012.94
436.087	9164.49
436.294	9555.65
436.501	9227.98
436.708	9430.73
436.915	9694.91
437.122	10106.56
437.329	10018.49
437.537	10319.54
437.743	10630.84
437.95	10555.06
438.157	11058.86
438.364	11394.73
438.571	11454.12
438.778	11464.36
438.985	12480.15
439.192	12033.69
439.399	12375.7
439.606	12060.32
439.813	12740.24
440.02	13647.49
440.227	13477.51
440.433	13135.5
440.64	13622.92
440.847	13407.88
441.054	13993.6
441.261	15015.54
441.467	14671.48
441.674	14964.34
441.881	15537.77
442.088	15513.19
442.294	15259.24
442.501	15685.22
442.708	15986.27
442.914	16623.19
443.121	17317.45
443.328	16909.91
443.534	18017.86
443.741	17616.46
443.948	17206.86
444.154	18486.84
444.361	18445.88
444.568	18632.25
444.774	18615.87
444.981	18484.8
445.187	19209.78
445.394	20186.66
445.6	19988
445.807	21917.19
446.013	20805.14
446.22	21288.46
446.426	22257.15
446.633	22246.91
446.839	22906.36
447.046	21978.63
447.252	23019
447.459	23330.29
447.665	23006.71
447.871	24126.95
448.078	25167.32
448.284	24075.75
448.491	24430.05
448.697	25175.51
448.903	25882.06
449.11	25894.35
449.316	25664.97
449.522	26146.25
449.728	26742.21
449.935	26990.01
450.141	26928.57
450.347	27336.12
450.553	26691.01
450.76	27053.5
450.966	27690.41
451.172	27360.69
451.378	27979.18
451.584	27596.21
451.791	28069.29
451.997	28446.12
452.203	28634.53
452.409	28218.79
452.615	28587.43
452.821	27291.06
453.027	26957.24
453.233	28249.51
453.44	27102.65
453.646	27442.61
453.852	27657.65
454.058	27923.88
454.264	27293.11
454.47	27565.49
454.676	26965.43
454.882	27942.31
455.088	25572.82
455.294	25935.31
455.5	26205.64
455.705	26731.97
455.911	25529.81
456.117	24849.88
456.323	24524.26
456.529	23129.59
456.735	23987.69
456.941	23729.64
457.147	22820.35
457.352	22515.2
457.558	22322.69
457.764	22017.54
457.97	21560.84
458.176	21315.09
458.381	21116.44
458.587	20129.31
458.793	20119.07
458.999	19295.79
459.204	20581.92
459.41	20039.2
459.616	18781.75
459.821	18689.59
460.027	18669.11
460.233	18118.21
460.438	17614.41
460.644	17571.4
460.85	16737.88
461.055	16799.32
461.261	16258.65
461.466	15267.44
461.672	14628.47
461.878	16043.62
462.083	14706.29
462.289	14462.58
462.494	14423.67
462.7	13854.34
462.905	13301.39
463.111	13870.72
463.316	13811.33
463.522	13641.35
463.727	13452.94
463.932	13586.05
464.138	13549.19
464.343	13549.19
464.549	13198.99
464.754	13702.79
464.959	13475.46
465.165	13153.93
465.37	13088.4
465.575	12494.49
465.781	13000.33
465.986	13061.77
466.191	12543.64
466.397	12527.25
466.602	11712.16
466.807	12291.74
467.012	12279.45
467.218	12242.59
467.423	11916.96
467.628	12222.11
