Data from USB4F104151__194__10-29-27-186.txt Node

Date: Wed Mar 12 10:29:27 EDT 2025
User: louis
Spectrometer: USB4F10415
Trigger mode: 4
Integration Time (sec): 3.000000E-2
Scans to average: 1
Electric dark correction enabled: true
Nonlinearity correction enabled: false
Boxcar width: 0
XAxis mode: Wavelengths
Number of Pixels in Spectrum: 3648
>>>>>Begin Spectral Data<<<<<
178.204	-163.5
178.424	-163.5
178.644	-163.5
178.864	-145.06
179.084	-50.86
179.304	-36.52
179.524	-81.58
179.744	20.82
179.964	96.6
180.184	39.25
180.404	-11.95
180.624	-28.33
180.844	37.2
181.064	-13.99
181.283	31.06
181.503	-9.9
181.723	-42.67
181.943	-54.95
182.163	35.16
182.383	-22.19
182.602	106.84
182.822	55.64
183.042	12.63
183.262	53.59
183.482	74.07
183.701	45.4
183.921	55.64
184.141	-9.9
184.361	37.2
184.58	86.36
184.8	18.77
185.02	31.06
185.239	49.49
185.459	63.83
185.679	12.63
185.898	47.44
186.118	104.79
186.338	-11.95
186.557	37.2
186.777	37.2
186.997	22.87
187.216	-26.28
187.436	115.03
187.655	65.88
187.875	98.64
188.095	63.83
188.314	55.64
188.534	112.98
188.753	10.58
188.973	104.79
189.192	59.73
189.412	10.58
189.631	51.54
189.851	20.82
190.07	84.31
190.29	41.3
190.509	45.4
190.729	14.68
190.948	96.6
191.168	69.97
191.387	92.5
191.607	47.44
191.826	84.31
192.045	41.3
192.265	43.35
192.484	-11.95
192.704	8.53
192.923	-30.38
193.142	76.12
193.362	96.6
193.581	100.69
193.8	8.53
194.02	6.49
194.239	90.45
194.458	45.4
194.678	0.34
194.897	24.92
195.116	41.3
195.335	61.78
195.555	45.4
195.774	14.68
195.993	57.68
196.212	76.12
196.432	65.88
196.651	84.31
196.87	84.31
197.089	96.6
197.308	31.06
197.528	92.5
197.747	-9.9
197.966	6.49
198.185	80.21
198.404	-48.81
198.623	65.88
198.842	74.07
199.062	12.63
199.281	74.07
199.5	72.02
199.719	59.73
199.938	86.36
200.157	14.68
200.376	12.63
200.595	72.02
200.814	45.4
201.033	61.78
201.252	55.64
201.471	53.59
201.69	104.79
201.909	57.68
202.128	72.02
202.347	59.73
202.566	106.84
202.785	51.54
203.004	-3.75
203.223	51.54
203.442	51.54
203.661	55.64
203.879	63.83
204.098	2.39
204.317	12.63
204.536	100.69
204.755	10.58
204.974	78.16
205.193	104.79
205.411	24.92
205.63	37.2
205.849	47.44
206.068	49.49
206.287	35.16
206.505	39.25
206.724	45.4
206.943	53.59
207.162	6.49
207.381	-34.47
207.599	39.25
207.818	53.59
208.037	-22.19
208.255	22.87
208.474	69.97
208.693	78.16
208.911	24.92
209.13	18.77
209.349	49.49
209.567	-24.23
209.786	104.79
210.005	26.96
210.223	69.97
210.442	49.49
210.661	45.4
210.879	80.21
211.098	121.17
211.316	61.78
211.535	80.21
211.753	26.96
211.972	26.96
212.191	29.01
212.409	14.68
212.628	47.44
212.846	55.64
213.065	72.02
213.283	76.12
213.502	69.97
213.72	80.21
213.938	51.54
214.157	123.22
214.375	24.92
214.594	-28.33
214.812	57.68
215.031	-9.9
215.249	100.69
215.467	102.74
215.686	20.82
215.904	-13.99
216.122	112.98
216.341	35.16
216.559	63.83
216.778	39.25
216.996	96.6
217.214	90.45
217.432	14.68
217.651	67.92
217.869	33.11
218.087	88.4
218.306	-34.47
218.524	100.69
218.742	80.21
218.96	112.98
219.179	86.36
219.397	-11.95
219.615	129.36
219.833	-11.95
220.051	-32.43
220.27	92.5
220.488	29.01
220.706	47.44
220.924	61.78
221.142	61.78
221.36	26.96
221.578	20.82
221.796	76.12
222.015	43.35
222.233	74.07
222.451	80.21
222.669	-30.38
222.887	57.68
223.105	20.82
223.323	8.53
223.541	31.06
223.759	49.49
223.977	49.49
224.195	65.88
224.413	80.21
224.631	51.54
224.849	-11.95
225.067	6.49
225.285	78.16
225.503	72.02
225.721	-30.38
225.939	10.58
226.157	24.92
226.375	129.36
226.592	37.2
226.81	80.21
227.028	88.4
227.246	78.16
227.464	47.44
227.682	10.58
227.9	123.22
228.117	59.73
228.335	59.73
228.553	43.35
228.771	80.21
228.989	90.45
229.206	90.45
229.424	-3.75
229.642	53.59
229.86	18.77
230.077	100.69
230.295	94.55
230.513	127.32
230.731	76.12
230.948	104.79
231.166	115.03
231.384	45.4
231.601	78.16
231.819	127.32
232.037	82.26
232.254	18.77
232.472	51.54
232.689	108.88
232.907	14.68
233.125	22.87
233.342	10.58
233.56	76.12
233.777	47.44
233.995	37.2
234.213	143.7
234.43	74.07
234.648	57.68
234.865	47.44
235.083	78.16
235.3	61.78
235.518	10.58
235.735	65.88
235.953	123.22
236.17	47.44
236.388	88.4
236.605	92.5
236.822	47.44
237.04	26.96
237.257	-1.71
237.475	37.2
237.692	45.4
237.909	84.31
238.127	119.12
238.344	51.54
238.562	55.64
238.779	74.07
238.996	-7.85
239.214	100.69
239.431	29.01
239.648	112.98
239.865	84.31
240.083	78.16
240.3	16.73
240.517	88.4
240.735	33.11
240.952	84.31
241.169	-24.23
241.386	67.92
241.603	10.58
241.821	-71.34
242.038	43.35
242.255	22.87
242.472	45.4
242.689	45.4
242.907	63.83
243.124	63.83
243.341	67.92
243.558	57.68
243.775	67.92
243.992	84.31
244.209	67.92
244.426	88.4
244.643	65.88
244.86	29.01
245.078	108.88
245.295	53.59
245.512	61.78
245.729	26.96
245.946	51.54
246.163	96.6
246.38	35.16
246.597	43.35
246.814	49.49
247.031	-28.33
247.248	8.53
247.464	37.2
247.681	35.16
247.898	29.01
248.115	22.87
248.332	51.54
248.549	112.98
248.766	108.88
248.983	18.77
249.2	22.87
249.417	37.2
249.633	61.78
249.85	135.51
250.067	133.46
250.284	18.77
250.501	94.55
250.717	8.53
250.934	45.4
251.151	49.49
251.368	92.5
251.585	63.83
251.801	41.3
252.018	74.07
252.235	82.26
252.451	115.03
252.668	74.07
252.885	-9.9
253.102	131.41
253.318	29.01
253.535	125.27
253.752	-26.28
253.968	26.96
254.185	-22.19
254.401	39.25
254.618	37.2
254.835	31.06
255.051	65.88
255.268	76.12
255.484	55.64
255.701	65.88
255.917	104.79
256.134	39.25
256.351	59.73
256.567	14.68
256.784	76.12
257	-5.8
257.217	22.87
257.433	80.21
257.65	84.31
257.866	43.35
258.082	10.58
258.299	88.4
258.515	80.21
258.732	-16.04
258.948	108.88
259.165	72.02
259.381	61.78
259.597	29.01
259.814	166.23
260.03	8.53
260.246	14.68
260.463	92.5
260.679	43.35
260.895	100.69
261.112	49.49
261.328	86.36
261.544	37.2
261.761	86.36
261.977	76.12
262.193	8.53
262.409	10.58
262.626	92.5
262.842	33.11
263.058	-1.71
263.274	63.83
263.49	4.44
263.707	51.54
263.923	55.64
264.139	47.44
264.355	55.64
264.571	86.36
264.787	90.45
265.004	110.93
265.22	41.3
265.436	-9.9
265.652	59.73
265.868	63.83
266.084	88.4
266.3	86.36
266.516	-13.99
266.732	129.36
266.948	-1.71
267.164	76.12
267.38	61.78
267.596	96.6
267.812	108.88
268.028	31.06
268.244	84.31
268.46	47.44
268.676	69.97
268.892	-3.75
269.108	35.16
269.324	45.4
269.54	65.88
269.756	26.96
269.972	-5.8
270.188	65.88
270.403	29.01
270.619	14.68
270.835	35.16
271.051	76.12
271.267	37.2
271.483	55.64
271.698	119.12
271.914	29.01
272.13	88.4
272.346	22.87
272.562	53.59
272.777	108.88
272.993	59.73
273.209	86.36
273.425	24.92
273.64	29.01
273.856	96.6
274.072	108.88
274.287	98.64
274.503	94.55
274.719	69.97
274.934	94.55
275.15	10.58
275.366	84.31
275.581	69.97
275.797	76.12
276.012	35.16
276.228	20.82
276.444	78.16
276.659	31.06
276.875	24.92
277.09	112.98
277.306	-9.9
277.521	76.12
277.737	67.92
277.952	51.54
278.168	61.78
278.383	16.73
278.599	47.44
278.814	137.56
279.03	37.2
279.245	22.87
279.461	39.25
279.676	98.64
279.892	22.87
280.107	-46.76
280.322	-13.99
280.538	18.77
280.753	35.16
280.969	104.79
281.184	65.88
281.399	100.69
281.615	24.92
281.83	112.98
282.045	41.3
282.26	26.96
282.476	115.03
282.691	72.02
282.906	72.02
283.122	151.89
283.337	82.26
283.552	104.79
283.767	-36.52
283.983	100.69
284.198	2.39
284.413	72.02
284.628	10.58
284.843	92.5
285.058	96.6
285.274	-5.8
285.489	33.11
285.704	31.06
285.919	39.25
286.134	10.58
286.349	72.02
286.564	-18.09
286.779	166.23
286.995	94.55
287.21	37.2
287.425	14.68
287.64	6.49
287.855	104.79
288.07	39.25
288.285	61.78
288.5	80.21
288.715	53.59
288.93	39.25
289.145	84.31
289.36	24.92
289.575	43.35
289.79	80.21
290.004	39.25
290.219	67.92
290.434	16.73
290.649	22.87
290.864	84.31
291.079	80.21
291.294	84.31
291.509	43.35
291.724	37.2
291.938	63.83
292.153	-13.99
292.368	-5.8
292.583	53.59
292.798	-1.71
293.012	24.92
293.227	80.21
293.442	61.78
293.657	-3.75
293.871	31.06
294.086	-22.19
294.301	74.07
294.516	72.02
294.73	2.39
294.945	10.58
295.16	82.26
295.374	41.3
295.589	127.32
295.804	-13.99
296.018	2.39
296.233	88.4
296.447	65.88
296.662	121.17
296.877	90.45
297.091	51.54
297.306	106.84
297.52	57.68
297.735	63.83
297.949	67.92
298.164	84.31
298.378	45.4
298.593	41.3
298.807	-13.99
299.022	88.4
299.236	80.21
299.451	61.78
299.665	-3.75
299.88	123.22
300.094	31.06
300.309	8.53
300.523	102.74
300.737	33.11
300.952	57.68
301.166	45.4
301.381	76.12
301.595	72.02
301.809	149.84
302.024	74.07
302.238	41.3
302.452	117.08
302.667	6.49
302.881	155.99
303.095	6.49
303.309	69.97
303.524	24.92
303.738	51.54
303.952	41.3
304.166	55.64
304.381	6.49
304.595	84.31
304.809	37.2
305.023	72.02
305.237	65.88
305.452	31.06
305.666	82.26
305.88	55.64
306.094	94.55
306.308	127.32
306.522	63.83
306.736	18.77
306.95	55.64
307.164	-13.99
307.379	55.64
307.593	22.87
307.807	102.74
308.021	31.06
308.235	80.21
308.449	2.39
308.663	59.73
308.877	76.12
309.091	39.25
309.305	72.02
309.519	72.02
309.733	106.84
309.947	4.44
310.161	72.02
310.374	82.26
310.588	67.92
310.802	-42.67
311.016	10.58
311.23	88.4
311.444	72.02
311.658	115.03
311.872	94.55
312.085	137.56
312.299	96.6
312.513	61.78
312.727	37.2
312.941	72.02
313.154	45.4
313.368	78.16
313.582	84.31
313.796	88.4
314.009	22.87
314.223	45.4
314.437	96.6
314.651	45.4
314.864	65.88
315.078	47.44
315.292	-24.23
315.505	125.27
315.719	100.69
315.933	55.64
316.146	37.2
316.36	45.4
316.573	100.69
316.787	43.35
317.001	53.59
317.214	-11.95
317.428	14.68
317.641	43.35
317.855	39.25
318.068	-22.19
318.282	145.75
318.495	110.93
318.709	41.3
318.922	-3.75
319.136	47.44
319.349	133.46
319.563	61.78
319.776	104.79
319.99	88.4
320.203	16.73
320.417	39.25
320.63	55.64
320.843	90.45
321.057	65.88
321.27	29.01
321.483	69.97
321.697	33.11
321.91	-3.75
322.124	98.64
322.337	84.31
322.55	69.97
322.763	117.08
322.977	104.79
323.19	43.35
323.403	45.4
323.617	108.88
323.83	33.11
324.043	37.2
324.256	65.88
324.469	-3.75
324.683	63.83
324.896	80.21
325.109	0.34
325.322	35.16
325.535	59.73
325.748	88.4
325.962	6.49
326.175	10.58
326.388	96.6
326.601	149.84
326.814	78.16
327.027	59.73
327.24	84.31
327.453	4.44
327.666	80.21
327.879	129.36
328.092	92.5
328.305	104.79
328.518	69.97
328.731	53.59
328.944	-40.62
329.157	112.98
329.37	12.63
329.583	117.08
329.796	53.59
330.009	102.74
330.222	31.06
330.435	47.44
330.648	-3.75
330.861	41.3
331.073	80.21
331.286	112.98
331.499	94.55
331.712	63.83
331.925	98.64
332.138	20.82
332.35	100.69
332.563	18.77
332.776	96.6
332.989	22.87
333.202	74.07
333.414	20.82
333.627	72.02
333.84	26.96
334.053	16.73
334.265	33.11
334.478	102.74
334.691	82.26
334.903	26.96
335.116	119.12
335.329	86.36
335.541	78.16
335.754	149.84
335.966	26.96
336.179	37.2
336.392	-1.71
336.604	102.74
336.817	96.6
337.029	33.11
337.242	31.06
337.454	61.78
337.667	-44.71
337.88	98.64
338.092	-26.28
338.305	155.99
338.517	63.83
338.729	67.92
338.942	47.44
339.154	61.78
339.367	84.31
339.579	82.26
339.792	45.4
340.004	59.73
340.217	108.88
340.429	84.31
340.641	47.44
340.854	41.3
341.066	63.83
341.278	88.4
341.491	100.69
341.703	110.93
341.915	69.97
342.128	63.83
342.34	49.49
342.552	29.01
342.764	69.97
342.977	47.44
343.189	90.45
343.401	69.97
343.613	63.83
343.826	61.78
344.038	35.16
344.25	31.06
344.462	39.25
344.674	80.21
344.886	92.5
345.099	96.6
345.311	55.64
345.523	4.44
345.735	69.97
345.947	78.16
346.159	47.44
346.371	22.87
346.583	96.6
346.795	69.97
347.007	-18.09
347.219	112.98
347.431	59.73
347.643	82.26
347.855	76.12
348.067	76.12
348.279	43.35
348.491	96.6
348.703	106.84
348.915	102.74
349.127	20.82
349.339	35.16
349.551	18.77
349.763	67.92
349.975	90.45
350.187	63.83
350.399	104.79
350.61	53.59
350.822	119.12
351.034	96.6
351.246	61.78
351.458	80.21
351.669	115.03
351.881	76.12
352.093	115.03
352.305	143.7
352.517	100.69
352.728	37.2
352.94	61.78
353.152	106.84
353.363	90.45
353.575	94.55
353.787	119.12
353.999	67.92
354.21	26.96
354.422	33.11
354.633	29.01
354.845	37.2
355.057	74.07
355.268	76.12
355.48	112.98
355.692	67.92
355.903	55.64
356.115	63.83
356.326	47.44
356.538	96.6
356.749	84.31
356.961	133.46
357.172	-16.04
357.384	72.02
357.595	127.32
357.807	74.07
358.018	100.69
358.23	76.12
358.441	84.31
358.653	86.36
358.864	45.4
359.075	45.4
359.287	84.31
359.498	84.31
359.709	6.49
359.921	59.73
360.132	67.92
360.344	115.03
360.555	96.6
360.766	78.16
360.977	-11.95
361.189	174.42
361.4	88.4
361.611	76.12
361.823	94.55
362.034	61.78
362.245	51.54
362.456	67.92
362.667	106.84
362.879	69.97
363.09	78.16
363.301	110.93
363.512	57.68
363.723	55.64
363.935	67.92
364.146	117.08
364.357	20.82
364.568	18.77
364.779	106.84
364.99	106.84
365.201	22.87
365.412	41.3
365.623	37.2
365.834	74.07
366.045	69.97
366.256	63.83
366.467	104.79
366.678	96.6
366.889	78.16
367.1	57.68
367.311	84.31
367.522	51.54
367.733	162.13
367.944	53.59
368.155	-13.99
368.366	55.64
368.577	47.44
368.788	121.17
368.999	76.12
369.209	55.64
369.42	76.12
369.631	178.51
369.842	35.16
370.053	43.35
370.264	186.71
370.474	57.68
370.685	98.64
370.896	80.21
371.107	47.44
371.317	29.01
371.528	69.97
371.739	69.97
371.95	129.36
372.16	47.44
372.371	-13.99
372.582	94.55
372.792	72.02
373.003	112.98
373.214	69.97
373.424	104.79
373.635	92.5
373.846	110.93
374.056	61.78
374.267	141.65
374.477	84.31
374.688	59.73
374.898	6.49
375.109	84.31
375.319	20.82
375.53	141.65
375.74	139.6
375.951	53.59
376.161	63.83
376.372	82.26
376.582	92.5
376.793	117.08
377.003	92.5
377.214	53.59
377.424	45.4
377.635	94.55
377.845	39.25
378.055	141.65
378.266	-1.71
378.476	117.08
378.686	76.12
378.897	133.46
379.107	96.6
379.317	164.18
379.528	110.93
379.738	80.21
379.948	41.3
380.158	123.22
380.369	84.31
380.579	78.16
380.789	82.26
380.999	112.98
381.21	102.74
381.42	119.12
381.63	-9.9
381.84	104.79
382.05	80.21
382.261	37.2
382.471	69.97
382.681	65.88
382.891	129.36
383.101	92.5
383.311	106.84
383.521	63.83
383.731	92.5
383.941	84.31
384.151	110.93
384.361	31.06
384.571	80.21
384.781	65.88
384.991	49.49
385.201	145.75
385.411	39.25
385.621	119.12
385.831	35.16
386.041	117.08
386.251	151.89
386.461	90.45
386.671	119.12
386.881	129.36
387.091	72.02
387.301	84.31
387.511	117.08
387.72	137.56
387.93	110.93
388.14	43.35
388.35	76.12
388.56	149.84
388.769	31.06
388.979	84.31
389.189	102.74
389.399	127.32
389.609	88.4
389.818	106.84
390.028	94.55
390.238	55.64
390.447	127.32
390.657	86.36
390.867	37.2
391.076	47.44
391.286	131.41
391.496	112.98
391.705	123.22
391.915	158.03
392.125	78.16
392.334	100.69
392.544	129.36
392.753	63.83
392.963	-26.28
393.172	108.88
393.382	92.5
393.591	88.4
393.801	10.58
394.01	117.08
394.22	117.08
394.429	164.18
394.639	86.36
394.848	131.41
395.058	112.98
395.267	96.6
395.477	115.03
395.686	127.32
395.895	176.47
396.105	143.7
396.314	153.94
396.524	166.23
396.733	160.08
396.942	125.27
397.152	112.98
397.361	141.65
397.57	143.7
397.78	196.95
397.989	151.89
398.198	239.95
398.407	133.46
398.617	127.32
398.826	158.03
399.035	82.26
399.244	192.85
399.453	149.84
399.663	153.94
399.872	129.36
400.081	119.12
400.29	205.14
400.499	194.9
400.708	211.28
400.917	139.6
401.127	88.4
401.336	170.32
401.545	254.29
401.754	203.09
401.963	203.09
402.172	209.23
402.381	164.18
402.59	203.09
402.799	131.41
403.008	158.03
403.217	198.99
403.426	141.65
403.635	162.13
403.844	137.56
404.053	137.56
404.262	170.32
404.471	215.38
404.68	248.15
404.888	239.95
405.097	92.5
405.306	237.91
405.515	215.38
405.724	266.58
405.933	158.03
406.142	289.1
406.35	244.05
406.559	280.91
406.768	213.33
406.977	237.91
407.185	364.88
407.394	289.1
407.603	260.43
407.812	260.43
408.02	379.22
408.229	289.1
408.438	325.97
408.646	313.68
408.855	309.58
409.064	340.3
409.272	311.63
409.481	344.4
409.69	352.59
409.898	366.93
410.107	301.39
410.315	434.51
410.524	487.76
410.733	469.33
410.941	371.02
411.15	530.77
411.358	481.61
411.567	551.24
411.775	512.33
411.984	551.24
412.192	545.1
412.401	659.79
412.609	659.79
412.818	686.41
413.026	563.53
413.234	631.12
413.443	674.12
413.651	717.13
413.86	803.15
414.068	717.13
414.276	794.95
414.485	821.58
414.693	880.97
414.901	903.5
415.11	960.84
415.318	1016.13
415.526	983.37
415.734	1116.48
415.943	997.7
416.151	1110.34
416.359	1128.77
416.567	1182.02
416.776	1253.7
416.984	1233.22
417.192	1259.84
417.4	1304.9
417.608	1227.07
417.817	1288.51
418.025	1390.91
418.233	1558.85
418.441	1511.74
418.649	1677.63
418.857	1755.45
419.065	1743.16
419.273	1702.2
419.481	1792.31
419.689	1898.81
419.897	2066.74
420.105	2052.41
420.313	2070.84
420.521	2033.97
420.729	2216.24
420.937	2212.15
421.145	2392.37
421.353	2449.71
421.561	2509.1
421.769	2634.03
421.977	2699.56
422.185	2763.05
422.393	2900.27
422.601	2945.32
422.809	2941.22
423.017	2992.42
423.224	3270.95
423.432	3344.67
423.64	3361.06
423.848	3725.6
424.056	3531.04
424.263	3854.62
424.471	3791.13
424.679	4012.31
424.887	4020.5
425.094	4237.59
425.302	4311.32
425.51	4397.33
425.718	4454.67
425.925	4690.19
426.133	4688.14
426.341	5050.63
426.548	5230.85
426.756	5171.46
426.964	5347.59
427.171	5509.38
427.379	5560.58
427.586	5933.31
427.794	5982.46
428.001	6252.79
428.209	6492.4
428.417	6510.83
428.624	6854.89
428.832	7088.36
429.039	6789.36
429.247	6967.53
429.454	7467.24
429.662	8085.72
429.869	7475.43
430.076	8141.02
430.284	7690.46
430.491	8063.19
430.699	8712.4
430.906	8491.22
431.114	8863.95
431.321	9097.42
431.528	9191.63
431.736	9590.98
431.943	10213.56
432.15	9894.08
432.358	10295.48
432.565	10522.8
432.772	10453.17
432.979	11231.4
433.187	11337.9
433.394	11327.66
433.601	12015.77
433.808	12165.28
434.016	11874.46
434.223	12726.42
434.43	13545.61
434.637	13060.24
434.844	14065.79
435.052	14293.12
435.259	13936.77
435.466	14370.94
435.673	13787.27
435.88	15100.01
436.087	15915.11
436.294	15796.32
436.501	15591.53
436.708	15843.43
436.915	16261.21
437.122	17199.18
437.329	16846.93
437.537	17299.53
437.743	17973.32
437.95	17868.87
438.157	18722.87
438.364	19253.3
438.571	19394.61
438.778	19284.02
438.985	20975.64
439.192	20193.31
439.399	20881.43
439.606	20686.87
439.813	21481.49
440.02	23142.39
440.227	22456.32
440.433	22210.56
440.64	23115.76
440.847	22646.78
441.054	23867.37
441.261	25075.67
441.467	24717.28
441.674	25403.35
441.881	25995.21
442.088	26167.24
442.294	25513.94
442.501	26476.48
442.708	26757.05
442.914	28215.21
443.121	28979.1
443.328	28166.06
443.534	30082.95
443.741	29728.66
443.948	28970.91
444.154	31399.8
444.361	31000.44
444.568	31582.07
444.774	31240.06
444.981	31668.08
445.187	32583.52
445.394	34135.88
445.6	33689.43
445.807	36618.02
446.013	35071.81
446.22	35651.38
446.426	36822.82
446.633	37177.12
446.839	38332.17
447.046	36849.44
447.252	38866.69
447.459	38805.25
447.665	38618.89
447.871	40240.88
448.078	42348.24
448.284	40337.13
448.491	41135.84
448.697	42634.95
448.903	43568.83
449.11	43456.19
449.316	42663.63
449.522	43417.28
449.728	44736.17
449.935	44953.26
450.141	44879.53
450.347	45596.32
450.553	44355.25
450.76	44779.18
450.966	46392.98
451.172	45811.35
451.378	46515.86
451.584	45899.42
451.791	47242.88
451.997	46759.56
452.203	47572.61
452.409	47638.14
452.615	47210.12
452.821	45686.43
453.027	44773.03
453.233	47267.46
453.44	45498.02
453.646	46067.35
453.852	46329.49
454.058	47124.1
454.264	45637.28
454.47	45905.56
454.676	45166.24
454.882	46528.14
455.088	42739.4
455.294	43654.84
455.5	43316.93
455.705	44248.75
455.911	42680.01
456.117	41770.71
456.323	40974.05
456.529	39034.63
456.735	40779.5
456.941	39898.87
457.147	38702.85
457.352	37848.85
457.558	37209.89
457.764	37404.44
457.97	36630.31
458.176	36048.69
458.381	35749.68
458.587	34352.97
458.793	34037.58
458.999	32587.62
459.204	34684.74
459.41	33765.2
459.616	31231.86
459.821	31500.15
460.027	31686.51
460.233	30709.63
460.438	29065.11
460.644	29566.87
460.85	28344.23
461.055	27934.64
461.261	27658.16
461.466	25771.98
461.672	24414.18
461.878	26929.08
462.083	24926.17
462.289	24358.88
462.494	24303.59
462.7	23230.45
462.905	22452.22
463.111	23685.1
463.316	23611.37
463.522	22913.02
463.727	22892.54
463.932	22833.14
464.138	22626.3
464.343	22683.64
464.549	22265.86
464.754	23029.75
464.959	22783.99
465.165	22589.44
465.37	21735.43
465.575	21059.6
465.781	21817.35
465.986	22073.35
466.191	21401.61
466.397	20752.41
466.602	19871.78
