Data from USB4F104151__141__10-26-26-480.txt Node

Date: Wed Mar 12 10:26:26 EDT 2025
User: louis
Spectrometer: USB4F10415
Trigger mode: 4
Integration Time (sec): 3.000000E-2
Scans to average: 1
Electric dark correction enabled: true
Nonlinearity correction enabled: false
Boxcar width: 0
XAxis mode: Wavelengths
Number of Pixels in Spectrum: 3648
>>>>>Begin Spectral Data<<<<<
178.204	-73.21
178.424	-73.21
178.644	-73.21
178.864	-108.03
179.084	-54.78
179.304	-54.78
179.524	-46.59
179.744	68.09
179.964	-19.97
180.184	2.56
180.404	23.04
180.624	53.76
180.844	-36.35
181.064	-44.54
181.283	10.75
181.503	-17.92
181.723	61.95
181.943	-32.26
182.163	90.62
182.383	6.66
182.602	37.38
182.822	74.24
183.042	35.33
183.262	-3.58
183.482	84.48
183.701	25.09
183.921	45.57
184.141	16.9
184.361	72.19
184.58	78.33
184.8	66.05
185.02	-24.06
185.239	37.38
185.459	16.9
185.679	88.57
185.898	-38.4
186.118	70.14
186.338	45.57
186.557	96.77
186.777	-22.02
186.997	23.04
187.216	14.85
187.436	172.54
187.655	-56.83
187.875	-11.78
188.095	12.8
188.314	57.86
188.534	90.62
188.753	8.7
188.973	64
189.192	45.57
189.412	66.05
189.631	82.43
189.851	61.95
190.07	31.23
190.29	-38.4
190.509	37.38
190.729	-34.3
190.948	29.18
191.168	135.68
191.387	16.9
191.607	-26.11
191.826	23.04
192.045	-30.21
192.265	49.66
192.484	16.9
192.704	-11.78
192.923	-32.26
193.142	90.62
193.362	37.38
193.581	55.81
193.8	-62.98
194.02	47.62
194.239	0.51
194.458	125.44
194.678	16.9
194.897	0.51
195.116	141.82
195.335	57.86
195.555	-13.82
195.774	55.81
195.993	18.94
196.212	20.99
196.432	72.19
196.651	23.04
196.87	16.9
197.089	86.53
197.308	33.28
197.528	74.24
197.747	10.75
197.966	-24.06
198.185	57.86
198.404	98.81
198.623	76.29
198.842	57.86
199.062	-7.68
199.281	70.14
199.5	-7.68
199.719	45.57
199.938	14.85
200.157	45.57
200.376	-1.54
200.595	57.86
200.814	70.14
201.033	-11.78
201.252	86.53
201.471	66.05
201.69	76.29
201.909	84.48
202.128	125.44
202.347	57.86
202.566	43.52
202.785	-1.54
203.004	-9.73
203.223	57.86
203.442	-5.63
203.661	-1.54
203.879	68.09
204.098	39.42
204.317	27.14
204.536	88.57
204.755	31.23
204.974	41.47
205.193	61.95
205.411	131.58
205.63	8.7
205.849	14.85
206.068	-11.78
206.287	57.86
206.505	66.05
206.724	-5.63
206.943	18.94
207.162	2.56
207.381	49.66
207.599	64
207.818	98.81
208.037	139.77
208.255	66.05
208.474	49.66
208.693	57.86
208.911	29.18
209.13	84.48
209.349	37.38
209.567	27.14
209.786	57.86
210.005	47.62
210.223	2.56
210.442	-17.92
210.661	90.62
210.879	-50.69
211.098	78.33
211.316	49.66
211.535	12.8
211.753	59.9
211.972	27.14
212.191	-13.82
212.409	115.2
212.628	86.53
212.846	8.7
213.065	133.63
213.283	29.18
213.502	37.38
213.72	14.85
213.938	45.57
214.157	-48.64
214.375	23.04
214.594	-34.3
214.812	96.77
215.031	-40.45
215.249	8.7
215.467	2.56
215.686	35.33
215.904	86.53
216.122	-1.54
216.341	74.24
216.559	35.33
216.778	117.25
216.996	-36.35
217.214	47.62
217.432	25.09
217.651	20.99
217.869	57.86
218.087	98.81
218.306	12.8
218.524	39.42
218.742	0.51
218.96	78.33
219.179	25.09
219.397	20.99
219.615	61.95
219.833	45.57
220.051	16.9
220.27	107.01
220.488	-22.02
220.706	86.53
220.924	8.7
221.142	23.04
221.36	14.85
221.578	45.57
221.796	12.8
222.015	29.18
222.233	66.05
222.451	37.38
222.669	16.9
222.887	37.38
223.105	-46.59
223.323	23.04
223.541	-7.68
223.759	59.9
223.977	53.76
224.195	107.01
224.413	-5.63
224.631	6.66
224.849	-17.92
225.067	31.23
225.285	66.05
225.503	47.62
225.721	29.18
225.939	84.48
226.157	51.71
226.375	80.38
226.592	-32.26
226.81	16.9
227.028	49.66
227.246	121.34
227.464	4.61
227.682	47.62
227.9	80.38
228.117	10.75
228.335	25.09
228.553	39.42
228.771	41.47
228.989	18.94
229.206	6.66
229.424	64
229.642	12.8
229.86	2.56
230.077	66.05
230.295	-38.4
230.513	33.28
230.731	12.8
230.948	90.62
231.166	23.04
231.384	-5.63
231.601	14.85
231.819	12.8
232.037	25.09
232.254	-11.78
232.472	2.56
232.689	8.7
232.907	127.49
233.125	20.99
233.342	12.8
233.56	78.33
233.777	-13.82
233.995	20.99
234.213	57.86
234.43	90.62
234.648	80.38
234.865	55.81
235.083	64
235.3	72.19
235.518	82.43
235.735	66.05
235.953	25.09
236.17	25.09
236.388	-26.11
236.605	72.19
236.822	35.33
237.04	90.62
237.257	33.28
237.475	47.62
237.692	29.18
237.909	72.19
238.127	6.66
238.344	90.62
238.562	70.14
238.779	82.43
238.996	61.95
239.214	6.66
239.431	64
239.648	-42.5
239.865	-15.87
240.083	74.24
240.3	-19.97
240.517	33.28
240.735	-5.63
240.952	31.23
241.169	35.33
241.386	57.86
241.603	39.42
241.821	-52.74
242.038	61.95
242.255	33.28
242.472	-11.78
242.689	78.33
242.907	29.18
243.124	41.47
243.341	-22.02
243.558	27.14
243.775	2.56
243.992	2.56
244.209	70.14
244.426	96.77
244.643	92.67
244.86	102.91
245.078	80.38
245.295	0.51
245.512	14.85
245.729	-56.83
245.946	78.33
246.163	39.42
246.38	96.77
246.597	43.52
246.814	55.81
247.031	27.14
247.248	37.38
247.464	20.99
247.681	-1.54
247.898	43.52
248.115	0.51
248.332	61.95
248.549	74.24
248.766	53.76
248.983	31.23
249.2	55.81
249.417	72.19
249.633	31.23
249.85	47.62
250.067	-26.11
250.284	61.95
250.501	45.57
250.717	92.67
250.934	51.71
251.151	47.62
251.368	33.28
251.585	121.34
251.801	74.24
252.018	72.19
252.235	41.47
252.451	-56.83
252.668	29.18
252.885	94.72
253.102	37.38
253.318	4.61
253.535	23.04
253.752	16.9
253.968	84.48
254.185	-13.82
254.401	45.57
254.618	27.14
254.835	37.38
255.051	123.39
255.268	107.01
255.484	41.47
255.701	27.14
255.917	70.14
256.134	-3.58
256.351	12.8
256.567	66.05
256.784	39.42
257	8.7
257.217	94.72
257.433	53.76
257.65	4.61
257.866	47.62
258.082	39.42
258.299	-7.68
258.515	14.85
258.732	-44.54
258.948	78.33
259.165	-1.54
259.381	14.85
259.597	23.04
259.814	-36.35
260.03	14.85
260.246	41.47
260.463	33.28
260.679	64
260.895	43.52
261.112	61.95
261.328	84.48
261.544	2.56
261.761	43.52
261.977	41.47
262.193	57.86
262.409	76.29
262.626	102.91
262.842	27.14
263.058	27.14
263.274	117.25
263.49	12.8
263.707	35.33
263.923	90.62
264.139	-9.73
264.355	2.56
264.571	96.77
264.787	12.8
265.004	100.86
265.22	37.38
265.436	51.71
265.652	10.75
265.868	80.38
266.084	33.28
266.3	57.86
266.516	80.38
266.732	66.05
266.948	10.75
267.164	12.8
267.38	47.62
267.596	61.95
267.812	33.28
268.028	102.91
268.244	47.62
268.46	25.09
268.676	49.66
268.892	66.05
269.108	18.94
269.324	10.75
269.54	61.95
269.756	37.38
269.972	0.51
270.188	16.9
270.403	16.9
270.619	25.09
270.835	-11.78
271.051	-60.93
271.267	10.75
271.483	70.14
271.698	14.85
271.914	66.05
272.13	70.14
272.346	74.24
272.562	72.19
272.777	82.43
272.993	64
273.209	86.53
273.425	-26.11
273.64	-7.68
273.856	-26.11
274.072	64
274.287	72.19
274.503	39.42
274.719	25.09
274.934	12.8
275.15	-15.87
275.366	72.19
275.581	8.7
275.797	74.24
276.012	-7.68
276.228	43.52
276.444	39.42
276.659	31.23
276.875	33.28
277.09	8.7
277.306	-7.68
277.521	47.62
277.737	-77.31
277.952	33.28
278.168	6.66
278.383	80.38
278.599	33.28
278.814	78.33
279.03	72.19
279.245	78.33
279.461	20.99
279.676	121.34
279.892	-9.73
280.107	31.23
280.322	61.95
280.538	59.9
280.753	4.61
280.969	47.62
281.184	102.91
281.399	94.72
281.615	-3.58
281.83	25.09
282.045	-34.3
282.26	4.61
282.476	66.05
282.691	6.66
282.906	-26.11
283.122	102.91
283.337	14.85
283.552	23.04
283.767	23.04
283.983	4.61
284.198	74.24
284.413	41.47
284.628	6.66
284.843	113.15
285.058	-24.06
285.274	4.61
285.489	-3.58
285.704	57.86
285.919	35.33
286.134	57.86
286.349	57.86
286.564	14.85
286.779	84.48
286.995	72.19
287.21	33.28
287.425	119.29
287.64	-22.02
287.855	-34.3
288.07	-9.73
288.285	47.62
288.5	92.67
288.715	82.43
288.93	-46.59
289.145	127.49
289.36	55.81
289.575	35.33
289.79	-15.87
290.004	6.66
290.219	45.57
290.434	39.42
290.649	27.14
290.864	35.33
291.079	6.66
291.294	47.62
291.509	25.09
291.724	76.29
291.938	14.85
292.153	-1.54
292.368	107.01
292.583	59.9
292.798	133.63
293.012	-1.54
293.227	20.99
293.442	107.01
293.657	53.76
293.871	123.39
294.086	64
294.301	104.96
294.516	125.44
294.73	25.09
294.945	72.19
295.16	57.86
295.374	70.14
295.589	74.24
295.804	12.8
296.018	78.33
296.233	45.57
296.447	53.76
296.662	-15.87
296.877	143.87
297.091	55.81
297.306	86.53
297.52	41.47
297.735	8.7
297.949	119.29
298.164	82.43
298.378	20.99
298.593	94.72
298.807	74.24
299.022	84.48
299.236	102.91
299.451	121.34
299.665	12.8
299.88	92.67
300.094	10.75
300.309	72.19
300.523	70.14
300.737	0.51
300.952	143.87
301.166	49.66
301.381	-60.93
301.595	2.56
301.809	23.04
302.024	51.71
302.238	37.38
302.452	150.01
302.667	18.94
302.881	10.75
303.095	33.28
303.309	27.14
303.524	33.28
303.738	76.29
303.952	45.57
304.166	59.9
304.381	117.25
304.595	25.09
304.809	51.71
305.023	41.47
305.237	84.48
305.452	104.96
305.666	39.42
305.88	88.57
306.094	64
306.308	70.14
306.522	133.63
306.736	143.87
306.95	2.56
307.164	102.91
307.379	-28.16
307.593	121.34
307.807	119.29
308.021	-17.92
308.235	55.81
308.449	8.7
308.663	111.1
308.877	117.25
309.091	0.51
309.305	76.29
309.519	-5.63
309.733	57.86
309.947	14.85
310.161	31.23
310.374	47.62
310.588	96.77
310.802	31.23
311.016	4.61
311.23	61.95
311.444	39.42
311.658	84.48
311.872	55.81
312.085	100.86
312.299	68.09
312.513	35.33
312.727	39.42
312.941	47.62
313.154	29.18
313.368	6.66
313.582	-54.78
313.796	39.42
314.009	-13.82
314.223	78.33
314.437	90.62
314.651	41.47
314.864	31.23
315.078	55.81
315.292	-60.93
315.505	57.86
315.719	74.24
315.933	133.63
316.146	64
316.36	20.99
316.573	80.38
316.787	96.77
317.001	14.85
317.214	8.7
317.428	57.86
317.641	113.15
317.855	29.18
318.068	-9.73
318.282	-5.63
318.495	47.62
318.709	43.52
318.922	39.42
319.136	121.34
319.349	-3.58
319.563	29.18
319.776	96.77
319.99	55.81
320.203	78.33
320.417	39.42
320.63	45.57
320.843	119.29
321.057	74.24
321.27	78.33
321.483	64
321.697	98.81
321.91	35.33
322.124	45.57
322.337	39.42
322.55	45.57
322.763	107.01
322.977	12.8
323.19	51.71
323.403	64
323.617	109.05
323.83	64
324.043	-19.97
324.256	12.8
324.469	23.04
324.683	33.28
324.896	61.95
325.109	78.33
325.322	57.86
325.535	111.1
325.748	18.94
325.962	70.14
326.175	51.71
326.388	68.09
326.601	47.62
326.814	-67.07
327.027	70.14
327.24	129.53
327.453	-7.68
327.666	72.19
327.879	119.29
328.092	55.81
328.305	57.86
328.518	88.57
328.731	111.1
328.944	139.77
329.157	88.57
329.37	45.57
329.583	160.25
329.796	107.01
330.009	104.96
330.222	104.96
330.435	96.77
330.648	37.38
330.861	39.42
331.073	16.9
331.286	49.66
331.499	16.9
331.712	51.71
331.925	121.34
332.138	18.94
332.35	33.28
332.563	37.38
332.776	70.14
332.989	57.86
333.202	64
333.414	90.62
333.627	49.66
333.84	47.62
334.053	25.09
334.265	14.85
334.478	55.81
334.691	49.66
334.903	64
335.116	61.95
335.329	33.28
335.541	35.33
335.754	2.56
335.966	14.85
336.179	29.18
336.392	82.43
336.604	76.29
336.817	55.81
337.029	90.62
337.242	39.42
337.454	25.09
337.667	14.85
337.88	72.19
338.092	86.53
338.305	145.92
338.517	59.9
338.729	84.48
338.942	49.66
339.154	-5.63
339.367	47.62
339.579	94.72
339.792	16.9
340.004	59.9
340.217	-26.11
340.429	25.09
340.641	10.75
340.854	43.52
341.066	4.61
341.278	25.09
341.491	55.81
341.703	45.57
341.915	61.95
342.128	98.81
342.34	49.66
342.552	113.15
342.764	10.75
342.977	-26.11
343.189	74.24
343.401	12.8
343.613	86.53
343.826	70.14
344.038	51.71
344.25	70.14
344.462	55.81
344.674	43.52
344.886	68.09
345.099	104.96
345.311	55.81
345.523	43.52
345.735	6.66
345.947	23.04
346.159	43.52
346.371	43.52
346.583	25.09
346.795	135.68
347.007	-24.06
347.219	57.86
347.431	72.19
347.643	88.57
347.855	111.1
348.067	43.52
348.279	29.18
348.491	41.47
348.703	123.39
348.915	68.09
349.127	41.47
349.339	64
349.551	104.96
349.763	176.64
349.975	49.66
350.187	137.73
350.399	104.96
350.61	51.71
350.822	39.42
351.034	94.72
351.246	104.96
351.458	16.9
351.669	78.33
351.881	29.18
352.093	47.62
352.305	43.52
352.517	29.18
352.728	64
352.94	35.33
353.152	131.58
353.363	61.95
353.575	117.25
353.787	47.62
353.999	53.76
354.21	-19.97
354.422	27.14
354.633	18.94
354.845	164.35
355.057	147.97
355.268	115.2
355.48	2.56
355.692	127.49
355.903	31.23
356.115	94.72
356.326	-15.87
356.538	55.81
356.749	104.96
356.961	78.33
357.172	20.99
357.384	49.66
357.595	115.2
357.807	2.56
358.018	41.47
358.23	162.3
358.441	86.53
358.653	41.47
358.864	-3.58
359.075	74.24
359.287	64
359.498	111.1
359.709	33.28
359.921	6.66
360.132	121.34
360.344	76.29
360.555	115.2
360.766	6.66
360.977	57.86
361.189	178.69
361.4	82.43
361.611	102.91
361.823	82.43
362.034	80.38
362.245	57.86
362.456	123.39
362.667	109.05
362.879	14.85
363.09	59.9
363.301	76.29
363.512	109.05
363.723	72.19
363.935	29.18
364.146	55.81
364.357	12.8
364.568	94.72
364.779	35.33
364.99	23.04
365.201	10.75
365.412	68.09
365.623	-3.58
365.834	74.24
366.045	57.86
366.256	53.76
366.467	29.18
366.678	43.52
366.889	90.62
367.1	2.56
367.311	84.48
367.522	-5.63
367.733	82.43
367.944	57.86
368.155	57.86
368.366	80.38
368.577	41.47
368.788	100.86
368.999	49.66
369.209	64
369.42	145.92
369.631	43.52
369.842	68.09
370.053	-24.06
370.264	66.05
370.474	-7.68
370.685	12.8
370.896	31.23
371.107	61.95
371.317	80.38
371.528	57.86
371.739	88.57
371.95	41.47
372.16	86.53
372.371	23.04
372.582	23.04
372.792	139.77
373.003	61.95
373.214	16.9
373.424	88.57
373.635	74.24
373.846	53.76
374.056	94.72
374.267	86.53
374.477	123.39
374.688	76.29
374.898	55.81
375.109	25.09
375.319	57.86
375.53	45.57
375.74	78.33
375.951	90.62
376.161	141.82
376.372	133.63
376.582	72.19
376.793	66.05
377.003	66.05
377.214	-11.78
377.424	66.05
377.635	84.48
377.845	33.28
378.055	74.24
378.266	76.29
378.476	39.42
378.686	49.66
378.897	107.01
379.107	70.14
379.317	57.86
379.528	27.14
379.738	109.05
379.948	64
380.158	51.71
380.369	-19.97
380.579	113.15
380.789	119.29
380.999	-3.58
381.21	55.81
381.42	111.1
381.63	31.23
381.84	115.2
382.05	154.11
382.261	133.63
382.471	88.57
382.681	80.38
382.891	164.35
383.101	66.05
383.311	104.96
383.521	70.14
383.731	57.86
383.941	78.33
384.151	25.09
384.361	68.09
384.571	72.19
384.781	102.91
384.991	158.21
385.201	139.77
385.411	66.05
385.621	20.99
385.831	104.96
386.041	27.14
386.251	98.81
386.461	70.14
386.671	-48.64
386.881	72.19
387.091	131.58
387.301	78.33
387.511	33.28
387.72	45.57
387.93	109.05
388.14	18.94
388.35	158.21
388.56	70.14
388.769	125.44
388.979	133.63
389.189	37.38
389.399	64
389.609	45.57
389.818	135.68
390.028	98.81
390.238	33.28
390.447	102.91
390.657	72.19
390.867	39.42
391.076	115.2
391.286	121.34
391.496	-15.87
391.705	82.43
391.915	104.96
392.125	117.25
392.334	88.57
392.544	45.57
392.753	74.24
392.963	41.47
393.172	131.58
393.382	51.71
393.591	127.49
393.801	107.01
394.01	188.93
394.22	53.76
394.429	88.57
394.639	55.81
394.848	94.72
395.058	102.91
395.267	137.73
395.477	143.87
395.686	53.76
395.895	121.34
396.105	156.16
396.314	127.49
396.524	98.81
396.733	80.38
396.942	156.16
397.152	133.63
397.361	143.87
397.57	164.35
397.78	133.63
397.989	137.73
398.198	123.39
398.407	141.82
398.617	197.12
398.826	123.39
399.035	125.44
399.244	109.05
399.453	164.35
399.663	68.09
399.872	176.64
400.081	164.35
400.29	104.96
400.499	135.68
400.708	193.02
400.917	117.25
401.127	131.58
401.336	139.77
401.545	178.69
401.754	137.73
401.963	143.87
402.172	137.73
402.381	39.42
402.59	64
402.799	135.68
403.008	96.77
403.217	205.31
403.426	193.02
403.635	139.77
403.844	119.29
404.053	131.58
404.262	160.25
404.471	213.5
404.68	178.69
404.888	221.69
405.097	145.92
405.306	141.82
405.515	262.65
405.724	152.06
405.933	193.02
406.142	225.79
406.35	154.11
406.559	266.75
406.768	262.65
406.977	221.69
407.185	311.8
407.394	250.36
407.603	244.22
407.812	225.79
408.02	248.32
408.229	350.71
408.438	246.27
408.646	315.9
408.855	301.56
409.064	268.8
409.272	307.71
409.481	307.71
409.69	283.13
409.898	315.9
410.107	416.25
410.315	373.24
410.524	391.67
410.733	426.49
410.941	481.78
411.15	379.39
411.358	451.07
411.567	539.13
411.775	455.16
411.984	455.16
412.192	498.17
412.401	475.64
412.609	578.04
412.818	651.77
413.026	553.46
413.234	608.76
413.443	631.29
413.651	629.24
413.86	727.54
414.068	748.02
414.276	664.05
414.485	827.89
414.693	825.84
414.901	858.61
415.11	834.04
415.318	788.98
415.526	868.85
415.734	803.32
415.943	942.58
416.151	1016.3
416.359	1022.45
416.567	975.35
416.776	1038.83
416.984	1200.62
417.192	1155.57
417.4	1145.33
417.608	1067.5
417.817	1149.42
418.025	1262.06
418.233	1319.4
418.441	1360.36
418.649	1432.04
418.857	1516.01
419.065	1585.64
419.273	1546.73
419.481	1692.13
419.689	1745.38
419.897	1870.31
420.105	1819.11
420.313	1915.36
420.521	2011.62
420.729	2028
420.937	2060.77
421.145	2136.54
421.353	2157.02
421.561	2230.75
421.769	2288.09
421.977	2564.57
422.185	2537.95
422.393	2548.19
422.601	2814.42
422.809	2666.97
423.017	2687.45
423.224	2914.77
423.432	2925.01
423.64	3033.55
423.848	3250.64
424.056	3228.11
424.263	3400.14
424.471	3367.37
424.679	3512.78
424.887	3627.46
425.094	3809.73
425.302	4004.29
425.51	4065.73
425.718	4006.34
425.925	4067.78
426.133	4307.39
426.341	4534.71
426.548	4594.11
426.756	4723.13
426.964	4694.46
427.171	5087.67
427.379	5124.53
427.586	5255.6
427.794	5370.29
428.001	5599.66
428.209	5822.89
428.417	5767.59
428.624	6248.86
428.832	6248.86
429.039	6207.91
429.247	6132.13
429.454	6637.98
429.662	7029.14
429.869	6756.76
430.076	7258.51
430.284	6959.51
430.491	7141.78
430.699	7860.62
430.906	7647.63
431.114	7850.38
431.321	8171.91
431.528	8419.71
431.736	8833.4
431.943	9173.36
432.15	8845.69
432.358	8876.41
432.565	9578.86
432.772	9423.22
432.979	10164.58
433.187	10162.53
433.394	10113.38
433.601	10707.29
433.808	10817.88
434.016	10893.66
434.223	11344.21
434.43	12046.66
434.637	11766.09
434.844	12560.7
435.052	12708.16
435.259	12656.96
435.466	12771.65
435.673	12497.22
435.88	13613.36
436.087	14385.44
436.294	14139.69
436.501	13955.37
436.708	14237.99
436.915	14713.12
437.122	15298.84
437.329	15401.24
437.537	15548.69
437.743	15888.65
437.95	15808.78
438.157	16605.44
438.364	17357.05
438.571	16943.36
438.778	17215.74
438.985	18845.92
439.192	18358.5
439.399	18764
439.606	18460.9
439.813	19355.86
440.02	20551.88
440.227	20287.69
440.433	19804.37
440.64	20900.03
440.847	20539.59
441.054	21041.34
441.261	22130.86
441.467	21987.5
441.674	22476.97
441.881	23318.68
442.088	23283.87
442.294	23054.5
442.501	23466.14
442.708	24021.14
442.914	25297.02
443.121	25763.96
443.328	25243.77
443.534	27019.36
443.741	26349.68
443.948	26204.27
444.154	27906.13
444.361	27773.02
444.568	28106.84
444.774	27732.06
444.981	28160.08
445.187	29009.99
445.394	30464.05
445.6	29921.34
445.807	32727.05
446.013	31408.16
446.22	31844.38
446.426	33138.69
446.633	33402.88
446.839	34600.94
447.046	33312.77
447.252	34664.43
447.459	34820.08
447.665	34668.53
447.871	36075.48
448.078	37578.69
448.284	35860.44
448.491	36818.89
448.697	38332.34
448.903	38803.38
449.11	39081.9
449.316	37816.25
449.522	38918.06
449.728	40118.17
449.935	40302.49
450.141	40269.72
450.347	41146.25
450.553	39794.59
450.76	40298.39
450.966	41043.85
451.172	40959.89
451.378	41930.62
451.584	41060.24
451.791	42182.52
451.997	42004.35
452.203	42424.18
452.409	42479.48
452.615	42354.55
452.821	40947.6
453.027	40736.66
453.233	42397.56
453.44	40554.39
453.646	41244.55
453.852	41248.65
454.058	41959.3
454.264	40597.4
454.47	41035.66
454.676	40726.42
454.882	41754.5
455.088	37873.6
455.294	38506.42
455.5	39096.24
455.705	39589.8
455.911	37963.71
456.117	37361.61
456.323	36796.37
456.529	34650.1
456.735	36024.28
456.941	35178.47
457.147	34781.17
457.352	33585.15
457.558	33554.43
457.764	33245.19
457.97	32528.4
458.176	32202.77
458.381	31735.84
458.587	30382.13
458.793	30414.9
458.999	28897.35
459.204	31217.7
459.41	30050.36
459.616	28059.73
459.821	28096.6
460.027	27971.67
460.233	27463.77
460.438	26169.46
460.644	26243.18
460.85	25133.18
461.055	24551.56
461.261	24746.12
461.466	22685.86
461.672	22235.31
461.878	24010.9
462.083	22315.18
462.289	21960.88
462.494	21688.5
462.7	20775.11
462.905	20117.71
463.111	20811.97
463.316	21049.53
463.522	20469.96
463.727	20570.31
463.932	20244.68
464.138	20080.85
464.343	20187.34
464.549	19769.55
464.754	20543.69
464.959	20512.97
465.165	20095.18
465.37	19294.43
465.575	18729.19
465.781	19564.76
465.986	19626.2
466.191	18933.98
466.397	18479.33
466.602	17602.8
466.807	18317.54
467.012	18338.02
467.218	18170.09
467.423	18122.99
