Data from USB4F104151__150__10-26-40-104.txt Node

Date: Wed Mar 12 10:26:40 EDT 2025
User: louis
Spectrometer: USB4F10415
Trigger mode: 4
Integration Time (sec): 3.000000E-2
Scans to average: 1
Electric dark correction enabled: true
Nonlinearity correction enabled: false
Boxcar width: 0
XAxis mode: Wavelengths
Number of Pixels in Spectrum: 3648
>>>>>Begin Spectral Data<<<<<
178.204	-131.92
178.424	-131.92
178.644	-131.92
178.864	-136.02
179.084	-64.34
179.304	23.72
179.524	40.11
179.744	25.77
179.964	17.58
180.184	11.43
180.404	-13.14
180.624	-17.24
180.844	-76.63
181.064	-37.72
181.283	13.48
181.503	-7
181.723	19.63
181.943	1.19
182.163	19.63
182.383	42.15
182.602	42.15
182.822	72.87
183.042	74.92
183.262	-2.9
183.482	36.01
183.701	-11.09
183.921	-0.85
184.141	48.3
184.361	130.22
184.58	40.11
184.8	64.68
185.02	74.92
185.239	7.34
185.459	109.74
185.679	3.24
185.898	-47.96
186.118	-0.85
186.338	70.83
186.557	85.16
186.777	11.43
186.997	9.39
187.216	3.24
187.436	81.07
187.655	15.53
187.875	3.24
188.095	81.07
188.314	3.24
188.534	72.87
188.753	38.06
188.973	19.63
189.192	15.53
189.412	23.72
189.631	27.82
189.851	15.53
190.07	56.49
190.29	23.72
190.509	40.11
190.729	29.87
190.948	74.92
191.168	66.73
191.387	60.59
191.607	42.15
191.826	-0.85
192.045	-29.52
192.265	44.2
192.484	48.3
192.704	38.06
192.923	-19.29
193.142	68.78
193.362	72.87
193.581	31.91
193.8	64.68
194.02	42.15
194.239	17.58
194.458	27.82
194.678	-68.44
194.897	15.53
195.116	21.67
195.335	48.3
195.555	46.25
195.774	48.3
195.993	68.78
196.212	48.3
196.432	40.11
196.651	9.39
196.87	48.3
197.089	85.16
197.308	-29.52
197.528	23.72
197.747	111.78
197.966	74.92
198.185	54.44
198.404	33.96
198.623	7.34
198.842	70.83
199.062	3.24
199.281	40.11
199.5	60.59
199.719	91.31
199.938	70.83
200.157	64.68
200.376	33.96
200.595	23.72
200.814	-21.33
201.033	-45.91
201.252	62.63
201.471	83.11
201.69	36.01
201.909	33.96
202.128	27.82
202.347	42.15
202.566	7.34
202.785	-0.85
203.004	-37.72
203.223	64.68
203.442	-13.14
203.661	72.87
203.879	-25.43
204.098	5.29
204.317	40.11
204.536	115.88
204.755	19.63
204.974	79.02
205.193	52.39
205.411	160.94
205.63	42.15
205.849	-0.85
206.068	85.16
206.287	44.2
206.505	89.26
206.724	62.63
206.943	29.87
207.162	15.53
207.381	31.91
207.599	9.39
207.818	74.92
208.037	46.25
208.255	31.91
208.474	56.49
208.693	13.48
208.911	93.35
209.13	44.2
209.349	42.15
209.567	66.73
209.786	62.63
210.005	9.39
210.223	1.19
210.442	-29.52
210.661	50.35
210.879	13.48
211.098	46.25
211.316	3.24
211.535	40.11
211.753	36.01
211.972	23.72
212.191	60.59
212.409	91.31
212.628	29.87
212.846	27.82
213.065	124.07
213.283	111.78
213.502	68.78
213.72	15.53
213.938	15.53
214.157	-2.9
214.375	-19.29
214.594	-15.19
214.812	7.34
215.031	99.5
215.249	-15.19
215.467	27.82
215.686	74.92
215.904	81.07
216.122	83.11
216.341	72.87
216.559	81.07
216.778	5.29
216.996	72.87
217.214	-43.86
217.432	-52.05
217.651	76.97
217.869	33.96
218.087	-0.85
218.306	46.25
218.524	36.01
218.742	19.63
218.96	-21.33
219.179	68.78
219.397	36.01
219.615	89.26
219.833	44.2
220.051	31.91
220.27	79.02
220.488	60.59
220.706	68.78
220.924	9.39
221.142	1.19
221.36	21.67
221.578	89.26
221.796	72.87
222.015	99.5
222.233	-33.62
222.451	25.77
222.669	-74.58
222.887	79.02
223.105	23.72
223.323	5.29
223.541	11.43
223.759	21.67
223.977	11.43
224.195	115.88
224.413	19.63
224.631	115.88
224.849	-4.95
225.067	146.6
225.285	7.34
225.503	52.39
225.721	76.97
225.939	44.2
226.157	19.63
226.375	148.65
226.592	25.77
226.81	42.15
227.028	68.78
227.246	38.06
227.464	74.92
227.682	31.91
227.9	48.3
228.117	3.24
228.335	19.63
228.553	-7
228.771	68.78
228.989	148.65
229.206	-4.95
229.424	60.59
229.642	68.78
229.86	-4.95
230.077	101.55
230.295	13.48
230.513	40.11
230.731	83.11
230.948	31.91
231.166	11.43
231.384	25.77
231.601	-7
231.819	72.87
232.037	66.73
232.254	29.87
232.472	142.5
232.689	-27.48
232.907	117.93
233.125	66.73
233.342	44.2
233.56	-0.85
233.777	15.53
233.995	50.35
234.213	58.54
234.43	103.59
234.648	50.35
234.865	66.73
235.083	64.68
235.3	33.96
235.518	105.64
235.735	87.21
235.953	15.53
236.17	38.06
236.388	-15.19
236.605	140.46
236.822	52.39
237.04	31.91
237.257	44.2
237.475	-33.62
237.692	93.35
237.909	27.82
238.127	-25.43
238.344	19.63
238.562	44.2
238.779	-4.95
238.996	23.72
239.214	15.53
239.431	97.45
239.648	-17.24
239.865	42.15
240.083	122.02
240.3	-17.24
240.517	23.72
240.735	44.2
240.952	52.39
241.169	89.26
241.386	17.58
241.603	-17.24
241.821	46.25
242.038	76.97
242.255	36.01
242.472	38.06
242.689	40.11
242.907	140.46
243.124	68.78
243.341	23.72
243.558	11.43
243.775	42.15
243.992	5.29
244.209	31.91
244.426	70.83
244.643	52.39
244.86	52.39
245.078	85.16
245.295	19.63
245.512	27.82
245.729	48.3
245.946	66.73
246.163	44.2
246.38	3.24
246.597	27.82
246.814	79.02
247.031	9.39
247.248	85.16
247.464	-13.14
247.681	36.01
247.898	15.53
248.115	68.78
248.332	-4.95
248.549	50.35
248.766	148.65
248.983	64.68
249.2	-23.38
249.417	85.16
249.633	21.67
249.85	46.25
250.067	-2.9
250.284	66.73
250.501	25.77
250.717	68.78
250.934	9.39
251.151	44.2
251.368	44.2
251.585	46.25
251.801	13.48
252.018	27.82
252.235	52.39
252.451	40.11
252.668	31.91
252.885	25.77
253.102	40.11
253.318	68.78
253.535	-56.15
253.752	-23.38
253.968	46.25
254.185	-39.76
254.401	36.01
254.618	60.59
254.835	52.39
255.051	44.2
255.268	19.63
255.484	-11.09
255.701	-29.52
255.917	58.54
256.134	5.29
256.351	68.78
256.567	36.01
256.784	-33.62
257	36.01
257.217	31.91
257.433	85.16
257.65	60.59
257.866	134.31
258.082	-4.95
258.299	40.11
258.515	72.87
258.732	130.22
258.948	17.58
259.165	40.11
259.381	46.25
259.597	58.54
259.814	40.11
260.03	60.59
260.246	52.39
260.463	95.4
260.679	31.91
260.895	44.2
261.112	36.01
261.328	60.59
261.544	11.43
261.761	107.69
261.977	-21.33
262.193	-23.38
262.409	42.15
262.626	29.87
262.842	60.59
263.058	13.48
263.274	128.17
263.49	95.4
263.707	72.87
263.923	15.53
264.139	72.87
264.355	9.39
264.571	109.74
264.787	-0.85
265.004	85.16
265.22	5.29
265.436	11.43
265.652	62.63
265.868	72.87
266.084	-13.14
266.3	40.11
266.516	81.07
266.732	105.64
266.948	76.97
267.164	64.68
267.38	27.82
267.596	89.26
267.812	89.26
268.028	50.35
268.244	29.87
268.46	85.16
268.676	99.5
268.892	-70.48
269.108	52.39
269.324	15.53
269.54	-11.09
269.756	50.35
269.972	19.63
270.188	3.24
270.403	56.49
270.619	76.97
270.835	83.11
271.051	31.91
271.267	11.43
271.483	3.24
271.698	3.24
271.914	44.2
272.13	111.78
272.346	85.16
272.562	76.97
272.777	33.96
272.993	33.96
273.209	7.34
273.425	36.01
273.64	38.06
273.856	58.54
274.072	29.87
274.287	-7
274.503	103.59
274.719	27.82
274.934	15.53
275.15	-13.14
275.366	-21.33
275.581	-45.91
275.797	52.39
276.012	15.53
276.228	109.74
276.444	11.43
276.659	3.24
276.875	15.53
277.09	50.35
277.306	-41.81
277.521	27.82
277.737	83.11
277.952	38.06
278.168	52.39
278.383	33.96
278.599	52.39
278.814	124.07
279.03	-0.85
279.245	117.93
279.461	52.39
279.676	50.35
279.892	36.01
280.107	25.77
280.322	56.49
280.538	56.49
280.753	-13.14
280.969	36.01
281.184	19.63
281.399	25.77
281.615	-9.05
281.83	44.2
282.045	-17.24
282.26	-27.48
282.476	117.93
282.691	5.29
282.906	72.87
283.122	105.64
283.337	13.48
283.552	11.43
283.767	-43.86
283.983	9.39
284.198	19.63
284.413	54.44
284.628	44.2
284.843	-19.29
285.058	23.72
285.274	117.93
285.489	-17.24
285.704	107.69
285.919	-13.14
286.134	58.54
286.349	52.39
286.564	93.35
286.779	21.67
286.995	60.59
287.21	76.97
287.425	48.3
287.64	11.43
287.855	27.82
288.07	-11.09
288.285	89.26
288.5	87.21
288.715	31.91
288.93	31.91
289.145	-33.62
289.36	93.35
289.575	44.2
289.79	79.02
290.004	56.49
290.219	99.5
290.434	91.31
290.649	-7
290.864	66.73
291.079	-19.29
291.294	60.59
291.509	83.11
291.724	13.48
291.938	1.19
292.153	36.01
292.368	44.2
292.583	130.22
292.798	113.83
293.012	66.73
293.227	52.39
293.442	27.82
293.657	23.72
293.871	101.55
294.086	13.48
294.301	68.78
294.516	83.11
294.73	119.98
294.945	-0.85
295.16	-0.85
295.374	99.5
295.589	38.06
295.804	-39.76
296.018	52.39
296.233	52.39
296.447	83.11
296.662	85.16
296.877	68.78
297.091	-21.33
297.306	42.15
297.52	70.83
297.735	15.53
297.949	56.49
298.164	89.26
298.378	29.87
298.593	126.12
298.807	23.72
299.022	-19.29
299.236	33.96
299.451	23.72
299.665	79.02
299.88	83.11
300.094	89.26
300.309	27.82
300.523	44.2
300.737	66.73
300.952	48.3
301.166	36.01
301.381	11.43
301.595	68.78
301.809	-0.85
302.024	13.48
302.238	91.31
302.452	109.74
302.667	-39.76
302.881	144.55
303.095	58.54
303.309	111.78
303.524	-11.09
303.738	40.11
303.952	1.19
304.166	85.16
304.381	85.16
304.595	117.93
304.809	-33.62
305.023	38.06
305.237	-27.48
305.452	27.82
305.666	72.87
305.88	87.21
306.094	93.35
306.308	19.63
306.522	85.16
306.736	15.53
306.95	-11.09
307.164	-56.15
307.379	23.72
307.593	124.07
307.807	15.53
308.021	50.35
308.235	76.97
308.449	-0.85
308.663	21.67
308.877	64.68
309.091	48.3
309.305	79.02
309.519	5.29
309.733	66.73
309.947	-31.57
310.161	66.73
310.374	74.92
310.588	42.15
310.802	19.63
311.016	52.39
311.23	25.77
311.444	66.73
311.658	66.73
311.872	111.78
312.085	83.11
312.299	52.39
312.513	60.59
312.727	56.49
312.941	91.31
313.154	101.55
313.368	-9.05
313.582	122.02
313.796	83.11
314.009	44.2
314.223	66.73
314.437	101.55
314.651	56.49
314.864	44.2
315.078	-4.95
315.292	66.73
315.505	36.01
315.719	130.22
315.933	-15.19
316.146	15.53
316.36	68.78
316.573	74.92
316.787	21.67
317.001	52.39
317.214	107.69
317.428	36.01
317.641	-9.05
317.855	40.11
318.068	21.67
318.282	56.49
318.495	101.55
318.709	72.87
318.922	85.16
319.136	119.98
319.349	11.43
319.563	52.39
319.776	33.96
319.99	7.34
320.203	62.63
320.417	-23.38
320.63	17.58
320.843	70.83
321.057	19.63
321.27	52.39
321.483	83.11
321.697	126.12
321.91	60.59
322.124	46.25
322.337	9.39
322.55	5.29
322.763	60.59
322.977	44.2
323.19	56.49
323.403	97.45
323.617	60.59
323.83	48.3
324.043	-9.05
324.256	89.26
324.469	36.01
324.683	132.26
324.896	44.2
325.109	74.92
325.322	74.92
325.535	87.21
325.748	58.54
325.962	-45.91
326.175	48.3
326.388	113.83
326.601	44.2
326.814	44.2
327.027	31.91
327.24	46.25
327.453	21.67
327.666	27.82
327.879	66.73
328.092	36.01
328.305	58.54
328.518	-43.86
328.731	66.73
328.944	1.19
329.157	-4.95
329.37	-4.95
329.583	144.55
329.796	113.83
330.009	-4.95
330.222	99.5
330.435	25.77
330.648	68.78
330.861	66.73
331.073	87.21
331.286	44.2
331.499	44.2
331.712	60.59
331.925	33.96
332.138	27.82
332.35	85.16
332.563	-27.48
332.776	79.02
332.989	89.26
333.202	11.43
333.414	42.15
333.627	44.2
333.84	19.63
334.053	-70.48
334.265	58.54
334.478	115.88
334.691	138.41
334.903	76.97
335.116	76.97
335.329	27.82
335.541	87.21
335.754	58.54
335.966	52.39
336.179	-2.9
336.392	52.39
336.604	27.82
336.817	29.87
337.029	27.82
337.242	56.49
337.454	76.97
337.667	7.34
337.88	38.06
338.092	23.72
338.305	-4.95
338.517	115.88
338.729	36.01
338.942	130.22
339.154	13.48
339.367	79.02
339.579	70.83
339.792	25.77
340.004	89.26
340.217	5.29
340.429	40.11
340.641	33.96
340.854	29.87
341.066	13.48
341.278	56.49
341.491	52.39
341.703	89.26
341.915	66.73
342.128	64.68
342.34	17.58
342.552	44.2
342.764	74.92
342.977	113.83
343.189	-41.81
343.401	68.78
343.613	-56.15
343.826	76.97
344.038	31.91
344.25	64.68
344.462	68.78
344.674	54.44
344.886	54.44
345.099	58.54
345.311	58.54
345.523	42.15
345.735	-70.48
345.947	-0.85
346.159	113.83
346.371	52.39
346.583	62.63
346.795	81.07
347.007	31.91
347.219	97.45
347.431	48.3
347.643	105.64
347.855	13.48
348.067	109.74
348.279	-41.81
348.491	76.97
348.703	-11.09
348.915	-33.62
349.127	70.83
349.339	36.01
349.551	25.77
349.763	132.26
349.975	15.53
350.187	91.31
350.399	109.74
350.61	89.26
350.822	64.68
351.034	99.5
351.246	76.97
351.458	-58.2
351.669	81.07
351.881	79.02
352.093	72.87
352.305	156.84
352.517	31.91
352.728	152.74
352.94	109.74
353.152	-7
353.363	50.35
353.575	81.07
353.787	107.69
353.999	9.39
354.21	74.92
354.422	52.39
354.633	-0.85
354.845	109.74
355.057	15.53
355.268	31.91
355.48	38.06
355.692	-0.85
355.903	60.59
356.115	1.19
356.326	31.91
356.538	142.5
356.749	31.91
356.961	150.7
357.172	7.34
357.384	83.11
357.595	76.97
357.807	9.39
358.018	97.45
358.23	62.63
358.441	99.5
358.653	171.18
358.864	54.44
359.075	13.48
359.287	50.35
359.498	52.39
359.709	66.73
359.921	99.5
360.132	38.06
360.344	3.24
360.555	42.15
360.766	54.44
360.977	9.39
361.189	93.35
361.4	13.48
361.611	91.31
361.823	-0.85
362.034	128.17
362.245	33.96
362.456	60.59
362.667	58.54
362.879	60.59
363.09	60.59
363.301	99.5
363.512	17.58
363.723	54.44
363.935	81.07
364.146	27.82
364.357	76.97
364.568	62.63
364.779	64.68
364.99	15.53
365.201	11.43
365.412	122.02
365.623	52.39
365.834	107.69
366.045	19.63
366.256	124.07
366.467	31.91
366.678	33.96
366.889	66.73
367.1	15.53
367.311	60.59
367.522	91.31
367.733	130.22
367.944	36.01
368.155	36.01
368.366	31.91
368.577	140.46
368.788	101.55
368.999	85.16
369.209	25.77
369.42	148.65
369.631	105.64
369.842	52.39
370.053	101.55
370.264	-9.05
370.474	27.82
370.685	93.35
370.896	126.12
371.107	-15.19
371.317	50.35
371.528	111.78
371.739	126.12
371.95	48.3
372.16	99.5
372.371	11.43
372.582	46.25
372.792	74.92
373.003	83.11
373.214	36.01
373.424	91.31
373.635	44.2
373.846	105.64
374.056	107.69
374.267	9.39
374.477	68.78
374.688	52.39
374.898	27.82
375.109	36.01
375.319	70.83
375.53	109.74
375.74	40.11
375.951	126.12
376.161	156.84
376.372	89.26
376.582	72.87
376.793	76.97
377.003	31.91
377.214	74.92
377.424	44.2
377.635	113.83
377.845	54.44
378.055	113.83
378.266	23.72
378.476	89.26
378.686	87.21
378.897	19.63
379.107	117.93
379.317	44.2
379.528	56.49
379.738	54.44
379.948	11.43
380.158	58.54
380.369	66.73
380.579	142.5
380.789	15.53
380.999	29.87
381.21	56.49
381.42	103.59
381.63	89.26
381.84	83.11
382.05	72.87
382.261	167.08
382.471	62.63
382.681	107.69
382.891	89.26
383.101	81.07
383.311	44.2
383.521	85.16
383.731	83.11
383.941	85.16
384.151	99.5
384.361	56.49
384.571	-13.14
384.781	36.01
384.991	130.22
385.201	76.97
385.411	83.11
385.621	70.83
385.831	1.19
386.041	15.53
386.251	68.78
386.461	140.46
386.671	97.45
386.881	83.11
387.091	40.11
387.301	81.07
387.511	56.49
387.72	60.59
387.93	76.97
388.14	50.35
388.35	33.96
388.56	50.35
388.769	64.68
388.979	38.06
389.189	38.06
389.399	83.11
389.609	150.7
389.818	70.83
390.028	85.16
390.238	74.92
390.447	74.92
390.657	81.07
390.867	165.03
391.076	99.5
391.286	107.69
391.496	56.49
391.705	115.88
391.915	99.5
392.125	105.64
392.334	95.4
392.544	64.68
392.753	74.92
392.963	-19.29
393.172	130.22
393.382	1.19
393.591	132.26
393.801	27.82
394.01	148.65
394.22	117.93
394.429	85.16
394.639	79.02
394.848	89.26
395.058	95.4
395.267	173.22
395.477	148.65
395.686	107.69
395.895	128.17
396.105	154.79
396.314	38.06
396.524	44.2
396.733	148.65
396.942	148.65
397.152	119.98
397.361	87.21
397.57	134.31
397.78	93.35
397.989	132.26
398.198	154.79
398.407	48.3
398.617	85.16
398.826	130.22
399.035	150.7
399.244	85.16
399.453	113.83
399.663	138.41
399.872	79.02
400.081	97.45
400.29	130.22
400.499	171.18
400.708	169.13
400.917	154.79
401.127	105.64
401.336	62.63
401.545	208.04
401.754	160.94
401.963	142.5
402.172	81.07
402.381	144.55
402.59	113.83
402.799	97.45
403.008	134.31
403.217	148.65
403.426	122.02
403.635	113.83
403.844	103.59
404.053	83.11
404.262	150.7
404.471	255.14
404.68	117.93
404.888	185.51
405.097	173.22
405.306	216.23
405.515	251.05
405.724	189.61
405.933	185.51
406.142	173.22
406.35	185.51
406.559	216.23
406.768	124.07
406.977	249
407.185	210.09
407.394	224.42
407.603	253.09
407.812	253.09
408.02	234.66
408.229	224.42
408.438	246.95
408.646	205.99
408.855	310.44
409.064	332.97
409.272	302.25
409.481	308.39
409.69	275.62
409.898	287.91
410.107	427.17
410.315	378.02
410.524	308.39
410.733	357.54
410.941	433.32
411.15	332.97
411.358	429.22
411.567	478.37
411.775	371.88
411.984	427.17
412.192	480.42
412.401	511.14
412.609	588.96
412.818	502.95
413.026	599.2
413.234	543.91
413.443	554.15
413.651	689.31
413.86	619.68
414.068	679.07
414.276	677.02
414.485	691.36
414.693	713.89
414.901	732.32
415.11	748.7
415.318	773.28
415.526	783.52
415.734	916.64
415.943	967.84
416.151	849.05
416.359	928.92
416.567	982.17
416.776	937.12
416.984	1103
417.192	1113.24
417.4	1115.29
417.608	1096.86
417.817	1125.53
418.025	1250.46
418.233	1318.04
418.441	1186.97
418.649	1354.9
418.857	1369.24
419.065	1559.7
419.273	1391.77
419.481	1547.41
419.689	1629.33
419.897	1625.23
420.105	1723.54
420.313	1715.34
420.521	1682.58
420.729	1852.56
420.937	1866.89
421.145	2032.78
421.353	2081.93
421.561	2124.94
421.769	2102.41
421.977	2251.91
422.185	2245.77
422.393	2335.88
422.601	2491.52
422.809	2376.84
423.017	2550.92
423.224	2669.7
423.432	2780.29
423.64	2866.3
423.848	2788.48
424.056	2847.87
424.263	3112.06
424.471	3056.76
424.679	3196.03
424.887	3351.67
425.094	3468.41
425.302	3464.31
425.51	3515.51
425.718	3566.71
425.925	3773.55
426.133	3927.15
426.341	4201.58
426.548	4430.95
426.756	4451.43
426.964	4279.4
427.171	4682.85
427.379	4541.54
427.586	4861.02
427.794	4934.75
428.001	5180.51
428.209	5332.06
428.417	5260.38
428.624	5618.77
428.832	5612.63
429.039	5620.82
429.247	5696.6
429.454	6278.22
429.662	6618.18
429.869	6093.9
430.076	6605.89
430.284	6573.13
430.491	6687.81
430.699	7060.54
430.906	7035.97
431.114	7105.6
431.321	7390.27
431.528	7654.45
431.736	7992.37
431.943	8375.34
432.15	8205.36
432.358	8109.1
432.565	8643.62
432.772	8711.21
432.979	9047.07
433.187	9135.14
433.394	9253.92
433.601	9980.95
433.808	9905.17
434.016	10044.43
434.223	10263.57
434.43	10961.92
434.637	10890.24
434.844	11308.03
435.052	11465.72
435.259	11439.1
435.466	11793.4
435.673	11553.79
435.88	12268.53
436.087	12848.1
436.294	13001.7
436.501	12350.45
436.708	13075.43
436.915	13388.77
437.122	13900.76
437.329	13888.47
437.537	14347.22
437.743	14363.6
437.95	14283.73
438.157	15053.76
438.364	15524.8
438.571	15676.35
438.778	15698.88
438.985	16970.66
439.192	16464.82
439.399	16608.17
439.606	16520.11
439.813	17687.45
440.02	18660.24
440.227	18260.88
440.433	18318.23
440.64	18494.35
440.847	18559.89
441.054	19020.68
441.261	20511.6
441.467	19852.16
441.674	20169.59
441.881	21214.05
442.088	21146.47
442.294	20640.62
442.501	21754.72
442.708	21713.76
442.914	22793.04
443.121	23577.41
443.328	23065.42
443.534	25135.92
443.741	24107.83
443.948	23704.38
444.154	25373.48
444.361	25039.66
444.568	25715.49
444.774	25271.08
444.981	25602.85
445.187	26237.72
445.394	27230.99
445.6	26989.33
445.807	29629.16
446.013	28240.64
446.22	28863.22
446.426	30325.47
446.633	30315.23
446.839	30978.77
447.046	29649.64
447.252	31234.77
447.459	31412.94
447.665	31537.87
447.871	32899.76
448.078	34226.85
448.284	32699.06
448.491	33596.07
448.697	34325.15
448.903	35105.43
449.11	35404.43
449.316	34534.04
449.522	35705.48
449.728	36348.54
449.935	36649.6
450.141	36450.94
450.347	37339.76
450.553	35834.5
450.76	36817.53
450.966	38109.8
451.172	37259.89
451.378	37997.16
451.584	37436.02
451.791	38019.69
451.997	38134.37
452.203	38482.53
452.409	38877.79
452.615	38421.09
452.821	36913.78
453.027	36143.75
453.233	38572.64
453.44	36684.41
453.646	37192.31
453.852	37417.58
454.058	37894.76
454.264	36698.75
454.47	37212.79
454.676	36584.06
454.882	37888.62
455.088	34697.88
455.294	34904.73
455.5	35287.7
455.705	35928.71
455.911	34249.38
456.117	33819.3
456.323	33274.54
456.529	31240.91
456.735	32717.5
456.941	32041.67
457.147	31431.37
457.352	30388.95
457.558	29930.21
457.764	30415.58
457.97	29905.63
458.176	28879.6
458.381	28855.03
458.587	27403.02
458.793	27435.78
458.999	26051.36
459.204	27755.27
459.41	26913.55
459.616	25631.52
459.821	25410.34
460.027	25185.07
460.233	24705.84
460.438	23331.65
460.644	23954.24
460.85	22684.5
461.055	22496.08
461.261	22307.67
461.466	20724.59
461.672	20128.63
461.878	21384.04
462.083	20136.82
462.289	19606.4
462.494	19573.63
462.7	18627.47
462.905	18008.98
463.111	18785.16
463.316	19137.41
463.522	18557.84
463.727	18484.11
463.932	18662.29
464.138	18303.89
464.343	18111.38
464.549	17886.11
464.754	18369.43
464.959	18396.05
465.165	17959.83
465.37	17353.63
465.575	16829.35
465.781	17671.07
465.986	17791.9
466.191	16870.31
466.397	16835.5
466.602	16001.97
466.807	16604.08
467.012	16499.63
467.218	16386.99
