Data from USB4F104151__112__10-24-56-316.txt Node

Date: Wed Mar 12 10:24:56 EDT 2025
User: louis
Spectrometer: USB4F10415
Trigger mode: 4
Integration Time (sec): 3.000000E-2
Scans to average: 1
Electric dark correction enabled: true
Nonlinearity correction enabled: false
Boxcar width: 0
XAxis mode: Wavelengths
Number of Pixels in Spectrum: 3648
>>>>>Begin Spectral Data<<<<<
178.204	-39.59
178.424	-39.59
178.644	-39.59
178.864	-78.51
179.084	-98.99
179.304	42.32
179.524	-15.02
179.744	-2.73
179.964	62.8
180.184	23.89
180.404	-10.92
180.624	30.04
180.844	-10.92
181.064	-60.07
181.283	21.85
181.503	-117.42
181.723	36.18
181.943	-33.45
182.163	99.67
182.383	13.65
182.602	34.13
182.822	144.72
183.042	-47.79
183.262	15.7
183.482	5.46
183.701	15.7
183.921	103.76
184.141	71
184.361	60.76
184.58	68.95
184.8	15.7
185.02	-10.92
185.239	152.92
185.459	5.46
185.679	9.56
185.898	-15.02
186.118	62.8
186.338	17.75
186.557	44.37
186.777	-60.07
186.997	-10.92
187.216	11.61
187.436	126.29
187.655	79.19
187.875	58.71
188.095	25.94
188.314	52.56
188.534	-12.97
188.753	19.8
188.973	-2.73
189.192	44.37
189.412	54.61
189.631	109.91
189.851	85.33
190.07	75.09
190.29	-19.11
190.509	42.32
190.729	27.99
190.948	95.57
191.168	193.87
191.387	79.19
191.607	21.85
191.826	116.05
192.045	62.8
192.265	15.7
192.484	-0.68
192.704	-8.87
192.923	-19.11
193.142	50.52
193.362	66.9
193.581	68.95
193.8	-0.68
194.02	50.52
194.239	38.23
194.458	81.24
194.678	1.37
194.897	-6.83
195.116	38.23
195.335	1.37
195.555	44.37
195.774	66.9
195.993	-27.31
196.212	46.42
196.432	-23.21
196.651	-17.07
196.87	15.7
197.089	60.76
197.308	-39.59
197.528	71
197.747	19.8
197.966	-2.73
198.185	48.47
198.404	9.56
198.623	62.8
198.842	66.9
199.062	38.23
199.281	107.86
199.5	30.04
199.719	15.7
199.938	25.94
200.157	103.76
200.376	-33.45
200.595	-8.87
200.814	-0.68
201.033	-0.68
201.252	77.14
201.471	-4.78
201.69	5.46
201.909	83.28
202.128	-4.78
202.347	25.94
202.566	5.46
202.785	1.37
203.004	32.08
203.223	142.68
203.442	23.89
203.661	38.23
203.879	42.32
204.098	21.85
204.317	46.42
204.536	91.48
204.755	11.61
204.974	19.8
205.193	58.71
205.411	140.63
205.63	-8.87
205.849	42.32
206.068	17.75
206.287	54.61
206.505	111.96
206.724	-23.21
206.943	-15.02
207.162	-0.68
207.381	-12.97
207.599	48.47
207.818	75.09
208.037	66.9
208.255	-10.92
208.474	38.23
208.693	83.28
208.911	5.46
209.13	3.41
209.349	36.18
209.567	48.47
209.786	-29.35
210.005	66.9
210.223	-0.68
210.442	-4.78
210.661	42.32
210.879	21.85
211.098	52.56
211.316	27.99
211.535	42.32
211.753	-31.4
211.972	-4.78
212.191	46.42
212.409	7.51
212.628	54.61
212.846	120.15
213.065	40.28
213.283	152.92
213.502	52.56
213.72	48.47
213.938	-27.31
214.157	-29.35
214.375	17.75
214.594	-37.55
214.812	62.8
215.031	-49.83
215.249	54.61
215.467	56.66
215.686	48.47
215.904	11.61
216.122	-4.78
216.341	103.76
216.559	68.95
216.778	17.75
216.996	62.8
217.214	-8.87
217.432	83.28
217.651	-60.07
217.869	13.65
218.087	30.04
218.306	79.19
218.524	9.56
218.742	46.42
218.96	95.57
219.179	-25.26
219.397	52.56
219.615	79.19
219.833	81.24
220.051	85.33
220.27	54.61
220.488	-33.45
220.706	30.04
220.924	-41.64
221.142	13.65
221.36	64.85
221.578	42.32
221.796	85.33
222.015	21.85
222.233	-4.78
222.451	71
222.669	-10.92
222.887	-2.73
223.105	30.04
223.323	126.29
223.541	-66.22
223.759	81.24
223.977	-8.87
224.195	85.33
224.413	19.8
224.631	-15.02
224.849	60.76
225.067	89.43
225.285	3.41
225.503	36.18
225.721	-55.98
225.939	25.94
226.157	19.8
226.375	118.1
226.592	58.71
226.81	-17.07
227.028	77.14
227.246	116.05
227.464	116.05
227.682	58.71
227.9	66.9
228.117	-45.74
228.335	46.42
228.553	60.76
228.771	17.75
228.989	38.23
229.206	11.61
229.424	23.89
229.642	-2.73
229.86	-6.83
230.077	91.48
230.295	-8.87
230.513	5.46
230.731	95.57
230.948	1.37
231.166	81.24
231.384	62.8
231.601	-0.68
231.819	111.96
232.037	-33.45
232.254	-55.98
232.472	-35.5
232.689	25.94
232.907	46.42
233.125	-17.07
233.342	38.23
233.56	3.41
233.777	54.61
233.995	1.37
234.213	52.56
234.43	64.85
234.648	52.56
234.865	38.23
235.083	42.32
235.3	19.8
235.518	44.37
235.735	87.38
235.953	50.52
236.17	60.76
236.388	23.89
236.605	1.37
236.822	21.85
237.04	-31.4
237.257	25.94
237.475	11.61
237.692	60.76
237.909	-4.78
238.127	5.46
238.344	17.75
238.562	34.13
238.779	34.13
238.996	15.7
239.214	21.85
239.431	38.23
239.648	1.37
239.865	83.28
240.083	46.42
240.3	7.51
240.517	-21.16
240.735	32.08
240.952	62.8
241.169	85.33
241.386	15.7
241.603	87.38
241.821	38.23
242.038	17.75
242.255	66.9
242.472	40.28
242.689	7.51
242.907	101.72
243.124	7.51
243.341	11.61
243.558	27.99
243.775	23.89
243.992	-0.68
244.209	54.61
244.426	83.28
244.643	77.14
244.86	-6.83
245.078	9.56
245.295	71
245.512	46.42
245.729	-39.59
245.946	60.76
246.163	38.23
246.38	99.67
246.597	-0.68
246.814	-15.02
247.031	21.85
247.248	19.8
247.464	64.85
247.681	85.33
247.898	32.08
248.115	46.42
248.332	1.37
248.549	50.52
248.766	54.61
248.983	103.76
249.2	111.96
249.417	44.37
249.633	-4.78
249.85	19.8
250.067	50.52
250.284	81.24
250.501	-19.11
250.717	17.75
250.934	21.85
251.151	15.7
251.368	13.65
251.585	-2.73
251.801	34.13
252.018	-19.11
252.235	3.41
252.451	-12.97
252.668	-4.78
252.885	21.85
253.102	25.94
253.318	-29.35
253.535	-21.16
253.752	91.48
253.968	44.37
254.185	-2.73
254.401	5.46
254.618	64.85
254.835	38.23
255.051	46.42
255.268	-55.98
255.484	105.81
255.701	38.23
255.917	46.42
256.134	27.99
256.351	48.47
256.567	32.08
256.784	71
257	5.46
257.217	48.47
257.433	58.71
257.65	5.46
257.866	30.04
258.082	-94.89
258.299	-19.11
258.515	3.41
258.732	-19.11
258.948	1.37
259.165	58.71
259.381	-15.02
259.597	54.61
259.814	62.8
260.03	34.13
260.246	13.65
260.463	71
260.679	7.51
260.895	64.85
261.112	40.28
261.328	19.8
261.544	85.33
261.761	46.42
261.977	75.09
262.193	66.9
262.409	109.91
262.626	9.56
262.842	124.24
263.058	19.8
263.274	60.76
263.49	9.56
263.707	19.8
263.923	48.47
264.139	1.37
264.355	13.65
264.571	11.61
264.787	9.56
265.004	56.66
265.22	64.85
265.436	23.89
265.652	44.37
265.868	75.09
266.084	-2.73
266.3	19.8
266.516	9.56
266.732	64.85
266.948	36.18
267.164	66.9
267.38	46.42
267.596	68.95
267.812	36.18
268.028	-43.69
268.244	23.89
268.46	54.61
268.676	46.42
268.892	5.46
269.108	71
269.324	62.8
269.54	21.85
269.756	46.42
269.972	-19.11
270.188	19.8
270.403	-66.22
270.619	44.37
270.835	44.37
271.051	58.71
271.267	30.04
271.483	50.52
271.698	-8.87
271.914	54.61
272.13	111.96
272.346	34.13
272.562	5.46
272.777	60.76
272.993	48.47
273.209	15.7
273.425	54.61
273.64	32.08
273.856	107.86
274.072	25.94
274.287	13.65
274.503	25.94
274.719	85.33
274.934	60.76
275.15	-15.02
275.366	27.99
275.581	36.18
275.797	13.65
276.012	30.04
276.228	79.19
276.444	-10.92
276.659	60.76
276.875	5.46
277.09	81.24
277.306	1.37
277.521	89.43
277.737	103.76
277.952	30.04
278.168	5.46
278.383	-76.46
278.599	7.51
278.814	77.14
279.03	13.65
279.245	105.81
279.461	87.38
279.676	75.09
279.892	-23.21
280.107	1.37
280.322	-19.11
280.538	79.19
280.753	-43.69
280.969	50.52
281.184	30.04
281.399	44.37
281.615	11.61
281.83	60.76
282.045	3.41
282.26	128.34
282.476	13.65
282.691	-27.31
282.906	-4.78
283.122	120.15
283.337	13.65
283.552	56.66
283.767	1.37
283.983	54.61
284.198	44.37
284.413	-0.68
284.628	-23.21
284.843	105.81
285.058	32.08
285.274	71
285.489	52.56
285.704	-2.73
285.919	91.48
286.134	52.56
286.349	21.85
286.564	38.23
286.779	38.23
286.995	21.85
287.21	1.37
287.425	71
287.64	-8.87
287.855	101.72
288.07	42.32
288.285	27.99
288.5	48.47
288.715	52.56
288.93	23.89
289.145	-23.21
289.36	138.58
289.575	36.18
289.79	50.52
290.004	50.52
290.219	-0.68
290.434	13.65
290.649	85.33
290.864	3.41
291.079	27.99
291.294	-51.88
291.509	71
291.724	25.94
291.938	-4.78
292.153	-23.21
292.368	64.85
292.583	34.13
292.798	-0.68
293.012	44.37
293.227	87.38
293.442	-10.92
293.657	71
293.871	77.14
294.086	-55.98
294.301	79.19
294.516	120.15
294.73	38.23
294.945	-2.73
295.16	40.28
295.374	52.56
295.589	58.71
295.804	-19.11
296.018	30.04
296.233	52.56
296.447	17.75
296.662	-10.92
296.877	-33.45
297.091	54.61
297.306	38.23
297.52	-19.11
297.735	148.82
297.949	83.28
298.164	48.47
298.378	30.04
298.593	38.23
298.807	-2.73
299.022	68.95
299.236	42.32
299.451	-12.97
299.665	-21.16
299.88	25.94
300.094	62.8
300.309	83.28
300.523	21.85
300.737	21.85
300.952	81.24
301.166	75.09
301.381	38.23
301.595	64.85
301.809	66.9
302.024	-66.22
302.238	66.9
302.452	54.61
302.667	101.72
302.881	146.77
303.095	81.24
303.309	11.61
303.524	40.28
303.738	-25.26
303.952	34.13
304.166	36.18
304.381	36.18
304.595	89.43
304.809	93.52
305.023	21.85
305.237	-47.79
305.452	-64.17
305.666	62.8
305.88	38.23
306.094	13.65
306.308	15.7
306.522	-2.73
306.736	71
306.95	52.56
307.164	15.7
307.379	44.37
307.593	44.37
307.807	120.15
308.021	73.04
308.235	-12.97
308.449	-15.02
308.663	27.99
308.877	136.53
309.091	15.7
309.305	93.52
309.519	62.8
309.733	40.28
309.947	30.04
310.161	101.72
310.374	36.18
310.588	62.8
310.802	40.28
311.016	97.62
311.23	27.99
311.444	36.18
311.658	46.42
311.872	19.8
312.085	81.24
312.299	42.32
312.513	46.42
312.727	173.39
312.941	36.18
313.154	7.51
313.368	36.18
313.582	34.13
313.796	103.76
314.009	50.52
314.223	-41.64
314.437	107.86
314.651	11.61
314.864	-39.59
315.078	25.94
315.292	-6.83
315.505	3.41
315.719	60.76
315.933	68.95
316.146	81.24
316.36	11.61
316.573	52.56
316.787	-6.83
317.001	19.8
317.214	-47.79
317.428	13.65
317.641	-29.35
317.855	23.89
318.068	-37.55
318.282	1.37
318.495	68.95
318.709	54.61
318.922	9.56
319.136	34.13
319.349	75.09
319.563	-21.16
319.776	11.61
319.99	-55.98
320.203	27.99
320.417	-19.11
320.63	13.65
320.843	157.01
321.057	3.41
321.27	75.09
321.483	48.47
321.697	9.56
321.91	19.8
322.124	79.19
322.337	38.23
322.55	21.85
322.763	79.19
322.977	32.08
323.19	48.47
323.403	50.52
323.617	62.8
323.83	107.86
324.043	23.89
324.256	66.9
324.469	-47.79
324.683	62.8
324.896	7.51
325.109	62.8
325.322	30.04
325.535	25.94
325.748	11.61
325.962	136.53
326.175	138.58
326.388	27.99
326.601	25.94
326.814	5.46
327.027	71
327.24	34.13
327.453	71
327.666	44.37
327.879	52.56
328.092	3.41
328.305	-8.87
328.518	77.14
328.731	30.04
328.944	46.42
329.157	-39.59
329.37	64.85
329.583	99.67
329.796	99.67
330.009	42.32
330.222	114
330.435	11.61
330.648	73.04
330.861	68.95
331.073	62.8
331.286	15.7
331.499	81.24
331.712	15.7
331.925	60.76
332.138	-10.92
332.35	81.24
332.563	83.28
332.776	79.19
332.989	-15.02
333.202	91.48
333.414	-55.98
333.627	87.38
333.84	-4.78
334.053	60.76
334.265	5.46
334.478	-0.68
334.691	30.04
334.903	50.52
335.116	-2.73
335.329	73.04
335.541	52.56
335.754	114
335.966	32.08
336.179	-2.73
336.392	75.09
336.604	85.33
336.817	116.05
337.029	25.94
337.242	58.71
337.454	128.34
337.667	42.32
337.88	85.33
338.092	101.72
338.305	46.42
338.517	60.76
338.729	46.42
338.942	15.7
339.154	52.56
339.367	71
339.579	87.38
339.792	58.71
340.004	93.52
340.217	-12.97
340.429	13.65
340.641	34.13
340.854	23.89
341.066	68.95
341.278	128.34
341.491	130.39
341.703	44.37
341.915	13.65
342.128	17.75
342.34	1.37
342.552	-37.55
342.764	19.8
342.977	71
343.189	36.18
343.401	13.65
343.613	-2.73
343.826	34.13
344.038	52.56
344.25	40.28
344.462	21.85
344.674	-2.73
344.886	83.28
345.099	17.75
345.311	-15.02
345.523	46.42
345.735	40.28
345.947	83.28
346.159	44.37
346.371	40.28
346.583	46.42
346.795	75.09
347.007	46.42
347.219	36.18
347.431	-0.68
347.643	87.38
347.855	60.76
348.067	81.24
348.279	44.37
348.491	36.18
348.703	56.66
348.915	87.38
349.127	42.32
349.339	64.85
349.551	-10.92
349.763	62.8
349.975	68.95
350.187	36.18
350.399	44.37
350.61	146.77
350.822	15.7
351.034	27.99
351.246	64.85
351.458	30.04
351.669	11.61
351.881	97.62
352.093	46.42
352.305	114
352.517	138.58
352.728	97.62
352.94	68.95
353.152	130.39
353.363	23.89
353.575	44.37
353.787	15.7
353.999	116.05
354.21	83.28
354.422	5.46
354.633	3.41
354.845	75.09
355.057	-60.07
355.268	83.28
355.48	42.32
355.692	48.47
355.903	60.76
356.115	32.08
356.326	68.95
356.538	73.04
356.749	85.33
356.961	73.04
357.172	75.09
357.384	42.32
357.595	81.24
357.807	62.8
358.018	93.52
358.23	25.94
358.441	79.19
358.653	85.33
358.864	62.8
359.075	64.85
359.287	62.8
359.498	77.14
359.709	58.71
359.921	7.51
360.132	-10.92
360.344	27.99
360.555	77.14
360.766	75.09
360.977	-21.16
361.189	101.72
361.4	87.38
361.611	128.34
361.823	50.52
362.034	83.28
362.245	54.61
362.456	58.71
362.667	36.18
362.879	101.72
363.09	40.28
363.301	21.85
363.512	128.34
363.723	17.75
363.935	138.58
364.146	87.38
364.357	9.56
364.568	21.85
364.779	1.37
364.99	83.28
365.201	-15.02
365.412	73.04
365.623	5.46
365.834	58.71
366.045	83.28
366.256	62.8
366.467	54.61
366.678	75.09
366.889	-29.35
367.1	58.71
367.311	19.8
367.522	3.41
367.733	118.1
367.944	-15.02
368.155	-39.59
368.366	62.8
368.577	75.09
368.788	85.33
368.999	13.65
369.209	32.08
369.42	97.62
369.631	109.91
369.842	48.47
370.053	7.51
370.264	66.9
370.474	46.42
370.685	60.76
370.896	-10.92
371.107	68.95
371.317	79.19
371.528	54.61
371.739	73.04
371.95	60.76
372.16	157.01
372.371	32.08
372.582	17.75
372.792	32.08
373.003	56.66
373.214	-43.69
373.424	-15.02
373.635	-2.73
373.846	58.71
374.056	101.72
374.267	30.04
374.477	-4.78
374.688	75.09
374.898	56.66
375.109	60.76
375.319	87.38
375.53	97.62
375.74	21.85
375.951	5.46
376.161	38.23
376.372	122.2
376.582	42.32
376.793	-33.45
377.003	62.8
377.214	36.18
377.424	71
377.635	95.57
377.845	85.33
378.055	50.52
378.266	-4.78
378.476	23.89
378.686	44.37
378.897	27.99
379.107	124.24
379.317	5.46
379.528	-2.73
379.738	19.8
379.948	30.04
380.158	73.04
380.369	60.76
380.579	83.28
380.789	44.37
380.999	95.57
381.21	103.76
381.42	118.1
381.63	120.15
381.84	42.32
382.05	71
382.261	75.09
382.471	95.57
382.681	66.9
382.891	101.72
383.101	11.61
383.311	11.61
383.521	46.42
383.731	56.66
383.941	30.04
384.151	62.8
384.361	91.48
384.571	134.48
384.781	75.09
384.991	146.77
385.201	130.39
385.411	132.44
385.621	132.44
385.831	21.85
386.041	11.61
386.251	85.33
386.461	128.34
386.671	60.76
386.881	27.99
387.091	27.99
387.301	68.95
387.511	95.57
387.72	58.71
387.93	68.95
388.14	91.48
388.35	87.38
388.56	27.99
388.769	50.52
388.979	44.37
389.189	62.8
389.399	27.99
389.609	138.58
389.818	77.14
390.028	62.8
390.238	118.1
390.447	-19.11
390.657	23.89
390.867	58.71
391.076	13.65
391.286	87.38
391.496	83.28
391.705	103.76
391.915	77.14
392.125	116.05
392.334	5.46
392.544	71
392.753	11.61
392.963	25.94
393.172	19.8
393.382	56.66
393.591	159.06
393.801	32.08
394.01	99.67
394.22	62.8
394.429	101.72
394.639	60.76
394.848	77.14
395.058	144.72
395.267	44.37
395.477	130.39
395.686	93.52
395.895	142.68
396.105	130.39
396.314	60.76
396.524	73.04
396.733	107.86
396.942	148.82
397.152	202.07
397.361	132.44
397.57	52.56
397.78	77.14
397.989	95.57
398.198	179.54
398.407	93.52
398.617	73.04
398.826	54.61
399.035	134.48
399.244	46.42
399.453	118.1
399.663	169.3
399.872	150.87
400.081	109.91
400.29	126.29
400.499	77.14
400.708	124.24
400.917	66.9
401.127	87.38
401.336	128.34
401.545	124.24
401.754	150.87
401.963	54.61
402.172	134.48
402.381	105.81
402.59	157.01
402.799	122.2
403.008	138.58
403.217	154.96
403.426	175.44
403.635	97.62
403.844	79.19
404.053	157.01
404.262	58.71
404.471	208.21
404.68	189.78
404.888	214.35
405.097	224.59
405.306	181.59
405.515	171.35
405.724	157.01
405.933	152.92
406.142	243.03
406.35	167.25
406.559	271.7
406.768	218.45
406.977	157.01
407.185	290.13
407.394	195.92
407.603	169.3
407.812	245.07
408.02	273.75
408.229	197.97
408.438	222.55
408.646	288.08
408.855	238.93
409.064	298.32
409.272	202.07
409.481	410.96
409.69	292.18
409.898	324.94
410.107	374.1
410.315	410.96
410.524	410.96
410.733	392.53
410.941	353.62
411.15	431.44
411.358	396.62
411.567	511.31
411.775	406.86
411.984	488.78
412.192	503.12
412.401	494.93
412.609	531.79
412.818	490.83
413.026	554.32
413.234	566.6
413.443	572.75
413.651	666.96
413.86	591.18
414.068	578.89
414.276	646.48
414.485	732.49
414.693	775.5
414.901	707.91
415.11	755.02
415.318	652.62
415.526	824.65
415.734	767.31
415.943	812.36
416.151	873.8
416.359	922.95
416.567	1002.82
416.776	992.58
416.984	1135.94
417.192	1152.32
417.4	1090.88
417.608	1115.46
417.817	1129.8
418.025	1142.08
418.233	1326.4
418.441	1230.15
418.649	1312.07
418.857	1447.23
419.065	1494.33
419.273	1428.8
419.481	1496.38
419.689	1582.4
419.897	1637.69
420.105	1707.32
420.313	1719.61
420.521	1889.59
420.729	1848.63
420.937	1918.26
421.145	1934.65
421.353	2069.81
421.561	2096.44
421.769	2258.23
421.977	2372.91
422.185	2372.91
422.393	2383.15
422.601	2512.18
422.809	2471.22
423.017	2583.85
423.224	2639.15
423.432	2764.08
423.64	2790.7
423.848	3171.62
424.056	2987.3
424.263	3159.33
424.471	3097.89
424.679	3194.15
424.887	3456.29
425.094	3527.97
425.302	3570.97
425.51	3568.93
425.718	3777.82
425.925	3937.56
426.133	3972.38
426.341	4216.09
426.548	4312.34
426.756	4510.99
426.964	4404.5
427.171	4717.84
427.379	4924.68
427.586	4777.23
427.794	5096.71
428.001	5180.68
428.209	5479.68
428.417	5440.77
428.624	5846.27
428.832	5760.25
429.039	5866.75
429.247	5729.53
429.454	6405.36
429.662	6690.03
429.869	6278.39
430.076	6759.66
430.284	6483.19
430.491	7017.71
430.699	7275.75
430.906	7058.67
431.114	7177.45
431.321	7578.85
431.528	7644.38
431.736	8168.66
431.943	8525.01
432.15	8193.24
432.358	8281.3
432.565	8649.94
432.772	8813.77
432.979	9360.58
433.187	9479.36
433.394	9493.7
433.601	9899.2
433.808	10142.91
434.016	10112.19
434.223	10609.84
434.43	11119.79
434.637	10806.45
434.844	11652.26
435.052	11979.93
435.259	11717.79
435.466	11975.84
435.673	11826.34
435.88	12473.49
436.087	13249.68
436.294	13343.88
436.501	12784.79
436.708	12926.1
436.915	13628.55
437.122	13968.51
437.329	14027.9
437.537	14433.4
437.743	14718.07
437.95	14812.28
438.157	15516.78
438.364	15975.52
438.571	15783.01
438.778	15934.56
438.985	17390.67
439.192	16548.95
439.399	17568.84
439.606	16819.28
439.813	17824.84
440.02	18918.45
440.227	18623.55
440.433	18334.78
440.64	18961.46
440.847	18955.32
441.054	19326
441.261	20755.48
441.467	20284.45
441.674	20800.54
441.881	21320.72
442.088	21589
442.294	21240.85
442.501	22035.46
442.708	22395.9
442.914	23311.35
443.121	24413.15
443.328	23528.43
443.534	25301.97
443.741	24155.11
443.948	24202.21
444.154	25861.07
444.361	25539.54
444.568	26041.29
444.774	25906.12
444.981	26368.96
445.187	27046.84
445.394	28169.13
445.6	27601.84
445.807	30387.08
446.013	29246.36
446.22	29250.46
446.426	31005.56
446.633	30974.84
446.839	31714.16
447.046	30645.12
447.252	32213.87
447.459	32267.11
447.665	32170.86
447.871	33573.72
448.078	35132.22
448.284	33200.99
448.491	34300.75
448.697	35666.74
448.903	35992.37
449.11	36064.05
449.316	35437.37
449.522	36377.39
449.728	36963.11
449.935	37432.09
450.141	37276.44
450.347	38050.58
450.553	36676.39
450.76	37083.94
450.966	38253.33
451.172	37847.83
451.378	38951.68
451.584	38060.82
451.791	38816.52
451.997	38824.71
452.203	39523.07
452.409	39127.81
452.615	39140.1
452.821	37622.55
453.027	37634.84
453.233	39168.77
453.44	37325.6
453.646	38349.58
453.852	38566.66
454.058	38634.25
454.264	37462.81
454.47	38337.29
454.676	37047.07
454.882	38664.97
455.088	35089.21
455.294	35377.98
455.5	35945.26
455.705	36617
455.911	34978.62
456.117	34003.79
456.323	33866.58
456.529	31826.8
456.735	33274.71
456.941	32820.06
457.147	32015.21
457.352	31210.36
457.558	30876.54
457.764	30933.89
457.97	30143.37
458.176	29676.43
458.381	29467.54
458.587	28099.5
458.793	27954.09
458.999	26643.39
459.204	28382.12
459.41	27546.54
459.616	25947.08
459.821	25686.99
460.027	25770.96
460.233	25287.64
460.438	24325.09
460.644	24370.15
460.85	23094.26
461.055	22660.09
461.261	22846.46
461.466	21107.73
461.672	20417.57
461.878	22053.89
462.083	20608.03
462.289	20270.11
462.494	19846.18
462.7	19094.58
462.905	18572.35
463.111	19237.94
463.316	19285.04
463.522	19082.29
463.727	18807.86
463.932	18838.58
464.138	18646.07
464.343	18725.94
464.549	18109.5
464.754	19102.77
464.959	18758.71
465.165	18476.09
465.37	17890.37
465.575	17374.28
465.781	17976.39
465.986	18043.97
466.191	17761.35
466.397	17048.66
466.602	16237.66
466.807	16870.48
467.012	17087.57
467.218	16784.47
467.423	16637.02
467.628	16727.13
467.833	17456.2
468.038	16888.92
