Data from USB4F104151__11__10-20-38-225.txt Node

Date: Wed Mar 12 10:20:38 EDT 2025
User: louis
Spectrometer: USB4F10415
Trigger mode: 4
Integration Time (sec): 3.000000E-2
Scans to average: 1
Electric dark correction enabled: true
Nonlinearity correction enabled: false
Boxcar width: 0
XAxis mode: Wavelengths
Number of Pixels in Spectrum: 3648
>>>>>Begin Spectral Data<<<<<
178.204	-146.26
178.424	-146.26
178.644	-146.26
178.864	-140.12
179.084	-84.82
179.304	19.63
179.524	-29.52
179.744	-4.95
179.964	-4.95
180.184	-13.14
180.404	44.2
180.624	-4.95
180.844	-39.76
181.064	17.58
181.283	17.58
181.503	19.63
181.723	-21.33
181.943	-50
182.163	91.31
182.383	-45.91
182.602	56.49
182.822	74.92
183.042	-25.43
183.262	-43.86
183.482	13.48
183.701	-74.58
183.921	-72.53
184.141	29.87
184.361	5.29
184.58	-19.29
184.8	29.87
185.02	-9.05
185.239	-4.95
185.459	7.34
185.679	5.29
185.898	27.82
186.118	68.78
186.338	-2.9
186.557	21.67
186.777	-35.67
186.997	42.15
187.216	36.01
187.436	21.67
187.655	40.11
187.875	-23.38
188.095	40.11
188.314	60.59
188.534	40.11
188.753	19.63
188.973	-33.62
189.192	56.49
189.412	-9.05
189.631	5.29
189.851	85.16
190.07	19.63
190.29	-0.85
190.509	-9.05
190.729	-43.86
190.948	21.67
191.168	89.26
191.387	64.68
191.607	11.43
191.826	11.43
192.045	-33.62
192.265	-25.43
192.484	9.39
192.704	-50
192.923	-13.14
193.142	48.3
193.362	3.24
193.581	81.07
193.8	64.68
194.02	46.25
194.239	27.82
194.458	21.67
194.678	-21.33
194.897	-13.14
195.116	19.63
195.335	11.43
195.555	48.3
195.774	11.43
195.993	9.39
196.212	62.63
196.432	40.11
196.651	64.68
196.87	-15.19
197.089	-17.24
197.308	46.25
197.528	72.87
197.747	29.87
197.966	13.48
198.185	-23.38
198.404	52.39
198.623	31.91
198.842	-37.72
199.062	25.77
199.281	11.43
199.5	-25.43
199.719	-9.05
199.938	54.44
200.157	95.4
200.376	40.11
200.595	83.11
200.814	-52.05
201.033	-29.52
201.252	31.91
201.471	-62.29
201.69	11.43
201.909	42.15
202.128	33.96
202.347	76.97
202.566	-9.05
202.785	3.24
203.004	-54.1
203.223	62.63
203.442	-29.52
203.661	-70.48
203.879	31.91
204.098	-41.81
204.317	-52.05
204.536	-7
204.755	38.06
204.974	25.77
205.193	-50
205.411	19.63
205.63	-4.95
205.849	-41.81
206.068	13.48
206.287	64.68
206.505	50.35
206.724	27.82
206.943	-2.9
207.162	81.07
207.381	31.91
207.599	13.48
207.818	17.58
208.037	-41.81
208.255	31.91
208.474	7.34
208.693	11.43
208.911	9.39
209.13	11.43
209.349	23.72
209.567	40.11
209.786	48.3
210.005	54.44
210.223	-60.24
210.442	-37.72
210.661	40.11
210.879	-2.9
211.098	54.44
211.316	-9.05
211.535	-9.05
211.753	-2.9
211.972	-17.24
212.191	-17.24
212.409	40.11
212.628	68.78
212.846	25.77
213.065	-56.15
213.283	107.69
213.502	89.26
213.72	27.82
213.938	-74.58
214.157	19.63
214.375	-35.67
214.594	-9.05
214.812	15.53
215.031	-13.14
215.249	15.53
215.467	36.01
215.686	7.34
215.904	56.49
216.122	89.26
216.341	87.21
216.559	1.19
216.778	31.91
216.996	-25.43
217.214	54.44
217.432	29.87
217.651	-37.72
217.869	23.72
218.087	81.07
218.306	5.29
218.524	-9.05
218.742	15.53
218.96	1.19
219.179	36.01
219.397	3.24
219.615	56.49
219.833	31.91
220.051	81.07
220.27	27.82
220.488	-33.62
220.706	15.53
220.924	-19.29
221.142	31.91
221.36	21.67
221.578	42.15
221.796	7.34
222.015	23.72
222.233	-2.9
222.451	7.34
222.669	-25.43
222.887	3.24
223.105	19.63
223.323	11.43
223.541	-45.91
223.759	76.97
223.977	21.67
224.195	40.11
224.413	11.43
224.631	40.11
224.849	23.72
225.067	62.63
225.285	-35.67
225.503	-17.24
225.721	-41.81
225.939	27.82
226.157	11.43
226.375	144.55
226.592	13.48
226.81	-25.43
227.028	54.44
227.246	27.82
227.464	31.91
227.682	62.63
227.9	115.88
228.117	-4.95
228.335	25.77
228.553	15.53
228.771	23.72
228.989	-9.05
229.206	107.69
229.424	38.06
229.642	-93.01
229.86	50.35
230.077	-2.9
230.295	81.07
230.513	42.15
230.731	83.11
230.948	3.24
231.166	62.63
231.384	-9.05
231.601	5.29
231.819	-21.33
232.037	5.29
232.254	-9.05
232.472	15.53
232.689	60.59
232.907	-33.62
233.125	38.06
233.342	-17.24
233.56	1.19
233.777	17.58
233.995	-21.33
234.213	42.15
234.43	-70.48
234.648	15.53
234.865	42.15
235.083	105.64
235.3	27.82
235.518	33.96
235.735	23.72
235.953	58.54
236.17	-29.52
236.388	-95.06
236.605	72.87
236.822	13.48
237.04	101.55
237.257	33.96
237.475	-33.62
237.692	-17.24
237.909	83.11
238.127	25.77
238.344	101.55
238.562	7.34
238.779	38.06
238.996	-33.62
239.214	46.25
239.431	-11.09
239.648	25.77
239.865	19.63
240.083	76.97
240.3	68.78
240.517	11.43
240.735	58.54
240.952	70.83
241.169	60.59
241.386	3.24
241.603	-37.72
241.821	15.53
242.038	64.68
242.255	11.43
242.472	62.63
242.689	42.15
242.907	74.92
243.124	17.58
243.341	11.43
243.558	15.53
243.775	-2.9
243.992	-0.85
244.209	72.87
244.426	-13.14
244.643	97.45
244.86	29.87
245.078	27.82
245.295	13.48
245.512	25.77
245.729	91.31
245.946	-2.9
246.163	58.54
246.38	5.29
246.597	29.87
246.814	-4.95
247.031	48.3
247.248	19.63
247.464	60.59
247.681	1.19
247.898	48.3
248.115	89.26
248.332	-7
248.549	62.63
248.766	19.63
248.983	-2.9
249.2	-37.72
249.417	21.67
249.633	-15.19
249.85	52.39
250.067	15.53
250.284	46.25
250.501	33.96
250.717	27.82
250.934	-11.09
251.151	-33.62
251.368	13.48
251.585	81.07
251.801	-17.24
252.018	81.07
252.235	7.34
252.451	60.59
252.668	62.63
252.885	72.87
253.102	-82.77
253.318	44.2
253.535	21.67
253.752	-21.33
253.968	40.11
254.185	-37.72
254.401	48.3
254.618	-13.14
254.835	23.72
255.051	-17.24
255.268	19.63
255.484	9.39
255.701	-15.19
255.917	-15.19
256.134	-29.52
256.351	15.53
256.567	-2.9
256.784	25.77
257	-11.09
257.217	-27.48
257.433	-9.05
257.65	-13.14
257.866	50.35
258.082	130.22
258.299	-27.48
258.515	91.31
258.732	-25.43
258.948	27.82
259.165	50.35
259.381	74.92
259.597	64.68
259.814	19.63
260.03	42.15
260.246	36.01
260.463	-25.43
260.679	68.78
260.895	-2.9
261.112	40.11
261.328	-13.14
261.544	-19.29
261.761	89.26
261.977	-15.19
262.193	31.91
262.409	54.44
262.626	-29.52
262.842	44.2
263.058	-50
263.274	-23.38
263.49	-0.85
263.707	15.53
263.923	-0.85
264.139	15.53
264.355	31.91
264.571	111.78
264.787	-19.29
265.004	-33.62
265.22	54.44
265.436	-0.85
265.652	15.53
265.868	38.06
266.084	-17.24
266.3	52.39
266.516	5.29
266.732	3.24
266.948	-29.52
267.164	31.91
267.38	-21.33
267.596	31.91
267.812	97.45
268.028	-25.43
268.244	-33.62
268.46	54.44
268.676	81.07
268.892	31.91
269.108	29.87
269.324	1.19
269.54	-11.09
269.756	50.35
269.972	-0.85
270.188	-23.38
270.403	5.29
270.619	50.35
270.835	19.63
271.051	29.87
271.267	-33.62
271.483	-43.86
271.698	11.43
271.914	42.15
272.13	15.53
272.346	-0.85
272.562	74.92
272.777	25.77
272.993	-13.14
273.209	54.44
273.425	-33.62
273.64	-17.24
273.856	-7
274.072	25.77
274.287	50.35
274.503	27.82
274.719	29.87
274.934	9.39
275.15	44.2
275.366	-7
275.581	31.91
275.797	40.11
276.012	-0.85
276.228	29.87
276.444	3.24
276.659	107.69
276.875	5.29
277.09	25.77
277.306	17.58
277.521	-23.38
277.737	-66.39
277.952	44.2
278.168	-11.09
278.383	38.06
278.599	87.21
278.814	-2.9
279.03	-0.85
279.245	36.01
279.461	52.39
279.676	36.01
279.892	9.39
280.107	9.39
280.322	-64.34
280.538	9.39
280.753	-47.96
280.969	7.34
281.184	9.39
281.399	-0.85
281.615	17.58
281.83	1.19
282.045	3.24
282.26	23.72
282.476	52.39
282.691	54.44
282.906	85.16
283.122	33.96
283.337	38.06
283.552	-2.9
283.767	-41.81
283.983	72.87
284.198	-17.24
284.413	89.26
284.628	46.25
284.843	64.68
285.058	33.96
285.274	5.29
285.489	36.01
285.704	38.06
285.919	42.15
286.134	85.16
286.349	-17.24
286.564	-0.85
286.779	38.06
286.995	31.91
287.21	-72.53
287.425	85.16
287.64	3.24
287.855	50.35
288.07	19.63
288.285	3.24
288.5	85.16
288.715	5.29
288.93	-17.24
289.145	15.53
289.36	-7
289.575	7.34
289.79	29.87
290.004	-13.14
290.219	58.54
290.434	-23.38
290.649	5.29
290.864	-21.33
291.079	25.77
291.294	13.48
291.509	66.73
291.724	-31.57
291.938	-4.95
292.153	1.19
292.368	-11.09
292.583	50.35
292.798	31.91
293.012	68.78
293.227	-15.19
293.442	-21.33
293.657	85.16
293.871	-0.85
294.086	81.07
294.301	52.39
294.516	156.84
294.73	-0.85
294.945	-29.52
295.16	-15.19
295.374	68.78
295.589	81.07
295.804	-33.62
296.018	68.78
296.233	46.25
296.447	95.4
296.662	21.67
296.877	60.59
297.091	21.67
297.306	72.87
297.52	1.19
297.735	97.45
297.949	66.73
298.164	56.49
298.378	54.44
298.593	52.39
298.807	66.73
299.022	11.43
299.236	97.45
299.451	138.41
299.665	-0.85
299.88	60.59
300.094	68.78
300.309	7.34
300.523	23.72
300.737	17.58
300.952	11.43
301.166	60.59
301.381	-9.05
301.595	7.34
301.809	-0.85
302.024	-21.33
302.238	-23.38
302.452	50.35
302.667	1.19
302.881	-15.19
303.095	-35.67
303.309	-27.48
303.524	21.67
303.738	5.29
303.952	76.97
304.166	38.06
304.381	11.43
304.595	36.01
304.809	56.49
305.023	-13.14
305.237	31.91
305.452	40.11
305.666	76.97
305.88	-47.96
306.094	-7
306.308	21.67
306.522	64.68
306.736	25.77
306.95	68.78
307.164	15.53
307.379	-25.43
307.593	62.63
307.807	89.26
308.021	97.45
308.235	105.64
308.449	3.24
308.663	38.06
308.877	54.44
309.091	-29.52
309.305	60.59
309.519	-39.76
309.733	58.54
309.947	-13.14
310.161	-58.2
310.374	-29.52
310.588	60.59
310.802	3.24
311.016	25.77
311.23	5.29
311.444	31.91
311.658	15.53
311.872	1.19
312.085	44.2
312.299	-33.62
312.513	74.92
312.727	79.02
312.941	-43.86
313.154	-35.67
313.368	97.45
313.582	-0.85
313.796	31.91
314.009	50.35
314.223	60.59
314.437	7.34
314.651	13.48
314.864	-66.39
315.078	31.91
315.292	64.68
315.505	13.48
315.719	79.02
315.933	42.15
316.146	56.49
316.36	-25.43
316.573	115.88
316.787	-45.91
317.001	36.01
317.214	-35.67
317.428	23.72
317.641	36.01
317.855	5.29
318.068	23.72
318.282	72.87
318.495	3.24
318.709	85.16
318.922	-29.52
319.136	52.39
319.349	68.78
319.563	31.91
319.776	50.35
319.99	11.43
320.203	15.53
320.417	-19.29
320.63	21.67
320.843	76.97
321.057	13.48
321.27	40.11
321.483	5.29
321.697	38.06
321.91	15.53
322.124	7.34
322.337	11.43
322.55	-33.62
322.763	7.34
322.977	74.92
323.19	9.39
323.403	40.11
323.617	-35.67
323.83	19.63
324.043	25.77
324.256	23.72
324.469	15.53
324.683	25.77
324.896	-43.86
325.109	54.44
325.322	29.87
325.535	83.11
325.748	19.63
325.962	-54.1
326.175	42.15
326.388	48.3
326.601	-27.48
326.814	44.2
327.027	23.72
327.24	103.59
327.453	-41.81
327.666	52.39
327.879	52.39
328.092	9.39
328.305	101.55
328.518	15.53
328.731	74.92
328.944	-15.19
329.157	-80.72
329.37	23.72
329.583	66.73
329.796	68.78
330.009	-74.58
330.222	23.72
330.435	76.97
330.648	-43.86
330.861	56.49
331.073	27.82
331.286	13.48
331.499	31.91
331.712	-0.85
331.925	11.43
332.138	-25.43
332.35	52.39
332.563	-17.24
332.776	36.01
332.989	-9.05
333.202	-41.81
333.414	38.06
333.627	56.49
333.84	21.67
334.053	-62.29
334.265	-7
334.478	64.68
334.691	60.59
334.903	5.29
335.116	40.11
335.329	5.29
335.541	31.91
335.754	-11.09
335.966	-33.62
336.179	17.58
336.392	25.77
336.604	101.55
336.817	52.39
337.029	7.34
337.242	29.87
337.454	23.72
337.667	44.2
337.88	113.83
338.092	85.16
338.305	64.68
338.517	38.06
338.729	79.02
338.942	72.87
339.154	-9.05
339.367	-37.72
339.579	-2.9
339.792	36.01
340.004	87.21
340.217	44.2
340.429	27.82
340.641	19.63
340.854	23.72
341.066	7.34
341.278	99.5
341.491	60.59
341.703	-0.85
341.915	79.02
342.128	40.11
342.34	1.19
342.552	-9.05
342.764	-25.43
342.977	-0.85
343.189	31.91
343.401	36.01
343.613	-33.62
343.826	52.39
344.038	13.48
344.25	-25.43
344.462	-11.09
344.674	5.29
344.886	76.97
345.099	-0.85
345.311	-19.29
345.523	38.06
345.735	19.63
345.947	11.43
346.159	-9.05
346.371	64.68
346.583	-2.9
346.795	64.68
347.007	-9.05
347.219	48.3
347.431	48.3
347.643	91.31
347.855	9.39
348.067	29.87
348.279	27.82
348.491	111.78
348.703	21.67
348.915	5.29
349.127	-11.09
349.339	89.26
349.551	15.53
349.763	52.39
349.975	29.87
350.187	44.2
350.399	52.39
350.61	31.91
350.822	-25.43
351.034	81.07
351.246	-17.24
351.458	23.72
351.669	1.19
351.881	66.73
352.093	15.53
352.305	-7
352.517	70.83
352.728	113.83
352.94	72.87
353.152	-17.24
353.363	3.24
353.575	46.25
353.787	64.68
353.999	40.11
354.21	52.39
354.422	64.68
354.633	36.01
354.845	-29.52
355.057	62.63
355.268	-45.91
355.48	50.35
355.692	52.39
355.903	68.78
356.115	-9.05
356.326	-17.24
356.538	89.26
356.749	48.3
356.961	50.35
357.172	-29.52
357.384	23.72
357.595	79.02
357.807	-9.05
358.018	-9.05
358.23	40.11
358.441	99.5
358.653	89.26
358.864	1.19
359.075	-9.05
359.287	29.87
359.498	124.07
359.709	38.06
359.921	-66.39
360.132	60.59
360.344	64.68
360.555	-29.52
360.766	38.06
360.977	54.44
361.189	19.63
361.4	105.64
361.611	50.35
361.823	144.55
362.034	7.34
362.245	40.11
362.456	-0.85
362.667	27.82
362.879	7.34
363.09	72.87
363.301	33.96
363.512	21.67
363.723	44.2
363.935	60.59
364.146	117.93
364.357	-58.2
364.568	103.59
364.779	-27.48
364.99	144.55
365.201	23.72
365.412	62.63
365.623	36.01
365.834	38.06
366.045	29.87
366.256	52.39
366.467	33.96
366.678	79.02
366.889	107.69
367.1	46.25
367.311	62.63
367.522	-25.43
367.733	46.25
367.944	42.15
368.155	81.07
368.366	66.73
368.577	60.59
368.788	136.36
368.999	44.2
369.209	64.68
369.42	81.07
369.631	36.01
369.842	62.63
370.053	101.55
370.264	-2.9
370.474	-19.29
370.685	72.87
370.896	-25.43
371.107	21.67
371.317	60.59
371.528	15.53
371.739	83.11
371.95	13.48
372.16	50.35
372.371	-0.85
372.582	38.06
372.792	70.83
373.003	19.63
373.214	56.49
373.424	72.87
373.635	48.3
373.846	-13.14
374.056	72.87
374.267	126.12
374.477	27.82
374.688	48.3
374.898	36.01
375.109	-19.29
375.319	-33.62
375.53	70.83
375.74	5.29
375.951	-33.62
376.161	-0.85
376.372	97.45
376.582	76.97
376.793	-17.24
377.003	17.58
377.214	-27.48
377.424	46.25
377.635	119.98
377.845	72.87
378.055	9.39
378.266	19.63
378.476	21.67
378.686	27.82
378.897	93.35
379.107	46.25
379.317	58.54
379.528	36.01
379.738	-0.85
379.948	-25.43
380.158	101.55
380.369	38.06
380.579	-2.9
380.789	17.58
380.999	23.72
381.21	87.21
381.42	107.69
381.63	-7
381.84	89.26
382.05	128.17
382.261	38.06
382.471	68.78
382.681	81.07
382.891	50.35
383.101	19.63
383.311	46.25
383.521	-0.85
383.731	85.16
383.941	44.2
384.151	50.35
384.361	-37.72
384.571	-31.57
384.781	122.02
384.991	5.29
385.201	58.54
385.411	19.63
385.621	36.01
385.831	21.67
386.041	60.59
386.251	74.92
386.461	93.35
386.671	76.97
386.881	19.63
387.091	64.68
387.301	19.63
387.511	27.82
387.72	29.87
387.93	52.39
388.14	17.58
388.35	52.39
388.56	40.11
388.769	144.55
388.979	81.07
389.189	5.29
389.399	85.16
389.609	64.68
389.818	62.63
390.028	-0.85
390.238	160.94
390.447	52.39
390.657	58.54
390.867	62.63
391.076	72.87
391.286	29.87
391.496	1.19
391.705	50.35
391.915	115.88
392.125	72.87
392.334	54.44
392.544	62.63
392.753	46.25
392.963	7.34
393.172	3.24
393.382	56.49
393.591	103.59
393.801	17.58
394.01	95.4
394.22	-41.81
394.429	122.02
394.639	64.68
394.848	87.21
395.058	74.92
395.267	136.36
395.477	76.97
395.686	79.02
395.895	99.5
396.105	40.11
396.314	91.31
396.524	122.02
396.733	38.06
396.942	103.59
397.152	60.59
397.361	64.68
397.57	179.37
397.78	64.68
397.989	95.4
398.198	154.79
398.407	74.92
398.617	76.97
398.826	87.21
399.035	81.07
399.244	91.31
399.453	89.26
399.663	136.36
399.872	134.31
400.081	48.3
400.29	44.2
400.499	52.39
400.708	142.5
400.917	177.32
401.127	85.16
401.336	154.79
401.545	119.98
401.754	187.56
401.963	111.78
402.172	105.64
402.381	95.4
402.59	7.34
402.799	81.07
403.008	130.22
403.217	81.07
403.426	138.41
403.635	122.02
403.844	128.17
404.053	109.74
404.262	119.98
404.471	173.22
404.68	203.94
404.888	122.02
405.097	76.97
405.306	95.4
405.515	177.32
405.724	134.31
405.933	208.04
406.142	154.79
406.35	197.8
406.559	175.27
406.768	212.14
406.977	273.57
407.185	208.04
407.394	183.46
407.603	263.33
407.812	261.29
408.02	249
408.229	197.8
408.438	212.14
408.646	169.13
408.855	232.62
409.064	277.67
409.272	267.43
409.481	287.91
409.69	261.29
409.898	253.09
410.107	261.29
410.315	339.11
410.524	365.73
410.733	337.06
410.941	400.55
411.15	412.84
411.358	392.36
411.567	484.52
411.775	470.18
411.984	398.5
412.192	472.23
412.401	447.65
412.609	527.52
412.818	525.47
413.026	498.85
413.234	582.82
413.443	562.34
413.651	574.63
413.86	545.95
414.068	687.26
414.276	697.5
414.485	609.44
414.693	695.46
414.901	765.09
415.11	728.22
415.318	744.61
415.526	828.57
415.734	767.13
415.943	844.96
416.151	904.35
416.359	847.01
416.567	953.5
416.776	1019.04
416.984	1055.9
417.192	1117.34
417.4	1012.89
417.608	1129.63
417.817	1141.91
418.025	1129.63
418.233	1258.65
418.441	1191.06
418.649	1289.37
418.857	1342.61
419.065	1408.15
419.273	1408.15
419.481	1373.33
419.689	1416.34
419.897	1600.66
420.105	1612.95
420.313	1598.61
420.521	1776.78
420.729	1750.16
420.937	1758.35
421.145	1899.66
421.353	2067.6
421.561	2020.49
421.769	2194.57
421.977	2157.71
422.185	2159.75
422.393	2258.06
422.601	2501.76
422.809	2452.61
423.017	2489.48
423.224	2548.87
423.432	2677.89
423.64	2747.52
423.848	2894.97
424.056	2899.07
424.263	2968.7
424.471	2989.18
424.679	3243.13
424.887	3341.43
425.094	3476.6
425.302	3456.12
425.51	3630.2
425.718	3701.87
425.925	3714.16
426.133	3814.51
426.341	4009.07
426.548	4179.05
426.756	4211.82
426.964	4174.95
427.171	4418.66
427.379	4656.23
427.586	4742.24
427.794	4770.91
428.001	4955.23
428.209	5323.87
428.417	5323.87
428.624	5618.77
428.832	5592.15
429.039	5520.47
429.247	5549.14
429.454	6081.61
429.662	6417.48
429.869	6141
430.076	6562.89
430.284	6462.54
430.491	6609.99
430.699	6884.42
430.906	7011.39
431.114	7124.03
431.321	7208
431.528	7445.56
431.736	8031.28
431.943	8250.41
432.15	8129.58
432.358	8227.89
432.565	8514.6
432.772	8432.68
432.979	8961.06
433.187	9094.18
433.394	9114.66
433.601	9839.64
433.808	9749.53
434.016	9837.59
434.223	10146.83
434.43	10873.86
434.637	10654.73
434.844	11211.78
435.052	11576.31
435.259	11389.95
435.466	11418.62
435.673	11432.96
435.88	12112.88
436.087	12774.38
436.294	12952.55
436.501	12479.47
436.708	12729.32
436.915	13059.04
437.122	13624.28
437.329	13743.06
437.537	14054.36
437.743	14408.65
437.95	14318.54
438.157	15053.76
438.364	15768.51
438.571	15559.61
438.778	15616.96
438.985	16946.09
439.192	16550.83
439.399	16812.97
439.606	16513.97
439.813	17382.31
440.02	18543.5
440.227	18060.18
440.433	18051.99
440.64	18629.52
440.847	18295.7
441.054	19053.45
441.261	20398.96
441.467	19805.05
441.674	20122.49
441.881	20724.59
442.088	20874.09
442.294	20958.06
442.501	21275.49
442.708	21810.01
442.914	22555.47
443.121	23536.45
443.328	22883.15
443.534	24580.92
443.741	23751.49
443.948	23499.59
444.154	25248.55
444.361	24781.62
444.568	25215.79
444.774	25455.4
444.981	25441.06
445.187	26374.94
445.394	27247.37
445.6	26825.49
445.807	29489.9
446.013	28175.1
446.22	28644.09
446.426	29919.97
446.633	29864.67
446.839	31003.35
447.046	29704.93
447.252	31314.64
447.459	31361.74
447.665	31425.23
447.871	32885.43
448.078	34038.44
448.284	31949.51
448.491	33311.41
448.697	34402.97
448.903	35254.93
449.11	34851.48
449.316	34325.15
449.522	35386
449.728	35828.36
449.935	36424.32
450.141	36039.3
450.347	37085.81
450.553	35680.91
450.76	35914.37
450.966	37192.31
451.172	36932.22
451.378	37587.57
451.584	37225.07
451.791	37794.41
451.997	37489.26
452.203	37780.07
452.409	38187.62
452.615	38060.65
452.821	36614.78
453.027	36045.44
453.233	38031.97
453.44	36663.93
453.646	36758.14
453.852	37083.76
454.058	37546.61
454.264	36252.29
454.47	37479.02
454.676	36135.56
454.882	37298.8
455.088	34153.12
455.294	34691.74
455.5	34869.91
455.705	35435.15
455.911	33708.71
456.117	33329.84
456.323	32617.14
456.529	30712.53
456.735	32150.21
456.941	31439.56
457.147	30872.28
457.352	30307.04
457.558	29649.64
457.764	29485.8
457.97	28967.66
458.176	28629.75
458.381	28238.59
458.587	27063.05
458.793	27108.11
458.999	25578.28
459.204	27603.72
459.41	26737.43
459.616	25160.49
459.821	24982.32
460.027	24965.93
460.233	24306.49
460.438	23300.94
460.644	23391.05
460.85	22616.91
461.055	21910.36
461.261	21971.8
461.466	20200.31
461.672	19657.6
461.878	21246.82
462.083	19846.01
462.289	19667.84
462.494	19176.33
462.7	18221.97
462.905	17785.76
463.111	18416.53
463.316	18502.54
463.522	18015.13
463.727	18297.75
463.932	18176.92
464.138	17984.41
464.343	17847.19
464.549	17546.14
464.754	17980.31
464.959	17959.83
465.165	17822.62
465.37	17177.51
465.575	16661.42
465.781	17279.91
465.986	17568.67
466.191	16653.23
466.397	16520.11
466.602	15694.78
466.807	16315.31
467.012	16157.62
467.218	16157.62
