Data from USB4F104151__60__10-23-54-042.txt Node

Date: Wed Mar 12 10:23:54 EDT 2025
User: louis
Spectrometer: USB4F10415
Trigger mode: 4
Integration Time (sec): 3.000000E-2
Scans to average: 1
Electric dark correction enabled: true
Nonlinearity correction enabled: false
Boxcar width: 0
XAxis mode: Wavelengths
Number of Pixels in Spectrum: 3648
>>>>>Begin Spectral Data<<<<<
178.204	-69.97
178.424	-69.97
178.644	-69.97
178.864	-84.31
179.084	-94.55
179.304	-37.2
179.524	-65.88
179.744	52.91
179.964	38.57
180.184	-12.63
180.404	-53.59
180.624	48.81
180.844	46.76
181.064	-49.49
181.283	-16.73
181.503	7.85
181.723	40.62
181.943	22.19
182.163	73.39
182.383	26.28
182.602	36.52
182.822	40.62
183.042	48.81
183.262	42.67
183.482	-4.44
183.701	97.96
183.921	28.33
184.141	30.38
184.361	48.81
184.58	44.71
184.8	1.71
185.02	38.57
185.239	-33.11
185.459	57
185.679	145.06
185.898	87.72
186.118	28.33
186.338	32.43
186.557	28.33
186.777	-8.53
186.997	36.52
187.216	46.76
187.436	89.77
187.655	-24.92
187.875	18.09
188.095	-16.73
188.314	30.38
188.534	102.06
188.753	22.19
188.973	69.29
189.192	87.72
189.412	52.91
189.631	73.39
189.851	30.38
190.07	89.77
190.29	42.67
190.509	42.67
190.729	79.53
190.948	73.39
191.168	126.63
191.387	-0.34
191.607	40.62
191.826	22.19
192.045	30.38
192.265	26.28
192.484	44.71
192.704	7.85
192.923	20.14
193.142	97.96
193.362	-51.54
193.581	102.06
193.8	34.47
194.02	110.25
194.239	32.43
194.458	89.77
194.678	77.48
194.897	48.81
195.116	11.95
195.335	79.53
195.555	61.1
195.774	3.75
195.993	87.72
196.212	20.14
196.432	63.15
196.651	38.57
196.87	30.38
197.089	28.33
197.308	40.62
197.528	24.23
197.747	-41.3
197.966	65.19
198.185	126.63
198.404	48.81
198.623	57
198.842	57
199.062	48.81
199.281	69.29
199.5	3.75
199.719	30.38
199.938	102.06
200.157	46.76
200.376	120.49
200.595	-4.44
200.814	61.1
201.033	-29.01
201.252	89.77
201.471	63.15
201.69	54.95
201.909	54.95
202.128	7.85
202.347	81.58
202.566	50.86
202.785	22.19
203.004	-4.44
203.223	57
203.442	81.58
203.661	11.95
203.879	32.43
204.098	69.29
204.317	5.8
204.536	71.34
204.755	28.33
204.974	67.24
205.193	95.91
205.411	102.06
205.63	11.95
205.849	1.71
206.068	-4.44
206.287	65.19
206.505	20.14
206.724	32.43
206.943	32.43
207.162	28.33
207.381	52.91
207.599	-49.49
207.818	61.1
208.037	24.23
208.255	-2.39
208.474	7.85
208.693	40.62
208.911	30.38
209.13	-4.44
209.349	106.15
209.567	20.14
209.786	69.29
210.005	95.91
210.223	-4.44
210.442	32.43
210.661	83.63
210.879	54.95
211.098	32.43
211.316	48.81
211.535	9.9
211.753	-35.16
211.972	57
212.191	48.81
212.409	36.52
212.628	75.43
212.846	28.33
213.065	38.57
213.283	100.01
213.502	9.9
213.72	38.57
213.938	65.19
214.157	38.57
214.375	136.87
214.594	3.75
214.812	1.71
215.031	57
215.249	13.99
215.467	63.15
215.686	11.95
215.904	85.67
216.122	59.05
216.341	79.53
216.559	42.67
216.778	81.58
216.996	18.09
217.214	22.19
217.432	3.75
217.651	-10.58
217.869	50.86
218.087	-47.44
218.306	-18.77
218.524	67.24
218.742	57
218.96	7.85
219.179	46.76
219.397	71.34
219.615	100.01
219.833	24.23
220.051	59.05
220.27	-33.11
220.488	3.75
220.706	77.48
220.924	40.62
221.142	48.81
221.36	-20.82
221.578	89.77
221.796	93.87
222.015	-57.68
222.233	32.43
222.451	50.86
222.669	9.9
222.887	30.38
223.105	42.67
223.323	13.99
223.541	-12.63
223.759	63.15
223.977	-6.49
224.195	97.96
224.413	-8.53
224.631	59.05
224.849	32.43
225.067	95.91
225.285	57
225.503	16.04
225.721	-29.01
225.939	81.58
226.157	52.91
226.375	138.92
226.592	32.43
226.81	104.11
227.028	89.77
227.246	54.95
227.464	18.09
227.682	73.39
227.9	65.19
228.117	-14.68
228.335	18.09
228.553	-8.53
228.771	50.86
228.989	-14.68
229.206	24.23
229.424	7.85
229.642	7.85
229.86	-8.53
230.077	30.38
230.295	81.58
230.513	71.34
230.731	54.95
230.948	52.91
231.166	52.91
231.384	-8.53
231.601	59.05
231.819	81.58
232.037	-0.34
232.254	46.76
232.472	87.72
232.689	57
232.907	77.48
233.125	26.28
233.342	65.19
233.56	-16.73
233.777	-43.35
233.995	-67.92
234.213	124.58
234.43	-8.53
234.648	-61.78
234.865	34.47
235.083	59.05
235.3	22.19
235.518	-2.39
235.735	26.28
235.953	97.96
236.17	42.67
236.388	46.76
236.605	120.49
236.822	38.57
237.04	46.76
237.257	44.71
237.475	-26.96
237.692	44.71
237.909	79.53
238.127	-33.11
238.344	-0.34
238.562	91.82
238.779	13.99
238.996	46.76
239.214	16.04
239.431	5.8
239.648	46.76
239.865	40.62
240.083	36.52
240.3	71.34
240.517	13.99
240.735	-37.2
240.952	63.15
241.169	95.91
241.386	44.71
241.603	132.78
241.821	22.19
242.038	77.48
242.255	89.77
242.472	-26.96
242.689	61.1
242.907	93.87
243.124	16.04
243.341	91.82
243.558	-33.11
243.775	61.1
243.992	61.1
244.209	30.38
244.426	93.87
244.643	93.87
244.86	-35.16
245.078	16.04
245.295	63.15
245.512	34.47
245.729	1.71
245.946	83.63
246.163	22.19
246.38	-31.06
246.597	7.85
246.814	50.86
247.031	54.95
247.248	114.34
247.464	34.47
247.681	79.53
247.898	54.95
248.115	52.91
248.332	73.39
248.549	73.39
248.766	73.39
248.983	13.99
249.2	-4.44
249.417	77.48
249.633	16.04
249.85	44.71
250.067	52.91
250.284	75.43
250.501	-35.16
250.717	75.43
250.934	61.1
251.151	-57.68
251.368	65.19
251.585	61.1
251.801	69.29
252.018	28.33
252.235	61.1
252.451	30.38
252.668	48.81
252.885	54.95
253.102	38.57
253.318	16.04
253.535	57
253.752	24.23
253.968	-29.01
254.185	77.48
254.401	-2.39
254.618	20.14
254.835	52.91
255.051	104.11
255.268	97.96
255.484	77.48
255.701	22.19
255.917	89.77
256.134	85.67
256.351	46.76
256.567	-29.01
256.784	-20.82
257	40.62
257.217	95.91
257.433	52.91
257.65	69.29
257.866	3.75
258.082	59.05
258.299	-0.34
258.515	87.72
258.732	-10.58
258.948	26.28
259.165	81.58
259.381	52.91
259.597	48.81
259.814	61.1
260.03	-39.25
260.246	44.71
260.463	26.28
260.679	16.04
260.895	5.8
261.112	54.95
261.328	9.9
261.544	32.43
261.761	114.34
261.977	32.43
262.193	36.52
262.409	93.87
262.626	18.09
262.842	30.38
263.058	36.52
263.274	52.91
263.49	69.29
263.707	22.19
263.923	79.53
264.139	63.15
264.355	24.23
264.571	149.16
264.787	3.75
265.004	126.63
265.22	30.38
265.436	5.8
265.652	81.58
265.868	44.71
266.084	9.9
266.3	97.96
266.516	48.81
266.732	34.47
266.948	36.52
267.164	20.14
267.38	38.57
267.596	54.95
267.812	81.58
268.028	26.28
268.244	18.09
268.46	18.09
268.676	52.91
268.892	16.04
269.108	32.43
269.324	-0.34
269.54	18.09
269.756	106.15
269.972	44.71
270.188	-6.49
270.403	73.39
270.619	69.29
270.835	77.48
271.051	22.19
271.267	20.14
271.483	-45.4
271.698	22.19
271.914	16.04
272.13	13.99
272.346	69.29
272.562	61.1
272.777	93.87
272.993	5.8
273.209	-2.39
273.425	67.24
273.64	38.57
273.856	91.82
274.072	93.87
274.287	34.47
274.503	36.52
274.719	20.14
274.934	-74.07
275.15	-8.53
275.366	52.91
275.581	24.23
275.797	36.52
276.012	120.49
276.228	22.19
276.444	16.04
276.659	134.82
276.875	38.57
277.09	-51.54
277.306	42.67
277.521	114.34
277.737	1.71
277.952	48.81
278.168	79.53
278.383	110.25
278.599	24.23
278.814	95.91
279.03	57
279.245	81.58
279.461	112.3
279.676	69.29
279.892	-16.73
280.107	1.71
280.322	65.19
280.538	50.86
280.753	83.63
280.969	28.33
281.184	-18.77
281.399	87.72
281.615	46.76
281.83	22.19
282.045	-51.54
282.26	59.05
282.476	5.8
282.691	73.39
282.906	59.05
283.122	44.71
283.337	28.33
283.552	79.53
283.767	-20.82
283.983	81.58
284.198	65.19
284.413	87.72
284.628	91.82
284.843	38.57
285.058	28.33
285.274	75.43
285.489	89.77
285.704	87.72
285.919	48.81
286.134	65.19
286.349	69.29
286.564	77.48
286.779	89.77
286.995	24.23
287.21	-26.96
287.425	44.71
287.64	42.67
287.855	54.95
288.07	44.71
288.285	36.52
288.5	38.57
288.715	48.81
288.93	5.8
289.145	-6.49
289.36	16.04
289.575	93.87
289.79	65.19
290.004	32.43
290.219	114.34
290.434	38.57
290.649	18.09
290.864	89.77
291.079	7.85
291.294	-0.34
291.509	32.43
291.724	104.11
291.938	-24.92
292.153	61.1
292.368	44.71
292.583	9.9
292.798	63.15
293.012	24.23
293.227	79.53
293.442	3.75
293.657	114.34
293.871	34.47
294.086	104.11
294.301	36.52
294.516	46.76
294.73	114.34
294.945	83.63
295.16	61.1
295.374	159.4
295.589	30.38
295.804	42.67
296.018	-12.63
296.233	100.01
296.447	11.95
296.662	3.75
296.877	50.86
297.091	85.67
297.306	-10.58
297.52	-14.68
297.735	63.15
297.949	102.06
298.164	65.19
298.378	46.76
298.593	-33.11
298.807	46.76
299.022	24.23
299.236	-4.44
299.451	-10.58
299.665	-33.11
299.88	36.52
300.094	77.48
300.309	3.75
300.523	93.87
300.737	26.28
300.952	73.39
301.166	32.43
301.381	36.52
301.595	118.44
301.809	24.23
302.024	73.39
302.238	48.81
302.452	69.29
302.667	9.9
302.881	132.78
303.095	85.67
303.309	81.58
303.524	61.1
303.738	48.81
303.952	38.57
304.166	116.39
304.381	52.91
304.595	63.15
304.809	-22.87
305.023	59.05
305.237	13.99
305.452	-53.59
305.666	34.47
305.88	75.43
306.094	63.15
306.308	97.96
306.522	50.86
306.736	104.11
306.95	1.71
307.164	97.96
307.379	85.67
307.593	79.53
307.807	38.57
308.021	65.19
308.235	-10.58
308.449	44.71
308.663	5.8
308.877	97.96
309.091	87.72
309.305	89.77
309.519	-8.53
309.733	71.34
309.947	3.75
310.161	24.23
310.374	48.81
310.588	44.71
310.802	28.33
311.016	16.04
311.23	38.57
311.444	63.15
311.658	118.44
311.872	44.71
312.085	54.95
312.299	40.62
312.513	116.39
312.727	81.58
312.941	18.09
313.154	30.38
313.368	110.25
313.582	32.43
313.796	7.85
314.009	20.14
314.223	120.49
314.437	16.04
314.651	7.85
314.864	3.75
315.078	54.95
315.292	18.09
315.505	20.14
315.719	20.14
315.933	71.34
316.146	30.38
316.36	77.48
316.573	50.86
316.787	57
317.001	89.77
317.214	26.28
317.428	50.86
317.641	71.34
317.855	-18.77
318.068	-0.34
318.282	69.29
318.495	46.76
318.709	85.67
318.922	106.15
319.136	48.81
319.349	44.71
319.563	26.28
319.776	-12.63
319.99	18.09
320.203	44.71
320.417	57
320.63	38.57
320.843	128.68
321.057	36.52
321.27	16.04
321.483	-51.54
321.697	179.88
321.91	-0.34
322.124	65.19
322.337	18.09
322.55	13.99
322.763	36.52
322.977	52.91
323.19	24.23
323.403	77.48
323.617	77.48
323.83	-16.73
324.043	1.71
324.256	48.81
324.469	-0.34
324.683	-0.34
324.896	104.11
325.109	34.47
325.322	-18.77
325.535	32.43
325.748	69.29
325.962	108.2
326.175	-39.25
326.388	1.71
326.601	81.58
326.814	71.34
327.027	97.96
327.24	102.06
327.453	-8.53
327.666	65.19
327.879	22.19
328.092	75.43
328.305	73.39
328.518	69.29
328.731	61.1
328.944	36.52
329.157	57
329.37	69.29
329.583	120.49
329.796	77.48
330.009	81.58
330.222	93.87
330.435	71.34
330.648	52.91
330.861	77.48
331.073	100.01
331.286	-4.44
331.499	13.99
331.712	30.38
331.925	20.14
332.138	-0.34
332.35	124.58
332.563	50.86
332.776	28.33
332.989	83.63
333.202	30.38
333.414	-6.49
333.627	81.58
333.84	75.43
334.053	100.01
334.265	71.34
334.478	24.23
334.691	28.33
334.903	95.91
335.116	22.19
335.329	44.71
335.541	52.91
335.754	81.58
335.966	40.62
336.179	18.09
336.392	32.43
336.604	71.34
336.817	122.54
337.029	110.25
337.242	83.63
337.454	114.34
337.667	24.23
337.88	16.04
338.092	54.95
338.305	5.8
338.517	13.99
338.729	57
338.942	77.48
339.154	67.24
339.367	65.19
339.579	46.76
339.792	42.67
340.004	16.04
340.217	32.43
340.429	24.23
340.641	-6.49
340.854	52.91
341.066	61.1
341.278	7.85
341.491	52.91
341.703	122.54
341.915	-16.73
342.128	44.71
342.34	81.58
342.552	81.58
342.764	38.57
342.977	71.34
343.189	108.2
343.401	75.43
343.613	-24.92
343.826	38.57
344.038	38.57
344.25	85.67
344.462	11.95
344.674	38.57
344.886	75.43
345.099	54.95
345.311	44.71
345.523	44.71
345.735	79.53
345.947	34.47
346.159	34.47
346.371	89.77
346.583	-0.34
346.795	95.91
347.007	65.19
347.219	112.3
347.431	40.62
347.643	50.86
347.855	93.87
348.067	100.01
348.279	-10.58
348.491	67.24
348.703	104.11
348.915	63.15
349.127	30.38
349.339	130.73
349.551	-26.96
349.763	85.67
349.975	3.75
350.187	102.06
350.399	40.62
350.61	95.91
350.822	13.99
351.034	61.1
351.246	61.1
351.458	57
351.669	73.39
351.881	48.81
352.093	57
352.305	81.58
352.517	40.62
352.728	93.87
352.94	-35.16
353.152	134.82
353.363	-12.63
353.575	71.34
353.787	93.87
353.999	61.1
354.21	102.06
354.422	30.38
354.633	16.04
354.845	1.71
355.057	87.72
355.268	87.72
355.48	106.15
355.692	-37.2
355.903	114.34
356.115	63.15
356.326	18.09
356.538	149.16
356.749	20.14
356.961	52.91
357.172	40.62
357.384	11.95
357.595	44.71
357.807	75.43
358.018	65.19
358.23	11.95
358.441	97.96
358.653	134.82
358.864	3.75
359.075	63.15
359.287	30.38
359.498	79.53
359.709	65.19
359.921	36.52
360.132	57
360.344	106.15
360.555	61.1
360.766	69.29
360.977	20.14
361.189	34.47
361.4	63.15
361.611	69.29
361.823	22.19
362.034	46.76
362.245	-102.74
362.456	-8.53
362.667	114.34
362.879	63.15
363.09	85.67
363.301	28.33
363.512	91.82
363.723	73.39
363.935	69.29
364.146	20.14
364.357	63.15
364.568	54.95
364.779	-0.34
364.99	73.39
365.201	44.71
365.412	102.06
365.623	83.63
365.834	73.39
366.045	79.53
366.256	93.87
366.467	77.48
366.678	85.67
366.889	63.15
367.1	28.33
367.311	46.76
367.522	-2.39
367.733	57
367.944	81.58
368.155	28.33
368.366	57
368.577	83.63
368.788	28.33
368.999	26.28
369.209	11.95
369.42	81.58
369.631	134.82
369.842	120.49
370.053	9.9
370.264	104.11
370.474	52.91
370.685	30.38
370.896	85.67
371.107	93.87
371.317	75.43
371.528	24.23
371.739	122.54
371.95	42.67
372.16	44.71
372.371	42.67
372.582	28.33
372.792	40.62
373.003	52.91
373.214	73.39
373.424	9.9
373.635	22.19
373.846	104.11
374.056	100.01
374.267	61.1
374.477	38.57
374.688	57
374.898	136.87
375.109	120.49
375.319	89.77
375.53	132.78
375.74	11.95
375.951	110.25
376.161	73.39
376.372	118.44
376.582	89.77
376.793	77.48
377.003	16.04
377.214	-8.53
377.424	130.73
377.635	69.29
377.845	24.23
378.055	112.3
378.266	-2.39
378.476	67.24
378.686	79.53
378.897	85.67
379.107	97.96
379.317	44.71
379.528	97.96
379.738	57
379.948	81.58
380.158	112.3
380.369	46.76
380.579	81.58
380.789	69.29
380.999	79.53
381.21	32.43
381.42	138.92
381.63	97.96
381.84	50.86
382.05	-16.73
382.261	54.95
382.471	112.3
382.681	26.28
382.891	81.58
383.101	-22.87
383.311	32.43
383.521	24.23
383.731	126.63
383.941	95.91
384.151	79.53
384.361	69.29
384.571	61.1
384.781	30.38
384.991	69.29
385.201	87.72
385.411	93.87
385.621	87.72
385.831	28.33
386.041	89.77
386.251	40.62
386.461	71.34
386.671	65.19
386.881	57
387.091	44.71
387.301	212.65
387.511	114.34
387.72	48.81
387.93	79.53
388.14	63.15
388.35	-16.73
388.56	65.19
388.769	106.15
388.979	108.2
389.189	124.58
389.399	73.39
389.609	116.39
389.818	106.15
390.028	61.1
390.238	89.77
390.447	73.39
390.657	97.96
390.867	91.82
391.076	22.19
391.286	69.29
391.496	34.47
391.705	36.52
391.915	63.15
392.125	126.63
392.334	48.81
392.544	130.73
392.753	48.81
392.963	77.48
393.172	77.48
393.382	81.58
393.591	104.11
393.801	151.21
394.01	87.72
394.22	97.96
394.429	108.2
394.639	38.57
394.848	134.82
395.058	87.72
395.267	112.3
395.477	175.78
395.686	145.06
395.895	245.41
396.105	161.45
396.314	95.91
396.524	145.06
396.733	104.11
396.942	36.52
397.152	102.06
397.361	192.17
397.57	97.96
397.78	116.39
397.989	54.95
398.198	202.41
398.407	126.63
398.617	116.39
398.826	73.39
399.035	122.54
399.244	97.96
399.453	126.63
399.663	140.97
399.872	93.87
400.081	44.71
400.29	163.5
400.499	138.92
400.708	167.59
400.917	188.07
401.127	147.11
401.336	122.54
401.545	196.26
401.754	71.34
401.963	183.98
402.172	122.54
402.381	136.87
402.59	112.3
402.799	192.17
403.008	212.65
403.217	210.6
403.426	147.11
403.635	128.68
403.844	130.73
404.053	130.73
404.262	106.15
404.471	186.02
404.68	231.08
404.888	106.15
405.097	208.55
405.306	200.36
405.515	220.84
405.724	138.92
405.933	198.31
406.142	161.45
406.35	251.56
406.559	110.25
406.768	186.02
406.977	253.61
407.185	200.36
407.394	265.89
407.603	210.6
407.812	267.94
408.02	253.61
408.229	224.94
408.438	286.37
408.646	251.56
408.855	276.13
409.064	374.44
409.272	263.85
409.481	286.37
409.69	282.28
409.898	378.53
410.107	337.57
410.315	409.25
410.524	399.01
410.733	409.25
410.941	388.77
411.15	413.35
411.358	431.78
411.567	513.7
411.775	444.07
411.984	495.27
412.192	446.12
412.401	577.19
412.609	562.85
412.818	612
413.026	708.26
413.234	558.75
413.443	622.24
413.651	622.24
413.86	671.39
414.068	765.6
414.276	714.4
414.485	730.78
414.693	741.02
414.901	728.74
415.11	796.32
415.318	808.61
415.526	841.37
415.734	956.06
415.943	888.48
416.151	994.97
416.359	1009.31
416.567	1003.16
416.776	1027.74
416.984	1142.43
417.192	1130.14
417.4	1080.99
417.608	1126.04
417.817	1101.47
418.025	1232.54
418.233	1324.69
418.441	1267.35
418.649	1330.84
418.857	1488.53
419.065	1535.64
419.273	1517.2
419.481	1537.68
419.689	1570.45
419.897	1777.3
420.105	1695.38
420.313	1732.24
420.521	1926.8
420.729	1941.13
420.937	1986.19
421.145	1998.48
421.353	2000.52
421.561	2160.27
421.769	2252.42
421.977	2326.15
422.185	2383.49
422.393	2545.28
422.601	2637.44
422.809	2686.59
423.017	2602.63
423.224	2614.91
423.432	2866.81
423.64	2858.62
423.848	3120.76
424.056	2977.41
424.263	3309.18
424.471	3292.79
424.679	3288.7
424.887	3475.06
425.094	3579.51
425.302	3632.76
425.51	3767.92
425.718	3993.2
425.925	3884.66
426.133	4028.01
426.341	4189.8
426.548	4324.97
426.756	4437.61
426.964	4548.2
427.171	4732.51
427.379	4992.61
427.586	4970.08
427.794	5097.05
428.001	5394.01
428.209	5717.59
428.417	5508.69
428.624	5858.9
428.832	5873.23
429.039	6069.84
429.247	5910.1
429.454	6368.84
429.662	6774.34
429.869	6463.05
430.076	6870.59
430.284	6680.13
430.491	6958.66
430.699	7335.48
430.906	7581.24
431.114	7372.35
431.321	7761.46
431.528	7908.91
431.736	8281.64
431.943	8736.29
432.15	8437.29
432.358	8670.76
432.565	9059.87
432.772	9084.45
432.979	9586.2
433.187	9797.14
433.394	9776.66
433.601	10530.31
433.808	10495.5
434.016	10341.9
434.223	10812.93
434.43	11623.93
434.637	11105.79
434.844	12029.43
435.052	12078.58
435.259	12238.32
435.466	12266.99
435.673	12035.57
435.88	12807.66
436.087	13497.82
436.294	13667.8
436.501	13184.48
436.708	13293.02
436.915	14034.39
437.122	14708.17
437.329	14642.64
437.537	14953.93
437.743	15455.68
437.95	14986.69
438.157	15914.42
438.364	16502.19
438.571	16489.9
438.778	16604.59
438.985	17878.43
439.192	17149.35
439.399	18167.19
439.606	17460.64
439.813	18187.67
440.02	19670.4
440.227	19160.45
440.433	19135.88
440.64	20047.22
440.847	19352.96
441.054	20153.72
441.261	21413.22
441.467	21153.13
441.674	21693.79
441.881	22472.02
442.088	22429.01
442.294	22078.81
442.501	22482.26
442.708	23143.75
442.914	24126.78
443.121	24683.83
443.328	23981.37
443.534	25933.09
443.741	25060.65
443.948	25210.15
444.154	26756.37
444.361	26281.24
444.568	26590.48
444.774	26631.44
444.981	27120.91
445.187	27903.23
445.394	29086.96
445.6	28431.61
445.807	31163.6
446.013	29713.64
446.22	30258.4
446.426	31552.71
446.633	31786.18
446.839	33045.68
447.046	31673.54
447.252	33449.13
447.459	33537.19
447.665	33256.62
447.871	34682.01
448.078	35945.61
448.284	34038.95
448.491	35251.34
448.697	36578.43
448.903	36772.99
449.11	36742.27
449.316	36166.79
449.522	36988.02
449.728	38098.02
449.935	38356.07
450.141	38270.05
450.347	38968.41
450.553	37842.03
450.76	38057.06
450.966	39601.23
451.172	39130.2
451.378	39711.82
451.584	39359.57
451.791	39986.25
451.997	39822.41
452.203	40639.55
452.409	39828.55
452.615	40152.13
452.821	38945.88
453.027	38388.83
453.233	40526.91
453.44	38554.72
453.646	38700.12
453.852	39515.22
454.058	40154.18
454.264	38335.59
454.47	39183.44
454.676	38431.84
454.882	39312.47
455.088	36306.05
455.294	36627.58
455.5	37237.87
455.705	37008.5
455.911	36189.31
456.117	35411.09
456.323	34770.07
456.529	33182.9
456.735	34366.62
456.941	33311.92
457.147	33033.39
457.352	32029.89
457.558	31493.32
457.764	31655.11
457.97	31315.15
458.176	30227.68
458.381	30586.07
458.587	28710.13
458.793	28890.35
458.999	27311.37
459.204	29359.34
459.41	28568.82
459.616	26789.14
459.821	27129.1
460.027	26682.64
460.233	26017.05
460.438	24620.34
460.644	25060.65
460.85	23776.58
461.055	23502.15
461.261	23670.08
461.466	21826.91
461.672	21169.51
461.878	22652.24
462.083	20761.97
462.289	20704.62
462.494	20708.72
462.7	19660.16
462.905	18980.23
463.111	19731.84
463.316	19787.13
463.522	19219.85
463.727	19479.94
463.932	19228.04
464.138	19174.79
464.343	19142.02
464.549	18802.06
464.754	19275.14
464.959	19187.08
465.165	19086.73
465.37	18437.52
465.575	17796.51
465.781	18392.47
465.986	18707.85
466.191	17919.39
466.397	17675.68
466.602	16723.37
466.807	17391.01
467.012	17456.54
467.218	17423.78
467.423	17077.67
467.628	17141.16
