Data from USB4F104151__28__10-21-51-056.txt Node

Date: Wed Mar 12 10:21:51 EDT 2025
User: louis
Spectrometer: USB4F10415
Trigger mode: 4
Integration Time (sec): 3.000000E-2
Scans to average: 1
Electric dark correction enabled: true
Nonlinearity correction enabled: false
Boxcar width: 0
XAxis mode: Wavelengths
Number of Pixels in Spectrum: 3648
>>>>>Begin Spectral Data<<<<<
178.204	-114.17
178.424	-114.17
178.644	-114.17
178.864	-62.98
179.084	-114.17
179.304	-30.21
179.524	-15.87
179.744	4.61
179.964	74.24
180.184	-46.59
180.404	16.9
180.624	-3.58
180.844	-30.21
181.064	-30.21
181.283	-11.78
181.503	49.66
181.723	23.04
181.943	-15.87
182.163	33.28
182.383	-11.78
182.602	2.56
182.822	55.81
183.042	92.67
183.262	-32.26
183.482	39.42
183.701	10.75
183.921	64
184.141	8.7
184.361	35.33
184.58	33.28
184.8	14.85
185.02	29.18
185.239	33.28
185.459	57.86
185.679	51.71
185.898	-30.21
186.118	90.62
186.338	-11.78
186.557	-15.87
186.777	27.14
186.997	-5.63
187.216	27.14
187.436	31.23
187.655	76.29
187.875	31.23
188.095	-40.45
188.314	33.28
188.534	23.04
188.753	-5.63
188.973	49.66
189.192	-24.06
189.412	-34.3
189.631	23.04
189.851	35.33
190.07	2.56
190.29	-22.02
190.509	-34.3
190.729	-24.06
190.948	-5.63
191.168	131.58
191.387	68.09
191.607	-71.17
191.826	-34.3
192.045	-13.82
192.265	82.43
192.484	18.94
192.704	-3.58
192.923	-9.73
193.142	31.23
193.362	-40.45
193.581	68.09
193.8	51.71
194.02	78.33
194.239	-26.11
194.458	57.86
194.678	8.7
194.897	2.56
195.116	35.33
195.335	45.57
195.555	-1.54
195.774	51.71
195.993	-13.82
196.212	0.51
196.432	68.09
196.651	-5.63
196.87	-5.63
197.089	100.86
197.308	29.18
197.528	14.85
197.747	39.42
197.966	51.71
198.185	8.7
198.404	-30.21
198.623	45.57
198.842	-3.58
199.062	51.71
199.281	6.66
199.5	-30.21
199.719	145.92
199.938	2.56
200.157	10.75
200.376	53.76
200.595	-7.68
200.814	31.23
201.033	47.62
201.252	20.99
201.471	43.52
201.69	88.57
201.909	49.66
202.128	133.63
202.347	43.52
202.566	64
202.785	0.51
203.004	33.28
203.223	25.09
203.442	35.33
203.661	-26.11
203.879	49.66
204.098	45.57
204.317	-32.26
204.536	78.33
204.755	-52.74
204.974	86.53
205.193	-24.06
205.411	59.9
205.63	35.33
205.849	59.9
206.068	8.7
206.287	57.86
206.505	68.09
206.724	-54.78
206.943	-38.4
207.162	35.33
207.381	-30.21
207.599	86.53
207.818	0.51
208.037	-19.97
208.255	23.04
208.474	20.99
208.693	66.05
208.911	16.9
209.13	104.96
209.349	51.71
209.567	37.38
209.786	70.14
210.005	14.85
210.223	27.14
210.442	70.14
210.661	23.04
210.879	2.56
211.098	53.76
211.316	39.42
211.535	12.8
211.753	10.75
211.972	18.94
212.191	2.56
212.409	10.75
212.628	12.8
212.846	2.56
213.065	78.33
213.283	-15.87
213.502	123.39
213.72	-7.68
213.938	0.51
214.157	35.33
214.375	-17.92
214.594	84.48
214.812	35.33
215.031	0.51
215.249	0.51
215.467	-5.63
215.686	2.56
215.904	37.38
216.122	80.38
216.341	59.9
216.559	-1.54
216.778	20.99
216.996	10.75
217.214	-1.54
217.432	-7.68
217.651	37.38
217.869	31.23
218.087	55.81
218.306	43.52
218.524	72.19
218.742	2.56
218.96	64
219.179	31.23
219.397	43.52
219.615	47.62
219.833	31.23
220.051	78.33
220.27	49.66
220.488	51.71
220.706	23.04
220.924	47.62
221.142	84.48
221.36	61.95
221.578	33.28
221.796	-19.97
222.015	16.9
222.233	68.09
222.451	27.14
222.669	51.71
222.887	33.28
223.105	61.95
223.323	-42.5
223.541	45.57
223.759	55.81
223.977	-5.63
224.195	100.86
224.413	-46.59
224.631	43.52
224.849	59.9
225.067	59.9
225.285	8.7
225.503	12.8
225.721	20.99
225.939	31.23
226.157	64
226.375	96.77
226.592	64
226.81	-1.54
227.028	25.09
227.246	51.71
227.464	35.33
227.682	18.94
227.9	82.43
228.117	76.29
228.335	31.23
228.553	-28.16
228.771	35.33
228.989	2.56
229.206	70.14
229.424	-1.54
229.642	68.09
229.86	12.8
230.077	10.75
230.295	31.23
230.513	35.33
230.731	-11.78
230.948	72.19
231.166	12.8
231.384	-54.78
231.601	6.66
231.819	59.9
232.037	10.75
232.254	2.56
232.472	80.38
232.689	12.8
232.907	10.75
233.125	-5.63
233.342	31.23
233.56	14.85
233.777	20.99
233.995	35.33
234.213	92.67
234.43	-52.74
234.648	33.28
234.865	76.29
235.083	31.23
235.3	-38.4
235.518	68.09
235.735	35.33
235.953	78.33
236.17	-7.68
236.388	27.14
236.605	53.76
236.822	90.62
237.04	43.52
237.257	20.99
237.475	47.62
237.692	72.19
237.909	18.94
238.127	64
238.344	23.04
238.562	64
238.779	-5.63
238.996	33.28
239.214	-5.63
239.431	18.94
239.648	29.18
239.865	68.09
240.083	16.9
240.3	-32.26
240.517	-1.54
240.735	10.75
240.952	-7.68
241.169	45.57
241.386	-56.83
241.603	104.96
241.821	8.7
242.038	57.86
242.255	10.75
242.472	4.61
242.689	20.99
242.907	113.15
243.124	16.9
243.341	121.34
243.558	14.85
243.775	107.01
243.992	-40.45
244.209	-30.21
244.426	51.71
244.643	-30.21
244.86	51.71
245.078	-1.54
245.295	68.09
245.512	-50.69
245.729	-19.97
245.946	104.96
246.163	-36.35
246.38	25.09
246.597	29.18
246.814	64
247.031	18.94
247.248	76.29
247.464	31.23
247.681	107.01
247.898	-13.82
248.115	47.62
248.332	100.86
248.549	41.47
248.766	14.85
248.983	131.58
249.2	-30.21
249.417	31.23
249.633	-24.06
249.85	-7.68
250.067	-26.11
250.284	-26.11
250.501	16.9
250.717	33.28
250.934	12.8
251.151	-17.92
251.368	41.47
251.585	49.66
251.801	2.56
252.018	-30.21
252.235	49.66
252.451	70.14
252.668	72.19
252.885	125.44
253.102	47.62
253.318	6.66
253.535	8.7
253.752	4.61
253.968	-1.54
254.185	33.28
254.401	-5.63
254.618	39.42
254.835	43.52
255.051	82.43
255.268	74.24
255.484	55.81
255.701	-1.54
255.917	49.66
256.134	-56.83
256.351	49.66
256.567	55.81
256.784	59.9
257	-30.21
257.217	57.86
257.433	53.76
257.65	-40.45
257.866	78.33
258.082	35.33
258.299	-22.02
258.515	14.85
258.732	16.9
258.948	39.42
259.165	25.09
259.381	8.7
259.597	-15.87
259.814	59.9
260.03	35.33
260.246	-15.87
260.463	23.04
260.679	-1.54
260.895	-26.11
261.112	96.77
261.328	37.38
261.544	-28.16
261.761	88.57
261.977	47.62
262.193	41.47
262.409	94.72
262.626	37.38
262.842	31.23
263.058	-38.4
263.274	45.57
263.49	117.25
263.707	64
263.923	57.86
264.139	-22.02
264.355	-44.54
264.571	76.29
264.787	31.23
265.004	-9.73
265.22	59.9
265.436	-28.16
265.652	86.53
265.868	107.01
266.084	39.42
266.3	29.18
266.516	29.18
266.732	12.8
266.948	39.42
267.164	-42.5
267.38	0.51
267.596	-13.82
267.812	125.44
268.028	12.8
268.244	66.05
268.46	31.23
268.676	-17.92
268.892	74.24
269.108	-7.68
269.324	31.23
269.54	-5.63
269.756	76.29
269.972	33.28
270.188	14.85
270.403	0.51
270.619	51.71
270.835	64
271.051	68.09
271.267	51.71
271.483	2.56
271.698	29.18
271.914	23.04
272.13	-34.3
272.346	107.01
272.562	57.86
272.777	172.54
272.993	10.75
273.209	-28.16
273.425	27.14
273.64	-26.11
273.856	-22.02
274.072	20.99
274.287	-30.21
274.503	109.05
274.719	12.8
274.934	102.91
275.15	2.56
275.366	12.8
275.581	-44.54
275.797	49.66
276.012	72.19
276.228	2.56
276.444	43.52
276.659	25.09
276.875	6.66
277.09	-7.68
277.306	66.05
277.521	23.04
277.737	88.57
277.952	25.09
278.168	41.47
278.383	-7.68
278.599	43.52
278.814	33.28
279.03	27.14
279.245	-5.63
279.461	88.57
279.676	10.75
279.892	-15.87
280.107	-17.92
280.322	64
280.538	53.76
280.753	74.24
280.969	12.8
281.184	59.9
281.399	57.86
281.615	66.05
281.83	107.01
282.045	-62.98
282.26	8.7
282.476	4.61
282.691	-1.54
282.906	-9.73
283.122	53.76
283.337	43.52
283.552	-7.68
283.767	27.14
283.983	47.62
284.198	20.99
284.413	18.94
284.628	10.75
284.843	10.75
285.058	64
285.274	33.28
285.489	4.61
285.704	66.05
285.919	-15.87
286.134	-19.97
286.349	-19.97
286.564	37.38
286.779	4.61
286.995	14.85
287.21	-7.68
287.425	98.81
287.64	6.66
287.855	51.71
288.07	49.66
288.285	6.66
288.5	-22.02
288.715	74.24
288.93	49.66
289.145	51.71
289.36	98.81
289.575	-3.58
289.79	96.77
290.004	-42.5
290.219	64
290.434	45.57
290.649	4.61
290.864	2.56
291.079	51.71
291.294	31.23
291.509	64
291.724	53.76
291.938	4.61
292.153	90.62
292.368	49.66
292.583	109.05
292.798	86.53
293.012	72.19
293.227	64
293.442	-26.11
293.657	8.7
293.871	61.95
294.086	51.71
294.301	76.29
294.516	23.04
294.73	10.75
294.945	-50.69
295.16	39.42
295.374	100.86
295.589	10.75
295.804	-3.58
296.018	14.85
296.233	10.75
296.447	-5.63
296.662	59.9
296.877	45.57
297.091	27.14
297.306	59.9
297.52	82.43
297.735	72.19
297.949	66.05
298.164	25.09
298.378	0.51
298.593	-1.54
298.807	25.09
299.022	-7.68
299.236	100.86
299.451	-40.45
299.665	41.47
299.88	14.85
300.094	-56.83
300.309	12.8
300.523	-46.59
300.737	-7.68
300.952	27.14
301.166	43.52
301.381	2.56
301.595	-19.97
301.809	25.09
302.024	35.33
302.238	-7.68
302.452	68.09
302.667	68.09
302.881	80.38
303.095	-15.87
303.309	-1.54
303.524	27.14
303.738	45.57
303.952	-24.06
304.166	25.09
304.381	47.62
304.595	84.48
304.809	72.19
305.023	107.01
305.237	29.18
305.452	76.29
305.666	33.28
305.88	18.94
306.094	107.01
306.308	66.05
306.522	35.33
306.736	78.33
306.95	31.23
307.164	8.7
307.379	41.47
307.593	96.77
307.807	80.38
308.021	10.75
308.235	6.66
308.449	-38.4
308.663	47.62
308.877	92.67
309.091	35.33
309.305	68.09
309.519	-3.58
309.733	98.81
309.947	-5.63
310.161	43.52
310.374	14.85
310.588	59.9
310.802	61.95
311.016	-3.58
311.23	88.57
311.444	4.61
311.658	18.94
311.872	64
312.085	25.09
312.299	59.9
312.513	-19.97
312.727	45.57
312.941	43.52
313.154	-17.92
313.368	14.85
313.582	76.29
313.796	-24.06
314.009	66.05
314.223	104.96
314.437	82.43
314.651	31.23
314.864	90.62
315.078	86.53
315.292	16.9
315.505	41.47
315.719	12.8
315.933	-30.21
316.146	2.56
316.36	33.28
316.573	80.38
316.787	72.19
317.001	-26.11
317.214	55.81
317.428	57.86
317.641	-17.92
317.855	16.9
318.068	18.94
318.282	109.05
318.495	45.57
318.709	115.2
318.922	68.09
319.136	158.21
319.349	-7.68
319.563	53.76
319.776	6.66
319.99	-34.3
320.203	43.52
320.417	47.62
320.63	115.2
320.843	53.76
321.057	41.47
321.27	35.33
321.483	64
321.697	43.52
321.91	-13.82
322.124	2.56
322.337	45.57
322.55	-24.06
322.763	47.62
322.977	10.75
323.19	51.71
323.403	47.62
323.617	14.85
323.83	90.62
324.043	29.18
324.256	-1.54
324.469	31.23
324.683	80.38
324.896	-1.54
325.109	45.57
325.322	-1.54
325.535	53.76
325.748	47.62
325.962	92.67
326.175	-3.58
326.388	82.43
326.601	43.52
326.814	59.9
327.027	-1.54
327.24	29.18
327.453	-38.4
327.666	43.52
327.879	8.7
328.092	61.95
328.305	90.62
328.518	-1.54
328.731	2.56
328.944	57.86
329.157	29.18
329.37	74.24
329.583	49.66
329.796	59.9
330.009	-36.35
330.222	76.29
330.435	41.47
330.648	8.7
330.861	33.28
331.073	-7.68
331.286	37.38
331.499	51.71
331.712	57.86
331.925	35.33
332.138	76.29
332.35	29.18
332.563	-11.78
332.776	45.57
332.989	-5.63
333.202	37.38
333.414	-36.35
333.627	70.14
333.84	8.7
334.053	49.66
334.265	51.71
334.478	55.81
334.691	20.99
334.903	27.14
335.116	37.38
335.329	92.67
335.541	57.86
335.754	43.52
335.966	10.75
336.179	-13.82
336.392	31.23
336.604	14.85
336.817	20.99
337.029	29.18
337.242	2.56
337.454	104.96
337.667	39.42
337.88	23.04
338.092	35.33
338.305	25.09
338.517	68.09
338.729	59.9
338.942	31.23
339.154	64
339.367	35.33
339.579	0.51
339.792	43.52
340.004	-11.78
340.217	-7.68
340.429	55.81
340.641	76.29
340.854	33.28
341.066	18.94
341.278	72.19
341.491	84.48
341.703	31.23
341.915	68.09
342.128	23.04
342.34	59.9
342.552	-11.78
342.764	8.7
342.977	-32.26
343.189	33.28
343.401	27.14
343.613	-42.5
343.826	-32.26
344.038	-71.17
344.25	57.86
344.462	33.28
344.674	10.75
344.886	39.42
345.099	74.24
345.311	59.9
345.523	20.99
345.735	-32.26
345.947	80.38
346.159	41.47
346.371	39.42
346.583	51.71
346.795	33.28
347.007	14.85
347.219	72.19
347.431	35.33
347.643	82.43
347.855	18.94
348.067	72.19
348.279	8.7
348.491	25.09
348.703	-38.4
348.915	109.05
349.127	37.38
349.339	96.77
349.551	20.99
349.763	80.38
349.975	0.51
350.187	100.86
350.399	90.62
350.61	8.7
350.822	25.09
351.034	55.81
351.246	66.05
351.458	98.81
351.669	37.38
351.881	90.62
352.093	-5.63
352.305	88.57
352.517	33.28
352.728	-13.82
352.94	43.52
353.152	51.71
353.363	49.66
353.575	23.04
353.787	76.29
353.999	70.14
354.21	49.66
354.422	72.19
354.633	10.75
354.845	47.62
355.057	100.86
355.268	8.7
355.48	10.75
355.692	18.94
355.903	66.05
356.115	57.86
356.326	-30.21
356.538	90.62
356.749	86.53
356.961	88.57
357.172	61.95
357.384	31.23
357.595	16.9
357.807	14.85
358.018	12.8
358.23	94.72
358.441	135.68
358.653	23.04
358.864	57.86
359.075	39.42
359.287	37.38
359.498	168.45
359.709	6.66
359.921	64
360.132	72.19
360.344	115.2
360.555	-9.73
360.766	10.75
360.977	119.29
361.189	16.9
361.4	57.86
361.611	12.8
361.823	59.9
362.034	10.75
362.245	-38.4
362.456	10.75
362.667	37.38
362.879	-5.63
363.09	18.94
363.301	4.61
363.512	16.9
363.723	66.05
363.935	74.24
364.146	94.72
364.357	16.9
364.568	-24.06
364.779	33.28
364.99	100.86
365.201	43.52
365.412	61.95
365.623	43.52
365.834	94.72
366.045	37.38
366.256	90.62
366.467	115.2
366.678	41.47
366.889	86.53
367.1	-5.63
367.311	100.86
367.522	33.28
367.733	55.81
367.944	59.9
368.155	23.04
368.366	104.96
368.577	55.81
368.788	31.23
368.999	-1.54
369.209	8.7
369.42	90.62
369.631	125.44
369.842	131.58
370.053	8.7
370.264	59.9
370.474	-24.06
370.685	43.52
370.896	-5.63
371.107	53.76
371.317	88.57
371.528	-1.54
371.739	109.05
371.95	76.29
372.16	35.33
372.371	6.66
372.582	18.94
372.792	25.09
373.003	100.86
373.214	41.47
373.424	123.39
373.635	39.42
373.846	64
374.056	18.94
374.267	68.09
374.477	49.66
374.688	20.99
374.898	82.43
375.109	-5.63
375.319	31.23
375.53	68.09
375.74	0.51
375.951	68.09
376.161	100.86
376.372	39.42
376.582	74.24
376.793	-1.54
377.003	-30.21
377.214	0.51
377.424	41.47
377.635	16.9
377.845	27.14
378.055	68.09
378.266	10.75
378.476	18.94
378.686	43.52
378.897	53.76
379.107	-30.21
379.317	-5.63
379.528	27.14
379.738	43.52
379.948	12.8
380.158	70.14
380.369	68.09
380.579	74.24
380.789	59.9
380.999	100.86
381.21	117.25
381.42	125.44
381.63	82.43
381.84	68.09
382.05	74.24
382.261	76.29
382.471	90.62
382.681	72.19
382.891	104.96
383.101	92.67
383.311	-22.02
383.521	18.94
383.731	51.71
383.941	51.71
384.151	66.05
384.361	68.09
384.571	57.86
384.781	16.9
384.991	109.05
385.201	74.24
385.411	80.38
385.621	92.67
385.831	-13.82
386.041	88.57
386.251	76.29
386.461	41.47
386.671	51.71
386.881	92.67
387.091	-17.92
387.301	33.28
387.511	64
387.72	61.95
387.93	88.57
388.14	16.9
388.35	8.7
388.56	49.66
388.769	49.66
388.979	31.23
389.189	88.57
389.399	92.67
389.609	53.76
389.818	84.48
390.028	53.76
390.238	59.9
390.447	55.81
390.657	113.15
390.867	57.86
391.076	51.71
391.286	37.38
391.496	57.86
391.705	107.01
391.915	88.57
392.125	2.56
392.334	164.35
392.544	121.34
392.753	68.09
392.963	31.23
393.172	139.77
393.382	86.53
393.591	98.81
393.801	41.47
394.01	53.76
394.22	80.38
394.429	129.53
394.639	129.53
394.848	135.68
395.058	109.05
395.267	109.05
395.477	109.05
395.686	78.33
395.895	135.68
396.105	76.29
396.314	49.66
396.524	43.52
396.733	49.66
396.942	37.38
397.152	121.34
397.361	68.09
397.57	100.86
397.78	156.16
397.989	47.62
398.198	131.58
398.407	10.75
398.617	84.48
398.826	33.28
399.035	168.45
399.244	66.05
399.453	156.16
399.663	127.49
399.872	119.29
400.081	82.43
400.29	150.01
400.499	117.25
400.708	111.1
400.917	141.82
401.127	37.38
401.336	160.25
401.545	221.69
401.754	150.01
401.963	172.54
402.172	68.09
402.381	133.63
402.59	139.77
402.799	125.44
403.008	107.01
403.217	131.58
403.426	135.68
403.635	57.86
403.844	170.49
404.053	98.81
404.262	80.38
404.471	231.93
404.68	133.63
404.888	113.15
405.097	104.96
405.306	195.07
405.515	84.48
405.724	137.73
405.933	141.82
406.142	111.1
406.35	244.22
406.559	168.45
406.768	141.82
406.977	211.45
407.185	178.69
407.394	193.02
407.603	223.74
407.812	260.6
408.02	219.64
408.229	209.4
408.438	231.93
408.646	211.45
408.855	244.22
409.064	365.05
409.272	248.32
409.481	295.42
409.69	307.71
409.898	256.51
410.107	283.13
410.315	291.32
410.524	363
410.733	420.35
410.941	303.61
411.15	346.62
411.358	350.71
411.567	320
411.775	420.35
411.984	436.73
412.192	453.11
412.401	449.02
412.609	506.36
412.818	475.64
413.026	512.5
413.234	535.03
413.443	569.85
413.651	469.5
413.86	473.59
414.068	530.94
414.276	639.48
414.485	612.85
414.693	733.68
414.901	631.29
415.11	721.4
415.318	698.87
415.526	709.11
415.734	772.6
415.943	768.5
416.151	881.14
416.359	813.56
416.567	883.19
416.776	934.39
416.984	936.43
417.192	956.91
417.4	1032.69
417.608	963.06
417.817	1092.08
418.025	1118.7
418.233	1202.67
418.441	1141.23
418.649	1153.52
418.857	1315.31
419.065	1368.56
419.273	1276.4
419.481	1339.88
419.689	1495.53
419.897	1546.73
420.105	1528.3
420.313	1554.92
420.521	1597.93
420.729	1653.22
420.937	1657.32
421.145	1745.38
421.353	1837.54
421.561	2019.81
421.769	1980.9
421.977	2093.54
422.185	2019.81
422.393	2197.98
422.601	2445.79
422.809	2339.29
423.017	2236.89
423.224	2484.7
423.432	2466.27
423.64	2621.91
423.848	2828.76
424.056	2691.54
424.263	2902.48
424.471	2818.52
424.679	2976.21
424.887	3107.28
425.094	3168.72
425.302	3238.35
425.51	3334.61
425.718	3516.87
425.925	3455.44
426.133	3555.79
426.341	3879.36
426.548	4037.06
426.756	3946.95
426.964	3989.96
427.171	4192.7
427.379	4211.14
427.586	4291.01
427.794	4426.17
428.001	4753.85
428.209	4975.03
428.417	4981.17
428.624	5292.46
428.832	5169.59
429.039	5165.49
429.247	5204.4
429.454	5675.43
429.662	6027.68
429.869	5562.8
430.076	6029.73
430.284	5720.49
430.491	6072.74
430.699	6558.11
430.906	6429.09
431.114	6341.02
431.321	6893.97
431.528	6889.88
431.736	7293.33
431.943	7674.25
432.15	7602.57
432.358	7645.58
432.565	8161.67
432.772	7940.49
432.979	8632.7
433.187	8460.67
433.394	8530.3
433.601	8956.28
433.808	9245.04
434.016	9040.25
434.223	9513.33
434.43	10088.81
434.637	9738.6
434.844	10668.38
435.052	10774.88
435.259	10697.05
435.466	10705.24
435.673	10500.45
435.88	11217.24
436.087	11921.74
436.294	12087.62
436.501	11665.74
436.708	12036.42
436.915	12247.37
437.122	12824.89
437.329	12642.62
437.537	13257.01
437.743	13375.8
437.95	13197.62
438.157	13799.73
438.364	14635.3
438.571	14297.38
438.778	14311.72
438.985	15743.25
439.192	15128.86
439.399	15794.45
439.606	15536.4
439.813	15902.99
440.02	17365.24
440.227	16920.83
440.433	16652.55
440.64	17285.37
440.847	17275.13
441.054	17481.97
441.261	18723.04
441.467	18266.35
441.674	18542.82
441.881	19405.02
442.088	19585.24
442.294	19171.55
442.501	20168.91
442.708	20168.91
442.914	20660.42
443.121	21784.76
443.328	21364.92
443.534	22792.36
443.741	22069.42
443.948	21807.28
444.154	23414.94
444.361	23195.81
444.568	23251.1
444.774	23519.39
444.981	23521.43
445.187	24537.23
445.394	25628.79
445.6	25075.84
445.807	27588.7
446.013	26185.84
446.22	26955.88
446.426	27670.62
446.633	27902.04
446.839	29007.94
447.046	27762.78
447.252	29130.82
447.459	29053
447.665	28874.82
447.871	30574.64
448.078	31485.98
448.284	30023.73
448.491	30857.26
448.697	32127
448.903	32489.49
449.11	32501.78
449.316	32059.41
449.522	32557.07
449.728	33716.22
449.935	33705.98
450.141	33458.18
450.347	34217.97
450.553	33290.24
450.76	33783.8
450.966	34527.22
451.172	34213.88
451.378	35084.26
451.584	34322.42
451.791	35233.77
451.997	35381.22
452.203	35381.22
452.409	35928.03
452.615	35629.02
452.821	33935.35
453.027	33847.29
453.233	35190.76
453.44	34045.94
453.646	34195.45
453.852	34269.17
454.058	35387.36
454.264	33886.2
454.47	34836.46
454.676	33822.72
454.882	34469.87
455.088	31635.49
455.294	32489.49
455.5	32557.07
455.705	33077.26
455.911	31889.43
456.117	30916.65
456.323	30103.6
456.529	29001.8
456.735	30308.4
456.941	29503.55
457.147	28958.79
457.352	28387.41
457.558	27549.79
457.764	27938.9
457.97	27392.09
458.176	26560.62
458.381	26388.59
458.587	25393.28
458.793	25419.9
458.999	24045.71
459.204	25714.81
459.41	24979.59
459.616	23427.23
459.821	23484.57
460.027	23746.71
460.233	23021.73
460.438	22057.14
460.644	22024.37
460.85	21016.77
461.055	20568.26
461.261	20627.65
461.466	19052.77
461.672	18532.58
461.878	19908.82
462.083	18497.77
462.289	18178.28
462.494	17977.58
462.7	17211.64
462.905	16767.23
463.111	17492.21
463.316	17451.25
463.522	17146.11
463.727	17158.39
463.932	17035.52
464.138	16900.35
464.343	17064.19
464.549	16345.35
464.754	17088.76
464.959	16724.22
465.165	16826.62
465.37	16167.18
465.575	15841.55
465.781	16300.3
465.986	16359.69
466.191	15948.04
466.397	15474.96
466.602	14733.6
466.807	15511.83
467.012	15358.23
467.218	15456.53
467.423	14895.39
467.628	15274.26
467.833	15884.56
468.038	15251.74
468.244	14760.22
468.449	15304.98
