Data from USB4F104151__6__10-20-09-158.txt Node

Date: Wed Mar 12 10:20:09 EDT 2025
User: louis
Spectrometer: USB4F10415
Trigger mode: 4
Integration Time (sec): 3.000000E-2
Scans to average: 1
Electric dark correction enabled: true
Nonlinearity correction enabled: false
Boxcar width: 0
XAxis mode: Wavelengths
Number of Pixels in Spectrum: 3648
>>>>>Begin Spectral Data<<<<<
178.204	-111.61
178.424	-111.61
178.644	-111.61
178.864	-25.6
179.084	-72.7
179.304	78.85
179.524	-27.65
179.744	-33.79
179.964	-31.74
180.184	11.26
180.404	-27.65
180.624	-9.22
180.844	-21.5
181.064	54.27
181.283	25.6
181.503	-21.5
181.723	3.07
181.943	11.26
182.163	95.23
182.383	23.55
182.602	62.46
182.822	25.6
183.042	5.12
183.262	-7.17
183.482	39.94
183.701	19.46
183.921	60.42
184.141	-23.55
184.361	146.43
184.58	37.89
184.8	48.13
185.02	17.41
185.239	80.89
185.459	64.51
185.679	46.08
185.898	39.94
186.118	103.42
186.338	91.13
186.557	134.14
186.777	5.12
186.997	41.98
187.216	25.6
187.436	117.76
187.655	50.18
187.875	84.99
188.095	-1.02
188.314	82.94
188.534	46.08
188.753	15.36
188.973	72.7
189.192	89.09
189.412	66.56
189.631	78.85
189.851	5.12
190.07	29.7
190.29	25.6
190.509	60.42
190.729	70.65
190.948	66.56
191.168	101.37
191.387	46.08
191.607	76.8
191.826	19.46
192.045	33.79
192.265	5.12
192.484	29.7
192.704	27.65
192.923	13.31
193.142	50.18
193.362	97.28
193.581	54.27
193.8	48.13
194.02	76.8
194.239	39.94
194.458	54.27
194.678	76.8
194.897	-25.6
195.116	52.22
195.335	103.42
195.555	58.37
195.774	-39.94
195.993	68.61
196.212	64.51
196.432	33.79
196.651	31.74
196.87	101.37
197.089	87.04
197.308	115.71
197.528	1.02
197.747	-64.51
197.966	35.84
198.185	72.7
198.404	48.13
198.623	31.74
198.842	99.33
199.062	13.31
199.281	46.08
199.5	84.99
199.719	107.52
199.938	64.51
200.157	62.46
200.376	1.02
200.595	37.89
200.814	35.84
201.033	3.07
201.252	-7.17
201.471	60.42
201.69	33.79
201.909	52.22
202.128	66.56
202.347	39.94
202.566	15.36
202.785	33.79
203.004	-1.02
203.223	105.47
203.442	27.65
203.661	54.27
203.879	5.12
204.098	160.77
204.317	64.51
204.536	103.42
204.755	41.98
204.974	91.13
205.193	72.7
205.411	91.13
205.63	15.36
205.849	5.12
206.068	-21.5
206.287	64.51
206.505	107.52
206.724	21.5
206.943	50.18
207.162	70.65
207.381	37.89
207.599	70.65
207.818	-3.07
208.037	41.98
208.255	27.65
208.474	113.66
208.693	70.65
208.911	70.65
209.13	37.89
209.349	76.8
209.567	11.26
209.786	117.76
210.005	80.89
210.223	25.6
210.442	-39.94
210.661	-13.31
210.879	41.98
211.098	17.41
211.316	33.79
211.535	41.98
211.753	72.7
211.972	50.18
212.191	9.22
212.409	74.75
212.628	87.04
212.846	82.94
213.065	144.38
213.283	56.32
213.502	-9.22
213.72	15.36
213.938	105.47
214.157	54.27
214.375	89.09
214.594	-9.22
214.812	-25.6
215.031	39.94
215.249	-15.36
215.467	33.79
215.686	99.33
215.904	50.18
216.122	-27.65
216.341	93.18
216.559	62.46
216.778	78.85
216.996	54.27
217.214	95.23
217.432	25.6
217.651	1.02
217.869	37.89
218.087	35.84
218.306	103.42
218.524	113.66
218.742	-25.6
218.96	97.28
219.179	19.46
219.397	58.37
219.615	103.42
219.833	74.75
220.051	62.46
220.27	70.65
220.488	87.04
220.706	35.84
220.924	25.6
221.142	21.5
221.36	78.85
221.578	76.8
221.796	29.7
222.015	46.08
222.233	95.23
222.451	-80.89
222.669	74.75
222.887	105.47
223.105	-17.41
223.323	78.85
223.541	50.18
223.759	76.8
223.977	13.31
224.195	66.56
224.413	48.13
224.631	78.85
224.849	111.61
225.067	41.98
225.285	41.98
225.503	9.22
225.721	-62.46
225.939	1.02
226.157	80.89
226.375	111.61
226.592	41.98
226.81	41.98
227.028	115.71
227.246	46.08
227.464	35.84
227.682	105.47
227.9	3.07
228.117	15.36
228.335	80.89
228.553	87.04
228.771	95.23
228.989	74.75
229.206	113.66
229.424	-19.46
229.642	35.84
229.86	99.33
230.077	56.32
230.295	1.02
230.513	66.56
230.731	111.61
230.948	37.89
231.166	87.04
231.384	58.37
231.601	-23.55
231.819	66.56
232.037	64.51
232.254	46.08
232.472	35.84
232.689	66.56
232.907	64.51
233.125	111.61
233.342	7.17
233.56	72.7
233.777	-52.22
233.995	33.79
234.213	78.85
234.43	17.41
234.648	97.28
234.865	37.89
235.083	39.94
235.3	-9.22
235.518	-5.12
235.735	97.28
235.953	117.76
236.17	54.27
236.388	66.56
236.605	31.74
236.822	95.23
237.04	19.46
237.257	-3.07
237.475	97.28
237.692	-7.17
237.909	1.02
238.127	-7.17
238.344	66.56
238.562	58.37
238.779	46.08
238.996	-7.17
239.214	50.18
239.431	70.65
239.648	58.37
239.865	39.94
240.083	60.42
240.3	7.17
240.517	78.85
240.735	99.33
240.952	130.05
241.169	27.65
241.386	58.37
241.603	84.99
241.821	82.94
242.038	66.56
242.255	-9.22
242.472	31.74
242.689	-1.02
242.907	25.6
243.124	9.22
243.341	72.7
243.558	-23.55
243.775	21.5
243.992	-3.07
244.209	7.17
244.426	68.61
244.643	41.98
244.86	37.89
245.078	5.12
245.295	101.37
245.512	21.5
245.729	64.51
245.946	132.09
246.163	52.22
246.38	7.17
246.597	27.65
246.814	35.84
247.031	54.27
247.248	54.27
247.464	54.27
247.681	87.04
247.898	31.74
248.115	91.13
248.332	-33.79
248.549	142.33
248.766	91.13
248.983	-23.55
249.2	15.36
249.417	-7.17
249.633	-9.22
249.85	60.42
250.067	-11.26
250.284	-56.32
250.501	17.41
250.717	93.18
250.934	44.03
251.151	-5.12
251.368	-35.84
251.585	64.51
251.801	97.28
252.018	17.41
252.235	80.89
252.451	-9.22
252.668	113.66
252.885	76.8
253.102	19.46
253.318	44.03
253.535	-15.36
253.752	101.37
253.968	23.55
254.185	48.13
254.401	87.04
254.618	66.56
254.835	39.94
255.051	91.13
255.268	41.98
255.484	119.81
255.701	50.18
255.917	121.85
256.134	33.79
256.351	72.7
256.567	21.5
256.784	25.6
257	29.7
257.217	-27.65
257.433	25.6
257.65	52.22
257.866	44.03
258.082	17.41
258.299	5.12
258.515	23.55
258.732	23.55
258.948	33.79
259.165	9.22
259.381	-1.02
259.597	80.89
259.814	74.75
260.03	25.6
260.246	41.98
260.463	58.37
260.679	144.38
260.895	87.04
261.112	60.42
261.328	70.65
261.544	-7.17
261.761	62.46
261.977	5.12
262.193	74.75
262.409	70.65
262.626	91.13
262.842	80.89
263.058	-56.32
263.274	33.79
263.49	64.51
263.707	87.04
263.923	117.76
264.139	-44.03
264.355	91.13
264.571	138.24
264.787	23.55
265.004	50.18
265.22	99.33
265.436	48.13
265.652	35.84
265.868	123.9
266.084	58.37
266.3	9.22
266.516	-15.36
266.732	107.52
266.948	13.31
267.164	31.74
267.38	60.42
267.596	56.32
267.812	78.85
268.028	-9.22
268.244	-31.74
268.46	70.65
268.676	99.33
268.892	66.56
269.108	52.22
269.324	54.27
269.54	54.27
269.756	52.22
269.972	17.41
270.188	87.04
270.403	-11.26
270.619	15.36
270.835	-11.26
271.051	91.13
271.267	66.56
271.483	105.47
271.698	101.37
271.914	33.79
272.13	15.36
272.346	89.09
272.562	-21.5
272.777	66.56
272.993	33.79
273.209	-7.17
273.425	64.51
273.64	33.79
273.856	33.79
274.072	-23.55
274.287	52.22
274.503	58.37
274.719	39.94
274.934	19.46
275.15	17.41
275.366	138.24
275.581	72.7
275.797	68.61
276.012	37.89
276.228	56.32
276.444	-23.55
276.659	33.79
276.875	56.32
277.09	64.51
277.306	-37.89
277.521	103.42
277.737	31.74
277.952	17.41
278.168	78.85
278.383	66.56
278.599	31.74
278.814	105.47
279.03	15.36
279.245	82.94
279.461	33.79
279.676	78.85
279.892	-48.13
280.107	35.84
280.322	13.31
280.538	23.55
280.753	52.22
280.969	41.98
281.184	50.18
281.399	-17.41
281.615	74.75
281.83	119.81
282.045	56.32
282.26	62.46
282.476	41.98
282.691	109.57
282.906	44.03
283.122	99.33
283.337	99.33
283.552	68.61
283.767	70.65
283.983	68.61
284.198	31.74
284.413	52.22
284.628	-1.02
284.843	39.94
285.058	64.51
285.274	31.74
285.489	82.94
285.704	115.71
285.919	-21.5
286.134	41.98
286.349	56.32
286.564	31.74
286.779	111.61
286.995	21.5
287.21	13.31
287.425	78.85
287.64	23.55
287.855	33.79
288.07	-1.02
288.285	41.98
288.5	25.6
288.715	31.74
288.93	29.7
289.145	60.42
289.36	87.04
289.575	21.5
289.79	29.7
290.004	15.36
290.219	23.55
290.434	9.22
290.649	46.08
290.864	33.79
291.079	74.75
291.294	103.42
291.509	64.51
291.724	33.79
291.938	50.18
292.153	103.42
292.368	66.56
292.583	44.03
292.798	50.18
293.012	80.89
293.227	82.94
293.442	25.6
293.657	93.18
293.871	119.81
294.086	78.85
294.301	78.85
294.516	125.95
294.73	68.61
294.945	31.74
295.16	5.12
295.374	130.05
295.589	68.61
295.804	-3.07
296.018	33.79
296.233	105.47
296.447	101.37
296.662	82.94
296.877	132.09
297.091	97.28
297.306	95.23
297.52	5.12
297.735	82.94
297.949	134.14
298.164	9.22
298.378	33.79
298.593	23.55
298.807	107.52
299.022	56.32
299.236	76.8
299.451	64.51
299.665	-3.07
299.88	99.33
300.094	123.9
300.309	37.89
300.523	76.8
300.737	37.89
300.952	33.79
301.166	99.33
301.381	17.41
301.595	105.47
301.809	1.02
302.024	68.61
302.238	62.46
302.452	52.22
302.667	25.6
302.881	72.7
303.095	103.42
303.309	95.23
303.524	97.28
303.738	46.08
303.952	35.84
304.166	-27.65
304.381	66.56
304.595	66.56
304.809	1.02
305.023	113.66
305.237	-56.32
305.452	64.51
305.666	25.6
305.88	33.79
306.094	82.94
306.308	80.89
306.522	66.56
306.736	107.52
306.95	56.32
307.164	121.85
307.379	80.89
307.593	148.48
307.807	-27.65
308.021	70.65
308.235	-3.07
308.449	23.55
308.663	-17.41
308.877	97.28
309.091	25.6
309.305	31.74
309.519	7.17
309.733	103.42
309.947	1.02
310.161	60.42
310.374	33.79
310.588	33.79
310.802	74.75
311.016	121.85
311.23	25.6
311.444	-15.36
311.658	15.36
311.872	87.04
312.085	41.98
312.299	123.9
312.513	58.37
312.727	54.27
312.941	50.18
313.154	78.85
313.368	9.22
313.582	66.56
313.796	125.95
314.009	121.85
314.223	70.65
314.437	23.55
314.651	74.75
314.864	15.36
315.078	121.85
315.292	15.36
315.505	33.79
315.719	93.18
315.933	99.33
316.146	82.94
316.36	1.02
316.573	56.32
316.787	31.74
317.001	25.6
317.214	13.31
317.428	89.09
317.641	25.6
317.855	80.89
318.068	97.28
318.282	144.38
318.495	99.33
318.709	54.27
318.922	-50.18
319.136	33.79
319.349	70.65
319.563	56.32
319.776	99.33
319.99	25.6
320.203	3.07
320.417	46.08
320.63	56.32
320.843	70.65
321.057	41.98
321.27	66.56
321.483	91.13
321.697	103.42
321.91	91.13
322.124	87.04
322.337	103.42
322.55	-11.26
322.763	9.22
322.977	52.22
323.19	21.5
323.403	62.46
323.617	15.36
323.83	95.23
324.043	48.13
324.256	70.65
324.469	89.09
324.683	103.42
324.896	19.46
325.109	60.42
325.322	58.37
325.535	29.7
325.748	37.89
325.962	123.9
326.175	41.98
326.388	123.9
326.601	109.57
326.814	60.42
327.027	31.74
327.24	87.04
327.453	-11.26
327.666	87.04
327.879	13.31
328.092	58.37
328.305	74.75
328.518	68.61
328.731	-15.36
328.944	68.61
329.157	80.89
329.37	74.75
329.583	84.99
329.796	82.94
330.009	9.22
330.222	72.7
330.435	134.14
330.648	117.76
330.861	70.65
331.073	128
331.286	37.89
331.499	33.79
331.712	17.41
331.925	54.27
332.138	11.26
332.35	97.28
332.563	103.42
332.776	78.85
332.989	41.98
333.202	15.36
333.414	-3.07
333.627	70.65
333.84	11.26
334.053	91.13
334.265	9.22
334.478	91.13
334.691	1.02
334.903	74.75
335.116	-54.27
335.329	54.27
335.541	91.13
335.754	117.76
335.966	99.33
336.179	119.81
336.392	62.46
336.604	103.42
336.817	103.42
337.029	39.94
337.242	107.52
337.454	97.28
337.667	13.31
337.88	25.6
338.092	103.42
338.305	50.18
338.517	48.13
338.729	160.77
338.942	113.66
339.154	60.42
339.367	-15.36
339.579	99.33
339.792	56.32
340.004	25.6
340.217	33.79
340.429	136.19
340.641	58.37
340.854	66.56
341.066	72.7
341.278	101.37
341.491	80.89
341.703	107.52
341.915	-44.03
342.128	99.33
342.34	46.08
342.552	84.99
342.764	82.94
342.977	60.42
343.189	35.84
343.401	154.62
343.613	62.46
343.826	58.37
344.038	111.61
344.25	97.28
344.462	89.09
344.674	84.99
344.886	35.84
345.099	113.66
345.311	25.6
345.523	95.23
345.735	58.37
345.947	70.65
346.159	64.51
346.371	99.33
346.583	99.33
346.795	99.33
347.007	7.17
347.219	95.23
347.431	3.07
347.643	123.9
347.855	27.65
348.067	33.79
348.279	-25.6
348.491	72.7
348.703	31.74
348.915	37.89
349.127	27.65
349.339	-3.07
349.551	74.75
349.763	109.57
349.975	107.52
350.187	121.85
350.399	99.33
350.61	101.37
350.822	105.47
351.034	46.08
351.246	21.5
351.458	9.22
351.669	84.99
351.881	158.72
352.093	89.09
352.305	89.09
352.517	76.8
352.728	138.24
352.94	87.04
353.152	21.5
353.363	87.04
353.575	41.98
353.787	119.81
353.999	84.99
354.21	25.6
354.422	48.13
354.633	17.41
354.845	46.08
355.057	72.7
355.268	66.56
355.48	48.13
355.692	3.07
355.903	72.7
356.115	-37.89
356.326	33.79
356.538	171.01
356.749	80.89
356.961	58.37
357.172	78.85
357.384	11.26
357.595	66.56
357.807	82.94
358.018	19.46
358.23	50.18
358.441	150.53
358.653	27.65
358.864	82.94
359.075	74.75
359.287	113.66
359.498	93.18
359.709	91.13
359.921	87.04
360.132	99.33
360.344	29.7
360.555	84.99
360.766	19.46
360.977	164.86
361.189	33.79
361.4	80.89
361.611	91.13
361.823	101.37
362.034	74.75
362.245	117.76
362.456	48.13
362.667	82.94
362.879	87.04
363.09	95.23
363.301	148.48
363.512	134.14
363.723	70.65
363.935	93.18
364.146	76.8
364.357	87.04
364.568	29.7
364.779	58.37
364.99	119.81
365.201	31.74
365.412	132.09
365.623	33.79
365.834	130.05
366.045	21.5
366.256	136.19
366.467	50.18
366.678	-11.26
366.889	64.51
367.1	80.89
367.311	113.66
367.522	68.61
367.733	15.36
367.944	39.94
368.155	101.37
368.366	70.65
368.577	111.61
368.788	80.89
368.999	-13.31
369.209	56.32
369.42	46.08
369.631	130.05
369.842	64.51
370.053	70.65
370.264	46.08
370.474	48.13
370.685	17.41
370.896	60.42
371.107	130.05
371.317	132.09
371.528	123.9
371.739	123.9
371.95	70.65
372.16	84.99
372.371	-52.22
372.582	15.36
372.792	39.94
373.003	89.09
373.214	46.08
373.424	109.57
373.635	17.41
373.846	150.53
374.056	41.98
374.267	66.56
374.477	132.09
374.688	101.37
374.898	44.03
375.109	39.94
375.319	72.7
375.53	9.22
375.74	115.71
375.951	84.99
376.161	91.13
376.372	142.33
376.582	23.55
376.793	33.79
377.003	97.28
377.214	70.65
377.424	54.27
377.635	80.89
377.845	-13.31
378.055	60.42
378.266	23.55
378.476	25.6
378.686	62.46
378.897	123.9
379.107	134.14
379.317	89.09
379.528	60.42
379.738	54.27
379.948	56.32
380.158	56.32
380.369	164.86
380.579	72.7
380.789	72.7
380.999	97.28
381.21	41.98
381.42	128
381.63	64.51
381.84	89.09
382.05	105.47
382.261	121.85
382.471	82.94
382.681	31.74
382.891	72.7
383.101	103.42
383.311	9.22
383.521	21.5
383.731	119.81
383.941	89.09
384.151	68.61
384.361	148.48
384.571	97.28
384.781	148.48
384.991	148.48
385.201	105.47
385.411	62.46
385.621	74.75
385.831	74.75
386.041	97.28
386.251	87.04
386.461	87.04
386.671	41.98
386.881	130.05
387.091	68.61
387.301	156.67
387.511	72.7
387.72	93.18
387.93	7.17
388.14	46.08
388.35	78.85
388.56	74.75
388.769	93.18
388.979	89.09
389.189	-23.55
389.399	150.53
389.609	37.89
389.818	115.71
390.028	164.86
390.238	82.94
390.447	99.33
390.657	54.27
390.867	95.23
391.076	21.5
391.286	99.33
391.496	58.37
391.705	115.71
391.915	185.34
392.125	93.18
392.334	111.61
392.544	173.05
392.753	91.13
392.963	144.38
393.172	150.53
393.382	70.65
393.591	115.71
393.801	84.99
394.01	164.86
394.22	87.04
394.429	115.71
394.639	87.04
394.848	123.9
395.058	119.81
395.267	91.13
395.477	66.56
395.686	115.71
395.895	117.76
396.105	103.42
396.314	209.92
396.524	166.91
396.733	58.37
396.942	164.86
397.152	134.14
397.361	211.96
397.57	87.04
397.78	156.67
397.989	136.19
398.198	193.53
398.407	91.13
398.617	136.19
398.826	130.05
399.035	123.9
399.244	168.96
399.453	134.14
399.663	95.23
399.872	97.28
400.081	132.09
400.29	156.67
400.499	132.09
400.708	187.39
400.917	177.15
401.127	91.13
401.336	160.77
401.545	252.92
401.754	138.24
401.963	144.38
402.172	156.67
402.381	164.86
402.59	156.67
402.799	89.09
403.008	173.05
403.217	148.48
403.426	197.63
403.635	173.05
403.844	156.67
404.053	240.64
404.262	111.61
404.471	185.34
404.68	173.05
404.888	209.92
405.097	150.53
405.306	197.63
405.515	234.49
405.724	150.53
405.933	179.2
406.142	179.2
406.35	236.54
406.559	193.53
406.768	185.34
406.977	263.16
407.185	214.01
407.394	271.36
407.603	205.82
407.812	279.55
408.02	267.26
408.229	238.59
408.438	248.83
408.646	269.31
408.855	336.89
409.064	361.47
409.272	295.93
409.481	320.51
409.69	345.08
409.898	308.22
410.107	390.14
410.315	332.79
410.524	334.84
410.733	472.06
410.941	408.57
411.15	459.77
411.358	449.53
411.567	443.39
411.775	463.86
411.984	560.12
412.192	488.44
412.401	533.5
412.609	601.08
412.818	533.5
413.026	619.51
413.234	545.78
413.443	623.61
413.651	623.61
413.86	615.41
414.068	717.81
414.276	711.67
414.485	668.66
414.693	812.02
414.901	771.06
415.11	764.92
415.318	816.12
415.526	828.4
415.734	873.46
415.943	941.04
416.151	1002.48
416.359	812.02
416.567	1014.77
416.776	893.94
416.984	1088.5
417.192	1104.88
417.4	1053.68
417.608	1092.59
417.817	1123.31
418.025	1211.37
418.233	1295.34
418.441	1258.48
418.649	1352.68
418.857	1436.65
419.065	1506.28
419.273	1369.07
419.481	1465.32
419.689	1577.96
419.897	1659.88
420.105	1594.34
420.313	1758.18
420.521	1819.62
420.729	1848.29
420.937	1836
421.145	1885.16
421.353	1967.07
421.561	2071.52
421.769	2171.87
421.977	2300.89
422.185	2231.26
422.393	2372.57
422.601	2530.27
422.809	2528.22
423.017	2571.22
423.224	2601.94
423.432	2704.34
423.64	2827.22
423.848	2984.91
424.056	2948.05
424.263	3136.46
424.471	3228.62
424.679	3398.6
424.887	3374.03
425.094	3408.84
425.302	3421.13
425.51	3773.38
425.718	3707.85
425.925	3726.28
426.133	3969.99
426.341	4105.15
426.548	4271.04
426.756	4297.66
426.964	4375.49
427.171	4637.63
427.379	4592.57
427.586	4885.43
427.794	4981.68
428.001	5213.1
428.209	5249.97
428.417	5211.06
428.624	5469.1
428.832	5690.28
429.039	5491.63
429.247	5505.96
429.454	6265.76
429.662	6615.96
429.869	6220.71
430.076	6661.02
430.284	6411.17
430.491	6798.23
430.699	7154.58
430.906	7216.02
431.114	7168.91
431.321	7373.71
431.528	7650.19
431.736	7959.43
431.943	8426.37
432.15	8276.87
432.358	8174.47
432.565	8776.57
432.772	8741.75
432.979	9130.87
433.187	9122.68
433.394	9378.67
433.601	10011.5
433.808	9927.53
434.016	9900.9
434.223	10314.59
434.43	10953.56
434.637	10716
434.844	11227.99
435.052	11498.32
435.259	11400.02
435.466	11565.9
435.673	11498.32
435.88	12125
436.087	12860.22
436.294	12864.32
436.501	12739.39
436.708	12935.99
436.915	13490.99
437.122	13869.87
437.329	13814.57
437.537	14433.06
437.743	14506.79
437.95	14273.32
438.157	15000.35
438.364	15684.37
438.571	15612.69
438.778	15772.43
438.985	17203.96
439.192	16399.11
439.399	16986.88
439.606	16532.23
439.813	17664.75
440.02	18701.03
440.227	18211.56
440.433	18070.25
440.64	18954.97
440.847	18418.41
441.054	18877.15
441.261	20337.35
441.467	20103.89
441.674	20230.86
441.881	21052.09
442.088	21320.38
442.294	20875.97
442.501	21535.42
442.708	21897.91
442.914	22770.34
443.121	23730.84
443.328	23032.48
443.534	24541.83
443.741	23982.74
443.948	23761.56
444.154	25346.69
444.361	24994.43
444.568	25266.81
444.774	25596.54
444.981	25567.87
445.187	26356.33
445.394	27535.96
445.6	27083.36
445.807	29897.27
446.013	28043.86
446.22	28996.17
446.426	29811.26
446.633	30132.79
446.839	31242.79
447.046	30061.11
447.252	31636
447.459	31873.56
447.665	31451.68
447.871	32811.53
448.078	34218.49
448.284	32504.34
448.491	33430.02
448.697	34931.18
448.903	35500.51
449.11	34922.99
449.316	34744.81
449.522	35353.06
449.728	36157.91
449.935	36788.69
450.141	36397.52
450.347	37542.34
450.553	36221.4
450.76	36579.79
450.966	37540.29
451.172	37530.05
451.378	38199.74
451.584	37403.08
451.791	38267.32
451.997	38136.25
452.203	38312.38
452.409	38508.98
452.615	38162.87
452.821	37161.42
453.027	36596.18
453.233	38212.02
453.44	36610.51
453.646	37179.85
453.852	37190.09
454.058	37702.08
454.264	36403.67
454.47	37286.34
454.676	36544.98
454.882	37710.27
455.088	34343.41
455.294	35117.54
455.5	35152.36
455.705	35801.57
455.911	34298.36
456.117	33550.85
456.323	32895.5
456.529	31291.94
456.735	32547.34
456.941	31734.3
457.147	31355.43
457.352	30360.11
457.558	29989.43
457.764	30220.85
457.97	29350.46
458.176	28701.26
458.381	28715.59
458.587	27062.88
458.793	27603.55
458.999	26165.87
459.204	27904.6
459.41	26937.96
459.616	25313.92
459.821	25438.84
460.027	25404.03
460.233	24689.29
460.438	23288.48
460.644	23687.83
460.85	22778.53
461.055	22336.17
461.261	22151.85
461.466	20777.67
461.672	20183.76
461.878	21412.54
462.083	20148.94
462.289	19415.77
462.494	19495.64
462.7	18942.69
462.905	17951.47
463.111	18496.23
463.316	18727.65
463.522	18408.17
463.727	18516.71
463.932	18623.2
464.138	18352.87
464.343	18217.71
464.549	17720.05
464.754	18336.49
464.959	18258.67
465.165	18238.19
465.37	17210.11
465.575	16874.24
465.781	17351.42
465.986	17873.65
466.191	16859.9
466.397	16794.37
466.602	16212.74
466.807	16694.02
