Data from USB4F104151__187__10-28-44-111.txt Node

Date: Wed Mar 12 10:28:44 EDT 2025
User: louis
Spectrometer: USB4F10415
Trigger mode: 4
Integration Time (sec): 3.000000E-2
Scans to average: 1
Electric dark correction enabled: true
Nonlinearity correction enabled: false
Boxcar width: 0
XAxis mode: Wavelengths
Number of Pixels in Spectrum: 3648
>>>>>Begin Spectral Data<<<<<
178.204	-72.36
178.424	-72.36
178.644	-72.36
178.864	-86.7
179.084	-72.36
179.304	-23.21
179.524	-21.16
179.744	-45.74
179.964	44.37
180.184	30.04
180.404	-29.35
180.624	-2.73
180.844	19.8
181.064	-37.55
181.283	58.71
181.503	-39.59
181.723	46.42
181.943	-29.35
182.163	44.37
182.383	-53.93
182.602	38.23
182.822	21.85
183.042	120.15
183.262	-2.73
183.482	32.08
183.701	3.41
183.921	5.46
184.141	77.14
184.361	73.04
184.58	109.91
184.8	44.37
185.02	-15.02
185.239	95.57
185.459	89.43
185.679	40.28
185.898	-12.97
186.118	50.52
186.338	66.9
186.557	-58.03
186.777	71
186.997	77.14
187.216	66.9
187.436	73.04
187.655	85.33
187.875	21.85
188.095	17.75
188.314	64.85
188.534	56.66
188.753	-45.74
188.973	48.47
189.192	103.76
189.412	-12.97
189.631	-64.17
189.851	11.61
190.07	81.24
190.29	-8.87
190.509	-6.83
190.729	66.9
190.948	75.09
191.168	175.44
191.387	38.23
191.607	5.46
191.826	5.46
192.045	-62.12
192.265	85.33
192.484	-31.4
192.704	48.47
192.923	52.56
193.142	9.56
193.362	9.56
193.581	9.56
193.8	79.19
194.02	7.51
194.239	32.08
194.458	40.28
194.678	42.32
194.897	56.66
195.116	54.61
195.335	64.85
195.555	75.09
195.774	-15.02
195.993	-21.16
196.212	68.95
196.432	-2.73
196.651	-27.31
196.87	-0.68
197.089	48.47
197.308	79.19
197.528	93.52
197.747	-2.73
197.966	-45.74
198.185	11.61
198.404	21.85
198.623	54.61
198.842	46.42
199.062	62.8
199.281	95.57
199.5	-2.73
199.719	62.8
199.938	-4.78
200.157	48.47
200.376	30.04
200.595	-4.78
200.814	3.41
201.033	81.24
201.252	54.61
201.471	21.85
201.69	95.57
201.909	3.41
202.128	-0.68
202.347	42.32
202.566	87.38
202.785	11.61
203.004	111.96
203.223	89.43
203.442	5.46
203.661	99.67
203.879	40.28
204.098	73.04
204.317	44.37
204.536	32.08
204.755	15.7
204.974	-25.26
205.193	38.23
205.411	62.8
205.63	15.7
205.849	71
206.068	68.95
206.287	-12.97
206.505	79.19
206.724	114
206.943	5.46
207.162	-15.02
207.381	-10.92
207.599	50.52
207.818	19.8
208.037	13.65
208.255	-6.83
208.474	36.18
208.693	23.89
208.911	9.56
209.13	19.8
209.349	95.57
209.567	83.28
209.786	64.85
210.005	66.9
210.223	71
210.442	46.42
210.661	71
210.879	-53.93
211.098	17.75
211.316	60.76
211.535	38.23
211.753	58.71
211.972	62.8
212.191	97.62
212.409	48.47
212.628	91.48
212.846	83.28
213.065	25.94
213.283	68.95
213.502	25.94
213.72	36.18
213.938	38.23
214.157	-37.55
214.375	58.71
214.594	30.04
214.812	-2.73
215.031	56.66
215.249	85.33
215.467	75.09
215.686	62.8
215.904	44.37
216.122	42.32
216.341	77.14
216.559	7.51
216.778	54.61
216.996	-17.07
217.214	-2.73
217.432	11.61
217.651	21.85
217.869	-6.83
218.087	54.61
218.306	13.65
218.524	77.14
218.742	68.95
218.96	66.9
219.179	40.28
219.397	34.13
219.615	114
219.833	25.94
220.051	85.33
220.27	52.56
220.488	81.24
220.706	75.09
220.924	21.85
221.142	44.37
221.36	17.75
221.578	97.62
221.796	1.37
222.015	48.47
222.233	-6.83
222.451	-31.4
222.669	9.56
222.887	85.33
223.105	30.04
223.323	-37.55
223.541	-53.93
223.759	79.19
223.977	-2.73
224.195	60.76
224.413	95.57
224.631	11.61
224.849	19.8
225.067	75.09
225.285	25.94
225.503	13.65
225.721	-51.88
225.939	79.19
226.157	21.85
226.375	99.67
226.592	21.85
226.81	1.37
227.028	25.94
227.246	54.61
227.464	62.8
227.682	81.24
227.9	48.47
228.117	60.76
228.335	-2.73
228.553	38.23
228.771	38.23
228.989	-8.87
229.206	46.42
229.424	52.56
229.642	54.61
229.86	25.94
230.077	130.39
230.295	15.7
230.513	58.71
230.731	54.61
230.948	101.72
231.166	30.04
231.384	54.61
231.601	-45.74
231.819	111.96
232.037	9.56
232.254	36.18
232.472	60.76
232.689	30.04
232.907	52.56
233.125	27.99
233.342	5.46
233.56	17.75
233.777	87.38
233.995	30.04
234.213	91.48
234.43	89.43
234.648	3.41
234.865	71
235.083	64.85
235.3	32.08
235.518	71
235.735	71
235.953	38.23
236.17	-41.64
236.388	30.04
236.605	17.75
236.822	116.05
237.04	17.75
237.257	32.08
237.475	-2.73
237.692	79.19
237.909	17.75
238.127	3.41
238.344	-21.16
238.562	103.76
238.779	-37.55
238.996	15.7
239.214	71
239.431	30.04
239.648	38.23
239.865	85.33
240.083	-19.11
240.3	79.19
240.517	34.13
240.735	-0.68
240.952	85.33
241.169	25.94
241.386	19.8
241.603	38.23
241.821	36.18
242.038	60.76
242.255	68.95
242.472	50.52
242.689	25.94
242.907	30.04
243.124	97.62
243.341	-80.55
243.558	27.99
243.775	83.28
243.992	46.42
244.209	71
244.426	109.91
244.643	-19.11
244.86	30.04
245.078	68.95
245.295	-12.97
245.512	79.19
245.729	13.65
245.946	68.95
246.163	23.89
246.38	30.04
246.597	46.42
246.814	25.94
247.031	111.96
247.248	103.76
247.464	34.13
247.681	42.32
247.898	44.37
248.115	50.52
248.332	36.18
248.549	91.48
248.766	-8.87
248.983	101.72
249.2	-21.16
249.417	-15.02
249.633	-17.07
249.85	3.41
250.067	34.13
250.284	58.71
250.501	25.94
250.717	44.37
250.934	-25.26
251.151	42.32
251.368	34.13
251.585	19.8
251.801	5.46
252.018	-41.64
252.235	132.44
252.451	87.38
252.668	30.04
252.885	118.1
253.102	60.76
253.318	79.19
253.535	30.04
253.752	116.05
253.968	7.51
254.185	52.56
254.401	13.65
254.618	52.56
254.835	-6.83
255.051	103.76
255.268	58.71
255.484	52.56
255.701	56.66
255.917	50.52
256.134	54.61
256.351	13.65
256.567	36.18
256.784	36.18
257	66.9
257.217	85.33
257.433	-8.87
257.65	54.61
257.866	50.52
258.082	-17.07
258.299	68.95
258.515	58.71
258.732	9.56
258.948	105.81
259.165	15.7
259.381	25.94
259.597	25.94
259.814	42.32
260.03	-2.73
260.246	79.19
260.463	120.15
260.679	124.24
260.895	21.85
261.112	-0.68
261.328	-60.07
261.544	30.04
261.761	140.63
261.977	21.85
262.193	25.94
262.409	-2.73
262.626	19.8
262.842	54.61
263.058	-4.78
263.274	13.65
263.49	-31.4
263.707	71
263.923	81.24
264.139	-4.78
264.355	58.71
264.571	25.94
264.787	54.61
265.004	32.08
265.22	99.67
265.436	71
265.652	107.86
265.868	40.28
266.084	-39.59
266.3	48.47
266.516	-47.79
266.732	52.56
266.948	52.56
267.164	21.85
267.38	79.19
267.596	11.61
267.812	62.8
268.028	46.42
268.244	13.65
268.46	1.37
268.676	87.38
268.892	23.89
269.108	34.13
269.324	-0.68
269.54	11.61
269.756	58.71
269.972	46.42
270.188	136.53
270.403	-10.92
270.619	83.28
270.835	103.76
271.051	60.76
271.267	62.8
271.483	71
271.698	62.8
271.914	36.18
272.13	42.32
272.346	71
272.562	83.28
272.777	95.57
272.993	66.9
273.209	27.99
273.425	30.04
273.64	-17.07
273.856	21.85
274.072	95.57
274.287	34.13
274.503	34.13
274.719	89.43
274.934	79.19
275.15	36.18
275.366	11.61
275.581	56.66
275.797	11.61
276.012	-12.97
276.228	15.7
276.444	40.28
276.659	40.28
276.875	79.19
277.09	68.95
277.306	46.42
277.521	75.09
277.737	40.28
277.952	17.75
278.168	87.38
278.383	38.23
278.599	54.61
278.814	75.09
279.03	44.37
279.245	71
279.461	46.42
279.676	54.61
279.892	54.61
280.107	-35.5
280.322	15.7
280.538	116.05
280.753	42.32
280.969	148.82
281.184	81.24
281.399	136.53
281.615	30.04
281.83	60.76
282.045	30.04
282.26	-21.16
282.476	81.24
282.691	87.38
282.906	44.37
283.122	23.89
283.337	11.61
283.552	19.8
283.767	62.8
283.983	109.91
284.198	40.28
284.413	30.04
284.628	21.85
284.843	99.67
285.058	52.56
285.274	-37.55
285.489	36.18
285.704	85.33
285.919	66.9
286.134	54.61
286.349	46.42
286.564	13.65
286.779	152.92
286.995	11.61
287.21	40.28
287.425	44.37
287.64	62.8
287.855	54.61
288.07	-51.88
288.285	93.52
288.5	77.14
288.715	87.38
288.93	5.46
289.145	73.04
289.36	-19.11
289.575	54.61
289.79	79.19
290.004	62.8
290.219	103.76
290.434	5.46
290.649	62.8
290.864	48.47
291.079	-2.73
291.294	77.14
291.509	13.65
291.724	21.85
291.938	148.82
292.153	38.23
292.368	-4.78
292.583	89.43
292.798	85.33
293.012	13.65
293.227	27.99
293.442	-4.78
293.657	79.19
293.871	140.63
294.086	109.91
294.301	99.67
294.516	58.71
294.73	1.37
294.945	-4.78
295.16	38.23
295.374	13.65
295.589	54.61
295.804	36.18
296.018	30.04
296.233	126.29
296.447	99.67
296.662	54.61
296.877	58.71
297.091	-0.68
297.306	68.95
297.52	5.46
297.735	42.32
297.949	91.48
298.164	50.52
298.378	60.76
298.593	62.8
298.807	60.76
299.022	54.61
299.236	157.01
299.451	58.71
299.665	19.8
299.88	95.57
300.094	1.37
300.309	42.32
300.523	89.43
300.737	1.37
300.952	-10.92
301.166	-2.73
301.381	40.28
301.595	83.28
301.809	42.32
302.024	66.9
302.238	5.46
302.452	13.65
302.667	62.8
302.881	42.32
303.095	-23.21
303.309	64.85
303.524	5.46
303.738	93.52
303.952	38.23
304.166	11.61
304.381	25.94
304.595	126.29
304.809	46.42
305.023	56.66
305.237	21.85
305.452	81.24
305.666	111.96
305.88	132.44
306.094	73.04
306.308	56.66
306.522	152.92
306.736	105.81
306.95	105.81
307.164	21.85
307.379	19.8
307.593	91.48
307.807	60.76
308.021	79.19
308.235	79.19
308.449	36.18
308.663	46.42
308.877	30.04
309.091	103.76
309.305	95.57
309.519	5.46
309.733	50.52
309.947	7.51
310.161	48.47
310.374	9.56
310.588	79.19
310.802	-6.83
311.016	54.61
311.23	77.14
311.444	91.48
311.658	120.15
311.872	73.04
312.085	62.8
312.299	19.8
312.513	38.23
312.727	7.51
312.941	3.41
313.154	-8.87
313.368	66.9
313.582	73.04
313.796	30.04
314.009	64.85
314.223	46.42
314.437	15.7
314.651	13.65
314.864	-0.68
315.078	60.76
315.292	56.66
315.505	58.71
315.719	46.42
315.933	50.52
316.146	3.41
316.36	79.19
316.573	75.09
316.787	109.91
317.001	91.48
317.214	-64.17
317.428	60.76
317.641	40.28
317.855	50.52
318.068	40.28
318.282	68.95
318.495	48.47
318.709	19.8
318.922	1.37
319.136	32.08
319.349	30.04
319.563	167.25
319.776	54.61
319.99	66.9
320.203	23.89
320.417	77.14
320.63	56.66
320.843	128.34
321.057	62.8
321.27	40.28
321.483	36.18
321.697	56.66
321.91	-2.73
322.124	38.23
322.337	34.13
322.55	7.51
322.763	48.47
322.977	93.52
323.19	48.47
323.403	107.86
323.617	73.04
323.83	46.42
324.043	30.04
324.256	21.85
324.469	79.19
324.683	50.52
324.896	9.56
325.109	66.9
325.322	75.09
325.535	21.85
325.748	11.61
325.962	79.19
326.175	15.7
326.388	93.52
326.601	62.8
326.814	68.95
327.027	30.04
327.24	99.67
327.453	13.65
327.666	95.57
327.879	42.32
328.092	48.47
328.305	17.75
328.518	50.52
328.731	122.2
328.944	85.33
329.157	95.57
329.37	15.7
329.583	95.57
329.796	77.14
330.009	9.56
330.222	101.72
330.435	85.33
330.648	32.08
330.861	38.23
331.073	46.42
331.286	-12.97
331.499	91.48
331.712	-0.68
331.925	95.57
332.138	101.72
332.35	60.76
332.563	15.7
332.776	54.61
332.989	13.65
333.202	13.65
333.414	50.52
333.627	58.71
333.84	1.37
334.053	81.24
334.265	32.08
334.478	66.9
334.691	50.52
334.903	-0.68
335.116	68.95
335.329	36.18
335.541	58.71
335.754	34.13
335.966	13.65
336.179	38.23
336.392	46.42
336.604	64.85
336.817	62.8
337.029	85.33
337.242	75.09
337.454	116.05
337.667	-4.78
337.88	64.85
338.092	81.24
338.305	93.52
338.517	42.32
338.729	83.28
338.942	42.32
339.154	36.18
339.367	13.65
339.579	-19.11
339.792	62.8
340.004	9.56
340.217	-8.87
340.429	77.14
340.641	38.23
340.854	11.61
341.066	21.85
341.278	95.57
341.491	58.71
341.703	36.18
341.915	-0.68
342.128	40.28
342.34	56.66
342.552	91.48
342.764	71
342.977	95.57
343.189	-2.73
343.401	30.04
343.613	56.66
343.826	116.05
344.038	-10.92
344.25	107.86
344.462	87.38
344.674	58.71
344.886	68.95
345.099	50.52
345.311	93.52
345.523	7.51
345.735	-37.55
345.947	-2.73
346.159	77.14
346.371	58.71
346.583	34.13
346.795	132.44
347.007	66.9
347.219	87.38
347.431	60.76
347.643	83.28
347.855	17.75
348.067	32.08
348.279	5.46
348.491	105.81
348.703	93.52
348.915	58.71
349.127	44.37
349.339	77.14
349.551	46.42
349.763	124.24
349.975	5.46
350.187	64.85
350.399	83.28
350.61	68.95
350.822	40.28
351.034	79.19
351.246	44.37
351.458	91.48
351.669	25.94
351.881	66.9
352.093	30.04
352.305	140.63
352.517	77.14
352.728	25.94
352.94	73.04
353.152	136.53
353.363	60.76
353.575	122.2
353.787	132.44
353.999	101.72
354.21	154.96
354.422	-19.11
354.633	85.33
354.845	87.38
355.057	79.19
355.268	105.81
355.48	79.19
355.692	23.89
355.903	60.76
356.115	68.95
356.326	58.71
356.538	56.66
356.749	97.62
356.961	140.63
357.172	25.94
357.384	7.51
357.595	62.8
357.807	30.04
358.018	48.47
358.23	46.42
358.441	38.23
358.653	154.96
358.864	-27.31
359.075	68.95
359.287	111.96
359.498	91.48
359.709	95.57
359.921	-12.97
360.132	95.57
360.344	36.18
360.555	93.52
360.766	89.43
360.977	140.63
361.189	46.42
361.4	71
361.611	130.39
361.823	128.34
362.034	77.14
362.245	-8.87
362.456	64.85
362.667	71
362.879	11.61
363.09	46.42
363.301	91.48
363.512	103.76
363.723	42.32
363.935	27.99
364.146	52.56
364.357	42.32
364.568	140.63
364.779	71
364.99	107.86
365.201	52.56
365.412	95.57
365.623	25.94
365.834	42.32
366.045	79.19
366.256	44.37
366.467	38.23
366.678	105.81
366.889	79.19
367.1	40.28
367.311	68.95
367.522	54.61
367.733	95.57
367.944	54.61
368.155	101.72
368.366	89.43
368.577	120.15
368.788	132.44
368.999	46.42
369.209	36.18
369.42	118.1
369.631	140.63
369.842	66.9
370.053	23.89
370.264	54.61
370.474	66.9
370.685	25.94
370.896	52.56
371.107	77.14
371.317	60.76
371.528	118.1
371.739	107.86
371.95	27.99
372.16	58.71
372.371	44.37
372.582	77.14
372.792	38.23
373.003	111.96
373.214	140.63
373.424	99.67
373.635	136.53
373.846	93.52
374.056	83.28
374.267	30.04
374.477	71
374.688	58.71
374.898	64.85
375.109	54.61
375.319	89.43
375.53	136.53
375.74	101.72
375.951	64.85
376.161	95.57
376.372	167.25
376.582	71
376.793	93.52
377.003	44.37
377.214	116.05
377.424	103.76
377.635	21.85
377.845	56.66
378.055	66.9
378.266	58.71
378.476	58.71
378.686	42.32
378.897	58.71
379.107	36.18
379.317	95.57
379.528	85.33
379.738	64.85
379.948	21.85
380.158	13.65
380.369	44.37
380.579	58.71
380.789	109.91
380.999	79.19
381.21	75.09
381.42	89.43
381.63	44.37
381.84	87.38
382.05	99.67
382.261	140.63
382.471	68.95
382.681	56.66
382.891	93.52
383.101	148.82
383.311	79.19
383.521	116.05
383.731	118.1
383.941	60.76
384.151	46.42
384.361	97.62
384.571	97.62
384.781	128.34
384.991	150.87
385.201	124.24
385.411	87.38
385.621	32.08
385.831	50.52
386.041	13.65
386.251	50.52
386.461	-0.68
386.671	124.24
386.881	75.09
387.091	62.8
387.301	107.86
387.511	97.62
387.72	95.57
387.93	73.04
388.14	-10.92
388.35	105.81
388.56	103.76
388.769	93.52
388.979	87.38
389.189	109.91
389.399	-19.11
389.609	120.15
389.818	159.06
390.028	111.96
390.238	122.2
390.447	126.29
390.657	36.18
390.867	66.9
391.076	83.28
391.286	48.47
391.496	50.52
391.705	154.96
391.915	111.96
392.125	103.76
392.334	81.24
392.544	197.97
392.753	75.09
392.963	77.14
393.172	81.24
393.382	193.87
393.591	230.74
393.801	111.96
394.01	114
394.22	71
394.429	118.1
394.639	185.68
394.848	144.72
395.058	85.33
395.267	42.32
395.477	60.76
395.686	191.83
395.895	132.44
396.105	177.49
396.314	103.76
396.524	150.87
396.733	157.01
396.942	210.26
397.152	128.34
397.361	85.33
397.57	103.76
397.78	161.11
397.989	154.96
398.198	177.49
398.407	122.2
398.617	220.5
398.826	126.29
399.035	138.58
399.244	128.34
399.453	165.2
399.663	222.55
399.872	152.92
400.081	150.87
400.29	148.82
400.499	107.86
400.708	216.4
400.917	140.63
401.127	154.96
401.336	124.24
401.545	300.37
401.754	243.03
401.963	105.81
402.172	111.96
402.381	154.96
402.59	173.39
402.799	120.15
403.008	234.83
403.217	173.39
403.426	157.01
403.635	222.55
403.844	179.54
404.053	157.01
404.262	183.63
404.471	292.18
404.68	206.16
404.888	228.69
405.097	234.83
405.306	187.73
405.515	191.83
405.724	195.92
405.933	187.73
406.142	245.07
406.35	261.46
406.559	304.46
406.768	337.23
406.977	300.37
407.185	292.18
407.394	232.79
407.603	232.79
407.812	281.94
408.02	316.75
408.229	337.23
408.438	279.89
408.646	281.94
408.855	390.48
409.064	329.04
409.272	384.34
409.481	374.1
409.69	374.1
409.898	431.44
410.107	404.82
410.315	441.68
410.524	505.17
410.733	464.21
410.941	505.17
411.15	595.28
411.358	511.31
411.567	537.93
411.775	556.36
411.984	597.32
412.192	621.9
412.401	675.15
412.609	689.48
412.818	693.58
413.026	656.72
413.234	718.15
413.443	771.4
413.651	742.73
413.86	789.83
414.068	879.94
414.276	795.98
414.485	879.94
414.693	941.38
414.901	894.28
415.11	992.58
415.318	1031.49
415.526	943.43
415.734	1056.07
415.943	1236.29
416.151	1205.57
416.359	1103.17
416.567	1236.29
416.776	1254.72
416.984	1254.72
417.192	1400.13
417.4	1322.31
417.608	1377.6
417.817	1416.51
418.025	1566.01
418.233	1592.64
418.441	1617.21
418.649	1572.16
418.857	1758.52
419.065	1819.96
419.273	1826.11
419.481	1973.56
419.689	2045.24
419.897	2159.92
420.105	2190.64
420.313	2190.64
420.521	2241.84
420.729	2336.05
420.937	2329.91
421.145	2360.63
421.353	2729.26
421.561	2811.18
421.769	2782.51
421.977	2843.95
422.185	2831.66
422.393	3069.22
422.601	3231.01
422.809	3339.55
423.017	3214.63
423.224	3265.83
423.432	3495.2
423.64	3597.6
423.848	3740.96
424.056	3687.71
424.263	4109.59
424.471	4013.34
424.679	4066.58
424.887	4472.08
425.094	4535.57
425.302	4238.61
425.51	4637.97
425.718	4760.84
425.925	4844.81
426.133	5199.11
426.341	5297.41
426.548	5487.87
426.756	5528.83
426.964	5604.61
427.171	5946.62
427.379	6126.84
427.586	6264.05
427.794	6243.57
428.001	6601.97
428.209	6819.05
428.417	6821.1
428.624	7255.27
428.832	7257.32
429.039	7220.46
429.247	7150.82
429.454	8113.37
429.662	8357.08
429.869	8062.17
430.076	8533.2
430.284	8279.25
430.491	8651.99
430.699	9086.15
430.906	9080.01
431.114	9264.33
431.321	9761.98
431.528	9901.25
431.736	10433.72
431.943	10763.44
432.15	10605.75
432.358	10759.35
432.565	11361.45
432.772	11048.11
432.979	11816.1
433.187	11981.98
433.394	12156.06
433.601	12801.17
433.808	12883.09
434.016	12876.94
434.223	13307.02
434.43	14331
434.637	13976.7
434.844	14865.52
435.052	14957.68
435.259	14830.71
435.466	15262.83
435.673	15168.62
435.88	16280.67
436.087	16704.6
436.294	16966.74
436.501	16362.59
436.708	16819.28
436.915	17198.16
437.122	18107.46
437.329	18164.8
437.537	18748.47
437.743	18803.77
437.95	18631.74
438.157	19665.96
438.364	20151.33
438.571	20372.51
438.778	20456.48
438.985	22330.37
439.192	21240.85
439.399	22311.94
439.606	21625.87
439.813	23016.44
440.02	24185.83
440.227	23798.76
440.433	23385.07
440.64	24495.07
440.847	24173.54
441.054	25113.56
441.261	26309.57
441.467	26102.73
441.674	26665.92
441.881	27444.15
442.088	27483.06
442.294	27446.19
442.501	28038.06
442.708	28482.47
442.914	29789.07
443.121	30923.65
443.328	30102.41
443.534	31742.83
443.741	31589.24
443.948	31021.95
444.154	33155.93
444.361	32734.05
444.568	33125.21
444.774	32820.06
444.981	33301.34
445.187	34347.85
445.394	35687.22
445.6	35404.6
445.807	38642.44
446.013	36907.81
446.22	37714.71
446.426	39140.1
446.633	39406.33
446.839	40375.02
447.046	39136
447.252	41396.96
447.459	41786.07
447.665	41040.61
447.871	42918.6
448.078	44423.86
448.284	42879.69
448.491	43293.38
448.697	45089.45
448.903	45869.72
449.11	45746.84
449.316	45257.38
449.522	46045.85
449.728	47049.35
449.935	47643.26
450.141	47643.26
450.347	48519.79
450.553	46885.51
450.76	47583.87
450.966	49203.81
451.172	48378.48
451.378	49613.41
451.584	48626.29
451.791	50039.39
451.997	49781.34
452.203	50160.22
452.409	50530.9
452.615	50164.31
452.821	48218.74
453.027	47929.98
453.233	50115.16
453.44	47995.51
453.646	48986.73
453.852	48826.99
454.058	49767.01
454.264	47712.89
454.47	49072.74
454.676	47626.88
454.882	49121.9
455.088	45271.71
455.294	45662.88
455.5	46783.12
455.705	46807.69
455.911	45015.72
456.117	44202.67
456.323	43410.11
456.529	41417.44
456.735	43014.85
456.941	41818.84
457.147	41401.05
457.352	40182.51
457.558	39516.92
457.764	39918.32
457.97	38767.37
458.176	37923.6
458.381	38171.41
458.587	36256.56
458.793	36356.91
458.999	34485.06
459.204	37049.12
459.41	36221.74
459.616	33647.44
459.821	33588.05
460.027	33110.88
460.233	32543.59
460.438	30976.89
460.644	31472.5
460.85	29866.89
461.055	29553.55
461.261	29346.71
461.466	27579.31
461.672	26471.36
461.878	28271.53
462.083	26502.08
462.289	26254.28
462.494	25930.7
462.7	24869.85
462.905	24253.41
463.111	24794.07
463.316	25355.22
463.522	24597.47
463.727	24611.81
463.932	24296.42
464.138	24200.16
464.343	24415.2
464.549	23628.78
464.754	24736.73
464.959	24173.54
465.165	24228.84
465.37	23061.49
465.575	22420.48
465.781	23294.96
465.986	23712.75
466.191	22627.32
466.397	22248.45
466.602	20919.32
466.807	22129.67
467.012	22268.93
467.218	21724.17
467.423	21638.16
