Data from USB4F104151__254__10-39-44-789.txt Node

Date: Wed Mar 12 10:39:44 EDT 2025
User: louis
Spectrometer: USB4F10415
Trigger mode: 4
Integration Time (sec): 3.000000E-2
Scans to average: 1
Electric dark correction enabled: true
Nonlinearity correction enabled: false
Boxcar width: 0
XAxis mode: Wavelengths
Number of Pixels in Spectrum: 3648
>>>>>Begin Spectral Data<<<<<
178.204	-175.44
178.424	-175.44
178.644	-175.44
178.864	-103.76
179.084	-175.44
179.304	-5.46
179.524	19.11
179.744	-81.24
179.964	-36.18
180.184	-13.65
180.404	0.68
180.624	51.88
180.844	17.07
181.064	17.07
181.283	27.31
181.503	-44.37
181.723	47.79
181.943	-48.47
182.163	74.41
182.383	86.7
182.602	0.68
182.822	29.35
183.042	37.55
183.262	39.59
183.482	35.5
183.701	80.55
183.921	4.78
184.141	10.92
184.361	29.35
184.58	58.03
184.8	78.51
185.02	62.12
185.239	0.68
185.459	-32.08
185.679	60.07
185.898	4.78
186.118	111.27
186.338	37.55
186.557	29.35
186.777	21.16
186.997	-19.8
187.216	-23.89
187.436	129.7
187.655	35.5
187.875	88.75
188.095	6.83
188.314	29.35
188.534	33.45
188.753	55.98
188.973	4.78
189.192	47.79
189.412	74.41
189.631	21.16
189.851	68.27
190.07	86.7
190.29	-23.89
190.509	39.59
190.729	17.07
190.948	37.55
191.168	127.66
191.387	31.4
191.607	-1.37
191.826	29.35
192.045	60.07
192.265	4.78
192.484	-11.61
192.704	-1.37
192.923	-17.75
193.142	62.12
193.362	70.31
193.581	51.88
193.8	62.12
194.02	-15.7
194.239	10.92
194.458	8.87
194.678	-11.61
194.897	58.03
195.116	23.21
195.335	72.36
195.555	21.16
195.774	41.64
195.993	64.17
196.212	21.16
196.432	23.21
196.651	8.87
196.87	10.92
197.089	74.41
197.308	113.32
197.528	33.45
197.747	6.83
197.966	-11.61
198.185	96.94
198.404	-36.18
198.623	15.02
198.842	19.11
199.062	152.23
199.281	131.75
199.5	2.73
199.719	78.51
199.938	12.97
200.157	21.16
200.376	6.83
200.595	68.27
200.814	51.88
201.033	-44.37
201.252	68.27
201.471	10.92
201.69	29.35
201.909	-21.84
202.128	-9.56
202.347	55.98
202.566	90.79
202.785	39.59
203.004	78.51
203.223	115.37
203.442	6.83
203.661	17.07
203.879	62.12
204.098	94.89
204.317	-11.61
204.536	84.65
204.755	41.64
204.974	86.7
205.193	-3.41
205.411	55.98
205.63	78.51
205.849	78.51
206.068	19.11
206.287	-19.8
206.505	119.46
206.724	-27.99
206.943	76.46
207.162	29.35
207.381	39.59
207.599	62.12
207.818	-11.61
208.037	82.6
208.255	-56.66
208.474	51.88
208.693	2.73
208.911	29.35
209.13	25.26
209.349	10.92
209.567	92.84
209.786	29.35
210.005	53.93
210.223	0.68
210.442	-85.33
210.661	72.36
210.879	-13.65
211.098	49.83
211.316	62.12
211.535	113.32
211.753	21.16
211.972	78.51
212.191	105.13
212.409	23.21
212.628	21.16
212.846	15.02
213.065	117.42
213.283	8.87
213.502	66.22
213.72	31.4
213.938	80.55
214.157	0.68
214.375	10.92
214.594	76.46
214.812	8.87
215.031	53.93
215.249	21.16
215.467	-38.23
215.686	-23.89
215.904	12.97
216.122	8.87
216.341	31.4
216.559	-21.84
216.778	103.08
216.996	78.51
217.214	-7.51
217.432	49.83
217.651	-1.37
217.869	96.94
218.087	8.87
218.306	33.45
218.524	82.6
218.742	45.74
218.96	113.32
219.179	19.11
219.397	29.35
219.615	33.45
219.833	43.69
220.051	19.11
220.27	70.31
220.488	12.97
220.706	6.83
220.924	70.31
221.142	8.87
221.36	-17.75
221.578	60.07
221.796	17.07
222.015	8.87
222.233	17.07
222.451	51.88
222.669	82.6
222.887	80.55
223.105	51.88
223.323	-68.95
223.541	10.92
223.759	47.79
223.977	49.83
224.195	101.03
224.413	103.08
224.631	12.97
224.849	53.93
225.067	58.03
225.285	-15.7
225.503	0.68
225.721	-68.95
225.939	45.74
226.157	29.35
226.375	123.56
226.592	53.93
226.81	-9.56
227.028	86.7
227.246	51.88
227.464	12.97
227.682	107.18
227.9	-5.46
228.117	31.4
228.335	58.03
228.553	-19.8
228.771	-13.65
228.989	43.69
229.206	-27.99
229.424	-17.75
229.642	78.51
229.86	-19.8
230.077	96.94
230.295	10.92
230.513	129.7
230.731	64.17
230.948	109.23
231.166	105.13
231.384	-9.56
231.601	66.22
231.819	84.65
232.037	27.31
232.254	8.87
232.472	45.74
232.689	45.74
232.907	10.92
233.125	17.07
233.342	-19.8
233.56	-9.56
233.777	39.59
233.995	23.21
234.213	43.69
234.43	25.26
234.648	17.07
234.865	62.12
235.083	51.88
235.3	74.41
235.518	103.08
235.735	17.07
235.953	109.23
236.17	-30.04
236.388	62.12
236.605	43.69
236.822	23.21
237.04	12.97
237.257	-1.37
237.475	-27.99
237.692	4.78
237.909	-15.7
238.127	-23.89
238.344	74.41
238.562	21.16
238.779	45.74
238.996	4.78
239.214	-5.46
239.431	6.83
239.648	21.16
239.865	21.16
240.083	72.36
240.3	6.83
240.517	8.87
240.735	10.92
240.952	90.79
241.169	-27.99
241.386	74.41
241.603	68.27
241.821	17.07
242.038	58.03
242.255	70.31
242.472	-34.13
242.689	64.17
242.907	107.18
243.124	35.5
243.341	31.4
243.558	64.17
243.775	45.74
243.992	47.79
244.209	55.98
244.426	55.98
244.643	25.26
244.86	12.97
245.078	21.16
245.295	-5.46
245.512	96.94
245.729	-9.56
245.946	76.46
246.163	-7.51
246.38	49.83
246.597	35.5
246.814	64.17
247.031	23.21
247.248	-11.61
247.464	51.88
247.681	37.55
247.898	94.89
248.115	101.03
248.332	-17.75
248.549	96.94
248.766	105.13
248.983	146.09
249.2	121.51
249.417	55.98
249.633	43.69
249.85	55.98
250.067	4.78
250.284	31.4
250.501	51.88
250.717	29.35
250.934	-11.61
251.151	55.98
251.368	-15.7
251.585	80.55
251.801	19.11
252.018	8.87
252.235	84.65
252.451	47.79
252.668	51.88
252.885	92.84
253.102	-5.46
253.318	12.97
253.535	29.35
253.752	10.92
253.968	31.4
254.185	60.07
254.401	35.5
254.618	25.26
254.835	-1.37
255.051	58.03
255.268	31.4
255.484	62.12
255.701	53.93
255.917	47.79
256.134	103.08
256.351	31.4
256.567	82.6
256.784	-19.8
257	-9.56
257.217	62.12
257.433	45.74
257.65	-27.99
257.866	137.9
258.082	80.55
258.299	35.5
258.515	-17.75
258.732	12.97
258.948	6.83
259.165	-13.65
259.381	43.69
259.597	35.5
259.814	86.7
260.03	-30.04
260.246	21.16
260.463	94.89
260.679	25.26
260.895	74.41
261.112	19.11
261.328	49.83
261.544	4.78
261.761	62.12
261.977	17.07
262.193	4.78
262.409	72.36
262.626	41.64
262.842	72.36
263.058	0.68
263.274	84.65
263.49	27.31
263.707	64.17
263.923	121.51
264.139	0.68
264.355	25.26
264.571	39.59
264.787	21.16
265.004	74.41
265.22	58.03
265.436	47.79
265.652	2.73
265.868	53.93
266.084	74.41
266.3	10.92
266.516	-9.56
266.732	10.92
266.948	88.75
267.164	45.74
267.38	103.08
267.596	49.83
267.812	35.5
268.028	27.31
268.244	41.64
268.46	72.36
268.676	-3.41
268.892	25.26
269.108	64.17
269.324	2.73
269.54	12.97
269.756	15.02
269.972	84.65
270.188	45.74
270.403	-62.8
270.619	19.11
270.835	43.69
271.051	41.64
271.267	55.98
271.483	-64.85
271.698	49.83
271.914	127.66
272.13	60.07
272.346	19.11
272.562	-11.61
272.777	62.12
272.993	53.93
273.209	55.98
273.425	51.88
273.64	0.68
273.856	82.6
274.072	19.11
274.287	68.27
274.503	41.64
274.719	86.7
274.934	35.5
275.15	72.36
275.366	43.69
275.581	-46.42
275.797	29.35
276.012	27.31
276.228	88.75
276.444	43.69
276.659	-7.51
276.875	84.65
277.09	47.79
277.306	-15.7
277.521	51.88
277.737	-9.56
277.952	-21.84
278.168	27.31
278.383	8.87
278.599	2.73
278.814	94.89
279.03	37.55
279.245	80.55
279.461	23.21
279.676	45.74
279.892	-68.95
280.107	25.26
280.322	-30.04
280.538	80.55
280.753	51.88
280.969	60.07
281.184	21.16
281.399	84.65
281.615	23.21
281.83	66.22
282.045	-9.56
282.26	8.87
282.476	70.31
282.691	15.02
282.906	25.26
283.122	94.89
283.337	41.64
283.552	86.7
283.767	19.11
283.983	19.11
284.198	51.88
284.413	88.75
284.628	-34.13
284.843	131.75
285.058	107.18
285.274	27.31
285.489	-9.56
285.704	78.51
285.919	25.26
286.134	64.17
286.349	-7.51
286.564	78.51
286.779	86.7
286.995	23.21
287.21	-17.75
287.425	80.55
287.64	45.74
287.855	62.12
288.07	-11.61
288.285	107.18
288.5	125.61
288.715	90.79
288.93	-3.41
289.145	62.12
289.36	8.87
289.575	55.98
289.79	98.99
290.004	-30.04
290.219	111.27
290.434	-7.51
290.649	101.03
290.864	45.74
291.079	8.87
291.294	51.88
291.509	76.46
291.724	103.08
291.938	51.88
292.153	92.84
292.368	10.92
292.583	35.5
292.798	-54.61
293.012	17.07
293.227	88.75
293.442	27.31
293.657	64.17
293.871	94.89
294.086	49.83
294.301	80.55
294.516	21.16
294.73	82.6
294.945	37.55
295.16	53.93
295.374	131.75
295.589	66.22
295.804	-1.37
296.018	62.12
296.233	47.79
296.447	15.02
296.662	39.59
296.877	68.27
297.091	78.51
297.306	37.55
297.52	27.31
297.735	41.64
297.949	8.87
298.164	29.35
298.378	21.16
298.593	17.07
298.807	0.68
299.022	10.92
299.236	113.32
299.451	53.93
299.665	68.27
299.88	53.93
300.094	70.31
300.309	-19.8
300.523	78.51
300.737	4.78
300.952	15.02
301.166	72.36
301.381	53.93
301.595	31.4
301.809	62.12
302.024	-15.7
302.238	-7.51
302.452	111.27
302.667	117.42
302.881	64.17
303.095	92.84
303.309	58.03
303.524	-44.37
303.738	-19.8
303.952	17.07
304.166	25.26
304.381	-77.14
304.595	107.18
304.809	10.92
305.023	-38.23
305.237	23.21
305.452	58.03
305.666	49.83
305.88	35.5
306.094	90.79
306.308	31.4
306.522	58.03
306.736	109.23
306.95	51.88
307.164	25.26
307.379	90.79
307.593	107.18
307.807	78.51
308.021	125.61
308.235	103.08
308.449	12.97
308.663	90.79
308.877	84.65
309.091	80.55
309.305	53.93
309.519	15.02
309.733	29.35
309.947	-11.61
310.161	49.83
310.374	66.22
310.588	66.22
310.802	41.64
311.016	123.56
311.23	33.45
311.444	84.65
311.658	-23.89
311.872	27.31
312.085	-13.65
312.299	47.79
312.513	62.12
312.727	55.98
312.941	47.79
313.154	41.64
313.368	49.83
313.582	15.02
313.796	82.6
314.009	43.69
314.223	51.88
314.437	70.31
314.651	70.31
314.864	6.83
315.078	-21.84
315.292	-7.51
315.505	-5.46
315.719	-1.37
315.933	74.41
316.146	8.87
316.36	23.21
316.573	90.79
316.787	49.83
317.001	64.17
317.214	-15.7
317.428	53.93
317.641	-7.51
317.855	55.98
318.068	58.03
318.282	45.74
318.495	101.03
318.709	86.7
318.922	21.16
319.136	90.79
319.349	92.84
319.563	70.31
319.776	-1.37
319.99	58.03
320.203	45.74
320.417	-34.13
320.63	105.13
320.843	90.79
321.057	4.78
321.27	2.73
321.483	60.07
321.697	103.08
321.91	84.65
322.124	35.5
322.337	-13.65
322.55	29.35
322.763	84.65
322.977	41.64
323.19	53.93
323.403	-13.65
323.617	25.26
323.83	111.27
324.043	39.59
324.256	2.73
324.469	45.74
324.683	4.78
324.896	10.92
325.109	8.87
325.322	31.4
325.535	62.12
325.748	70.31
325.962	70.31
326.175	23.21
326.388	90.79
326.601	51.88
326.814	41.64
327.027	35.5
327.24	86.7
327.453	-48.47
327.666	90.79
327.879	-3.41
328.092	84.65
328.305	47.79
328.518	51.88
328.731	8.87
328.944	148.14
329.157	-1.37
329.37	35.5
329.583	94.89
329.796	23.21
330.009	74.41
330.222	84.65
330.435	78.51
330.648	62.12
330.861	-3.41
331.073	82.6
331.286	78.51
331.499	4.78
331.712	6.83
331.925	92.84
332.138	6.83
332.35	88.75
332.563	58.03
332.776	84.65
332.989	41.64
333.202	58.03
333.414	21.16
333.627	82.6
333.84	51.88
334.053	51.88
334.265	64.17
334.478	4.78
334.691	-17.75
334.903	105.13
335.116	19.11
335.329	127.66
335.541	41.64
335.754	35.5
335.966	51.88
336.179	98.99
336.392	58.03
336.604	84.65
336.817	68.27
337.029	60.07
337.242	-19.8
337.454	123.56
337.667	-5.46
337.88	23.21
338.092	-11.61
338.305	15.02
338.517	12.97
338.729	80.55
338.942	84.65
339.154	111.27
339.367	49.83
339.579	55.98
339.792	-11.61
340.004	109.23
340.217	70.31
340.429	6.83
340.641	43.69
340.854	41.64
341.066	107.18
341.278	131.75
341.491	96.94
341.703	111.27
341.915	37.55
342.128	51.88
342.34	-15.7
342.552	6.83
342.764	-19.8
342.977	90.79
343.189	51.88
343.401	84.65
343.613	-32.08
343.826	53.93
344.038	19.11
344.25	29.35
344.462	-17.75
344.674	98.99
344.886	31.4
345.099	78.51
345.311	41.64
345.523	72.36
345.735	-3.41
345.947	78.51
346.159	66.22
346.371	0.68
346.583	86.7
346.795	123.56
347.007	84.65
347.219	21.16
347.431	21.16
347.643	60.07
347.855	64.17
348.067	133.8
348.279	-1.37
348.491	66.22
348.703	53.93
348.915	53.93
349.127	0.68
349.339	33.45
349.551	35.5
349.763	109.23
349.975	25.26
350.187	49.83
350.399	19.11
350.61	86.7
350.822	139.94
351.034	25.26
351.246	41.64
351.458	-5.46
351.669	4.78
351.881	70.31
352.093	51.88
352.305	58.03
352.517	76.46
352.728	113.32
352.94	78.51
353.152	74.41
353.363	-17.75
353.575	103.08
353.787	107.18
353.999	68.27
354.21	66.22
354.422	41.64
354.633	29.35
354.845	88.75
355.057	98.99
355.268	86.7
355.48	103.08
355.692	4.78
355.903	127.66
356.115	-27.99
356.326	-40.28
356.538	98.99
356.749	105.13
356.961	137.9
357.172	60.07
357.384	45.74
357.595	119.46
357.807	62.12
358.018	96.94
358.23	12.97
358.441	131.75
358.653	23.21
358.864	51.88
359.075	39.59
359.287	103.08
359.498	123.56
359.709	125.61
359.921	78.51
360.132	8.87
360.344	111.27
360.555	88.75
360.766	111.27
360.977	31.4
361.189	94.89
361.4	84.65
361.611	158.38
361.823	8.87
362.034	41.64
362.245	-25.94
362.456	25.26
362.667	15.02
362.879	115.37
363.09	94.89
363.301	74.41
363.512	35.5
363.723	10.92
363.935	78.51
364.146	125.61
364.357	113.32
364.568	94.89
364.779	-15.7
364.99	74.41
365.201	17.07
365.412	82.6
365.623	123.56
365.834	80.55
366.045	-27.99
366.256	-11.61
366.467	62.12
366.678	35.5
366.889	64.17
367.1	53.93
367.311	101.03
367.522	92.84
367.733	37.55
367.944	70.31
368.155	62.12
368.366	119.46
368.577	92.84
368.788	92.84
368.999	70.31
369.209	96.94
369.42	117.42
369.631	80.55
369.842	58.03
370.053	25.26
370.264	15.02
370.474	64.17
370.685	49.83
370.896	41.64
371.107	144.04
371.317	101.03
371.528	96.94
371.739	84.65
371.95	62.12
372.16	-1.37
372.371	-3.41
372.582	98.99
372.792	51.88
373.003	74.41
373.214	6.83
373.424	70.31
373.635	39.59
373.846	133.8
374.056	-7.51
374.267	49.83
374.477	107.18
374.688	62.12
374.898	64.17
375.109	111.27
375.319	111.27
375.53	98.99
375.74	47.79
375.951	68.27
376.161	49.83
376.372	139.94
376.582	25.26
376.793	15.02
377.003	80.55
377.214	-3.41
377.424	90.79
377.635	80.55
377.845	76.46
378.055	101.03
378.266	43.69
378.476	101.03
378.686	123.56
378.897	137.9
379.107	172.71
379.317	68.27
379.528	111.27
379.738	78.51
379.948	-1.37
380.158	86.7
380.369	62.12
380.579	80.55
380.789	127.66
380.999	78.51
381.21	53.93
381.42	113.32
381.63	41.64
381.84	103.08
382.05	-3.41
382.261	55.98
382.471	84.65
382.681	35.5
382.891	109.23
383.101	84.65
383.311	-3.41
383.521	66.22
383.731	111.27
383.941	66.22
384.151	141.99
384.361	125.61
384.571	47.79
384.781	47.79
384.991	133.8
385.201	156.33
385.411	62.12
385.621	72.36
385.831	43.69
386.041	45.74
386.251	98.99
386.461	162.47
386.671	64.17
386.881	86.7
387.091	45.74
387.301	92.84
387.511	29.35
387.72	62.12
387.93	41.64
388.14	53.93
388.35	49.83
388.56	178.86
388.769	80.55
388.979	111.27
389.189	80.55
389.399	12.97
389.609	84.65
389.818	74.41
390.028	31.4
390.238	121.51
390.447	2.73
390.657	21.16
390.867	49.83
391.076	74.41
391.286	119.46
391.496	58.03
391.705	58.03
391.915	105.13
392.125	139.94
392.334	4.78
392.544	127.66
392.753	101.03
392.963	49.83
393.172	121.51
393.382	4.78
393.591	160.42
393.801	92.84
394.01	68.27
394.22	68.27
394.429	88.75
394.639	98.99
394.848	172.71
395.058	58.03
395.267	121.51
395.477	168.62
395.686	35.5
395.895	135.85
396.105	225.96
396.314	125.61
396.524	154.28
396.733	103.08
396.942	103.08
397.152	148.14
397.361	148.14
397.57	164.52
397.78	119.46
397.989	166.57
398.198	209.58
398.407	172.71
398.617	113.32
398.826	103.08
399.035	113.32
399.244	144.04
399.453	172.71
399.663	82.6
399.872	156.33
400.081	119.46
400.29	201.38
400.499	90.79
400.708	135.85
400.917	103.08
401.127	129.7
401.336	125.61
401.545	185
401.754	176.81
401.963	187.05
402.172	139.94
402.381	103.08
402.59	258.73
402.799	127.66
403.008	139.94
403.217	125.61
403.426	185
403.635	185
403.844	123.56
404.053	160.42
404.262	203.43
404.471	264.87
404.68	246.44
404.888	213.67
405.097	170.66
405.306	223.91
405.515	281.25
405.724	215.72
405.933	234.15
406.142	246.44
406.35	217.77
406.559	250.53
406.768	248.49
406.977	262.82
407.185	299.69
407.394	258.73
407.603	189.1
407.812	297.64
408.02	287.4
408.229	348.84
408.438	373.41
408.646	295.59
408.855	207.53
409.064	383.65
409.272	307.88
409.481	416.42
409.69	414.37
409.898	293.54
410.107	461.48
410.315	397.99
410.524	383.65
410.733	391.84
410.941	467.62
411.15	479.91
411.358	459.43
411.567	504.48
411.775	522.91
411.984	533.15
412.192	541.35
412.401	606.88
412.609	565.92
412.818	680.61
413.026	717.47
413.234	668.32
413.443	635.55
413.651	678.56
413.86	750.24
414.068	815.77
414.276	756.38
414.485	750.24
414.693	901.79
414.901	961.18
415.11	996
415.318	1024.67
415.526	1012.38
415.734	1012.38
415.943	1053.34
416.151	1143.45
416.359	1176.22
416.567	1102.49
416.776	1213.08
416.984	1270.42
417.192	1325.72
417.4	1264.28
417.608	1370.77
417.817	1432.21
418.025	1483.41
418.233	1606.29
418.441	1555.09
418.649	1561.23
418.857	1806.99
419.065	1690.26
419.273	1755.79
419.481	1913.49
419.689	1913.49
419.897	2065.04
420.105	2083.47
420.313	2157.19
420.521	2206.35
420.729	2275.98
420.937	2357.89
421.145	2288.26
421.353	2620.03
421.561	2550.4
421.769	2718.34
421.977	2871.93
422.185	2671.23
422.393	2865.79
422.601	3013.24
422.809	3103.36
423.017	3132.03
423.224	3113.6
423.432	3388.02
423.64	3457.65
423.848	3838.58
424.056	3570.29
424.263	3852.91
424.471	3990.13
424.679	3979.89
424.887	4119.15
425.094	4446.82
425.302	4280.94
425.51	4508.26
425.718	4612.71
425.925	4747.87
426.133	4944.48
426.341	5069.41
426.548	5382.74
426.756	5483.1
426.964	5435.99
427.171	5640.79
427.379	6019.66
427.586	6218.32
427.794	6351.43
428.001	6525.51
428.209	6808.13
428.417	6609.48
428.624	7144
428.832	7365.18
429.039	7105.09
429.247	7125.57
429.454	7883.31
429.662	8471.08
429.869	7752.24
430.076	8254
430.284	8550.95
430.491	8520.23
430.699	8835.62
430.906	9062.94
431.114	9112.1
431.321	9282.08
431.528	9708.05
431.736	10265.1
431.943	10897.92
432.15	10570.25
432.358	10572.3
432.565	11252.22
432.772	11102.72
432.979	11594.23
433.187	11778.55
433.394	11790.84
433.601	12681.71
433.808	12753.38
434.016	12685.8
434.223	13234.66
434.43	14103
434.637	14062.04
434.844	14784.97
435.052	14856.65
435.259	14664.14
435.466	15057.35
435.673	14778.83
435.88	15765.95
436.087	16511.41
436.294	16943.53
436.501	16189.88
436.708	16683.44
436.915	17209.76
437.122	18217.36
437.329	17990.04
437.537	18614.67
437.743	18667.92
437.95	18858.38
438.157	19925.37
438.364	20052.34
438.571	20306.29
438.778	20341.11
438.985	22425.94
439.192	21473.64
439.399	21932.38
439.606	21772.64
439.813	23009.61
440.02	24058.17
440.227	23875.9
440.433	23562.56
440.64	24455.48
440.847	23869.76
441.054	24693.04
441.261	26485.01
441.467	25884.96
441.674	26607.89
441.881	27572.49
442.088	27134.22
442.294	27255.05
442.501	28518.65
442.708	28485.88
442.914	29763.81
443.121	30793.94
443.328	30044.38
443.534	32555.19
443.741	31305.93
443.948	31125.71
444.154	33271.98
444.361	33079.47
444.568	33386.67
444.774	33147.06
444.981	33513.64
445.187	34785.43
445.394	36321.41
445.6	35874.95
445.807	39065.69
446.013	37406.83
446.22	38076.52
446.426	39340.11
446.633	40073.29
446.839	40730.69
447.046	39419.99
447.252	41621.55
447.459	41703.47
447.665	41263.16
447.871	43096.09
448.078	44955.64
448.284	42960.92
448.491	43843.6
448.697	45594.61
448.903	46225.39
449.11	46022.64
449.316	45379.57
449.522	45965.29
449.728	47550.42
449.935	47863.76
450.141	47513.56
450.347	48658.37
450.553	47069.15
450.76	47876.05
450.966	49051.58
451.172	48246.73
451.378	49442.74
451.584	48824.26
451.791	50024.37
451.997	49932.21
452.203	50126.77
452.409	50460.58
452.615	49893.3
452.821	47837.14
453.027	47321.05
453.233	50206.64
453.44	48160.72
453.646	48035.79
453.852	48609.22
454.058	49063.87
454.264	47583.19
454.47	48527.3
454.676	46938.08
454.882	48504.77
455.088	44525.57
455.294	45039.61
455.5	45717.49
455.705	46233.58
455.911	44501
456.117	43065.37
456.323	42725.41
456.529	40417.35
456.735	42104.87
456.941	41351.22
457.147	40015.94
457.352	38951
457.558	38635.61
457.764	38469.73
457.97	37845.1
458.176	37032.05
458.381	36599.93
458.587	34975.89
458.793	35174.55
458.999	33259.7
459.204	35774.6
459.41	34660.51
459.616	32317.63
459.821	32372.92
460.027	32510.14
460.233	31652.04
460.438	30349.53
460.644	30251.23
460.85	29044.98
461.055	28649.72
461.261	28209.4
461.466	26407.19
461.672	25538.85
461.878	27347.21
462.083	25671.97
462.289	25252.14
462.494	24838.45
462.7	23886.14
462.905	23171.4
463.111	23984.44
463.316	24127.8
463.522	23492.93
463.727	23851.33
463.932	23597.38
464.138	23216.46
464.343	23525.7
464.549	22677.84
464.754	23652.67
464.959	23128.39
465.165	23390.53
465.37	22540.63
465.575	21623.14
465.781	22931.79
465.986	22640.98
466.191	21801.31
466.397	21137.77
466.602	20623.73
466.807	21219.69
