Data from USB4F104151__83__10-24-17-051.txt Node

Date: Wed Mar 12 10:24:17 EDT 2025
User: louis
Spectrometer: USB4F10415
Trigger mode: 4
Integration Time (sec): 3.000000E-2
Scans to average: 1
Electric dark correction enabled: true
Nonlinearity correction enabled: false
Boxcar width: 0
XAxis mode: Wavelengths
Number of Pixels in Spectrum: 3648
>>>>>Begin Spectral Data<<<<<
178.204	-109.4
178.424	-109.4
178.644	-109.4
178.864	-97.11
179.084	-95.06
179.304	23.72
179.524	17.58
179.744	48.3
179.964	-39.76
180.184	-4.95
180.404	25.77
180.624	-9.05
180.844	-37.72
181.064	5.29
181.283	-37.72
181.503	42.15
181.723	-33.62
181.943	11.43
182.163	56.49
182.383	-45.91
182.602	117.93
182.822	81.07
183.042	91.31
183.262	7.34
183.482	13.48
183.701	97.45
183.921	81.07
184.141	38.06
184.361	64.68
184.58	25.77
184.8	42.15
185.02	60.59
185.239	109.74
185.459	60.59
185.679	21.67
185.898	-27.48
186.118	117.93
186.338	15.53
186.557	97.45
186.777	11.43
186.997	50.35
187.216	56.49
187.436	83.11
187.655	38.06
187.875	40.11
188.095	-29.52
188.314	76.97
188.534	95.4
188.753	44.2
188.973	36.01
189.192	19.63
189.412	79.02
189.631	76.97
189.851	-25.43
190.07	89.26
190.29	64.68
190.509	72.87
190.729	79.02
190.948	66.73
191.168	142.5
191.387	83.11
191.607	36.01
191.826	60.59
192.045	-29.52
192.265	60.59
192.484	50.35
192.704	70.83
192.923	85.16
193.142	60.59
193.362	72.87
193.581	103.59
193.8	31.91
194.02	93.35
194.239	19.63
194.458	46.25
194.678	91.31
194.897	-7
195.116	64.68
195.335	107.69
195.555	27.82
195.774	93.35
195.993	48.3
196.212	44.2
196.432	42.15
196.651	29.87
196.87	-25.43
197.089	140.46
197.308	54.44
197.528	48.3
197.747	5.29
197.966	33.96
198.185	85.16
198.404	-19.29
198.623	36.01
198.842	68.78
199.062	40.11
199.281	40.11
199.5	56.49
199.719	19.63
199.938	68.78
200.157	64.68
200.376	85.16
200.595	76.97
200.814	103.59
201.033	11.43
201.252	13.48
201.471	27.82
201.69	140.46
201.909	29.87
202.128	50.35
202.347	76.97
202.566	27.82
202.785	93.35
203.004	31.91
203.223	58.54
203.442	-4.95
203.661	3.24
203.879	40.11
204.098	60.59
204.317	23.72
204.536	122.02
204.755	72.87
204.974	58.54
205.193	-33.62
205.411	115.88
205.63	81.07
205.849	38.06
206.068	81.07
206.287	93.35
206.505	134.31
206.724	81.07
206.943	72.87
207.162	87.21
207.381	31.91
207.599	99.5
207.818	15.53
208.037	40.11
208.255	48.3
208.474	13.48
208.693	91.31
208.911	48.3
209.13	76.97
209.349	17.58
209.567	33.96
209.786	48.3
210.005	74.92
210.223	91.31
210.442	40.11
210.661	113.83
210.879	25.77
211.098	-23.38
211.316	97.45
211.535	9.39
211.753	17.58
211.972	52.39
212.191	66.73
212.409	146.6
212.628	105.64
212.846	38.06
213.065	13.48
213.283	105.64
213.502	33.96
213.72	50.35
213.938	-23.38
214.157	29.87
214.375	-0.85
214.594	60.59
214.812	113.83
215.031	87.21
215.249	117.93
215.467	56.49
215.686	29.87
215.904	97.45
216.122	33.96
216.341	89.26
216.559	-4.95
216.778	87.21
216.996	83.11
217.214	68.78
217.432	-50
217.651	40.11
217.869	44.2
218.087	40.11
218.306	3.24
218.524	54.44
218.742	-23.38
218.96	111.78
219.179	66.73
219.397	48.3
219.615	97.45
219.833	128.17
220.051	42.15
220.27	44.2
220.488	109.74
220.706	52.39
220.924	15.53
221.142	62.63
221.36	85.16
221.578	93.35
221.796	56.49
222.015	97.45
222.233	48.3
222.451	27.82
222.669	21.67
222.887	54.44
223.105	36.01
223.323	132.26
223.541	103.59
223.759	27.82
223.977	-58.2
224.195	54.44
224.413	64.68
224.631	105.64
224.849	58.54
225.067	87.21
225.285	15.53
225.503	-27.48
225.721	31.91
225.939	23.72
226.157	-52.05
226.375	83.11
226.592	48.3
226.81	17.58
227.028	99.5
227.246	42.15
227.464	62.63
227.682	66.73
227.9	115.88
228.117	62.63
228.335	99.5
228.553	109.74
228.771	60.59
228.989	79.02
229.206	46.25
229.424	-0.85
229.642	50.35
229.86	23.72
230.077	21.67
230.295	162.98
230.513	72.87
230.731	79.02
230.948	154.79
231.166	64.68
231.384	48.3
231.601	52.39
231.819	58.54
232.037	31.91
232.254	44.2
232.472	7.34
232.689	46.25
232.907	72.87
233.125	50.35
233.342	9.39
233.56	-11.09
233.777	3.24
233.995	56.49
234.213	115.88
234.43	81.07
234.648	21.67
234.865	107.69
235.083	15.53
235.3	9.39
235.518	58.54
235.735	113.83
235.953	119.98
236.17	44.2
236.388	-15.19
236.605	52.39
236.822	85.16
237.04	-4.95
237.257	52.39
237.475	97.45
237.692	46.25
237.909	44.2
238.127	40.11
238.344	44.2
238.562	115.88
238.779	115.88
238.996	31.91
239.214	42.15
239.431	107.69
239.648	9.39
239.865	74.92
240.083	1.19
240.3	31.91
240.517	29.87
240.735	15.53
240.952	31.91
241.169	134.31
241.386	66.73
241.603	60.59
241.821	36.01
242.038	74.92
242.255	31.91
242.472	89.26
242.689	122.02
242.907	25.77
243.124	74.92
243.341	58.54
243.558	-21.33
243.775	42.15
243.992	11.43
244.209	23.72
244.426	115.88
244.643	72.87
244.86	85.16
245.078	23.72
245.295	76.97
245.512	66.73
245.729	60.59
245.946	54.44
246.163	74.92
246.38	42.15
246.597	76.97
246.814	-21.33
247.031	68.78
247.248	44.2
247.464	66.73
247.681	50.35
247.898	48.3
248.115	66.73
248.332	25.77
248.549	72.87
248.766	60.59
248.983	62.63
249.2	85.16
249.417	40.11
249.633	38.06
249.85	-31.57
250.067	150.7
250.284	83.11
250.501	40.11
250.717	81.07
250.934	60.59
251.151	115.88
251.368	97.45
251.585	99.5
251.801	58.54
252.018	21.67
252.235	38.06
252.451	58.54
252.668	81.07
252.885	56.49
253.102	31.91
253.318	52.39
253.535	-13.14
253.752	44.2
253.968	19.63
254.185	48.3
254.401	-54.1
254.618	89.26
254.835	66.73
255.051	146.6
255.268	126.12
255.484	19.63
255.701	33.96
255.917	74.92
256.134	-11.09
256.351	89.26
256.567	56.49
256.784	91.31
257	7.34
257.217	31.91
257.433	27.82
257.65	54.44
257.866	62.63
258.082	130.22
258.299	-7
258.515	31.91
258.732	81.07
258.948	46.25
259.165	60.59
259.381	-7
259.597	83.11
259.814	54.44
260.03	19.63
260.246	50.35
260.463	42.15
260.679	64.68
260.895	60.59
261.112	-9.05
261.328	11.43
261.544	48.3
261.761	105.64
261.977	50.35
262.193	76.97
262.409	142.5
262.626	60.59
262.842	44.2
263.058	13.48
263.274	85.16
263.49	40.11
263.707	68.78
263.923	48.3
264.139	23.72
264.355	58.54
264.571	144.55
264.787	54.44
265.004	76.97
265.22	11.43
265.436	19.63
265.652	31.91
265.868	70.83
266.084	48.3
266.3	11.43
266.516	3.24
266.732	93.35
266.948	-7
267.164	150.7
267.38	72.87
267.596	87.21
267.812	70.83
268.028	95.4
268.244	56.49
268.46	76.97
268.676	124.07
268.892	89.26
269.108	3.24
269.324	1.19
269.54	1.19
269.756	109.74
269.972	-19.29
270.188	79.02
270.403	76.97
270.619	44.2
270.835	64.68
271.051	95.4
271.267	72.87
271.483	107.69
271.698	38.06
271.914	27.82
272.13	74.92
272.346	-2.9
272.562	68.78
272.777	103.59
272.993	93.35
273.209	83.11
273.425	36.01
273.64	13.48
273.856	74.92
274.072	58.54
274.287	11.43
274.503	21.67
274.719	-33.62
274.934	42.15
275.15	-21.33
275.366	66.73
275.581	72.87
275.797	44.2
276.012	79.02
276.228	15.53
276.444	62.63
276.659	40.11
276.875	13.48
277.09	17.58
277.306	105.64
277.521	48.3
277.737	13.48
277.952	76.97
278.168	48.3
278.383	62.63
278.599	68.78
278.814	99.5
279.03	25.77
279.245	72.87
279.461	15.53
279.676	19.63
279.892	25.77
280.107	-21.33
280.322	23.72
280.538	81.07
280.753	48.3
280.969	81.07
281.184	23.72
281.399	64.68
281.615	91.31
281.83	70.83
282.045	42.15
282.26	27.82
282.476	76.97
282.691	33.96
282.906	13.48
283.122	60.59
283.337	81.07
283.552	25.77
283.767	38.06
283.983	44.2
284.198	-9.05
284.413	33.96
284.628	17.58
284.843	113.83
285.058	-2.9
285.274	66.73
285.489	42.15
285.704	79.02
285.919	68.78
286.134	97.45
286.349	66.73
286.564	48.3
286.779	36.01
286.995	60.59
287.21	99.5
287.425	64.68
287.64	64.68
287.855	76.97
288.07	36.01
288.285	-11.09
288.5	93.35
288.715	89.26
288.93	85.16
289.145	40.11
289.36	93.35
289.575	-0.85
289.79	79.02
290.004	40.11
290.219	-13.14
290.434	31.91
290.649	101.55
290.864	87.21
291.079	36.01
291.294	36.01
291.509	76.97
291.724	58.54
291.938	-0.85
292.153	83.11
292.368	74.92
292.583	134.31
292.798	93.35
293.012	91.31
293.227	27.82
293.442	93.35
293.657	50.35
293.871	126.12
294.086	113.83
294.301	148.65
294.516	36.01
294.73	3.24
294.945	52.39
295.16	-23.38
295.374	27.82
295.589	79.02
295.804	42.15
296.018	36.01
296.233	56.49
296.447	113.83
296.662	42.15
296.877	83.11
297.091	48.3
297.306	23.72
297.52	-11.09
297.735	48.3
297.949	38.06
298.164	40.11
298.378	58.54
298.593	50.35
298.807	-21.33
299.022	83.11
299.236	76.97
299.451	33.96
299.665	68.78
299.88	-7
300.094	19.63
300.309	44.2
300.523	103.59
300.737	70.83
300.952	36.01
301.166	101.55
301.381	81.07
301.595	76.97
301.809	105.64
302.024	33.96
302.238	56.49
302.452	142.5
302.667	7.34
302.881	76.97
303.095	171.18
303.309	54.44
303.524	23.72
303.738	56.49
303.952	27.82
304.166	72.87
304.381	25.77
304.595	48.3
304.809	17.58
305.023	1.19
305.237	50.35
305.452	89.26
305.666	81.07
305.88	27.82
306.094	99.5
306.308	113.83
306.522	115.88
306.736	9.39
306.95	113.83
307.164	31.91
307.379	91.31
307.593	107.69
307.807	23.72
308.021	89.26
308.235	68.78
308.449	72.87
308.663	-54.1
308.877	76.97
309.091	99.5
309.305	58.54
309.519	-15.19
309.733	85.16
309.947	56.49
310.161	101.55
310.374	142.5
310.588	50.35
310.802	17.58
311.016	52.39
311.23	33.96
311.444	64.68
311.658	87.21
311.872	36.01
312.085	93.35
312.299	85.16
312.513	83.11
312.727	158.89
312.941	48.3
313.154	101.55
313.368	66.73
313.582	46.25
313.796	56.49
314.009	93.35
314.223	83.11
314.437	-4.95
314.651	11.43
314.864	91.31
315.078	89.26
315.292	109.74
315.505	-4.95
315.719	91.31
315.933	60.59
316.146	136.36
316.36	93.35
316.573	87.21
316.787	89.26
317.001	70.83
317.214	50.35
317.428	142.5
317.641	68.78
317.855	-13.14
318.068	-2.9
318.282	191.66
318.495	101.55
318.709	40.11
318.922	81.07
319.136	132.26
319.349	85.16
319.563	76.97
319.776	79.02
319.99	56.49
320.203	66.73
320.417	-27.48
320.63	85.16
320.843	124.07
321.057	31.91
321.27	107.69
321.483	70.83
321.697	97.45
321.91	31.91
322.124	52.39
322.337	7.34
322.55	40.11
322.763	83.11
322.977	64.68
323.19	85.16
323.403	115.88
323.617	52.39
323.83	15.53
324.043	-35.67
324.256	115.88
324.469	56.49
324.683	158.89
324.896	-7
325.109	48.3
325.322	48.3
325.535	89.26
325.748	44.2
325.962	76.97
326.175	66.73
326.388	-4.95
326.601	11.43
326.814	60.59
327.027	25.77
327.24	109.74
327.453	31.91
327.666	109.74
327.879	101.55
328.092	58.54
328.305	128.17
328.518	40.11
328.731	85.16
328.944	101.55
329.157	31.91
329.37	76.97
329.583	68.78
329.796	95.4
330.009	38.06
330.222	85.16
330.435	25.77
330.648	56.49
330.861	44.2
331.073	76.97
331.286	36.01
331.499	93.35
331.712	-4.95
331.925	97.45
332.138	93.35
332.35	103.59
332.563	89.26
332.776	105.64
332.989	1.19
333.202	44.2
333.414	76.97
333.627	89.26
333.84	111.78
334.053	31.91
334.265	21.67
334.478	27.82
334.691	33.96
334.903	83.11
335.116	36.01
335.329	17.58
335.541	-0.85
335.754	68.78
335.966	74.92
336.179	97.45
336.392	5.29
336.604	-13.14
336.817	107.69
337.029	107.69
337.242	62.63
337.454	70.83
337.667	93.35
337.88	109.74
338.092	1.19
338.305	50.35
338.517	27.82
338.729	21.67
338.942	76.97
339.154	46.25
339.367	31.91
339.579	85.16
339.792	17.58
340.004	97.45
340.217	93.35
340.429	-13.14
340.641	-11.09
340.854	158.89
341.066	126.12
341.278	89.26
341.491	113.83
341.703	62.63
341.915	40.11
342.128	7.34
342.34	36.01
342.552	128.17
342.764	93.35
342.977	48.3
343.189	40.11
343.401	70.83
343.613	111.78
343.826	38.06
344.038	44.2
344.25	79.02
344.462	60.59
344.674	126.12
344.886	97.45
345.099	50.35
345.311	128.17
345.523	52.39
345.735	54.44
345.947	103.59
346.159	5.29
346.371	36.01
346.583	113.83
346.795	66.73
347.007	42.15
347.219	58.54
347.431	19.63
347.643	130.22
347.855	50.35
348.067	173.22
348.279	42.15
348.491	40.11
348.703	-4.95
348.915	46.25
349.127	109.74
349.339	5.29
349.551	83.11
349.763	70.83
349.975	87.21
350.187	48.3
350.399	124.07
350.61	56.49
350.822	74.92
351.034	128.17
351.246	64.68
351.458	44.2
351.669	142.5
351.881	31.91
352.093	93.35
352.305	44.2
352.517	95.4
352.728	-0.85
352.94	64.68
353.152	89.26
353.363	97.45
353.575	64.68
353.787	62.63
353.999	83.11
354.21	70.83
354.422	15.53
354.633	72.87
354.845	54.44
355.057	85.16
355.268	87.21
355.48	101.55
355.692	7.34
355.903	60.59
356.115	44.2
356.326	27.82
356.538	64.68
356.749	44.2
356.961	138.41
357.172	132.26
357.384	40.11
357.595	79.02
357.807	40.11
358.018	17.58
358.23	62.63
358.441	60.59
358.653	89.26
358.864	87.21
359.075	72.87
359.287	144.55
359.498	62.63
359.709	58.54
359.921	115.88
360.132	56.49
360.344	50.35
360.555	52.39
360.766	138.41
360.977	48.3
361.189	142.5
361.4	101.55
361.611	74.92
361.823	85.16
362.034	81.07
362.245	15.53
362.456	162.98
362.667	21.67
362.879	93.35
363.09	105.64
363.301	44.2
363.512	115.88
363.723	52.39
363.935	76.97
364.146	115.88
364.357	79.02
364.568	74.92
364.779	19.63
364.99	93.35
365.201	50.35
365.412	79.02
365.623	101.55
365.834	40.11
366.045	68.78
366.256	97.45
366.467	66.73
366.678	165.03
366.889	83.11
367.1	46.25
367.311	48.3
367.522	142.5
367.733	31.91
367.944	17.58
368.155	58.54
368.366	48.3
368.577	103.59
368.788	48.3
368.999	-13.14
369.209	165.03
369.42	132.26
369.631	62.63
369.842	54.44
370.053	70.83
370.264	72.87
370.474	68.78
370.685	89.26
370.896	109.74
371.107	66.73
371.317	1.19
371.528	142.5
371.739	74.92
371.95	181.42
372.16	74.92
372.371	64.68
372.582	74.92
372.792	124.07
373.003	48.3
373.214	1.19
373.424	128.17
373.635	-7
373.846	140.46
374.056	72.87
374.267	93.35
374.477	60.59
374.688	85.16
374.898	25.77
375.109	83.11
375.319	130.22
375.53	95.4
375.74	122.02
375.951	109.74
376.161	93.35
376.372	97.45
376.582	58.54
376.793	44.2
377.003	58.54
377.214	152.74
377.424	44.2
377.635	79.02
377.845	38.06
378.055	132.26
378.266	-9.05
378.476	119.98
378.686	40.11
378.897	91.31
379.107	25.77
379.317	68.78
379.528	109.74
379.738	142.5
379.948	36.01
380.158	122.02
380.369	68.78
380.579	93.35
380.789	-4.95
380.999	46.25
381.21	54.44
381.42	142.5
381.63	13.48
381.84	122.02
382.05	128.17
382.261	54.44
382.471	25.77
382.681	33.96
382.891	117.93
383.101	81.07
383.311	85.16
383.521	72.87
383.731	60.59
383.941	81.07
384.151	-15.19
384.361	103.59
384.571	74.92
384.781	27.82
384.991	115.88
385.201	66.73
385.411	119.98
385.621	111.78
385.831	91.31
386.041	68.78
386.251	105.64
386.461	138.41
386.671	68.78
386.881	130.22
387.091	74.92
387.301	158.89
387.511	105.64
387.72	29.87
387.93	119.98
388.14	124.07
388.35	81.07
388.56	130.22
388.769	109.74
388.979	36.01
389.189	72.87
389.399	21.67
389.609	72.87
389.818	87.21
390.028	44.2
390.238	60.59
390.447	138.41
390.657	36.01
390.867	66.73
391.076	115.88
391.286	97.45
391.496	93.35
391.705	60.59
391.915	175.27
392.125	117.93
392.334	136.36
392.544	142.5
392.753	95.4
392.963	160.94
393.172	95.4
393.382	5.29
393.591	107.69
393.801	105.64
394.01	162.98
394.22	93.35
394.429	173.22
394.639	126.12
394.848	56.49
395.058	91.31
395.267	31.91
395.477	132.26
395.686	91.31
395.895	246.95
396.105	132.26
396.314	101.55
396.524	148.65
396.733	81.07
396.942	134.31
397.152	150.7
397.361	136.36
397.57	124.07
397.78	97.45
397.989	150.7
398.198	179.37
398.407	124.07
398.617	126.12
398.826	83.11
399.035	103.59
399.244	148.65
399.453	119.98
399.663	146.6
399.872	119.98
400.081	91.31
400.29	212.14
400.499	66.73
400.708	156.84
400.917	99.5
401.127	154.79
401.336	76.97
401.545	93.35
401.754	154.79
401.963	191.66
402.172	156.84
402.381	132.26
402.59	119.98
402.799	115.88
403.008	165.03
403.217	173.22
403.426	189.61
403.635	150.7
403.844	222.38
404.053	195.75
404.262	169.13
404.471	236.71
404.68	244.9
404.888	201.9
405.097	195.75
405.306	156.84
405.515	214.18
405.724	236.71
405.933	179.37
406.142	177.32
406.35	193.7
406.559	212.14
406.768	326.82
406.977	244.9
407.185	189.61
407.394	187.56
407.603	246.95
407.812	222.38
408.02	292.01
408.229	212.14
408.438	337.06
408.646	249
408.855	253.09
409.064	283.81
409.272	283.81
409.481	347.3
409.69	318.63
409.898	298.15
410.107	332.97
410.315	341.16
410.524	423.08
410.733	363.69
410.941	410.79
411.15	472.23
411.358	427.17
411.567	443.56
411.775	441.51
411.984	494.76
412.192	423.08
412.401	521.38
412.609	617.63
412.818	552.1
413.026	580.77
413.234	507.04
413.443	634.02
413.651	570.53
413.86	685.22
414.068	625.83
414.276	656.54
414.485	674.98
414.693	722.08
414.901	748.7
415.11	769.18
415.318	810.14
415.526	910.49
415.734	865.44
415.943	904.35
416.151	986.27
416.359	910.49
416.567	965.79
416.776	998.56
416.984	1148.06
417.192	1105.05
417.4	1131.67
417.608	1059.99
417.817	1154.2
418.025	1232.02
418.233	1342.61
418.441	1258.65
418.649	1301.65
418.857	1461.4
419.065	1440.92
419.273	1485.97
419.481	1584.27
419.689	1528.98
419.897	1660.05
420.105	1606.8
420.313	1688.72
420.521	1764.5
420.729	1957
420.937	1887.37
421.145	1987.72
421.353	1977.48
421.561	2090.12
421.769	2319.5
421.977	2288.78
422.185	2260.1
422.393	2405.51
422.601	2559.11
422.809	2493.57
423.017	2524.29
423.224	2681.99
423.432	2870.4
423.64	2747.52
423.848	3038.33
424.056	2933.89
424.263	3163.26
424.471	3286.14
424.679	3103.87
424.887	3327.1
425.094	3558.52
425.302	3427.45
425.51	3597.43
425.718	3695.73
425.925	3828.85
426.133	4013.17
426.341	4064.36
426.548	4295.79
426.756	4316.26
426.964	4361.32
427.171	4629.6
427.379	4725.86
427.586	4836.45
427.794	4856.93
428.001	5211.23
428.209	5383.26
428.417	5295.19
428.624	5672.02
428.832	5641.3
429.039	5518.42
429.247	5700.69
429.454	6257.74
429.662	6808.64
429.869	6128.72
430.076	6655.05
430.284	6569.03
430.491	6888.51
430.699	7208
430.906	7029.82
431.114	7158.85
431.321	7529.53
431.528	7611.45
431.736	8219.69
431.943	8535.08
432.15	8084.53
432.358	8580.14
432.565	8991.78
432.772	8645.67
432.979	9247.77
433.187	9579.54
433.394	9475.1
433.601	10195.98
433.808	10036.24
434.016	9899.03
434.223	10486.79
434.43	10978.31
434.637	10837
434.844	11586.55
435.052	11772.92
435.259	11600.89
435.466	11756.54
435.673	11586.55
435.88	12375.02
436.087	13018.08
436.294	13097.95
436.501	12745.7
436.708	13302.75
436.915	13585.37
437.122	14144.47
437.329	14042.07
437.537	14476.24
437.743	14709.71
437.95	14502.86
438.157	15205.31
438.364	15883.19
438.571	15702.97
438.778	15915.96
438.985	17245.09
439.192	16597.93
439.399	17251.24
439.606	16767.91
439.813	17537.95
440.02	18686.86
440.227	18535.31
440.433	18269.08
440.64	18918.28
440.847	18754.44
441.054	19227.53
441.261	20618.1
441.467	20392.82
441.674	20824.94
441.881	21506.91
442.088	21345.12
442.294	21103.46
442.501	21967.71
442.708	22147.93
442.914	23014.22
443.121	23759.68
443.328	23280.46
443.534	24789.81
443.741	24222.52
443.948	23999.29
444.154	25707.3
444.361	25500.45
444.568	25588.52
444.774	25688.87
444.981	26127.13
445.187	26524.44
445.394	27716.36
445.6	27591.43
445.807	30079.71
446.013	28787.44
446.22	28982
446.426	30452.44
446.633	30907.09
446.839	31603.4
447.046	30012.13
447.252	32027.33
447.459	31793.86
447.665	31754.95
447.871	33125.04
448.078	34486.94
448.284	32551.61
448.491	33862.31
448.697	34933.4
448.903	35242.64
449.11	35930.76
449.316	35353.23
449.522	35930.76
449.728	36455.04
449.935	37223.03
450.141	36725.37
450.347	37382.77
450.553	36530.81
450.76	36967.03
450.966	38089.32
451.172	37401.2
451.378	38378.08
451.584	37757.55
451.791	38853.21
451.997	38554.21
452.203	39238.23
452.409	39172.69
452.615	38769.24
452.821	37094
453.027	36856.44
453.233	38928.98
453.44	37358.19
453.646	37571.18
453.852	37814.89
454.058	38533.73
454.264	36864.63
454.47	37784.17
454.676	37034.61
454.882	38183.52
455.088	34947.73
455.294	35459.73
455.5	35938.95
455.705	36299.39
455.911	35025.56
456.117	34286.24
456.323	33643.18
456.529	31800.01
456.735	33278.64
456.941	32162.5
457.147	31691.46
457.352	30937.81
457.558	30313.18
457.764	30671.57
457.97	30083.81
458.176	29164.27
458.381	29438.7
458.587	27898.62
458.793	27910.91
458.999	26430.23
459.204	28502.78
459.41	27323.15
459.616	25965.34
459.821	25576.23
460.027	25797.41
460.233	24970.03
460.438	24048.44
460.644	24017.72
460.85	23221.06
461.055	22565.71
461.261	22668.11
461.466	20945.77
461.672	20362.1
461.878	21984.09
462.083	20183.93
462.289	19757.95
462.494	19864.44
462.7	18975.63
462.905	18414.48
463.111	19239.81
463.316	19231.62
463.522	18965.39
463.727	18752.4
463.932	18834.32
464.138	18547.6
464.343	18725.77
464.549	18236.31
464.754	18600.85
464.959	18557.84
465.165	18385.81
465.37	17845.15
465.575	16878.51
465.781	17814.43
465.986	17894.3
466.191	17511.33
466.397	16882.6
466.602	16270.26
466.807	16741.29
467.012	16817.07
467.218	16802.73
