Data from USB4F104151__201__10-29-32-828.txt Node

Date: Wed Mar 12 10:29:32 EDT 2025
User: louis
Spectrometer: USB4F10415
Trigger mode: 4
Integration Time (sec): 3.000000E-2
Scans to average: 1
Electric dark correction enabled: true
Nonlinearity correction enabled: false
Boxcar width: 0
XAxis mode: Wavelengths
Number of Pixels in Spectrum: 3648
>>>>>Begin Spectral Data<<<<<
178.204	-139.77
178.424	-139.77
178.644	-139.77
178.864	-82.43
179.084	-96.77
179.304	22.02
179.524	-12.8
179.744	-0.51
179.964	48.64
180.184	1.54
180.404	-53.76
180.624	36.35
180.844	15.87
181.064	-49.66
181.283	7.68
181.503	13.82
181.723	-29.18
181.943	-64
182.163	44.54
182.383	89.6
182.602	60.93
182.822	32.26
183.042	42.5
183.262	32.26
183.482	56.83
183.701	7.68
183.921	-2.56
184.141	38.4
184.361	19.97
184.58	11.78
184.8	42.5
185.02	46.59
185.239	50.69
185.459	26.11
185.679	67.07
185.898	56.83
186.118	48.64
186.338	108.03
186.557	81.41
186.777	97.79
186.997	11.78
187.216	34.3
187.436	52.74
187.655	67.07
187.875	93.69
188.095	91.65
188.314	83.45
188.534	-16.9
188.753	38.4
188.973	56.83
189.192	81.41
189.412	36.35
189.631	24.06
189.851	40.45
190.07	79.36
190.29	38.4
190.509	50.69
190.729	11.78
190.948	112.13
191.168	122.37
191.387	83.45
191.607	62.98
191.826	83.45
192.045	38.4
192.265	50.69
192.484	32.26
192.704	46.59
192.923	-29.18
193.142	175.61
193.362	77.31
193.581	87.55
193.8	19.97
194.02	105.98
194.239	-29.18
194.458	24.06
194.678	17.92
194.897	-6.66
195.116	38.4
195.335	95.74
195.555	81.41
195.774	71.17
195.993	52.74
196.212	69.12
196.432	-0.51
196.651	13.82
196.87	71.17
197.089	75.26
197.308	81.41
197.528	13.82
197.747	52.74
197.966	65.02
198.185	1.54
198.404	62.98
198.623	40.45
198.842	69.12
199.062	60.93
199.281	69.12
199.5	73.21
199.719	54.78
199.938	69.12
200.157	-6.66
200.376	24.06
200.595	44.54
200.814	97.79
201.033	-37.38
201.252	15.87
201.471	30.21
201.69	54.78
201.909	24.06
202.128	75.26
202.347	42.5
202.566	48.64
202.785	13.82
203.004	-4.61
203.223	175.61
203.442	65.02
203.661	62.98
203.879	19.97
204.098	50.69
204.317	-10.75
204.536	101.89
204.755	83.45
204.974	89.6
205.193	-2.56
205.411	83.45
205.63	71.17
205.849	22.02
206.068	48.64
206.287	15.87
206.505	7.68
206.724	-45.57
206.943	46.59
207.162	101.89
207.381	46.59
207.599	19.97
207.818	36.35
208.037	30.21
208.255	7.68
208.474	91.65
208.693	52.74
208.911	44.54
209.13	36.35
209.349	42.5
209.567	108.03
209.786	-10.75
210.005	67.07
210.223	26.11
210.442	71.17
210.661	50.69
210.879	71.17
211.098	52.74
211.316	130.56
211.535	73.21
211.753	56.83
211.972	73.21
212.191	42.5
212.409	42.5
212.628	69.12
212.846	13.82
213.065	50.69
213.283	50.69
213.502	58.88
213.72	75.26
213.938	11.78
214.157	73.21
214.375	62.98
214.594	24.06
214.812	-18.94
215.031	48.64
215.249	28.16
215.467	75.26
215.686	46.59
215.904	52.74
216.122	81.41
216.341	52.74
216.559	62.98
216.778	93.69
216.996	83.45
217.214	13.82
217.432	11.78
217.651	65.02
217.869	-0.51
218.087	30.21
218.306	19.97
218.524	73.21
218.742	11.78
218.96	36.35
219.179	7.68
219.397	46.59
219.615	144.89
219.833	-0.51
220.051	65.02
220.27	83.45
220.488	103.93
220.706	26.11
220.924	-27.14
221.142	56.83
221.36	17.92
221.578	5.63
221.796	52.74
222.015	75.26
222.233	101.89
222.451	126.46
222.669	60.93
222.887	163.33
223.105	26.11
223.323	-29.18
223.541	-57.86
223.759	67.07
223.977	83.45
224.195	116.22
224.413	22.02
224.631	79.36
224.849	-18.94
225.067	122.37
225.285	44.54
225.503	65.02
225.721	11.78
225.939	7.68
226.157	58.88
226.375	128.51
226.592	19.97
226.81	81.41
227.028	89.6
227.246	56.83
227.464	65.02
227.682	81.41
227.9	22.02
228.117	101.89
228.335	56.83
228.553	36.35
228.771	42.5
228.989	-20.99
229.206	1.54
229.424	48.64
229.642	22.02
229.86	85.5
230.077	110.08
230.295	105.98
230.513	85.5
230.731	69.12
230.948	24.06
231.166	36.35
231.384	9.73
231.601	19.97
231.819	54.78
232.037	50.69
232.254	-29.18
232.472	17.92
232.689	-4.61
232.907	122.37
233.125	71.17
233.342	44.54
233.56	108.03
233.777	-2.56
233.995	24.06
234.213	138.75
234.43	77.31
234.648	54.78
234.865	65.02
235.083	24.06
235.3	112.13
235.518	144.89
235.735	44.54
235.953	67.07
236.17	48.64
236.388	24.06
236.605	40.45
236.822	56.83
237.04	7.68
237.257	58.88
237.475	116.22
237.692	34.3
237.909	73.21
238.127	-16.9
238.344	13.82
238.562	56.83
238.779	3.58
238.996	44.54
239.214	52.74
239.431	108.03
239.648	11.78
239.865	81.41
240.083	97.79
240.3	69.12
240.517	126.46
240.735	44.54
240.952	122.37
241.169	15.87
241.386	99.84
241.603	-4.61
241.821	-33.28
242.038	-12.8
242.255	48.64
242.472	87.55
242.689	-0.51
242.907	69.12
243.124	44.54
243.341	19.97
243.558	24.06
243.775	103.93
243.992	71.17
244.209	44.54
244.426	73.21
244.643	83.45
244.86	15.87
245.078	3.58
245.295	11.78
245.512	122.37
245.729	87.55
245.946	13.82
246.163	77.31
246.38	-6.66
246.597	79.36
246.814	7.68
247.031	32.26
247.248	52.74
247.464	24.06
247.681	69.12
247.898	-0.51
248.115	48.64
248.332	-10.75
248.549	77.31
248.766	81.41
248.983	19.97
249.2	36.35
249.417	140.8
249.633	36.35
249.85	40.45
250.067	69.12
250.284	89.6
250.501	81.41
250.717	95.74
250.934	28.16
251.151	7.68
251.368	38.4
251.585	19.97
251.801	60.93
252.018	15.87
252.235	87.55
252.451	69.12
252.668	26.11
252.885	95.74
253.102	89.6
253.318	32.26
253.535	15.87
253.752	81.41
253.968	17.92
254.185	44.54
254.401	3.58
254.618	67.07
254.835	97.79
255.051	3.58
255.268	151.04
255.484	81.41
255.701	-25.09
255.917	83.45
256.134	73.21
256.351	38.4
256.567	-27.14
256.784	122.37
257	17.92
257.217	105.98
257.433	114.17
257.65	81.41
257.866	50.69
258.082	36.35
258.299	24.06
258.515	-20.99
258.732	34.3
258.948	58.88
259.165	48.64
259.381	50.69
259.597	71.17
259.814	36.35
260.03	108.03
260.246	9.73
260.463	60.93
260.679	36.35
260.895	-8.7
261.112	30.21
261.328	30.21
261.544	103.93
261.761	87.55
261.977	3.58
262.193	-16.9
262.409	11.78
262.626	15.87
262.842	77.31
263.058	19.97
263.274	142.85
263.49	34.3
263.707	103.93
263.923	65.02
264.139	5.63
264.355	60.93
264.571	87.55
264.787	97.79
265.004	69.12
265.22	32.26
265.436	9.73
265.652	75.26
265.868	73.21
266.084	89.6
266.3	22.02
266.516	5.63
266.732	130.56
266.948	116.22
267.164	77.31
267.38	62.98
267.596	50.69
267.812	44.54
268.028	69.12
268.244	30.21
268.46	69.12
268.676	81.41
268.892	126.46
269.108	17.92
269.324	85.5
269.54	114.17
269.756	67.07
269.972	58.88
270.188	48.64
270.403	-23.04
270.619	112.13
270.835	103.93
271.051	40.45
271.267	28.16
271.483	-64
271.698	83.45
271.914	15.87
272.13	-12.8
272.346	77.31
272.562	44.54
272.777	1.54
272.993	40.45
273.209	36.35
273.425	60.93
273.64	-6.66
273.856	73.21
274.072	73.21
274.287	-16.9
274.503	73.21
274.719	83.45
274.934	54.78
275.15	-18.94
275.366	89.6
275.581	-16.9
275.797	46.59
276.012	65.02
276.228	40.45
276.444	44.54
276.659	95.74
276.875	112.13
277.09	34.3
277.306	38.4
277.521	24.06
277.737	19.97
277.952	44.54
278.168	118.27
278.383	69.12
278.599	81.41
278.814	101.89
279.03	48.64
279.245	48.64
279.461	110.08
279.676	56.83
279.892	-25.09
280.107	3.58
280.322	-2.56
280.538	-0.51
280.753	30.21
280.969	99.84
281.184	-8.7
281.399	52.74
281.615	40.45
281.83	11.78
282.045	11.78
282.26	19.97
282.476	89.6
282.691	77.31
282.906	50.69
283.122	62.98
283.337	7.68
283.552	65.02
283.767	34.3
283.983	75.26
284.198	50.69
284.413	-29.18
284.628	81.41
284.843	56.83
285.058	85.5
285.274	52.74
285.489	60.93
285.704	124.41
285.919	81.41
286.134	71.17
286.349	-20.99
286.564	24.06
286.779	161.28
286.995	148.99
287.21	60.93
287.425	44.54
287.64	50.69
287.855	97.79
288.07	54.78
288.285	69.12
288.5	85.5
288.715	95.74
288.93	-29.18
289.145	13.82
289.36	161.28
289.575	-8.7
289.79	87.55
290.004	-20.99
290.219	62.98
290.434	34.3
290.649	-12.8
290.864	148.99
291.079	46.59
291.294	103.93
291.509	93.69
291.724	73.21
291.938	95.74
292.153	108.03
292.368	38.4
292.583	-20.99
292.798	19.97
293.012	34.3
293.227	87.55
293.442	112.13
293.657	71.17
293.871	48.64
294.086	91.65
294.301	79.36
294.516	130.56
294.73	101.89
294.945	34.3
295.16	97.79
295.374	95.74
295.589	34.3
295.804	-66.05
296.018	77.31
296.233	153.09
296.447	99.84
296.662	28.16
296.877	62.98
297.091	62.98
297.306	91.65
297.52	99.84
297.735	13.82
297.949	89.6
298.164	52.74
298.378	69.12
298.593	69.12
298.807	62.98
299.022	71.17
299.236	44.54
299.451	56.83
299.665	7.68
299.88	81.41
300.094	38.4
300.309	32.26
300.523	81.41
300.737	71.17
300.952	97.79
301.166	69.12
301.381	9.73
301.595	26.11
301.809	105.98
302.024	52.74
302.238	-12.8
302.452	118.27
302.667	48.64
302.881	81.41
303.095	36.35
303.309	93.69
303.524	11.78
303.738	52.74
303.952	52.74
304.166	52.74
304.381	-78.33
304.595	89.6
304.809	65.02
305.023	83.45
305.237	36.35
305.452	52.74
305.666	-20.99
305.88	144.89
306.094	42.5
306.308	114.17
306.522	89.6
306.736	28.16
306.95	87.55
307.164	71.17
307.379	46.59
307.593	79.36
307.807	28.16
308.021	79.36
308.235	32.26
308.449	75.26
308.663	60.93
308.877	155.13
309.091	54.78
309.305	44.54
309.519	65.02
309.733	132.61
309.947	48.64
310.161	108.03
310.374	116.22
310.588	44.54
310.802	-43.52
311.016	71.17
311.23	11.78
311.444	79.36
311.658	44.54
311.872	50.69
312.085	56.83
312.299	77.31
312.513	58.88
312.727	52.74
312.941	103.93
313.154	44.54
313.368	56.83
313.582	101.89
313.796	26.11
314.009	52.74
314.223	77.31
314.437	130.56
314.651	48.64
314.864	50.69
315.078	97.79
315.292	62.98
315.505	-49.66
315.719	40.45
315.933	15.87
316.146	19.97
316.36	48.64
316.573	52.74
316.787	7.68
317.001	99.84
317.214	73.21
317.428	101.89
317.641	69.12
317.855	7.68
318.068	62.98
318.282	38.4
318.495	134.65
318.709	17.92
318.922	-29.18
319.136	56.83
319.349	95.74
319.563	-49.66
319.776	75.26
319.99	36.35
320.203	40.45
320.417	95.74
320.63	19.97
320.843	73.21
321.057	103.93
321.27	60.93
321.483	73.21
321.697	73.21
321.91	65.02
322.124	89.6
322.337	77.31
322.55	19.97
322.763	118.27
322.977	13.82
323.19	87.55
323.403	13.82
323.617	56.83
323.83	32.26
324.043	48.64
324.256	56.83
324.469	13.82
324.683	112.13
324.896	28.16
325.109	52.74
325.322	15.87
325.535	112.13
325.748	91.65
325.962	87.55
326.175	62.98
326.388	46.59
326.601	46.59
326.814	5.63
327.027	54.78
327.24	19.97
327.453	34.3
327.666	56.83
327.879	114.17
328.092	122.37
328.305	1.54
328.518	-0.51
328.731	3.58
328.944	9.73
329.157	87.55
329.37	36.35
329.583	71.17
329.796	54.78
330.009	42.5
330.222	95.74
330.435	73.21
330.648	52.74
330.861	112.13
331.073	56.83
331.286	52.74
331.499	69.12
331.712	50.69
331.925	-6.66
332.138	93.69
332.35	89.6
332.563	-25.09
332.776	56.83
332.989	60.93
333.202	52.74
333.414	50.69
333.627	40.45
333.84	24.06
334.053	112.13
334.265	81.41
334.478	3.58
334.691	32.26
334.903	54.78
335.116	62.98
335.329	50.69
335.541	79.36
335.754	9.73
335.966	87.55
336.179	30.21
336.392	-12.8
336.604	24.06
336.817	32.26
337.029	83.45
337.242	48.64
337.454	114.17
337.667	46.59
337.88	79.36
338.092	105.98
338.305	136.7
338.517	79.36
338.729	93.69
338.942	93.69
339.154	40.45
339.367	11.78
339.579	83.45
339.792	-20.99
340.004	28.16
340.217	81.41
340.429	7.68
340.641	48.64
340.854	17.92
341.066	73.21
341.278	114.17
341.491	89.6
341.703	73.21
341.915	22.02
342.128	60.93
342.34	58.88
342.552	91.65
342.764	91.65
342.977	89.6
343.189	26.11
343.401	13.82
343.613	19.97
343.826	5.63
344.038	50.69
344.25	81.41
344.462	-47.62
344.674	46.59
344.886	-10.75
345.099	79.36
345.311	-16.9
345.523	105.98
345.735	52.74
345.947	97.79
346.159	30.21
346.371	79.36
346.583	50.69
346.795	128.51
347.007	58.88
347.219	71.17
347.431	40.45
347.643	65.02
347.855	81.41
348.067	103.93
348.279	24.06
348.491	93.69
348.703	77.31
348.915	169.47
349.127	19.97
349.339	79.36
349.551	52.74
349.763	19.97
349.975	97.79
350.187	62.98
350.399	136.7
350.61	56.83
350.822	134.65
351.034	91.65
351.246	56.83
351.458	151.04
351.669	71.17
351.881	46.59
352.093	75.26
352.305	110.08
352.517	17.92
352.728	157.18
352.94	-27.14
353.152	105.98
353.363	81.41
353.575	44.54
353.787	73.21
353.999	105.98
354.21	28.16
354.422	34.3
354.633	110.08
354.845	24.06
355.057	5.63
355.268	79.36
355.48	73.21
355.692	42.5
355.903	62.98
356.115	38.4
356.326	83.45
356.538	-0.51
356.749	15.87
356.961	122.37
357.172	7.68
357.384	52.74
357.595	112.13
357.807	75.26
358.018	81.41
358.23	97.79
358.441	81.41
358.653	97.79
358.864	67.07
359.075	83.45
359.287	73.21
359.498	73.21
359.709	50.69
359.921	79.36
360.132	81.41
360.344	105.98
360.555	108.03
360.766	120.32
360.977	73.21
361.189	93.69
361.4	48.64
361.611	69.12
361.823	105.98
362.034	105.98
362.245	60.93
362.456	73.21
362.667	50.69
362.879	34.3
363.09	87.55
363.301	73.21
363.512	97.79
363.723	77.31
363.935	73.21
364.146	140.8
364.357	105.98
364.568	89.6
364.779	-0.51
364.99	48.64
365.201	54.78
365.412	65.02
365.623	36.35
365.834	81.41
366.045	52.74
366.256	108.03
366.467	83.45
366.678	60.93
366.889	83.45
367.1	24.06
367.311	124.41
367.522	50.69
367.733	44.54
367.944	130.56
368.155	-8.7
368.366	69.12
368.577	120.32
368.788	101.89
368.999	60.93
369.209	38.4
369.42	126.46
369.631	112.13
369.842	36.35
370.053	101.89
370.264	95.74
370.474	132.61
370.685	5.63
370.896	50.69
371.107	134.65
371.317	97.79
371.528	122.37
371.739	163.33
371.95	65.02
372.16	65.02
372.371	71.17
372.582	93.69
372.792	75.26
373.003	19.97
373.214	32.26
373.424	19.97
373.635	48.64
373.846	153.09
374.056	93.69
374.267	105.98
374.477	110.08
374.688	44.54
374.898	44.54
375.109	77.31
375.319	112.13
375.53	124.41
375.74	87.55
375.951	110.08
376.161	114.17
376.372	52.74
376.582	95.74
376.793	58.88
377.003	40.45
377.214	17.92
377.424	69.12
377.635	91.65
377.845	93.69
378.055	95.74
378.266	77.31
378.476	116.22
378.686	67.07
378.897	112.13
379.107	71.17
379.317	101.89
379.528	11.78
379.738	120.32
379.948	75.26
380.158	112.13
380.369	93.69
380.579	65.02
380.789	48.64
380.999	81.41
381.21	81.41
381.42	120.32
381.63	91.65
381.84	42.5
382.05	36.35
382.261	97.79
382.471	93.69
382.681	24.06
382.891	105.98
383.101	75.26
383.311	36.35
383.521	3.58
383.731	142.85
383.941	101.89
384.151	52.74
384.361	11.78
384.571	114.17
384.781	52.74
384.991	124.41
385.201	151.04
385.411	81.41
385.621	126.46
385.831	105.98
386.041	48.64
386.251	95.74
386.461	44.54
386.671	69.12
386.881	122.37
387.091	79.36
387.301	52.74
387.511	122.37
387.72	52.74
387.93	89.6
388.14	11.78
388.35	69.12
388.56	75.26
388.769	103.93
388.979	79.36
389.189	85.5
389.399	65.02
389.609	69.12
389.818	42.5
390.028	48.64
390.238	85.5
390.447	28.16
390.657	151.04
390.867	138.75
391.076	-0.51
391.286	91.65
391.496	46.59
391.705	-6.66
391.915	175.61
392.125	103.93
392.334	75.26
392.544	146.94
392.753	91.65
392.963	85.5
393.172	198.14
393.382	32.26
393.591	181.76
393.801	36.35
394.01	159.23
394.22	83.45
394.429	101.89
394.639	89.6
394.848	105.98
395.058	48.64
395.267	105.98
395.477	175.61
395.686	122.37
395.895	97.79
396.105	112.13
396.314	155.13
396.524	58.88
396.733	40.45
396.942	171.52
397.152	126.46
397.361	153.09
397.57	122.37
397.78	177.66
397.989	171.52
398.198	177.66
398.407	73.21
398.617	185.85
398.826	163.33
399.035	130.56
399.244	159.23
399.453	136.7
399.663	101.89
399.872	173.57
400.081	75.26
400.29	130.56
400.499	101.89
400.708	157.18
400.917	212.48
401.127	99.84
401.336	112.13
401.545	187.9
401.754	179.71
401.963	140.8
402.172	163.33
402.381	71.17
402.59	208.38
402.799	204.28
403.008	161.28
403.217	167.42
403.426	163.33
403.635	142.85
403.844	167.42
404.053	146.94
404.262	159.23
404.471	257.53
404.68	118.27
404.888	194.05
405.097	177.66
405.306	228.86
405.515	161.28
405.724	198.14
405.933	237.05
406.142	196.09
406.35	212.48
406.559	259.58
406.768	226.81
406.977	265.72
407.185	239.1
407.394	300.54
407.603	192
407.812	298.49
408.02	404.99
408.229	237.05
408.438	296.44
408.646	235
408.855	364.03
409.064	263.68
409.272	308.73
409.481	325.12
409.69	327.16
409.898	318.97
410.107	376.31
410.315	382.46
410.524	445.95
410.733	411.13
410.941	445.95
411.15	400.89
411.358	409.08
411.567	511.48
411.775	507.38
411.984	470.52
412.192	523.77
412.401	507.38
412.609	579.06
412.818	521.72
413.026	570.87
413.234	679.41
413.443	695.8
413.651	679.41
413.86	689.65
414.068	695.8
414.276	755.19
414.485	738.8
414.693	744.95
414.901	806.39
415.11	820.72
415.318	816.63
415.526	925.17
415.734	957.94
415.943	912.88
416.151	1046
416.359	1050.1
416.567	1000.94
416.776	998.9
416.984	1101.3
417.192	1179.12
417.4	1152.49
417.608	1091.06
417.817	1209.84
418.025	1267.18
418.233	1398.25
418.441	1371.63
418.649	1367.53
418.857	1519.08
419.065	1557.99
419.273	1568.23
419.481	1531.37
419.689	1789.41
419.897	1805.8
420.105	1832.42
420.313	1904.1
420.521	1883.62
420.729	1881.57
420.937	1994.21
421.145	2055.65
421.353	2270.69
421.561	2313.69
421.769	2428.38
421.977	2463.19
422.185	2409.95
422.393	2627.03
422.601	2694.61
422.809	2674.14
423.017	2733.53
423.224	2887.12
423.432	2979.28
423.64	2880.98
423.848	3296.72
424.056	3085.78
424.263	3331.53
424.471	3329.49
424.679	3528.14
424.887	3646.92
425.094	3829.19
425.302	3847.62
425.51	3890.63
425.718	4001.22
425.925	4249.02
426.133	4265.41
426.341	4414.91
426.548	4595.13
426.756	4580.79
426.964	4656.57
427.171	4926.9
427.379	4998.58
427.586	5189.04
427.794	5432.75
428.001	5551.53
428.209	5858.73
428.417	5619.11
428.624	6045.09
428.832	6249.89
429.039	6045.09
429.247	6063.52
429.454	6722.97
429.662	7159.19
429.869	6675.87
430.076	7210.39
430.284	6923.67
430.491	7294.35
430.699	7738.76
430.906	7753.1
431.114	7765.39
431.321	8021.38
431.528	8082.82
431.736	8705.4
431.943	9039.22
432.15	8703.36
432.358	8957.3
432.565	9477.49
432.772	9506.16
432.979	9786.73
433.187	9915.75
433.394	10116.45
433.601	10861.91
433.808	10648.93
434.016	10616.16
434.223	11093.33
434.43	11908.43
434.637	11722.06
434.844	12250.44
435.052	12760.38
435.259	12455.23
435.466	12737.85
435.673	12444.99
435.88	13286.71
436.087	14071.08
436.294	13978.92
436.501	13559.09
436.708	14095.66
436.915	14656.8
437.122	15080.73
437.329	14914.84
437.537	15557.91
437.743	15947.02
437.95	15797.52
438.157	16473.35
438.364	17102.08
438.571	16903.42
438.778	16807.17
438.985	18812.13
439.192	18033.9
439.399	18357.48
439.606	18042.09
439.813	19064.03
440.02	20356.3
440.227	20108.49
440.433	19451.1
440.64	20270.28
440.847	20423.88
441.054	20769.99
441.261	21892.27
441.467	21660.85
441.674	22217.9
441.881	22996.13
442.088	22820
442.294	22738.09
442.501	23338.14
442.708	23784.6
442.914	24945.8
443.121	25691.26
443.328	25158.78
443.534	26696.81
443.741	25910.39
443.948	25853.05
444.154	27792.47
444.361	27399.26
444.568	27602.01
444.774	27505.76
444.981	28023.89
445.187	28542.03
445.394	29965.37
445.6	29477.95
445.807	32295.96
446.013	30868.52
446.22	31163.43
446.426	32744.46
446.633	33008.65
446.839	33819.64
447.046	32785.42
447.252	34223.09
447.459	34520.05
447.665	34288.63
447.871	35761.12
448.078	36914.12
448.284	35605.47
448.491	36436.95
448.697	38196.15
448.903	38796.21
449.11	38359.99
449.316	37639.11
449.522	38460.34
449.728	39637.92
449.935	39381.93
450.141	39537.57
450.347	40444.82
450.553	39234.47
450.76	39777.19
450.966	41167.76
451.172	40461.21
451.378	41483.14
451.584	40647.57
451.791	41362.31
451.997	41532.29
452.203	42396.54
452.409	41743.24
452.615	41939.84
452.821	40362.9
453.027	40043.42
453.233	42038.14
453.44	40119.2
453.646	40670.1
453.852	41145.23
454.058	41589.64
454.264	39758.75
454.47	40850.32
454.676	40106.91
454.882	41599.88
455.088	37725.12
455.294	38298.55
455.5	38415.29
455.705	38974.38
455.911	37753.79
456.117	36815.82
456.323	36180.95
456.529	34266.1
456.735	36205.53
456.941	35175.4
457.147	34309.11
457.352	33459.2
457.558	32906.25
457.764	33371.14
457.97	32461.84
458.176	31886.36
458.381	31876.12
458.587	30166.07
458.793	30030.9
458.999	28666.95
459.204	30526.51
459.41	29881.4
459.616	27640.92
459.821	27634.78
460.027	27980.89
460.233	27184.23
460.438	26004.6
460.644	26215.54
460.85	25003.14
461.055	24896.64
461.261	24493.19
461.466	22434.99
461.672	22076.59
461.878	23704.73
462.083	22152.37
462.289	21935.28
462.494	21578.93
462.7	20591.81
462.905	20104.4
463.111	20909.25
463.316	20896.96
463.522	20610.25
463.727	20274.38
463.932	20309.19
464.138	20182.22
464.343	20231.37
464.549	19729.62
464.754	20368.59
464.959	20260.04
465.165	19590.36
465.37	19164.38
465.575	18824.42
465.781	19309.79
465.986	19729.62
466.191	18783.46
466.397	18466.02
466.602	17497.33
466.807	17837.3
