Data from USB4F104151__271__10-40-40-793.txt Node

Date: Wed Mar 12 10:40:40 EDT 2025
User: louis
Spectrometer: USB4F10415
Trigger mode: 4
Integration Time (sec): 3.000000E-2
Scans to average: 1
Electric dark correction enabled: true
Nonlinearity correction enabled: false
Boxcar width: 0
XAxis mode: Wavelengths
Number of Pixels in Spectrum: 3648
>>>>>Begin Spectral Data<<<<<
178.204	-111.96
178.424	-111.96
178.644	-111.96
178.864	-105.81
179.084	-52.56
179.304	-50.52
179.524	-13.65
179.744	37.55
179.964	-17.75
180.184	8.87
180.404	33.45
180.624	-25.94
180.844	-7.51
181.064	-11.61
181.283	-46.42
181.503	-1.37
181.723	94.89
181.943	37.55
182.163	131.75
182.383	76.46
182.602	101.03
182.822	25.26
183.042	19.11
183.262	39.59
183.482	37.55
183.701	68.27
183.921	12.97
184.141	31.4
184.361	19.11
184.58	15.02
184.8	41.64
185.02	78.51
185.239	82.6
185.459	62.12
185.679	96.94
185.898	2.73
186.118	123.56
186.338	12.97
186.557	66.22
186.777	12.97
186.997	51.88
187.216	88.75
187.436	88.75
187.655	53.93
187.875	82.6
188.095	29.35
188.314	98.99
188.534	74.41
188.753	47.79
188.973	29.35
189.192	17.07
189.412	-19.8
189.631	96.94
189.851	29.35
190.07	33.45
190.29	10.92
190.509	10.92
190.729	2.73
190.948	86.7
191.168	113.32
191.387	70.31
191.607	35.5
191.826	64.17
192.045	41.64
192.265	70.31
192.484	31.4
192.704	109.22
192.923	-5.46
193.142	133.8
193.362	58.03
193.581	135.85
193.8	86.7
194.02	113.32
194.239	82.6
194.458	82.6
194.678	-13.65
194.897	47.79
195.116	27.31
195.335	-25.94
195.555	74.41
195.774	31.4
195.993	-38.23
196.212	78.51
196.432	-5.46
196.651	-13.65
196.87	74.41
197.089	158.38
197.308	62.12
197.528	68.27
197.747	55.98
197.966	31.4
198.185	88.75
198.404	31.4
198.623	84.65
198.842	43.69
199.062	33.45
199.281	90.79
199.5	74.41
199.719	-7.51
199.938	68.27
200.157	82.6
200.376	49.83
200.595	74.41
200.814	31.4
201.033	115.37
201.252	55.98
201.471	84.65
201.69	39.59
201.909	103.08
202.128	41.64
202.347	127.66
202.566	115.37
202.785	43.69
203.004	41.64
203.223	152.23
203.442	105.13
203.661	6.83
203.879	33.45
204.098	35.5
204.317	78.51
204.536	58.03
204.755	129.7
204.974	109.22
205.193	17.07
205.411	80.55
205.63	0.68
205.849	12.97
206.068	19.11
206.287	2.73
206.505	68.27
206.724	105.13
206.943	160.42
207.162	64.17
207.381	60.07
207.599	-7.51
207.818	6.83
208.037	60.07
208.255	23.21
208.474	43.69
208.693	51.88
208.911	55.98
209.13	86.7
209.349	33.45
209.567	47.79
209.786	137.9
210.005	-19.8
210.223	35.5
210.442	86.7
210.661	-13.65
210.879	68.27
211.098	33.45
211.316	66.22
211.535	25.26
211.753	-5.46
211.972	90.79
212.191	-25.94
212.409	53.93
212.628	58.03
212.846	49.83
213.065	68.27
213.283	139.94
213.502	41.64
213.72	94.89
213.938	64.17
214.157	70.31
214.375	92.84
214.594	86.7
214.812	17.07
215.031	39.59
215.249	0.68
215.467	88.75
215.686	43.69
215.904	70.31
216.122	58.03
216.341	86.7
216.559	64.17
216.778	31.4
216.996	62.12
217.214	29.35
217.432	6.83
217.651	66.22
217.869	64.17
218.087	70.31
218.306	37.55
218.524	88.75
218.742	64.17
218.96	101.03
219.179	8.87
219.397	45.74
219.615	127.66
219.833	121.51
220.051	17.07
220.27	-17.75
220.488	98.99
220.706	96.94
220.924	-3.41
221.142	96.94
221.36	60.07
221.578	125.61
221.796	25.26
222.015	35.5
222.233	6.83
222.451	76.46
222.669	2.73
222.887	49.83
223.105	37.55
223.323	86.7
223.541	8.87
223.759	111.27
223.977	60.07
224.195	68.27
224.413	21.16
224.631	6.83
224.849	39.59
225.067	47.79
225.285	-32.08
225.503	92.84
225.721	-52.56
225.939	58.03
226.157	62.12
226.375	170.66
226.592	33.45
226.81	35.5
227.028	58.03
227.246	117.42
227.464	-11.61
227.682	23.21
227.9	35.5
228.117	90.79
228.335	84.65
228.553	60.07
228.771	55.98
228.989	43.69
229.206	55.98
229.424	133.8
229.642	25.26
229.86	25.26
230.077	86.7
230.295	21.16
230.513	84.65
230.731	68.27
230.948	148.14
231.166	41.64
231.384	17.07
231.601	66.22
231.819	88.75
232.037	29.35
232.254	29.35
232.472	94.89
232.689	84.65
232.907	66.22
233.125	23.21
233.342	4.78
233.56	12.97
233.777	45.74
233.995	70.31
234.213	66.22
234.43	68.27
234.648	58.03
234.865	23.21
235.083	96.94
235.3	33.45
235.518	74.41
235.735	66.22
235.953	64.17
236.17	39.59
236.388	2.73
236.605	29.35
236.822	88.75
237.04	156.33
237.257	70.31
237.475	55.98
237.692	84.65
237.909	101.03
238.127	-23.89
238.344	17.07
238.562	58.03
238.779	58.03
238.996	53.93
239.214	98.99
239.431	70.31
239.648	25.26
239.865	31.4
240.083	51.88
240.3	60.07
240.517	17.07
240.735	78.51
240.952	0.68
241.169	64.17
241.386	84.65
241.603	55.98
241.821	74.41
242.038	23.21
242.255	64.17
242.472	66.22
242.689	76.46
242.907	119.46
243.124	41.64
243.341	27.31
243.558	43.69
243.775	29.35
243.992	60.07
244.209	115.37
244.426	78.51
244.643	117.42
244.86	74.41
245.078	62.12
245.295	82.6
245.512	98.99
245.729	-3.41
245.946	10.92
246.163	39.59
246.38	33.45
246.597	2.73
246.814	37.55
247.031	37.55
247.248	82.6
247.464	68.27
247.681	88.75
247.898	86.7
248.115	29.35
248.332	31.4
248.549	90.79
248.766	148.14
248.983	60.07
249.2	101.03
249.417	72.36
249.633	15.02
249.85	41.64
250.067	119.46
250.284	66.22
250.501	86.7
250.717	66.22
250.934	-3.41
251.151	53.93
251.368	72.36
251.585	135.85
251.801	41.64
252.018	21.16
252.235	105.13
252.451	74.41
252.668	76.46
252.885	82.6
253.102	-11.61
253.318	31.4
253.535	70.31
253.752	17.07
253.968	82.6
254.185	41.64
254.401	53.93
254.618	19.11
254.835	31.4
255.051	58.03
255.268	49.83
255.484	123.56
255.701	60.07
255.917	-9.56
256.134	25.26
256.351	78.51
256.567	25.26
256.784	31.4
257	8.87
257.217	37.55
257.433	105.13
257.65	82.6
257.866	55.98
258.082	80.55
258.299	29.35
258.515	107.18
258.732	60.07
258.948	-17.75
259.165	80.55
259.381	64.17
259.597	25.26
259.814	49.83
260.03	90.79
260.246	88.75
260.463	133.8
260.679	49.83
260.895	66.22
261.112	82.6
261.328	45.74
261.544	23.21
261.761	76.46
261.977	101.03
262.193	-5.46
262.409	82.6
262.626	58.03
262.842	144.04
263.058	-5.46
263.274	96.94
263.49	15.02
263.707	62.12
263.923	49.83
264.139	60.07
264.355	27.31
264.571	119.46
264.787	51.88
265.004	47.79
265.22	2.73
265.436	98.99
265.652	45.74
265.868	88.75
266.084	68.27
266.3	37.55
266.516	49.83
266.732	148.14
266.948	98.99
267.164	53.93
267.38	72.36
267.596	107.18
267.812	88.75
268.028	6.83
268.244	33.45
268.46	78.51
268.676	-3.41
268.892	47.79
269.108	-15.7
269.324	4.78
269.54	-77.14
269.756	29.35
269.972	49.83
270.188	41.64
270.403	37.55
270.619	41.64
270.835	105.13
271.051	94.89
271.267	70.31
271.483	37.55
271.698	27.31
271.914	109.22
272.13	41.64
272.346	31.4
272.562	-30.04
272.777	78.51
272.993	25.26
273.209	37.55
273.425	94.89
273.64	51.88
273.856	84.65
274.072	39.59
274.287	33.45
274.503	58.03
274.719	6.83
274.934	64.17
275.15	101.03
275.366	60.07
275.581	45.74
275.797	58.03
276.012	49.83
276.228	27.31
276.444	68.27
276.659	19.11
276.875	29.35
277.09	23.21
277.306	19.11
277.521	2.73
277.737	41.64
277.952	141.99
278.168	107.18
278.383	43.69
278.599	60.07
278.814	37.55
279.03	-46.42
279.245	109.22
279.461	98.99
279.676	105.13
279.892	51.88
280.107	27.31
280.322	47.79
280.538	119.46
280.753	8.87
280.969	41.64
281.184	64.17
281.399	76.46
281.615	21.16
281.83	66.22
282.045	-11.61
282.26	10.92
282.476	29.35
282.691	60.07
282.906	31.4
283.122	78.51
283.337	90.79
283.552	86.7
283.767	45.74
283.983	107.18
284.198	41.64
284.413	94.89
284.628	-32.08
284.843	49.83
285.058	78.51
285.274	27.31
285.489	21.16
285.704	90.79
285.919	66.22
286.134	103.08
286.349	60.07
286.564	90.79
286.779	-3.41
286.995	-17.75
287.21	37.55
287.425	55.98
287.64	31.4
287.855	33.45
288.07	17.07
288.285	139.94
288.5	58.03
288.715	33.45
288.93	53.93
289.145	47.79
289.36	127.66
289.575	96.94
289.79	74.41
290.004	41.64
290.219	53.93
290.434	12.97
290.649	55.98
290.864	55.98
291.079	72.36
291.294	8.87
291.509	64.17
291.724	-9.56
291.938	-9.56
292.153	25.26
292.368	10.92
292.583	55.98
292.798	-54.61
293.012	47.79
293.227	39.59
293.442	66.22
293.657	-7.51
293.871	64.17
294.086	90.79
294.301	98.99
294.516	51.88
294.73	58.03
294.945	17.07
295.16	15.02
295.374	41.64
295.589	84.65
295.804	96.94
296.018	25.26
296.233	103.08
296.447	43.69
296.662	4.78
296.877	123.56
297.091	49.83
297.306	10.92
297.52	49.83
297.735	-7.51
297.949	-7.51
298.164	76.46
298.378	-15.7
298.593	62.12
298.807	96.94
299.022	39.59
299.236	72.36
299.451	45.74
299.665	119.46
299.88	58.03
300.094	68.27
300.309	101.03
300.523	109.22
300.737	115.37
300.952	55.98
301.166	80.55
301.381	92.84
301.595	4.78
301.809	76.46
302.024	88.75
302.238	25.26
302.452	45.74
302.667	-19.8
302.881	82.6
303.095	70.31
303.309	90.79
303.524	43.69
303.738	58.03
303.952	4.78
304.166	-23.89
304.381	51.88
304.595	127.66
304.809	-3.41
305.023	68.27
305.237	17.07
305.452	15.02
305.666	19.11
305.88	8.87
306.094	105.13
306.308	64.17
306.522	82.6
306.736	43.69
306.95	49.83
307.164	35.5
307.379	29.35
307.593	78.51
307.807	80.55
308.021	6.83
308.235	29.35
308.449	103.08
308.663	-9.56
308.877	70.31
309.091	86.7
309.305	94.89
309.519	49.83
309.733	76.46
309.947	-17.75
310.161	80.55
310.374	125.61
310.588	62.12
310.802	6.83
311.016	76.46
311.23	113.32
311.444	115.37
311.658	64.17
311.872	146.09
312.085	68.27
312.299	107.18
312.513	137.9
312.727	27.31
312.941	0.68
313.154	70.31
313.368	72.36
313.582	35.5
313.796	33.45
314.009	113.32
314.223	119.46
314.437	43.69
314.651	-19.8
314.864	39.59
315.078	70.31
315.292	119.46
315.505	51.88
315.719	66.22
315.933	47.79
316.146	19.11
316.36	33.45
316.573	96.94
316.787	125.61
317.001	105.13
317.214	107.18
317.428	27.31
317.641	80.55
317.855	23.21
318.068	33.45
318.282	62.12
318.495	105.13
318.709	62.12
318.922	43.69
319.136	41.64
319.349	154.28
319.563	49.83
319.776	62.12
319.99	47.79
320.203	137.9
320.417	84.65
320.63	80.55
320.843	117.42
321.057	70.31
321.27	86.7
321.483	10.92
321.697	88.75
321.91	49.83
322.124	70.31
322.337	80.55
322.55	58.03
322.763	29.35
322.977	53.93
323.19	49.83
323.403	86.7
323.617	31.4
323.83	117.42
324.043	49.83
324.256	64.17
324.469	70.31
324.683	68.27
324.896	62.12
325.109	68.27
325.322	4.78
325.535	94.89
325.748	-1.37
325.962	8.87
326.175	58.03
326.388	109.22
326.601	74.41
326.814	119.46
327.027	47.79
327.24	88.75
327.453	29.35
327.666	15.02
327.879	23.21
328.092	117.42
328.305	74.41
328.518	31.4
328.731	12.97
328.944	72.36
329.157	49.83
329.37	148.14
329.583	137.9
329.796	80.55
330.009	117.42
330.222	76.46
330.435	51.88
330.648	66.22
330.861	8.87
331.073	21.16
331.286	68.27
331.499	94.89
331.712	12.97
331.925	72.36
332.138	72.36
332.35	80.55
332.563	78.51
332.776	98.99
332.989	37.55
333.202	94.89
333.414	156.33
333.627	70.31
333.84	41.64
334.053	41.64
334.265	25.26
334.478	55.98
334.691	82.6
334.903	58.03
335.116	78.51
335.329	29.35
335.541	94.89
335.754	137.9
335.966	39.59
336.179	19.11
336.392	72.36
336.604	103.08
336.817	-9.56
337.029	111.27
337.242	66.22
337.454	29.35
337.667	17.07
337.88	115.37
338.092	21.16
338.305	90.79
338.517	35.5
338.729	121.51
338.942	94.89
339.154	62.12
339.367	78.51
339.579	76.46
339.792	62.12
340.004	51.88
340.217	-3.41
340.429	144.04
340.641	55.98
340.854	58.03
341.066	23.21
341.278	55.98
341.491	72.36
341.703	90.79
341.915	86.7
342.128	117.42
342.34	29.35
342.552	119.46
342.764	105.13
342.977	74.41
343.189	191.14
343.401	31.4
343.613	35.5
343.826	41.64
344.038	27.31
344.25	78.51
344.462	-1.37
344.674	80.55
344.886	72.36
345.099	41.64
345.311	29.35
345.523	-11.61
345.735	25.26
345.947	72.36
346.159	29.35
346.371	60.07
346.583	119.46
346.795	84.65
347.007	10.92
347.219	39.59
347.431	98.99
347.643	37.55
347.855	-11.61
348.067	86.7
348.279	45.74
348.491	127.66
348.703	55.98
348.915	49.83
349.127	47.79
349.339	66.22
349.551	51.88
349.763	94.89
349.975	-27.99
350.187	121.51
350.399	148.14
350.61	68.27
350.822	96.94
351.034	66.22
351.246	92.84
351.458	144.04
351.669	109.22
351.881	148.14
352.093	82.6
352.305	64.17
352.517	58.03
352.728	70.31
352.94	66.22
353.152	55.98
353.363	60.07
353.575	55.98
353.787	131.75
353.999	53.93
354.21	105.13
354.422	49.83
354.633	94.89
354.845	39.59
355.057	33.45
355.268	141.99
355.48	141.99
355.692	23.21
355.903	45.74
356.115	27.31
356.326	-17.75
356.538	90.79
356.749	98.99
356.961	135.85
357.172	60.07
357.384	41.64
357.595	117.42
357.807	109.22
358.018	51.88
358.23	55.98
358.441	92.84
358.653	96.94
358.864	90.79
359.075	117.42
359.287	80.55
359.498	135.85
359.709	86.7
359.921	109.22
360.132	82.6
360.344	92.84
360.555	66.22
360.766	58.03
360.977	25.26
361.189	107.18
361.4	-1.37
361.611	82.6
361.823	45.74
362.034	139.94
362.245	35.5
362.456	111.27
362.667	117.42
362.879	8.87
363.09	78.51
363.301	156.33
363.512	90.79
363.723	94.89
363.935	39.59
364.146	158.38
364.357	33.45
364.568	55.98
364.779	-11.61
364.99	92.84
365.201	8.87
365.412	152.23
365.623	58.03
365.834	146.09
366.045	66.22
366.256	113.32
366.467	187.05
366.678	86.7
366.889	72.36
367.1	115.37
367.311	55.98
367.522	72.36
367.733	127.66
367.944	146.09
368.155	78.51
368.366	88.75
368.577	105.13
368.788	19.11
368.999	82.6
369.209	98.99
369.42	113.32
369.631	187.05
369.842	76.46
370.053	-7.51
370.264	62.12
370.474	8.87
370.685	41.64
370.896	53.93
371.107	92.84
371.317	78.51
371.528	15.02
371.739	117.42
371.95	49.83
372.16	62.12
372.371	74.41
372.582	49.83
372.792	164.52
373.003	82.6
373.214	55.98
373.424	49.83
373.635	33.45
373.846	103.08
374.056	146.09
374.267	141.99
374.477	66.22
374.688	70.31
374.898	19.11
375.109	148.14
375.319	115.37
375.53	115.37
375.74	98.99
375.951	45.74
376.161	109.22
376.372	158.38
376.582	74.41
376.793	-7.51
377.003	66.22
377.214	133.8
377.424	117.42
377.635	176.81
377.845	119.46
378.055	88.75
378.266	55.98
378.476	152.23
378.686	74.41
378.897	78.51
379.107	68.27
379.317	125.61
379.528	68.27
379.738	98.99
379.948	96.94
380.158	103.08
380.369	98.99
380.579	72.36
380.789	55.98
380.999	107.18
381.21	154.28
381.42	96.94
381.63	72.36
381.84	121.51
382.05	68.27
382.261	127.66
382.471	82.6
382.681	58.03
382.891	160.42
383.101	25.26
383.311	64.17
383.521	39.59
383.731	117.42
383.941	164.52
384.151	109.22
384.361	47.79
384.571	111.27
384.781	66.22
384.991	199.34
385.201	107.18
385.411	160.42
385.621	121.51
385.831	98.99
386.041	158.38
386.251	115.37
386.461	156.33
386.671	6.83
386.881	94.89
387.091	105.13
387.301	109.22
387.511	94.89
387.72	107.18
387.93	111.27
388.14	115.37
388.35	60.07
388.56	111.27
388.769	172.71
388.979	76.46
389.189	66.22
389.399	92.84
389.609	82.6
389.818	86.7
390.028	107.18
390.238	117.42
390.447	33.45
390.657	123.56
390.867	115.37
391.076	74.41
391.286	64.17
391.496	29.35
391.705	144.04
391.915	123.56
392.125	98.99
392.334	141.99
392.544	90.79
392.753	121.51
392.963	115.37
393.172	94.89
393.382	98.99
393.591	113.32
393.801	66.22
394.01	137.9
394.22	125.61
394.429	64.17
394.639	111.27
394.848	86.7
395.058	164.52
395.267	111.27
395.477	127.66
395.686	168.62
395.895	195.24
396.105	232.1
396.314	121.51
396.524	133.8
396.733	123.56
396.942	121.51
397.152	180.9
397.361	150.18
397.57	144.04
397.78	127.66
397.989	172.71
398.198	180.9
398.407	137.9
398.617	109.22
398.826	187.05
399.035	113.32
399.244	68.27
399.453	101.03
399.663	168.62
399.872	139.94
400.081	129.7
400.29	154.28
400.499	62.12
400.708	209.58
400.917	158.38
401.127	172.71
401.336	109.22
401.545	215.72
401.754	176.81
401.963	137.9
402.172	160.42
402.381	244.39
402.59	223.91
402.799	158.38
403.008	166.57
403.217	127.66
403.426	144.04
403.635	166.57
403.844	94.89
404.053	244.39
404.262	160.42
404.471	240.29
404.68	148.14
404.888	131.75
405.097	139.94
405.306	258.73
405.515	201.38
405.724	154.28
405.933	168.62
406.142	164.52
406.35	185
406.559	160.42
406.768	228.01
406.977	281.25
407.185	203.43
407.394	322.21
407.603	215.72
407.812	348.84
408.02	334.5
408.229	301.73
408.438	328.36
408.646	275.11
408.855	279.21
409.064	352.93
409.272	252.58
409.481	330.41
409.69	346.79
409.898	367.27
410.107	336.55
410.315	397.99
410.524	334.5
410.733	389.8
410.941	350.89
411.15	443.04
411.358	432.8
411.567	418.47
411.775	481.96
411.984	498.34
412.192	524.96
412.401	576.16
412.609	600.74
412.818	631.46
413.026	670.37
413.234	610.98
413.443	623.27
413.651	576.16
413.86	647.84
414.068	715.42
414.276	737.95
414.485	713.38
414.693	811.68
414.901	877.21
415.11	791.2
415.318	805.53
415.526	823.97
415.734	883.36
415.943	924.32
416.151	959.13
416.359	948.89
416.567	993.95
416.776	1141.4
416.984	1143.45
417.192	1208.98
417.4	1251.99
417.608	1196.7
417.817	1256.09
418.025	1335.96
418.233	1389.21
418.441	1399.45
418.649	1295
418.857	1499.8
419.065	1616.53
419.273	1520.28
419.481	1608.34
419.689	1727.12
419.897	1774.22
420.105	1729.17
420.313	1794.7
420.521	1919.63
420.729	1917.58
420.937	2042.51
421.145	2206.34
421.353	2108.04
421.561	2290.31
421.769	2372.23
421.977	2470.53
422.185	2302.6
422.393	2503.3
422.601	2581.12
422.809	2716.29
423.017	2830.98
423.224	2855.55
423.432	2880.13
423.64	3041.92
423.848	3236.47
424.056	2990.72
424.263	3453.56
424.471	3478.13
424.679	3404.41
424.887	3684.98
425.094	3840.62
425.302	3680.88
425.51	4029.04
425.718	4035.18
425.925	4010.61
426.133	4184.68
426.341	4455.01
426.548	4522.6
426.756	4555.37
426.964	4815.46
427.171	5030.49
427.379	5218.91
427.586	5050.97
427.794	5474.9
428.001	5622.36
428.209	5884.5
428.417	5818.96
428.624	6158.92
428.832	6158.92
429.039	6195.79
429.247	5974.61
429.454	6578.76
429.662	7336.51
429.869	6545.99
430.076	7160.38
430.284	6986.3
430.491	7260.73
430.699	7709.24
430.906	7752.24
431.114	7731.76
431.321	8155.69
431.528	8251.95
431.736	8612.39
431.943	9239.07
432.15	8831.52
432.358	9122.34
432.565	9533.98
432.772	9474.59
432.979	9816.6
433.187	10054.16
433.394	10181.14
433.601	10711.56
433.808	10906.12
434.016	10693.13
434.223	11364.86
434.43	11876.85
434.637	11745.78
434.844	12657.13
435.052	12782.06
435.259	12743.14
435.466	13007.33
435.673	12538.35
435.88	13361.63
436.087	14127.57
436.294	14156.24
436.501	13820.38
436.708	14180.82
436.915	14807.5
437.122	15339.97
437.329	15487.42
437.537	15737.27
437.743	15925.69
437.95	16015.8
438.157	16538.03
438.364	17316.26
438.571	17017.26
438.778	17463.71
438.985	18925.96
439.192	18291.09
439.399	18751.88
439.606	18514.32
439.813	19362.18
440.02	20443.51
440.227	20068.73
440.433	20101.5
440.64	20965.74
440.847	20525.43
441.054	21018.99
441.261	22597.97
441.467	22024.54
441.674	22604.11
441.881	23656.77
442.088	23361.86
442.294	23163.21
442.501	23720.26
442.708	24475.96
442.914	25348.39
443.121	26253.59
443.328	25733.41
443.534	27478.28
443.741	26634.52
443.948	26566.93
444.154	28444.92
444.361	27814.15
444.568	28530.94
444.774	28160.25
444.981	28422.39
445.187	29253.87
445.394	30695.64
445.6	30396.63
445.807	33263.79
446.013	31578.31
446.22	32663.74
446.426	33411.24
446.633	34005.16
446.839	34893.97
447.046	33274.03
447.252	35393.68
447.459	35391.63
447.665	35283.09
447.871	37083.25
448.078	37828.71
448.284	36176
448.491	36948.09
448.697	38684.76
448.903	39366.74
449.11	39252.05
449.316	38858.84
449.522	39215.19
449.728	40405.06
449.935	40894.52
450.141	40448.07
450.347	41506.87
450.553	40343.62
450.76	40583.23
450.966	41961.51
451.172	41273.4
451.378	42199.08
451.584	41895.98
451.791	42420.26
451.997	42403.88
452.203	43112.47
452.409	42792.99
452.615	42387.49
452.821	41109.56
453.027	40732.73
453.233	42805.28
453.44	40648.77
453.646	41347.12
453.852	41203.77
454.058	41869.36
454.264	40722.49
454.47	41568.3
454.676	40484.93
454.882	41674.8
455.088	37820.52
455.294	38817.88
455.5	39010.39
455.705	39444.56
455.911	37980.26
456.117	37275.76
456.323	36919.42
456.529	34721.94
456.735	35895.43
456.941	35225.75
457.147	34592.92
457.352	33253.55
457.558	32960.69
457.764	33134.77
457.97	32465.08
458.176	31652.04
458.381	31901.89
458.587	30204.13
458.793	30136.54
458.999	28786.93
459.204	30761.17
459.41	29685.99
459.616	27582.73
459.821	27517.19
460.027	27650.31
460.233	27117.84
460.438	25458.98
460.644	25989.41
460.85	24883.5
461.055	24359.22
461.261	24478.01
461.466	22542.67
461.672	21760.35
461.878	23505.22
462.083	22055.26
462.289	21356.9
462.494	21395.81
462.7	20566.38
462.905	19771.77
463.111	20783.47
463.316	20570.48
463.522	20179.32
463.727	20564.34
463.932	20349.3
464.138	19865.98
464.343	20179.32
464.549	19773.82
464.754	20289.91
464.959	20173.17
465.165	19702.14
465.37	19077.51
465.575	18596.24
465.781	19288.45
465.986	19808.64
466.191	19032.46
466.397	18401.68
