Data from USB4F104151__67__10-24-02-622.txt Node

Date: Wed Mar 12 10:24:02 EDT 2025
User: louis
Spectrometer: USB4F10415
Trigger mode: 4
Integration Time (sec): 3.000000E-2
Scans to average: 1
Electric dark correction enabled: true
Nonlinearity correction enabled: false
Boxcar width: 0
XAxis mode: Wavelengths
Number of Pixels in Spectrum: 3648
>>>>>Begin Spectral Data<<<<<
178.204	-83.45
178.424	-83.45
178.644	-83.45
178.864	-130.56
179.084	-146.94
179.304	-13.82
179.524	-1.54
179.744	51.71
179.964	-34.3
180.184	-28.16
180.404	43.52
180.624	8.7
180.844	-13.82
181.064	-3.58
181.283	-26.11
181.503	-38.4
181.723	55.81
181.943	-32.26
182.163	51.71
182.383	-34.3
182.602	-50.69
182.822	-36.35
183.042	29.18
183.262	-5.63
183.482	43.52
183.701	-5.63
183.921	57.86
184.141	25.09
184.361	90.62
184.58	18.94
184.8	-34.3
185.02	53.76
185.239	25.09
185.459	-13.82
185.679	6.66
185.898	80.38
186.118	31.23
186.338	-5.63
186.557	18.94
186.777	-65.02
186.997	-22.02
187.216	16.9
187.436	57.86
187.655	-24.06
187.875	80.38
188.095	45.57
188.314	68.09
188.534	80.38
188.753	-38.4
188.973	49.66
189.192	25.09
189.412	43.52
189.631	-3.58
189.851	-17.92
190.07	16.9
190.29	-26.11
190.509	31.23
190.729	-1.54
190.948	35.33
191.168	117.25
191.387	-5.63
191.607	-1.54
191.826	84.48
192.045	-13.82
192.265	-30.21
192.484	-24.06
192.704	-62.98
192.923	-15.87
193.142	37.38
193.362	33.28
193.581	92.67
193.8	29.18
194.02	2.56
194.239	-15.87
194.458	64
194.678	0.51
194.897	-22.02
195.116	0.51
195.335	-5.63
195.555	-19.97
195.774	-26.11
195.993	66.05
196.212	-5.63
196.432	8.7
196.651	39.42
196.87	-26.11
197.089	113.15
197.308	80.38
197.528	33.28
197.747	2.56
197.966	68.09
198.185	86.53
198.404	33.28
198.623	57.86
198.842	27.14
199.062	-24.06
199.281	-13.82
199.5	-3.58
199.719	31.23
199.938	18.94
200.157	27.14
200.376	76.29
200.595	-7.68
200.814	-67.07
201.033	-17.92
201.252	72.19
201.471	18.94
201.69	25.09
201.909	-5.63
202.128	59.9
202.347	76.29
202.566	14.85
202.785	-5.63
203.004	-54.78
203.223	43.52
203.442	31.23
203.661	-5.63
203.879	27.14
204.098	59.9
204.317	-5.63
204.536	10.75
204.755	33.28
204.974	59.9
205.193	-17.92
205.411	57.86
205.63	-26.11
205.849	45.57
206.068	-42.5
206.287	-7.68
206.505	-5.63
206.724	33.28
206.943	41.47
207.162	12.8
207.381	72.19
207.599	-30.21
207.818	-32.26
208.037	-36.35
208.255	-44.54
208.474	-24.06
208.693	25.09
208.911	-11.78
209.13	-38.4
209.349	-7.68
209.567	33.28
209.786	68.09
210.005	68.09
210.223	18.94
210.442	16.9
210.661	29.18
210.879	-13.82
211.098	-34.3
211.316	-5.63
211.535	-28.16
211.753	82.43
211.972	-15.87
212.191	-17.92
212.409	8.7
212.628	-38.4
212.846	-34.3
213.065	-22.02
213.283	10.75
213.502	35.33
213.72	47.62
213.938	70.14
214.157	66.05
214.375	6.66
214.594	-32.26
214.812	51.71
215.031	-44.54
215.249	-1.54
215.467	35.33
215.686	14.85
215.904	0.51
216.122	6.66
216.341	135.68
216.559	0.51
216.778	39.42
216.996	33.28
217.214	20.99
217.432	-36.35
217.651	-15.87
217.869	25.09
218.087	-9.73
218.306	2.56
218.524	37.38
218.742	41.47
218.96	-42.5
219.179	-40.45
219.397	-13.82
219.615	78.33
219.833	74.24
220.051	-24.06
220.27	41.47
220.488	33.28
220.706	12.8
220.924	35.33
221.142	35.33
221.36	16.9
221.578	-97.79
221.796	6.66
222.015	66.05
222.233	-9.73
222.451	53.76
222.669	-60.93
222.887	-5.63
223.105	43.52
223.323	-62.98
223.541	-56.83
223.759	23.04
223.977	27.14
224.195	70.14
224.413	76.29
224.631	20.99
224.849	33.28
225.067	23.04
225.285	-40.45
225.503	-7.68
225.721	-58.88
225.939	0.51
226.157	8.7
226.375	68.09
226.592	33.28
226.81	64
227.028	43.52
227.246	76.29
227.464	-50.69
227.682	76.29
227.9	43.52
228.117	0.51
228.335	14.85
228.553	-52.74
228.771	-38.4
228.989	31.23
229.206	72.19
229.424	10.75
229.642	8.7
229.86	-26.11
230.077	84.48
230.295	31.23
230.513	109.05
230.731	51.71
230.948	0.51
231.166	66.05
231.384	25.09
231.601	-52.74
231.819	82.43
232.037	-26.11
232.254	31.23
232.472	-15.87
232.689	-46.59
232.907	68.09
233.125	-1.54
233.342	-42.5
233.56	-40.45
233.777	47.62
233.995	59.9
234.213	68.09
234.43	45.57
234.648	0.51
234.865	-1.54
235.083	37.38
235.3	-54.78
235.518	59.9
235.735	16.9
235.953	59.9
236.17	-93.69
236.388	53.76
236.605	2.56
236.822	4.61
237.04	-30.21
237.257	-13.82
237.475	23.04
237.692	-5.63
237.909	29.18
238.127	31.23
238.344	59.9
238.562	0.51
238.779	-22.02
238.996	-9.73
239.214	2.56
239.431	90.62
239.648	-19.97
239.865	10.75
240.083	31.23
240.3	-9.73
240.517	-54.78
240.735	23.04
240.952	53.76
241.169	27.14
241.386	35.33
241.603	-54.78
241.821	-48.64
242.038	45.57
242.255	76.29
242.472	6.66
242.689	29.18
242.907	84.48
243.124	29.18
243.341	-7.68
243.558	18.94
243.775	-22.02
243.992	2.56
244.209	82.43
244.426	35.33
244.643	4.61
244.86	-17.92
245.078	47.62
245.295	-9.73
245.512	104.96
245.729	-30.21
245.946	49.66
246.163	2.56
246.38	27.14
246.597	2.56
246.814	25.09
247.031	-26.11
247.248	0.51
247.464	-19.97
247.681	59.9
247.898	35.33
248.115	59.9
248.332	-62.98
248.549	55.81
248.766	0.51
248.983	2.56
249.2	23.04
249.417	0.51
249.633	10.75
249.85	-1.54
250.067	2.56
250.284	10.75
250.501	-5.63
250.717	-22.02
250.934	-11.78
251.151	-11.78
251.368	-40.45
251.585	51.71
251.801	39.42
252.018	-24.06
252.235	-1.54
252.451	20.99
252.668	-30.21
252.885	-11.78
253.102	10.75
253.318	35.33
253.535	35.33
253.752	59.9
253.968	23.04
254.185	-5.63
254.401	4.61
254.618	6.66
254.835	-60.93
255.051	51.71
255.268	49.66
255.484	0.51
255.701	27.14
255.917	-5.63
256.134	-75.26
256.351	2.56
256.567	-13.82
256.784	27.14
257	-34.3
257.217	27.14
257.433	14.85
257.65	-34.3
257.866	-15.87
258.082	-7.68
258.299	-32.26
258.515	8.7
258.732	35.33
258.948	-30.21
259.165	27.14
259.381	35.33
259.597	-32.26
259.814	-36.35
260.03	8.7
260.246	8.7
260.463	49.66
260.679	131.58
260.895	23.04
261.112	10.75
261.328	-54.78
261.544	-11.78
261.761	76.29
261.977	16.9
262.193	45.57
262.409	-9.73
262.626	10.75
262.842	84.48
263.058	-7.68
263.274	84.48
263.49	49.66
263.707	18.94
263.923	57.86
264.139	61.95
264.355	35.33
264.571	59.9
264.787	-28.16
265.004	2.56
265.22	-32.26
265.436	-52.74
265.652	-13.82
265.868	33.28
266.084	-83.45
266.3	20.99
266.516	-42.5
266.732	41.47
266.948	-48.64
267.164	47.62
267.38	-34.3
267.596	4.61
267.812	-38.4
268.028	53.76
268.244	41.47
268.46	35.33
268.676	31.23
268.892	-9.73
269.108	-26.11
269.324	-40.45
269.54	-69.12
269.756	59.9
269.972	-22.02
270.188	2.56
270.403	-11.78
270.619	-19.97
270.835	10.75
271.051	18.94
271.267	51.71
271.483	23.04
271.698	41.47
271.914	-5.63
272.13	-7.68
272.346	0.51
272.562	2.56
272.777	27.14
272.993	2.56
273.209	47.62
273.425	47.62
273.64	109.05
273.856	-13.82
274.072	18.94
274.287	-5.63
274.503	-32.26
274.719	6.66
274.934	-38.4
275.15	2.56
275.366	-13.82
275.581	-34.3
275.797	18.94
276.012	23.04
276.228	16.9
276.444	-44.54
276.659	59.9
276.875	10.75
277.09	59.9
277.306	-38.4
277.521	-52.74
277.737	18.94
277.952	25.09
278.168	20.99
278.383	49.66
278.599	8.7
278.814	8.7
279.03	25.09
279.245	55.81
279.461	10.75
279.676	-75.26
279.892	51.71
280.107	39.42
280.322	-5.63
280.538	-17.92
280.753	-15.87
280.969	-5.63
281.184	6.66
281.399	57.86
281.615	39.42
281.83	2.56
282.045	-77.31
282.26	35.33
282.476	76.29
282.691	74.24
282.906	23.04
283.122	64
283.337	16.9
283.552	-13.82
283.767	68.09
283.983	92.67
284.198	-32.26
284.413	14.85
284.628	35.33
284.843	-1.54
285.058	135.68
285.274	16.9
285.489	-9.73
285.704	33.28
285.919	-71.17
286.134	51.71
286.349	-5.63
286.564	-5.63
286.779	117.25
286.995	-19.97
287.21	23.04
287.425	61.95
287.64	37.38
287.855	72.19
288.07	-54.78
288.285	78.33
288.5	-1.54
288.715	25.09
288.93	-38.4
289.145	-13.82
289.36	47.62
289.575	-7.68
289.79	59.9
290.004	-67.07
290.219	35.33
290.434	-26.11
290.649	-19.97
290.864	-5.63
291.079	80.38
291.294	-71.17
291.509	-22.02
291.724	35.33
291.938	-22.02
292.153	76.29
292.368	-71.17
292.583	27.14
292.798	-22.02
293.012	18.94
293.227	14.85
293.442	-11.78
293.657	107.01
293.871	59.9
294.086	53.76
294.301	70.14
294.516	45.57
294.73	37.38
294.945	-13.82
295.16	98.81
295.374	6.66
295.589	57.86
295.804	12.8
296.018	51.71
296.233	66.05
296.447	68.09
296.662	-38.4
296.877	72.19
297.091	35.33
297.306	29.18
297.52	61.95
297.735	88.57
297.949	33.28
298.164	-1.54
298.378	-40.45
298.593	-3.58
298.807	-44.54
299.022	74.24
299.236	14.85
299.451	-17.92
299.665	-73.21
299.88	33.28
300.094	-3.58
300.309	49.66
300.523	41.47
300.737	-34.3
300.952	45.57
301.166	12.8
301.381	-7.68
301.595	27.14
301.809	14.85
302.024	2.56
302.238	-75.26
302.452	23.04
302.667	-32.26
302.881	-26.11
303.095	76.29
303.309	0.51
303.524	6.66
303.738	14.85
303.952	47.62
304.166	4.61
304.381	-62.98
304.595	-1.54
304.809	16.9
305.023	-79.36
305.237	-58.88
305.452	-19.97
305.666	74.24
305.88	-5.63
306.094	-3.58
306.308	35.33
306.522	68.09
306.736	-9.73
306.95	51.71
307.164	18.94
307.379	18.94
307.593	37.38
307.807	-11.78
308.021	80.38
308.235	-46.59
308.449	-1.54
308.663	68.09
308.877	96.77
309.091	51.71
309.305	-7.68
309.519	-30.21
309.733	4.61
309.947	8.7
310.161	16.9
310.374	33.28
310.588	61.95
310.802	-1.54
311.016	41.47
311.23	-13.82
311.444	6.66
311.658	2.56
311.872	80.38
312.085	90.62
312.299	117.25
312.513	12.8
312.727	-9.73
312.941	27.14
313.154	39.42
313.368	41.47
313.582	2.56
313.796	-19.97
314.009	23.04
314.223	-3.58
314.437	84.48
314.651	41.47
314.864	-48.64
315.078	-24.06
315.292	64
315.505	-15.87
315.719	61.95
315.933	43.52
316.146	-15.87
316.36	27.14
316.573	55.81
316.787	2.56
317.001	66.05
317.214	12.8
317.428	45.57
317.641	-5.63
317.855	2.56
318.068	-22.02
318.282	61.95
318.495	-22.02
318.709	-5.63
318.922	88.57
319.136	49.66
319.349	23.04
319.563	8.7
319.776	68.09
319.99	-30.21
320.203	6.66
320.417	-15.87
320.63	16.9
320.843	88.57
321.057	41.47
321.27	35.33
321.483	-1.54
321.697	59.9
321.91	-3.58
322.124	35.33
322.337	39.42
322.55	-28.16
322.763	82.43
322.977	59.9
323.19	-5.63
323.403	12.8
323.617	-1.54
323.83	68.09
324.043	-30.21
324.256	53.76
324.469	10.75
324.683	64
324.896	88.57
325.109	76.29
325.322	-62.98
325.535	145.92
325.748	72.19
325.962	55.81
326.175	80.38
326.388	23.04
326.601	35.33
326.814	2.56
327.027	-19.97
327.24	29.18
327.453	47.62
327.666	23.04
327.879	53.76
328.092	-1.54
328.305	43.52
328.518	-40.45
328.731	-5.63
328.944	47.62
329.157	20.99
329.37	-56.83
329.583	47.62
329.796	190.97
330.009	39.42
330.222	-17.92
330.435	74.24
330.648	6.66
330.861	29.18
331.073	23.04
331.286	84.48
331.499	-11.78
331.712	-28.16
331.925	102.91
332.138	41.47
332.35	121.34
332.563	12.8
332.776	57.86
332.989	-30.21
333.202	-99.84
333.414	-26.11
333.627	37.38
333.84	-24.06
334.053	-9.73
334.265	27.14
334.478	6.66
334.691	2.56
334.903	0.51
335.116	-13.82
335.329	16.9
335.541	68.09
335.754	104.96
335.966	37.38
336.179	-1.54
336.392	51.71
336.604	-7.68
336.817	23.04
337.029	-13.82
337.242	14.85
337.454	59.9
337.667	64
337.88	12.8
338.092	80.38
338.305	49.66
338.517	45.57
338.729	23.04
338.942	59.9
339.154	14.85
339.367	-42.5
339.579	39.42
339.792	59.9
340.004	45.57
340.217	39.42
340.429	16.9
340.641	25.09
340.854	41.47
341.066	16.9
341.278	78.33
341.491	12.8
341.703	64
341.915	-1.54
342.128	55.81
342.34	10.75
342.552	47.62
342.764	100.86
342.977	55.81
343.189	43.52
343.401	25.09
343.613	14.85
343.826	70.14
344.038	16.9
344.25	-17.92
344.462	-38.4
344.674	-40.45
344.886	33.28
345.099	-7.68
345.311	84.48
345.523	47.62
345.735	29.18
345.947	68.09
346.159	20.99
346.371	-24.06
346.583	-56.83
346.795	78.33
347.007	72.19
347.219	-13.82
347.431	51.71
347.643	-36.35
347.855	27.14
348.067	88.57
348.279	-24.06
348.491	33.28
348.703	33.28
348.915	25.09
349.127	27.14
349.339	100.86
349.551	39.42
349.763	23.04
349.975	20.99
350.187	74.24
350.399	37.38
350.61	51.71
350.822	4.61
351.034	25.09
351.246	14.85
351.458	-34.3
351.669	-22.02
351.881	23.04
352.093	57.86
352.305	0.51
352.517	57.86
352.728	59.9
352.94	27.14
353.152	88.57
353.363	-30.21
353.575	41.47
353.787	92.67
353.999	18.94
354.21	66.05
354.422	-7.68
354.633	66.05
354.845	72.19
355.057	74.24
355.268	16.9
355.48	20.99
355.692	-32.26
355.903	18.94
356.115	47.62
356.326	0.51
356.538	61.95
356.749	61.95
356.961	47.62
357.172	-22.02
357.384	43.52
357.595	61.95
357.807	43.52
358.018	-38.4
358.23	27.14
358.441	16.9
358.653	39.42
358.864	20.99
359.075	-28.16
359.287	31.23
359.498	55.81
359.709	68.09
359.921	80.38
360.132	78.33
360.344	35.33
360.555	31.23
360.766	25.09
360.977	25.09
361.189	59.9
361.4	10.75
361.611	100.86
361.823	90.62
362.034	35.33
362.245	72.19
362.456	29.18
362.667	39.42
362.879	-22.02
363.09	51.71
363.301	14.85
363.512	41.47
363.723	59.9
363.935	16.9
364.146	84.48
364.357	27.14
364.568	66.05
364.779	37.38
364.99	96.77
365.201	25.09
365.412	23.04
365.623	16.9
365.834	43.52
366.045	57.86
366.256	68.09
366.467	66.05
366.678	37.38
366.889	23.04
367.1	49.66
367.311	51.71
367.522	12.8
367.733	2.56
367.944	90.62
368.155	10.75
368.366	18.94
368.577	47.62
368.788	43.52
368.999	61.95
369.209	10.75
369.42	86.53
369.631	29.18
369.842	43.52
370.053	98.81
370.264	66.05
370.474	-22.02
370.685	74.24
370.896	37.38
371.107	64
371.317	45.57
371.528	31.23
371.739	80.38
371.95	51.71
372.16	53.76
372.371	27.14
372.582	49.66
372.792	8.7
373.003	61.95
373.214	-48.64
373.424	64
373.635	43.52
373.846	166.4
374.056	35.33
374.267	18.94
374.477	-34.3
374.688	-15.87
374.898	0.51
375.109	68.09
375.319	35.33
375.53	0.51
375.74	-7.68
375.951	41.47
376.161	-30.21
376.372	49.66
376.582	8.7
376.793	72.19
377.003	18.94
377.214	51.71
377.424	35.33
377.635	98.81
377.845	18.94
378.055	59.9
378.266	31.23
378.476	55.81
378.686	68.09
378.897	-60.93
379.107	90.62
379.317	4.61
379.528	82.43
379.738	27.14
379.948	-46.59
380.158	80.38
380.369	111.1
380.579	41.47
380.789	33.28
380.999	-13.82
381.21	88.57
381.42	55.81
381.63	12.8
381.84	64
382.05	70.14
382.261	80.38
382.471	64
382.681	12.8
382.891	43.52
383.101	47.62
383.311	-11.78
383.521	43.52
383.731	94.72
383.941	80.38
384.151	43.52
384.361	74.24
384.571	39.42
384.781	47.62
384.991	98.81
385.201	121.34
385.411	61.95
385.621	117.25
385.831	76.29
386.041	117.25
386.251	45.57
386.461	59.9
386.671	25.09
386.881	16.9
387.091	76.29
387.301	10.75
387.511	8.7
387.72	88.57
387.93	49.66
388.14	-30.21
388.35	49.66
388.56	51.71
388.769	121.34
388.979	49.66
389.189	51.71
389.399	125.44
389.609	131.58
389.818	92.67
390.028	160.25
390.238	49.66
390.447	33.28
390.657	59.9
390.867	2.56
391.076	70.14
391.286	76.29
391.496	96.77
391.705	70.14
391.915	86.53
392.125	66.05
392.334	49.66
392.544	66.05
392.753	55.81
392.963	39.42
393.172	-1.54
393.382	119.29
393.591	74.24
393.801	-7.68
394.01	31.23
394.22	98.81
394.429	92.67
394.639	23.04
394.848	72.19
395.058	72.19
395.267	80.38
395.477	20.99
395.686	123.39
395.895	98.81
396.105	29.18
396.314	51.71
396.524	123.39
396.733	-7.68
396.942	29.18
397.152	70.14
397.361	117.25
397.57	113.15
397.78	92.67
397.989	117.25
398.198	117.25
398.407	127.49
398.617	27.14
398.826	20.99
399.035	43.52
399.244	90.62
399.453	74.24
399.663	156.16
399.872	74.24
400.081	96.77
400.29	123.39
400.499	92.67
400.708	96.77
400.917	104.96
401.127	88.57
401.336	68.09
401.545	59.9
401.754	100.86
401.963	88.57
402.172	147.97
402.381	123.39
402.59	131.58
402.799	145.92
403.008	170.49
403.217	72.19
403.426	92.67
403.635	98.81
403.844	88.57
404.053	94.72
404.262	92.67
404.471	184.83
404.68	117.25
404.888	129.53
405.097	107.01
405.306	131.58
405.515	150.01
405.724	78.33
405.933	158.21
406.142	168.45
406.35	162.3
406.559	172.54
406.768	98.81
406.977	203.26
407.185	182.78
407.394	180.73
407.603	92.67
407.812	197.12
408.02	199.16
408.229	211.45
408.438	203.26
408.646	174.59
408.855	188.93
409.064	217.6
409.272	283.13
409.481	262.65
409.69	258.56
409.898	250.36
410.107	268.8
410.315	281.08
410.524	264.7
410.733	301.56
410.941	336.38
411.15	287.23
411.358	313.85
411.567	436.73
411.775	369.15
411.984	489.98
412.192	449.02
412.401	428.54
412.609	586.23
412.818	455.16
413.026	487.93
413.234	442.87
413.443	469.5
413.651	473.59
413.86	561.66
414.068	473.59
414.276	575.99
414.485	645.62
414.693	641.53
414.901	739.83
415.11	612.85
415.318	596.47
415.526	598.52
415.734	600.57
415.943	655.86
416.151	719.35
416.359	715.25
416.567	831.99
416.776	805.36
416.984	901.62
417.192	911.86
417.4	838.13
417.608	909.81
417.817	940.53
418.025	991.73
418.233	1137.13
418.441	1026.54
418.649	1200.62
418.857	1108.46
419.065	1317.36
419.273	1237.49
419.481	1206.77
419.689	1354.22
419.897	1366.51
420.105	1397.23
420.313	1429.99
420.521	1440.23
420.729	1556.97
420.937	1591.78
421.145	1632.74
421.353	1681.89
421.561	1757.67
421.769	1882.6
421.977	1835.49
422.185	1847.78
422.393	1982.95
422.601	2212.32
422.809	2114.02
423.017	2118.11
423.224	2230.75
423.432	2263.52
423.64	2279.9
423.848	2511.32
424.056	2441.69
424.263	2738.65
424.471	2570.71
424.679	2634.2
424.887	2953.68
425.094	2982.35
425.302	2882
425.51	2947.54
425.718	3121.62
425.925	3248.59
426.133	3322.32
426.341	3441.1
426.548	3504.59
426.756	3484.11
426.964	3748.29
427.171	3926.47
427.379	4043.2
427.586	3871.17
427.794	4250.05
428.001	4368.83
428.209	4499.9
428.417	4540.86
428.624	4850.1
428.832	4823.48
429.039	4798.9
429.247	4690.36
429.454	5151.15
429.662	5437.87
429.869	5069.23
430.076	5640.62
430.284	5425.58
430.491	5722.54
430.699	5982.63
430.906	5884.33
431.114	6027.68
431.321	6156.71
431.528	6574.49
431.736	6707.61
431.943	7129.49
432.15	6822.3
432.358	6969.75
432.565	7414.16
432.772	7307.66
432.979	7717.26
433.187	7833.99
433.394	7862.66
433.601	8358.27
433.808	8636.8
434.016	8251.78
434.223	8804.73
434.43	9228.66
434.637	8868.22
434.844	9542
435.052	9816.43
435.259	9728.36
435.466	9972.07
435.673	9761.13
435.88	10336.61
436.087	10750.3
436.294	10946.9
436.501	10715.48
436.708	10901.85
436.915	11202.9
437.122	11731.28
437.329	11639.12
437.537	11936.07
437.743	12368.2
437.95	12212.55
438.157	12859.71
438.364	13189.43
438.571	13220.15
438.778	13216.05
438.985	14573.86
439.192	14022.95
439.399	14391.59
439.606	13945.13
439.813	14903.58
440.02	15741.2
440.227	15470.87
440.433	15296.79
440.64	15956.24
440.847	15837.45
441.054	15851.79
441.261	17244.41
441.467	16935.17
441.674	16955.65
441.881	17707.25
442.088	17791.22
442.294	17658.1
442.501	18094.32
442.708	18577.64
442.914	19310.81
443.121	19861.71
443.328	19493.08
443.534	21008.58
443.741	20320.46
443.948	19767.51
444.154	21475.51
444.361	21495.99
444.568	21520.57
444.774	21506.23
444.981	21737.65
445.187	22687.91
445.394	23191.71
445.6	22962.34
445.807	25180.29
446.013	24006.8
446.22	24496.27
446.426	25407.61
446.633	25876.6
446.839	26378.35
447.046	25688.18
447.252	26630.25
447.459	26624.11
447.665	26718.31
447.871	27861.08
448.078	28954.69
448.284	27566.17
448.491	28471.37
448.697	29276.23
448.903	29870.14
449.11	30089.27
449.316	29636.67
449.522	30058.55
449.728	30640.17
449.935	30875.69
450.141	31111.21
450.347	31469.6
450.553	30576.69
450.76	30822.44
450.966	32108.57
451.172	31594.53
451.378	32563.22
451.584	31694.88
451.791	32446.48
451.997	32585.74
452.203	32776.2
452.409	33044.49
452.615	32622.61
452.821	31520.8
453.027	31281.19
453.233	32630.8
453.44	31318.05
453.646	31402.02
453.852	32063.51
454.058	32362.51
454.264	31072.29
454.47	32047.13
454.676	31264.8
454.882	32006.17
455.088	29087.81
455.294	29907
455.5	30056.5
455.705	30509.1
455.911	29306.94
456.117	28946.5
456.323	28348.5
456.529	26476.65
456.735	27914.33
456.941	27361.37
457.147	26855.53
457.352	25901.17
457.558	25659.51
457.764	25677.94
457.97	25053.31
458.176	25198.72
458.381	24543.37
458.587	23128.22
458.793	23273.63
458.999	22229.16
459.204	23529.62
459.41	23109.79
459.616	21878.96
459.821	21358.78
460.027	21313.72
460.233	21018.82
460.438	19914.96
460.644	20181.2
460.85	19353.82
461.055	19063.01
461.261	19065.05
461.466	17553.65
461.672	16967.93
461.878	18391.27
462.083	17152.25
462.289	16742.66
462.494	16707.84
462.7	15853.84
462.905	15358.23
463.111	16015.63
463.316	16218.38
463.522	15632.66
463.727	15784.21
463.932	15843.6
464.138	15419.67
464.343	15892.75
464.549	15284.5
464.754	15685.9
464.959	15536.4
465.165	15339.8
465.37	14782.75
465.575	14371.11
465.781	14979.36
465.986	15321.37
466.191	14410.02
466.397	14473.51
466.602	13752.62
466.807	14141.74
467.012	13875.5
467.218	13820.21
467.423	13875.5
467.628	13852.97
467.833	14504.23
468.038	13875.5
