Data from USB4F104151__111__10-24-55-686.txt Node

Date: Wed Mar 12 10:24:55 EDT 2025
User: louis
Spectrometer: USB4F10415
Trigger mode: 4
Integration Time (sec): 3.000000E-2
Scans to average: 1
Electric dark correction enabled: true
Nonlinearity correction enabled: false
Boxcar width: 0
XAxis mode: Wavelengths
Number of Pixels in Spectrum: 3648
>>>>>Begin Spectral Data<<<<<
178.204	-108.37
178.424	-108.37
178.644	-108.37
178.864	-151.38
179.084	-159.57
179.304	41.13
179.524	12.46
179.744	34.99
179.964	37.03
180.184	-32.6
180.404	-24.4
180.624	-38.74
180.844	32.94
181.064	-28.5
181.283	-1.88
181.503	-44.88
181.723	12.46
181.943	-61.27
182.163	82.09
182.383	6.31
182.602	8.36
182.822	77.99
183.042	80.04
183.262	10.41
183.482	-3.93
183.701	110.76
183.921	51.37
184.141	-44.88
184.361	4.27
184.58	20.65
184.8	59.56
185.02	53.42
185.239	96.43
185.459	24.75
185.679	75.95
185.898	-34.64
186.118	57.51
186.338	69.8
186.557	16.55
186.777	14.51
186.997	39.08
187.216	47.27
187.436	110.76
187.655	92.33
187.875	102.57
188.095	53.42
188.314	112.81
188.534	41.13
188.753	77.99
188.973	121
189.192	82.09
189.412	-5.97
189.631	82.09
189.851	16.55
190.07	98.47
190.29	20.65
190.509	49.32
190.729	-85.84
190.948	12.46
191.168	168.1
191.387	69.8
191.607	10.41
191.826	-36.69
192.045	6.31
192.265	12.46
192.484	71.85
192.704	-42.84
192.923	16.55
193.142	125.1
193.362	61.61
193.581	94.38
193.8	43.18
194.02	135.34
194.239	-55.12
194.458	112.81
194.678	12.46
194.897	-3.93
195.116	86.19
195.335	102.57
195.555	51.37
195.774	18.6
195.993	41.13
196.212	-51.03
196.432	45.23
196.651	32.94
196.87	59.56
197.089	168.1
197.308	22.7
197.528	41.13
197.747	-20.31
197.966	-28.5
198.185	16.55
198.404	-38.74
198.623	90.28
198.842	47.27
199.062	77.99
199.281	125.1
199.5	75.95
199.719	-8.02
199.938	0.17
200.157	37.03
200.376	16.55
200.595	131.24
200.814	43.18
201.033	45.23
201.252	49.32
201.471	0.17
201.69	65.71
201.909	80.04
202.128	65.71
202.347	123.05
202.566	-5.97
202.785	-1.88
203.004	0.17
203.223	69.8
203.442	63.66
203.661	-5.97
203.879	-12.12
204.098	51.37
204.317	61.61
204.536	151.72
204.755	10.41
204.974	-26.45
205.193	16.55
205.411	55.47
205.63	-14.17
205.849	-42.84
206.068	43.18
206.287	6.31
206.505	75.95
206.724	86.19
206.943	39.08
207.162	20.65
207.381	53.42
207.599	12.46
207.818	82.09
208.037	90.28
208.255	16.55
208.474	59.56
208.693	47.27
208.911	10.41
209.13	84.14
209.349	-1.88
209.567	45.23
209.786	77.99
210.005	41.13
210.223	73.9
210.442	30.89
210.661	37.03
210.879	39.08
211.098	22.7
211.316	51.37
211.535	161.96
211.753	-8.02
211.972	63.66
212.191	20.65
212.409	32.94
212.628	51.37
212.846	30.89
213.065	45.23
213.283	55.47
213.502	-3.93
213.72	94.38
213.938	45.23
214.157	61.61
214.375	26.79
214.594	55.47
214.812	47.27
215.031	34.99
215.249	8.36
215.467	18.6
215.686	16.55
215.904	59.56
216.122	39.08
216.341	106.67
216.559	0.17
216.778	45.23
216.996	98.47
217.214	-3.93
217.432	73.9
217.651	-5.97
217.869	43.18
218.087	71.85
218.306	59.56
218.524	86.19
218.742	-14.17
218.96	47.27
219.179	-5.97
219.397	43.18
219.615	18.6
219.833	32.94
220.051	-3.93
220.27	61.61
220.488	41.13
220.706	4.27
220.924	41.13
221.142	49.32
221.36	65.71
221.578	20.65
221.796	16.55
222.015	-8.02
222.233	2.22
222.451	90.28
222.669	8.36
222.887	84.14
223.105	-18.26
223.323	-30.55
223.541	82.09
223.759	26.79
223.977	0.17
224.195	41.13
224.413	2.22
224.631	67.75
224.849	37.03
225.067	104.62
225.285	80.04
225.503	34.99
225.721	16.55
225.939	24.75
226.157	53.42
226.375	73.9
226.592	-8.02
226.81	-22.36
227.028	51.37
227.246	106.67
227.464	28.84
227.682	26.79
227.9	77.99
228.117	22.7
228.335	49.32
228.553	24.75
228.771	61.61
228.989	30.89
229.206	28.84
229.424	49.32
229.642	69.8
229.86	20.65
230.077	4.27
230.295	34.99
230.513	-53.08
230.731	12.46
230.948	71.85
231.166	18.6
231.384	0.17
231.601	28.84
231.819	59.56
232.037	14.51
232.254	28.84
232.472	16.55
232.689	37.03
232.907	16.55
233.125	-14.17
233.342	24.75
233.56	8.36
233.777	43.18
233.995	49.32
234.213	82.09
234.43	45.23
234.648	69.8
234.865	-14.17
235.083	-12.12
235.3	-5.97
235.518	73.9
235.735	69.8
235.953	118.95
236.17	61.61
236.388	4.27
236.605	37.03
236.822	45.23
237.04	30.89
237.257	82.09
237.475	34.99
237.692	-28.5
237.909	73.9
238.127	-1.88
238.344	24.75
238.562	26.79
238.779	16.55
238.996	45.23
239.214	-10.07
239.431	69.8
239.648	28.84
239.865	6.31
240.083	106.67
240.3	77.99
240.517	24.75
240.735	20.65
240.952	123.05
241.169	57.51
241.386	86.19
241.603	47.27
241.821	49.32
242.038	92.33
242.255	114.86
242.472	12.46
242.689	59.56
242.907	67.75
243.124	28.84
243.341	90.28
243.558	2.22
243.775	12.46
243.992	53.42
244.209	22.7
244.426	77.99
244.643	43.18
244.86	-5.97
245.078	16.55
245.295	73.9
245.512	90.28
245.729	34.99
245.946	65.71
246.163	28.84
246.38	4.27
246.597	86.19
246.814	-71.51
247.031	30.89
247.248	69.8
247.464	73.9
247.681	-8.02
247.898	86.19
248.115	69.8
248.332	20.65
248.549	82.09
248.766	59.56
248.983	86.19
249.2	-38.74
249.417	106.67
249.633	28.84
249.85	-12.12
250.067	47.27
250.284	30.89
250.501	67.75
250.717	69.8
250.934	10.41
251.151	-12.12
251.368	71.85
251.585	20.65
251.801	32.94
252.018	94.38
252.235	49.32
252.451	10.41
252.668	0.17
252.885	69.8
253.102	65.71
253.318	16.55
253.535	51.37
253.752	47.27
253.968	0.17
254.185	12.46
254.401	53.42
254.618	32.94
254.835	-5.97
255.051	37.03
255.268	49.32
255.484	53.42
255.701	80.04
255.917	47.27
256.134	6.31
256.351	-20.31
256.567	45.23
256.784	51.37
257	10.41
257.217	18.6
257.433	53.42
257.65	61.61
257.866	63.66
258.082	-75.6
258.299	73.9
258.515	57.51
258.732	75.95
258.948	-38.74
259.165	30.89
259.381	73.9
259.597	30.89
259.814	49.32
260.03	51.37
260.246	24.75
260.463	43.18
260.679	28.84
260.895	34.99
261.112	20.65
261.328	20.65
261.544	2.22
261.761	53.42
261.977	24.75
262.193	-5.97
262.409	55.47
262.626	-10.07
262.842	12.46
263.058	37.03
263.274	16.55
263.49	-5.97
263.707	37.03
263.923	4.27
264.139	16.55
264.355	-48.98
264.571	8.36
264.787	-30.55
265.004	49.32
265.22	51.37
265.436	20.65
265.652	2.22
265.868	39.08
266.084	-3.93
266.3	73.9
266.516	53.42
266.732	-34.64
266.948	-3.93
267.164	-1.88
267.38	59.56
267.596	45.23
267.812	121
268.028	59.56
268.244	26.79
268.46	67.75
268.676	18.6
268.892	51.37
269.108	73.9
269.324	28.84
269.54	51.37
269.756	51.37
269.972	-12.12
270.188	61.61
270.403	41.13
270.619	84.14
270.835	98.47
271.051	82.09
271.267	2.22
271.483	61.61
271.698	0.17
271.914	12.46
272.13	28.84
272.346	55.47
272.562	37.03
272.777	24.75
272.993	4.27
273.209	26.79
273.425	16.55
273.64	34.99
273.856	-22.36
274.072	73.9
274.287	39.08
274.503	2.22
274.719	12.46
274.934	6.31
275.15	41.13
275.366	53.42
275.581	47.27
275.797	59.56
276.012	22.7
276.228	20.65
276.444	67.75
276.659	59.56
276.875	-24.4
277.09	32.94
277.306	-14.17
277.521	16.55
277.737	67.75
277.952	28.84
278.168	8.36
278.383	73.9
278.599	-46.93
278.814	100.52
279.03	-98.13
279.245	18.6
279.461	43.18
279.676	90.28
279.892	47.27
280.107	-36.69
280.322	37.03
280.538	32.94
280.753	-5.97
280.969	106.67
281.184	22.7
281.399	102.57
281.615	57.51
281.83	43.18
282.045	0.17
282.26	-1.88
282.476	30.89
282.691	49.32
282.906	-10.07
283.122	100.52
283.337	8.36
283.552	118.95
283.767	26.79
283.983	43.18
284.198	37.03
284.413	39.08
284.628	-69.46
284.843	96.43
285.058	26.79
285.274	24.75
285.489	53.42
285.704	45.23
285.919	0.17
286.134	28.84
286.349	49.32
286.564	20.65
286.779	102.57
286.995	73.9
287.21	22.7
287.425	80.04
287.64	37.03
287.855	73.9
288.07	41.13
288.285	73.9
288.5	39.08
288.715	69.8
288.93	86.19
289.145	16.55
289.36	57.51
289.575	88.23
289.79	57.51
290.004	61.61
290.219	32.94
290.434	12.46
290.649	37.03
290.864	61.61
291.079	118.95
291.294	65.71
291.509	24.75
291.724	16.55
291.938	47.27
292.153	0.17
292.368	-30.55
292.583	80.04
292.798	55.47
293.012	32.94
293.227	100.52
293.442	49.32
293.657	49.32
293.871	125.1
294.086	0.17
294.301	32.94
294.516	98.47
294.73	34.99
294.945	-22.36
295.16	6.31
295.374	65.71
295.589	86.19
295.804	90.28
296.018	-20.31
296.233	49.32
296.447	22.7
296.662	37.03
296.877	32.94
297.091	102.57
297.306	-36.69
297.52	30.89
297.735	94.38
297.949	18.6
298.164	82.09
298.378	49.32
298.593	100.52
298.807	71.85
299.022	80.04
299.236	112.81
299.451	53.42
299.665	26.79
299.88	39.08
300.094	16.55
300.309	30.89
300.523	65.71
300.737	22.7
300.952	39.08
301.166	121
301.381	41.13
301.595	18.6
301.809	80.04
302.024	-14.17
302.238	16.55
302.452	73.9
302.667	-14.17
302.881	129.19
303.095	47.27
303.309	45.23
303.524	4.27
303.738	12.46
303.952	57.51
304.166	92.33
304.381	20.65
304.595	16.55
304.809	12.46
305.023	131.24
305.237	37.03
305.452	49.32
305.666	39.08
305.88	151.72
306.094	77.99
306.308	92.33
306.522	77.99
306.736	10.41
306.95	80.04
307.164	18.6
307.379	16.55
307.593	84.14
307.807	94.38
308.021	108.71
308.235	47.27
308.449	73.9
308.663	20.65
308.877	143.53
309.091	84.14
309.305	61.61
309.519	53.42
309.733	67.75
309.947	-55.12
310.161	28.84
310.374	51.37
310.588	127.14
310.802	14.51
311.016	82.09
311.23	141.48
311.444	14.51
311.658	-26.45
311.872	98.47
312.085	86.19
312.299	4.27
312.513	86.19
312.727	61.61
312.941	0.17
313.154	139.43
313.368	69.8
313.582	24.75
313.796	41.13
314.009	41.13
314.223	92.33
314.437	37.03
314.651	28.84
314.864	106.67
315.078	24.75
315.292	92.33
315.505	37.03
315.719	69.8
315.933	92.33
316.146	32.94
316.36	10.41
316.573	53.42
316.787	37.03
317.001	32.94
317.214	37.03
317.428	123.05
317.641	-28.5
317.855	47.27
318.068	67.75
318.282	6.31
318.495	116.9
318.709	75.95
318.922	28.84
319.136	139.43
319.349	96.43
319.563	75.95
319.776	82.09
319.99	61.61
320.203	43.18
320.417	32.94
320.63	67.75
320.843	94.38
321.057	84.14
321.27	100.52
321.483	14.51
321.697	73.9
321.91	82.09
322.124	41.13
322.337	12.46
322.55	28.84
322.763	20.65
322.977	2.22
323.19	2.22
323.403	24.75
323.617	6.31
323.83	10.41
324.043	8.36
324.256	61.61
324.469	24.75
324.683	-5.97
324.896	18.6
325.109	92.33
325.322	69.8
325.535	47.27
325.748	69.8
325.962	-40.79
326.175	57.51
326.388	59.56
326.601	129.19
326.814	94.38
327.027	77.99
327.24	90.28
327.453	-20.31
327.666	77.99
327.879	37.03
328.092	141.48
328.305	102.57
328.518	65.71
328.731	32.94
328.944	49.32
329.157	34.99
329.37	41.13
329.583	-42.84
329.796	96.43
330.009	2.22
330.222	57.51
330.435	2.22
330.648	75.95
330.861	55.47
331.073	43.18
331.286	26.79
331.499	41.13
331.712	20.65
331.925	10.41
332.138	18.6
332.35	75.95
332.563	-32.6
332.776	59.56
332.989	98.47
333.202	96.43
333.414	-12.12
333.627	71.85
333.84	8.36
334.053	71.85
334.265	73.9
334.478	-1.88
334.691	51.37
334.903	0.17
335.116	26.79
335.329	49.32
335.541	4.27
335.754	69.8
335.966	26.79
336.179	39.08
336.392	-3.93
336.604	20.65
336.817	43.18
337.029	43.18
337.242	26.79
337.454	75.95
337.667	82.09
337.88	73.9
338.092	55.47
338.305	45.23
338.517	51.37
338.729	-3.93
338.942	30.89
339.154	45.23
339.367	37.03
339.579	37.03
339.792	61.61
340.004	57.51
340.217	4.27
340.429	26.79
340.641	75.95
340.854	65.71
341.066	28.84
341.278	18.6
341.491	84.14
341.703	47.27
341.915	98.47
342.128	73.9
342.34	75.95
342.552	84.14
342.764	28.84
342.977	26.79
343.189	43.18
343.401	34.99
343.613	34.99
343.826	43.18
344.038	82.09
344.25	125.1
344.462	24.75
344.674	121
344.886	43.18
345.099	73.9
345.311	55.47
345.523	2.22
345.735	6.31
345.947	45.23
346.159	28.84
346.371	43.18
346.583	53.42
346.795	102.57
347.007	37.03
347.219	59.56
347.431	-22.36
347.643	92.33
347.855	59.56
348.067	131.24
348.279	39.08
348.491	100.52
348.703	12.46
348.915	86.19
349.127	45.23
349.339	82.09
349.551	61.61
349.763	65.71
349.975	12.46
350.187	90.28
350.399	26.79
350.61	12.46
350.822	100.52
351.034	88.23
351.246	22.7
351.458	82.09
351.669	4.27
351.881	65.71
352.093	43.18
352.305	88.23
352.517	137.38
352.728	110.76
352.94	32.94
353.152	98.47
353.363	-10.07
353.575	108.71
353.787	32.94
353.999	121
354.21	100.52
354.422	-22.36
354.633	37.03
354.845	61.61
355.057	16.55
355.268	77.99
355.48	18.6
355.692	14.51
355.903	118.95
356.115	53.42
356.326	12.46
356.538	69.8
356.749	49.32
356.961	59.56
357.172	106.67
357.384	133.29
357.595	47.27
357.807	84.14
358.018	118.95
358.23	71.85
358.441	71.85
358.653	123.05
358.864	67.75
359.075	61.61
359.287	118.95
359.498	32.94
359.709	92.33
359.921	53.42
360.132	106.67
360.344	51.37
360.555	49.32
360.766	14.51
360.977	0.17
361.189	69.8
361.4	67.75
361.611	71.85
361.823	176.3
362.034	4.27
362.245	4.27
362.456	77.99
362.667	129.19
362.879	84.14
363.09	6.31
363.301	53.42
363.512	135.34
363.723	-24.4
363.935	69.8
364.146	161.96
364.357	45.23
364.568	69.8
364.779	28.84
364.99	98.47
365.201	28.84
365.412	41.13
365.623	-14.17
365.834	45.23
366.045	-22.36
366.256	26.79
366.467	73.9
366.678	20.65
366.889	30.89
367.1	53.42
367.311	69.8
367.522	-1.88
367.733	28.84
367.944	69.8
368.155	80.04
368.366	131.24
368.577	86.19
368.788	45.23
368.999	61.61
369.209	69.8
369.42	102.57
369.631	86.19
369.842	80.04
370.053	125.1
370.264	108.71
370.474	24.75
370.685	127.14
370.896	80.04
371.107	63.66
371.317	80.04
371.528	4.27
371.739	34.99
371.95	18.6
372.16	53.42
372.371	53.42
372.582	55.47
372.792	16.55
373.003	63.66
373.214	143.53
373.424	59.56
373.635	32.94
373.846	110.76
374.056	84.14
374.267	84.14
374.477	51.37
374.688	0.17
374.898	82.09
375.109	192.68
375.319	102.57
375.53	10.41
375.74	127.14
375.951	37.03
376.161	98.47
376.372	37.03
376.582	2.22
376.793	49.32
377.003	94.38
377.214	59.56
377.424	114.86
377.635	84.14
377.845	37.03
378.055	77.99
378.266	37.03
378.476	82.09
378.686	-10.07
378.897	92.33
379.107	71.85
379.317	114.86
379.528	63.66
379.738	71.85
379.948	16.55
380.158	53.42
380.369	86.19
380.579	20.65
380.789	116.9
380.999	57.51
381.21	43.18
381.42	106.67
381.63	53.42
381.84	45.23
382.05	121
382.261	82.09
382.471	75.95
382.681	24.75
382.891	71.85
383.101	26.79
383.311	2.22
383.521	98.47
383.731	145.58
383.941	0.17
384.151	37.03
384.361	61.61
384.571	86.19
384.781	80.04
384.991	69.8
385.201	161.96
385.411	8.36
385.621	174.25
385.831	69.8
386.041	77.99
386.251	86.19
386.461	86.19
386.671	88.23
386.881	82.09
387.091	98.47
387.301	96.43
387.511	67.75
387.72	123.05
387.93	94.38
388.14	65.71
388.35	57.51
388.56	26.79
388.769	94.38
388.979	118.95
389.189	-3.93
389.399	10.41
389.609	98.47
389.818	88.23
390.028	88.23
390.238	71.85
390.447	108.71
390.657	61.61
390.867	53.42
391.076	94.38
391.286	73.9
391.496	61.61
391.705	12.46
391.915	100.52
392.125	114.86
392.334	96.43
392.544	131.24
392.753	110.76
392.963	41.13
393.172	153.77
393.382	90.28
393.591	94.38
393.801	143.53
394.01	168.1
394.22	92.33
394.429	133.29
394.639	65.71
394.848	71.85
395.058	53.42
395.267	32.94
395.477	176.3
395.686	77.99
395.895	77.99
396.105	135.34
396.314	77.99
396.524	137.38
396.733	131.24
396.942	118.95
397.152	143.53
397.361	30.89
397.57	112.81
397.78	178.34
397.989	143.53
398.198	178.34
398.407	141.48
398.617	114.86
398.826	106.67
399.035	127.14
399.244	145.58
399.453	194.73
399.663	100.52
399.872	135.34
400.081	170.15
400.29	145.58
400.499	114.86
400.708	227.5
400.917	100.52
401.127	137.38
401.336	118.95
401.545	143.53
401.754	168.1
401.963	186.54
402.172	172.2
402.381	108.71
402.59	86.19
402.799	118.95
403.008	51.37
403.217	125.1
403.426	133.29
403.635	114.86
403.844	141.48
404.053	153.77
404.262	75.95
404.471	172.2
404.68	207.02
404.888	141.48
405.097	209.06
405.306	192.68
405.515	180.39
405.724	188.58
405.933	204.97
406.142	176.3
406.35	217.26
406.559	145.58
406.768	192.68
406.977	229.54
407.185	221.35
407.394	252.07
407.603	86.19
407.812	250.02
408.02	260.26
408.229	202.92
408.438	360.61
408.646	166.06
408.855	313.51
409.064	276.65
409.272	278.69
409.481	348.33
409.69	358.57
409.898	336.04
410.107	317.61
410.315	422.05
410.524	415.91
410.733	336.04
410.941	352.42
411.15	446.63
411.358	434.34
411.567	454.82
411.775	358.57
411.984	510.11
412.192	524.45
412.401	501.92
412.609	602.27
412.818	573.6
413.026	561.31
413.234	598.18
413.443	604.32
413.651	622.75
413.86	610.47
414.068	671.9
414.276	723.1
414.485	702.62
414.693	772.25
414.901	731.3
415.11	727.2
415.318	745.63
415.526	903.32
415.734	948.38
415.943	925.85
416.151	907.42
416.359	942.24
416.567	1015.96
416.776	1085.59
416.984	1020.06
417.192	1110.17
417.4	1116.31
417.608	1128.6
417.817	1140.89
418.025	1192.09
418.233	1261.72
418.441	1351.83
418.649	1351.83
418.857	1484.95
419.065	1403.03
419.273	1357.97
419.481	1560.72
419.689	1484.95
419.897	1642.64
420.105	1790.1
420.313	1734.8
420.521	1964.17
420.729	1788.05
420.937	1902.73
421.145	1937.55
421.353	2097.29
421.561	2150.54
421.769	2275.46
421.977	2236.55
422.185	2324.62
422.393	2371.72
422.601	2470.02
422.809	2519.17
423.017	2601.09
423.224	2627.71
423.432	2807.94
423.64	2750.59
423.848	3055.74
424.056	2900.09
424.263	3190.91
424.471	3086.46
424.679	3285.11
424.887	3584.12
425.094	3539.06
425.302	3571.83
425.51	3678.32
425.718	3903.6
425.925	3833.97
426.133	3975.28
426.341	4163.69
426.548	4302.95
426.756	4593.76
426.964	4337.77
427.171	4733.03
427.379	4872.29
427.586	4905.06
427.794	4989.02
428.001	5302.36
428.209	5353.56
428.417	5253.21
428.624	5871.7
428.832	5795.92
429.039	5830.74
429.247	5779.54
429.454	6357.07
429.662	6797.38
429.869	6053.97
430.076	6643.78
430.284	6473.8
430.491	7049.28
430.699	7280.7
430.906	7299.13
431.114	7290.94
431.321	7407.67
431.528	7784.5
431.736	8126.51
431.943	8593.45
432.15	8300.59
432.358	8294.44
432.565	9052.19
432.772	8861.73
432.979	9322.52
433.187	9539.61
433.394	9570.33
433.601	10133.52
433.808	10162.19
434.016	10127.38
434.223	10510.35
434.43	11212.8
434.637	11046.91
434.844	11542.52
435.052	11952.12
435.259	11554.81
435.466	11929.59
435.673	11745.27
435.88	12580.84
436.087	13320.16
436.294	13230.05
436.501	13010.92
436.708	12965.86
436.915	13717.47
437.122	14127.06
437.329	14151.63
437.537	14522.32
437.743	14778.31
437.95	14499.79
438.157	15378.37
438.364	15923.13
438.571	15863.74
438.778	15828.92
438.985	17684.38
439.192	16875.43
439.399	17500.06
439.606	16770.99
439.813	17923.99
440.02	18925.45
440.227	18771.85
440.433	18732.94
440.64	18978.7
440.847	18927.5
441.054	19527.55
441.261	20580.21
441.467	20283.25
441.674	20758.38
441.881	21497.7
442.088	21307.24
442.294	21280.61
442.501	21827.42
442.708	22224.73
442.914	23197.51
443.121	23867.2
443.328	23422.79
443.534	25153.32
443.741	24395.57
443.948	23992.12
444.154	25831.2
444.361	25358.12
444.568	25855.78
444.774	25679.65
444.981	26337.05
445.187	27174.67
445.394	28290.81
445.6	27772.67
445.807	30428.89
446.013	29003.5
446.22	29642.47
446.426	30643.93
446.633	30973.65
446.839	32044.74
447.046	30199.52
447.252	32372.41
447.459	32331.45
447.665	32317.12
447.871	33789.61
448.078	34856.6
448.284	33083.06
448.491	34217.63
448.697	35524.24
448.903	36046.47
449.11	36365.95
449.316	35554.96
449.522	36011.65
449.728	37037.69
449.935	37353.07
450.141	36939.38
450.347	37887.59
450.553	37119.6
450.76	37336.69
450.966	38323.81
451.172	37977.7
451.378	38876.76
451.584	38153.83
451.791	38823.51
451.997	38708.83
452.203	39482.96
452.409	39173.72
452.615	39261.78
452.821	37883.5
453.027	37598.83
453.233	39259.73
453.44	37705.32
453.646	37873.26
453.852	38153.83
454.058	38516.32
454.264	37488.24
454.47	38432.35
454.676	37209.71
454.882	38379.11
455.088	35018.39
455.294	35552.91
455.5	36269.7
455.705	36578.94
455.911	35174.03
456.117	34295.46
456.323	33584.81
456.529	31854.28
456.735	33482.41
456.941	32513.72
457.147	32085.7
457.352	31030.99
457.558	30578.39
457.764	30682.84
457.97	30181.09
458.176	29308.65
458.381	29421.29
458.587	28120.83
458.793	28202.75
458.999	26898.19
459.204	28520.18
459.41	27582.21
459.616	25712.42
459.821	26060.57
460.027	25583.4
460.233	25241.39
460.438	23877.44
460.644	24217.4
460.85	23088.97
461.055	23023.44
461.261	22746.96
461.466	21200.74
461.672	20410.23
461.878	21991.26
462.083	20651.89
462.289	20143.99
462.494	19984.25
462.7	18990.98
462.905	18765.71
463.111	19404.67
463.316	19302.28
463.522	18972.55
463.727	18829.2
463.932	18782.09
464.138	18626.45
464.343	18755.47
464.549	18263.96
464.754	18755.47
464.959	18691.98
465.165	18397.07
465.37	17837.98
465.575	17358.75
465.781	18208.66
465.986	18214.8
466.191	17319.84
466.397	17299.36
466.602	16514.99
466.807	17196.96
467.012	17035.17
467.218	16900.01
467.423	16611.25
467.628	16848.81
