Data from USB4F104151__192__10-29-26-016.txt Node

Date: Wed Mar 12 10:29:26 EDT 2025
User: louis
Spectrometer: USB4F10415
Trigger mode: 4
Integration Time (sec): 3.000000E-2
Scans to average: 1
Electric dark correction enabled: true
Nonlinearity correction enabled: false
Boxcar width: 0
XAxis mode: Wavelengths
Number of Pixels in Spectrum: 3648
>>>>>Begin Spectral Data<<<<<
178.204	-91.13
178.424	-91.13
178.644	-91.13
178.864	-66.56
179.084	-146.43
179.304	9.22
179.524	17.41
179.744	33.79
179.964	41.98
180.184	-17.41
180.404	-39.94
180.624	-7.17
180.844	-29.7
181.064	-17.41
181.283	58.37
181.503	-25.6
181.723	-23.55
181.943	21.5
182.163	17.41
182.383	-7.17
182.602	-74.75
182.822	99.33
183.042	74.75
183.262	-7.17
183.482	27.65
183.701	29.7
183.921	54.27
184.141	-35.84
184.361	95.23
184.58	109.57
184.8	15.36
185.02	5.12
185.239	101.37
185.459	72.7
185.679	48.13
185.898	-11.26
186.118	56.32
186.338	-7.17
186.557	-1.02
186.777	25.6
186.997	11.26
187.216	27.65
187.436	68.61
187.655	9.22
187.875	-46.08
188.095	72.7
188.314	62.46
188.534	50.18
188.753	27.65
188.973	27.65
189.192	74.75
189.412	52.22
189.631	3.07
189.851	33.79
190.07	48.13
190.29	80.89
190.509	33.79
190.729	-23.55
190.948	9.22
191.168	82.94
191.387	48.13
191.607	-46.08
191.826	105.47
192.045	-3.07
192.265	37.89
192.484	33.79
192.704	56.32
192.923	-23.55
193.142	89.09
193.362	21.5
193.581	78.85
193.8	41.98
194.02	39.94
194.239	17.41
194.458	35.84
194.678	35.84
194.897	-1.02
195.116	11.26
195.335	50.18
195.555	-7.17
195.774	78.85
195.993	1.02
196.212	5.12
196.432	23.55
196.651	50.18
196.87	44.03
197.089	119.81
197.308	35.84
197.528	17.41
197.747	-15.36
197.966	41.98
198.185	56.32
198.404	29.7
198.623	50.18
198.842	-5.12
199.062	56.32
199.281	44.03
199.5	68.61
199.719	91.13
199.938	48.13
200.157	48.13
200.376	41.98
200.595	50.18
200.814	58.37
201.033	19.46
201.252	132.09
201.471	33.79
201.69	29.7
201.909	64.51
202.128	50.18
202.347	76.8
202.566	19.46
202.785	41.98
203.004	-3.07
203.223	39.94
203.442	-9.22
203.661	48.13
203.879	50.18
204.098	70.65
204.317	25.6
204.536	82.94
204.755	64.51
204.974	29.7
205.193	46.08
205.411	62.46
205.63	37.89
205.849	-11.26
206.068	46.08
206.287	48.13
206.505	101.37
206.724	15.36
206.943	5.12
207.162	119.81
207.381	41.98
207.599	23.55
207.818	41.98
208.037	91.13
208.255	89.09
208.474	62.46
208.693	68.61
208.911	44.03
209.13	-19.46
209.349	70.65
209.567	46.08
209.786	97.28
210.005	56.32
210.223	56.32
210.442	-25.6
210.661	1.02
210.879	-1.02
211.098	7.17
211.316	72.7
211.535	93.18
211.753	-35.84
211.972	78.85
212.191	-19.46
212.409	39.94
212.628	130.05
212.846	107.52
213.065	76.8
213.283	70.65
213.502	11.26
213.72	13.31
213.938	82.94
214.157	74.75
214.375	56.32
214.594	17.41
214.812	27.65
215.031	-11.26
215.249	31.74
215.467	33.79
215.686	37.89
215.904	121.85
216.122	46.08
216.341	76.8
216.559	78.85
216.778	48.13
216.996	70.65
217.214	78.85
217.432	-44.03
217.651	13.31
217.869	87.04
218.087	17.41
218.306	58.37
218.524	80.89
218.742	9.22
218.96	74.75
219.179	31.74
219.397	109.57
219.615	7.17
219.833	52.22
220.051	-27.65
220.27	5.12
220.488	9.22
220.706	44.03
220.924	29.7
221.142	11.26
221.36	91.13
221.578	-21.5
221.796	-5.12
222.015	-46.08
222.233	41.98
222.451	97.28
222.669	-39.94
222.887	39.94
223.105	17.41
223.323	50.18
223.541	-7.17
223.759	35.84
223.977	1.02
224.195	66.56
224.413	121.85
224.631	78.85
224.849	-9.22
225.067	60.42
225.285	-27.65
225.503	64.51
225.721	52.22
225.939	-15.36
226.157	7.17
226.375	80.89
226.592	17.41
226.81	37.89
227.028	78.85
227.246	123.9
227.464	76.8
227.682	99.33
227.9	105.47
228.117	33.79
228.335	39.94
228.553	19.46
228.771	70.65
228.989	64.51
229.206	76.8
229.424	50.18
229.642	21.5
229.86	46.08
230.077	80.89
230.295	17.41
230.513	99.33
230.731	46.08
230.948	72.7
231.166	76.8
231.384	31.74
231.601	35.84
231.819	89.09
232.037	-70.65
232.254	58.37
232.472	31.74
232.689	-9.22
232.907	144.38
233.125	21.5
233.342	1.02
233.56	15.36
233.777	15.36
233.995	95.23
234.213	29.7
234.43	52.22
234.648	-1.02
234.865	91.13
235.083	66.56
235.3	-9.22
235.518	-5.12
235.735	62.46
235.953	19.46
236.17	9.22
236.388	132.09
236.605	7.17
236.822	99.33
237.04	95.23
237.257	111.61
237.475	-7.17
237.692	66.56
237.909	39.94
238.127	-13.31
238.344	78.85
238.562	72.7
238.779	52.22
238.996	-5.12
239.214	113.66
239.431	93.18
239.648	37.89
239.865	115.71
240.083	13.31
240.3	84.99
240.517	44.03
240.735	27.65
240.952	130.05
241.169	82.94
241.386	33.79
241.603	31.74
241.821	1.02
242.038	7.17
242.255	111.61
242.472	-35.84
242.689	48.13
242.907	29.7
243.124	-3.07
243.341	54.27
243.558	17.41
243.775	-1.02
243.992	68.61
244.209	66.56
244.426	82.94
244.643	48.13
244.86	132.09
245.078	35.84
245.295	74.75
245.512	58.37
245.729	31.74
245.946	33.79
246.163	-29.7
246.38	27.65
246.597	-9.22
246.814	33.79
247.031	7.17
247.248	56.32
247.464	121.85
247.681	107.52
247.898	21.5
248.115	72.7
248.332	35.84
248.549	46.08
248.766	23.55
248.983	50.18
249.2	119.81
249.417	23.55
249.633	-13.31
249.85	72.7
250.067	62.46
250.284	58.37
250.501	134.14
250.717	68.61
250.934	-15.36
251.151	93.18
251.368	7.17
251.585	72.7
251.801	107.52
252.018	62.46
252.235	74.75
252.451	-33.79
252.668	13.31
252.885	52.22
253.102	46.08
253.318	25.6
253.535	72.7
253.752	66.56
253.968	72.7
254.185	-37.89
254.401	19.46
254.618	46.08
254.835	44.03
255.051	103.42
255.268	46.08
255.484	68.61
255.701	64.51
255.917	48.13
256.134	56.32
256.351	5.12
256.567	25.6
256.784	-37.89
257	15.36
257.217	136.19
257.433	54.27
257.65	17.41
257.866	35.84
258.082	31.74
258.299	17.41
258.515	80.89
258.732	11.26
258.948	-9.22
259.165	64.51
259.381	37.89
259.597	37.89
259.814	52.22
260.03	46.08
260.246	82.94
260.463	11.26
260.679	80.89
260.895	39.94
261.112	50.18
261.328	44.03
261.544	25.6
261.761	109.57
261.977	5.12
262.193	-44.03
262.409	87.04
262.626	46.08
262.842	-19.46
263.058	64.51
263.274	35.84
263.49	74.75
263.707	52.22
263.923	58.37
264.139	23.55
264.355	-19.46
264.571	158.72
264.787	54.27
265.004	58.37
265.22	-19.46
265.436	11.26
265.652	5.12
265.868	99.33
266.084	-39.94
266.3	50.18
266.516	48.13
266.732	11.26
266.948	25.6
267.164	97.28
267.38	35.84
267.596	60.42
267.812	62.46
268.028	17.41
268.244	60.42
268.46	15.36
268.676	91.13
268.892	68.61
269.108	91.13
269.324	-13.31
269.54	1.02
269.756	91.13
269.972	11.26
270.188	95.23
270.403	-46.08
270.619	84.99
270.835	82.94
271.051	54.27
271.267	-5.12
271.483	29.7
271.698	109.57
271.914	54.27
272.13	33.79
272.346	-1.02
272.562	68.61
272.777	142.33
272.993	25.6
273.209	37.89
273.425	13.31
273.64	111.61
273.856	95.23
274.072	144.38
274.287	74.75
274.503	68.61
274.719	29.7
274.934	56.32
275.15	13.31
275.366	-29.7
275.581	64.51
275.797	78.85
276.012	-56.32
276.228	64.51
276.444	13.31
276.659	150.53
276.875	-1.02
277.09	9.22
277.306	58.37
277.521	60.42
277.737	27.65
277.952	144.38
278.168	82.94
278.383	-46.08
278.599	74.75
278.814	39.94
279.03	-7.17
279.245	66.56
279.461	91.13
279.676	84.99
279.892	64.51
280.107	50.18
280.322	62.46
280.538	99.33
280.753	91.13
280.969	52.22
281.184	84.99
281.399	58.37
281.615	19.46
281.83	93.18
282.045	-62.46
282.26	41.98
282.476	11.26
282.691	74.75
282.906	54.27
283.122	76.8
283.337	-5.12
283.552	95.23
283.767	56.32
283.983	123.9
284.198	-1.02
284.413	91.13
284.628	1.02
284.843	64.51
285.058	103.42
285.274	41.98
285.489	115.71
285.704	39.94
285.919	-11.26
286.134	52.22
286.349	50.18
286.564	68.61
286.779	76.8
286.995	21.5
287.21	-46.08
287.425	35.84
287.64	33.79
287.855	103.42
288.07	-52.22
288.285	48.13
288.5	-1.02
288.715	66.56
288.93	13.31
289.145	25.6
289.36	134.14
289.575	41.98
289.79	91.13
290.004	1.02
290.219	101.37
290.434	70.65
290.649	37.89
290.864	-35.84
291.079	37.89
291.294	48.13
291.509	101.37
291.724	11.26
291.938	78.85
292.153	82.94
292.368	41.98
292.583	25.6
292.798	31.74
293.012	74.75
293.227	-60.42
293.442	7.17
293.657	56.32
293.871	128
294.086	138.24
294.301	54.27
294.516	35.84
294.73	33.79
294.945	17.41
295.16	13.31
295.374	103.42
295.589	15.36
295.804	11.26
296.018	87.04
296.233	64.51
296.447	41.98
296.662	84.99
296.877	84.99
297.091	89.09
297.306	142.33
297.52	91.13
297.735	31.74
297.949	58.37
298.164	41.98
298.378	29.7
298.593	35.84
298.807	-15.36
299.022	68.61
299.236	105.47
299.451	84.99
299.665	74.75
299.88	-23.55
300.094	64.51
300.309	35.84
300.523	58.37
300.737	33.79
300.952	35.84
301.166	23.55
301.381	97.28
301.595	41.98
301.809	-1.02
302.024	58.37
302.238	66.56
302.452	136.19
302.667	39.94
302.881	113.66
303.095	128
303.309	72.7
303.524	91.13
303.738	46.08
303.952	-25.6
304.166	70.65
304.381	-1.02
304.595	134.14
304.809	7.17
305.023	74.75
305.237	25.6
305.452	46.08
305.666	-19.46
305.88	70.65
306.094	91.13
306.308	72.7
306.522	70.65
306.736	44.03
306.95	74.75
307.164	78.85
307.379	35.84
307.593	109.57
307.807	33.79
308.021	41.98
308.235	62.46
308.449	15.36
308.663	109.57
308.877	35.84
309.091	82.94
309.305	56.32
309.519	41.98
309.733	111.61
309.947	54.27
310.161	74.75
310.374	91.13
310.588	134.14
310.802	41.98
311.016	82.94
311.23	105.47
311.444	121.85
311.658	52.22
311.872	93.18
312.085	181.25
312.299	44.03
312.513	72.7
312.727	41.98
312.941	33.79
313.154	74.75
313.368	99.33
313.582	29.7
313.796	41.98
314.009	60.42
314.223	15.36
314.437	25.6
314.651	107.52
314.864	121.85
315.078	7.17
315.292	5.12
315.505	27.65
315.719	35.84
315.933	82.94
316.146	41.98
316.36	-15.36
316.573	37.89
316.787	33.79
317.001	74.75
317.214	5.12
317.428	72.7
317.641	29.7
317.855	33.79
318.068	-23.55
318.282	66.56
318.495	103.42
318.709	64.51
318.922	72.7
319.136	80.89
319.349	70.65
319.563	70.65
319.776	117.76
319.99	33.79
320.203	87.04
320.417	62.46
320.63	64.51
320.843	117.76
321.057	56.32
321.27	9.22
321.483	54.27
321.697	123.9
321.91	15.36
322.124	50.18
322.337	21.5
322.55	91.13
322.763	70.65
322.977	78.85
323.19	-27.65
323.403	41.98
323.617	11.26
323.83	91.13
324.043	78.85
324.256	25.6
324.469	-7.17
324.683	78.85
324.896	-21.5
325.109	56.32
325.322	62.46
325.535	76.8
325.748	78.85
325.962	52.22
326.175	74.75
326.388	27.65
326.601	39.94
326.814	35.84
327.027	68.61
327.24	82.94
327.453	17.41
327.666	54.27
327.879	68.61
328.092	50.18
328.305	-17.41
328.518	25.6
328.731	39.94
328.944	48.13
329.157	91.13
329.37	68.61
329.583	140.29
329.796	46.08
330.009	33.79
330.222	68.61
330.435	33.79
330.648	107.52
330.861	89.09
331.073	33.79
331.286	62.46
331.499	103.42
331.712	60.42
331.925	31.74
332.138	-31.74
332.35	56.32
332.563	39.94
332.776	91.13
332.989	41.98
333.202	50.18
333.414	74.75
333.627	99.33
333.84	44.03
334.053	101.37
334.265	23.55
334.478	82.94
334.691	25.6
334.903	117.76
335.116	15.36
335.329	11.26
335.541	7.17
335.754	84.99
335.966	29.7
336.179	7.17
336.392	-17.41
336.604	46.08
336.817	87.04
337.029	117.76
337.242	89.09
337.454	82.94
337.667	-15.36
337.88	82.94
338.092	134.14
338.305	41.98
338.517	1.02
338.729	54.27
338.942	74.75
339.154	-52.22
339.367	50.18
339.579	76.8
339.792	-17.41
340.004	19.46
340.217	58.37
340.429	-9.22
340.641	76.8
340.854	35.84
341.066	97.28
341.278	93.18
341.491	121.85
341.703	91.13
341.915	9.22
342.128	74.75
342.34	82.94
342.552	33.79
342.764	68.61
342.977	99.33
343.189	89.09
343.401	95.23
343.613	-27.65
343.826	48.13
344.038	82.94
344.25	66.56
344.462	15.36
344.674	64.51
344.886	74.75
345.099	107.52
345.311	87.04
345.523	41.98
345.735	1.02
345.947	70.65
346.159	44.03
346.371	80.89
346.583	60.42
346.795	91.13
347.007	54.27
347.219	119.81
347.431	48.13
347.643	46.08
347.855	33.79
348.067	130.05
348.279	-15.36
348.491	60.42
348.703	89.09
348.915	72.7
349.127	64.51
349.339	74.75
349.551	-9.22
349.763	128
349.975	25.6
350.187	58.37
350.399	89.09
350.61	78.85
350.822	78.85
351.034	74.75
351.246	91.13
351.458	103.42
351.669	97.28
351.881	70.65
352.093	80.89
352.305	74.75
352.517	46.08
352.728	113.66
352.94	136.19
353.152	68.61
353.363	-13.31
353.575	58.37
353.787	95.23
353.999	50.18
354.21	64.51
354.422	87.04
354.633	-11.26
354.845	7.17
355.057	80.89
355.268	46.08
355.48	37.89
355.692	23.55
355.903	74.75
356.115	68.61
356.326	25.6
356.538	115.71
356.749	93.18
356.961	78.85
357.172	58.37
357.384	13.31
357.595	150.53
357.807	123.9
358.018	111.61
358.23	-7.17
358.441	78.85
358.653	48.13
358.864	52.22
359.075	5.12
359.287	64.51
359.498	78.85
359.709	58.37
359.921	-39.94
360.132	60.42
360.344	78.85
360.555	25.6
360.766	130.05
360.977	50.18
361.189	11.26
361.4	60.42
361.611	119.81
361.823	78.85
362.034	91.13
362.245	95.23
362.456	74.75
362.667	107.52
362.879	80.89
363.09	78.85
363.301	128
363.512	70.65
363.723	80.89
363.935	-25.6
364.146	58.37
364.357	80.89
364.568	115.71
364.779	107.52
364.99	144.38
365.201	97.28
365.412	78.85
365.623	58.37
365.834	50.18
366.045	54.27
366.256	103.42
366.467	56.32
366.678	97.28
366.889	103.42
367.1	50.18
367.311	132.09
367.522	99.33
367.733	82.94
367.944	82.94
368.155	52.22
368.366	148.48
368.577	62.46
368.788	21.5
368.999	23.55
369.209	11.26
369.42	173.05
369.631	95.23
369.842	123.9
370.053	29.7
370.264	95.23
370.474	54.27
370.685	74.75
370.896	80.89
371.107	117.76
371.317	121.85
371.528	41.98
371.739	15.36
371.95	41.98
372.16	103.42
372.371	41.98
372.582	91.13
372.792	-19.46
373.003	62.46
373.214	82.94
373.424	52.22
373.635	66.56
373.846	62.46
374.056	97.28
374.267	95.23
374.477	97.28
374.688	39.94
374.898	66.56
375.109	5.12
375.319	101.37
375.53	195.58
375.74	101.37
375.951	99.33
376.161	60.42
376.372	119.81
376.582	82.94
376.793	74.75
377.003	97.28
377.214	87.04
377.424	87.04
377.635	160.77
377.845	-7.17
378.055	111.61
378.266	60.42
378.476	68.61
378.686	72.7
378.897	119.81
379.107	138.24
379.317	23.55
379.528	-19.46
379.738	97.28
379.948	27.65
380.158	95.23
380.369	125.95
380.579	160.77
380.789	80.89
380.999	113.66
381.21	91.13
381.42	140.29
381.63	105.47
381.84	76.8
382.05	56.32
382.261	140.29
382.471	109.57
382.681	93.18
382.891	115.71
383.101	21.5
383.311	-25.6
383.521	-25.6
383.731	136.19
383.941	132.09
384.151	89.09
384.361	111.61
384.571	80.89
384.781	109.57
384.991	105.47
385.201	115.71
385.411	109.57
385.621	103.42
385.831	60.42
386.041	41.98
386.251	62.46
386.461	66.56
386.671	140.29
386.881	27.65
387.091	13.31
387.301	66.56
387.511	58.37
387.72	54.27
387.93	7.17
388.14	52.22
388.35	-17.41
388.56	99.33
388.769	27.65
388.979	56.32
389.189	64.51
389.399	132.09
389.609	156.67
389.818	64.51
390.028	156.67
390.238	74.75
390.447	101.37
390.657	142.33
390.867	89.09
391.076	109.57
391.286	121.85
391.496	97.28
391.705	91.13
391.915	84.99
392.125	70.65
392.334	62.46
392.544	119.81
392.753	44.03
392.963	9.22
393.172	87.04
393.382	107.52
393.591	195.58
393.801	144.38
394.01	109.57
394.22	74.75
394.429	123.9
394.639	50.18
394.848	123.9
395.058	105.47
395.267	132.09
395.477	72.7
395.686	117.76
395.895	146.43
396.105	119.81
396.314	95.23
396.524	72.7
396.733	158.72
396.942	128
397.152	95.23
397.361	74.75
397.57	105.47
397.78	132.09
397.989	123.9
398.198	187.39
398.407	199.68
398.617	84.99
398.826	164.86
399.035	119.81
399.244	93.18
399.453	115.71
399.663	128
399.872	224.25
400.081	117.76
400.29	152.57
400.499	99.33
400.708	142.33
400.917	111.61
401.127	187.39
401.336	115.71
401.545	222.2
401.754	226.3
401.963	263.16
402.172	185.34
402.381	203.77
402.59	148.48
402.799	175.1
403.008	197.63
403.217	236.54
403.426	234.49
403.635	160.77
403.844	240.64
404.053	152.57
404.262	93.18
404.471	242.68
404.68	164.86
404.888	201.72
405.097	130.05
405.306	199.68
405.515	173.05
405.724	189.44
405.933	201.72
406.142	271.36
406.35	295.93
406.559	259.07
406.768	250.88
406.977	318.46
407.185	254.97
407.394	252.92
407.603	316.41
407.812	226.3
408.02	295.93
408.229	263.16
408.438	343.03
408.646	379.9
408.855	330.75
409.064	414.71
409.272	359.42
409.481	427
409.69	338.94
409.898	310.27
410.107	474.1
410.315	492.54
410.524	439.29
410.733	480.25
410.941	523.26
411.15	441.34
411.358	556.02
411.567	517.11
411.775	480.25
411.984	578.55
412.192	691.19
412.401	566.26
412.609	613.37
412.818	695.29
413.026	664.57
413.234	689.14
413.443	730.1
413.651	680.95
413.86	726
414.068	887.79
414.276	840.69
414.485	869.36
414.693	949.23
414.901	959.47
415.11	848.88
415.318	955.38
415.526	1115.12
415.734	1025.01
415.943	1057.78
416.151	1145.84
416.359	1104.88
416.567	1092.59
416.776	1205.23
416.984	1209.33
417.192	1301.48
417.4	1338.35
417.608	1299.44
417.817	1414.12
418.025	1450.99
418.233	1618.92
418.441	1547.24
418.649	1559.53
418.857	1774.56
419.065	1711.08
419.273	1729.51
419.481	1872.87
419.689	1917.92
419.897	1975.27
420.105	2120.67
420.313	2085.86
420.521	2208.73
420.729	2264.03
420.937	2307.04
421.145	2343.9
421.353	2552.79
421.561	2429.91
421.769	2663.38
421.977	2776.02
422.185	2687.96
422.393	2790.36
422.601	3175.38
422.809	3158.99
423.017	3099.6
423.224	3208.14
423.432	3400.65
423.64	3437.52
423.848	3677.13
424.056	3515.34
424.263	3929.03
424.471	3886.02
424.679	3910.6
424.887	4117.44
425.094	4291.52
425.302	4332.48
425.51	4350.91
425.718	4520.89
425.925	4582.33
426.133	4746.17
426.341	4998.07
426.548	5166
426.756	5321.65
426.964	5188.53
427.171	5768.1
427.379	5925.8
427.586	5956.52
427.794	5888.93
428.001	6415.26
428.209	6495.13
428.417	6486.94
428.624	6919.06
428.832	7003.03
429.039	6980.5
429.247	7027.6
429.454	7531.41
429.662	8233.86
429.869	7658.38
430.076	8067.97
430.284	7893.9
430.491	8227.71
430.699	8657.79
430.906	8715.13
431.114	8829.82
431.321	9083.77
431.528	9503.6
431.736	9892.71
431.943	10371.94
432.15	9995.11
432.358	10296.16
432.565	10861.4
432.772	10873.69
432.979	11225.94
433.187	11639.63
433.394	11580.24
433.601	12612.42
433.808	12469.06
434.016	12194.63
434.223	12649.28
434.43	13443.89
434.637	13321.01
434.844	13943.6
435.052	14324.52
435.259	14590.75
435.466	14588.71
435.673	14508.83
435.88	15252.25
436.087	16317.19
436.294	15995.66
436.501	15700.75
436.708	15917.84
436.915	16339.72
437.122	17445.62
437.329	17373.94
437.537	17468.15
437.743	18066.16
437.95	17697.52
438.157	18864.86
438.364	19847.89
438.571	19432.15
438.778	19446.49
438.985	21523.13
439.192	20497.1
439.399	21496.5
439.606	20572.87
439.813	21768.88
440.02	23110.3
440.227	22528.68
440.433	22241.96
440.64	23120.54
440.847	23278.24
441.054	23714.45
441.261	25127.55
441.467	25086.59
441.674	25619.07
441.881	26159.73
442.088	26360.43
442.294	25950.84
442.501	26899.05
442.708	27343.45
442.914	28398.16
443.121	29487.68
443.328	28895.82
443.534	31087.14
443.741	30085.68
443.948	29674.04
444.154	31832.6
444.361	31377.95
444.568	31689.24
444.774	31855.13
444.981	32193.04
445.187	32883.21
445.394	34419.19
445.6	33649.15
445.807	37280.2
446.013	35240.42
446.22	36194.78
446.426	37548.48
446.633	38123.96
446.839	39006.64
447.046	37671.36
447.252	39473.57
447.459	39209.39
447.665	38996.4
447.871	40870.29
448.078	42469.75
448.284	41339.27
448.491	41929.09
448.697	43108.72
448.903	44018.02
449.11	44157.28
449.316	43444.59
449.522	44101.98
449.728	44839.25
449.935	45803.85
450.141	45482.31
450.347	47028.53
450.553	44910.93
450.76	45533.51
450.966	47008.05
451.172	46180.67
451.378	47726.89
451.584	46469.43
451.791	47587.63
451.997	47483.18
452.203	48232.74
452.409	47733.03
452.615	47993.12
452.821	45771.08
453.027	45861.19
453.233	47866.15
453.44	45977.92
453.646	46371.13
453.852	46821.69
454.058	46762.29
454.264	45779.27
454.47	46649.66
454.676	45853
454.882	47608.11
455.088	43026.8
455.294	43643.24
455.5	43884.9
455.705	45128.02
455.911	43043.18
456.117	42191.23
456.323	41935.23
456.529	39496.1
456.735	41136.52
456.941	39748
457.147	39436.71
457.352	37974.46
457.558	37458.37
457.764	37964.22
457.97	37104.07
458.176	36153.82
458.381	36303.32
458.587	34558.45
458.793	34357.75
458.999	32913.93
459.204	34648.56
459.41	34265.59
459.616	32051.73
459.821	31605.28
460.027	31549.98
460.233	31195.68
460.438	29592.12
460.644	29889.08
460.85	28148.31
461.055	28054.1
461.261	28045.91
461.466	25838.2
461.672	25094.79
461.878	26864.23
462.083	25260.67
462.289	24777.35
462.494	24576.65
462.7	23753.37
462.905	23032.48
463.111	23476.89
463.316	24027.79
463.522	23147.17
463.727	23343.77
463.932	23132.83
464.138	23184.03
464.343	23206.56
464.549	22434.47
464.754	23263.9
464.959	22792.87
465.165	22721.19
465.37	22162.09
465.575	21363.39
465.781	22442.67
465.986	22201.01
466.191	21349.05
466.397	21144.25
466.602	20341.45
466.807	20951.74
