Data from USB4F104151__78__10-24-12-821.txt Node

Date: Wed Mar 12 10:24:12 EDT 2025
User: louis
Spectrometer: USB4F10415
Trigger mode: 4
Integration Time (sec): 3.000000E-2
Scans to average: 1
Electric dark correction enabled: true
Nonlinearity correction enabled: false
Boxcar width: 0
XAxis mode: Wavelengths
Number of Pixels in Spectrum: 3648
>>>>>Begin Spectral Data<<<<<
178.204	-88.75
178.424	-88.75
178.644	-88.75
178.864	-133.8
179.084	-90.79
179.304	-41.64
179.524	25.94
179.744	27.99
179.964	36.18
180.184	-41.64
180.404	-64.17
180.624	48.47
180.844	42.32
181.064	-74.41
181.283	-43.69
181.503	44.37
181.723	40.28
181.943	-70.31
182.163	15.7
182.383	-19.11
182.602	-8.87
182.822	81.24
183.042	38.23
183.262	-33.45
183.482	-37.55
183.701	-10.92
183.921	-2.73
184.141	9.56
184.361	103.76
184.58	75.09
184.8	-55.98
185.02	-55.98
185.239	1.37
185.459	-6.83
185.679	48.47
185.898	-6.83
186.118	64.85
186.338	60.76
186.557	-35.5
186.777	1.37
186.997	38.23
187.216	-15.02
187.436	128.34
187.655	42.32
187.875	-15.02
188.095	-31.4
188.314	66.9
188.534	85.33
188.753	38.23
188.973	50.52
189.192	9.56
189.412	62.8
189.631	-23.21
189.851	-6.83
190.07	118.1
190.29	75.09
190.509	25.94
190.729	38.23
190.948	77.14
191.168	107.86
191.387	66.9
191.607	19.8
191.826	19.8
192.045	42.32
192.265	52.56
192.484	23.89
192.704	46.42
192.923	-55.98
193.142	-19.11
193.362	56.66
193.581	107.86
193.8	25.94
194.02	11.61
194.239	-6.83
194.458	85.33
194.678	54.61
194.897	-10.92
195.116	56.66
195.335	25.94
195.555	64.85
195.774	17.75
195.993	58.71
196.212	-41.64
196.432	-27.31
196.651	-17.07
196.87	36.18
197.089	42.32
197.308	19.8
197.528	99.67
197.747	13.65
197.966	-2.73
198.185	25.94
198.404	66.9
198.623	77.14
198.842	66.9
199.062	32.08
199.281	124.24
199.5	48.47
199.719	32.08
199.938	7.51
200.157	3.41
200.376	-8.87
200.595	54.61
200.814	9.56
201.033	17.75
201.252	17.75
201.471	44.37
201.69	36.18
201.909	46.42
202.128	85.33
202.347	-49.83
202.566	73.04
202.785	23.89
203.004	-0.68
203.223	91.48
203.442	25.94
203.661	-12.97
203.879	-0.68
204.098	97.62
204.317	3.41
204.536	32.08
204.755	-2.73
204.974	21.85
205.193	58.71
205.411	66.9
205.63	42.32
205.849	40.28
206.068	-0.68
206.287	25.94
206.505	66.9
206.724	40.28
206.943	9.56
207.162	15.7
207.381	-6.83
207.599	-8.87
207.818	13.65
208.037	107.86
208.255	19.8
208.474	42.32
208.693	-45.74
208.911	-33.45
209.13	-0.68
209.349	87.38
209.567	1.37
209.786	-19.11
210.005	21.85
210.223	38.23
210.442	23.89
210.661	5.46
210.879	60.76
211.098	32.08
211.316	3.41
211.535	-12.97
211.753	50.52
211.972	11.61
212.191	99.67
212.409	83.28
212.628	17.75
212.846	81.24
213.065	68.95
213.283	107.86
213.502	81.24
213.72	5.46
213.938	-45.74
214.157	27.99
214.375	36.18
214.594	7.51
214.812	-23.21
215.031	-17.07
215.249	5.46
215.467	-0.68
215.686	50.52
215.904	83.28
216.122	9.56
216.341	71
216.559	3.41
216.778	13.65
216.996	-0.68
217.214	46.42
217.432	40.28
217.651	-35.5
217.869	-15.02
218.087	32.08
218.306	111.96
218.524	60.76
218.742	-23.21
218.96	50.52
219.179	-33.45
219.397	89.43
219.615	56.66
219.833	58.71
220.051	48.47
220.27	-21.16
220.488	38.23
220.706	71
220.924	9.56
221.142	17.75
221.36	23.89
221.578	99.67
221.796	32.08
222.015	-23.21
222.233	21.85
222.451	30.04
222.669	-35.5
222.887	40.28
223.105	7.51
223.323	-4.78
223.541	-51.88
223.759	21.85
223.977	9.56
224.195	34.13
224.413	107.86
224.631	91.48
224.849	-33.45
225.067	111.96
225.285	-27.31
225.503	-2.73
225.721	-27.31
225.939	-6.83
226.157	-51.88
226.375	83.28
226.592	-10.92
226.81	-68.27
227.028	107.86
227.246	66.9
227.464	87.38
227.682	38.23
227.9	19.8
228.117	46.42
228.335	5.46
228.553	17.75
228.771	-31.4
228.989	3.41
229.206	50.52
229.424	30.04
229.642	17.75
229.86	-37.55
230.077	77.14
230.295	-4.78
230.513	36.18
230.731	105.81
230.948	17.75
231.166	50.52
231.384	79.19
231.601	97.62
231.819	-0.68
232.037	-21.16
232.254	-58.03
232.472	42.32
232.689	44.37
232.907	62.8
233.125	48.47
233.342	17.75
233.56	54.61
233.777	54.61
233.995	-49.83
234.213	114
234.43	1.37
234.648	34.13
234.865	-19.11
235.083	-17.07
235.3	-6.83
235.518	52.56
235.735	75.09
235.953	38.23
236.17	1.37
236.388	30.04
236.605	54.61
236.822	-6.83
237.04	116.05
237.257	-10.92
237.475	-0.68
237.692	-2.73
237.909	60.76
238.127	-0.68
238.344	38.23
238.562	17.75
238.779	21.85
238.996	-6.83
239.214	50.52
239.431	83.28
239.648	36.18
239.865	73.04
240.083	27.99
240.3	-2.73
240.517	62.8
240.735	23.89
240.952	50.52
241.169	79.19
241.386	81.24
241.603	40.28
241.821	25.94
242.038	21.85
242.255	54.61
242.472	73.04
242.689	17.75
242.907	99.67
243.124	40.28
243.341	15.7
243.558	19.8
243.775	36.18
243.992	11.61
244.209	58.71
244.426	-55.98
244.643	62.8
244.86	-6.83
245.078	64.85
245.295	56.66
245.512	56.66
245.729	44.37
245.946	107.86
246.163	7.51
246.38	-15.02
246.597	-17.07
246.814	-35.5
247.031	-15.02
247.248	66.9
247.464	-15.02
247.681	58.71
247.898	-10.92
248.115	5.46
248.332	83.28
248.549	-23.21
248.766	32.08
248.983	66.9
249.2	58.71
249.417	38.23
249.633	-12.97
249.85	64.85
250.067	9.56
250.284	44.37
250.501	25.94
250.717	-21.16
250.934	32.08
251.151	11.61
251.368	58.71
251.585	44.37
251.801	27.99
252.018	64.85
252.235	91.48
252.451	-8.87
252.668	21.85
252.885	1.37
253.102	87.38
253.318	-0.68
253.535	-51.88
253.752	-19.11
253.968	-58.03
254.185	91.48
254.401	42.32
254.618	17.75
254.835	-43.69
255.051	83.28
255.268	64.85
255.484	13.65
255.701	1.37
255.917	34.13
256.134	1.37
256.351	42.32
256.567	23.89
256.784	48.47
257	-37.55
257.217	9.56
257.433	21.85
257.65	-2.73
257.866	56.66
258.082	34.13
258.299	1.37
258.515	46.42
258.732	75.09
258.948	13.65
259.165	-53.93
259.381	-6.83
259.597	-6.83
259.814	-2.73
260.03	1.37
260.246	66.9
260.463	42.32
260.679	30.04
260.895	7.51
261.112	118.1
261.328	95.57
261.544	36.18
261.761	105.81
261.977	44.37
262.193	-0.68
262.409	1.37
262.626	60.76
262.842	-62.12
263.058	34.13
263.274	-15.02
263.49	-8.87
263.707	34.13
263.923	17.75
264.139	3.41
264.355	5.46
264.571	91.48
264.787	-35.5
265.004	95.57
265.22	23.89
265.436	19.8
265.652	17.75
265.868	34.13
266.084	-45.74
266.3	30.04
266.516	-19.11
266.732	79.19
266.948	-45.74
267.164	52.56
267.38	34.13
267.596	42.32
267.812	19.8
268.028	73.04
268.244	-25.26
268.46	73.04
268.676	-15.02
268.892	17.75
269.108	13.65
269.324	-10.92
269.54	-31.4
269.756	27.99
269.972	5.46
270.188	7.51
270.403	-0.68
270.619	-8.87
270.835	-2.73
271.051	34.13
271.267	25.94
271.483	-12.97
271.698	46.42
271.914	62.8
272.13	48.47
272.346	3.41
272.562	124.24
272.777	83.28
272.993	-10.92
273.209	-15.02
273.425	5.46
273.64	38.23
273.856	71
274.072	-8.87
274.287	32.08
274.503	91.48
274.719	56.66
274.934	36.18
275.15	-31.4
275.366	60.76
275.581	40.28
275.797	101.72
276.012	-17.07
276.228	62.8
276.444	25.94
276.659	54.61
276.875	46.42
277.09	97.62
277.306	83.28
277.521	116.05
277.737	-27.31
277.952	83.28
278.168	-29.35
278.383	42.32
278.599	27.99
278.814	77.14
279.03	23.89
279.245	15.7
279.461	17.75
279.676	11.61
279.892	9.56
280.107	36.18
280.322	81.24
280.538	58.71
280.753	-47.79
280.969	52.56
281.184	21.85
281.399	62.8
281.615	-27.31
281.83	42.32
282.045	1.37
282.26	71
282.476	54.61
282.691	62.8
282.906	-8.87
283.122	118.1
283.337	-8.87
283.552	54.61
283.767	42.32
283.983	91.48
284.198	46.42
284.413	15.7
284.628	5.46
284.843	44.37
285.058	34.13
285.274	77.14
285.489	21.85
285.704	-0.68
285.919	15.7
286.134	50.52
286.349	-43.69
286.564	42.32
286.779	25.94
286.995	1.37
287.21	42.32
287.425	42.32
287.64	23.89
287.855	95.57
288.07	-33.45
288.285	-2.73
288.5	91.48
288.715	87.38
288.93	105.81
289.145	-19.11
289.36	38.23
289.575	-6.83
289.79	73.04
290.004	23.89
290.219	68.95
290.434	25.94
290.649	17.75
290.864	21.85
291.079	-25.26
291.294	32.08
291.509	32.08
291.724	62.8
291.938	-25.26
292.153	36.18
292.368	13.65
292.583	56.66
292.798	7.51
293.012	-27.31
293.227	66.9
293.442	-12.97
293.657	-15.02
293.871	114
294.086	3.41
294.301	73.04
294.516	66.9
294.73	27.99
294.945	-6.83
295.16	40.28
295.374	58.71
295.589	103.76
295.804	42.32
296.018	-6.83
296.233	75.09
296.447	107.86
296.662	58.71
296.877	40.28
297.091	56.66
297.306	30.04
297.52	44.37
297.735	64.85
297.949	48.47
298.164	99.67
298.378	21.85
298.593	13.65
298.807	-27.31
299.022	58.71
299.236	62.8
299.451	-66.22
299.665	25.94
299.88	19.8
300.094	34.13
300.309	32.08
300.523	40.28
300.737	44.37
300.952	97.62
301.166	13.65
301.381	-72.36
301.595	-6.83
301.809	-17.07
302.024	42.32
302.238	-33.45
302.452	50.52
302.667	95.57
302.881	105.81
303.095	9.56
303.309	54.61
303.524	44.37
303.738	27.99
303.952	5.46
304.166	79.19
304.381	34.13
304.595	54.61
304.809	46.42
305.023	23.89
305.237	79.19
305.452	60.76
305.666	34.13
305.88	9.56
306.094	130.39
306.308	9.56
306.522	48.47
306.736	103.76
306.95	42.32
307.164	-2.73
307.379	-23.21
307.593	46.42
307.807	64.85
308.021	54.61
308.235	91.48
308.449	-49.83
308.663	-6.83
308.877	87.38
309.091	-21.16
309.305	25.94
309.519	9.56
309.733	83.28
309.947	25.94
310.161	93.52
310.374	13.65
310.588	-2.73
310.802	44.37
311.016	73.04
311.23	101.72
311.444	42.32
311.658	124.24
311.872	134.48
312.085	-6.83
312.299	52.56
312.513	42.32
312.727	38.23
312.941	-23.21
313.154	71
313.368	71
313.582	50.52
313.796	87.38
314.009	40.28
314.223	114
314.437	62.8
314.651	42.32
314.864	73.04
315.078	27.99
315.292	56.66
315.505	-15.02
315.719	5.46
315.933	97.62
316.146	-25.26
316.36	34.13
316.573	105.81
316.787	66.9
317.001	56.66
317.214	9.56
317.428	56.66
317.641	-6.83
317.855	-47.79
318.068	116.05
318.282	64.85
318.495	97.62
318.709	17.75
318.922	58.71
319.136	99.67
319.349	58.71
319.563	23.89
319.776	58.71
319.99	44.37
320.203	-10.92
320.417	56.66
320.63	99.67
320.843	66.9
321.057	13.65
321.27	23.89
321.483	3.41
321.697	116.05
321.91	81.24
322.124	54.61
322.337	111.96
322.55	75.09
322.763	21.85
322.977	85.33
323.19	34.13
323.403	54.61
323.617	32.08
323.83	116.05
324.043	5.46
324.256	17.75
324.469	11.61
324.683	68.95
324.896	75.09
325.109	-6.83
325.322	-0.68
325.535	48.47
325.748	111.96
325.962	66.9
326.175	46.42
326.388	52.56
326.601	79.19
326.814	62.8
327.027	52.56
327.24	83.28
327.453	-10.92
327.666	50.52
327.879	36.18
328.092	25.94
328.305	19.8
328.518	-47.79
328.731	38.23
328.944	42.32
329.157	27.99
329.37	60.76
329.583	40.28
329.796	32.08
330.009	-2.73
330.222	19.8
330.435	87.38
330.648	103.76
330.861	9.56
331.073	13.65
331.286	9.56
331.499	32.08
331.712	97.62
331.925	13.65
332.138	34.13
332.35	95.57
332.563	23.89
332.776	103.76
332.989	13.65
333.202	48.47
333.414	34.13
333.627	1.37
333.84	46.42
334.053	38.23
334.265	71
334.478	103.76
334.691	11.61
334.903	75.09
335.116	73.04
335.329	-19.11
335.541	73.04
335.754	97.62
335.966	23.89
336.179	46.42
336.392	32.08
336.604	5.46
336.817	46.42
337.029	13.65
337.242	34.13
337.454	99.67
337.667	77.14
337.88	99.67
338.092	54.61
338.305	44.37
338.517	62.8
338.729	116.05
338.942	32.08
339.154	32.08
339.367	52.56
339.579	42.32
339.792	-23.21
340.004	54.61
340.217	27.99
340.429	103.76
340.641	32.08
340.854	81.24
341.066	42.32
341.278	148.82
341.491	128.34
341.703	54.61
341.915	36.18
342.128	25.94
342.34	73.04
342.552	1.37
342.764	38.23
342.977	48.47
343.189	38.23
343.401	132.44
343.613	7.51
343.826	64.85
344.038	66.9
344.25	48.47
344.462	-17.07
344.674	71
344.886	30.04
345.099	68.95
345.311	-29.35
345.523	-2.73
345.735	81.24
345.947	54.61
346.159	60.76
346.371	71
346.583	42.32
346.795	114
347.007	9.56
347.219	91.48
347.431	-23.21
347.643	144.72
347.855	40.28
348.067	83.28
348.279	21.85
348.491	66.9
348.703	50.52
348.915	-0.68
349.127	60.76
349.339	128.34
349.551	62.8
349.763	99.67
349.975	-17.07
350.187	99.67
350.399	25.94
350.61	105.81
350.822	75.09
351.034	56.66
351.246	71
351.458	-27.31
351.669	42.32
351.881	79.19
352.093	93.52
352.305	101.72
352.517	89.43
352.728	15.7
352.94	77.14
353.152	81.24
353.363	25.94
353.575	71
353.787	146.77
353.999	81.24
354.21	32.08
354.422	93.52
354.633	87.38
354.845	50.52
355.057	87.38
355.268	5.46
355.48	62.8
355.692	30.04
355.903	79.19
356.115	1.37
356.326	27.99
356.538	142.68
356.749	79.19
356.961	81.24
357.172	75.09
357.384	23.89
357.595	87.38
357.807	5.46
358.018	91.48
358.23	13.65
358.441	68.95
358.653	58.71
358.864	-43.69
359.075	66.9
359.287	56.66
359.498	101.72
359.709	81.24
359.921	-19.11
360.132	109.91
360.344	36.18
360.555	42.32
360.766	75.09
360.977	32.08
361.189	103.76
361.4	42.32
361.611	54.61
361.823	54.61
362.034	103.76
362.245	-33.45
362.456	114
362.667	-47.79
362.879	11.61
363.09	42.32
363.301	114
363.512	44.37
363.723	38.23
363.935	52.56
364.146	140.63
364.357	19.8
364.568	25.94
364.779	17.75
364.99	64.85
365.201	87.38
365.412	48.47
365.623	32.08
365.834	85.33
366.045	36.18
366.256	40.28
366.467	13.65
366.678	154.96
366.889	122.2
367.1	83.28
367.311	64.85
367.522	25.94
367.733	58.71
367.944	46.42
368.155	48.47
368.366	79.19
368.577	38.23
368.788	103.76
368.999	-45.74
369.209	11.61
369.42	99.67
369.631	120.15
369.842	66.9
370.053	44.37
370.264	21.85
370.474	40.28
370.685	111.96
370.896	5.46
371.107	58.71
371.317	103.76
371.528	-43.69
371.739	91.48
371.95	17.75
372.16	120.15
372.371	32.08
372.582	87.38
372.792	91.48
373.003	56.66
373.214	1.37
373.424	169.3
373.635	44.37
373.846	93.52
374.056	87.38
374.267	-2.73
374.477	68.95
374.688	89.43
374.898	89.43
375.109	30.04
375.319	7.51
375.53	87.38
375.74	52.56
375.951	30.04
376.161	120.15
376.372	60.76
376.582	66.9
376.793	114
377.003	17.75
377.214	64.85
377.424	58.71
377.635	140.63
377.845	-23.21
378.055	105.81
378.266	13.65
378.476	54.61
378.686	-2.73
378.897	38.23
379.107	73.04
379.317	89.43
379.528	13.65
379.738	54.61
379.948	36.18
380.158	85.33
380.369	66.9
380.579	50.52
380.789	89.43
380.999	107.86
381.21	66.9
381.42	64.85
381.63	97.62
381.84	68.95
382.05	38.23
382.261	89.43
382.471	66.9
382.681	109.91
382.891	111.96
383.101	21.85
383.311	38.23
383.521	101.72
383.731	114
383.941	103.76
384.151	46.42
384.361	85.33
384.571	50.52
384.781	75.09
384.991	138.58
385.201	140.63
385.411	73.04
385.621	58.71
385.831	48.47
386.041	126.29
386.251	73.04
386.461	175.44
386.671	25.94
386.881	85.33
387.091	34.13
387.301	130.39
387.511	13.65
387.72	75.09
387.93	25.94
388.14	27.99
388.35	60.76
388.56	165.2
388.769	165.2
388.979	87.38
389.189	34.13
389.399	91.48
389.609	73.04
389.818	124.24
390.028	103.76
390.238	132.44
390.447	48.47
390.657	17.75
390.867	83.28
391.076	62.8
391.286	103.76
391.496	50.52
391.705	46.42
391.915	73.04
392.125	93.52
392.334	7.51
392.544	79.19
392.753	136.53
392.963	111.96
393.172	144.72
393.382	103.76
393.591	146.77
393.801	89.43
394.01	91.48
394.22	111.96
394.429	111.96
394.639	62.8
394.848	120.15
395.058	130.39
395.267	107.86
395.477	60.76
395.686	58.71
395.895	165.2
396.105	99.67
396.314	142.68
396.524	204.11
396.733	126.29
396.942	152.91
397.152	62.8
397.361	154.96
397.57	136.53
397.78	122.2
397.989	132.44
398.198	138.58
398.407	206.16
398.617	103.76
398.826	154.96
399.035	64.85
399.244	116.05
399.453	195.92
399.663	138.58
399.872	238.93
400.081	81.24
400.29	79.19
400.499	187.73
400.708	91.48
400.917	99.67
401.127	142.68
401.336	114
401.545	132.44
401.754	167.25
401.963	157.01
402.172	128.34
402.381	124.24
402.59	171.35
402.799	120.15
403.008	212.31
403.217	234.83
403.426	171.35
403.635	189.78
403.844	109.91
404.053	230.74
404.262	144.72
404.471	185.68
404.68	191.83
404.888	202.07
405.097	197.97
405.306	183.63
405.515	275.79
405.724	202.07
405.933	202.07
406.142	279.89
406.35	326.99
406.559	255.31
406.768	216.4
406.977	292.18
407.185	271.7
407.394	218.45
407.603	226.64
407.812	243.03
408.02	259.41
408.229	286.03
408.438	359.76
408.646	370
408.855	312.66
409.064	380.24
409.272	413.01
409.481	384.34
409.69	374.1
409.898	378.19
410.107	443.73
410.315	480.59
410.524	419.15
410.733	546.12
410.941	437.58
411.15	513.36
411.358	539.98
411.567	560.46
411.775	517.45
411.984	595.28
412.192	619.85
412.401	619.85
412.609	652.62
412.818	728.39
413.026	728.39
413.234	732.49
413.443	755.02
413.651	697.67
413.86	732.49
414.068	888.14
414.276	793.93
414.485	892.23
414.693	894.28
414.901	1060.17
415.11	1037.64
415.318	857.42
415.526	1029.45
415.734	1088.84
415.943	1197.38
416.151	1131.84
416.359	1107.27
416.567	1224
416.776	1262.91
416.984	1330.5
417.192	1387.84
417.4	1369.41
417.608	1361.22
417.817	1430.85
418.025	1500.48
418.233	1606.97
418.441	1590.59
418.649	1652.03
418.857	1807.67
419.065	1791.29
419.273	1834.3
419.481	1924.41
419.689	1924.41
419.897	2057.53
420.105	2143.54
420.313	2159.92
420.521	2288.95
420.729	2338.1
420.937	2280.75
421.145	2553.13
421.353	2592.05
421.561	2786.6
421.769	2649.39
421.977	2848.04
422.185	2895.15
422.393	3101.99
422.601	3200.29
422.809	3294.5
423.017	3226.92
423.224	3450.14
423.432	3411.23
423.64	3650.85
423.848	3927.32
424.056	3777.82
424.263	4150.55
424.471	4117.78
424.679	4232.47
424.887	4400.4
425.094	4453.65
425.302	4664.59
425.51	4621.58
425.718	4840.72
425.925	4900.11
426.133	5174.53
426.341	5489.92
426.548	5475.59
426.756	5563.65
426.964	5653.76
427.171	5924.09
427.379	6196.47
427.586	6190.33
427.794	6407.41
428.001	6694.13
428.209	6853.87
428.417	6923.5
428.624	7363.81
428.832	7398.63
429.039	7265.51
429.247	7468.26
429.454	7974.11
429.662	8414.42
429.869	7935.2
430.076	8492.24
430.284	8430.8
430.491	8727.76
430.699	9174.22
430.906	9252.04
431.114	9376.97
431.321	9518.28
431.528	9835.71
431.736	10339.51
431.943	10861.74
432.15	10556.6
432.358	10699.95
432.565	11187.37
432.772	11355.3
432.979	11719.84
433.187	12086.43
433.394	12127.39
433.601	13030.54
433.808	12958.86
434.016	12969.1
434.223	13298.83
434.43	14136.45
434.637	13845.63
434.844	14814.32
435.052	15289.45
435.259	14875.76
435.466	15195.25
435.673	15127.66
435.88	16135.26
436.087	16817.24
436.294	16995.41
436.501	16274.52
436.708	16862.29
436.915	17405
437.122	18062.4
437.329	17937.48
437.537	18453.56
437.743	18779.19
437.95	18732.09
438.157	19635.24
438.364	20335.65
438.571	20268.06
438.778	20560.92
438.985	22426.62
439.192	21443.6
439.399	21935.11
439.606	21699.59
439.813	22756.35
440.02	24288.23
440.227	23823.34
440.433	23589.87
440.64	24341.47
440.847	23888.87
441.054	24869.85
441.261	26401.73
441.467	25973.7
441.674	26676.16
441.881	27550.64
442.088	27286.45
442.294	27366.32
442.501	27894.7
442.708	28511.14
442.914	29651.86
443.121	30411.65
443.328	29854.61
443.534	31834.99
443.741	30845.82
443.948	30643.07
444.154	33256.28
444.361	32656.23
444.568	32873.31
444.774	32832.35
444.981	33491.8
445.187	33964.88
445.394	35633.97
445.6	35083.07
445.807	38826.76
446.013	36922.15
446.22	37581.59
446.426	38710.02
446.633	39367.42
446.839	40631.02
447.046	38935.3
447.252	40688.36
447.459	40921.83
447.665	40659.69
447.871	42486.48
448.078	44231.35
448.284	42040.02
448.491	43311.81
448.697	44608.17
448.903	45697.69
449.11	45664.92
449.316	44749.48
449.522	45453.98
449.728	46838.41
449.935	47016.58
450.141	46576.27
450.347	47729.28
450.553	47045.26
450.76	46740.11
450.966	48568.94
451.172	47727.23
451.378	48820.84
451.584	48081.53
451.791	48874.09
451.997	48892.52
452.203	50106.97
452.409	49764.96
452.615	49056.36
452.821	46934.67
453.027	47172.23
453.233	49158.76
453.44	46961.29
453.646	47934.07
453.852	47907.45
454.058	48917.1
454.264	46897.8
454.47	48269.94
454.676	46961.29
454.882	48364.15
455.088	44313.27
455.294	44841.64
455.5	45736.6
455.705	46242.45
455.911	44157.62
456.117	43168.45
456.323	42646.22
456.529	40313.58
456.735	42083.03
456.941	41061.09
457.147	40428.27
457.352	38916.87
457.558	38263.57
457.764	38568.71
457.97	37892.88
458.176	37018.4
458.381	37485.34
458.587	35326.78
458.793	35375.93
458.999	33602.39
459.204	36287.28
459.41	34681.67
459.616	32650.08
459.821	32668.51
460.027	32473.96
460.233	31394.68
460.438	30342.02
460.644	30985.08
460.85	29383.57
461.055	28799.9
461.261	28838.81
461.466	26481.6
461.672	26018.76
461.878	27456.43
462.083	25674.7
462.289	25598.93
462.494	25242.58
462.7	24169.44
462.905	23262.19
463.111	24343.52
463.316	24153.06
463.522	23880.68
463.727	23829.48
463.932	23811.05
464.138	23505.9
464.343	23520.24
464.549	22803.45
464.754	23968.74
464.959	23372.78
465.165	23360.5
465.37	22326.27
465.575	21634.06
465.781	22780.92
465.986	22995.96
466.191	21675.02
466.397	21484.56
466.602	20603.93
466.807	21163.03
467.012	21302.29
467.218	20921.37
