Data from USB4F104151__199__10-29-31-918.txt Node

Date: Wed Mar 12 10:29:31 EDT 2025
User: louis
Spectrometer: USB4F10415
Trigger mode: 4
Integration Time (sec): 3.000000E-2
Scans to average: 1
Electric dark correction enabled: true
Nonlinearity correction enabled: false
Boxcar width: 0
XAxis mode: Wavelengths
Number of Pixels in Spectrum: 3648
>>>>>Begin Spectral Data<<<<<
178.204	-114
178.424	-114
178.644	-114
178.864	-97.62
179.084	-116.05
179.304	-62.8
179.524	-15.7
179.744	-27.99
179.964	39.59
180.184	-15.7
180.404	41.64
180.624	35.5
180.844	-1.37
181.064	-1.37
181.283	-7.51
181.503	29.35
181.723	-13.65
181.943	-101.72
182.163	88.75
182.383	-5.46
182.602	25.26
182.822	10.92
183.042	21.16
183.262	-32.08
183.482	88.75
183.701	68.27
183.921	33.45
184.141	-23.89
184.361	19.11
184.58	96.94
184.8	68.27
185.02	37.55
185.239	123.56
185.459	53.93
185.679	66.22
185.898	-17.75
186.118	49.83
186.338	53.93
186.557	74.41
186.777	43.69
186.997	-19.8
187.216	21.16
187.436	76.46
187.655	-7.51
187.875	0.68
188.095	0.68
188.314	98.99
188.534	33.45
188.753	62.12
188.973	55.98
189.192	-34.13
189.412	55.98
189.631	27.31
189.851	109.23
190.07	58.03
190.29	25.26
190.509	25.26
190.729	39.59
190.948	-23.89
191.168	103.08
191.387	78.51
191.607	-50.52
191.826	47.79
192.045	43.69
192.265	19.11
192.484	66.22
192.704	156.33
192.923	-38.23
193.142	133.8
193.362	-25.94
193.581	33.45
193.8	4.78
194.02	39.59
194.239	47.79
194.458	72.36
194.678	17.07
194.897	72.36
195.116	8.87
195.335	-30.04
195.555	-32.08
195.774	-1.37
195.993	-32.08
196.212	41.64
196.432	-11.61
196.651	47.79
196.87	-1.37
197.089	117.42
197.308	31.4
197.528	74.41
197.747	-23.89
197.966	35.5
198.185	10.92
198.404	21.16
198.623	8.87
198.842	70.31
199.062	82.6
199.281	33.45
199.5	-62.8
199.719	25.26
199.938	8.87
200.157	31.4
200.376	31.4
200.595	31.4
200.814	21.16
201.033	-9.56
201.252	62.12
201.471	29.35
201.69	86.7
201.909	4.78
202.128	66.22
202.347	41.64
202.566	-38.23
202.785	41.64
203.004	70.31
203.223	78.51
203.442	58.03
203.661	-5.46
203.879	-66.9
204.098	70.31
204.317	8.87
204.536	70.31
204.755	31.4
204.974	41.64
205.193	27.31
205.411	88.75
205.63	-48.47
205.849	74.41
206.068	41.64
206.287	-3.41
206.505	117.42
206.724	-64.85
206.943	58.03
207.162	23.21
207.381	58.03
207.599	82.6
207.818	21.16
208.037	17.07
208.255	45.74
208.474	37.55
208.693	45.74
208.911	74.41
209.13	21.16
209.349	62.12
209.567	92.84
209.786	45.74
210.005	-40.28
210.223	47.79
210.442	-50.52
210.661	-5.46
210.879	-25.94
211.098	10.92
211.316	21.16
211.535	-7.51
211.753	92.84
211.972	-30.04
212.191	66.22
212.409	37.55
212.628	88.75
212.846	17.07
213.065	-1.37
213.283	47.79
213.502	58.03
213.72	27.31
213.938	131.75
214.157	-11.61
214.375	66.22
214.594	-50.52
214.812	17.07
215.031	37.55
215.249	8.87
215.467	51.88
215.686	-21.84
215.904	90.79
216.122	-56.66
216.341	90.79
216.559	-1.37
216.778	86.7
216.996	-44.37
217.214	17.07
217.432	-21.84
217.651	21.16
217.869	15.02
218.087	25.26
218.306	33.45
218.524	6.83
218.742	29.35
218.96	82.6
219.179	-34.13
219.397	41.64
219.615	109.23
219.833	49.83
220.051	-15.7
220.27	25.26
220.488	51.88
220.706	39.59
220.924	4.78
221.142	-1.37
221.36	-21.84
221.578	-23.89
221.796	78.51
222.015	25.26
222.233	27.31
222.451	74.41
222.669	49.83
222.887	31.4
223.105	31.4
223.323	105.13
223.541	25.26
223.759	10.92
223.977	-1.37
224.195	4.78
224.413	21.16
224.631	62.12
224.849	-15.7
225.067	90.79
225.285	0.68
225.503	17.07
225.721	-27.99
225.939	55.98
226.157	31.4
226.375	115.37
226.592	12.97
226.81	41.64
227.028	27.31
227.246	133.8
227.464	33.45
227.682	60.07
227.9	103.08
228.117	58.03
228.335	111.27
228.553	55.98
228.771	33.45
228.989	-36.18
229.206	51.88
229.424	96.94
229.642	-11.61
229.86	43.69
230.077	33.45
230.295	35.5
230.513	29.35
230.731	127.66
230.948	105.13
231.166	82.6
231.384	8.87
231.601	-7.51
231.819	25.26
232.037	-11.61
232.254	55.98
232.472	25.26
232.689	6.83
232.907	41.64
233.125	35.5
233.342	21.16
233.56	0.68
233.777	6.83
233.995	101.03
234.213	66.22
234.43	4.78
234.648	41.64
234.865	17.07
235.083	101.03
235.3	6.83
235.518	49.83
235.735	15.02
235.953	96.94
236.17	17.07
236.388	80.55
236.605	53.93
236.822	-7.51
237.04	84.65
237.257	103.08
237.475	-13.65
237.692	29.35
237.909	0.68
238.127	33.45
238.344	55.98
238.562	37.55
238.779	-1.37
238.996	0.68
239.214	64.17
239.431	41.64
239.648	55.98
239.865	-7.51
240.083	123.56
240.3	70.31
240.517	4.78
240.735	78.51
240.952	78.51
241.169	29.35
241.386	33.45
241.603	-19.8
241.821	-9.56
242.038	4.78
242.255	31.4
242.472	-50.52
242.689	-54.61
242.907	17.07
243.124	96.94
243.341	8.87
243.558	0.68
243.775	29.35
243.992	33.45
244.209	68.27
244.426	0.68
244.643	70.31
244.86	27.31
245.078	51.88
245.295	53.93
245.512	47.79
245.729	-11.61
245.946	60.07
246.163	49.83
246.38	60.07
246.597	121.51
246.814	78.51
247.031	23.21
247.248	64.17
247.464	4.78
247.681	66.22
247.898	39.59
248.115	12.97
248.332	45.74
248.549	82.6
248.766	10.92
248.983	-5.46
249.2	12.97
249.417	121.51
249.633	-89.43
249.85	17.07
250.067	-11.61
250.284	64.17
250.501	84.65
250.717	25.26
250.934	-25.94
251.151	49.83
251.368	60.07
251.585	49.83
251.801	10.92
252.018	111.27
252.235	125.61
252.451	43.69
252.668	2.73
252.885	53.93
253.102	6.83
253.318	25.26
253.535	33.45
253.752	64.17
253.968	66.22
254.185	45.74
254.401	35.5
254.618	60.07
254.835	-34.13
255.051	135.85
255.268	25.26
255.484	-7.51
255.701	-11.61
255.917	43.69
256.134	-3.41
256.351	-30.04
256.567	-32.08
256.784	37.55
257	31.4
257.217	96.94
257.433	37.55
257.65	-9.56
257.866	23.21
258.082	-17.75
258.299	25.26
258.515	-11.61
258.732	-7.51
258.948	8.87
259.165	-48.47
259.381	21.16
259.597	23.21
259.814	-13.65
260.03	68.27
260.246	10.92
260.463	45.74
260.679	45.74
260.895	82.6
261.112	-30.04
261.328	25.26
261.544	-5.46
261.761	84.65
261.977	-40.28
262.193	-19.8
262.409	45.74
262.626	15.02
262.842	-46.42
263.058	33.45
263.274	29.35
263.49	80.55
263.707	80.55
263.923	-3.41
264.139	29.35
264.355	8.87
264.571	80.55
264.787	107.18
265.004	58.03
265.22	-1.37
265.436	74.41
265.652	-17.75
265.868	70.31
266.084	25.26
266.3	39.59
266.516	29.35
266.732	21.16
266.948	-42.32
267.164	-34.13
267.38	25.26
267.596	113.32
267.812	45.74
268.028	17.07
268.244	51.88
268.46	68.27
268.676	19.11
268.892	70.31
269.108	21.16
269.324	41.64
269.54	-19.8
269.756	51.88
269.972	107.18
270.188	15.02
270.403	6.83
270.619	-3.41
270.835	15.02
271.051	86.7
271.267	-73.04
271.483	-7.51
271.698	17.07
271.914	37.55
272.13	62.12
272.346	53.93
272.562	0.68
272.777	90.79
272.993	21.16
273.209	60.07
273.425	-17.75
273.64	6.83
273.856	35.5
274.072	51.88
274.287	29.35
274.503	98.99
274.719	66.22
274.934	82.6
275.15	-5.46
275.366	25.26
275.581	27.31
275.797	2.73
276.012	49.83
276.228	31.4
276.444	53.93
276.659	4.78
276.875	-23.89
277.09	53.93
277.306	86.7
277.521	12.97
277.737	-25.94
277.952	62.12
278.168	49.83
278.383	6.83
278.599	-5.46
278.814	39.59
279.03	92.84
279.245	82.6
279.461	25.26
279.676	72.36
279.892	-40.28
280.107	41.64
280.322	64.17
280.538	88.75
280.753	66.22
280.969	0.68
281.184	-15.7
281.399	49.83
281.615	72.36
281.83	43.69
282.045	23.21
282.26	-19.8
282.476	45.74
282.691	70.31
282.906	72.36
283.122	78.51
283.337	53.93
283.552	15.02
283.767	-40.28
283.983	41.64
284.198	-40.28
284.413	2.73
284.628	-36.18
284.843	15.02
285.058	86.7
285.274	2.73
285.489	-15.7
285.704	45.74
285.919	58.03
286.134	-13.65
286.349	8.87
286.564	139.94
286.779	115.37
286.995	90.79
287.21	15.02
287.425	96.94
287.64	-17.75
287.855	96.94
288.07	-11.61
288.285	41.64
288.5	62.12
288.715	29.35
288.93	33.45
289.145	43.69
289.36	37.55
289.575	15.02
289.79	98.99
290.004	55.98
290.219	88.75
290.434	74.41
290.649	-27.99
290.864	-11.61
291.079	-48.47
291.294	33.45
291.509	109.23
291.724	66.22
291.938	117.42
292.153	41.64
292.368	45.74
292.583	74.41
292.798	6.83
293.012	86.7
293.227	-15.7
293.442	55.98
293.657	0.68
293.871	35.5
294.086	8.87
294.301	92.84
294.516	80.55
294.73	23.21
294.945	45.74
295.16	72.36
295.374	4.78
295.589	103.08
295.804	66.22
296.018	-15.7
296.233	76.46
296.447	41.64
296.662	39.59
296.877	41.64
297.091	33.45
297.306	78.51
297.52	-1.37
297.735	33.45
297.949	35.5
298.164	4.78
298.378	8.87
298.593	10.92
298.807	62.12
299.022	55.98
299.236	103.08
299.451	0.68
299.665	62.12
299.88	35.5
300.094	115.37
300.309	37.55
300.523	49.83
300.737	86.7
300.952	58.03
301.166	53.93
301.381	-9.56
301.595	90.79
301.809	103.08
302.024	6.83
302.238	19.11
302.452	58.03
302.667	45.74
302.881	-11.61
303.095	178.86
303.309	-3.41
303.524	-46.42
303.738	62.12
303.952	10.92
304.166	45.74
304.381	-32.08
304.595	6.83
304.809	90.79
305.023	70.31
305.237	68.27
305.452	17.07
305.666	70.31
305.88	21.16
306.094	8.87
306.308	49.83
306.522	88.75
306.736	58.03
306.95	139.94
307.164	47.79
307.379	49.83
307.593	127.66
307.807	55.98
308.021	25.26
308.235	121.51
308.449	31.4
308.663	-5.46
308.877	74.41
309.091	-11.61
309.305	84.65
309.519	10.92
309.733	62.12
309.947	2.73
310.161	43.69
310.374	47.79
310.588	98.99
310.802	-9.56
311.016	23.21
311.23	49.83
311.444	23.21
311.658	51.88
311.872	51.88
312.085	86.7
312.299	80.55
312.513	29.35
312.727	43.69
312.941	68.27
313.154	78.51
313.368	29.35
313.582	53.93
313.796	-44.37
314.009	21.16
314.223	43.69
314.437	82.6
314.651	47.79
314.864	35.5
315.078	4.78
315.292	53.93
315.505	96.94
315.719	25.26
315.933	96.94
316.146	-17.75
316.36	31.4
316.573	-7.51
316.787	113.32
317.001	96.94
317.214	35.5
317.428	33.45
317.641	6.83
317.855	-9.56
318.068	66.22
318.282	90.79
318.495	25.26
318.709	84.65
318.922	-15.7
319.136	101.03
319.349	41.64
319.563	29.35
319.776	80.55
319.99	70.31
320.203	131.75
320.417	4.78
320.63	55.98
320.843	45.74
321.057	84.65
321.27	19.11
321.483	76.46
321.697	78.51
321.91	45.74
322.124	39.59
322.337	12.97
322.55	41.64
322.763	-7.51
322.977	51.88
323.19	49.83
323.403	33.45
323.617	33.45
323.83	68.27
324.043	47.79
324.256	27.31
324.469	-32.08
324.683	53.93
324.896	-5.46
325.109	45.74
325.322	-7.51
325.535	80.55
325.748	90.79
325.962	15.02
326.175	55.98
326.388	43.69
326.601	72.36
326.814	47.79
327.027	-7.51
327.24	49.83
327.453	25.26
327.666	2.73
327.879	41.64
328.092	23.21
328.305	88.75
328.518	72.36
328.731	-25.94
328.944	8.87
329.157	53.93
329.37	8.87
329.583	82.6
329.796	49.83
330.009	23.21
330.222	82.6
330.435	39.59
330.648	70.31
330.861	-44.37
331.073	60.07
331.286	70.31
331.499	94.89
331.712	8.87
331.925	33.45
332.138	60.07
332.35	31.4
332.563	19.11
332.776	92.84
332.989	21.16
333.202	21.16
333.414	17.07
333.627	49.83
333.84	8.87
334.053	68.27
334.265	2.73
334.478	2.73
334.691	6.83
334.903	80.55
335.116	39.59
335.329	-9.56
335.541	29.35
335.754	68.27
335.966	45.74
336.179	74.41
336.392	45.74
336.604	-3.41
336.817	76.46
337.029	74.41
337.242	115.37
337.454	78.51
337.667	6.83
337.88	92.84
338.092	23.21
338.305	17.07
338.517	6.83
338.729	-25.94
338.942	45.74
339.154	47.79
339.367	23.21
339.579	58.03
339.792	29.35
340.004	76.46
340.217	27.31
340.429	60.07
340.641	-1.37
340.854	86.7
341.066	47.79
341.278	2.73
341.491	113.32
341.703	101.03
341.915	10.92
342.128	74.41
342.34	78.51
342.552	-9.56
342.764	33.45
342.977	62.12
343.189	98.99
343.401	107.18
343.613	-13.65
343.826	49.83
344.038	51.88
344.25	23.21
344.462	29.35
344.674	101.03
344.886	-56.66
345.099	37.55
345.311	25.26
345.523	105.13
345.735	45.74
345.947	10.92
346.159	96.94
346.371	43.69
346.583	2.73
346.795	178.86
347.007	-42.32
347.219	74.41
347.431	4.78
347.643	58.03
347.855	53.93
348.067	68.27
348.279	0.68
348.491	82.6
348.703	58.03
348.915	68.27
349.127	8.87
349.339	117.42
349.551	-17.75
349.763	47.79
349.975	80.55
350.187	88.75
350.399	66.22
350.61	29.35
350.822	72.36
351.034	74.41
351.246	76.46
351.458	64.17
351.669	39.59
351.881	84.65
352.093	64.17
352.305	107.18
352.517	29.35
352.728	191.14
352.94	10.92
353.152	55.98
353.363	90.79
353.575	84.65
353.787	51.88
353.999	8.87
354.21	41.64
354.422	78.51
354.633	33.45
354.845	41.64
355.057	55.98
355.268	72.36
355.48	119.46
355.692	-60.76
355.903	55.98
356.115	6.83
356.326	31.4
356.538	78.51
356.749	80.55
356.961	113.32
357.172	58.03
357.384	-9.56
357.595	62.12
357.807	55.98
358.018	25.26
358.23	98.99
358.441	49.83
358.653	8.87
358.864	74.41
359.075	17.07
359.287	17.07
359.498	39.59
359.709	82.6
359.921	-1.37
360.132	25.26
360.344	51.88
360.555	-17.75
360.766	55.98
360.977	66.22
361.189	123.56
361.4	-7.51
361.611	84.65
361.823	72.36
362.034	64.17
362.245	49.83
362.456	68.27
362.667	98.99
362.879	78.51
363.09	29.35
363.301	62.12
363.512	109.23
363.723	23.21
363.935	37.55
364.146	17.07
364.357	53.93
364.568	-3.41
364.779	-34.13
364.99	74.41
365.201	8.87
365.412	123.56
365.623	-17.75
365.834	45.74
366.045	62.12
366.256	119.46
366.467	96.94
366.678	72.36
366.889	105.13
367.1	4.78
367.311	8.87
367.522	-5.46
367.733	82.6
367.944	41.64
368.155	-19.8
368.366	66.22
368.577	144.04
368.788	-13.65
368.999	35.5
369.209	72.36
369.42	135.85
369.631	41.64
369.842	96.94
370.053	-13.65
370.264	21.16
370.474	10.92
370.685	60.07
370.896	68.27
371.107	23.21
371.317	72.36
371.528	21.16
371.739	133.8
371.95	23.21
372.16	82.6
372.371	-48.47
372.582	35.5
372.792	0.68
373.003	29.35
373.214	64.17
373.424	62.12
373.635	27.31
373.846	33.45
374.056	123.56
374.267	21.16
374.477	68.27
374.688	41.64
374.898	49.83
375.109	123.56
375.319	27.31
375.53	107.18
375.74	39.59
375.951	62.12
376.161	45.74
376.372	60.07
376.582	86.7
376.793	72.36
377.003	0.68
377.214	98.99
377.424	66.22
377.635	84.65
377.845	60.07
378.055	0.68
378.266	25.26
378.476	51.88
378.686	21.16
378.897	135.85
379.107	72.36
379.317	109.23
379.528	113.32
379.738	96.94
379.948	-3.41
380.158	168.62
380.369	53.93
380.579	68.27
380.789	8.87
380.999	70.31
381.21	23.21
381.42	137.9
381.63	66.22
381.84	68.27
382.05	82.6
382.261	107.18
382.471	58.03
382.681	82.6
382.891	88.75
383.101	53.93
383.311	17.07
383.521	82.6
383.731	41.64
383.941	21.16
384.151	53.93
384.361	45.74
384.571	86.7
384.781	80.55
384.991	139.94
385.201	68.27
385.411	119.46
385.621	31.4
385.831	2.73
386.041	96.94
386.251	66.22
386.461	37.55
386.671	27.31
386.881	113.32
387.091	53.93
387.301	103.08
387.511	51.88
387.72	21.16
387.93	107.18
388.14	49.83
388.35	107.18
388.56	109.23
388.769	66.22
388.979	70.31
389.189	156.33
389.399	70.31
389.609	96.94
389.818	96.94
390.028	125.61
390.238	70.31
390.447	58.03
390.657	168.62
390.867	64.17
391.076	96.94
391.286	88.75
391.496	43.69
391.705	78.51
391.915	113.32
392.125	76.46
392.334	90.79
392.544	164.52
392.753	66.22
392.963	45.74
393.172	55.98
393.382	-32.08
393.591	156.33
393.801	41.64
394.01	92.84
394.22	117.42
394.429	107.18
394.639	121.51
394.848	115.37
395.058	66.22
395.267	25.26
395.477	105.13
395.686	115.37
395.895	182.95
396.105	117.42
396.314	78.51
396.524	148.14
396.733	107.18
396.942	109.23
397.152	135.85
397.361	74.41
397.57	131.75
397.78	113.32
397.989	144.04
398.198	125.61
398.407	47.79
398.617	74.41
398.826	107.18
399.035	74.41
399.244	113.32
399.453	236.2
399.663	178.86
399.872	193.19
400.081	90.79
400.29	98.99
400.499	123.56
400.708	117.42
400.917	148.14
401.127	53.93
401.336	152.23
401.545	185
401.754	160.42
401.963	172.71
402.172	158.38
402.381	127.66
402.59	31.4
402.799	109.23
403.008	148.14
403.217	146.09
403.426	160.42
403.635	111.27
403.844	170.66
404.053	164.52
404.262	201.38
404.471	189.1
404.68	156.33
404.888	244.39
405.097	150.18
405.306	139.94
405.515	168.62
405.724	209.58
405.933	172.71
406.142	238.25
406.35	219.82
406.559	199.34
406.768	275.11
406.977	299.69
407.185	176.81
407.394	242.34
407.603	256.68
407.812	311.97
408.02	299.69
408.229	250.53
408.438	223.91
408.646	256.68
408.855	307.88
409.064	250.53
409.272	277.16
409.481	473.76
409.69	357.03
409.898	283.3
410.107	350.89
410.315	424.61
410.524	346.79
410.733	361.13
410.941	400.04
411.15	352.93
411.358	443.04
411.567	516.77
411.775	465.57
411.984	469.67
412.192	463.52
412.401	434.85
412.609	512.67
412.818	492.2
413.026	545.44
413.234	565.92
413.443	586.4
413.651	631.46
413.86	705.18
414.068	713.38
414.276	750.24
414.485	744.1
414.693	742.05
414.901	768.67
415.11	768.67
415.318	854.69
415.526	942.75
415.734	938.65
415.943	973.47
416.151	975.52
416.359	895.65
416.567	979.61
416.776	1077.91
416.984	1051.29
417.192	1112.73
417.4	1114.78
417.608	1143.45
417.817	1192.6
418.025	1303.19
418.233	1344.15
418.441	1387.16
418.649	1407.64
418.857	1524.37
419.065	1618.58
419.273	1507.99
419.481	1540.76
419.689	1661.59
419.897	1788.56
420.105	1753.74
420.313	1854.09
420.521	1927.82
420.729	1901.2
420.937	2007.69
421.145	2009.74
421.353	2105.99
421.561	2210.44
421.769	2378.37
421.977	2380.42
422.185	2415.24
422.393	2511.49
422.601	2642.56
422.809	2601.6
423.017	2615.94
423.224	2849.41
423.432	2753.15
423.64	2937.47
423.848	3324.54
424.056	3082.88
424.263	3347.06
424.471	3377.78
424.679	3388.02
424.887	3629.68
425.094	3588.72
425.302	3687.03
425.51	3834.48
425.718	3983.98
425.925	4018.8
426.133	4053.61
426.341	4455.01
426.548	4559.46
426.756	4694.63
426.964	4668
427.171	4952.67
427.379	5042.78
427.586	5145.18
427.794	5194.33
428.001	5476.95
428.209	5896.78
428.417	5673.56
428.624	6085.2
428.832	6074.96
429.039	5943.89
429.247	6093.39
429.454	6609.48
429.662	7062.08
429.869	6550.09
430.076	6994.5
430.284	7014.98
430.491	7191.1
430.699	7463.48
430.906	7680.57
431.114	7664.18
431.321	7981.62
431.528	8120.88
431.736	8770.08
431.943	8976.93
432.15	8671.78
432.358	8952.35
432.565	9419.29
432.772	9347.61
432.979	10009.11
433.187	9896.47
433.394	9865.75
433.601	10754.57
433.808	10695.18
434.016	10732.04
434.223	11092.48
434.43	11825.65
434.637	11342.33
434.844	12358.13
435.052	12597.74
435.259	12481
435.466	12540.4
435.673	12177.9
435.88	13140.45
436.087	14053.84
436.294	14135.76
436.501	13701.59
436.708	14014.93
436.915	14369.23
437.122	15153.6
437.329	14920.14
437.537	15542.72
437.743	15677.88
437.95	15765.95
438.157	16275.89
438.364	17021.35
438.571	17043.88
438.778	16896.42
438.985	18542.99
439.192	17652.13
439.399	18303.38
439.606	18028.95
439.813	19149.19
440.02	20255.09
440.227	19614.08
440.433	19667.33
440.64	20089.21
440.847	20169.08
441.054	20402.55
441.261	21897.56
441.467	21768.54
441.674	22217.05
441.881	22917.45
442.088	22896.97
442.294	22569.3
442.501	23322.95
442.708	23886.14
442.914	24564.02
443.121	25458.98
443.328	24762.67
443.534	26902.8
443.741	25684.26
443.948	25600.29
444.154	27599.11
444.361	27097.36
444.568	27726.08
444.774	27435.27
444.981	27941.12
445.187	28879.09
445.394	29806.82
445.6	29409.51
445.807	32245.95
446.013	30869.72
446.22	31234.25
446.426	32598.2
446.633	32815.29
446.839	33527.98
447.046	32524.47
447.252	34406.56
447.459	34441.37
447.665	33878.18
447.871	35842.18
448.078	36843.64
448.284	35393.68
448.491	36395.14
448.697	37398.64
448.903	38535.26
449.11	38436.96
449.316	37507.18
449.522	38129.76
449.728	39561.29
449.935	39610.45
450.141	39432.27
450.347	40572.99
450.553	39075.93
450.76	39569.49
450.966	40597.57
451.172	40089.67
451.378	41699.37
451.584	40429.63
451.791	41785.39
451.997	41248.82
452.203	41682.99
452.409	41537.58
452.615	41789.49
452.821	40192.07
453.027	39835.72
453.233	41504.82
453.44	39995.46
453.646	40572.99
453.852	40816.7
454.058	41289.78
454.264	39585.87
454.47	40849.47
454.676	39940.17
454.882	41117.75
455.088	37400.69
455.294	38080.61
455.5	38393.95
455.705	39141.46
455.911	37329.01
456.117	36724.86
456.323	36149.38
456.529	33923.24
456.735	35688.59
456.941	34865.3
457.147	33882.28
457.352	33341.61
457.558	32882.87
457.764	32833.72
457.97	32731.32
458.176	31606.98
458.381	31633.61
458.587	30046.43
458.793	29944.03
458.999	28301.56
459.204	30370.01
459.41	29843.68
459.616	27504.9
459.821	27914.5
460.027	27533.57
460.233	26831.12
460.438	25655.59
460.644	26161.44
460.85	24688.95
461.055	24754.48
461.261	24316.22
461.466	22497.62
461.672	22307.16
461.878	23390.53
462.083	22030.68
462.289	21805.41
462.494	21393.76
462.7	20386.16
462.905	19825.02
463.111	20468.08
463.316	20574.58
463.522	20367.73
463.727	20150.65
463.932	20326.77
464.138	20009.34
464.343	19908.99
464.549	19356.04
464.754	20177.27
464.959	20072.82
465.165	19798.4
465.37	19192.2
465.575	18610.57
465.781	19249.54
465.986	19636.61
466.191	18606.48
466.397	18426.26
466.602	17334.69
466.807	18182.55
467.012	17906.07
467.218	17932.7
