Data from USB4F104151__7__10-20-09-848.txt Node

Date: Wed Mar 12 10:20:09 EDT 2025
User: louis
Spectrometer: USB4F10415
Trigger mode: 4
Integration Time (sec): 3.000000E-2
Scans to average: 1
Electric dark correction enabled: true
Nonlinearity correction enabled: false
Boxcar width: 0
XAxis mode: Wavelengths
Number of Pixels in Spectrum: 3648
>>>>>Begin Spectral Data<<<<<
178.204	-145.41
178.424	-145.41
178.644	-145.41
178.864	-167.93
179.084	-122.88
179.304	10.24
179.524	-38.91
179.744	-2.05
179.964	12.29
180.184	-4.1
180.404	47.1
180.624	-6.14
180.844	4.1
181.064	-43.01
181.283	34.82
181.503	-49.15
181.723	34.82
181.943	-100.35
182.163	-4.1
182.383	-47.1
182.602	8.19
182.822	-40.96
183.042	40.96
183.262	-43.01
183.482	55.3
183.701	10.24
183.921	32.77
184.141	-59.39
184.361	-10.24
184.58	16.38
184.8	-10.24
185.02	55.3
185.239	-4.1
185.459	8.19
185.679	-36.86
185.898	-28.67
186.118	-45.06
186.338	-47.1
186.557	10.24
186.777	-36.86
186.997	30.72
187.216	16.38
187.436	-10.24
187.655	-55.3
187.875	-34.82
188.095	-8.19
188.314	36.86
188.534	-4.1
188.753	-47.1
188.973	24.58
189.192	8.19
189.412	14.34
189.631	114.69
189.851	-16.38
190.07	53.25
190.29	-12.29
190.509	-30.72
190.729	-75.77
190.948	24.58
191.168	120.83
191.387	73.73
191.607	-2.05
191.826	-55.3
192.045	79.87
192.265	-30.72
192.484	-2.05
192.704	-16.38
192.923	-28.67
193.142	34.82
193.362	16.38
193.581	14.34
193.8	51.2
194.02	16.38
194.239	-26.62
194.458	6.14
194.678	83.97
194.897	-38.91
195.116	8.19
195.335	-36.86
195.555	12.29
195.774	-34.82
195.993	2.05
196.212	40.96
196.432	-14.34
196.651	-45.06
196.87	-14.34
197.089	73.73
197.308	-53.25
197.528	-8.19
197.747	-71.68
197.966	-40.96
198.185	14.34
198.404	-51.2
198.623	2.05
198.842	6.14
199.062	0
199.281	96.25
199.5	0
199.719	22.53
199.938	-20.48
200.157	49.15
200.376	-12.29
200.595	30.72
200.814	2.05
201.033	-2.05
201.252	2.05
201.471	0
201.69	-30.72
201.909	43.01
202.128	-16.38
202.347	10.24
202.566	16.38
202.785	14.34
203.004	-47.1
203.223	32.77
203.442	-8.19
203.661	-22.53
203.879	-45.06
204.098	4.1
204.317	-49.15
204.536	34.82
204.755	26.62
204.974	61.44
205.193	18.43
205.411	36.86
205.63	-10.24
205.849	4.1
206.068	26.62
206.287	-49.15
206.505	-59.39
206.724	-16.38
206.943	-65.54
207.162	28.67
207.381	-12.29
207.599	-63.49
207.818	-59.39
208.037	104.45
208.255	6.14
208.474	6.14
208.693	43.01
208.911	-10.24
209.13	-26.62
209.349	6.14
209.567	26.62
209.786	34.82
210.005	26.62
210.223	0
210.442	-83.97
210.661	20.48
210.879	-8.19
211.098	-34.82
211.316	53.25
211.535	8.19
211.753	-34.82
211.972	-22.53
212.191	-45.06
212.409	-14.34
212.628	18.43
212.846	4.1
213.065	102.4
213.283	75.77
213.502	8.19
213.72	-16.38
213.938	55.3
214.157	-18.43
214.375	-24.58
214.594	2.05
214.812	16.38
215.031	-22.53
215.249	-10.24
215.467	59.39
215.686	-47.1
215.904	61.44
216.122	30.72
216.341	-2.05
216.559	-55.3
216.778	-6.14
216.996	38.91
217.214	12.29
217.432	8.19
217.651	-43.01
217.869	-30.72
218.087	-38.91
218.306	-6.14
218.524	32.77
218.742	-16.38
218.96	14.34
219.179	10.24
219.397	-49.15
219.615	32.77
219.833	-30.72
220.051	-26.62
220.27	24.58
220.488	-34.82
220.706	32.77
220.924	10.24
221.142	32.77
221.36	-14.34
221.578	8.19
221.796	26.62
222.015	0
222.233	-14.34
222.451	59.39
222.669	-34.82
222.887	-2.05
223.105	-16.38
223.323	45.06
223.541	26.62
223.759	-34.82
223.977	61.44
224.195	14.34
224.413	67.58
224.631	10.24
224.849	86.01
225.067	38.91
225.285	-40.96
225.503	-26.62
225.721	-24.58
225.939	-10.24
226.157	-8.19
226.375	-8.19
226.592	16.38
226.81	8.19
227.028	-22.53
227.246	26.62
227.464	18.43
227.682	-20.48
227.9	51.2
228.117	8.19
228.335	20.48
228.553	55.3
228.771	49.15
228.989	18.43
229.206	-73.73
229.424	-6.14
229.642	-49.15
229.86	-8.19
230.077	-10.24
230.295	28.67
230.513	-12.29
230.731	94.21
230.948	77.82
231.166	18.43
231.384	-14.34
231.601	16.38
231.819	51.2
232.037	22.53
232.254	-14.34
232.472	-18.43
232.689	-4.1
232.907	-53.25
233.125	-26.62
233.342	26.62
233.56	-24.58
233.777	-26.62
233.995	16.38
234.213	-6.14
234.43	-36.86
234.648	8.19
234.865	-2.05
235.083	0
235.3	-26.62
235.518	2.05
235.735	30.72
235.953	40.96
236.17	2.05
236.388	-12.29
236.605	8.19
236.822	20.48
237.04	43.01
237.257	-28.67
237.475	-18.43
237.692	22.53
237.909	0
238.127	26.62
238.344	43.01
238.562	14.34
238.779	-90.11
238.996	-43.01
239.214	-30.72
239.431	63.49
239.648	18.43
239.865	49.15
240.083	-71.68
240.3	24.58
240.517	6.14
240.735	-40.96
240.952	-10.24
241.169	40.96
241.386	67.58
241.603	10.24
241.821	16.38
242.038	14.34
242.255	57.34
242.472	-40.96
242.689	-59.39
242.907	18.43
243.124	14.34
243.341	36.86
243.558	-65.54
243.775	34.82
243.992	-12.29
244.209	-83.97
244.426	8.19
244.643	57.34
244.86	-43.01
245.078	51.2
245.295	47.1
245.512	47.1
245.729	8.19
245.946	8.19
246.163	-16.38
246.38	53.25
246.597	-65.54
246.814	-36.86
247.031	10.24
247.248	20.48
247.464	-12.29
247.681	36.86
247.898	-28.67
248.115	30.72
248.332	-22.53
248.549	2.05
248.766	81.92
248.983	77.82
249.2	51.2
249.417	-30.72
249.633	-14.34
249.85	67.58
250.067	20.48
250.284	59.39
250.501	34.82
250.717	14.34
250.934	-32.77
251.151	30.72
251.368	-59.39
251.585	6.14
251.801	0
252.018	4.1
252.235	2.05
252.451	-88.06
252.668	-28.67
252.885	-14.34
253.102	2.05
253.318	22.53
253.535	-14.34
253.752	32.77
253.968	-51.2
254.185	-18.43
254.401	18.43
254.618	36.86
254.835	-26.62
255.051	6.14
255.268	-57.34
255.484	-26.62
255.701	-45.06
255.917	55.3
256.134	-47.1
256.351	24.58
256.567	18.43
256.784	-14.34
257	-83.97
257.217	-18.43
257.433	49.15
257.65	45.06
257.866	63.49
258.082	20.48
258.299	-20.48
258.515	20.48
258.732	-57.34
258.948	-26.62
259.165	-16.38
259.381	-16.38
259.597	-34.82
259.814	-6.14
260.03	-43.01
260.246	-36.86
260.463	12.29
260.679	55.3
260.895	-36.86
261.112	-24.58
261.328	-51.2
261.544	-45.06
261.761	49.15
261.977	71.68
262.193	-18.43
262.409	20.48
262.626	-22.53
262.842	16.38
263.058	-26.62
263.274	26.62
263.49	-30.72
263.707	-26.62
263.923	-24.58
264.139	-32.77
264.355	2.05
264.571	24.58
264.787	34.82
265.004	75.77
265.22	16.38
265.436	22.53
265.652	-30.72
265.868	2.05
266.084	-69.63
266.3	38.91
266.516	-12.29
266.732	-2.05
266.948	53.25
267.164	26.62
267.38	-61.44
267.596	40.96
267.812	38.91
268.028	34.82
268.244	-6.14
268.46	59.39
268.676	-2.05
268.892	-10.24
269.108	-6.14
269.324	-55.3
269.54	-2.05
269.756	59.39
269.972	16.38
270.188	14.34
270.403	-55.3
270.619	-6.14
270.835	0
271.051	43.01
271.267	30.72
271.483	-2.05
271.698	57.34
271.914	100.35
272.13	-22.53
272.346	-63.49
272.562	8.19
272.777	0
272.993	-8.19
273.209	-4.1
273.425	6.14
273.64	-55.3
273.856	22.53
274.072	65.54
274.287	-26.62
274.503	26.62
274.719	26.62
274.934	-22.53
275.15	-94.21
275.366	4.1
275.581	30.72
275.797	-79.87
276.012	-26.62
276.228	-36.86
276.444	-14.34
276.659	-22.53
276.875	-8.19
277.09	-14.34
277.306	-8.19
277.521	2.05
277.737	8.19
277.952	24.58
278.168	-20.48
278.383	-14.34
278.599	0
278.814	79.87
279.03	30.72
279.245	43.01
279.461	-14.34
279.676	26.62
279.892	-73.73
280.107	-14.34
280.322	24.58
280.538	-6.14
280.753	2.05
280.969	24.58
281.184	104.45
281.399	-26.62
281.615	-51.2
281.83	-10.24
282.045	-38.91
282.26	63.49
282.476	20.48
282.691	30.72
282.906	6.14
283.122	53.25
283.337	-57.34
283.552	-26.62
283.767	71.68
283.983	34.82
284.198	-22.53
284.413	12.29
284.628	-49.15
284.843	4.1
285.058	81.92
285.274	-24.58
285.489	53.25
285.704	36.86
285.919	-14.34
286.134	18.43
286.349	34.82
286.564	81.92
286.779	18.43
286.995	24.58
287.21	-47.1
287.425	-59.39
287.64	-4.1
287.855	32.77
288.07	28.67
288.285	8.19
288.5	61.44
288.715	12.29
288.93	14.34
289.145	-47.1
289.36	43.01
289.575	-40.96
289.79	45.06
290.004	-14.34
290.219	16.38
290.434	-53.25
290.649	-26.62
290.864	-32.77
291.079	45.06
291.294	32.77
291.509	14.34
291.724	16.38
291.938	-2.05
292.153	67.58
292.368	16.38
292.583	2.05
292.798	26.62
293.012	43.01
293.227	32.77
293.442	-6.14
293.657	26.62
293.871	-67.58
294.086	-26.62
294.301	45.06
294.516	-26.62
294.73	-4.1
294.945	-34.82
295.16	-6.14
295.374	67.58
295.589	59.39
295.804	2.05
296.018	0
296.233	18.43
296.447	-30.72
296.662	-34.82
296.877	-6.14
297.091	8.19
297.306	22.53
297.52	-53.25
297.735	-32.77
297.949	-14.34
298.164	40.96
298.378	57.34
298.593	-40.96
298.807	12.29
299.022	18.43
299.236	26.62
299.451	-26.62
299.665	0
299.88	65.54
300.094	-8.19
300.309	40.96
300.523	8.19
300.737	-8.19
300.952	0
301.166	63.49
301.381	0
301.595	-10.24
301.809	-38.91
302.024	-14.34
302.238	-38.91
302.452	59.39
302.667	-38.91
302.881	69.63
303.095	38.91
303.309	30.72
303.524	47.1
303.738	-34.82
303.952	-16.38
304.166	30.72
304.381	-30.72
304.595	55.3
304.809	-4.1
305.023	40.96
305.237	0
305.452	-47.1
305.666	81.92
305.88	61.44
306.094	28.67
306.308	-40.96
306.522	51.2
306.736	20.48
306.95	14.34
307.164	16.38
307.379	57.34
307.593	88.06
307.807	51.2
308.021	71.68
308.235	-71.68
308.449	-18.43
308.663	-34.82
308.877	73.73
309.091	0
309.305	30.72
309.519	-30.72
309.733	-47.1
309.947	-49.15
310.161	-10.24
310.374	-10.24
310.588	47.1
310.802	-22.53
311.016	14.34
311.23	28.67
311.444	-2.05
311.658	-6.14
311.872	65.54
312.085	47.1
312.299	51.2
312.513	67.58
312.727	69.63
312.941	-49.15
313.154	-8.19
313.368	69.63
313.582	43.01
313.796	-16.38
314.009	61.44
314.223	14.34
314.437	14.34
314.651	18.43
314.864	-75.77
315.078	-32.77
315.292	-40.96
315.505	-49.15
315.719	-30.72
315.933	-63.49
316.146	24.58
316.36	-10.24
316.573	14.34
316.787	49.15
317.001	92.16
317.214	-40.96
317.428	-43.01
317.641	-57.34
317.855	24.58
318.068	6.14
318.282	-26.62
318.495	40.96
318.709	36.86
318.922	8.19
319.136	63.49
319.349	14.34
319.563	32.77
319.776	30.72
319.99	-12.29
320.203	65.54
320.417	-4.1
320.63	16.38
320.843	96.25
321.057	2.05
321.27	22.53
321.483	-36.86
321.697	18.43
321.91	-2.05
322.124	-32.77
322.337	8.19
322.55	-77.82
322.763	-63.49
322.977	49.15
323.19	-14.34
323.403	16.38
323.617	110.59
323.83	40.96
324.043	-22.53
324.256	36.86
324.469	38.91
324.683	16.38
324.896	73.73
325.109	-38.91
325.322	-26.62
325.535	10.24
325.748	10.24
325.962	18.43
326.175	61.44
326.388	34.82
326.601	-32.77
326.814	2.05
327.027	6.14
327.24	30.72
327.453	-96.25
327.666	16.38
327.879	51.2
328.092	-4.1
328.305	69.63
328.518	28.67
328.731	79.87
328.944	12.29
329.157	-10.24
329.37	0
329.583	153.6
329.796	65.54
330.009	-88.06
330.222	61.44
330.435	-34.82
330.648	-2.05
330.861	75.77
331.073	47.1
331.286	8.19
331.499	4.1
331.712	47.1
331.925	18.43
332.138	-2.05
332.35	0
332.563	26.62
332.776	-38.91
332.989	26.62
333.202	36.86
333.414	40.96
333.627	28.67
333.84	-2.05
334.053	18.43
334.265	8.19
334.478	8.19
334.691	67.58
334.903	55.3
335.116	30.72
335.329	38.91
335.541	38.91
335.754	-8.19
335.966	26.62
336.179	-34.82
336.392	-40.96
336.604	-51.2
336.817	61.44
337.029	-2.05
337.242	-8.19
337.454	34.82
337.667	69.63
337.88	20.48
338.092	10.24
338.305	40.96
338.517	10.24
338.729	55.3
338.942	26.62
339.154	67.58
339.367	-14.34
339.579	18.43
339.792	71.68
340.004	-47.1
340.217	6.14
340.429	104.45
340.641	34.82
340.854	-22.53
341.066	10.24
341.278	24.58
341.491	38.91
341.703	40.96
341.915	28.67
342.128	135.17
342.34	51.2
342.552	34.82
342.764	10.24
342.977	55.3
343.189	83.97
343.401	51.2
343.613	-63.49
343.826	30.72
344.038	-45.06
344.25	22.53
344.462	-4.1
344.674	32.77
344.886	2.05
345.099	-32.77
345.311	61.44
345.523	-8.19
345.735	-4.1
345.947	57.34
346.159	12.29
346.371	-2.05
346.583	-30.72
346.795	116.73
347.007	65.54
347.219	26.62
347.431	22.53
347.643	40.96
347.855	38.91
348.067	51.2
348.279	38.91
348.491	28.67
348.703	30.72
348.915	24.58
349.127	34.82
349.339	-49.15
349.551	6.14
349.763	14.34
349.975	-45.06
350.187	18.43
350.399	-16.38
350.61	14.34
350.822	-16.38
351.034	18.43
351.246	2.05
351.458	28.67
351.669	69.63
351.881	-2.05
352.093	8.19
352.305	88.06
352.517	-4.1
352.728	38.91
352.94	67.58
353.152	16.38
353.363	40.96
353.575	90.11
353.787	81.92
353.999	10.24
354.21	51.2
354.422	-34.82
354.633	18.43
354.845	-32.77
355.057	6.14
355.268	0
355.48	61.44
355.692	57.34
355.903	22.53
356.115	10.24
356.326	-28.67
356.538	-43.01
356.749	34.82
356.961	16.38
357.172	-26.62
357.384	-26.62
357.595	104.45
357.807	18.43
358.018	18.43
358.23	18.43
358.441	92.16
358.653	26.62
358.864	73.73
359.075	-6.14
359.287	6.14
359.498	26.62
359.709	104.45
359.921	-20.48
360.132	59.39
360.344	47.1
360.555	18.43
360.766	-34.82
360.977	-2.05
361.189	22.53
361.4	0
361.611	26.62
361.823	26.62
362.034	34.82
362.245	-10.24
362.456	12.29
362.667	38.91
362.879	69.63
363.09	61.44
363.301	90.11
363.512	73.73
363.723	26.62
363.935	14.34
364.146	94.21
364.357	2.05
364.568	38.91
364.779	-26.62
364.99	47.1
365.201	-43.01
365.412	47.1
365.623	-86.01
365.834	-22.53
366.045	86.01
366.256	102.4
366.467	40.96
366.678	67.58
366.889	51.2
367.1	-22.53
367.311	0
367.522	30.72
367.733	-16.38
367.944	38.91
368.155	28.67
368.366	22.53
368.577	88.06
368.788	81.92
368.999	45.06
369.209	36.86
369.42	77.82
369.631	4.1
369.842	71.68
370.053	-34.82
370.264	-30.72
370.474	71.68
370.685	-6.14
370.896	-8.19
371.107	18.43
371.317	10.24
371.528	-28.67
371.739	149.5
371.95	92.16
372.16	40.96
372.371	-24.58
372.582	49.15
372.792	79.87
373.003	43.01
373.214	-18.43
373.424	-47.1
373.635	18.43
373.846	59.39
374.056	51.2
374.267	49.15
374.477	20.48
374.688	34.82
374.898	30.72
375.109	86.01
375.319	28.67
375.53	34.82
375.74	71.68
375.951	-38.91
376.161	26.62
376.372	47.1
376.582	30.72
376.793	57.34
377.003	71.68
377.214	34.82
377.424	-10.24
377.635	116.73
377.845	24.58
378.055	51.2
378.266	-12.29
378.476	18.43
378.686	69.63
378.897	73.73
379.107	43.01
379.317	28.67
379.528	59.39
379.738	59.39
379.948	-34.82
380.158	8.19
380.369	18.43
380.579	38.91
380.789	63.49
380.999	26.62
381.21	88.06
381.42	49.15
381.63	81.92
381.84	0
382.05	110.59
382.261	71.68
382.471	75.77
382.681	-47.1
382.891	57.34
383.101	24.58
383.311	67.58
383.521	32.77
383.731	-6.14
383.941	47.1
384.151	-30.72
384.361	57.34
384.571	59.39
384.781	79.87
384.991	129.02
385.201	43.01
385.411	-6.14
385.621	59.39
385.831	6.14
386.041	0
386.251	20.48
386.461	51.2
386.671	-14.34
386.881	88.06
387.091	14.34
387.301	100.35
387.511	71.68
387.72	59.39
387.93	-14.34
388.14	32.77
388.35	61.44
388.56	90.11
388.769	47.1
388.979	63.49
389.189	55.3
389.399	55.3
389.609	22.53
389.818	83.97
390.028	26.62
390.238	92.16
390.447	34.82
390.657	45.06
390.867	40.96
391.076	-18.43
391.286	-18.43
391.496	83.97
391.705	34.82
391.915	14.34
392.125	67.58
392.334	32.77
392.544	65.54
392.753	73.73
392.963	43.01
393.172	43.01
393.382	24.58
393.591	139.26
393.801	6.14
394.01	59.39
394.22	108.54
394.429	104.45
394.639	67.58
394.848	86.01
395.058	120.83
395.267	-8.19
395.477	75.77
395.686	73.73
395.895	57.34
396.105	61.44
396.314	43.01
396.524	-4.1
396.733	55.3
396.942	16.38
397.152	16.38
397.361	57.34
397.57	77.82
397.78	139.26
397.989	104.45
398.198	131.07
398.407	53.25
398.617	96.25
398.826	94.21
399.035	67.58
399.244	102.4
399.453	47.1
399.663	30.72
399.872	151.55
400.081	71.68
400.29	126.97
400.499	79.87
400.708	137.21
400.917	118.78
401.127	55.3
401.336	-4.1
401.545	55.3
401.754	139.26
401.963	135.17
402.172	137.21
402.381	79.87
402.59	75.77
402.799	79.87
403.008	90.11
403.217	114.69
403.426	114.69
403.635	114.69
403.844	145.41
404.053	200.7
404.262	131.07
404.471	243.71
404.68	151.55
404.888	116.73
405.097	141.31
405.306	83.97
405.515	108.54
405.724	135.17
405.933	137.21
406.142	120.83
406.35	174.08
406.559	174.08
406.768	131.07
406.977	282.62
407.185	217.08
407.394	206.84
407.603	223.23
407.812	219.13
408.02	270.33
408.229	227.32
408.438	239.61
408.646	227.32
408.855	260.09
409.064	243.71
409.272	219.13
409.481	313.34
409.69	270.33
409.898	231.42
410.107	348.15
410.315	395.26
410.524	309.24
410.733	372.73
410.941	344.06
411.15	339.96
411.358	468.98
411.567	421.88
411.775	399.35
411.984	368.63
412.192	428.03
412.401	505.85
412.609	471.03
412.818	501.75
413.026	616.44
413.234	481.27
413.443	522.23
413.651	546.81
413.86	583.67
414.068	579.58
414.276	679.93
414.485	585.72
414.693	671.73
414.901	806.9
415.11	688.12
415.318	681.97
415.526	813.04
415.734	800.76
415.943	759.8
416.151	882.67
416.359	788.47
416.567	821.24
416.776	929.78
416.984	1046.51
417.192	1048.56
417.4	1026.03
417.608	1069.04
417.817	1124.33
418.025	1114.09
418.233	1271.79
418.441	1239.02
418.649	1239.02
418.857	1316.84
419.065	1357.8
419.273	1370.09
419.481	1376.24
419.689	1544.17
419.897	1624.04
420.105	1660.9
420.313	1640.42
420.521	1705.96
420.729	1689.57
420.937	1746.92
421.145	1923.04
421.353	1970.15
421.561	2127.84
421.769	2156.51
421.977	2334.68
422.185	2275.29
422.393	2324.44
422.601	2392.03
422.809	2422.75
423.017	2469.85
423.224	2533.34
423.432	2717.65
423.64	2803.67
423.848	2998.23
424.056	2979.79
424.263	3071.95
424.471	3078.1
424.679	3110.86
424.887	3311.57
425.094	3551.18
425.302	3385.29
425.51	3553.23
425.718	3629
425.925	3700.68
426.133	3837.89
426.341	4052.93
426.548	4247.49
426.756	4278.21
426.964	4267.97
427.171	4544.44
427.379	4769.72
427.586	4700.09
427.794	4962.23
428.001	5255.09
428.209	5273.52
428.417	5302.19
428.624	5502.89
428.832	5566.38
429.039	5738.41
429.247	5576.62
429.454	5986.21
429.662	6590.36
429.869	6227.87
430.076	6477.73
430.284	6219.68
430.491	6643.61
430.699	6967.19
430.906	6827.93
431.114	7088.02
431.321	7604.11
431.528	7597.96
431.736	7985.03
431.943	8480.64
432.15	7987.08
432.358	8234.88
432.565	8675.2
432.772	8738.68
432.979	9117.56
433.187	9205.62
433.394	9215.86
433.601	9820.01
433.808	10002.28
434.016	9856.87
434.223	10221.41
434.43	10913.63
434.637	10551.14
434.844	11493.2
435.052	11616.08
435.259	11384.66
435.466	11962.19
435.673	11470.67
435.88	12140.36
436.087	12838.72
436.294	12803.9
436.501	12539.71
436.708	12685.12
436.915	13442.87
437.122	13856.56
437.329	13993.77
437.537	14253.86
437.743	14675.74
437.95	14294.82
438.157	15142.68
438.364	15691.54
438.571	15521.56
438.778	15734.54
438.985	17231.61
439.192	16457.48
439.399	17022.72
439.606	16568.07
439.813	17587.96
440.02	18589.41
440.227	18538.21
440.433	18028.27
440.64	18640.61
440.847	18425.57
441.054	19082.97
441.261	20121.29
441.467	19828.43
441.674	20459.21
441.881	21223.1
442.088	21143.23
442.294	20655.81
442.501	21456.57
442.708	21601.97
442.914	22920.87
443.121	23682.71
443.328	22859.43
443.534	24671.88
443.741	23828.12
443.948	23486.11
444.154	25632.38
444.361	24983.17
444.568	25290.37
444.774	25570.94
444.981	25689.72
445.187	26050.16
445.394	27891.29
445.6	26879.59
445.807	29726.27
446.013	28776.01
446.22	28790.34
446.426	29853.24
446.633	30230.07
446.839	31055.4
447.046	30068.28
447.252	31356.45
447.459	31450.66
447.665	31313.44
447.871	32828.94
448.078	34389.49
448.284	32585.23
448.491	33310.21
448.697	34786.8
448.903	35044.84
449.11	35343.84
449.316	34502.13
449.522	35429.86
449.728	36400.6
449.935	36736.46
450.141	36685.26
450.347	37279.18
450.553	35812.83
450.76	36371.92
450.966	37285.32
451.172	36851.15
451.378	37881.28
451.584	37211.59
451.791	37879.23
451.997	37574.08
452.203	38368.69
452.409	38774.19
452.615	38176.19
452.821	36974.03
453.027	36427.22
453.233	38282.68
453.44	36554.19
453.646	37039.56
453.852	37326.28
454.058	38016.44
454.264	36736.46
454.47	37150.15
454.676	36056.54
454.882	37940.67
455.088	34498.03
455.294	34944.49
455.5	35337.7
455.705	35923.42
455.911	34006.52
456.117	33334.79
456.323	32806.41
456.529	31202.85
456.735	32605.71
456.941	31788.57
457.147	31258.15
457.352	30127.67
457.558	30031.41
457.764	29906.49
457.97	29951.54
458.176	28649.03
458.381	28833.35
458.587	27604.57
458.793	27432.54
458.999	25841.27
459.204	27405.92
459.41	27096.67
459.616	25081.47
459.821	25253.5
460.027	25024.13
460.233	24290.96
460.438	23428.76
460.644	23473.82
460.85	22625.96
461.055	22384.3
461.261	22064.82
461.466	20549.32
461.672	19994.32
461.878	21032.64
462.083	19957.46
462.289	19652.31
462.494	19318.49
462.7	18491.11
462.905	18204.39
463.111	18949.85
463.316	19011.29
463.522	18165.48
463.727	18620.13
463.932	18456.29
464.138	18245.35
464.343	18157.29
464.549	17633.01
464.754	18185.96
464.959	18208.49
465.165	18196.2
465.37	17317.62
465.575	17227.51
465.781	17456.89
465.986	17671.92
466.191	17008.38
466.397	16574.21
466.602	15820.56
466.807	16588.55
467.012	16672.51
