Data from USB4F104151__77__10-24-12-371.txt Node

Date: Wed Mar 12 10:24:12 EDT 2025
User: louis
Spectrometer: USB4F10415
Trigger mode: 4
Integration Time (sec): 3.000000E-2
Scans to average: 1
Electric dark correction enabled: true
Nonlinearity correction enabled: false
Boxcar width: 0
XAxis mode: Wavelengths
Number of Pixels in Spectrum: 3648
>>>>>Begin Spectral Data<<<<<
178.204	-121.51
178.424	-121.51
178.644	-121.51
178.864	-178.86
179.084	-94.89
179.304	-62.12
179.524	13.65
179.744	-12.97
179.964	99.67
180.184	9.56
180.404	-4.78
180.624	5.46
180.844	-4.78
181.064	-53.93
181.283	-27.31
181.503	13.65
181.723	23.89
181.943	46.42
182.163	77.14
182.383	40.28
182.602	60.76
182.822	42.32
183.042	19.8
183.262	19.8
183.482	-19.11
183.701	54.61
183.921	85.33
184.141	-35.5
184.361	60.76
184.58	40.28
184.8	13.65
185.02	27.99
185.239	27.99
185.459	62.8
185.679	83.28
185.898	19.8
186.118	15.7
186.338	36.18
186.557	34.13
186.777	9.56
186.997	21.84
187.216	11.61
187.436	71
187.655	85.33
187.875	27.99
188.095	60.76
188.314	36.18
188.534	54.61
188.753	-8.87
188.973	-27.31
189.192	50.52
189.412	-2.73
189.631	60.76
189.851	-17.07
190.07	50.52
190.29	44.37
190.509	3.41
190.729	-19.11
190.948	42.32
191.168	111.96
191.387	81.24
191.607	5.46
191.826	-4.78
192.045	15.7
192.265	64.85
192.484	-6.83
192.704	34.13
192.923	9.56
193.142	142.68
193.362	64.85
193.581	95.57
193.8	79.19
194.02	34.13
194.239	19.8
194.458	54.61
194.678	83.28
194.897	56.66
195.116	-2.73
195.335	5.46
195.555	68.95
195.774	-33.45
195.993	44.37
196.212	52.56
196.432	81.24
196.651	42.32
196.87	-35.5
197.089	83.28
197.308	-47.79
197.528	56.66
197.747	-8.87
197.966	30.04
198.185	109.91
198.404	17.75
198.623	52.56
198.842	50.52
199.062	48.47
199.281	99.67
199.5	-10.92
199.719	30.04
199.938	95.57
200.157	79.19
200.376	83.28
200.595	52.56
200.814	60.76
201.033	56.66
201.252	116.05
201.471	95.57
201.69	52.56
201.909	-2.73
202.128	116.05
202.347	75.09
202.566	9.56
202.785	19.8
203.004	32.08
203.223	36.18
203.442	44.37
203.661	11.61
203.879	79.19
204.098	13.65
204.317	27.99
204.536	50.52
204.755	21.84
204.974	85.33
205.193	-2.73
205.411	75.09
205.63	46.42
205.849	30.04
206.068	58.71
206.287	-2.73
206.505	91.48
206.724	-10.92
206.943	3.41
207.162	-15.02
207.381	7.51
207.599	3.41
207.818	62.8
208.037	83.28
208.255	-6.83
208.474	85.33
208.693	122.2
208.911	-15.02
209.13	23.89
209.349	48.47
209.567	62.8
209.786	83.28
210.005	46.42
210.223	62.8
210.442	3.41
210.661	54.61
210.879	134.48
211.098	30.04
211.316	68.95
211.535	54.61
211.753	-15.02
211.972	66.9
212.191	19.8
212.409	9.56
212.628	52.56
212.846	19.8
213.065	-15.02
213.283	68.95
213.502	46.42
213.72	60.76
213.938	-15.02
214.157	44.37
214.375	107.86
214.594	36.18
214.812	13.65
215.031	77.14
215.249	19.8
215.467	21.84
215.686	7.51
215.904	52.56
216.122	34.13
216.341	73.04
216.559	91.48
216.778	68.95
216.996	34.13
217.214	44.37
217.432	-21.16
217.651	5.46
217.869	25.94
218.087	34.13
218.306	21.84
218.524	38.23
218.742	-21.16
218.96	7.51
219.179	34.13
219.397	34.13
219.615	71
219.833	50.52
220.051	32.08
220.27	79.19
220.488	44.37
220.706	71
220.924	17.75
221.142	36.18
221.36	73.04
221.578	68.95
221.796	-19.11
222.015	19.8
222.233	52.56
222.451	99.67
222.669	19.8
222.887	32.08
223.105	34.13
223.323	44.37
223.541	50.52
223.759	-10.92
223.977	23.89
224.195	79.19
224.413	62.8
224.631	19.8
224.849	21.84
225.067	27.99
225.285	-4.78
225.503	-47.79
225.721	27.99
225.939	25.94
226.157	38.23
226.375	91.48
226.592	36.18
226.81	83.28
227.028	1.37
227.246	79.19
227.464	-19.11
227.682	38.23
227.9	5.46
228.117	13.65
228.335	58.71
228.553	40.28
228.771	66.9
228.989	48.47
229.206	30.04
229.424	1.37
229.642	-53.93
229.86	21.84
230.077	19.8
230.295	68.95
230.513	17.75
230.731	-10.92
230.948	62.8
231.166	99.67
231.384	30.04
231.601	-21.16
231.819	124.24
232.037	30.04
232.254	-10.92
232.472	-4.78
232.689	19.8
232.907	46.42
233.125	-2.73
233.342	71
233.56	5.46
233.777	79.19
233.995	52.56
234.213	93.52
234.43	38.23
234.648	54.61
234.865	101.72
235.083	50.52
235.3	38.23
235.518	32.08
235.735	3.41
235.953	48.47
236.17	17.75
236.388	83.28
236.605	42.32
236.822	25.94
237.04	48.47
237.257	75.09
237.475	1.37
237.692	19.8
237.909	19.8
238.127	34.13
238.344	30.04
238.562	42.32
238.779	-41.64
238.996	38.23
239.214	77.14
239.431	136.53
239.648	27.99
239.865	17.75
240.083	79.19
240.3	13.65
240.517	48.47
240.735	11.61
240.952	38.23
241.169	42.32
241.386	68.95
241.603	73.04
241.821	48.47
242.038	66.9
242.255	19.8
242.472	11.61
242.689	38.23
242.907	79.19
243.124	3.41
243.341	95.57
243.558	3.41
243.775	-8.87
243.992	-25.26
244.209	66.9
244.426	99.67
244.643	-0.68
244.86	62.8
245.078	95.57
245.295	38.23
245.512	128.34
245.729	-84.65
245.946	91.48
246.163	-10.92
246.38	95.57
246.597	38.23
246.814	122.2
247.031	17.75
247.248	109.91
247.464	87.38
247.681	54.61
247.898	64.85
248.115	40.28
248.332	99.67
248.549	23.89
248.766	21.84
248.983	97.62
249.2	-8.87
249.417	89.43
249.633	32.08
249.85	134.48
250.067	66.9
250.284	118.1
250.501	116.05
250.717	83.28
250.934	60.76
251.151	11.61
251.368	60.76
251.585	42.32
251.801	-2.73
252.018	42.32
252.235	99.67
252.451	34.13
252.668	68.95
252.885	89.43
253.102	34.13
253.318	66.9
253.535	83.28
253.752	25.94
253.968	-4.78
254.185	17.75
254.401	17.75
254.618	27.99
254.835	50.52
255.051	48.47
255.268	38.23
255.484	89.43
255.701	58.71
255.917	21.84
256.134	11.61
256.351	-2.73
256.567	-51.88
256.784	68.95
257	5.46
257.217	9.56
257.433	107.86
257.65	50.52
257.866	116.05
258.082	-27.31
258.299	-10.92
258.515	42.32
258.732	-29.35
258.948	50.52
259.165	62.8
259.381	23.89
259.597	50.52
259.814	21.84
260.03	109.91
260.246	48.47
260.463	118.1
260.679	85.33
260.895	-21.16
261.112	13.65
261.328	40.28
261.544	25.94
261.761	150.87
261.977	60.76
262.193	-49.83
262.409	83.28
262.626	60.76
262.842	54.61
263.058	97.62
263.274	23.89
263.49	68.95
263.707	25.94
263.923	30.04
264.139	-12.97
264.355	54.61
264.571	109.91
264.787	30.04
265.004	27.99
265.22	25.94
265.436	15.7
265.652	36.18
265.868	46.42
266.084	73.04
266.3	11.61
266.516	64.85
266.732	66.9
266.948	21.84
267.164	21.84
267.38	91.48
267.596	46.42
267.812	134.48
268.028	27.99
268.244	34.13
268.46	42.32
268.676	-15.02
268.892	97.62
269.108	42.32
269.324	114
269.54	42.32
269.756	60.76
269.972	-21.16
270.188	48.47
270.403	42.32
270.619	48.47
270.835	91.48
271.051	21.84
271.267	32.08
271.483	-25.26
271.698	11.61
271.914	154.96
272.13	79.19
272.346	52.56
272.562	-29.35
272.777	159.06
272.993	-86.7
273.209	-45.74
273.425	42.32
273.64	50.52
273.856	52.56
274.072	105.81
274.287	54.61
274.503	27.99
274.719	128.34
274.934	97.62
275.15	40.28
275.366	109.91
275.581	-19.11
275.797	17.75
276.012	79.19
276.228	66.9
276.444	1.37
276.659	17.75
276.875	-15.02
277.09	73.04
277.306	25.94
277.521	60.76
277.737	34.13
277.952	68.95
278.168	13.65
278.383	58.71
278.599	32.08
278.814	75.09
279.03	7.51
279.245	66.9
279.461	5.46
279.676	46.42
279.892	30.04
280.107	71
280.322	-19.11
280.538	71
280.753	13.65
280.969	71
281.184	9.56
281.399	83.28
281.615	62.8
281.83	32.08
282.045	-21.16
282.26	68.95
282.476	128.34
282.691	52.56
282.906	77.14
283.122	27.99
283.337	17.75
283.552	87.38
283.767	79.19
283.983	122.2
284.198	36.18
284.413	38.23
284.628	9.56
284.843	48.47
285.058	75.09
285.274	36.18
285.489	-15.02
285.704	11.61
285.919	54.61
286.134	-31.4
286.349	23.89
286.564	-19.11
286.779	79.19
286.995	54.61
287.21	91.48
287.425	-6.83
287.64	23.89
287.855	66.9
288.07	-21.16
288.285	152.91
288.5	54.61
288.715	36.18
288.93	-43.69
289.145	34.13
289.36	87.38
289.575	99.67
289.79	95.57
290.004	87.38
290.219	48.47
290.434	66.9
290.649	27.99
290.864	13.65
291.079	87.38
291.294	134.48
291.509	56.66
291.724	97.62
291.938	38.23
292.153	38.23
292.368	-4.78
292.583	44.37
292.798	101.72
293.012	-19.11
293.227	17.75
293.442	13.65
293.657	46.42
293.871	120.15
294.086	21.84
294.301	134.48
294.516	109.91
294.73	50.52
294.945	50.52
295.16	-35.5
295.374	87.38
295.589	58.71
295.804	13.65
296.018	71
296.233	73.04
296.447	42.32
296.662	-23.21
296.877	9.56
297.091	109.91
297.306	46.42
297.52	30.04
297.735	46.42
297.949	114
298.164	13.65
298.378	38.23
298.593	38.23
298.807	-4.78
299.022	46.42
299.236	93.52
299.451	1.37
299.665	3.41
299.88	97.62
300.094	38.23
300.309	44.37
300.523	27.99
300.737	54.61
300.952	-6.83
301.166	48.47
301.381	60.76
301.595	30.04
301.809	21.84
302.024	114
302.238	9.56
302.452	-0.68
302.667	30.04
302.881	62.8
303.095	79.19
303.309	40.28
303.524	15.7
303.738	148.82
303.952	3.41
304.166	89.43
304.381	-6.83
304.595	1.37
304.809	9.56
305.023	101.72
305.237	34.13
305.452	50.52
305.666	15.7
305.88	42.32
306.094	13.65
306.308	42.32
306.522	64.85
306.736	58.71
306.95	-10.92
307.164	40.28
307.379	83.28
307.593	64.85
307.807	46.42
308.021	99.67
308.235	77.14
308.449	-49.83
308.663	50.52
308.877	136.53
309.091	30.04
309.305	132.44
309.519	56.66
309.733	62.8
309.947	23.89
310.161	130.39
310.374	71
310.588	103.76
310.802	-15.02
311.016	-8.87
311.23	71
311.444	25.94
311.658	95.57
311.872	140.63
312.085	120.15
312.299	25.94
312.513	15.7
312.727	81.24
312.941	87.38
313.154	99.67
313.368	142.68
313.582	81.24
313.796	27.99
314.009	17.75
314.223	105.81
314.437	15.7
314.651	93.52
314.864	15.7
315.078	50.52
315.292	44.37
315.505	13.65
315.719	75.09
315.933	21.84
316.146	75.09
316.36	68.95
316.573	27.99
316.787	7.51
317.001	85.33
317.214	-45.74
317.428	46.42
317.641	54.61
317.855	50.52
318.068	62.8
318.282	-2.73
318.495	103.76
318.709	83.28
318.922	15.7
319.136	85.33
319.349	64.85
319.563	66.9
319.776	9.56
319.99	52.56
320.203	109.91
320.417	19.8
320.63	91.48
320.843	89.43
321.057	93.52
321.27	-31.4
321.483	56.66
321.697	50.52
321.91	116.05
322.124	118.1
322.337	77.14
322.55	44.37
322.763	25.94
322.977	99.67
323.19	68.95
323.403	85.33
323.617	66.9
323.83	38.23
324.043	71
324.256	5.46
324.469	9.56
324.683	95.57
324.896	73.04
325.109	36.18
325.322	1.37
325.535	64.85
325.748	54.61
325.962	1.37
326.175	75.09
326.388	107.86
326.601	136.53
326.814	99.67
327.027	77.14
327.24	87.38
327.453	50.52
327.666	40.28
327.879	44.37
328.092	46.42
328.305	64.85
328.518	21.84
328.731	30.04
328.944	77.14
329.157	118.1
329.37	27.99
329.583	122.2
329.796	163.15
330.009	-35.5
330.222	122.2
330.435	38.23
330.648	91.48
330.861	40.28
331.073	95.57
331.286	99.67
331.499	46.42
331.712	38.23
331.925	38.23
332.138	50.52
332.35	105.81
332.563	62.8
332.776	101.72
332.989	58.71
333.202	11.61
333.414	1.37
333.627	75.09
333.84	44.37
334.053	120.15
334.265	23.89
334.478	32.08
334.691	9.56
334.903	126.29
335.116	68.95
335.329	87.38
335.541	75.09
335.754	75.09
335.966	46.42
336.179	77.14
336.392	42.32
336.604	95.57
336.817	91.48
337.029	83.28
337.242	-6.83
337.454	128.34
337.667	40.28
337.88	79.19
338.092	25.94
338.305	60.76
338.517	34.13
338.729	109.91
338.942	103.76
339.154	71
339.367	62.8
339.579	60.76
339.792	-33.45
340.004	46.42
340.217	21.84
340.429	58.71
340.641	27.99
340.854	114
341.066	-12.97
341.278	91.48
341.491	77.14
341.703	128.34
341.915	11.61
342.128	83.28
342.34	50.52
342.552	34.13
342.764	62.8
342.977	17.75
343.189	116.05
343.401	91.48
343.613	30.04
343.826	79.19
344.038	54.61
344.25	132.44
344.462	3.41
344.674	75.09
344.886	30.04
345.099	52.56
345.311	71
345.523	34.13
345.735	-4.78
345.947	114
346.159	34.13
346.371	25.94
346.583	97.62
346.795	62.8
347.007	42.32
347.219	50.52
347.431	27.99
347.643	103.76
347.855	38.23
348.067	114
348.279	50.52
348.491	64.85
348.703	68.95
348.915	103.76
349.127	25.94
349.339	91.48
349.551	1.37
349.763	27.99
349.975	77.14
350.187	138.58
350.399	81.24
350.61	9.56
350.822	46.42
351.034	68.95
351.246	114
351.458	36.18
351.669	114
351.881	79.19
352.093	36.18
352.305	56.66
352.517	58.71
352.728	60.76
352.94	44.37
353.152	79.19
353.363	52.56
353.575	83.28
353.787	177.49
353.999	101.72
354.21	81.24
354.422	77.14
354.633	85.33
354.845	60.76
355.057	97.62
355.268	91.48
355.48	87.38
355.692	64.85
355.903	105.81
356.115	54.61
356.326	-0.68
356.538	83.28
356.749	97.62
356.961	75.09
357.172	44.37
357.384	-19.11
357.595	128.34
357.807	7.51
358.018	-76.46
358.23	44.37
358.441	140.63
358.653	161.11
358.864	73.04
359.075	87.38
359.287	79.19
359.498	103.76
359.709	81.24
359.921	40.28
360.132	5.46
360.344	30.04
360.555	77.14
360.766	87.38
360.977	95.57
361.189	128.34
361.4	54.61
361.611	177.49
361.823	60.76
362.034	89.43
362.245	71
362.456	17.75
362.667	38.23
362.879	-2.73
363.09	105.81
363.301	77.14
363.512	79.19
363.723	27.99
363.935	-15.02
364.146	109.91
364.357	50.52
364.568	79.19
364.779	1.37
364.99	107.86
365.201	73.04
365.412	95.57
365.623	73.04
365.834	5.46
366.045	38.23
366.256	83.28
366.467	25.94
366.678	-15.02
366.889	73.04
367.1	93.52
367.311	122.2
367.522	34.13
367.733	105.81
367.944	81.24
368.155	40.28
368.366	42.32
368.577	122.2
368.788	165.2
368.999	77.14
369.209	114
369.42	62.8
369.631	150.87
369.842	107.86
370.053	79.19
370.264	68.95
370.474	75.09
370.685	56.66
370.896	58.71
371.107	81.24
371.317	126.29
371.528	124.24
371.739	83.28
371.95	64.85
372.16	56.66
372.371	-0.68
372.582	71
372.792	81.24
373.003	99.67
373.214	46.42
373.424	161.11
373.635	62.8
373.846	134.48
374.056	77.14
374.267	42.32
374.477	64.85
374.688	132.44
374.898	71
375.109	111.96
375.319	89.43
375.53	103.76
375.74	32.08
375.951	91.48
376.161	3.41
376.372	42.32
376.582	109.91
376.793	101.72
377.003	5.46
377.214	109.91
377.424	93.52
377.635	111.96
377.845	68.95
378.055	124.24
378.266	42.32
378.476	107.86
378.686	-27.31
378.897	157.01
379.107	95.57
379.317	30.04
379.528	50.52
379.738	60.76
379.948	13.65
380.158	118.1
380.369	101.72
380.579	138.58
380.789	71
380.999	56.66
381.21	109.91
381.42	185.68
381.63	87.38
381.84	66.9
382.05	206.16
382.261	44.37
382.471	120.15
382.681	30.04
382.891	175.44
383.101	103.76
383.311	79.19
383.521	89.43
383.731	140.63
383.941	58.71
384.151	107.86
384.361	87.38
384.571	64.85
384.781	114
384.991	120.15
385.201	185.68
385.411	126.29
385.621	150.87
385.831	118.1
386.041	50.52
386.251	85.33
386.461	105.81
386.671	105.81
386.881	50.52
387.091	38.23
387.301	173.39
387.511	116.05
387.72	122.2
387.93	128.34
388.14	77.14
388.35	134.48
388.56	91.48
388.769	91.48
388.979	101.72
389.189	62.8
389.399	79.19
389.609	30.04
389.818	105.81
390.028	56.66
390.238	81.24
390.447	118.1
390.657	140.63
390.867	62.8
391.076	64.85
391.286	109.91
391.496	144.72
391.705	136.53
391.915	171.35
392.125	152.91
392.334	120.15
392.544	77.14
392.753	97.62
392.963	142.68
393.172	17.75
393.382	142.68
393.591	140.63
393.801	105.81
394.01	118.1
394.22	142.68
394.429	118.1
394.639	34.13
394.848	68.95
395.058	193.87
395.267	150.87
395.477	171.35
395.686	150.87
395.895	189.78
396.105	128.34
396.314	79.19
396.524	107.86
396.733	109.91
396.942	212.31
397.152	77.14
397.361	142.68
397.57	101.72
397.78	181.59
397.989	136.53
398.198	206.16
398.407	142.68
398.617	210.26
398.826	120.15
399.035	148.82
399.244	62.8
399.453	120.15
399.663	175.44
399.872	136.53
400.081	128.34
400.29	111.96
400.499	103.76
400.708	206.16
400.917	167.25
401.127	167.25
401.336	191.83
401.545	193.87
401.754	200.02
401.963	202.07
402.172	183.63
402.381	161.11
402.59	165.2
402.799	181.59
403.008	169.3
403.217	187.73
403.426	185.68
403.635	173.39
403.844	210.26
404.053	234.83
404.262	177.49
404.471	238.93
404.68	200.02
404.888	230.74
405.097	222.55
405.306	214.35
405.515	210.26
405.724	226.64
405.933	218.45
406.142	214.35
406.35	316.75
406.559	324.94
406.768	259.41
406.977	355.66
407.185	320.85
407.394	316.75
407.603	361.81
407.812	316.75
408.02	318.8
408.229	288.08
408.438	288.08
408.646	281.94
408.855	345.42
409.064	421.2
409.272	312.66
409.481	437.58
409.69	460.11
409.898	443.73
410.107	478.54
410.315	451.92
410.524	433.49
410.733	437.58
410.941	515.41
411.15	388.43
411.358	535.89
411.567	558.41
411.775	554.32
411.984	580.94
412.192	578.89
412.401	685.39
412.609	658.76
412.818	693.58
413.026	716.11
413.234	763.21
413.443	752.97
413.651	773.45
413.86	779.59
414.068	853.32
414.276	861.51
414.485	931.14
414.693	925
414.901	1033.54
415.11	1021.25
415.318	910.66
415.526	1035.59
415.734	1029.45
415.943	1178.95
416.151	1152.32
416.359	1230.15
416.567	1213.76
416.776	1254.72
416.984	1467.71
417.192	1436.99
417.4	1414.46
417.608	1447.23
417.817	1414.46
418.025	1447.23
418.233	1627.45
418.441	1684.8
418.649	1678.65
418.857	1729.85
419.065	1881.4
419.273	1856.82
419.481	1971.51
419.689	2090.29
419.897	2116.92
420.105	2227.51
420.313	2235.7
420.521	2368.82
420.729	2372.91
420.937	2452.78
421.145	2481.46
421.353	2583.85
421.561	2786.6
421.769	2641.2
421.977	2964.78
422.185	2860.33
422.393	3015.98
422.601	3214.63
422.809	3140.9
423.017	3306.79
423.224	3427.62
423.432	3493.15
423.64	3583.26
423.848	3824.92
424.056	3765.53
424.263	3992.86
424.471	3917.08
424.679	4001.05
424.887	4332.82
425.094	4515.09
425.302	4480.27
425.51	4695.31
425.718	4766.99
425.925	4859.15
426.133	4891.91
426.341	5238.02
426.548	5410.05
426.756	5473.54
426.964	5602.56
427.171	5950.71
427.379	5907.71
427.586	6278.39
427.794	6305.01
428.001	6845.68
428.209	6786.29
428.417	6903.02
428.624	7300.33
428.832	7296.23
429.039	7300.33
429.247	7226.6
429.454	7916.76
429.662	8473.81
429.869	7996.64
430.076	8434.9
430.284	8201.43
430.491	8563.92
430.699	9037
430.906	9157.83
431.114	9303.24
431.321	9577.67
431.528	9479.36
431.736	10482.87
431.943	10896.56
432.15	10542.26
432.358	10740.91
432.565	11244.71
432.772	11140.27
432.979	11867.3
433.187	11818.15
433.394	12074.14
433.601	12999.82
433.808	12754.07
434.016	12823.7
434.223	13366.41
434.43	14122.11
434.637	13591.69
434.844	14836.85
435.052	15080.56
435.259	14953.59
435.466	15074.42
435.673	14693.49
435.88	15813.73
436.087	16559.19
436.294	16796.76
436.501	16196.7
436.708	16546.9
436.915	16970.83
437.122	18017.35
437.329	17974.34
437.537	18525.24
437.743	18822.2
437.95	18535.48
438.157	19827.75
438.364	19952.68
438.571	19969.06
438.778	20192.29
438.985	22010.89
439.192	21263.38
439.399	21965.83
439.606	21451.79
439.813	22682.62
440.02	23878.63
440.227	23593.97
440.433	23395.31
440.64	24058.85
440.847	23800.81
441.054	24646.62
441.261	26164.17
441.467	25953.23
441.674	26532.8
441.881	27628.46
442.088	27059.13
442.294	26731.45
442.501	27720.62
442.708	27859.88
442.914	29393.81
443.121	30268.3
443.328	29803.41
443.534	31726.45
443.741	30888.83
443.948	30417.8
444.154	32918.37
444.361	32496.49
444.568	32629.6
444.774	32578.4
444.981	33192.79
445.187	33786.71
445.394	35216.19
445.6	34882.37
445.807	38181.65
446.013	36639.53
446.22	37042.98
446.426	38484.75
446.633	38976.26
446.839	39940.85
447.046	38370.06
447.252	40297.2
447.459	40598.25
447.665	39975.67
447.871	41788.12
448.078	43530.94
448.284	41560.8
448.491	42748.62
448.697	44137.14
448.903	45150.88
449.11	45132.45
449.316	44034.74
449.522	44919.46
449.728	46099.09
449.935	46787.21
450.141	46432.91
450.347	47477.38
450.553	46008.98
450.76	46602.89
450.966	47559.3
451.172	47413.89
451.378	48368.24
451.584	47647.36
451.791	48384.63
451.997	48431.73
452.203	49031.79
452.409	48921.19
452.615	48513.65
452.821	46639.76
453.027	46588.56
453.233	48474.74
453.44	46852.75
453.646	47299.2
453.852	47237.76
454.058	47956.6
454.264	46406.29
454.47	47626.88
454.676	46492.3
454.882	48429.68
455.088	43905.72
455.294	44257.97
455.5	45093.54
455.705	45705.88
455.911	43616.96
456.117	42777.29
456.323	41937.62
456.529	40100.59
456.735	41499.36
456.941	40684.26
457.147	39942.9
457.352	38705.93
457.558	38091.54
457.764	38519.56
457.97	37657.37
458.176	36576.04
458.381	36774.69
458.587	34755.39
458.793	34814.79
458.999	33157.98
459.204	35894.07
459.41	34773.83
459.616	31970.16
459.821	32482.15
460.027	32435.05
460.233	31462.26
460.438	30079.88
460.644	30126.99
460.85	28650.4
461.055	28433.32
461.261	28758.94
461.466	26131.4
461.672	25643.98
461.878	27313.08
462.083	25631.69
462.289	25191.38
462.494	24871.9
462.7	23854.06
462.905	23018.49
463.111	23983.08
463.316	23960.55
463.522	23905.26
463.727	23591.92
463.932	23239.67
464.138	23301.11
464.343	23426.03
464.549	22510.59
464.754	23223.28
464.959	23073.78
465.165	23081.97
465.37	22166.53
465.575	21345.3
465.781	22684.67
465.986	22397.95
466.191	21632.01
466.397	21427.21
466.602	20028.45
466.807	21117.97
467.012	21046.29
467.218	21134.35
467.423	20665.37
