Data from USB4F104151__209__10-29-51-904.txt Node

Date: Wed Mar 12 10:29:51 EDT 2025
User: louis
Spectrometer: USB4F10415
Trigger mode: 4
Integration Time (sec): 3.000000E-2
Scans to average: 1
Electric dark correction enabled: true
Nonlinearity correction enabled: false
Boxcar width: 0
XAxis mode: Wavelengths
Number of Pixels in Spectrum: 3648
>>>>>Begin Spectral Data<<<<<
178.204	-191.31
178.424	-191.31
178.644	-191.31
178.864	-156.5
179.084	-107.35
179.304	68.78
179.524	-31.57
179.744	-68.44
179.964	54.44
180.184	15.53
180.404	-33.62
180.624	-29.52
180.844	25.77
181.064	-21.33
181.283	95.4
181.503	-56.15
181.723	-19.29
181.943	19.63
182.163	85.16
182.383	42.15
182.602	113.83
182.822	50.35
183.042	40.11
183.262	17.58
183.482	79.02
183.701	-45.91
183.921	31.91
184.141	-56.15
184.361	21.67
184.58	46.25
184.8	60.59
185.02	25.77
185.239	46.25
185.459	52.39
185.679	56.49
185.898	40.11
186.118	50.35
186.338	33.96
186.557	7.34
186.777	9.39
186.997	38.06
187.216	89.26
187.436	29.87
187.655	122.02
187.875	60.59
188.095	19.63
188.314	81.07
188.534	38.06
188.753	48.3
188.973	42.15
189.192	60.59
189.412	27.82
189.631	36.01
189.851	56.49
190.07	56.49
190.29	-56.15
190.509	40.11
190.729	38.06
190.948	89.26
191.168	122.02
191.387	70.83
191.607	48.3
191.826	76.97
192.045	68.78
192.265	58.54
192.484	40.11
192.704	68.78
192.923	-43.86
193.142	181.42
193.362	15.53
193.581	97.45
193.8	42.15
194.02	74.92
194.239	72.87
194.458	117.93
194.678	-31.57
194.897	-31.57
195.116	21.67
195.335	-9.05
195.555	52.39
195.774	1.19
195.993	50.35
196.212	29.87
196.432	-41.81
196.651	72.87
196.87	25.77
197.089	76.97
197.308	95.4
197.528	91.31
197.747	-2.9
197.966	70.83
198.185	89.26
198.404	54.44
198.623	13.48
198.842	23.72
199.062	21.67
199.281	64.68
199.5	21.67
199.719	31.91
199.938	115.88
200.157	25.77
200.376	27.82
200.595	38.06
200.814	15.53
201.033	-11.09
201.252	107.69
201.471	64.68
201.69	27.82
201.909	50.35
202.128	48.3
202.347	101.55
202.566	60.59
202.785	21.67
203.004	-58.2
203.223	117.93
203.442	54.44
203.661	-76.63
203.879	66.73
204.098	76.97
204.317	-62.29
204.536	11.43
204.755	48.3
204.974	52.39
205.193	46.25
205.411	122.02
205.63	95.4
205.849	1.19
206.068	79.02
206.287	27.82
206.505	52.39
206.724	25.77
206.943	29.87
207.162	64.68
207.381	68.78
207.599	-17.24
207.818	54.44
208.037	-47.96
208.255	-7
208.474	72.87
208.693	64.68
208.911	54.44
209.13	-0.85
209.349	58.54
209.567	93.35
209.786	72.87
210.005	54.44
210.223	42.15
210.442	21.67
210.661	29.87
210.879	91.31
211.098	31.91
211.316	11.43
211.535	58.54
211.753	21.67
211.972	-21.33
212.191	9.39
212.409	27.82
212.628	29.87
212.846	23.72
213.065	138.41
213.283	76.97
213.502	122.02
213.72	60.59
213.938	21.67
214.157	9.39
214.375	21.67
214.594	15.53
214.812	27.82
215.031	-33.62
215.249	-15.19
215.467	105.64
215.686	42.15
215.904	31.91
216.122	-45.91
216.341	21.67
216.559	15.53
216.778	142.5
216.996	72.87
217.214	70.83
217.432	-35.67
217.651	-15.19
217.869	72.87
218.087	29.87
218.306	64.68
218.524	101.55
218.742	-27.48
218.96	107.69
219.179	48.3
219.397	89.26
219.615	132.26
219.833	50.35
220.051	-17.24
220.27	31.91
220.488	79.02
220.706	-7
220.924	89.26
221.142	40.11
221.36	46.25
221.578	36.01
221.796	50.35
222.015	44.2
222.233	46.25
222.451	87.21
222.669	38.06
222.887	107.69
223.105	-23.38
223.323	19.63
223.541	-9.05
223.759	68.78
223.977	29.87
224.195	97.45
224.413	9.39
224.631	58.54
224.849	38.06
225.067	144.55
225.285	-25.43
225.503	-29.52
225.721	72.87
225.939	-17.24
226.157	27.82
226.375	42.15
226.592	-19.29
226.81	23.72
227.028	58.54
227.246	101.55
227.464	25.77
227.682	54.44
227.9	60.59
228.117	124.07
228.335	95.4
228.553	42.15
228.771	74.92
228.989	87.21
229.206	3.24
229.424	48.3
229.642	-17.24
229.86	46.25
230.077	95.4
230.295	76.97
230.513	-9.05
230.731	64.68
230.948	74.92
231.166	40.11
231.384	21.67
231.601	-19.29
231.819	105.64
232.037	-9.05
232.254	48.3
232.472	-17.24
232.689	42.15
232.907	44.2
233.125	19.63
233.342	107.69
233.56	38.06
233.777	99.5
233.995	42.15
234.213	52.39
234.43	152.74
234.648	-35.67
234.865	-43.86
235.083	101.55
235.3	103.59
235.518	9.39
235.735	52.39
235.953	64.68
236.17	3.24
236.388	40.11
236.605	40.11
236.822	113.83
237.04	1.19
237.257	79.02
237.475	40.11
237.692	76.97
237.909	44.2
238.127	-37.72
238.344	17.58
238.562	85.16
238.779	11.43
238.996	101.55
239.214	21.67
239.431	-29.52
239.648	19.63
239.865	25.77
240.083	79.02
240.3	56.49
240.517	-41.81
240.735	23.72
240.952	72.87
241.169	-9.05
241.386	23.72
241.603	79.02
241.821	23.72
242.038	97.45
242.255	3.24
242.472	72.87
242.689	113.83
242.907	68.78
243.124	93.35
243.341	91.31
243.558	21.67
243.775	150.7
243.992	38.06
244.209	25.77
244.426	122.02
244.643	36.01
244.86	76.97
245.078	27.82
245.295	66.73
245.512	68.78
245.729	52.39
245.946	54.44
246.163	58.54
246.38	23.72
246.597	81.07
246.814	70.83
247.031	29.87
247.248	15.53
247.464	-27.48
247.681	99.5
247.898	60.59
248.115	-25.43
248.332	9.39
248.549	93.35
248.766	119.98
248.983	58.54
249.2	56.49
249.417	3.24
249.633	97.45
249.85	56.49
250.067	42.15
250.284	17.58
250.501	107.69
250.717	17.58
250.934	21.67
251.151	95.4
251.368	48.3
251.585	79.02
251.801	29.87
252.018	13.48
252.235	70.83
252.451	-25.43
252.668	19.63
252.885	167.08
253.102	29.87
253.318	17.58
253.535	15.53
253.752	52.39
253.968	48.3
254.185	79.02
254.401	68.78
254.618	-4.95
254.835	-0.85
255.051	119.98
255.268	101.55
255.484	74.92
255.701	54.44
255.917	66.73
256.134	-7
256.351	60.59
256.567	7.34
256.784	15.53
257	13.48
257.217	95.4
257.433	27.82
257.65	87.21
257.866	60.59
258.082	13.48
258.299	62.63
258.515	40.11
258.732	48.3
258.948	72.87
259.165	21.67
259.381	103.59
259.597	79.02
259.814	87.21
260.03	56.49
260.246	60.59
260.463	5.29
260.679	101.55
260.895	15.53
261.112	115.88
261.328	15.53
261.544	115.88
261.761	165.03
261.977	52.39
262.193	13.48
262.409	76.97
262.626	-4.95
262.842	48.3
263.058	13.48
263.274	60.59
263.49	-9.05
263.707	42.15
263.923	89.26
264.139	-9.05
264.355	-11.09
264.571	72.87
264.787	66.73
265.004	89.26
265.22	21.67
265.436	-29.52
265.652	7.34
265.868	64.68
266.084	-17.24
266.3	66.73
266.516	48.3
266.732	89.26
266.948	48.3
267.164	52.39
267.38	56.49
267.596	36.01
267.812	60.59
268.028	95.4
268.244	7.34
268.46	81.07
268.676	48.3
268.892	-13.14
269.108	46.25
269.324	87.21
269.54	42.15
269.756	105.64
269.972	23.72
270.188	29.87
270.403	-23.38
270.619	-17.24
270.835	56.49
271.051	119.98
271.267	58.54
271.483	79.02
271.698	38.06
271.914	46.25
272.13	74.92
272.346	36.01
272.562	38.06
272.777	25.77
272.993	31.91
273.209	-41.81
273.425	58.54
273.64	7.34
273.856	64.68
274.072	70.83
274.287	-29.52
274.503	109.74
274.719	89.26
274.934	-0.85
275.15	58.54
275.366	11.43
275.581	97.45
275.797	40.11
276.012	60.59
276.228	38.06
276.444	56.49
276.659	83.11
276.875	5.29
277.09	56.49
277.306	46.25
277.521	62.63
277.737	27.82
277.952	-41.81
278.168	25.77
278.383	132.26
278.599	31.91
278.814	81.07
279.03	5.29
279.245	83.11
279.461	68.78
279.676	109.74
279.892	-58.2
280.107	52.39
280.322	-2.9
280.538	89.26
280.753	89.26
280.969	64.68
281.184	52.39
281.399	64.68
281.615	-13.14
281.83	44.2
282.045	-35.67
282.26	89.26
282.476	7.34
282.691	68.78
282.906	91.31
283.122	36.01
283.337	5.29
283.552	76.97
283.767	36.01
283.983	117.93
284.198	17.58
284.413	79.02
284.628	-25.43
284.843	50.35
285.058	56.49
285.274	17.58
285.489	68.78
285.704	19.63
285.919	-9.05
286.134	154.79
286.349	56.49
286.564	52.39
286.779	128.17
286.995	36.01
287.21	81.07
287.425	56.49
287.64	-9.05
287.855	25.77
288.07	-0.85
288.285	-13.14
288.5	66.73
288.715	130.22
288.93	23.72
289.145	7.34
289.36	19.63
289.575	-23.38
289.79	23.72
290.004	3.24
290.219	46.25
290.434	48.3
290.649	-17.24
290.864	-7
291.079	46.25
291.294	36.01
291.509	76.97
291.724	-21.33
291.938	31.91
292.153	105.64
292.368	70.83
292.583	-11.09
292.798	122.02
293.012	70.83
293.227	-33.62
293.442	3.24
293.657	40.11
293.871	66.73
294.086	103.59
294.301	36.01
294.516	117.93
294.73	1.19
294.945	3.24
295.16	83.11
295.374	7.34
295.589	25.77
295.804	-39.76
296.018	42.15
296.233	111.78
296.447	58.54
296.662	15.53
296.877	54.44
297.091	27.82
297.306	-33.62
297.52	1.19
297.735	58.54
297.949	76.97
298.164	68.78
298.378	21.67
298.593	93.35
298.807	-41.81
299.022	87.21
299.236	97.45
299.451	72.87
299.665	60.59
299.88	36.01
300.094	46.25
300.309	36.01
300.523	70.83
300.737	7.34
300.952	85.16
301.166	93.35
301.381	21.67
301.595	15.53
301.809	-7
302.024	27.82
302.238	48.3
302.452	103.59
302.667	31.91
302.881	81.07
303.095	68.78
303.309	31.91
303.524	48.3
303.738	52.39
303.952	3.24
304.166	101.55
304.381	44.2
304.595	21.67
304.809	-47.96
305.023	48.3
305.237	99.5
305.452	-7
305.666	97.45
305.88	-9.05
306.094	91.31
306.308	13.48
306.522	91.31
306.736	93.35
306.95	56.49
307.164	74.92
307.379	-13.14
307.593	87.21
307.807	48.3
308.021	-31.57
308.235	52.39
308.449	46.25
308.663	15.53
308.877	109.74
309.091	27.82
309.305	-15.19
309.519	3.24
309.733	91.31
309.947	128.17
310.161	-13.14
310.374	50.35
310.588	113.83
310.802	7.34
311.016	25.77
311.23	52.39
311.444	50.35
311.658	38.06
311.872	113.83
312.085	95.4
312.299	87.21
312.513	42.15
312.727	76.97
312.941	15.53
313.154	15.53
313.368	13.48
313.582	48.3
313.796	27.82
314.009	52.39
314.223	54.44
314.437	64.68
314.651	87.21
314.864	146.6
315.078	23.72
315.292	1.19
315.505	27.82
315.719	11.43
315.933	19.63
316.146	-35.67
316.36	66.73
316.573	27.82
316.787	97.45
317.001	40.11
317.214	40.11
317.428	56.49
317.641	-62.29
317.855	15.53
318.068	85.16
318.282	42.15
318.495	130.22
318.709	109.74
318.922	83.11
319.136	97.45
319.349	46.25
319.563	38.06
319.776	105.64
319.99	25.77
320.203	81.07
320.417	33.96
320.63	46.25
320.843	54.44
321.057	91.31
321.27	3.24
321.483	15.53
321.697	85.16
321.91	29.87
322.124	85.16
322.337	17.58
322.55	56.49
322.763	146.6
322.977	68.78
323.19	15.53
323.403	64.68
323.617	13.48
323.83	128.17
324.043	36.01
324.256	107.69
324.469	36.01
324.683	40.11
324.896	25.77
325.109	70.83
325.322	68.78
325.535	83.11
325.748	27.82
325.962	25.77
326.175	36.01
326.388	62.63
326.601	89.26
326.814	23.72
327.027	68.78
327.24	81.07
327.453	62.63
327.666	66.73
327.879	126.12
328.092	42.15
328.305	79.02
328.518	54.44
328.731	9.39
328.944	89.26
329.157	-19.29
329.37	56.49
329.583	52.39
329.796	87.21
330.009	56.49
330.222	89.26
330.435	42.15
330.648	44.2
330.861	-84.82
331.073	87.21
331.286	50.35
331.499	40.11
331.712	44.2
331.925	52.39
332.138	87.21
332.35	85.16
332.563	33.96
332.776	31.91
332.989	3.24
333.202	13.48
333.414	38.06
333.627	13.48
333.84	36.01
334.053	21.67
334.265	48.3
334.478	83.11
334.691	64.68
334.903	60.59
335.116	105.64
335.329	17.58
335.541	9.39
335.754	105.64
335.966	9.39
336.179	27.82
336.392	64.68
336.604	23.72
336.817	70.83
337.029	15.53
337.242	36.01
337.454	89.26
337.667	21.67
337.88	99.5
338.092	1.19
338.305	89.26
338.517	52.39
338.729	23.72
338.942	70.83
339.154	7.34
339.367	85.16
339.579	-4.95
339.792	23.72
340.004	93.35
340.217	58.54
340.429	142.5
340.641	23.72
340.854	9.39
341.066	62.63
341.278	91.31
341.491	93.35
341.703	-4.95
341.915	-11.09
342.128	105.64
342.34	29.87
342.552	-0.85
342.764	68.78
342.977	68.78
343.189	36.01
343.401	25.77
343.613	-58.2
343.826	42.15
344.038	3.24
344.25	54.44
344.462	-41.81
344.674	48.3
344.886	68.78
345.099	83.11
345.311	13.48
345.523	62.63
345.735	-35.67
345.947	62.63
346.159	95.4
346.371	62.63
346.583	58.54
346.795	46.25
347.007	81.07
347.219	70.83
347.431	36.01
347.643	97.45
347.855	62.63
348.067	64.68
348.279	68.78
348.491	48.3
348.703	103.59
348.915	21.67
349.127	15.53
349.339	64.68
349.551	72.87
349.763	48.3
349.975	-29.52
350.187	64.68
350.399	50.35
350.61	42.15
350.822	76.97
351.034	103.59
351.246	36.01
351.458	38.06
351.669	31.91
351.881	101.55
352.093	74.92
352.305	54.44
352.517	85.16
352.728	122.02
352.94	48.3
353.152	66.73
353.363	56.49
353.575	58.54
353.787	105.64
353.999	33.96
354.21	101.55
354.422	19.63
354.633	58.54
354.845	72.87
355.057	50.35
355.268	72.87
355.48	122.02
355.692	68.78
355.903	56.49
356.115	36.01
356.326	-52.05
356.538	56.49
356.749	93.35
356.961	128.17
357.172	-0.85
357.384	56.49
357.595	140.46
357.807	72.87
358.018	-33.62
358.23	23.72
358.441	72.87
358.653	113.83
358.864	64.68
359.075	62.63
359.287	56.49
359.498	68.78
359.709	81.07
359.921	79.02
360.132	31.91
360.344	44.2
360.555	1.19
360.766	89.26
360.977	68.78
361.189	126.12
361.4	81.07
361.611	93.35
361.823	54.44
362.034	105.64
362.245	64.68
362.456	48.3
362.667	58.54
362.879	66.73
363.09	21.67
363.301	122.02
363.512	29.87
363.723	83.11
363.935	122.02
364.146	117.93
364.357	99.5
364.568	64.68
364.779	42.15
364.99	99.5
365.201	44.2
365.412	27.82
365.623	9.39
365.834	52.39
366.045	56.49
366.256	126.12
366.467	-41.81
366.678	33.96
366.889	62.63
367.1	87.21
367.311	19.63
367.522	42.15
367.733	48.3
367.944	91.31
368.155	40.11
368.366	68.78
368.577	44.2
368.788	89.26
368.999	68.78
369.209	52.39
369.42	101.55
369.631	109.74
369.842	62.63
370.053	81.07
370.264	101.55
370.474	89.26
370.685	-39.76
370.896	56.49
371.107	17.58
371.317	62.63
371.528	130.22
371.739	150.7
371.95	74.92
372.16	95.4
372.371	31.91
372.582	40.11
372.792	83.11
373.003	83.11
373.214	119.98
373.424	117.93
373.635	19.63
373.846	124.07
374.056	54.44
374.267	52.39
374.477	46.25
374.688	62.63
374.898	50.35
375.109	36.01
375.319	54.44
375.53	183.46
375.74	21.67
375.951	72.87
376.161	89.26
376.372	140.46
376.582	76.97
376.793	42.15
377.003	15.53
377.214	103.59
377.424	79.02
377.635	64.68
377.845	23.72
378.055	175.27
378.266	40.11
378.476	93.35
378.686	70.83
378.897	103.59
379.107	81.07
379.317	152.74
379.528	3.24
379.738	13.48
379.948	17.58
380.158	46.25
380.369	44.2
380.579	93.35
380.789	103.59
380.999	29.87
381.21	44.2
381.42	134.31
381.63	93.35
381.84	138.41
382.05	27.82
382.261	44.2
382.471	85.16
382.681	54.44
382.891	81.07
383.101	42.15
383.311	-17.24
383.521	89.26
383.731	122.02
383.941	5.29
384.151	27.82
384.361	162.98
384.571	36.01
384.781	44.2
384.991	132.26
385.201	111.78
385.411	68.78
385.621	40.11
385.831	76.97
386.041	62.63
386.251	76.97
386.461	70.83
386.671	33.96
386.881	38.06
387.091	56.49
387.301	-9.05
387.511	81.07
387.72	76.97
387.93	48.3
388.14	70.83
388.35	93.35
388.56	79.02
388.769	44.2
388.979	119.98
389.189	27.82
389.399	50.35
389.609	99.5
389.818	103.59
390.028	85.16
390.238	-9.05
390.447	76.97
390.657	52.39
390.867	81.07
391.076	19.63
391.286	101.55
391.496	31.91
391.705	-31.57
391.915	36.01
392.125	101.55
392.334	64.68
392.544	113.83
392.753	76.97
392.963	76.97
393.172	46.25
393.382	19.63
393.591	79.02
393.801	70.83
394.01	134.31
394.22	64.68
394.429	126.12
394.639	109.74
394.848	109.74
395.058	40.11
395.267	105.64
395.477	122.02
395.686	85.16
395.895	142.5
396.105	124.07
396.314	154.79
396.524	105.64
396.733	119.98
396.942	126.12
397.152	89.26
397.361	138.41
397.57	154.79
397.78	117.93
397.989	140.46
398.198	101.55
398.407	52.39
398.617	158.89
398.826	111.78
399.035	148.65
399.244	107.69
399.453	64.68
399.663	146.6
399.872	87.21
400.081	19.63
400.29	165.03
400.499	132.26
400.708	99.5
400.917	148.65
401.127	191.66
401.336	113.83
401.545	261.29
401.754	130.22
401.963	140.46
402.172	197.8
402.381	117.93
402.59	197.8
402.799	124.07
403.008	167.08
403.217	64.68
403.426	167.08
403.635	126.12
403.844	167.08
404.053	128.17
404.262	160.94
404.471	179.37
404.68	158.89
404.888	169.13
405.097	169.13
405.306	113.83
405.515	255.14
405.724	165.03
405.933	177.32
406.142	136.36
406.35	146.6
406.559	169.13
406.768	240.81
406.977	234.66
407.185	249
407.394	187.56
407.603	158.89
407.812	160.94
408.02	292.01
408.229	234.66
408.438	285.86
408.646	197.8
408.855	169.13
409.064	261.29
409.272	179.37
409.481	249
409.69	216.23
409.898	289.96
410.107	302.25
410.315	357.54
410.524	369.83
410.733	287.91
410.941	341.16
411.15	380.07
411.358	441.51
411.567	351.4
411.775	441.51
411.984	416.93
412.192	472.23
412.401	400.55
412.609	414.88
412.818	472.23
413.026	466.08
413.234	472.23
413.443	466.08
413.651	496.8
413.86	529.57
414.068	642.21
414.276	576.67
414.485	595.11
414.693	691.36
414.901	683.17
415.11	674.98
415.318	644.26
415.526	658.59
415.734	693.41
415.943	787.61
416.151	810.14
416.359	840.86
416.567	748.7
416.776	851.1
416.984	939.16
417.192	930.97
417.4	965.79
417.608	855.2
417.817	1037.47
418.025	1025.18
418.233	1090.71
418.441	1103
418.649	1043.61
418.857	1215.64
419.065	1270.94
419.273	1227.93
419.481	1244.31
419.689	1359
419.897	1426.58
420.105	1375.38
420.313	1373.33
420.521	1457.3
420.729	1428.63
420.937	1596.56
421.145	1524.88
421.353	1653.91
421.561	1770.64
421.769	1756.3
421.977	1959.05
422.185	1911.95
422.393	2032.78
422.601	2092.17
422.809	2075.79
423.017	2104.46
423.224	2169.99
423.432	2319.5
423.64	2237.58
423.848	2407.56
424.056	2403.46
424.263	2686.08
424.471	2657.41
424.679	2747.52
424.887	2843.78
425.094	2905.21
425.302	2892.93
425.51	3058.81
425.718	3021.95
425.925	3226.75
426.133	3374.2
426.341	3519.6
426.548	3562.61
426.756	3460.21
426.964	3675.25
427.171	3767.41
427.379	4041.84
427.586	4101.23
427.794	4150.38
428.001	4301.93
428.209	4494.44
428.417	4525.16
428.624	4689
428.832	4779.11
429.039	4660.32
429.247	4893.79
429.454	5233.75
429.662	5577.81
429.869	5168.22
430.076	5506.13
430.284	5426.26
430.491	5688.4
430.699	5782.61
430.906	5874.77
431.114	6063.18
431.321	6476.87
431.528	6399.05
431.736	6722.63
431.943	6937.66
432.15	6992.96
432.358	7011.39
432.565	7271.48
432.772	7361.59
432.979	7562.3
433.187	7728.18
433.394	7740.47
433.601	8373.29
433.808	8311.85
434.016	8148.01
434.223	8700.97
434.43	9061.41
434.637	9012.26
434.844	9671.7
435.052	9761.81
435.259	9747.48
435.466	9526.3
435.673	9567.26
435.88	10439.69
436.087	10800.13
436.294	10894.34
436.501	10220.56
436.708	10771.46
436.915	11131.9
437.122	11668.47
437.329	11441.15
437.537	12178.42
437.743	12061.68
437.95	11979.76
438.157	12645.35
438.364	13214.69
438.571	12930.02
438.778	13079.52
438.985	14175.19
439.192	13892.57
439.399	14246.87
439.606	14031.83
439.813	14711.75
440.02	15823.8
440.227	15115.2
440.433	15391.68
440.64	15666.11
440.847	15442.88
441.054	15989.69
441.261	17083.3
441.467	16655.28
441.674	17197.99
441.881	17447.84
442.088	17503.14
442.294	17335.2
442.501	18013.08
442.708	18285.46
442.914	18887.56
443.121	19708.8
443.328	19073.93
443.534	20507.51
443.741	19938.17
443.948	20036.47
444.154	21312.36
444.361	21193.58
444.568	21115.75
444.774	21265.25
444.981	21498.72
445.187	22205.27
445.394	23100.23
445.6	22739.79
445.807	24861.49
446.013	23798.59
446.22	24148.79
446.426	25129.77
446.633	25318.18
446.839	25565.99
447.046	25117.48
447.252	26481.43
447.459	26463
447.665	26354.46
447.871	27755.27
448.078	28875.51
448.284	27120.4
448.491	28164.86
448.697	29156.08
448.903	29506.28
449.11	29743.84
449.316	29223.66
449.522	29618.92
449.728	30376.67
449.935	30616.28
450.141	30329.56
450.347	31312.59
450.553	30313.18
450.76	30728.92
450.966	31404.75
451.172	30995.15
451.378	31998.66
451.584	31351.5
451.791	32076.48
451.997	31953.6
452.203	32142.02
452.409	32320.19
452.615	32289.47
452.821	31238.86
453.027	30876.37
453.233	32379.58
453.44	30868.18
453.646	31339.21
453.852	31032.02
454.058	32105.15
454.264	30782.16
454.47	31406.8
454.676	30708.44
454.882	31617.74
455.088	28979.95
455.294	29727.46
455.5	29588.2
455.705	29991.65
455.911	28859.12
456.117	28138.24
456.323	27636.48
456.529	26432.28
456.735	27417.35
456.941	26680.08
457.147	26327.83
457.352	25674.53
457.558	25121.58
457.764	25473.83
457.97	24718.13
458.176	24494.9
458.381	24343.35
458.587	22975.31
458.793	23102.28
458.999	21873.5
459.204	23350.09
459.41	23073.61
459.616	21207.91
459.821	21554.02
460.027	21341.03
460.233	20810.61
460.438	19655.55
460.644	19913.59
460.85	19227.53
461.055	18758.54
461.261	18758.54
461.466	17533.86
461.672	16839.59
461.878	18037.66
462.083	16993.19
462.289	16493.49
462.494	16362.42
462.7	15782.84
462.905	15403.97
463.111	15969.21
463.316	15981.49
463.522	15666.11
463.727	15729.59
463.932	15563.71
464.138	15637.44
464.343	15283.14
464.549	14885.83
464.754	15465.41
464.959	15197.12
465.165	15270.85
465.37	14736.33
465.575	14228.43
465.781	14814.15
465.986	14861.26
466.191	14195.67
466.397	14089.17
466.602	13532.12
466.807	13874.13
467.012	13810.65
467.218	13827.03
