Data from USB4F104151__73__10-24-07-961.txt Node

Date: Wed Mar 12 10:24:07 EDT 2025
User: louis
Spectrometer: USB4F10415
Trigger mode: 4
Integration Time (sec): 3.000000E-2
Scans to average: 1
Electric dark correction enabled: true
Nonlinearity correction enabled: false
Boxcar width: 0
XAxis mode: Wavelengths
Number of Pixels in Spectrum: 3648
>>>>>Begin Spectral Data<<<<<
178.204	-36.01
178.424	-36.01
178.644	-36.01
178.864	-23.72
179.084	-29.87
179.304	-66.73
179.524	-17.58
179.744	41.81
179.964	-21.67
180.184	-15.53
180.404	-5.29
180.624	-11.43
180.844	33.62
181.064	-15.53
181.283	-13.48
181.503	15.19
181.723	76.63
181.943	-50.35
182.163	43.86
182.383	33.62
182.602	43.86
182.822	166.74
183.042	33.62
183.262	47.96
183.482	50
183.701	2.9
183.921	54.1
184.141	47.96
184.361	78.68
184.58	88.92
184.8	50
185.02	43.86
185.239	62.29
185.459	31.57
185.679	27.48
185.898	4.95
186.118	19.29
186.338	58.2
186.557	-13.48
186.777	-52.39
186.997	29.52
187.216	23.38
187.436	47.96
187.655	115.54
187.875	90.96
188.095	-38.06
188.314	86.87
188.534	74.58
188.753	15.19
188.973	-23.72
189.192	58.2
189.412	19.29
189.631	35.67
189.851	19.29
190.07	109.4
190.29	-3.24
190.509	-1.19
190.729	74.58
190.948	13.14
191.168	119.64
191.387	76.63
191.607	27.48
191.826	45.91
192.045	-25.77
192.265	-44.2
192.484	88.92
192.704	-27.82
192.923	45.91
193.142	56.15
193.362	82.77
193.581	33.62
193.8	164.69
194.02	-7.34
194.239	72.53
194.458	66.39
194.678	11.09
194.897	80.72
195.116	66.39
195.335	29.52
195.555	66.39
195.774	56.15
195.993	80.72
196.212	62.29
196.432	29.52
196.651	54.1
196.87	-7.34
197.089	43.86
197.308	68.44
197.528	52.05
197.747	-11.43
197.966	78.68
198.185	19.29
198.404	21.33
198.623	7
198.842	52.05
199.062	105.3
199.281	52.05
199.5	52.05
199.719	125.78
199.938	117.59
200.157	123.73
200.376	19.29
200.595	29.52
200.814	133.97
201.033	-23.72
201.252	66.39
201.471	136.02
201.69	54.1
201.909	9.05
202.128	19.29
202.347	74.58
202.566	76.63
202.785	-1.19
203.004	-31.91
203.223	103.25
203.442	62.29
203.661	31.57
203.879	76.63
204.098	76.63
204.317	4.95
204.536	17.24
204.755	43.86
204.974	33.62
205.193	29.52
205.411	66.39
205.63	0.85
205.849	2.9
206.068	64.34
206.287	41.81
206.505	90.96
206.724	45.91
206.943	33.62
207.162	-3.24
207.381	21.33
207.599	29.52
207.818	17.24
208.037	15.19
208.255	29.52
208.474	90.96
208.693	62.29
208.911	-36.01
209.13	19.29
209.349	45.91
209.567	72.53
209.786	138.07
210.005	140.12
210.223	45.91
210.442	45.91
210.661	62.29
210.879	33.62
211.098	-19.63
211.316	45.91
211.535	62.29
211.753	41.81
211.972	11.09
212.191	31.57
212.409	50
212.628	74.58
212.846	-3.24
213.065	86.87
213.283	54.1
213.502	101.2
213.72	29.52
213.938	33.62
214.157	97.11
214.375	39.76
214.594	93.01
214.812	70.48
215.031	109.4
215.249	39.76
215.467	56.15
215.686	84.82
215.904	62.29
216.122	33.62
216.341	66.39
216.559	-1.19
216.778	21.33
216.996	66.39
217.214	17.24
217.432	17.24
217.651	97.11
217.869	35.67
218.087	27.48
218.306	13.14
218.524	35.67
218.742	70.48
218.96	111.44
219.179	84.82
219.397	66.39
219.615	103.25
219.833	45.91
220.051	109.4
220.27	78.68
220.488	74.58
220.706	52.05
220.924	9.05
221.142	7
221.36	84.82
221.578	103.25
221.796	90.96
222.015	107.35
222.233	54.1
222.451	11.09
222.669	76.63
222.887	56.15
223.105	11.09
223.323	29.52
223.541	13.14
223.759	17.24
223.977	-7.34
224.195	99.16
224.413	33.62
224.631	72.53
224.849	119.64
225.067	76.63
225.285	56.15
225.503	37.72
225.721	0.85
225.939	93.01
226.157	47.96
226.375	95.06
226.592	4.95
226.81	43.86
227.028	86.87
227.246	95.06
227.464	0.85
227.682	93.01
227.9	66.39
228.117	23.38
228.335	0.85
228.553	119.64
228.771	74.58
228.989	107.35
229.206	-11.43
229.424	31.57
229.642	41.81
229.86	7
230.077	17.24
230.295	133.97
230.513	95.06
230.731	74.58
230.948	84.82
231.166	68.44
231.384	25.43
231.601	37.72
231.819	115.54
232.037	54.1
232.254	43.86
232.472	72.53
232.689	111.44
232.907	25.43
233.125	58.2
233.342	43.86
233.56	50
233.777	27.48
233.995	111.44
234.213	33.62
234.43	9.05
234.648	86.87
234.865	45.91
235.083	-5.29
235.3	-13.48
235.518	50
235.735	133.97
235.953	109.4
236.17	103.25
236.388	68.44
236.605	72.53
236.822	127.83
237.04	156.5
237.257	45.91
237.475	21.33
237.692	45.91
237.909	37.72
238.127	17.24
238.344	50
238.562	58.2
238.779	25.43
238.996	105.3
239.214	62.29
239.431	45.91
239.648	13.14
239.865	21.33
240.083	4.95
240.3	136.02
240.517	80.72
240.735	35.67
240.952	86.87
241.169	160.59
241.386	82.77
241.603	13.14
241.821	27.48
242.038	80.72
242.255	99.16
242.472	-5.29
242.689	93.01
242.907	107.35
243.124	45.91
243.341	-17.58
243.558	9.05
243.775	21.33
243.992	99.16
244.209	97.11
244.426	15.19
244.643	27.48
244.86	19.29
245.078	23.38
245.295	68.44
245.512	74.58
245.729	25.43
245.946	45.91
246.163	0.85
246.38	80.72
246.597	43.86
246.814	45.91
247.031	101.2
247.248	21.33
247.464	45.91
247.681	50
247.898	111.44
248.115	39.76
248.332	35.67
248.549	74.58
248.766	78.68
248.983	19.29
249.2	86.87
249.417	33.62
249.633	54.1
249.85	52.05
250.067	60.24
250.284	25.43
250.501	70.48
250.717	66.39
250.934	101.2
251.151	72.53
251.368	9.05
251.585	93.01
251.801	27.48
252.018	35.67
252.235	15.19
252.451	-5.29
252.668	37.72
252.885	41.81
253.102	4.95
253.318	11.09
253.535	4.95
253.752	82.77
253.968	99.16
254.185	29.52
254.401	70.48
254.618	27.48
254.835	23.38
255.051	125.78
255.268	33.62
255.484	27.48
255.701	29.52
255.917	-1.19
256.134	62.29
256.351	25.43
256.567	111.44
256.784	25.43
257	35.67
257.217	66.39
257.433	70.48
257.65	43.86
257.866	45.91
258.082	27.48
258.299	13.14
258.515	33.62
258.732	-33.96
258.948	93.01
259.165	17.24
259.381	15.19
259.597	103.25
259.814	50
260.03	33.62
260.246	107.35
260.463	88.92
260.679	138.07
260.895	58.2
261.112	43.86
261.328	88.92
261.544	62.29
261.761	127.83
261.977	11.09
262.193	29.52
262.409	45.91
262.626	29.52
262.842	66.39
263.058	-9.39
263.274	56.15
263.49	154.45
263.707	113.49
263.923	39.76
264.139	9.05
264.355	50
264.571	41.81
264.787	74.58
265.004	62.29
265.22	101.2
265.436	144.21
265.652	52.05
265.868	56.15
266.084	50
266.3	90.96
266.516	-13.48
266.732	84.82
266.948	109.4
267.164	95.06
267.38	103.25
267.596	127.83
267.812	113.49
268.028	97.11
268.244	62.29
268.46	93.01
268.676	62.29
268.892	43.86
269.108	-21.67
269.324	39.76
269.54	9.05
269.756	109.4
269.972	7
270.188	33.62
270.403	35.67
270.619	72.53
270.835	131.92
271.051	62.29
271.267	109.4
271.483	121.68
271.698	45.91
271.914	58.2
272.13	78.68
272.346	99.16
272.562	29.52
272.777	37.72
272.993	-46.25
273.209	-3.24
273.425	74.58
273.64	4.95
273.856	45.91
274.072	105.3
274.287	133.97
274.503	13.14
274.719	54.1
274.934	60.24
275.15	13.14
275.366	-36.01
275.581	13.14
275.797	52.05
276.012	90.96
276.228	62.29
276.444	43.86
276.659	62.29
276.875	33.62
277.09	84.82
277.306	52.05
277.521	60.24
277.737	64.34
277.952	52.05
278.168	45.91
278.383	0.85
278.599	-7.34
278.814	125.78
279.03	9.05
279.245	62.29
279.461	60.24
279.676	105.3
279.892	45.91
280.107	119.64
280.322	4.95
280.538	15.19
280.753	-3.24
280.969	72.53
281.184	15.19
281.399	103.25
281.615	70.48
281.83	76.63
282.045	62.29
282.26	66.39
282.476	105.3
282.691	78.68
282.906	29.52
283.122	68.44
283.337	45.91
283.552	17.24
283.767	-27.82
283.983	78.68
284.198	72.53
284.413	68.44
284.628	-25.77
284.843	23.38
285.058	62.29
285.274	76.63
285.489	13.14
285.704	113.49
285.919	93.01
286.134	54.1
286.349	-27.82
286.564	4.95
286.779	123.73
286.995	70.48
287.21	72.53
287.425	101.2
287.64	105.3
287.855	78.68
288.07	95.06
288.285	95.06
288.5	82.77
288.715	45.91
288.93	-40.11
289.145	31.57
289.36	70.48
289.575	62.29
289.79	56.15
290.004	82.77
290.219	64.34
290.434	33.62
290.649	72.53
290.864	-3.24
291.079	-7.34
291.294	58.2
291.509	90.96
291.724	17.24
291.938	103.25
292.153	80.72
292.368	66.39
292.583	131.92
292.798	80.72
293.012	86.87
293.227	88.92
293.442	70.48
293.657	39.76
293.871	86.87
294.086	37.72
294.301	29.52
294.516	64.34
294.73	109.4
294.945	105.3
295.16	41.81
295.374	86.87
295.589	80.72
295.804	72.53
296.018	93.01
296.233	82.77
296.447	23.38
296.662	25.43
296.877	183.12
297.091	62.29
297.306	68.44
297.52	74.58
297.735	115.54
297.949	-7.34
298.164	80.72
298.378	62.29
298.593	54.1
298.807	62.29
299.022	101.2
299.236	95.06
299.451	33.62
299.665	43.86
299.88	11.09
300.094	41.81
300.309	33.62
300.523	-19.63
300.737	35.67
300.952	33.62
301.166	103.25
301.381	70.48
301.595	66.39
301.809	50
302.024	105.3
302.238	54.1
302.452	39.76
302.667	50
302.881	25.43
303.095	64.34
303.309	39.76
303.524	0.85
303.738	27.48
303.952	45.91
304.166	45.91
304.381	17.24
304.595	117.59
304.809	-1.19
305.023	133.97
305.237	4.95
305.452	68.44
305.666	99.16
305.88	58.2
306.094	4.95
306.308	152.4
306.522	29.52
306.736	80.72
306.95	60.24
307.164	56.15
307.379	-1.19
307.593	39.76
307.807	35.67
308.021	72.53
308.235	78.68
308.449	-1.19
308.663	27.48
308.877	148.31
309.091	58.2
309.305	138.07
309.519	21.33
309.733	136.02
309.947	-58.54
310.161	90.96
310.374	125.78
310.588	43.86
310.802	58.2
311.016	105.3
311.23	41.81
311.444	52.05
311.658	47.96
311.872	70.48
312.085	39.76
312.299	125.78
312.513	54.1
312.727	50
312.941	29.52
313.154	93.01
313.368	62.29
313.582	84.82
313.796	90.96
314.009	33.62
314.223	70.48
314.437	72.53
314.651	107.35
314.864	78.68
315.078	31.57
315.292	50
315.505	-5.29
315.719	35.67
315.933	95.06
316.146	84.82
316.36	107.35
316.573	119.64
316.787	88.92
317.001	72.53
317.214	97.11
317.428	45.91
317.641	-23.72
317.855	97.11
318.068	41.81
318.282	68.44
318.495	70.48
318.709	4.95
318.922	21.33
319.136	107.35
319.349	54.1
319.563	99.16
319.776	37.72
319.99	66.39
320.203	66.39
320.417	45.91
320.63	80.72
320.843	90.96
321.057	142.16
321.27	86.87
321.483	84.82
321.697	109.4
321.91	129.88
322.124	86.87
322.337	60.24
322.55	43.86
322.763	9.05
322.977	66.39
323.19	54.1
323.403	54.1
323.617	95.06
323.83	82.77
324.043	70.48
324.256	25.43
324.469	-23.72
324.683	123.73
324.896	95.06
325.109	54.1
325.322	11.09
325.535	84.82
325.748	62.29
325.962	123.73
326.175	68.44
326.388	66.39
326.601	107.35
326.814	103.25
327.027	-9.39
327.24	82.77
327.453	25.43
327.666	11.09
327.879	152.4
328.092	35.67
328.305	47.96
328.518	129.88
328.731	99.16
328.944	60.24
329.157	45.91
329.37	74.58
329.583	150.36
329.796	88.92
330.009	50
330.222	103.25
330.435	84.82
330.648	70.48
330.861	152.4
331.073	66.39
331.286	-17.58
331.499	62.29
331.712	52.05
331.925	11.09
332.138	68.44
332.35	78.68
332.563	58.2
332.776	138.07
332.989	-5.29
333.202	115.54
333.414	86.87
333.627	-31.91
333.84	84.82
334.053	37.72
334.265	64.34
334.478	9.05
334.691	76.63
334.903	103.25
335.116	113.49
335.329	-15.53
335.541	127.83
335.754	103.25
335.966	66.39
336.179	93.01
336.392	88.92
336.604	11.09
336.817	58.2
337.029	119.64
337.242	80.72
337.454	56.15
337.667	82.77
337.88	103.25
338.092	33.62
338.305	93.01
338.517	37.72
338.729	115.54
338.942	78.68
339.154	39.76
339.367	93.01
339.579	78.68
339.792	66.39
340.004	45.91
340.217	4.95
340.429	78.68
340.641	21.33
340.854	74.58
341.066	64.34
341.278	11.09
341.491	90.96
341.703	93.01
341.915	78.68
342.128	35.67
342.34	90.96
342.552	43.86
342.764	52.05
342.977	70.48
343.189	50
343.401	115.54
343.613	-11.43
343.826	64.34
344.038	45.91
344.25	52.05
344.462	45.91
344.674	111.44
344.886	2.9
345.099	105.3
345.311	113.49
345.523	82.77
345.735	37.72
345.947	60.24
346.159	66.39
346.371	64.34
346.583	125.78
346.795	62.29
347.007	15.19
347.219	103.25
347.431	74.58
347.643	13.14
347.855	45.91
348.067	0.85
348.279	66.39
348.491	113.49
348.703	31.57
348.915	-17.58
349.127	-11.43
349.339	84.82
349.551	86.87
349.763	76.63
349.975	45.91
350.187	76.63
350.399	95.06
350.61	144.21
350.822	72.53
351.034	84.82
351.246	11.09
351.458	121.68
351.669	66.39
351.881	101.2
352.093	62.29
352.305	54.1
352.517	109.4
352.728	148.31
352.94	82.77
353.152	74.58
353.363	29.52
353.575	146.26
353.787	50
353.999	31.57
354.21	58.2
354.422	-11.43
354.633	29.52
354.845	111.44
355.057	41.81
355.268	82.77
355.48	109.4
355.692	50
355.903	97.11
356.115	39.76
356.326	35.67
356.538	70.48
356.749	62.29
356.961	31.57
357.172	68.44
357.384	15.19
357.595	97.11
357.807	70.48
358.018	-5.29
358.23	76.63
358.441	78.68
358.653	68.44
358.864	62.29
359.075	41.81
359.287	88.92
359.498	66.39
359.709	95.06
359.921	150.36
360.132	129.88
360.344	19.29
360.555	103.25
360.766	84.82
360.977	78.68
361.189	140.12
361.4	29.52
361.611	97.11
361.823	95.06
362.034	119.64
362.245	-46.25
362.456	19.29
362.667	99.16
362.879	35.67
363.09	113.49
363.301	68.44
363.512	86.87
363.723	64.34
363.935	93.01
364.146	27.48
364.357	107.35
364.568	72.53
364.779	29.52
364.99	95.06
365.201	4.95
365.412	78.68
365.623	152.4
365.834	95.06
366.045	62.29
366.256	39.76
366.467	37.72
366.678	66.39
366.889	45.91
367.1	19.29
367.311	183.12
367.522	-1.19
367.733	95.06
367.944	35.67
368.155	117.59
368.366	70.48
368.577	33.62
368.788	133.97
368.999	45.91
369.209	103.25
369.42	127.83
369.631	121.68
369.842	68.44
370.053	39.76
370.264	68.44
370.474	43.86
370.685	41.81
370.896	99.16
371.107	133.97
371.317	62.29
371.528	78.68
371.739	56.15
371.95	95.06
372.16	119.64
372.371	99.16
372.582	80.72
372.792	64.34
373.003	72.53
373.214	70.48
373.424	107.35
373.635	70.48
373.846	156.5
374.056	21.33
374.267	181.07
374.477	58.2
374.688	99.16
374.898	68.44
375.109	119.64
375.319	56.15
375.53	97.11
375.74	127.83
375.951	80.72
376.161	13.14
376.372	168.79
376.582	13.14
376.793	86.87
377.003	60.24
377.214	60.24
377.424	158.55
377.635	119.64
377.845	13.14
378.055	125.78
378.266	52.05
378.476	29.52
378.686	99.16
378.897	140.12
379.107	45.91
379.317	103.25
379.528	101.2
379.738	54.1
379.948	39.76
380.158	131.92
380.369	95.06
380.579	21.33
380.789	33.62
380.999	68.44
381.21	50
381.42	119.64
381.63	-29.87
381.84	111.44
382.05	84.82
382.261	123.73
382.471	101.2
382.681	64.34
382.891	115.54
383.101	95.06
383.311	27.48
383.521	99.16
383.731	109.4
383.941	109.4
384.151	74.58
384.361	99.16
384.571	168.79
384.781	101.2
384.991	123.73
385.201	109.4
385.411	58.2
385.621	68.44
385.831	127.83
386.041	105.3
386.251	117.59
386.461	50
386.671	76.63
386.881	4.95
387.091	121.68
387.301	105.3
387.511	58.2
387.72	144.21
387.93	70.48
388.14	119.64
388.35	152.4
388.56	90.96
388.769	70.48
388.979	54.1
389.189	52.05
389.399	111.44
389.609	39.76
389.818	136.02
390.028	25.43
390.238	66.39
390.447	33.62
390.657	82.77
390.867	70.48
391.076	62.29
391.286	131.92
391.496	17.24
391.705	86.87
391.915	140.12
392.125	115.54
392.334	107.35
392.544	123.73
392.753	52.05
392.963	107.35
393.172	111.44
393.382	50
393.591	187.22
393.801	68.44
394.01	142.16
394.22	54.1
394.429	121.68
394.639	111.44
394.848	115.54
395.058	101.2
395.267	152.4
395.477	158.55
395.686	95.06
395.895	176.98
396.105	197.46
396.314	99.16
396.524	148.31
396.733	74.58
396.942	138.07
397.152	103.25
397.361	226.13
397.57	82.77
397.78	115.54
397.989	127.83
398.198	156.5
398.407	93.01
398.617	74.58
398.826	95.06
399.035	58.2
399.244	191.31
399.453	203.6
399.663	58.2
399.872	78.68
400.081	60.24
400.29	213.84
400.499	150.36
400.708	70.48
400.917	107.35
401.127	50
401.336	125.78
401.545	195.41
401.754	146.26
401.963	170.83
402.172	111.44
402.381	127.83
402.59	72.53
402.799	152.4
403.008	136.02
403.217	152.4
403.426	197.46
403.635	76.63
403.844	172.88
404.053	209.75
404.262	174.93
404.471	148.31
404.68	256.85
404.888	140.12
405.097	183.12
405.306	201.55
405.515	176.98
405.724	181.07
405.933	217.94
406.142	109.4
406.35	232.27
406.559	262.99
406.768	176.98
406.977	213.84
407.185	224.08
407.394	230.23
407.603	238.42
407.812	258.9
408.02	238.42
408.229	211.79
408.438	228.18
408.646	256.85
408.855	217.94
409.064	275.28
409.272	285.52
409.481	324.43
409.69	277.33
409.898	336.72
410.107	346.96
410.315	381.78
410.524	328.53
410.733	324.43
410.941	420.69
411.15	463.69
411.358	373.58
411.567	529.23
411.775	449.36
411.984	455.5
412.192	494.41
412.401	441.17
412.609	525.13
412.818	512.85
413.026	566.09
413.234	543.57
413.443	500.56
413.651	559.95
413.86	494.41
414.068	652.11
414.276	666.44
414.485	684.87
414.693	701.26
414.901	746.31
415.11	701.26
415.318	731.98
415.526	693.07
415.734	807.75
415.943	811.85
416.151	885.58
416.359	779.08
416.567	901.96
416.776	881.48
416.984	891.72
417.192	1033.03
417.4	1000.26
417.608	1010.5
417.817	1096.52
418.025	1084.23
418.233	1209.15
418.441	1219.39
418.649	1227.59
418.857	1307.46
419.065	1346.37
419.273	1321.79
419.481	1424.19
419.689	1502.01
419.897	1391.42
420.105	1598.27
420.313	1592.13
420.521	1569.6
420.729	1569.6
420.937	1854.27
421.145	1897.27
421.353	1997.62
421.561	1940.28
421.769	2016.05
421.977	2149.17
422.185	2100.02
422.393	2282.29
422.601	2286.39
422.809	2210.61
423.017	2378.55
423.224	2507.57
423.432	2538.29
423.64	2669.36
423.848	2853.67
424.056	2681.64
424.263	2870.06
424.471	2921.26
424.679	3037.99
424.887	3156.77
425.094	3226.4
425.302	3353.38
425.51	3318.56
425.718	3541.79
425.925	3582.75
426.133	3717.92
426.341	3834.65
426.548	4018.97
426.756	4016.92
426.964	4080.41
427.171	4303.64
427.379	4363.03
427.586	4487.95
427.794	4643.6
428.001	4961.03
428.209	4852.49
428.417	4938.51
428.624	5329.67
428.832	5411.59
429.039	5280.52
429.247	5317.38
429.454	5788.41
429.662	5989.11
429.869	5741.31
430.076	6236.92
430.284	5866.24
430.491	6308.6
430.699	6648.56
430.906	6701.81
431.114	6773.49
431.321	6855.4
431.528	7152.36
431.736	7578.34
431.943	7688.93
432.15	7664.35
432.358	7641.82
432.565	8278.74
432.772	8123.1
432.979	8487.64
433.187	8708.82
433.394	8725.2
433.601	9214.66
433.808	9216.71
434.016	9284.3
434.223	9671.36
434.43	10300.09
434.637	10083
434.844	10746.55
435.052	10781.36
435.259	10699.44
435.466	11014.83
435.673	10597.04
435.88	11412.14
436.087	12114.59
436.294	12120.73
436.501	11727.52
436.708	11991.71
436.915	12268.19
437.122	12749.46
437.329	12819.09
437.537	13318.79
437.743	13488.78
437.95	13283.98
438.157	14193.28
438.364	14512.76
438.571	14426.75
438.778	14705.27
438.985	15827.56
439.192	15360.62
439.399	15794.79
439.606	15434.35
439.813	16560.73
440.02	17226.32
440.227	17060.43
440.433	16947.79
440.64	17439.31
440.847	17211.98
441.054	17701.45
441.261	18995.76
441.467	18528.83
441.674	19053.11
441.881	19368.49
442.088	19587.63
442.294	19438.12
442.501	20025.89
442.708	20234.78
442.914	21027.35
443.121	21877.26
443.328	21459.47
443.534	22929.91
443.741	22163.97
443.948	21899.78
444.154	23747.05
444.361	23443.95
444.568	23501.29
444.774	23591.41
444.981	23773.67
445.187	24654.3
445.394	25606.61
445.6	25082.33
445.807	27576.75
446.013	26376.64
446.22	26888.64
446.426	27728.3
446.633	28375.46
446.839	28823.97
447.046	28012.97
447.252	29438.36
447.459	29309.33
447.665	29270.42
447.871	30009.74
448.078	31629.68
448.284	30292.36
448.491	31097.21
448.697	32199.02
448.903	32794.98
449.11	32858.46
449.316	31951.21
449.522	32754.02
449.728	33630.55
449.935	34066.77
450.141	33771.86
450.347	34509.13
450.553	33409.37
450.76	33882.45
450.966	34797.89
451.172	34216.27
451.378	35242.3
451.584	34552.13
451.791	35608.89
451.997	35504.44
452.203	35977.52
452.409	35922.23
452.615	35520.82
452.821	34152.78
453.027	33993.04
453.233	35481.91
453.44	34277.71
453.646	34486.6
453.852	34382.15
454.058	35187
454.264	34136.4
454.47	35070.27
454.676	33896.78
454.882	35144
455.088	31844.72
455.294	32512.36
455.5	32692.58
455.705	33149.28
455.911	31781.23
456.117	31345.02
456.323	31074.68
456.529	28959.13
456.735	30265.74
456.941	29612.43
457.147	28848.54
457.352	28213.67
457.558	27869.61
457.764	27875.76
457.97	27738.54
458.176	26786.24
458.381	26749.37
458.587	25512.4
458.793	25700.81
458.999	24117.73
459.204	25856.46
459.41	25258.45
459.616	23493.1
459.821	23476.72
460.027	23452.14
460.233	23138.8
460.438	21946.89
460.644	21942.79
460.85	20998.68
461.055	20779.54
461.261	20726.3
461.466	19345.97
461.672	18707
461.878	19802.66
462.083	18700.86
462.289	18225.73
462.494	18315.84
462.7	17226.32
462.905	16998.99
463.111	17363.53
463.316	17547.85
463.522	17146.45
463.727	17222.22
463.932	17367.63
464.138	17070.67
464.343	16906.84
464.549	16558.68
464.754	17175.12
464.959	16919.12
465.165	16826.96
465.37	16116.32
465.575	15635.05
465.781	15979.11
465.986	16663.13
466.191	15848.04
466.397	15532.65
466.602	14735.99
466.807	15385.19
467.012	15241.84
467.218	15123.05
467.423	15088.24
