Data from USB4F104151__258__10-39-52-828.txt Node

Date: Wed Mar 12 10:39:52 EDT 2025
User: louis
Spectrometer: USB4F10415
Trigger mode: 4
Integration Time (sec): 3.000000E-2
Scans to average: 1
Electric dark correction enabled: true
Nonlinearity correction enabled: false
Boxcar width: 0
XAxis mode: Wavelengths
Number of Pixels in Spectrum: 3648
>>>>>Begin Spectral Data<<<<<
178.204	-176.13
178.424	-176.13
178.644	-176.13
178.864	-163.84
179.084	-90.11
179.304	-28.67
179.524	-20.48
179.744	-28.67
179.964	57.34
180.184	34.82
180.404	14.34
180.624	-36.86
180.844	18.43
181.064	-30.72
181.283	-14.34
181.503	4.1
181.723	30.72
181.943	-28.67
182.163	-26.62
182.383	45.06
182.602	-45.06
182.822	67.58
183.042	24.58
183.262	-8.19
183.482	20.48
183.701	-51.2
183.921	-2.05
184.141	-6.14
184.361	4.1
184.58	55.3
184.8	18.43
185.02	2.05
185.239	67.58
185.459	22.53
185.679	45.06
185.898	49.15
186.118	-18.43
186.338	-49.15
186.557	30.72
186.777	-28.67
186.997	59.39
187.216	-47.1
187.436	10.24
187.655	90.11
187.875	94.21
188.095	-38.91
188.314	-16.38
188.534	67.58
188.753	20.48
188.973	47.1
189.192	43.01
189.412	61.44
189.631	57.34
189.851	0
190.07	14.34
190.29	4.1
190.509	32.77
190.729	-49.15
190.948	22.53
191.168	104.45
191.387	2.05
191.607	24.58
191.826	59.39
192.045	24.58
192.265	40.96
192.484	10.24
192.704	-32.77
192.923	-14.34
193.142	20.48
193.362	40.96
193.581	47.1
193.8	32.77
194.02	10.24
194.239	16.38
194.458	34.82
194.678	-43.01
194.897	30.72
195.116	-43.01
195.335	22.53
195.555	51.2
195.774	51.2
195.993	30.72
196.212	40.96
196.432	6.14
196.651	43.01
196.87	-8.19
197.089	-14.34
197.308	59.39
197.528	49.15
197.747	-14.34
197.966	2.05
198.185	40.96
198.404	-43.01
198.623	6.14
198.842	81.92
199.062	20.48
199.281	63.49
199.5	-2.05
199.719	47.1
199.938	88.06
200.157	73.73
200.376	65.54
200.595	-18.43
200.814	2.05
201.033	10.24
201.252	65.54
201.471	38.91
201.69	129.02
201.909	18.43
202.128	-30.72
202.347	120.83
202.566	-28.67
202.785	81.92
203.004	22.53
203.223	40.96
203.442	102.4
203.661	26.62
203.879	-20.48
204.098	104.45
204.317	34.82
204.536	118.78
204.755	96.25
204.974	-32.77
205.193	43.01
205.411	0
205.63	30.72
205.849	30.72
206.068	34.82
206.287	34.82
206.505	40.96
206.724	18.43
206.943	18.43
207.162	18.43
207.381	53.25
207.599	-40.96
207.818	16.38
208.037	38.91
208.255	22.53
208.474	32.77
208.693	18.43
208.911	-36.86
209.13	43.01
209.349	90.11
209.567	40.96
209.786	53.25
210.005	-12.29
210.223	6.14
210.442	-59.39
210.661	-75.77
210.879	26.62
211.098	32.77
211.316	63.49
211.535	131.07
211.753	65.54
211.972	16.38
212.191	28.67
212.409	12.29
212.628	34.82
212.846	61.44
213.065	26.62
213.283	47.1
213.502	34.82
213.72	6.14
213.938	-24.58
214.157	51.2
214.375	4.1
214.594	20.48
214.812	24.58
215.031	-10.24
215.249	-6.14
215.467	12.29
215.686	40.96
215.904	26.62
216.122	59.39
216.341	-6.14
216.559	51.2
216.778	86.01
216.996	73.73
217.214	6.14
217.432	40.96
217.651	57.34
217.869	69.63
218.087	32.77
218.306	100.35
218.524	88.06
218.742	16.38
218.96	34.82
219.179	71.68
219.397	59.39
219.615	38.91
219.833	86.01
220.051	14.34
220.27	81.92
220.488	-14.34
220.706	94.21
220.924	47.1
221.142	69.63
221.36	6.14
221.578	36.86
221.796	112.64
222.015	40.96
222.233	34.82
222.451	73.73
222.669	-49.15
222.887	110.59
223.105	43.01
223.323	43.01
223.541	43.01
223.759	30.72
223.977	26.62
224.195	81.92
224.413	28.67
224.631	61.44
224.849	12.29
225.067	131.07
225.285	30.72
225.503	47.1
225.721	32.77
225.939	30.72
226.157	6.14
226.375	102.4
226.592	22.53
226.81	34.82
227.028	51.2
227.246	32.77
227.464	151.55
227.682	63.49
227.9	18.43
228.117	73.73
228.335	67.58
228.553	6.14
228.771	38.91
228.989	14.34
229.206	34.82
229.424	10.24
229.642	67.58
229.86	34.82
230.077	26.62
230.295	30.72
230.513	108.54
230.731	38.91
230.948	-30.72
231.166	36.86
231.384	65.54
231.601	20.48
231.819	20.48
232.037	53.25
232.254	-6.14
232.472	51.2
232.689	-2.05
232.907	2.05
233.125	-30.72
233.342	47.1
233.56	-30.72
233.777	-8.19
233.995	16.38
234.213	55.3
234.43	22.53
234.648	43.01
234.865	47.1
235.083	-10.24
235.3	-8.19
235.518	59.39
235.735	51.2
235.953	32.77
236.17	61.44
236.388	47.1
236.605	47.1
236.822	94.21
237.04	81.92
237.257	38.91
237.475	-30.72
237.692	49.15
237.909	49.15
238.127	-2.05
238.344	-16.38
238.562	69.63
238.779	4.1
238.996	-47.1
239.214	67.58
239.431	12.29
239.648	-14.34
239.865	-10.24
240.083	18.43
240.3	-6.14
240.517	94.21
240.735	16.38
240.952	16.38
241.169	86.01
241.386	26.62
241.603	26.62
241.821	-34.82
242.038	-8.19
242.255	104.45
242.472	6.14
242.689	59.39
242.907	47.1
243.124	-8.19
243.341	18.43
243.558	-2.05
243.775	26.62
243.992	30.72
244.209	90.11
244.426	-12.29
244.643	24.58
244.86	-4.1
245.078	-2.05
245.295	22.53
245.512	59.39
245.729	49.15
245.946	151.55
246.163	18.43
246.38	-6.14
246.597	69.63
246.814	-14.34
247.031	10.24
247.248	34.82
247.464	90.11
247.681	59.39
247.898	120.83
248.115	51.2
248.332	49.15
248.549	57.34
248.766	57.34
248.983	38.91
249.2	12.29
249.417	28.67
249.633	38.91
249.85	53.25
250.067	40.96
250.284	47.1
250.501	47.1
250.717	59.39
250.934	32.77
251.151	59.39
251.368	49.15
251.585	40.96
251.801	2.05
252.018	30.72
252.235	53.25
252.451	30.72
252.668	-10.24
252.885	55.3
253.102	8.19
253.318	2.05
253.535	67.58
253.752	-2.05
253.968	49.15
254.185	57.34
254.401	124.93
254.618	4.1
254.835	14.34
255.051	73.73
255.268	-40.96
255.484	71.68
255.701	-57.34
255.917	-24.58
256.134	18.43
256.351	43.01
256.567	-63.49
256.784	71.68
257	32.77
257.217	40.96
257.433	-2.05
257.65	96.25
257.866	94.21
258.082	-14.34
258.299	26.62
258.515	47.1
258.732	-38.91
258.948	63.49
259.165	10.24
259.381	141.31
259.597	-34.82
259.814	36.86
260.03	30.72
260.246	45.06
260.463	69.63
260.679	53.25
260.895	20.48
261.112	-36.86
261.328	34.82
261.544	-49.15
261.761	124.93
261.977	86.01
262.193	2.05
262.409	49.15
262.626	71.68
262.842	122.88
263.058	61.44
263.274	34.82
263.49	61.44
263.707	65.54
263.923	24.58
264.139	57.34
264.355	20.48
264.571	71.68
264.787	-24.58
265.004	104.45
265.22	30.72
265.436	10.24
265.652	55.3
265.868	38.91
266.084	2.05
266.3	26.62
266.516	63.49
266.732	49.15
266.948	30.72
267.164	10.24
267.38	38.91
267.596	-8.19
267.812	131.07
268.028	24.58
268.244	131.07
268.46	12.29
268.676	38.91
268.892	40.96
269.108	20.48
269.324	40.96
269.54	116.73
269.756	22.53
269.972	2.05
270.188	83.97
270.403	81.92
270.619	-49.15
270.835	38.91
271.051	96.25
271.267	8.19
271.483	2.05
271.698	96.25
271.914	96.25
272.13	34.82
272.346	30.72
272.562	163.84
272.777	92.16
272.993	8.19
273.209	-63.49
273.425	43.01
273.64	16.38
273.856	43.01
274.072	30.72
274.287	32.77
274.503	88.06
274.719	12.29
274.934	-22.53
275.15	24.58
275.366	55.3
275.581	-61.44
275.797	-2.05
276.012	22.53
276.228	24.58
276.444	-10.24
276.659	55.3
276.875	55.3
277.09	49.15
277.306	67.58
277.521	22.53
277.737	-2.05
277.952	2.05
278.168	47.1
278.383	-8.19
278.599	63.49
278.814	75.77
279.03	10.24
279.245	79.87
279.461	24.58
279.676	98.3
279.892	-10.24
280.107	43.01
280.322	-8.19
280.538	4.1
280.753	-28.67
280.969	38.91
281.184	81.92
281.399	-2.05
281.615	51.2
281.83	32.77
282.045	32.77
282.26	22.53
282.476	18.43
282.691	34.82
282.906	53.25
283.122	57.34
283.337	0
283.552	61.44
283.767	40.96
283.983	63.49
284.198	90.11
284.413	88.06
284.628	20.48
284.843	65.54
285.058	75.77
285.274	75.77
285.489	83.97
285.704	55.3
285.919	-2.05
286.134	137.21
286.349	22.53
286.564	14.34
286.779	67.58
286.995	-30.72
287.21	-22.53
287.425	-2.05
287.64	63.49
287.855	-2.05
288.07	55.3
288.285	18.43
288.5	20.48
288.715	47.1
288.93	30.72
289.145	63.49
289.36	81.92
289.575	0
289.79	88.06
290.004	57.34
290.219	120.83
290.434	38.91
290.649	-63.49
290.864	98.3
291.079	59.39
291.294	75.77
291.509	36.86
291.724	10.24
291.938	45.06
292.153	90.11
292.368	40.96
292.583	-30.72
292.798	18.43
293.012	-2.05
293.227	40.96
293.442	51.2
293.657	61.44
293.871	86.01
294.086	114.69
294.301	120.83
294.516	4.1
294.73	90.11
294.945	-22.53
295.16	61.44
295.374	32.77
295.589	116.73
295.804	-8.19
296.018	55.3
296.233	133.12
296.447	51.2
296.662	43.01
296.877	40.96
297.091	112.64
297.306	79.87
297.52	57.34
297.735	24.58
297.949	20.48
298.164	32.77
298.378	45.06
298.593	43.01
298.807	51.2
299.022	40.96
299.236	34.82
299.451	53.25
299.665	40.96
299.88	-40.96
300.094	104.45
300.309	34.82
300.523	24.58
300.737	59.39
300.952	90.11
301.166	69.63
301.381	-65.54
301.595	36.86
301.809	116.73
302.024	86.01
302.238	43.01
302.452	32.77
302.667	81.92
302.881	59.39
303.095	57.34
303.309	43.01
303.524	18.43
303.738	51.2
303.952	79.87
304.166	38.91
304.381	4.1
304.595	36.86
304.809	8.19
305.023	18.43
305.237	-57.34
305.452	30.72
305.666	53.25
305.88	49.15
306.094	38.91
306.308	30.72
306.522	26.62
306.736	4.1
306.95	96.25
307.164	114.69
307.379	22.53
307.593	51.2
307.807	104.45
308.021	67.58
308.235	-16.38
308.449	-4.1
308.663	49.15
308.877	157.69
309.091	26.62
309.305	61.44
309.519	12.29
309.733	61.44
309.947	8.19
310.161	45.06
310.374	12.29
310.588	90.11
310.802	61.44
311.016	16.38
311.23	30.72
311.444	-14.34
311.658	16.38
311.872	92.16
312.085	22.53
312.299	75.77
312.513	36.86
312.727	-61.44
312.941	34.82
313.154	88.06
313.368	114.69
313.582	106.49
313.796	-10.24
314.009	69.63
314.223	45.06
314.437	73.73
314.651	16.38
314.864	22.53
315.078	12.29
315.292	26.62
315.505	-36.86
315.719	73.73
315.933	26.62
316.146	18.43
316.36	71.68
316.573	38.91
316.787	47.1
317.001	51.2
317.214	4.1
317.428	112.64
317.641	20.48
317.855	32.77
318.068	71.68
318.282	-26.62
318.495	49.15
318.709	53.25
318.922	55.3
319.136	114.69
319.349	36.86
319.563	-34.82
319.776	40.96
319.99	34.82
320.203	79.87
320.417	77.82
320.63	98.3
320.843	126.97
321.057	86.01
321.27	110.59
321.483	-24.58
321.697	129.02
321.91	49.15
322.124	90.11
322.337	6.14
322.55	-6.14
322.763	88.06
322.977	57.34
323.19	24.58
323.403	24.58
323.617	67.58
323.83	63.49
324.043	-2.05
324.256	71.68
324.469	34.82
324.683	104.45
324.896	61.44
325.109	40.96
325.322	55.3
325.535	26.62
325.748	16.38
325.962	14.34
326.175	32.77
326.388	55.3
326.601	22.53
326.814	14.34
327.027	63.49
327.24	53.25
327.453	-18.43
327.666	34.82
327.879	100.35
328.092	18.43
328.305	10.24
328.518	59.39
328.731	-28.67
328.944	8.19
329.157	53.25
329.37	-6.14
329.583	59.39
329.796	73.73
330.009	24.58
330.222	100.35
330.435	157.69
330.648	98.3
330.861	14.34
331.073	38.91
331.286	26.62
331.499	24.58
331.712	22.53
331.925	22.53
332.138	77.82
332.35	55.3
332.563	75.77
332.776	124.93
332.989	12.29
333.202	49.15
333.414	-4.1
333.627	71.68
333.84	59.39
334.053	51.2
334.265	14.34
334.478	98.3
334.691	77.82
334.903	43.01
335.116	6.14
335.329	61.44
335.541	108.54
335.754	102.4
335.966	36.86
336.179	32.77
336.392	45.06
336.604	73.73
336.817	63.49
337.029	40.96
337.242	61.44
337.454	79.87
337.667	18.43
337.88	20.48
338.092	67.58
338.305	16.38
338.517	63.49
338.729	75.77
338.942	67.58
339.154	12.29
339.367	34.82
339.579	8.19
339.792	18.43
340.004	47.1
340.217	47.1
340.429	34.82
340.641	55.3
340.854	79.87
341.066	69.63
341.278	57.34
341.491	116.73
341.703	63.49
341.915	51.2
342.128	102.4
342.34	67.58
342.552	43.01
342.764	71.68
342.977	61.44
343.189	45.06
343.401	90.11
343.613	14.34
343.826	55.3
344.038	18.43
344.25	61.44
344.462	30.72
344.674	12.29
344.886	2.05
345.099	126.97
345.311	30.72
345.523	63.49
345.735	34.82
345.947	43.01
346.159	-30.72
346.371	69.63
346.583	-43.01
346.795	61.44
347.007	57.34
347.219	22.53
347.431	-18.43
347.643	122.88
347.855	-36.86
348.067	-30.72
348.279	2.05
348.491	104.45
348.703	32.77
348.915	32.77
349.127	6.14
349.339	98.3
349.551	2.05
349.763	63.49
349.975	96.25
350.187	20.48
350.399	106.49
350.61	34.82
350.822	16.38
351.034	20.48
351.246	30.72
351.458	75.77
351.669	122.88
351.881	47.1
352.093	67.58
352.305	83.97
352.517	-47.1
352.728	100.35
352.94	40.96
353.152	-6.14
353.363	2.05
353.575	59.39
353.787	10.24
353.999	83.97
354.21	139.26
354.422	6.14
354.633	71.68
354.845	51.2
355.057	28.67
355.268	-30.72
355.48	75.77
355.692	18.43
355.903	88.06
356.115	20.48
356.326	57.34
356.538	75.77
356.749	16.38
356.961	98.3
357.172	14.34
357.384	8.19
357.595	83.97
357.807	-22.53
358.018	63.49
358.23	59.39
358.441	63.49
358.653	51.2
358.864	4.1
359.075	88.06
359.287	18.43
359.498	104.45
359.709	8.19
359.921	114.69
360.132	67.58
360.344	71.68
360.555	-6.14
360.766	26.62
360.977	94.21
361.189	67.58
361.4	28.67
361.611	57.34
361.823	24.58
362.034	30.72
362.245	-34.82
362.456	129.02
362.667	67.58
362.879	55.3
363.09	106.49
363.301	77.82
363.512	10.24
363.723	51.2
363.935	49.15
364.146	53.25
364.357	51.2
364.568	79.87
364.779	24.58
364.99	55.3
365.201	47.1
365.412	155.65
365.623	47.1
365.834	57.34
366.045	63.49
366.256	32.77
366.467	133.12
366.678	22.53
366.889	65.54
367.1	43.01
367.311	108.54
367.522	86.01
367.733	59.39
367.944	92.16
368.155	10.24
368.366	47.1
368.577	71.68
368.788	94.21
368.999	65.54
369.209	96.25
369.42	75.77
369.631	98.3
369.842	116.73
370.053	2.05
370.264	-6.14
370.474	24.58
370.685	30.72
370.896	143.36
371.107	81.92
371.317	34.82
371.528	67.58
371.739	0
371.95	61.44
372.16	112.64
372.371	18.43
372.582	24.58
372.792	106.49
373.003	81.92
373.214	30.72
373.424	88.06
373.635	61.44
373.846	92.16
374.056	34.82
374.267	47.1
374.477	90.11
374.688	20.48
374.898	71.68
375.109	108.54
375.319	102.4
375.53	131.07
375.74	118.78
375.951	100.35
376.161	83.97
376.372	18.43
376.582	57.34
376.793	98.3
377.003	79.87
377.214	47.1
377.424	90.11
377.635	126.97
377.845	38.91
378.055	102.4
378.266	51.2
378.476	65.54
378.686	88.06
378.897	34.82
379.107	108.54
379.317	90.11
379.528	153.6
379.738	163.84
379.948	67.58
380.158	36.86
380.369	108.54
380.579	90.11
380.789	-6.14
380.999	96.25
381.21	30.72
381.42	81.92
381.63	51.2
381.84	69.63
382.05	135.17
382.261	141.31
382.471	32.77
382.681	75.77
382.891	67.58
383.101	184.32
383.311	112.64
383.521	34.82
383.731	196.61
383.941	88.06
384.151	22.53
384.361	90.11
384.571	92.16
384.781	104.45
384.991	116.73
385.201	38.91
385.411	55.3
385.621	55.3
385.831	69.63
386.041	73.73
386.251	79.87
386.461	98.3
386.671	90.11
386.881	96.25
387.091	122.88
387.301	86.01
387.511	120.83
387.72	98.3
387.93	108.54
388.14	38.91
388.35	88.06
388.56	94.21
388.769	114.69
388.979	69.63
389.189	18.43
389.399	24.58
389.609	155.65
389.818	71.68
390.028	75.77
390.238	104.45
390.447	38.91
390.657	18.43
390.867	75.77
391.076	26.62
391.286	71.68
391.496	165.89
391.705	135.17
391.915	172.03
392.125	122.88
392.334	104.45
392.544	77.82
392.753	104.45
392.963	20.48
393.172	79.87
393.382	100.35
393.591	118.78
393.801	79.87
394.01	149.5
394.22	69.63
394.429	172.03
394.639	45.06
394.848	63.49
395.058	116.73
395.267	83.97
395.477	137.21
395.686	61.44
395.895	147.45
396.105	202.75
396.314	155.65
396.524	129.02
396.733	43.01
396.942	135.17
397.152	108.54
397.361	98.3
397.57	149.5
397.78	137.21
397.989	178.17
398.198	174.08
398.407	114.69
398.617	157.69
398.826	133.12
399.035	165.89
399.244	153.6
399.453	147.45
399.663	131.07
399.872	133.12
400.081	129.02
400.29	112.64
400.499	133.12
400.708	208.89
400.917	169.98
401.127	182.27
401.336	145.41
401.545	219.13
401.754	219.13
401.963	196.61
402.172	114.69
402.381	143.36
402.59	131.07
402.799	141.31
403.008	219.13
403.217	155.65
403.426	147.45
403.635	120.83
403.844	202.75
404.053	149.5
404.262	186.37
404.471	299
404.68	196.61
404.888	198.65
405.097	143.36
405.306	249.85
405.515	256
405.724	145.41
405.933	223.23
406.142	258.04
406.35	292.86
406.559	233.47
406.768	178.17
406.977	348.15
407.185	251.9
407.394	288.76
407.603	290.81
407.812	319.48
408.02	382.97
408.229	253.95
408.438	366.59
408.646	276.48
408.855	329.72
409.064	354.3
409.272	364.54
409.481	339.96
409.69	395.26
409.898	387.07
410.107	497.66
410.315	487.42
410.524	481.27
410.733	536.57
410.941	483.32
411.15	507.9
411.358	591.86
411.567	534.52
411.775	557.05
411.984	573.43
412.192	600.05
412.401	651.25
412.609	671.73
412.818	710.65
413.026	604.15
413.234	696.31
413.443	661.49
413.651	737.27
413.86	808.95
414.068	763.89
414.276	851.95
414.485	890.87
414.693	925.68
414.901	972.79
415.11	923.63
415.318	1001.46
415.526	1081.33
415.734	1009.65
415.943	1083.38
416.151	1165.29
416.359	1112.05
416.567	1069.04
416.776	1288.17
416.984	1300.46
417.192	1394.67
417.4	1335.28
417.608	1384.43
417.817	1413.1
418.025	1464.3
418.233	1570.79
418.441	1572.84
418.649	1609.7
418.857	1681.38
419.065	1722.34
419.273	1767.4
419.481	1908.71
419.689	1943.52
419.897	2058.21
420.105	2056.16
420.313	2172.89
420.521	2117.6
420.729	2127.84
420.937	2340.83
421.145	2492.38
421.353	2332.64
421.561	2701.27
421.769	2795.48
421.977	2832.34
422.185	2744.28
422.393	3055.57
422.601	3198.93
422.809	3295.18
423.017	3317.71
423.224	3284.94
423.432	3524.55
423.64	3418.06
423.848	3893.19
424.056	3743.69
424.263	4077.51
424.471	4057.03
424.679	4100.03
424.887	4374.46
425.094	4374.46
425.302	4476.86
425.51	4659.13
425.718	4646.84
425.925	4929.46
426.133	4958.13
426.341	5316.53
426.548	5531.56
426.756	5543.85
426.964	5607.34
427.171	5908.39
427.379	5967.78
427.586	6332.32
427.794	6342.56
428.001	6692.76
428.209	7018.39
428.417	6870.94
428.624	7372.69
428.832	7362.45
429.039	7311.25
429.247	7253.91
429.454	8107.91
429.662	8619.9
429.869	7974.79
430.076	8699.77
430.284	8580.99
430.491	8701.82
430.699	9295.73
430.906	9144.18
431.114	9383.79
431.321	9828.2
431.528	9768.81
431.736	10540.9
431.943	10991.45
432.15	10491.74
432.358	10807.13
432.565	11304.79
432.772	11204.44
432.979	12083.02
433.187	12154.69
433.394	12394.31
433.601	13004.6
433.808	12726.08
434.016	12818.24
434.223	13707.05
434.43	14372.64
434.637	13918
434.844	14888.73
435.052	15263.51
435.259	15130.39
435.466	15376.15
435.673	15466.26
435.88	16404.23
436.087	17049.34
436.294	16930.56
436.501	16824.06
436.708	17157.88
436.915	17444.6
437.122	18407.14
437.329	18122.48
437.537	18949.85
437.743	19316.44
437.95	19238.62
438.157	20293.32
438.364	20594.37
438.571	20852.42
438.778	20960.96
438.985	22996.64
439.192	22218.41
439.399	22828.71
439.606	22286
439.813	23451.29
440.02	24934.02
440.227	24430.22
440.433	24247.95
440.64	24714.89
440.847	24805
441.054	25603.71
441.261	27291.23
441.467	26789.48
441.674	26910.31
441.881	28239.44
442.088	28513.87
442.294	27997.78
442.501	28585.55
442.708	29425.21
442.914	30471.73
443.121	31559.2
443.328	30823.98
443.534	33093.13
443.741	32249.36
443.948	31637.02
444.154	34559.47
444.361	33809.92
444.568	34280.95
444.774	34092.54
444.981	34414.07
445.187	35239.4
445.394	36732.37
445.6	36326.87
445.807	39710.11
446.013	37952.96
446.22	39120.3
446.426	40185.24
446.633	40668.56
446.839	41801.09
447.046	40549.78
447.252	42442.1
447.459	42249.6
447.665	42016.13
447.871	44029.28
448.078	45405.52
448.284	43609.45
448.491	44477.79
448.697	46411.07
448.903	47185.2
449.11	46812.47
449.316	46445.88
449.522	47256.88
449.728	48438.56
449.935	48669.98
450.141	48393.5
450.347	49591.56
450.553	48170.27
450.76	48180.51
450.966	49960.2
451.172	49782.02
451.378	50515.2
451.584	49888.52
451.791	50621.69
451.997	50410.75
452.203	51113.2
452.409	51002.61
452.615	50715.9
452.821	48885.01
453.027	48262.43
453.233	50478.33
453.44	48379.17
453.646	49253.65
453.852	49110.29
454.058	49614.09
454.264	48413.98
454.47	49399.05
454.676	47942.95
454.882	49536.27
455.088	45022.54
455.294	45837.64
455.5	46443.84
455.705	46595.38
455.911	45094.22
456.117	43842.91
456.323	43175.28
456.529	41072.01
456.735	42825.07
456.941	41651.59
457.147	40945.04
457.352	39837.09
457.558	38925.74
457.764	39185.83
457.97	38604.21
458.176	37758.4
458.381	37588.42
458.587	35679.71
458.793	35538.4
458.999	34121.21
459.204	35892.7
459.41	35141.1
459.616	32683.53
459.821	33191.43
460.027	32648.72
460.233	31876.63
460.438	30379.57
460.644	30690.86
460.85	29263.43
461.055	29173.31
461.261	28814.92
461.466	26904.17
461.672	26097.27
461.878	27934.29
462.083	26265.2
462.289	25364.09
462.494	25360
462.7	24084.11
462.905	23441.05
463.111	24811.14
463.316	24549
463.522	24037.01
463.727	23973.52
463.932	23864.98
464.138	23785.11
464.343	23670.42
464.549	23193.25
464.754	23918.23
464.959	24018.58
465.165	23426.71
465.37	22419.11
465.575	22208.17
465.781	22884
465.986	22832.8
466.191	22275.76
466.397	21624.5
466.602	20770.5
466.807	21507.77
467.012	21632.69
467.218	21599.93
467.423	21130.94
