Data from USB4F104151__70__10-24-04-092.txt Node

Date: Wed Mar 12 10:24:04 EDT 2025
User: louis
Spectrometer: USB4F10415
Trigger mode: 4
Integration Time (sec): 3.000000E-2
Scans to average: 1
Electric dark correction enabled: true
Nonlinearity correction enabled: false
Boxcar width: 0
XAxis mode: Wavelengths
Number of Pixels in Spectrum: 3648
>>>>>Begin Spectral Data<<<<<
178.204	-68.27
178.424	-68.27
178.644	-68.27
178.864	-58.03
179.084	-162.47
179.304	13.65
179.524	-31.4
179.744	21.85
179.964	48.47
180.184	-60.07
180.404	11.61
180.624	58.71
180.844	40.28
181.064	-43.69
181.283	-68.27
181.503	13.65
181.723	-4.78
181.943	-19.11
182.163	111.96
182.383	56.66
182.602	42.32
182.822	111.96
183.042	40.28
183.262	7.51
183.482	122.2
183.701	34.13
183.921	62.8
184.141	27.99
184.361	34.13
184.58	19.8
184.8	50.52
185.02	48.47
185.239	124.24
185.459	42.32
185.679	95.57
185.898	21.85
186.118	99.67
186.338	105.81
186.557	95.57
186.777	71
186.997	11.61
187.216	-17.07
187.436	105.81
187.655	48.47
187.875	114
188.095	36.18
188.314	91.48
188.534	144.72
188.753	60.76
188.973	87.38
189.192	71
189.412	-6.83
189.631	79.19
189.851	73.04
190.07	77.14
190.29	-10.92
190.509	19.8
190.729	68.95
190.948	111.96
191.168	109.91
191.387	93.52
191.607	179.54
191.826	107.86
192.045	42.32
192.265	68.95
192.484	66.9
192.704	11.61
192.923	3.41
193.142	95.57
193.362	42.32
193.581	71
193.8	95.57
194.02	71
194.239	52.56
194.458	89.43
194.678	54.61
194.897	107.86
195.116	85.33
195.335	48.47
195.555	56.66
195.774	124.24
195.993	71
196.212	50.52
196.432	62.8
196.651	21.85
196.87	21.85
197.089	183.63
197.308	87.38
197.528	79.19
197.747	-2.73
197.966	56.66
198.185	142.68
198.404	44.37
198.623	85.33
198.842	40.28
199.062	1.37
199.281	75.09
199.5	15.7
199.719	15.7
199.938	42.32
200.157	161.11
200.376	120.15
200.595	79.19
200.814	58.71
201.033	-33.45
201.252	71
201.471	91.48
201.69	91.48
201.909	66.9
202.128	30.04
202.347	62.8
202.566	85.33
202.785	25.94
203.004	27.99
203.223	144.72
203.442	91.48
203.661	124.24
203.879	13.65
204.098	54.61
204.317	87.38
204.536	91.48
204.755	87.38
204.974	44.37
205.193	17.75
205.411	66.9
205.63	91.48
205.849	64.85
206.068	46.42
206.287	-2.73
206.505	89.43
206.724	132.44
206.943	44.37
207.162	34.13
207.381	56.66
207.599	13.65
207.818	93.52
208.037	75.09
208.255	25.94
208.474	42.32
208.693	99.67
208.911	60.76
209.13	21.85
209.349	124.24
209.567	193.87
209.786	81.24
210.005	38.23
210.223	38.23
210.442	7.51
210.661	-39.59
210.879	3.41
211.098	77.14
211.316	109.91
211.535	111.96
211.753	-12.97
211.972	30.04
212.191	11.61
212.409	77.14
212.628	46.42
212.846	95.57
213.065	85.33
213.283	21.85
213.502	-4.78
213.72	36.18
213.938	64.85
214.157	17.75
214.375	54.61
214.594	116.05
214.812	68.95
215.031	52.56
215.249	-23.21
215.467	132.44
215.686	150.87
215.904	103.76
216.122	75.09
216.341	79.19
216.559	-4.78
216.778	68.95
216.996	83.28
217.214	7.51
217.432	9.56
217.651	71
217.869	30.04
218.087	9.56
218.306	32.08
218.524	34.13
218.742	-27.31
218.96	62.8
219.179	71
219.397	128.34
219.615	142.68
219.833	79.19
220.051	85.33
220.27	52.56
220.488	105.81
220.706	56.66
220.924	34.13
221.142	7.51
221.36	68.95
221.578	66.9
221.796	62.8
222.015	95.57
222.233	54.61
222.451	154.96
222.669	32.08
222.887	109.91
223.105	68.95
223.323	60.76
223.541	66.9
223.759	68.95
223.977	9.56
224.195	23.89
224.413	81.24
224.631	19.8
224.849	81.24
225.067	132.44
225.285	11.61
225.503	42.32
225.721	3.41
225.939	1.37
226.157	13.65
226.375	159.06
226.592	38.23
226.81	91.48
227.028	105.81
227.246	114
227.464	60.76
227.682	154.96
227.9	109.91
228.117	87.38
228.335	120.15
228.553	42.32
228.771	77.14
228.989	58.71
229.206	21.85
229.424	97.62
229.642	66.9
229.86	68.95
230.077	56.66
230.295	38.23
230.513	130.39
230.731	58.71
230.948	36.18
231.166	111.96
231.384	60.76
231.601	71
231.819	91.48
232.037	21.85
232.254	128.34
232.472	120.15
232.689	21.85
232.907	7.51
233.125	32.08
233.342	21.85
233.56	13.65
233.777	103.76
233.995	81.24
234.213	142.68
234.43	114
234.648	93.52
234.865	34.13
235.083	79.19
235.3	75.09
235.518	73.04
235.735	136.53
235.953	105.81
236.17	-12.97
236.388	64.85
236.605	83.28
236.822	91.48
237.04	95.57
237.257	50.52
237.475	85.33
237.692	36.18
237.909	15.7
238.127	71
238.344	38.23
238.562	87.38
238.779	54.61
238.996	19.8
239.214	11.61
239.431	34.13
239.648	19.8
239.865	-12.97
240.083	48.47
240.3	101.72
240.517	3.41
240.735	152.91
240.952	75.09
241.169	130.39
241.386	25.94
241.603	56.66
241.821	11.61
242.038	17.75
242.255	58.71
242.472	95.57
242.689	50.52
242.907	109.91
243.124	50.52
243.341	120.15
243.558	34.13
243.775	93.52
243.992	66.9
244.209	1.37
244.426	191.83
244.643	-8.87
244.86	46.42
245.078	58.71
245.295	107.86
245.512	1.37
245.729	79.19
245.946	95.57
246.163	15.7
246.38	13.65
246.597	79.19
246.814	58.71
247.031	64.85
247.248	23.89
247.464	99.67
247.681	11.61
247.898	109.91
248.115	21.85
248.332	97.62
248.549	107.86
248.766	157.01
248.983	83.28
249.2	56.66
249.417	144.72
249.633	95.57
249.85	81.24
250.067	38.23
250.284	30.04
250.501	122.2
250.717	71
250.934	13.65
251.151	42.32
251.368	93.52
251.585	85.33
251.801	118.1
252.018	54.61
252.235	68.95
252.451	54.61
252.668	111.96
252.885	38.23
253.102	50.52
253.318	79.19
253.535	48.47
253.752	44.37
253.968	111.96
254.185	54.61
254.401	66.9
254.618	109.91
254.835	9.56
255.051	95.57
255.268	124.24
255.484	15.7
255.701	71
255.917	-17.07
256.134	58.71
256.351	77.14
256.567	58.71
256.784	91.48
257	-10.92
257.217	120.15
257.433	52.56
257.65	9.56
257.866	60.76
258.082	5.46
258.299	17.75
258.515	5.46
258.732	-2.73
258.948	91.48
259.165	95.57
259.381	13.65
259.597	99.67
259.814	91.48
260.03	99.67
260.246	30.04
260.463	46.42
260.679	91.48
260.895	95.57
261.112	85.33
261.328	120.15
261.544	73.04
261.761	103.76
261.977	75.09
262.193	19.8
262.409	81.24
262.626	36.18
262.842	40.28
263.058	1.37
263.274	71
263.49	91.48
263.707	54.61
263.923	126.29
264.139	19.8
264.355	114
264.571	58.71
264.787	68.95
265.004	87.38
265.22	30.04
265.436	46.42
265.652	58.71
265.868	73.04
266.084	19.8
266.3	77.14
266.516	19.8
266.732	101.72
266.948	36.18
267.164	107.86
267.38	105.81
267.596	114
267.812	75.09
268.028	-0.68
268.244	50.52
268.46	83.28
268.676	3.41
268.892	42.32
269.108	54.61
269.324	13.65
269.54	17.75
269.756	73.04
269.972	66.9
270.188	81.24
270.403	52.56
270.619	79.19
270.835	68.95
271.051	48.47
271.267	30.04
271.483	73.04
271.698	-2.73
271.914	50.52
272.13	134.48
272.346	19.8
272.562	46.42
272.777	181.59
272.993	19.8
273.209	101.72
273.425	93.52
273.64	19.8
273.856	132.44
274.072	25.94
274.287	-12.97
274.503	105.81
274.719	44.37
274.934	62.8
275.15	120.15
275.366	-4.78
275.581	-2.73
275.797	93.52
276.012	66.9
276.228	13.65
276.444	38.23
276.659	93.52
276.875	17.75
277.09	11.61
277.306	68.95
277.521	109.91
277.737	58.71
277.952	152.91
278.168	9.56
278.383	116.05
278.599	126.29
278.814	68.95
279.03	46.42
279.245	122.2
279.461	56.66
279.676	13.65
279.892	-53.93
280.107	15.7
280.322	105.81
280.538	54.61
280.753	34.13
280.969	77.14
281.184	62.8
281.399	101.72
281.615	42.32
281.83	32.08
282.045	3.41
282.26	85.33
282.476	93.52
282.691	128.34
282.906	79.19
283.122	93.52
283.337	1.37
283.552	128.34
283.767	-33.45
283.983	148.82
284.198	101.72
284.413	60.76
284.628	23.89
284.843	58.71
285.058	50.52
285.274	25.94
285.489	25.94
285.704	58.71
285.919	42.32
286.134	130.39
286.349	79.19
286.564	103.76
286.779	68.95
286.995	54.61
287.21	32.08
287.425	99.67
287.64	64.85
287.855	75.09
288.07	42.32
288.285	114
288.5	56.66
288.715	58.71
288.93	103.76
289.145	87.38
289.36	116.05
289.575	56.66
289.79	161.11
290.004	30.04
290.219	97.62
290.434	38.23
290.649	7.51
290.864	144.72
291.079	34.13
291.294	58.71
291.509	114
291.724	50.52
291.938	75.09
292.153	54.61
292.368	134.48
292.583	68.95
292.798	93.52
293.012	91.48
293.227	62.8
293.442	73.04
293.657	-0.68
293.871	89.43
294.086	103.76
294.301	71
294.516	73.04
294.73	87.38
294.945	21.85
295.16	32.08
295.374	44.37
295.589	157.01
295.804	62.8
296.018	13.65
296.233	103.76
296.447	81.24
296.662	5.46
296.877	95.57
297.091	21.85
297.306	5.46
297.52	71
297.735	87.38
297.949	122.2
298.164	103.76
298.378	60.76
298.593	44.37
298.807	87.38
299.022	52.56
299.236	23.89
299.451	27.99
299.665	66.9
299.88	85.33
300.094	68.95
300.309	-53.93
300.523	36.18
300.737	-4.78
300.952	95.57
301.166	154.96
301.381	36.18
301.595	87.38
301.809	93.52
302.024	40.28
302.238	-0.68
302.452	146.77
302.667	54.61
302.881	79.19
303.095	103.76
303.309	5.46
303.524	30.04
303.738	27.99
303.952	87.38
304.166	66.9
304.381	9.56
304.595	101.72
304.809	54.61
305.023	95.57
305.237	109.91
305.452	48.47
305.666	30.04
305.88	73.04
306.094	71
306.308	89.43
306.522	71
306.736	107.86
306.95	126.29
307.164	30.04
307.379	83.28
307.593	85.33
307.807	95.57
308.021	1.37
308.235	101.72
308.449	19.8
308.663	44.37
308.877	89.43
309.091	71
309.305	19.8
309.519	-33.45
309.733	32.08
309.947	58.71
310.161	87.38
310.374	54.61
310.588	83.28
310.802	46.42
311.016	93.52
311.23	34.13
311.444	-23.21
311.658	75.09
311.872	83.28
312.085	44.37
312.299	85.33
312.513	48.47
312.727	99.67
312.941	-10.92
313.154	99.67
313.368	56.66
313.582	46.42
313.796	132.44
314.009	32.08
314.223	44.37
314.437	91.48
314.651	87.38
314.864	42.32
315.078	-6.83
315.292	60.76
315.505	44.37
315.719	118.1
315.933	25.94
316.146	36.18
316.36	64.85
316.573	89.43
316.787	103.76
317.001	52.56
317.214	50.52
317.428	9.56
317.641	58.71
317.855	9.56
318.068	25.94
318.282	27.99
318.495	189.78
318.709	71
318.922	71
319.136	27.99
319.349	71
319.563	85.33
319.776	48.47
319.99	52.56
320.203	99.67
320.417	64.85
320.63	38.23
320.843	103.76
321.057	19.8
321.27	83.28
321.483	89.43
321.697	107.86
321.91	23.89
322.124	93.52
322.337	30.04
322.55	54.61
322.763	138.58
322.977	75.09
323.19	34.13
323.403	25.94
323.617	81.24
323.83	58.71
324.043	50.52
324.256	62.8
324.469	79.19
324.683	79.19
324.896	27.99
325.109	101.72
325.322	-10.92
325.535	83.28
325.748	77.14
325.962	99.67
326.175	9.56
326.388	136.53
326.601	101.72
326.814	66.9
327.027	79.19
327.24	13.65
327.453	34.13
327.666	52.56
327.879	118.1
328.092	58.71
328.305	25.94
328.518	13.65
328.731	27.99
328.944	154.96
329.157	89.43
329.37	30.04
329.583	132.44
329.796	132.44
330.009	-4.78
330.222	93.52
330.435	77.14
330.648	159.06
330.861	77.14
331.073	62.8
331.286	60.76
331.499	44.37
331.712	50.52
331.925	97.62
332.138	126.29
332.35	68.95
332.563	54.61
332.776	11.61
332.989	5.46
333.202	75.09
333.414	91.48
333.627	42.32
333.84	79.19
334.053	118.1
334.265	107.86
334.478	60.76
334.691	87.38
334.903	99.67
335.116	32.08
335.329	89.43
335.541	54.61
335.754	99.67
335.966	42.32
336.179	138.58
336.392	73.04
336.604	71
336.817	89.43
337.029	71
337.242	116.05
337.454	120.15
337.667	111.96
337.88	87.38
338.092	58.71
338.305	128.34
338.517	68.95
338.729	48.47
338.942	81.24
339.154	1.37
339.367	46.42
339.579	107.86
339.792	38.23
340.004	48.47
340.217	34.13
340.429	75.09
340.641	44.37
340.854	48.47
341.066	5.46
341.278	132.44
341.491	118.1
341.703	36.18
341.915	40.28
342.128	83.28
342.34	142.68
342.552	71
342.764	95.57
342.977	46.42
343.189	62.8
343.401	44.37
343.613	128.34
343.826	77.14
344.038	34.13
344.25	152.91
344.462	46.42
344.674	99.67
344.886	42.32
345.099	54.61
345.311	64.85
345.523	116.05
345.735	89.43
345.947	101.72
346.159	-8.87
346.371	42.32
346.583	21.85
346.795	89.43
347.007	42.32
347.219	132.44
347.431	111.96
347.643	136.53
347.855	34.13
348.067	73.04
348.279	81.24
348.491	68.95
348.703	-4.78
348.915	-31.4
349.127	21.85
349.339	77.14
349.551	83.28
349.763	64.85
349.975	46.42
350.187	56.66
350.399	97.62
350.61	34.13
350.822	73.04
351.034	58.71
351.246	15.7
351.458	77.14
351.669	68.95
351.881	89.43
352.093	34.13
352.305	109.91
352.517	105.81
352.728	146.77
352.94	140.63
353.152	-23.21
353.363	34.13
353.575	144.72
353.787	62.8
353.999	32.08
354.21	93.52
354.422	132.44
354.633	71
354.845	50.52
355.057	25.94
355.268	118.1
355.48	101.72
355.692	52.56
355.903	46.42
356.115	25.94
356.326	64.85
356.538	73.04
356.749	126.29
356.961	68.95
357.172	73.04
357.384	75.09
357.595	132.44
357.807	27.99
358.018	32.08
358.23	30.04
358.441	81.24
358.653	42.32
358.864	109.91
359.075	148.82
359.287	42.32
359.498	103.76
359.709	87.38
359.921	97.62
360.132	19.8
360.344	116.05
360.555	19.8
360.766	13.65
360.977	-6.83
361.189	126.29
361.4	97.62
361.611	126.29
361.823	87.38
362.034	52.56
362.245	42.32
362.456	148.82
362.667	87.38
362.879	60.76
363.09	21.85
363.301	105.81
363.512	114
363.723	68.95
363.935	21.85
364.146	163.15
364.357	23.89
364.568	75.09
364.779	101.72
364.99	83.28
365.201	54.61
365.412	134.48
365.623	46.42
365.834	120.15
366.045	105.81
366.256	21.85
366.467	46.42
366.678	13.65
366.889	68.95
367.1	3.41
367.311	109.91
367.522	46.42
367.733	79.19
367.944	87.38
368.155	66.9
368.366	122.2
368.577	103.76
368.788	87.38
368.999	93.52
369.209	68.95
369.42	99.67
369.631	105.81
369.842	73.04
370.053	68.95
370.264	71
370.474	46.42
370.685	109.91
370.896	56.66
371.107	64.85
371.317	118.1
371.528	62.8
371.739	159.06
371.95	11.61
372.16	161.11
372.371	85.33
372.582	75.09
372.792	109.91
373.003	48.47
373.214	114
373.424	126.29
373.635	-33.45
373.846	126.29
374.056	136.53
374.267	79.19
374.477	52.56
374.688	58.71
374.898	77.14
375.109	62.8
375.319	83.28
375.53	105.81
375.74	122.2
375.951	103.76
376.161	42.32
376.372	71
376.582	36.18
376.793	101.72
377.003	157.01
377.214	77.14
377.424	62.8
377.635	50.52
377.845	91.48
378.055	128.34
378.266	71
378.476	134.48
378.686	87.38
378.897	73.04
379.107	21.85
379.317	23.89
379.528	116.05
379.738	48.47
379.948	114
380.158	-6.83
380.369	150.87
380.579	148.82
380.789	68.95
380.999	126.29
381.21	87.38
381.42	120.15
381.63	54.61
381.84	79.19
382.05	120.15
382.261	75.09
382.471	36.18
382.681	85.33
382.891	132.44
383.101	71
383.311	36.18
383.521	73.04
383.731	87.38
383.941	99.67
384.151	146.77
384.361	85.33
384.571	42.32
384.781	50.52
384.991	124.24
385.201	103.76
385.411	66.9
385.621	140.63
385.831	85.33
386.041	44.37
386.251	42.32
386.461	116.05
386.671	60.76
386.881	161.11
387.091	109.91
387.301	93.52
387.511	132.44
387.72	38.23
387.93	171.35
388.14	87.38
388.35	75.09
388.56	38.23
388.769	116.05
388.979	122.2
389.189	1.37
389.399	99.67
389.609	93.52
389.818	66.9
390.028	97.62
390.238	118.1
390.447	148.82
390.657	140.63
390.867	124.24
391.076	87.38
391.286	124.24
391.496	118.1
391.705	3.41
391.915	154.96
392.125	126.29
392.334	60.76
392.544	157.01
392.753	87.38
392.963	21.85
393.172	107.86
393.382	40.28
393.591	136.53
393.801	27.99
394.01	173.39
394.22	93.52
394.429	56.66
394.639	134.48
394.848	105.81
395.058	136.53
395.267	122.2
395.477	132.44
395.686	154.96
395.895	154.96
396.105	181.59
396.314	136.53
396.524	109.91
396.733	120.15
396.942	150.87
397.152	132.44
397.361	140.63
397.57	226.64
397.78	152.91
397.989	99.67
398.198	175.44
398.407	101.72
398.617	91.48
398.826	97.62
399.035	40.28
399.244	173.39
399.453	124.24
399.663	154.96
399.872	136.53
400.081	85.33
400.29	95.57
400.499	148.82
400.708	193.87
400.917	95.57
401.127	116.05
401.336	85.33
401.545	181.59
401.754	148.82
401.963	152.91
402.172	118.1
402.381	122.2
402.59	169.3
402.799	148.82
403.008	134.48
403.217	181.59
403.426	177.49
403.635	122.2
403.844	87.38
404.053	195.92
404.262	169.3
404.471	214.35
404.68	142.68
404.888	128.34
405.097	197.97
405.306	216.4
405.515	134.48
405.724	120.15
405.933	161.11
406.142	187.73
406.35	304.46
406.559	183.63
406.768	218.45
406.977	243.03
407.185	154.96
407.394	220.5
407.603	140.63
407.812	281.94
408.02	331.09
408.229	210.26
408.438	277.84
408.646	238.93
408.855	226.64
409.064	324.94
409.272	308.56
409.481	324.94
409.69	351.57
409.898	333.14
410.107	400.72
410.315	419.15
410.524	292.18
410.733	370
410.941	304.46
411.15	382.29
411.358	363.86
411.567	370
411.775	365.9
411.984	464.21
412.192	417.1
412.401	447.82
412.609	527.69
412.818	480.59
413.026	456.01
413.234	490.83
413.443	593.23
413.651	578.89
413.86	521.55
414.068	623.95
414.276	689.48
414.485	666.96
414.693	677.2
414.901	689.48
415.11	757.07
415.318	662.86
415.526	695.63
415.734	816.46
415.943	742.73
416.151	812.36
416.359	855.37
416.567	890.18
416.776	888.14
416.984	906.57
417.192	980.29
417.4	953.67
417.608	943.43
417.817	990.53
418.025	1092.93
418.233	1199.43
418.441	1004.87
418.649	1187.14
418.857	1121.6
419.065	1353.02
419.273	1176.9
419.481	1277.25
419.689	1350.98
419.897	1461.57
420.105	1508.67
420.313	1412.42
420.521	1545.53
420.729	1598.78
420.937	1672.51
421.145	1684.8
421.353	1766.71
421.561	1908.02
421.769	1891.64
421.977	1905.98
422.185	1836.35
422.393	2026.81
422.601	2166.07
422.809	2098.49
423.017	2139.44
423.224	2247.99
423.432	2372.91
423.64	2338.1
423.848	2694.44
424.056	2542.89
424.263	2635.05
424.471	2757.93
424.679	2788.65
424.887	2819.37
425.094	3015.98
425.302	3056.93
425.51	3009.83
425.718	3208.48
425.925	3306.79
426.133	3294.5
426.341	3425.57
426.548	3605.79
426.756	3593.5
426.964	3630.37
427.171	3880.22
427.379	4089.11
427.586	4205.85
427.794	4230.42
428.001	4453.65
428.209	4437.27
428.417	4613.39
428.624	4853
428.832	4855.05
429.039	4713.74
429.247	4826.38
429.454	5197.06
429.662	5610.75
429.869	5276.93
430.076	5516.55
430.284	5473.54
430.491	5643.52
430.699	6032.63
430.906	5971.19
431.114	6073.59
431.321	6352.12
431.528	6522.1
431.736	6886.64
431.943	7161.06
432.15	6841.58
432.358	7050.47
432.565	7490.79
432.772	7306.47
432.979	7675.1
433.187	8043.74
433.394	7970.01
433.601	8467.67
433.808	8471.76
434.016	8283.35
434.223	8803.53
434.43	9456.84
434.637	9215.18
434.844	9827.52
435.052	9956.54
435.259	9759.94
435.466	9911.49
435.673	9725.12
435.88	10450.1
436.087	10937.52
436.294	11023.53
436.501	10933.42
436.708	10998.96
436.915	11367.59
437.122	11779.23
437.329	12033.18
437.537	11953.31
437.743	12364.95
437.95	12264.6
438.157	12795.03
438.364	13333.64
438.571	13339.79
438.778	13343.88
438.985	14808.18
439.192	14136.45
439.399	14425.21
439.606	14068.86
439.813	14920.82
440.02	15750.24
440.227	15559.78
440.433	15406.19
440.64	16043.1
440.847	15879.27
441.054	16100.45
441.261	17355.85
441.467	17017.94
441.674	17351.76
441.881	18109.5
442.088	18062.4
442.294	17826.89
442.501	18017.35
442.708	18871.35
442.914	19493.93
443.121	19973.16
443.328	19633.19
443.534	21210.13
443.741	20554.78
443.948	20167.71
444.154	21715.98
444.361	21502.99
444.568	21556.24
444.774	21644.3
444.981	21918.73
445.187	22305.79
445.394	23176.18
445.6	23006.2
445.807	25519.06
446.013	24423.39
446.22	24706.01
446.426	25308.12
446.633	25639.89
446.839	26780.6
447.046	25578.45
447.252	26909.63
447.459	27251.64
447.665	26895.29
447.871	27921.32
448.078	29090.71
448.284	28003.24
448.491	28564.39
448.697	29440.92
448.903	30008.2
449.11	29911.95
449.316	29309.85
449.522	30129.03
449.728	31050.62
449.935	31062.91
450.141	31050.62
450.347	31787.89
450.553	30776.19
450.76	30759.81
450.966	32062.32
451.172	31658.87
451.378	32394.09
451.584	31941.49
451.791	32643.94
451.997	32783.2
452.203	32934.75
452.409	32883.55
452.615	32607.08
452.821	31470.45
453.027	31257.46
453.233	32787.3
453.44	31253.37
453.646	31910.77
453.852	31832.94
454.058	32344.94
454.264	31110.01
454.47	31773.55
454.676	31337.34
454.882	32146.28
455.088	29545.36
455.294	29899.66
455.5	30016.4
455.705	30931.84
455.911	29096.86
456.117	28877.72
456.323	28433.32
456.529	26860.48
456.735	27999.15
456.941	27231.16
457.147	26751.93
457.352	25691.09
457.558	25820.11
457.764	25672.65
457.97	25170.9
458.176	24746.97
458.381	24392.67
458.587	23507.95
458.793	23315.44
458.999	22277.12
459.204	23862.25
459.41	23514.09
459.616	21718.03
459.821	21879.82
460.027	21832.71
460.233	20972.57
460.438	20053.03
460.644	20407.33
460.85	19616.81
461.055	19303.47
461.261	18861.11
461.466	17714.25
461.672	17306.7
461.878	18498.62
462.083	17548.36
462.289	16737.37
462.494	16622.68
462.7	15963.23
462.905	15510.63
463.111	16487.51
463.316	16319.58
463.522	15813.73
463.727	15891.55
463.932	15928.42
464.138	15688.81
464.343	15762.53
464.549	15389.8
464.754	15930.47
464.959	15574.12
465.165	15307.88
465.37	14576.76
465.575	14599.29
465.781	14765.17
465.986	15311.98
466.191	14457.98
466.397	14357.63
466.602	13565.06
466.807	13991.04
467.012	14109.82
467.218	14032
467.423	13905.03
467.628	13870.21
