Data from USB4F104151__40__10-22-39-795.txt Node

Date: Wed Mar 12 10:22:39 EDT 2025
User: louis
Spectrometer: USB4F10415
Trigger mode: 4
Integration Time (sec): 3.000000E-2
Scans to average: 1
Electric dark correction enabled: true
Nonlinearity correction enabled: false
Boxcar width: 0
XAxis mode: Wavelengths
Number of Pixels in Spectrum: 3648
>>>>>Begin Spectral Data<<<<<
178.204	-107.86
178.424	-107.86
178.644	-107.86
178.864	-126.29
179.084	-105.81
179.304	-85.33
179.524	-5.46
179.744	88.75
179.964	25.26
180.184	-19.8
180.404	-21.85
180.624	4.78
180.844	-25.94
181.064	6.83
181.283	-15.7
181.503	-1.37
181.723	49.83
181.943	64.17
182.163	74.41
182.383	29.35
182.602	105.13
182.822	-1.37
183.042	2.73
183.262	21.16
183.482	12.97
183.701	25.26
183.921	84.65
184.141	-38.23
184.361	55.98
184.58	82.6
184.8	-13.65
185.02	-23.89
185.239	33.45
185.459	2.73
185.679	8.87
185.898	-83.28
186.118	43.69
186.338	12.97
186.557	64.17
186.777	31.4
186.997	64.17
187.216	27.31
187.436	107.18
187.655	72.36
187.875	8.87
188.095	45.74
188.314	119.46
188.534	129.7
188.753	-3.41
188.973	62.12
189.192	76.46
189.412	35.5
189.631	25.26
189.851	23.21
190.07	70.31
190.29	-5.46
190.509	70.31
190.729	113.32
190.948	-1.37
191.168	80.55
191.387	74.41
191.607	21.16
191.826	39.59
192.045	70.31
192.265	-36.18
192.484	86.7
192.704	19.11
192.923	53.93
193.142	121.51
193.362	55.98
193.581	-11.61
193.8	21.16
194.02	-25.94
194.239	51.88
194.458	15.02
194.678	76.46
194.897	10.92
195.116	27.31
195.335	-17.75
195.555	4.78
195.774	33.45
195.993	-3.41
196.212	64.17
196.432	-13.65
196.651	84.65
196.87	4.78
197.089	92.84
197.308	58.03
197.528	76.46
197.747	12.97
197.966	31.4
198.185	23.21
198.404	41.64
198.623	2.73
198.842	23.21
199.062	62.12
199.281	123.56
199.5	55.98
199.719	68.27
199.938	88.75
200.157	82.6
200.376	23.21
200.595	39.59
200.814	86.7
201.033	-13.65
201.252	76.46
201.471	53.93
201.69	43.69
201.909	23.21
202.128	141.99
202.347	62.12
202.566	15.02
202.785	-27.99
203.004	-3.41
203.223	23.21
203.442	35.5
203.661	98.99
203.879	37.55
204.098	101.03
204.317	62.12
204.536	4.78
204.755	-7.51
204.974	64.17
205.193	-3.41
205.411	103.08
205.63	27.31
205.849	68.27
206.068	-5.46
206.287	105.13
206.505	72.36
206.724	70.31
206.943	55.98
207.162	31.4
207.381	15.02
207.599	31.4
207.818	2.73
208.037	21.16
208.255	62.12
208.474	-1.37
208.693	62.12
208.911	80.55
209.13	25.26
209.349	-5.46
209.567	86.7
209.786	70.31
210.005	76.46
210.223	66.22
210.442	-36.18
210.661	-21.85
210.879	58.03
211.098	119.46
211.316	62.12
211.535	-13.65
211.753	53.93
211.972	19.11
212.191	62.12
212.409	10.92
212.628	47.79
212.846	21.16
213.065	150.18
213.283	82.6
213.502	64.17
213.72	29.35
213.938	72.36
214.157	47.79
214.375	60.07
214.594	-60.76
214.812	88.75
215.031	51.88
215.249	6.83
215.467	-1.37
215.686	51.88
215.904	43.69
216.122	-25.94
216.341	45.74
216.559	68.27
216.778	29.35
216.996	53.93
217.214	-9.56
217.432	88.75
217.651	21.16
217.869	-3.41
218.087	60.07
218.306	-48.47
218.524	68.27
218.742	6.83
218.96	70.31
219.179	45.74
219.397	115.37
219.615	154.28
219.833	64.17
220.051	21.16
220.27	90.79
220.488	29.35
220.706	92.84
220.924	55.98
221.142	15.02
221.36	139.94
221.578	23.21
221.796	62.12
222.015	-5.46
222.233	31.4
222.451	70.31
222.669	90.79
222.887	60.07
223.105	23.21
223.323	10.92
223.541	19.11
223.759	53.93
223.977	35.5
224.195	23.21
224.413	-38.23
224.631	66.22
224.849	43.69
225.067	23.21
225.285	78.51
225.503	64.17
225.721	12.97
225.939	82.6
226.157	10.92
226.375	53.93
226.592	37.55
226.81	62.12
227.028	62.12
227.246	101.03
227.464	64.17
227.682	72.36
227.9	41.64
228.117	64.17
228.335	62.12
228.553	68.27
228.771	37.55
228.989	78.51
229.206	92.84
229.424	29.35
229.642	27.31
229.86	60.07
230.077	60.07
230.295	37.55
230.513	-1.37
230.731	53.93
230.948	101.03
231.166	62.12
231.384	31.4
231.601	49.83
231.819	82.6
232.037	10.92
232.254	2.73
232.472	27.31
232.689	53.93
232.907	98.99
233.125	88.75
233.342	21.16
233.56	39.59
233.777	-46.42
233.995	-30.04
234.213	25.26
234.43	6.83
234.648	-1.37
234.865	8.87
235.083	49.83
235.3	80.55
235.518	-25.94
235.735	10.92
235.953	103.08
236.17	88.75
236.388	-1.37
236.605	-56.66
236.822	92.84
237.04	119.46
237.257	27.31
237.475	60.07
237.692	37.55
237.909	-30.04
238.127	-17.75
238.344	105.13
238.562	76.46
238.779	-19.8
238.996	10.92
239.214	23.21
239.431	98.99
239.648	33.45
239.865	51.88
240.083	47.79
240.3	10.92
240.517	-3.41
240.735	21.16
240.952	158.38
241.169	103.08
241.386	-5.46
241.603	51.88
241.821	70.31
242.038	98.99
242.255	88.75
242.472	19.11
242.689	31.4
242.907	66.22
243.124	21.16
243.341	-58.71
243.558	17.07
243.775	-21.85
243.992	-11.61
244.209	58.03
244.426	15.02
244.643	92.84
244.86	39.59
245.078	6.83
245.295	-9.56
245.512	58.03
245.729	76.46
245.946	98.99
246.163	80.55
246.38	131.75
246.597	-9.56
246.814	8.87
247.031	90.79
247.248	88.75
247.464	8.87
247.681	19.11
247.898	72.36
248.115	-5.46
248.332	31.4
248.549	-3.41
248.766	125.61
248.983	53.93
249.2	31.4
249.417	-46.42
249.633	64.17
249.85	80.55
250.067	29.35
250.284	60.07
250.501	39.59
250.717	58.03
250.934	31.4
251.151	35.5
251.368	109.22
251.585	74.41
251.801	74.41
252.018	15.02
252.235	-21.85
252.451	45.74
252.668	27.31
252.885	66.22
253.102	64.17
253.318	55.98
253.535	39.59
253.752	6.83
253.968	21.16
254.185	-13.65
254.401	68.27
254.618	-15.7
254.835	21.16
255.051	113.32
255.268	-13.65
255.484	27.31
255.701	10.92
255.917	76.46
256.134	19.11
256.351	19.11
256.567	21.16
256.784	86.7
257	25.26
257.217	-9.56
257.433	-3.41
257.65	88.75
257.866	103.08
258.082	-17.75
258.299	15.02
258.515	35.5
258.732	15.02
258.948	27.31
259.165	58.03
259.381	43.69
259.597	43.69
259.814	31.4
260.03	101.03
260.246	49.83
260.463	49.83
260.679	82.6
260.895	27.31
261.112	39.59
261.328	-36.18
261.544	76.46
261.761	117.42
261.977	17.07
262.193	39.59
262.409	53.93
262.626	84.65
262.842	-5.46
263.058	31.4
263.274	109.22
263.49	-9.56
263.707	49.83
263.923	64.17
264.139	2.73
264.355	-19.8
264.571	96.94
264.787	12.97
265.004	70.31
265.22	113.32
265.436	55.98
265.652	-15.7
265.868	51.88
266.084	-9.56
266.3	86.7
266.516	4.78
266.732	19.11
266.948	62.12
267.164	55.98
267.38	64.17
267.596	105.13
267.812	160.42
268.028	2.73
268.244	80.55
268.46	51.88
268.676	66.22
268.892	45.74
269.108	2.73
269.324	64.17
269.54	27.31
269.756	53.93
269.972	-17.75
270.188	51.88
270.403	27.31
270.619	96.94
270.835	21.16
271.051	-19.8
271.267	41.64
271.483	17.07
271.698	121.51
271.914	23.21
272.13	80.55
272.346	-27.99
272.562	101.03
272.777	86.7
272.993	23.21
273.209	72.36
273.425	8.87
273.64	60.07
273.856	72.36
274.072	76.46
274.287	123.56
274.503	86.7
274.719	127.66
274.934	2.73
275.15	15.02
275.366	31.4
275.581	49.83
275.797	105.13
276.012	27.31
276.228	90.79
276.444	64.17
276.659	17.07
276.875	-58.71
277.09	0.68
277.306	53.93
277.521	43.69
277.737	-17.75
277.952	68.27
278.168	72.36
278.383	68.27
278.599	19.11
278.814	64.17
279.03	64.17
279.245	84.65
279.461	33.45
279.676	82.6
279.892	60.07
280.107	64.17
280.322	-17.75
280.538	53.93
280.753	21.16
280.969	45.74
281.184	15.02
281.399	47.79
281.615	90.79
281.83	55.98
282.045	-38.23
282.26	27.31
282.476	23.21
282.691	72.36
282.906	58.03
283.122	6.83
283.337	-7.51
283.552	66.22
283.767	12.97
283.983	19.11
284.198	47.79
284.413	94.89
284.628	53.93
284.843	49.83
285.058	78.51
285.274	17.07
285.489	-9.56
285.704	144.04
285.919	90.79
286.134	4.78
286.349	-7.51
286.564	45.74
286.779	76.46
286.995	78.51
287.21	2.73
287.425	68.27
287.64	-7.51
287.855	121.51
288.07	6.83
288.285	86.7
288.5	80.55
288.715	58.03
288.93	21.16
289.145	86.7
289.36	27.31
289.575	74.41
289.79	39.59
290.004	10.92
290.219	72.36
290.434	144.04
290.649	62.12
290.864	17.07
291.079	-36.18
291.294	60.07
291.509	101.03
291.724	49.83
291.938	29.35
292.153	80.55
292.368	78.51
292.583	51.88
292.798	55.98
293.012	60.07
293.227	53.93
293.442	-27.99
293.657	-34.13
293.871	113.32
294.086	41.64
294.301	86.7
294.516	49.83
294.73	92.84
294.945	29.35
295.16	86.7
295.374	23.21
295.589	58.03
295.804	39.59
296.018	45.74
296.233	39.59
296.447	172.71
296.662	2.73
296.877	19.11
297.091	92.84
297.306	62.12
297.52	17.07
297.735	64.17
297.949	133.8
298.164	88.75
298.378	80.55
298.593	41.64
298.807	35.5
299.022	27.31
299.236	4.78
299.451	74.41
299.665	51.88
299.88	-36.18
300.094	80.55
300.309	101.03
300.523	45.74
300.737	15.02
300.952	53.93
301.166	6.83
301.381	-19.8
301.595	-3.41
301.809	90.79
302.024	96.94
302.238	45.74
302.452	2.73
302.667	-21.85
302.881	43.69
303.095	70.31
303.309	113.32
303.524	111.27
303.738	78.51
303.952	53.93
304.166	68.27
304.381	-17.75
304.595	101.03
304.809	66.22
305.023	117.42
305.237	64.17
305.452	51.88
305.666	98.99
305.88	105.13
306.094	66.22
306.308	45.74
306.522	96.94
306.736	2.73
306.95	74.41
307.164	19.11
307.379	64.17
307.593	152.23
307.807	41.64
308.021	39.59
308.235	23.21
308.449	-32.08
308.663	17.07
308.877	92.84
309.091	-25.94
309.305	72.36
309.519	15.02
309.733	74.41
309.947	-50.52
310.161	86.7
310.374	60.07
310.588	121.51
310.802	19.11
311.016	51.88
311.23	51.88
311.444	27.31
311.658	55.98
311.872	78.51
312.085	39.59
312.299	43.69
312.513	92.84
312.727	27.31
312.941	-21.85
313.154	23.21
313.368	43.69
313.582	45.74
313.796	68.27
314.009	51.88
314.223	17.07
314.437	53.93
314.651	45.74
314.864	53.93
315.078	-32.08
315.292	39.59
315.505	23.21
315.719	60.07
315.933	19.11
316.146	8.87
316.36	39.59
316.573	101.03
316.787	78.51
317.001	70.31
317.214	27.31
317.428	27.31
317.641	66.22
317.855	111.27
318.068	113.32
318.282	55.98
318.495	152.23
318.709	74.41
318.922	47.79
319.136	64.17
319.349	60.07
319.563	-50.52
319.776	58.03
319.99	23.21
320.203	137.9
320.417	33.45
320.63	86.7
320.843	119.46
321.057	86.7
321.27	101.03
321.483	76.46
321.697	76.46
321.91	80.55
322.124	92.84
322.337	55.98
322.55	39.59
322.763	31.4
322.977	74.41
323.19	101.03
323.403	125.61
323.617	33.45
323.83	105.13
324.043	39.59
324.256	37.55
324.469	-1.37
324.683	68.27
324.896	37.55
325.109	127.66
325.322	64.17
325.535	72.36
325.748	76.46
325.962	31.4
326.175	72.36
326.388	96.94
326.601	27.31
326.814	43.69
327.027	19.11
327.24	98.99
327.453	-7.51
327.666	113.32
327.879	94.89
328.092	31.4
328.305	74.41
328.518	-15.7
328.731	-48.47
328.944	29.35
329.157	53.93
329.37	55.98
329.583	141.99
329.796	78.51
330.009	33.45
330.222	68.27
330.435	117.42
330.648	96.94
330.861	19.11
331.073	78.51
331.286	92.84
331.499	55.98
331.712	72.36
331.925	96.94
332.138	-1.37
332.35	64.17
332.563	21.16
332.776	41.64
332.989	37.55
333.202	117.42
333.414	29.35
333.627	94.89
333.84	21.16
334.053	62.12
334.265	60.07
334.478	88.75
334.691	25.26
334.903	74.41
335.116	12.97
335.329	29.35
335.541	72.36
335.754	113.32
335.966	39.59
336.179	78.51
336.392	-46.42
336.604	76.46
336.817	154.28
337.029	60.07
337.242	-9.56
337.454	31.4
337.667	68.27
337.88	41.64
338.092	17.07
338.305	37.55
338.517	25.26
338.729	60.07
338.942	137.9
339.154	37.55
339.367	35.5
339.579	115.37
339.792	-5.46
340.004	86.7
340.217	37.55
340.429	129.7
340.641	-3.41
340.854	58.03
341.066	58.03
341.278	37.55
341.491	178.86
341.703	92.84
341.915	70.31
342.128	68.27
342.34	113.32
342.552	68.27
342.764	4.78
342.977	78.51
343.189	64.17
343.401	64.17
343.613	6.83
343.826	76.46
344.038	70.31
344.25	-1.37
344.462	0.68
344.674	96.94
344.886	10.92
345.099	72.36
345.311	64.17
345.523	29.35
345.735	-11.61
345.947	88.75
346.159	84.65
346.371	68.27
346.583	121.51
346.795	187.05
347.007	82.6
347.219	21.16
347.431	-5.46
347.643	109.22
347.855	27.31
348.067	55.98
348.279	70.31
348.491	160.42
348.703	86.7
348.915	-15.7
349.127	90.79
349.339	53.93
349.551	12.97
349.763	74.41
349.975	47.79
350.187	64.17
350.399	113.32
350.61	43.69
350.822	10.92
351.034	31.4
351.246	6.83
351.458	92.84
351.669	17.07
351.881	109.22
352.093	29.35
352.305	121.51
352.517	121.51
352.728	107.18
352.94	88.75
353.152	70.31
353.363	-15.7
353.575	98.99
353.787	101.03
353.999	115.37
354.21	58.03
354.422	84.65
354.633	51.88
354.845	27.31
355.057	96.94
355.268	51.88
355.48	23.21
355.692	39.59
355.903	80.55
356.115	62.12
356.326	113.32
356.538	80.55
356.749	117.42
356.961	27.31
357.172	103.08
357.384	15.02
357.595	78.51
357.807	103.08
358.018	47.79
358.23	31.4
358.441	129.7
358.653	70.31
358.864	96.94
359.075	-7.51
359.287	84.65
359.498	113.32
359.709	39.59
359.921	27.31
360.132	49.83
360.344	60.07
360.555	10.92
360.766	-9.56
360.977	96.94
361.189	107.18
361.4	49.83
361.611	115.37
361.823	6.83
362.034	15.02
362.245	-52.56
362.456	10.92
362.667	31.4
362.879	111.27
363.09	103.08
363.301	53.93
363.512	2.73
363.723	105.13
363.935	62.12
364.146	70.31
364.357	49.83
364.568	101.03
364.779	-32.08
364.99	64.17
365.201	103.08
365.412	37.55
365.623	35.5
365.834	27.31
366.045	47.79
366.256	8.87
366.467	129.7
366.678	64.17
366.889	131.75
367.1	105.13
367.311	39.59
367.522	105.13
367.733	60.07
367.944	82.6
368.155	12.97
368.366	125.61
368.577	84.65
368.788	107.18
368.999	39.59
369.209	53.93
369.42	129.7
369.631	78.51
369.842	53.93
370.053	80.55
370.264	121.51
370.474	47.79
370.685	41.64
370.896	64.17
371.107	72.36
371.317	53.93
371.528	47.79
371.739	80.55
371.95	39.59
372.16	92.84
372.371	72.36
372.582	103.08
372.792	82.6
373.003	58.03
373.214	62.12
373.424	105.13
373.635	55.98
373.846	80.55
374.056	47.79
374.267	64.17
374.477	139.94
374.688	43.69
374.898	96.94
375.109	62.12
375.319	125.61
375.53	55.98
375.74	92.84
375.951	19.11
376.161	86.7
376.372	86.7
376.582	60.07
376.793	6.83
377.003	60.07
377.214	103.08
377.424	70.31
377.635	55.98
377.845	53.93
378.055	135.85
378.266	60.07
378.476	35.5
378.686	35.5
378.897	84.65
379.107	47.79
379.317	23.21
379.528	90.79
379.738	64.17
379.948	55.98
380.158	121.51
380.369	78.51
380.579	35.5
380.789	121.51
380.999	62.12
381.21	146.09
381.42	72.36
381.63	86.7
381.84	72.36
382.05	68.27
382.261	53.93
382.471	64.17
382.681	92.84
382.891	58.03
383.101	27.31
383.311	15.02
383.521	80.55
383.731	60.07
383.941	127.66
384.151	41.64
384.361	133.8
384.571	39.59
384.781	66.22
384.991	164.52
385.201	82.6
385.411	0.68
385.621	78.51
385.831	39.59
386.041	103.08
386.251	107.18
386.461	88.75
386.671	152.23
386.881	62.12
387.091	33.45
387.301	88.75
387.511	162.47
387.72	80.55
387.93	92.84
388.14	90.79
388.35	78.51
388.56	105.13
388.769	23.21
388.979	86.7
389.189	113.32
389.399	47.79
389.609	66.22
389.818	96.94
390.028	101.03
390.238	131.75
390.447	6.83
390.657	-17.75
390.867	31.4
391.076	141.99
391.286	0.68
391.496	74.41
391.705	66.22
391.915	49.83
392.125	45.74
392.334	98.99
392.544	135.85
392.753	135.85
392.963	105.13
393.172	101.03
393.382	35.5
393.591	96.94
393.801	121.51
394.01	164.52
394.22	64.17
394.429	96.94
394.639	166.57
394.848	103.08
395.058	70.31
395.267	51.88
395.477	55.98
395.686	84.65
395.895	131.75
396.105	101.03
396.314	105.13
396.524	111.27
396.733	101.03
396.942	228.01
397.152	103.08
397.361	96.94
397.57	193.19
397.78	62.12
397.989	150.18
398.198	209.58
398.407	168.62
398.617	207.53
398.826	92.84
399.035	129.7
399.244	154.28
399.453	92.84
399.663	111.27
399.872	164.52
400.081	137.9
400.29	154.28
400.499	144.04
400.708	203.43
400.917	64.17
401.127	121.51
401.336	109.22
401.545	154.28
401.754	150.18
401.963	144.04
402.172	125.61
402.381	94.89
402.59	113.32
402.799	182.95
403.008	182.95
403.217	219.82
403.426	111.27
403.635	150.18
403.844	168.62
404.053	135.85
404.262	178.86
404.471	193.19
404.68	225.96
404.888	295.59
405.097	111.27
405.306	131.75
405.515	144.04
405.724	144.04
405.933	260.77
406.142	176.81
406.35	225.96
406.559	217.77
406.768	137.9
406.977	287.4
407.185	228.01
407.394	223.91
407.603	180.9
407.812	219.82
408.02	338.6
408.229	209.58
408.438	258.73
408.646	260.77
408.855	301.73
409.064	314.02
409.272	244.39
409.481	295.59
409.69	250.53
409.898	309.93
410.107	324.26
410.315	449.19
410.524	293.54
410.733	383.65
410.941	408.23
411.15	506.53
411.358	350.89
411.567	494.24
411.775	383.65
411.984	514.72
412.192	565.92
412.401	494.24
412.609	559.78
412.818	594.59
413.026	598.69
413.234	514.72
413.443	617.12
413.651	627.36
413.86	543.39
414.068	653.98
414.276	803.49
414.485	651.94
414.693	709.28
414.901	858.78
415.11	783.01
415.318	842.4
415.526	772.77
415.734	809.63
415.943	879.26
416.151	985.76
416.359	922.27
416.567	899.74
416.776	1043.1
416.984	1098.39
417.192	1075.87
417.4	1067.67
417.608	1071.77
417.817	1165.98
418.025	1200.79
418.233	1305.24
418.441	1278.62
418.649	1192.6
418.857	1399.45
419.065	1391.25
419.273	1356.44
419.481	1563.28
419.689	1467.03
419.897	1667.73
420.105	1665.68
420.313	1720.98
420.521	1757.84
420.729	1862.29
420.937	1911.44
421.145	1950.35
421.353	2026.12
421.561	2048.65
421.769	2192.01
421.977	2310.79
422.185	2194.06
422.393	2312.84
422.601	2495.11
422.809	2497.16
423.017	2591.36
423.224	2583.17
423.432	2658.95
423.64	2652.8
423.848	2912.89
424.056	2871.93
424.263	3091.07
424.471	3162.75
424.679	3295.86
424.887	3388.02
425.094	3578.48
425.302	3572.34
425.51	3762.8
425.718	3707.51
425.925	3711.6
426.133	4004.46
426.341	4070
426.548	4364.9
426.756	4217.45
426.964	4285.03
427.171	4651.62
427.379	4483.69
427.586	4803.17
427.794	4758.11
428.001	5118.56
428.209	5349.98
428.417	5229.15
428.624	5667.41
428.832	5696.08
429.039	5591.64
429.247	5741.14
429.454	6017.61
429.662	6681.16
429.869	6117.97
430.076	6453.83
430.284	6408.78
430.491	6697.54
430.699	7150.14
430.906	7103.04
431.114	7121.47
431.321	7402.04
431.528	7426.62
431.736	7778.87
431.943	8350.25
432.15	8258.09
432.358	8133.17
432.565	8628.77
432.772	8497.7
432.979	9148.96
433.187	9103.9
433.394	9138.72
433.601	9812.5
433.808	9929.24
434.016	9822.74
434.223	10142.22
434.43	10760.71
434.637	10695.18
434.844	11297.28
435.052	11719.16
435.259	11579.9
435.466	11649.53
435.673	11319.81
435.88	12251.63
436.087	12573.16
436.294	12716.52
436.501	12491.24
436.708	12765.67
436.915	13316.58
437.122	13584.86
437.329	13715.93
437.537	14107.09
437.743	14490.06
437.95	14307.79
438.157	14971.33
438.364	15446.46
438.571	15335.87
438.778	15292.87
438.985	17031.59
439.192	16224.69
439.399	16824.75
439.606	16271.79
439.813	17691.04
440.02	18739.6
440.227	18219.41
440.433	18172.31
440.64	18608.53
440.847	18182.55
441.054	18880.91
441.261	19966.33
441.467	19775.87
441.674	20124.02
441.881	20961.64
442.088	20975.98
442.294	20871.53
442.501	21162.34
442.708	21750.11
442.914	22597.97
443.121	23652.67
443.328	22868.3
443.534	24488.24
443.741	23664.96
443.948	23456.07
444.154	25184.55
444.361	25096.49
444.568	25119.02
444.774	25227.56
444.981	25405.74
445.187	26030.37
445.394	27107.6
445.6	26857.74
445.807	29346.03
446.013	28236.03
446.22	28647.67
446.426	29520.1
446.633	30007.52
446.839	30574.81
447.046	29591.78
447.252	31580.36
447.459	31549.64
447.665	31406.28
447.871	32809.14
448.078	34017.44
448.284	32573.63
448.491	32841.91
448.697	34353.31
448.903	35195.03
449.11	34791.58
449.316	34592.92
449.522	35012.76
449.728	35858.57
449.935	36280.45
450.141	36065.41
450.347	36804.73
450.553	35725.45
450.76	36130.95
450.966	37470.32
451.172	36683.9
451.378	37632.11
451.584	36960.37
451.791	37564.53
451.997	37783.66
452.203	38355.04
452.409	38031.46
452.615	38633.57
452.821	36634.75
453.027	36163.71
453.233	38336.61
453.44	36065.41
453.646	37032.05
453.852	36915.32
454.058	37529.71
454.264	36053.12
454.47	37314.67
454.676	36673.66
454.882	37359.73
455.088	34246.82
455.294	34984.08
455.5	35578
455.705	35602.57
455.911	33945.76
456.117	33493.16
456.323	33009.84
456.529	31350.99
456.735	32618.68
456.941	31486.15
457.147	31457.48
457.352	30351.58
457.558	29855.97
457.764	30044.38
457.97	29550.82
458.176	28877.04
458.381	28705.01
458.587	27351.31
458.793	27357.45
458.999	25884.96
459.204	27812.1
459.41	27042.06
459.616	25059.63
459.821	25235.75
460.027	25090.35
460.233	24498.48
460.438	23382.34
460.644	23705.92
460.85	22948.17
461.055	22458.71
461.261	22137.18
461.466	20529.52
461.672	20015.48
461.878	21528.93
462.083	20087.16
462.289	19468.67
462.494	19528.06
462.7	18604.43
462.905	17885.59
463.111	18762.12
463.316	18813.32
463.522	18379.15
463.727	18299.28
463.932	18338.19
464.138	18237.84
464.343	18207.12
464.549	17705.37
464.754	18235.8
464.959	18213.27
465.165	18145.69
465.37	17385.89
465.575	16693.68
465.781	17617.31
465.986	17430.94
466.191	16726.44
466.397	16632.24
466.602	16036.28
