Data from USB4F104151__158__10-27-09-262.txt Node

Date: Wed Mar 12 10:27:09 EDT 2025
User: louis
Spectrometer: USB4F10415
Trigger mode: 4
Integration Time (sec): 3.000000E-2
Scans to average: 1
Electric dark correction enabled: true
Nonlinearity correction enabled: false
Boxcar width: 0
XAxis mode: Wavelengths
Number of Pixels in Spectrum: 3648
>>>>>Begin Spectral Data<<<<<
178.204	-112.98
178.424	-112.98
178.644	-112.98
178.864	-147.8
179.084	-80.21
179.304	-51.54
179.524	7.85
179.744	-65.88
179.964	59.05
180.184	30.38
180.404	32.43
180.624	-16.73
180.844	-24.92
181.064	-10.58
181.283	48.81
181.503	11.95
181.723	-20.82
181.943	-49.49
182.163	71.34
182.383	57
182.602	46.76
182.822	24.23
183.042	9.9
183.262	-2.39
183.482	-0.34
183.701	-37.2
183.921	50.86
184.141	1.71
184.361	95.91
184.58	-6.49
184.8	-22.87
185.02	46.76
185.239	91.82
185.459	5.8
185.679	38.57
185.898	28.33
186.118	22.19
186.338	38.57
186.557	9.9
186.777	-10.58
186.997	-16.73
187.216	-2.39
187.436	65.19
187.655	30.38
187.875	42.67
188.095	-47.44
188.314	83.63
188.534	36.52
188.753	-10.58
188.973	65.19
189.192	69.29
189.412	32.43
189.631	-14.68
189.851	26.28
190.07	40.62
190.29	42.67
190.509	36.52
190.729	20.14
190.948	79.53
191.168	169.64
191.387	71.34
191.607	9.9
191.826	46.76
192.045	-14.68
192.265	-14.68
192.484	-14.68
192.704	-16.73
192.923	40.62
193.142	149.16
193.362	91.82
193.581	52.91
193.8	52.91
194.02	67.24
194.239	-47.44
194.458	122.54
194.678	57
194.897	40.62
195.116	7.85
195.335	38.57
195.555	-8.53
195.774	48.81
195.993	52.91
196.212	-14.68
196.432	13.99
196.651	18.09
196.87	22.19
197.089	65.19
197.308	120.49
197.528	93.87
197.747	34.47
197.966	22.19
198.185	32.43
198.404	5.8
198.623	34.47
198.842	89.77
199.062	48.81
199.281	7.85
199.5	54.95
199.719	95.91
199.938	57
200.157	89.77
200.376	24.23
200.595	-18.77
200.814	-59.73
201.033	-12.63
201.252	26.28
201.471	30.38
201.69	75.43
201.909	9.9
202.128	26.28
202.347	50.86
202.566	16.04
202.785	-39.25
203.004	7.85
203.223	102.06
203.442	-10.58
203.661	67.24
203.879	-18.77
204.098	67.24
204.317	-16.73
204.536	63.15
204.755	48.81
204.974	116.39
205.193	57
205.411	40.62
205.63	48.81
205.849	1.71
206.068	91.82
206.287	46.76
206.505	126.63
206.724	104.11
206.943	22.19
207.162	-16.73
207.381	104.11
207.599	16.04
207.818	100.01
208.037	89.77
208.255	7.85
208.474	100.01
208.693	69.29
208.911	1.71
209.13	20.14
209.349	42.67
209.567	36.52
209.786	22.19
210.005	114.34
210.223	48.81
210.442	-12.63
210.661	22.19
210.879	13.99
211.098	40.62
211.316	24.23
211.535	61.1
211.753	40.62
211.972	-22.87
212.191	63.15
212.409	79.53
212.628	-51.54
212.846	24.23
213.065	52.91
213.283	97.96
213.502	32.43
213.72	38.57
213.938	18.09
214.157	65.19
214.375	26.28
214.594	-0.34
214.812	32.43
215.031	-65.88
215.249	-8.53
215.467	5.8
215.686	40.62
215.904	91.82
216.122	9.9
216.341	44.71
216.559	26.28
216.778	52.91
216.996	108.2
217.214	36.52
217.432	-14.68
217.651	73.39
217.869	30.38
218.087	9.9
218.306	-16.73
218.524	104.11
218.742	48.81
218.96	81.58
219.179	44.71
219.397	18.09
219.615	108.2
219.833	79.53
220.051	63.15
220.27	24.23
220.488	149.16
220.706	36.52
220.924	138.92
221.142	30.38
221.36	71.34
221.578	106.15
221.796	26.28
222.015	40.62
222.233	28.33
222.451	40.62
222.669	-31.06
222.887	5.8
223.105	52.91
223.323	48.81
223.541	-8.53
223.759	40.62
223.977	63.15
224.195	71.34
224.413	32.43
224.631	9.9
224.849	-14.68
225.067	93.87
225.285	-24.92
225.503	-14.68
225.721	1.71
225.939	1.71
226.157	48.81
226.375	114.34
226.592	34.47
226.81	5.8
227.028	28.33
227.246	108.2
227.464	18.09
227.682	65.19
227.9	46.76
228.117	91.82
228.335	-14.68
228.553	5.8
228.771	-2.39
228.989	126.63
229.206	57
229.424	61.1
229.642	24.23
229.86	50.86
230.077	54.95
230.295	42.67
230.513	79.53
230.731	36.52
230.948	104.11
231.166	112.3
231.384	30.38
231.601	57
231.819	85.67
232.037	44.71
232.254	52.91
232.472	-8.53
232.689	-22.87
232.907	-37.2
233.125	38.57
233.342	67.24
233.56	54.95
233.777	30.38
233.995	-35.16
234.213	145.06
234.43	63.15
234.648	24.23
234.865	-14.68
235.083	36.52
235.3	61.1
235.518	95.91
235.735	97.96
235.953	67.24
236.17	-31.06
236.388	30.38
236.605	38.57
236.822	85.67
237.04	118.44
237.257	34.47
237.475	32.43
237.692	32.43
237.909	24.23
238.127	32.43
238.344	48.81
238.562	5.8
238.779	40.62
238.996	-4.44
239.214	20.14
239.431	59.05
239.648	-0.34
239.865	89.77
240.083	54.95
240.3	138.92
240.517	7.85
240.735	57
240.952	97.96
241.169	50.86
241.386	38.57
241.603	3.75
241.821	50.86
242.038	122.54
242.255	120.49
242.472	-4.44
242.689	59.05
242.907	134.82
243.124	-2.39
243.341	46.76
243.558	28.33
243.775	16.04
243.992	34.47
244.209	69.29
244.426	69.29
244.643	40.62
244.86	26.28
245.078	9.9
245.295	-55.64
245.512	116.39
245.729	30.38
245.946	73.39
246.163	59.05
246.38	79.53
246.597	30.38
246.814	30.38
247.031	112.3
247.248	13.99
247.464	24.23
247.681	57
247.898	-14.68
248.115	57
248.332	46.76
248.549	52.91
248.766	50.86
248.983	69.29
249.2	-22.87
249.417	40.62
249.633	-12.63
249.85	26.28
250.067	7.85
250.284	34.47
250.501	32.43
250.717	9.9
250.934	9.9
251.151	71.34
251.368	42.67
251.585	71.34
251.801	7.85
252.018	-31.06
252.235	106.15
252.451	-29.01
252.668	-31.06
252.885	67.24
253.102	9.9
253.318	40.62
253.535	11.95
253.752	9.9
253.968	-8.53
254.185	42.67
254.401	-29.01
254.618	79.53
254.835	-6.49
255.051	79.53
255.268	40.62
255.484	46.76
255.701	151.21
255.917	108.2
256.134	-10.58
256.351	38.57
256.567	93.87
256.784	-33.11
257	-6.49
257.217	42.67
257.433	18.09
257.65	73.39
257.866	59.05
258.082	3.75
258.299	1.71
258.515	81.58
258.732	100.01
258.948	-24.92
259.165	-35.16
259.381	97.96
259.597	18.09
259.814	59.05
260.03	32.43
260.246	108.2
260.463	-12.63
260.679	-24.92
260.895	30.38
261.112	50.86
261.328	-20.82
261.544	93.87
261.761	75.43
261.977	46.76
262.193	-22.87
262.409	100.01
262.626	-16.73
262.842	134.82
263.058	24.23
263.274	13.99
263.49	59.05
263.707	34.47
263.923	1.71
264.139	54.95
264.355	73.39
264.571	67.24
264.787	59.05
265.004	91.82
265.22	50.86
265.436	7.85
265.652	65.19
265.868	16.04
266.084	-35.16
266.3	34.47
266.516	7.85
266.732	20.14
266.948	30.38
267.164	59.05
267.38	44.71
267.596	69.29
267.812	116.39
268.028	-2.39
268.244	-6.49
268.46	124.58
268.676	18.09
268.892	97.96
269.108	20.14
269.324	9.9
269.54	-55.64
269.756	75.43
269.972	40.62
270.188	26.28
270.403	22.19
270.619	1.71
270.835	22.19
271.051	63.15
271.267	11.95
271.483	67.24
271.698	24.23
271.914	63.15
272.13	65.19
272.346	20.14
272.562	-45.4
272.777	59.05
272.993	1.71
273.209	75.43
273.425	38.57
273.64	-31.06
273.856	71.34
274.072	20.14
274.287	28.33
274.503	67.24
274.719	77.48
274.934	18.09
275.15	-8.53
275.366	57
275.581	57
275.797	40.62
276.012	-0.34
276.228	26.28
276.444	75.43
276.659	69.29
276.875	-18.77
277.09	69.29
277.306	79.53
277.521	81.58
277.737	79.53
277.952	57
278.168	110.25
278.383	-39.25
278.599	-29.01
278.814	73.39
279.03	132.78
279.245	9.9
279.461	18.09
279.676	104.11
279.892	3.75
280.107	87.72
280.322	-10.58
280.538	16.04
280.753	-59.73
280.969	-57.68
281.184	57
281.399	110.25
281.615	79.53
281.83	63.15
282.045	38.57
282.26	26.28
282.476	18.09
282.691	69.29
282.906	-22.87
283.122	50.86
283.337	87.72
283.552	54.95
283.767	30.38
283.983	38.57
284.198	-16.73
284.413	24.23
284.628	67.24
284.843	24.23
285.058	18.09
285.274	-6.49
285.489	11.95
285.704	67.24
285.919	48.81
286.134	50.86
286.349	85.67
286.564	13.99
286.779	71.34
286.995	100.01
287.21	9.9
287.425	110.25
287.64	34.47
287.855	93.87
288.07	-18.77
288.285	32.43
288.5	73.39
288.715	85.67
288.93	-12.63
289.145	7.85
289.36	89.77
289.575	50.86
289.79	128.68
290.004	71.34
290.219	1.71
290.434	22.19
290.649	100.01
290.864	50.86
291.079	36.52
291.294	22.19
291.509	75.43
291.724	32.43
291.938	-31.06
292.153	48.81
292.368	87.72
292.583	97.96
292.798	77.48
293.012	50.86
293.227	71.34
293.442	81.58
293.657	34.47
293.871	91.82
294.086	83.63
294.301	59.05
294.516	9.9
294.73	93.87
294.945	9.9
295.16	11.95
295.374	59.05
295.589	91.82
295.804	28.33
296.018	91.82
296.233	52.91
296.447	-6.49
296.662	57
296.877	79.53
297.091	18.09
297.306	57
297.52	-22.87
297.735	59.05
297.949	16.04
298.164	87.72
298.378	128.68
298.593	-4.44
298.807	30.38
299.022	110.25
299.236	34.47
299.451	18.09
299.665	91.82
299.88	83.63
300.094	71.34
300.309	59.05
300.523	32.43
300.737	97.96
300.952	91.82
301.166	73.39
301.381	5.8
301.595	26.28
301.809	-26.96
302.024	34.47
302.238	-14.68
302.452	-6.49
302.667	13.99
302.881	9.9
303.095	67.24
303.309	-26.96
303.524	24.23
303.738	46.76
303.952	16.04
304.166	50.86
304.381	-43.35
304.595	34.47
304.809	-2.39
305.023	57
305.237	26.28
305.452	102.06
305.666	73.39
305.88	32.43
306.094	48.81
306.308	89.77
306.522	87.72
306.736	87.72
306.95	26.28
307.164	24.23
307.379	20.14
307.593	192.17
307.807	40.62
308.021	79.53
308.235	42.67
308.449	-18.77
308.663	106.15
308.877	95.91
309.091	42.67
309.305	91.82
309.519	-6.49
309.733	20.14
309.947	-18.77
310.161	54.95
310.374	106.15
310.588	28.33
310.802	36.52
311.016	9.9
311.23	40.62
311.444	18.09
311.658	52.91
311.872	-18.77
312.085	71.34
312.299	32.43
312.513	87.72
312.727	24.23
312.941	22.19
313.154	104.11
313.368	1.71
313.582	71.34
313.796	89.77
314.009	32.43
314.223	67.24
314.437	-24.92
314.651	42.67
314.864	28.33
315.078	20.14
315.292	104.11
315.505	93.87
315.719	24.23
315.933	63.15
316.146	-16.73
316.36	18.09
316.573	130.73
316.787	75.43
317.001	122.54
317.214	57
317.428	83.63
317.641	30.38
317.855	69.29
318.068	-2.39
318.282	89.77
318.495	69.29
318.709	100.01
318.922	165.54
319.136	9.9
319.349	42.67
319.563	93.87
319.776	89.77
319.99	81.58
320.203	38.57
320.417	89.77
320.63	-8.53
320.843	48.81
321.057	69.29
321.27	67.24
321.483	124.58
321.697	102.06
321.91	42.67
322.124	52.91
322.337	85.67
322.55	67.24
322.763	13.99
322.977	-43.35
323.19	75.43
323.403	61.1
323.617	52.91
323.83	79.53
324.043	20.14
324.256	30.38
324.469	-35.16
324.683	79.53
324.896	63.15
325.109	65.19
325.322	7.85
325.535	-10.58
325.748	22.19
325.962	26.28
326.175	34.47
326.388	69.29
326.601	97.96
326.814	-6.49
327.027	3.75
327.24	126.63
327.453	-12.63
327.666	112.3
327.879	73.39
328.092	48.81
328.305	65.19
328.518	95.91
328.731	13.99
328.944	44.71
329.157	48.81
329.37	28.33
329.583	73.39
329.796	87.72
330.009	32.43
330.222	91.82
330.435	63.15
330.648	48.81
330.861	46.76
331.073	7.85
331.286	87.72
331.499	5.8
331.712	79.53
331.925	57
332.138	44.71
332.35	34.47
332.563	9.9
332.776	147.11
332.989	48.81
333.202	54.95
333.414	52.91
333.627	5.8
333.84	18.09
334.053	110.25
334.265	85.67
334.478	-18.77
334.691	36.52
334.903	1.71
335.116	124.58
335.329	46.76
335.541	-26.96
335.754	100.01
335.966	20.14
336.179	46.76
336.392	79.53
336.604	-31.06
336.817	-2.39
337.029	83.63
337.242	69.29
337.454	42.67
337.667	32.43
337.88	32.43
338.092	97.96
338.305	34.47
338.517	52.91
338.729	42.67
338.942	67.24
339.154	67.24
339.367	1.71
339.579	46.76
339.792	24.23
340.004	63.15
340.217	91.82
340.429	57
340.641	7.85
340.854	67.24
341.066	20.14
341.278	83.63
341.491	153.26
341.703	83.63
341.915	73.39
342.128	93.87
342.34	30.38
342.552	26.28
342.764	48.81
342.977	34.47
343.189	116.39
343.401	87.72
343.613	-63.83
343.826	52.91
344.038	26.28
344.25	40.62
344.462	20.14
344.674	9.9
344.886	71.34
345.099	81.58
345.311	91.82
345.523	54.95
345.735	30.38
345.947	52.91
346.159	20.14
346.371	73.39
346.583	18.09
346.795	69.29
347.007	48.81
347.219	50.86
347.431	-22.87
347.643	79.53
347.855	50.86
348.067	149.16
348.279	59.05
348.491	-2.39
348.703	108.2
348.915	112.3
349.127	48.81
349.339	50.86
349.551	71.34
349.763	-35.16
349.975	79.53
350.187	83.63
350.399	95.91
350.61	110.25
350.822	34.47
351.034	118.44
351.246	57
351.458	83.63
351.669	40.62
351.881	100.01
352.093	83.63
352.305	67.24
352.517	40.62
352.728	71.34
352.94	67.24
353.152	71.34
353.363	83.63
353.575	30.38
353.787	52.91
353.999	32.43
354.21	87.72
354.422	63.15
354.633	91.82
354.845	-18.77
355.057	63.15
355.268	59.05
355.48	46.76
355.692	63.15
355.903	1.71
356.115	50.86
356.326	5.8
356.538	34.47
356.749	122.54
356.961	75.43
357.172	71.34
357.384	-0.34
357.595	114.34
357.807	40.62
358.018	59.05
358.23	-22.87
358.441	50.86
358.653	179.88
358.864	22.19
359.075	18.09
359.287	44.71
359.498	91.82
359.709	65.19
359.921	73.39
360.132	87.72
360.344	69.29
360.555	136.87
360.766	16.04
360.977	89.77
361.189	44.71
361.4	5.8
361.611	85.67
361.823	50.86
362.034	40.62
362.245	89.77
362.456	50.86
362.667	52.91
362.879	-12.63
363.09	9.9
363.301	24.23
363.512	-6.49
363.723	67.24
363.935	59.05
364.146	7.85
364.357	120.49
364.568	59.05
364.779	20.14
364.99	114.34
365.201	81.58
365.412	97.96
365.623	18.09
365.834	69.29
366.045	-65.88
366.256	93.87
366.467	18.09
366.678	81.58
366.889	42.67
367.1	30.38
367.311	13.99
367.522	22.19
367.733	50.86
367.944	61.1
368.155	32.43
368.366	102.06
368.577	75.43
368.788	83.63
368.999	46.76
369.209	36.52
369.42	-2.39
369.631	63.15
369.842	100.01
370.053	71.34
370.264	124.58
370.474	-16.73
370.685	63.15
370.896	63.15
371.107	75.43
371.317	3.75
371.528	16.04
371.739	143.02
371.95	63.15
372.16	34.47
372.371	65.19
372.582	30.38
372.792	69.29
373.003	57
373.214	73.39
373.424	93.87
373.635	24.23
373.846	110.25
374.056	75.43
374.267	124.58
374.477	63.15
374.688	11.95
374.898	32.43
375.109	75.43
375.319	75.43
375.53	34.47
375.74	40.62
375.951	108.2
376.161	85.67
376.372	54.95
376.582	65.19
376.793	61.1
377.003	44.71
377.214	95.91
377.424	100.01
377.635	38.57
377.845	42.67
378.055	57
378.266	91.82
378.476	67.24
378.686	85.67
378.897	69.29
379.107	40.62
379.317	97.96
379.528	34.47
379.738	102.06
379.948	38.57
380.158	46.76
380.369	-6.49
380.579	59.05
380.789	100.01
380.999	89.77
381.21	143.02
381.42	138.92
381.63	-18.77
381.84	95.91
382.05	40.62
382.261	122.54
382.471	57
382.681	-24.92
382.891	132.78
383.101	126.63
383.311	54.95
383.521	85.67
383.731	50.86
383.941	32.43
384.151	93.87
384.361	73.39
384.571	97.96
384.781	132.78
384.991	46.76
385.201	126.63
385.411	18.09
385.621	16.04
385.831	91.82
386.041	40.62
386.251	7.85
386.461	138.92
386.671	57
386.881	79.53
387.091	79.53
387.301	75.43
387.511	3.75
387.72	65.19
387.93	67.24
388.14	-41.3
388.35	59.05
388.56	85.67
388.769	153.26
388.979	50.86
389.189	83.63
389.399	104.11
389.609	108.2
389.818	108.2
390.028	57
390.238	124.58
390.447	114.34
390.657	40.62
390.867	42.67
391.076	16.04
391.286	79.53
391.496	116.39
391.705	89.77
391.915	149.16
392.125	67.24
392.334	20.14
392.544	149.16
392.753	89.77
392.963	59.05
393.172	75.43
393.382	67.24
393.591	134.82
393.801	93.87
394.01	91.82
394.22	91.82
394.429	147.11
394.639	57
394.848	112.3
395.058	22.19
395.267	77.48
395.477	128.68
395.686	145.06
395.895	169.64
396.105	124.58
396.314	65.19
396.524	116.39
396.733	112.3
396.942	165.54
397.152	93.87
397.361	85.67
397.57	122.54
397.78	132.78
397.989	79.53
398.198	95.91
398.407	116.39
398.617	65.19
398.826	112.3
399.035	147.11
399.244	173.74
399.453	134.82
399.663	233.13
399.872	118.44
400.081	116.39
400.29	110.25
400.499	40.62
400.708	175.78
400.917	149.16
401.127	122.54
401.336	183.98
401.545	167.59
401.754	116.39
401.963	155.3
402.172	108.2
402.381	87.72
402.59	169.64
402.799	83.63
403.008	190.12
403.217	212.65
403.426	188.07
403.635	165.54
403.844	83.63
404.053	206.5
404.262	132.78
404.471	181.93
404.68	147.11
404.888	126.63
405.097	112.3
405.306	112.3
405.515	190.12
405.724	192.17
405.933	243.37
406.142	132.78
406.35	261.8
406.559	143.02
406.768	177.83
406.977	181.93
407.185	222.89
407.394	208.55
407.603	132.78
407.812	206.5
408.02	313
408.229	208.55
408.438	206.5
408.646	167.59
408.855	292.52
409.064	321.19
409.272	341.67
409.481	335.53
409.69	310.95
409.898	341.67
410.107	282.28
410.315	349.86
410.524	358.05
410.733	302.76
410.941	392.87
411.15	413.35
411.358	421.54
411.567	386.72
411.775	411.3
411.984	439.97
412.192	480.93
412.401	427.68
412.609	564.9
412.818	519.84
413.026	501.41
413.234	552.61
413.443	626.34
413.651	536.23
413.86	478.88
414.068	671.39
414.276	741.02
414.485	630.43
414.693	704.16
414.901	724.64
415.11	741.02
415.318	749.22
415.526	835.23
415.734	759.46
415.943	886.43
416.151	919.2
416.359	896.67
416.567	970.4
416.776	984.73
416.984	1042.07
417.192	988.83
417.4	992.92
417.608	1037.98
417.817	1087.13
418.025	1097.37
418.233	1136.28
418.441	1246.87
418.649	1306.26
418.857	1349.27
419.065	1275.54
419.273	1230.49
419.481	1423
419.689	1547.92
419.897	1584.79
420.105	1576.59
420.313	1666.71
420.521	1717.9
420.729	1771.15
420.937	1715.86
421.145	1730.19
421.353	1943.18
421.561	1996.43
421.769	2025.1
421.977	2086.54
422.185	2107.02
422.393	2197.13
422.601	2338.44
422.809	2395.78
423.017	2442.89
423.224	2541.19
423.432	2582.15
423.64	2588.29
423.848	2782.85
424.056	2698.88
424.263	2950.78
424.471	3057.28
424.679	3139.19
424.887	3266.17
425.094	3339.9
425.302	3255.93
425.51	3434.1
425.718	3536.5
425.925	3528.31
426.133	3698.29
426.341	3933.81
426.548	4077.16
426.756	4040.3
426.964	4040.3
427.171	4388.46
427.379	4591.2
427.586	4458.09
427.794	4619.88
428.001	4816.48
428.209	4920.93
428.417	5080.67
428.624	5312.09
428.832	5246.55
429.039	5480.02
429.247	5389.91
429.454	5965.39
429.662	6274.63
429.869	5801.55
430.076	6278.73
430.284	5965.39
430.491	6411.85
430.699	6657.61
430.906	6800.96
431.114	6966.85
431.321	6850.11
431.528	7196.22
431.736	7521.85
431.943	7980.59
432.15	7790.13
432.358	7958.07
432.565	8142.38
432.772	8162.86
432.979	8631.85
433.187	8744.49
433.394	8646.18
433.601	9268.77
433.808	9571.86
434.016	9270.81
434.223	9747.99
434.43	10343.95
434.637	10190.35
434.844	10630.66
435.052	10808.84
435.259	10849.8
435.466	11038.21
435.673	10790.41
435.88	11499
436.087	12215.79
436.294	12211.7
436.501	11982.32
436.708	12107.25
436.915	12465.64
437.122	13108.71
437.329	13063.65
437.537	13657.56
437.743	13778.39
437.95	13755.86
438.157	14435.79
438.364	14734.79
438.571	14370.26
438.778	14884.3
438.985	16231.86
439.192	15353.28
439.399	16022.97
439.606	15699.39
439.813	16743.85
440.02	17423.78
440.227	17208.74
440.433	16965.03
440.64	17616.29
440.847	17550.75
441.054	17954.2
441.261	19019.14
441.467	18910.6
441.674	19213.7
441.881	19910.01
442.088	20131.19
442.294	20118.9
442.501	20254.07
442.708	20641.14
442.914	21630.3
443.121	22406.48
443.328	21759.33
443.534	23563.59
443.741	22666.58
443.948	22441.3
444.154	23964.99
444.361	23903.55
444.568	23717.18
444.774	24124.73
444.981	24200.51
445.187	25122.09
445.394	26318.11
445.6	25582.88
445.807	28067.07
446.013	27079.95
446.22	27350.28
446.426	28507.38
446.633	28411.13
446.839	29709.54
447.046	28017.92
447.252	29846.76
447.459	29979.87
447.665	29998.3
447.871	31233.23
448.078	32255.17
448.284	30739.67
448.491	31796.42
448.697	32734.39
448.903	33328.3
449.11	33434.8
449.316	32517.31
449.522	33488.04
449.728	33983.65
449.935	34518.17
450.141	34745.5
450.347	34915.48
450.553	33957.03
450.76	34514.08
450.966	35437.71
451.172	35525.77
451.378	35941.51
451.584	35441.81
451.791	35982.47
451.997	36097.16
452.203	36801.66
452.409	36555.9
452.615	36226.18
452.821	34956.44
453.027	34770.07
453.233	36304
453.44	34532.51
453.646	35021.97
453.852	35335.31
454.058	35998.85
454.264	34718.87
454.47	35310.74
454.676	34712.73
454.882	35714.19
455.088	32640.18
455.294	33092.79
455.5	33313.97
455.705	33551.53
455.911	32349.37
456.117	31878.34
456.323	31382.73
456.529	29607.14
456.735	31026.39
456.941	30057.7
457.147	29332.72
457.352	28644.6
457.558	28273.92
457.764	28396.79
457.97	27559.17
458.176	27405.58
458.381	27192.59
458.587	25779.49
458.793	25705.76
458.999	24591.67
459.204	26133.79
459.41	25484.58
459.616	23805.25
459.821	23899.45
460.027	23926.08
460.233	23532.87
460.438	21951.84
460.644	22461.78
460.85	21433.7
461.055	20938.09
461.261	21044.59
461.466	19821.95
461.672	18904.46
461.878	20194.68
462.083	18810.25
462.289	18574.74
462.494	18316.69
462.7	17704.35
462.905	17233.32
463.111	17634.72
463.316	17778.08
463.522	17485.22
463.727	17458.59
463.932	17436.06
464.138	17204.64
464.343	17241.51
464.549	16879.02
464.754	17391.01
464.959	17210.79
465.165	17012.14
465.37	16524.72
465.575	15822.27
465.781	16815.53
465.986	16606.64
466.191	16268.72
466.397	15744.44
466.602	15068.61
466.807	15703.48
467.012	15709.63
467.218	15558.08
467.423	15306.18
467.628	15404.48
467.833	16068.02
