Data from USB4F104151__238__10-30-35-782.txt Node

Date: Wed Mar 12 10:30:35 EDT 2025
User: louis
Spectrometer: USB4F10415
Trigger mode: 4
Integration Time (sec): 3.000000E-2
Scans to average: 1
Electric dark correction enabled: true
Nonlinearity correction enabled: false
Boxcar width: 0
XAxis mode: Wavelengths
Number of Pixels in Spectrum: 3648
>>>>>Begin Spectral Data<<<<<
178.204	-75.09
178.424	-75.09
178.644	-75.09
178.864	-79.19
179.084	-124.24
179.304	-17.75
179.524	84.65
179.744	-44.37
179.964	23.21
180.184	23.21
180.404	6.83
180.624	23.21
180.844	-11.61
181.064	17.07
181.283	-44.37
181.503	-58.71
181.723	-1.37
181.943	-64.85
182.163	37.55
182.383	-13.65
182.602	82.6
182.822	94.89
183.042	39.59
183.262	29.35
183.482	103.08
183.701	-1.37
183.921	17.07
184.141	31.4
184.361	131.75
184.58	62.12
184.8	10.92
185.02	105.13
185.239	6.83
185.459	29.35
185.679	86.7
185.898	-79.19
186.118	66.22
186.338	37.55
186.557	86.7
186.777	31.4
186.997	31.4
187.216	60.07
187.436	90.79
187.655	78.51
187.875	103.08
188.095	-34.13
188.314	43.69
188.534	72.36
188.753	53.93
188.973	64.17
189.192	113.32
189.412	92.84
189.631	88.75
189.851	-13.65
190.07	58.03
190.29	101.03
190.509	80.55
190.729	92.84
190.948	78.51
191.168	135.85
191.387	23.21
191.607	70.31
191.826	47.79
192.045	-30.04
192.265	27.31
192.484	-13.65
192.704	43.69
192.923	19.11
193.142	133.8
193.362	37.55
193.581	117.42
193.8	125.61
194.02	123.56
194.239	107.18
194.458	129.7
194.678	39.59
194.897	43.69
195.116	-9.56
195.335	162.47
195.555	84.65
195.774	29.35
195.993	76.46
196.212	49.83
196.432	43.69
196.651	35.5
196.87	55.98
197.089	90.79
197.308	64.17
197.528	92.84
197.747	-13.65
197.966	58.03
198.185	64.17
198.404	31.4
198.623	74.41
198.842	55.98
199.062	90.79
199.281	98.99
199.5	53.93
199.719	72.36
199.938	80.55
200.157	64.17
200.376	-5.46
200.595	137.9
200.814	19.11
201.033	21.16
201.252	92.84
201.471	68.27
201.69	78.51
201.909	98.99
202.128	49.83
202.347	74.41
202.566	60.07
202.785	60.07
203.004	43.69
203.223	158.38
203.442	101.03
203.661	113.32
203.879	64.17
204.098	148.14
204.317	17.07
204.536	109.22
204.755	15.02
204.974	76.46
205.193	53.93
205.411	146.09
205.63	94.89
205.849	94.89
206.068	23.21
206.287	60.07
206.505	133.8
206.724	55.98
206.943	72.36
207.162	23.21
207.381	19.11
207.599	78.51
207.818	68.27
208.037	-7.51
208.255	121.51
208.474	35.5
208.693	-21.85
208.911	47.79
209.13	47.79
209.349	74.41
209.567	103.08
209.786	139.94
210.005	15.02
210.223	76.46
210.442	62.12
210.661	55.98
210.879	53.93
211.098	119.46
211.316	84.65
211.535	180.9
211.753	51.88
211.972	53.93
212.191	15.02
212.409	80.55
212.628	29.35
212.846	19.11
213.065	121.51
213.283	156.33
213.502	-38.23
213.72	58.03
213.938	55.98
214.157	33.45
214.375	74.41
214.594	70.31
214.812	55.98
215.031	70.31
215.249	88.75
215.467	86.7
215.686	88.75
215.904	-1.37
216.122	29.35
216.341	125.61
216.559	53.93
216.778	150.18
216.996	62.12
217.214	66.22
217.432	121.51
217.651	96.94
217.869	84.65
218.087	90.79
218.306	64.17
218.524	64.17
218.742	127.66
218.96	82.6
219.179	107.18
219.397	27.31
219.615	60.07
219.833	121.51
220.051	33.45
220.27	131.75
220.488	66.22
220.706	88.75
220.924	88.75
221.142	35.5
221.36	2.73
221.578	21.16
221.796	84.65
222.015	25.26
222.233	31.4
222.451	94.89
222.669	35.5
222.887	23.21
223.105	-13.65
223.323	39.59
223.541	25.26
223.759	27.31
223.977	27.31
224.195	6.83
224.413	94.89
224.631	33.45
224.849	82.6
225.067	90.79
225.285	78.51
225.503	70.31
225.721	0.68
225.939	64.17
226.157	68.27
226.375	160.42
226.592	49.83
226.81	45.74
227.028	127.66
227.246	146.09
227.464	58.03
227.682	156.33
227.9	45.74
228.117	121.51
228.335	64.17
228.553	55.98
228.771	64.17
228.989	146.09
229.206	55.98
229.424	37.55
229.642	19.11
229.86	84.65
230.077	27.31
230.295	80.55
230.513	39.59
230.731	39.59
230.948	17.07
231.166	113.32
231.384	82.6
231.601	60.07
231.819	119.46
232.037	2.73
232.254	105.13
232.472	47.79
232.689	64.17
232.907	45.74
233.125	84.65
233.342	35.5
233.56	31.4
233.777	45.74
233.995	72.36
234.213	96.94
234.43	0.68
234.648	64.17
234.865	53.93
235.083	72.36
235.3	86.7
235.518	37.55
235.735	45.74
235.953	103.08
236.17	129.7
236.388	37.55
236.605	86.7
236.822	103.08
237.04	94.89
237.257	64.17
237.475	31.4
237.692	51.88
237.909	88.75
238.127	49.83
238.344	82.6
238.562	43.69
238.779	53.93
238.996	-3.41
239.214	49.83
239.431	41.64
239.648	31.4
239.865	70.31
240.083	105.13
240.3	72.36
240.517	23.21
240.735	109.22
240.952	101.03
241.169	80.55
241.386	53.93
241.603	86.7
241.821	45.74
242.038	88.75
242.255	39.59
242.472	41.64
242.689	62.12
242.907	150.18
243.124	72.36
243.341	43.69
243.558	90.79
243.775	37.55
243.992	-1.37
244.209	98.99
244.426	109.22
244.643	129.7
244.86	80.55
245.078	-5.46
245.295	88.75
245.512	55.98
245.729	23.21
245.946	64.17
246.163	86.7
246.38	101.03
246.597	25.26
246.814	29.35
247.031	6.83
247.248	109.22
247.464	86.7
247.681	64.17
247.898	74.41
248.115	123.56
248.332	-5.46
248.549	29.35
248.766	6.83
248.983	78.51
249.2	25.26
249.417	96.94
249.633	113.32
249.85	103.08
250.067	-5.46
250.284	109.22
250.501	189.1
250.717	29.35
250.934	45.74
251.151	94.89
251.368	6.83
251.585	133.8
251.801	82.6
252.018	74.41
252.235	119.46
252.451	33.45
252.668	51.88
252.885	66.22
253.102	55.98
253.318	-17.75
253.535	47.79
253.752	64.17
253.968	47.79
254.185	137.9
254.401	94.89
254.618	53.93
254.835	53.93
255.051	96.94
255.268	62.12
255.484	64.17
255.701	41.64
255.917	62.12
256.134	-13.65
256.351	74.41
256.567	74.41
256.784	45.74
257	-9.56
257.217	144.04
257.433	8.87
257.65	29.35
257.866	-13.65
258.082	88.75
258.299	51.88
258.515	29.35
258.732	27.31
258.948	72.36
259.165	39.59
259.381	58.03
259.597	68.27
259.814	53.93
260.03	127.66
260.246	35.5
260.463	94.89
260.679	117.42
260.895	33.45
261.112	86.7
261.328	129.7
261.544	94.89
261.761	60.07
261.977	117.42
262.193	49.83
262.409	129.7
262.626	70.31
262.842	68.27
263.058	107.18
263.274	35.5
263.49	60.07
263.707	92.84
263.923	78.51
264.139	111.27
264.355	78.51
264.571	55.98
264.787	53.93
265.004	96.94
265.22	27.31
265.436	88.75
265.652	37.55
265.868	82.6
266.084	39.59
266.3	29.35
266.516	27.31
266.732	62.12
266.948	80.55
267.164	51.88
267.38	84.65
267.596	60.07
267.812	115.37
268.028	84.65
268.244	121.51
268.46	92.84
268.676	-11.61
268.892	12.97
269.108	94.89
269.324	39.59
269.54	96.94
269.756	84.65
269.972	-9.56
270.188	72.36
270.403	43.69
270.619	96.94
270.835	88.75
271.051	43.69
271.267	-3.41
271.483	76.46
271.698	68.27
271.914	55.98
272.13	15.02
272.346	25.26
272.562	45.74
272.777	148.14
272.993	31.4
273.209	31.4
273.425	27.31
273.64	49.83
273.856	96.94
274.072	39.59
274.287	-9.56
274.503	121.51
274.719	121.51
274.934	23.21
275.15	6.83
275.366	80.55
275.581	27.31
275.797	70.31
276.012	55.98
276.228	96.94
276.444	111.27
276.659	94.89
276.875	-3.41
277.09	92.84
277.306	-25.94
277.521	68.27
277.737	92.84
277.952	103.08
278.168	66.22
278.383	119.46
278.599	2.73
278.814	64.17
279.03	88.75
279.245	141.99
279.461	119.46
279.676	111.27
279.892	103.08
280.107	-54.61
280.322	92.84
280.538	117.42
280.753	74.41
280.969	96.94
281.184	113.32
281.399	64.17
281.615	37.55
281.83	146.09
282.045	64.17
282.26	72.36
282.476	113.32
282.691	78.51
282.906	-21.85
283.122	21.16
283.337	39.59
283.552	64.17
283.767	86.7
283.983	64.17
284.198	39.59
284.413	64.17
284.628	29.35
284.843	78.51
285.058	119.46
285.274	72.36
285.489	23.21
285.704	68.27
285.919	39.59
286.134	107.18
286.349	43.69
286.564	23.21
286.779	78.51
286.995	66.22
287.21	39.59
287.425	35.5
287.64	84.65
287.855	47.79
288.07	-42.32
288.285	101.03
288.5	37.55
288.715	35.5
288.93	60.07
289.145	33.45
289.36	96.94
289.575	96.94
289.79	53.93
290.004	15.02
290.219	111.27
290.434	41.64
290.649	-15.7
290.864	53.93
291.079	55.98
291.294	148.14
291.509	55.98
291.724	35.5
291.938	101.03
292.153	8.87
292.368	62.12
292.583	115.37
292.798	66.22
293.012	55.98
293.227	72.36
293.442	31.4
293.657	96.94
293.871	76.46
294.086	109.22
294.301	107.18
294.516	80.55
294.73	131.75
294.945	76.46
295.16	39.59
295.374	31.4
295.589	96.94
295.804	58.03
296.018	96.94
296.233	176.81
296.447	12.97
296.662	92.84
296.877	96.94
297.091	121.51
297.306	74.41
297.52	72.36
297.735	41.64
297.949	-7.51
298.164	107.18
298.378	58.03
298.593	-5.46
298.807	21.16
299.022	141.99
299.236	80.55
299.451	64.17
299.665	51.88
299.88	47.79
300.094	37.55
300.309	92.84
300.523	47.79
300.737	43.69
300.952	119.46
301.166	82.6
301.381	27.31
301.595	6.83
301.809	49.83
302.024	51.88
302.238	51.88
302.452	64.17
302.667	39.59
302.881	90.79
303.095	68.27
303.309	113.32
303.524	70.31
303.738	35.5
303.952	23.21
304.166	29.35
304.381	19.11
304.595	80.55
304.809	33.45
305.023	86.7
305.237	113.32
305.452	68.27
305.666	29.35
305.88	103.08
306.094	90.79
306.308	96.94
306.522	88.75
306.736	111.27
306.95	117.42
307.164	82.6
307.379	60.07
307.593	119.46
307.807	88.75
308.021	86.7
308.235	43.69
308.449	76.46
308.663	37.55
308.877	156.33
309.091	43.69
309.305	111.27
309.519	109.22
309.733	121.51
309.947	121.51
310.161	139.94
310.374	51.88
310.588	123.56
310.802	4.78
311.016	2.73
311.23	111.27
311.444	80.55
311.658	0.68
311.872	94.89
312.085	43.69
312.299	66.22
312.513	101.03
312.727	154.28
312.941	70.31
313.154	53.93
313.368	66.22
313.582	68.27
313.796	10.92
314.009	70.31
314.223	23.21
314.437	94.89
314.651	39.59
314.864	45.74
315.078	90.79
315.292	58.03
315.505	45.74
315.719	117.42
315.933	60.07
316.146	35.5
316.36	43.69
316.573	105.13
316.787	72.36
317.001	82.6
317.214	6.83
317.428	154.28
317.641	17.07
317.855	31.4
318.068	6.83
318.282	60.07
318.495	74.41
318.709	86.7
318.922	72.36
319.136	105.13
319.349	10.92
319.563	84.65
319.776	55.98
319.99	101.03
320.203	105.13
320.417	103.08
320.63	35.5
320.843	150.18
321.057	96.94
321.27	33.45
321.483	62.12
321.697	129.7
321.91	133.8
322.124	27.31
322.337	43.69
322.55	107.18
322.763	70.31
322.977	92.84
323.19	88.75
323.403	70.31
323.617	123.56
323.83	76.46
324.043	10.92
324.256	121.51
324.469	94.89
324.683	86.7
324.896	58.03
325.109	25.26
325.322	43.69
325.535	139.94
325.748	127.66
325.962	88.75
326.175	92.84
326.388	94.89
326.601	121.51
326.814	96.94
327.027	94.89
327.24	119.46
327.453	51.88
327.666	55.98
327.879	139.94
328.092	49.83
328.305	12.97
328.518	105.13
328.731	37.55
328.944	133.8
329.157	117.42
329.37	80.55
329.583	166.57
329.796	129.7
330.009	72.36
330.222	150.18
330.435	146.09
330.648	119.46
330.861	84.65
331.073	68.27
331.286	76.46
331.499	62.12
331.712	15.02
331.925	64.17
332.138	76.46
332.35	129.7
332.563	62.12
332.776	139.94
332.989	105.13
333.202	86.7
333.414	103.08
333.627	45.74
333.84	113.32
334.053	-9.56
334.265	111.27
334.478	51.88
334.691	76.46
334.903	80.55
335.116	4.78
335.329	33.45
335.541	144.04
335.754	94.89
335.966	55.98
336.179	68.27
336.392	96.94
336.604	68.27
336.817	82.6
337.029	47.79
337.242	23.21
337.454	70.31
337.667	98.99
337.88	146.09
338.092	55.98
338.305	115.37
338.517	37.55
338.729	88.75
338.942	111.27
339.154	31.4
339.367	51.88
339.579	80.55
339.792	31.4
340.004	80.55
340.217	45.74
340.429	103.08
340.641	21.16
340.854	23.21
341.066	58.03
341.278	150.18
341.491	127.66
341.703	213.67
341.915	72.36
342.128	113.32
342.34	51.88
342.552	82.6
342.764	117.42
342.977	96.94
343.189	96.94
343.401	121.51
343.613	21.16
343.826	74.41
344.038	23.21
344.25	113.32
344.462	47.79
344.674	45.74
344.886	55.98
345.099	98.99
345.311	113.32
345.523	101.03
345.735	-5.46
345.947	72.36
346.159	68.27
346.371	92.84
346.583	84.65
346.795	152.23
347.007	86.7
347.219	72.36
347.431	109.22
347.643	94.89
347.855	76.46
348.067	125.61
348.279	72.36
348.491	76.46
348.703	80.55
348.915	37.55
349.127	90.79
349.339	78.51
349.551	101.03
349.763	148.14
349.975	43.69
350.187	88.75
350.399	39.59
350.61	105.13
350.822	127.66
351.034	105.13
351.246	101.03
351.458	47.79
351.669	109.22
351.881	80.55
352.093	86.7
352.305	164.52
352.517	98.99
352.728	162.47
352.94	33.45
353.152	64.17
353.363	2.73
353.575	101.03
353.787	133.8
353.999	29.35
354.21	76.46
354.422	2.73
354.633	58.03
354.845	105.13
355.057	105.13
355.268	103.08
355.48	39.59
355.692	96.94
355.903	62.12
356.115	-7.51
356.326	144.04
356.538	47.79
356.749	86.7
356.961	137.9
357.172	37.55
357.384	68.27
357.595	41.64
357.807	84.65
358.018	41.64
358.23	125.61
358.441	55.98
358.653	68.27
358.864	119.46
359.075	88.75
359.287	-30.04
359.498	64.17
359.709	127.66
359.921	141.99
360.132	68.27
360.344	117.42
360.555	88.75
360.766	66.22
360.977	62.12
361.189	96.94
361.4	105.13
361.611	127.66
361.823	105.13
362.034	107.18
362.245	113.32
362.456	129.7
362.667	162.47
362.879	23.21
363.09	86.7
363.301	76.46
363.512	39.59
363.723	117.42
363.935	80.55
364.146	137.9
364.357	80.55
364.568	96.94
364.779	53.93
364.99	55.98
365.201	-13.65
365.412	78.51
365.623	68.27
365.834	84.65
366.045	80.55
366.256	78.51
366.467	105.13
366.678	53.93
366.889	135.85
367.1	86.7
367.311	144.04
367.522	92.84
367.733	6.83
367.944	119.46
368.155	88.75
368.366	121.51
368.577	141.99
368.788	92.84
368.999	76.46
369.209	70.31
369.42	117.42
369.631	68.27
369.842	2.73
370.053	43.69
370.264	88.75
370.474	72.36
370.685	80.55
370.896	119.46
371.107	141.99
371.317	109.22
371.528	86.7
371.739	144.04
371.95	86.7
372.16	68.27
372.371	47.79
372.582	135.85
372.792	117.42
373.003	107.18
373.214	37.55
373.424	199.34
373.635	45.74
373.846	123.56
374.056	72.36
374.267	41.64
374.477	39.59
374.688	80.55
374.898	94.89
375.109	55.98
375.319	74.41
375.53	141.99
375.74	127.66
375.951	51.88
376.161	45.74
376.372	88.75
376.582	103.08
376.793	92.84
377.003	19.11
377.214	37.55
377.424	119.46
377.635	84.65
377.845	98.99
378.055	113.32
378.266	33.45
378.476	139.94
378.686	113.32
378.897	166.57
379.107	127.66
379.317	80.55
379.528	37.55
379.738	156.33
379.948	25.26
380.158	125.61
380.369	72.36
380.579	72.36
380.789	113.32
380.999	105.13
381.21	154.28
381.42	127.66
381.63	131.75
381.84	70.31
382.05	23.21
382.261	119.46
382.471	121.51
382.681	29.35
382.891	178.86
383.101	107.18
383.311	109.22
383.521	80.55
383.731	137.9
383.941	139.94
384.151	80.55
384.361	80.55
384.571	94.89
384.781	176.81
384.991	107.18
385.201	154.28
385.411	144.04
385.621	117.42
385.831	43.69
386.041	131.75
386.251	94.89
386.461	146.09
386.671	80.55
386.881	94.89
387.091	90.79
387.301	98.99
387.511	94.89
387.72	35.5
387.93	68.27
388.14	131.75
388.35	58.03
388.56	107.18
388.769	146.09
388.979	98.99
389.189	123.56
389.399	160.42
389.609	90.79
389.818	150.18
390.028	17.07
390.238	141.99
390.447	113.32
390.657	117.42
390.867	31.4
391.076	189.1
391.286	144.04
391.496	90.79
391.705	119.46
391.915	182.95
392.125	121.51
392.334	37.55
392.544	96.94
392.753	131.75
392.963	150.18
393.172	86.7
393.382	31.4
393.591	211.62
393.801	64.17
394.01	195.24
394.22	121.51
394.429	187.05
394.639	170.66
394.848	78.51
395.058	139.94
395.267	144.04
395.477	113.32
395.686	152.23
395.895	162.47
396.105	234.15
396.314	121.51
396.524	129.7
396.733	162.47
396.942	162.47
397.152	150.18
397.361	72.36
397.57	86.7
397.78	152.23
397.989	225.96
398.198	211.62
398.407	164.52
398.617	207.53
398.826	203.43
399.035	135.85
399.244	154.28
399.453	185
399.663	121.51
399.872	152.23
400.081	146.09
400.29	125.61
400.499	158.38
400.708	137.9
400.917	129.7
401.127	127.66
401.336	119.46
401.545	141.99
401.754	182.95
401.963	187.05
402.172	121.51
402.381	170.66
402.59	133.8
402.799	223.91
403.008	228.01
403.217	234.15
403.426	219.82
403.635	125.61
403.844	127.66
404.053	207.53
404.262	168.62
404.471	236.2
404.68	221.86
404.888	219.82
405.097	230.06
405.306	215.72
405.515	195.24
405.724	201.38
405.933	260.77
406.142	205.48
406.35	225.96
406.559	262.82
406.768	246.44
406.977	332.45
407.185	225.96
407.394	305.83
407.603	170.66
407.812	303.78
408.02	311.97
408.229	260.77
408.438	266.92
408.646	311.97
408.855	277.16
409.064	316.07
409.272	299.69
409.481	281.25
409.69	406.18
409.898	354.98
410.107	418.47
410.315	424.61
410.524	367.27
410.733	492.2
410.941	424.61
411.15	432.8
411.358	459.43
411.567	512.67
411.775	430.76
411.984	492.2
412.192	549.54
412.401	506.53
412.609	625.31
412.818	539.3
413.026	582.31
413.234	625.31
413.443	574.11
413.651	627.36
413.86	676.51
414.068	707.23
414.276	731.81
414.485	731.81
414.693	752.29
414.901	852.64
415.11	809.63
415.318	834.21
415.526	869.02
415.734	879.26
415.943	893.6
416.151	1043.1
416.359	991.9
416.567	1112.73
416.776	1075.87
416.984	1120.92
417.192	1157.79
417.4	1139.35
417.608	1118.87
417.817	1079.96
418.025	1348.25
418.233	1432.21
418.441	1251.99
418.649	1329.81
418.857	1479.32
419.065	1436.31
419.273	1485.46
419.481	1643.15
419.689	1712.78
419.897	1591.95
420.105	1790.61
420.313	1700.5
420.521	1872.53
420.729	1938.06
420.937	1874.57
421.145	2050.7
421.353	2126.47
421.561	2183.82
421.769	2202.25
421.977	2310.79
422.185	2347.65
422.393	2386.57
422.601	2560.64
422.809	2609.79
423.017	2630.27
423.224	2747.01
423.432	2898.56
423.64	2837.12
423.848	3062.4
424.056	2882.17
424.263	3250.81
424.471	3240.57
424.679	3349.11
424.887	3471.99
425.094	3488.37
425.302	3598.96
425.51	3850.86
425.718	3830.38
425.925	3861.1
426.133	4000.37
426.341	4319.85
426.548	4405.86
426.756	4393.58
426.964	4452.97
427.171	4745.83
427.379	4700.77
427.586	5063.26
427.794	4993.63
428.001	5155.42
428.209	5458.52
428.417	5544.53
428.624	5810.77
428.832	5884.5
429.039	5778
429.247	5900.88
429.454	6425.16
429.662	6763.08
429.869	6322.76
430.076	6820.42
430.284	6654.53
430.491	6959.68
430.699	7346.75
430.906	7424.57
431.114	7295.55
431.321	7787.06
431.528	7742
431.736	8206.89
431.943	8712.74
432.15	8530.47
432.358	8466.99
432.565	8981.03
432.772	8935.97
432.979	9366.04
433.187	9443.87
433.394	9585.18
433.601	10197.52
433.808	10295.82
434.016	10093.07
434.223	10512.91
434.43	11135.49
434.637	10975.75
434.844	11624.95
435.052	11950.58
435.259	11839.99
435.466	12112.37
435.673	11915.76
435.88	12630.51
436.087	13390.3
436.294	13203.94
436.501	12917.22
436.708	13384.16
436.915	13597.15
437.122	14053.84
437.329	14221.78
437.537	14846.41
437.743	15163.84
437.95	14690.76
438.157	15575.48
438.364	16087.48
438.571	16056.76
438.778	16105.91
438.985	17695.13
439.192	16939.43
439.399	17394.08
439.606	17338.79
439.813	18155.93
440.02	19468.67
440.227	18913.67
440.433	18604.43
440.64	19188.1
440.847	18938.25
441.054	19288.45
441.261	20797.81
441.467	20550
441.674	21285.22
441.881	21852.51
442.088	21776.73
442.294	21586.27
442.501	22018.39
442.708	22710.61
442.914	23472.45
443.121	24744.24
443.328	23529.8
443.534	25671.97
443.741	24955.18
443.948	24496.44
444.154	25942.3
444.361	25884.96
444.568	26407.19
444.774	26030.37
444.981	26399
445.187	26943.76
445.394	28571.89
445.6	27943.17
445.807	30564.57
446.013	29319.4
446.22	29808.87
446.426	30871.76
446.633	31201.49
446.839	32188.61
447.046	30990.55
447.252	32622.78
447.459	32958.64
447.665	32559.29
447.871	33593.51
448.078	35442.83
448.284	33618.09
448.491	34246.82
448.697	35764.36
448.903	36280.45
449.11	36378.75
449.316	35887.24
449.522	36554.88
449.728	37568.62
449.935	37734.51
450.141	37824.62
450.347	38226.02
450.553	37134.45
450.76	37873.77
450.966	38778.97
451.172	38504.54
451.378	39161.94
451.584	38586.46
451.791	39514.19
451.997	39422.03
452.203	40075.34
452.409	39940.17
452.615	39645.26
452.821	37990.5
453.027	38004.84
453.233	39829.58
453.44	38068.33
453.646	38846.55
453.852	38793.31
454.058	39370.83
454.264	37855.34
454.47	38969.43
454.676	37779.56
454.882	39168.08
455.088	35502.22
455.294	36325.5
455.5	36595.84
455.705	37261.43
455.911	35291.28
456.117	34979.99
456.323	34709.66
456.529	32229.57
456.735	33869.99
456.941	32956.6
457.147	32522.43
457.352	31529.16
457.558	31113.42
457.764	31449.29
457.97	30542.04
458.176	30157.02
458.381	29880.55
458.587	28393.72
458.793	28848.37
458.999	26962.19
459.204	28938.48
459.41	28498.17
459.616	26628.37
459.821	26413.34
460.027	26476.82
460.233	25606.44
460.438	24502.58
460.644	24645.94
460.85	23454.02
461.055	22958.41
461.261	23159.11
461.466	21578.08
461.672	20779.37
461.878	22290.77
462.083	20998.51
462.289	20607.34
462.494	20314.48
462.7	19440
462.905	18909.58
463.111	19915.13
463.316	19843.45
463.522	19179.91
463.727	19102.09
463.932	19249.54
464.138	19122.57
464.343	18958.73
464.549	18452.88
464.754	19194.25
464.959	18837.9
465.165	18971.02
465.37	18096.53
465.575	17590.69
