Data from USB4F104151__116__10-25-02-225.txt Node

Date: Wed Mar 12 10:25:02 EDT 2025
User: louis
Spectrometer: USB4F10415
Trigger mode: 4
Integration Time (sec): 3.000000E-2
Scans to average: 1
Electric dark correction enabled: true
Nonlinearity correction enabled: false
Boxcar width: 0
XAxis mode: Wavelengths
Number of Pixels in Spectrum: 3648
>>>>>Begin Spectral Data<<<<<
178.204	-138.58
178.424	-138.58
178.644	-138.58
178.864	-85.33
179.084	-185.68
179.304	-21.84
179.524	-13.65
179.744	23.21
179.964	27.31
180.184	35.5
180.404	58.03
180.624	2.73
180.844	-17.75
181.064	-64.85
181.283	-42.32
181.503	2.73
181.723	10.92
181.943	-7.51
182.163	23.21
182.383	-21.84
182.602	0.68
182.822	74.41
183.042	-3.41
183.262	19.11
183.482	-17.75
183.701	49.83
183.921	-21.84
184.141	-46.42
184.361	19.11
184.58	-5.46
184.8	-40.28
185.02	-30.04
185.239	43.69
185.459	-46.42
185.679	-1.37
185.898	-40.28
186.118	10.92
186.338	33.45
186.557	64.17
186.777	19.11
186.997	-3.41
187.216	10.92
187.436	31.4
187.655	-50.52
187.875	62.12
188.095	2.73
188.314	117.42
188.534	62.12
188.753	27.31
188.973	25.26
189.192	35.5
189.412	31.4
189.631	19.11
189.851	33.45
190.07	68.27
190.29	-48.47
190.509	84.65
190.729	2.73
190.948	35.5
191.168	133.8
191.387	25.26
191.607	-48.47
191.826	-9.56
192.045	27.31
192.265	41.64
192.484	23.21
192.704	25.26
192.923	-13.65
193.142	33.45
193.362	15.02
193.581	27.31
193.8	39.59
194.02	25.26
194.239	39.59
194.458	115.37
194.678	60.07
194.897	68.27
195.116	131.75
195.335	29.35
195.555	23.21
195.774	39.59
195.993	-48.47
196.212	12.97
196.432	-32.08
196.651	31.4
196.87	27.31
197.089	51.88
197.308	39.59
197.528	2.73
197.747	0.68
197.966	-68.95
198.185	58.03
198.404	12.97
198.623	8.87
198.842	96.94
199.062	8.87
199.281	45.74
199.5	17.07
199.719	-27.99
199.938	27.31
200.157	103.08
200.376	35.5
200.595	76.46
200.814	62.12
201.033	-23.89
201.252	64.17
201.471	-5.46
201.69	60.07
201.909	53.93
202.128	-42.32
202.347	-27.99
202.566	45.74
202.785	-1.37
203.004	27.31
203.223	31.4
203.442	-27.99
203.661	49.83
203.879	-17.75
204.098	23.21
204.317	66.22
204.536	6.83
204.755	33.45
204.974	88.75
205.193	12.97
205.411	27.31
205.63	68.27
205.849	37.55
206.068	-50.52
206.287	-5.46
206.505	49.83
206.724	2.73
206.943	-17.75
207.162	-9.56
207.381	25.26
207.599	-5.46
207.818	2.73
208.037	25.26
208.255	-13.65
208.474	-27.99
208.693	27.31
208.911	-17.75
209.13	-21.84
209.349	98.99
209.567	10.92
209.786	-3.41
210.005	6.83
210.223	25.26
210.442	37.55
210.661	55.98
210.879	-13.65
211.098	-27.99
211.316	8.87
211.535	31.4
211.753	-73.04
211.972	78.51
212.191	-62.8
212.409	25.26
212.628	76.46
212.846	8.87
213.065	119.46
213.283	15.02
213.502	17.07
213.72	21.16
213.938	12.97
214.157	-7.51
214.375	53.93
214.594	49.83
214.812	0.68
215.031	-64.85
215.249	47.79
215.467	31.4
215.686	4.78
215.904	72.36
216.122	-5.46
216.341	-5.46
216.559	0.68
216.778	41.64
216.996	8.87
217.214	-5.46
217.432	-40.28
217.651	-66.9
217.869	41.64
218.087	31.4
218.306	6.83
218.524	-34.13
218.742	-19.8
218.96	2.73
219.179	33.45
219.397	-1.37
219.615	21.16
219.833	35.5
220.051	33.45
220.27	23.21
220.488	35.5
220.706	51.88
220.924	55.98
221.142	-19.8
221.36	-1.37
221.578	80.55
221.796	31.4
222.015	-5.46
222.233	60.07
222.451	37.55
222.669	2.73
222.887	29.35
223.105	2.73
223.323	17.07
223.541	60.07
223.759	-13.65
223.977	70.31
224.195	68.27
224.413	88.75
224.631	0.68
224.849	19.11
225.067	-1.37
225.285	-89.43
225.503	-1.37
225.721	-1.37
225.939	29.35
226.157	37.55
226.375	117.42
226.592	62.12
226.81	-9.56
227.028	33.45
227.246	31.4
227.464	-17.75
227.682	-3.41
227.9	4.78
228.117	60.07
228.335	-1.37
228.553	19.11
228.771	37.55
228.989	31.4
229.206	51.88
229.424	0.68
229.642	55.98
229.86	6.83
230.077	51.88
230.295	78.51
230.513	70.31
230.731	21.16
230.948	101.03
231.166	-17.75
231.384	86.7
231.601	-3.41
231.819	86.7
232.037	39.59
232.254	23.21
232.472	-5.46
232.689	8.87
232.907	6.83
233.125	21.16
233.342	12.97
233.56	-25.94
233.777	-3.41
233.995	6.83
234.213	47.79
234.43	49.83
234.648	-30.04
234.865	-58.71
235.083	60.07
235.3	-11.61
235.518	-9.56
235.735	68.27
235.953	6.83
236.17	10.92
236.388	-40.28
236.605	21.16
236.822	55.98
237.04	19.11
237.257	17.07
237.475	-60.76
237.692	47.79
237.909	-7.51
238.127	-7.51
238.344	-19.8
238.562	53.93
238.779	-5.46
238.996	12.97
239.214	51.88
239.431	17.07
239.648	45.74
239.865	55.98
240.083	29.35
240.3	10.92
240.517	-50.52
240.735	33.45
240.952	25.26
241.169	49.83
241.386	-1.37
241.603	47.79
241.821	47.79
242.038	-34.13
242.255	25.26
242.472	10.92
242.689	72.36
242.907	111.27
243.124	29.35
243.341	4.78
243.558	33.45
243.775	68.27
243.992	-1.37
244.209	29.35
244.426	80.55
244.643	45.74
244.86	-58.71
245.078	-5.46
245.295	33.45
245.512	-1.37
245.729	15.02
245.946	55.98
246.163	-50.52
246.38	10.92
246.597	45.74
246.814	8.87
247.031	64.17
247.248	51.88
247.464	19.11
247.681	2.73
247.898	35.5
248.115	-7.51
248.332	-48.47
248.549	92.84
248.766	80.55
248.983	41.64
249.2	-5.46
249.417	6.83
249.633	-30.04
249.85	74.41
250.067	35.5
250.284	10.92
250.501	31.4
250.717	6.83
250.934	2.73
251.151	39.59
251.368	-23.89
251.585	31.4
251.801	68.27
252.018	-3.41
252.235	39.59
252.451	-58.71
252.668	35.5
252.885	51.88
253.102	33.45
253.318	4.78
253.535	62.12
253.752	66.22
253.968	15.02
254.185	-40.28
254.401	-25.94
254.618	-3.41
254.835	41.64
255.051	-40.28
255.268	43.69
255.484	29.35
255.701	-77.14
255.917	-1.37
256.134	-30.04
256.351	-11.61
256.567	6.83
256.784	31.4
257	33.45
257.217	94.89
257.433	15.02
257.65	-34.13
257.866	6.83
258.082	-34.13
258.299	10.92
258.515	21.16
258.732	-17.75
258.948	58.03
259.165	-23.89
259.381	35.5
259.597	-7.51
259.814	15.02
260.03	43.69
260.246	25.26
260.463	12.97
260.679	-1.37
260.895	6.83
261.112	80.55
261.328	8.87
261.544	45.74
261.761	23.21
261.977	-30.04
262.193	35.5
262.409	101.03
262.626	64.17
262.842	88.75
263.058	6.83
263.274	35.5
263.49	-5.46
263.707	15.02
263.923	-17.75
264.139	-42.32
264.355	68.27
264.571	86.7
264.787	25.26
265.004	107.18
265.22	64.17
265.436	-17.75
265.652	6.83
265.868	43.69
266.084	-23.89
266.3	-19.8
266.516	-23.89
266.732	-21.84
266.948	53.93
267.164	-27.99
267.38	31.4
267.596	4.78
267.812	92.84
268.028	55.98
268.244	51.88
268.46	70.31
268.676	15.02
268.892	33.45
269.108	60.07
269.324	-17.75
269.54	10.92
269.756	109.23
269.972	39.59
270.188	-30.04
270.403	58.03
270.619	55.98
270.835	25.26
271.051	21.16
271.267	15.02
271.483	68.27
271.698	17.07
271.914	76.46
272.13	-17.75
272.346	4.78
272.562	51.88
272.777	41.64
272.993	-5.46
273.209	6.83
273.425	37.55
273.64	6.83
273.856	58.03
274.072	35.5
274.287	19.11
274.503	23.21
274.719	66.22
274.934	35.5
275.15	-50.52
275.366	2.73
275.581	-3.41
275.797	-23.89
276.012	-38.23
276.228	-3.41
276.444	0.68
276.659	60.07
276.875	-11.61
277.09	55.98
277.306	-46.42
277.521	-13.65
277.737	41.64
277.952	84.65
278.168	84.65
278.383	35.5
278.599	37.55
278.814	-13.65
279.03	-62.8
279.245	37.55
279.461	25.26
279.676	-3.41
279.892	-40.28
280.107	-75.09
280.322	0.68
280.538	15.02
280.753	31.4
280.969	80.55
281.184	6.83
281.399	43.69
281.615	-15.7
281.83	25.26
282.045	-21.84
282.26	27.31
282.476	-73.04
282.691	35.5
282.906	49.83
283.122	-1.37
283.337	8.87
283.552	35.5
283.767	-68.95
283.983	58.03
284.198	4.78
284.413	82.6
284.628	-25.94
284.843	-13.65
285.058	0.68
285.274	35.5
285.489	-23.89
285.704	53.93
285.919	-42.32
286.134	29.35
286.349	29.35
286.564	-1.37
286.779	86.7
286.995	31.4
287.21	-17.75
287.425	10.92
287.64	10.92
287.855	25.26
288.07	-13.65
288.285	51.88
288.5	84.65
288.715	19.11
288.93	35.5
289.145	78.51
289.36	82.6
289.575	0.68
289.79	10.92
290.004	41.64
290.219	-17.75
290.434	0.68
290.649	-32.08
290.864	2.73
291.079	53.93
291.294	0.68
291.509	25.26
291.724	43.69
291.938	49.83
292.153	23.21
292.368	-7.51
292.583	17.07
292.798	31.4
293.012	144.04
293.227	19.11
293.442	39.59
293.657	31.4
293.871	92.84
294.086	45.74
294.301	47.79
294.516	19.11
294.73	21.16
294.945	8.87
295.16	101.03
295.374	19.11
295.589	109.23
295.804	-13.65
296.018	55.98
296.233	37.55
296.447	58.03
296.662	-15.7
296.877	45.74
297.091	-64.85
297.306	8.87
297.52	76.46
297.735	90.79
297.949	23.21
298.164	29.35
298.378	49.83
298.593	-23.89
298.807	41.64
299.022	17.07
299.236	86.7
299.451	-36.18
299.665	15.02
299.88	78.51
300.094	58.03
300.309	15.02
300.523	58.03
300.737	19.11
300.952	51.88
301.166	41.64
301.381	-1.37
301.595	-30.04
301.809	-36.18
302.024	15.02
302.238	17.07
302.452	2.73
302.667	19.11
302.881	-5.46
303.095	19.11
303.309	98.99
303.524	17.07
303.738	-13.65
303.952	47.79
304.166	68.27
304.381	-87.38
304.595	-32.08
304.809	8.87
305.023	60.07
305.237	-30.04
305.452	-64.85
305.666	53.93
305.88	47.79
306.094	51.88
306.308	29.35
306.522	31.4
306.736	-9.56
306.95	23.21
307.164	-17.75
307.379	33.45
307.593	4.78
307.807	41.64
308.021	45.74
308.235	25.26
308.449	8.87
308.663	23.21
308.877	33.45
309.091	47.79
309.305	23.21
309.519	-1.37
309.733	82.6
309.947	15.02
310.161	86.7
310.374	15.02
310.588	66.22
310.802	-13.65
311.016	-56.66
311.23	92.84
311.444	35.5
311.658	19.11
311.872	-1.37
312.085	0.68
312.299	55.98
312.513	8.87
312.727	-91.48
312.941	37.55
313.154	-40.28
313.368	-9.56
313.582	27.31
313.796	58.03
314.009	55.98
314.223	62.12
314.437	-1.37
314.651	51.88
314.864	-11.61
315.078	-13.65
315.292	2.73
315.505	-48.47
315.719	58.03
315.933	4.78
316.146	-21.84
316.36	17.07
316.573	39.59
316.787	19.11
317.001	39.59
317.214	-25.94
317.428	4.78
317.641	-25.94
317.855	31.4
318.068	15.02
318.282	-21.84
318.495	72.36
318.709	55.98
318.922	-7.51
319.136	62.12
319.349	60.07
319.563	4.78
319.776	88.75
319.99	49.83
320.203	35.5
320.417	-58.71
320.63	15.02
320.843	15.02
321.057	53.93
321.27	62.12
321.483	58.03
321.697	74.41
321.91	60.07
322.124	-5.46
322.337	53.93
322.55	27.31
322.763	10.92
322.977	4.78
323.19	-52.56
323.403	39.59
323.617	29.35
323.83	70.31
324.043	-13.65
324.256	-32.08
324.469	33.45
324.683	64.17
324.896	55.98
325.109	-54.61
325.322	27.31
325.535	-11.61
325.748	31.4
325.962	39.59
326.175	-21.84
326.388	17.07
326.601	47.79
326.814	-9.56
327.027	-27.99
327.24	154.28
327.453	-5.46
327.666	-9.56
327.879	-1.37
328.092	15.02
328.305	12.97
328.518	43.69
328.731	35.5
328.944	-75.09
329.157	8.87
329.37	-19.8
329.583	-13.65
329.796	105.13
330.009	49.83
330.222	8.87
330.435	60.07
330.648	45.74
330.861	27.31
331.073	-17.75
331.286	17.07
331.499	-11.61
331.712	15.02
331.925	-19.8
332.138	47.79
332.35	6.83
332.563	-1.37
332.776	12.97
332.989	-7.51
333.202	62.12
333.414	68.27
333.627	19.11
333.84	33.45
334.053	58.03
334.265	-13.65
334.478	47.79
334.691	43.69
334.903	39.59
335.116	25.26
335.329	35.5
335.541	6.83
335.754	31.4
335.966	-13.65
336.179	-21.84
336.392	33.45
336.604	-38.23
336.817	37.55
337.029	-1.37
337.242	17.07
337.454	98.99
337.667	33.45
337.88	35.5
338.092	27.31
338.305	-9.56
338.517	19.11
338.729	60.07
338.942	82.6
339.154	29.35
339.367	-9.56
339.579	41.64
339.792	2.73
340.004	55.98
340.217	35.5
340.429	-23.89
340.641	62.12
340.854	-58.71
341.066	12.97
341.278	31.4
341.491	21.16
341.703	41.64
341.915	68.27
342.128	19.11
342.34	-56.66
342.552	70.31
342.764	-38.23
342.977	21.16
343.189	39.59
343.401	25.26
343.613	0.68
343.826	49.83
344.038	35.5
344.25	31.4
344.462	12.97
344.674	41.64
344.886	-34.13
345.099	17.07
345.311	131.75
345.523	12.97
345.735	6.83
345.947	90.79
346.159	2.73
346.371	29.35
346.583	17.07
346.795	111.27
347.007	-21.84
347.219	51.88
347.431	-15.7
347.643	78.51
347.855	43.69
348.067	-30.04
348.279	21.16
348.491	39.59
348.703	-38.23
348.915	49.83
349.127	-3.41
349.339	8.87
349.551	27.31
349.763	111.27
349.975	19.11
350.187	96.94
350.399	62.12
350.61	33.45
350.822	68.27
351.034	33.45
351.246	-7.51
351.458	-7.51
351.669	10.92
351.881	101.03
352.093	33.45
352.305	29.35
352.517	33.45
352.728	94.89
352.94	-17.75
353.152	86.7
353.363	45.74
353.575	55.98
353.787	55.98
353.999	-32.08
354.21	23.21
354.422	-73.04
354.633	-46.42
354.845	-13.65
355.057	43.69
355.268	35.5
355.48	2.73
355.692	31.4
355.903	0.68
356.115	96.94
356.326	-50.52
356.538	25.26
356.749	76.46
356.961	51.88
357.172	-32.08
357.384	53.93
357.595	29.35
357.807	12.97
358.018	37.55
358.23	84.65
358.441	117.42
358.653	27.31
358.864	43.69
359.075	27.31
359.287	-15.7
359.498	101.03
359.709	10.92
359.921	72.36
360.132	64.17
360.344	90.79
360.555	-54.61
360.766	25.26
360.977	49.83
361.189	39.59
361.4	-30.04
361.611	6.83
361.823	66.22
362.034	76.46
362.245	-54.61
362.456	66.22
362.667	39.59
362.879	82.6
363.09	6.83
363.301	45.74
363.512	55.98
363.723	23.21
363.935	-40.28
364.146	68.27
364.357	35.5
364.568	70.31
364.779	-50.52
364.99	53.93
365.201	12.97
365.412	68.27
365.623	27.31
365.834	49.83
366.045	-7.51
366.256	17.07
366.467	29.35
366.678	6.83
366.889	-5.46
367.1	55.98
367.311	17.07
367.522	17.07
367.733	27.31
367.944	53.93
368.155	8.87
368.366	55.98
368.577	25.26
368.788	-21.84
368.999	17.07
369.209	39.59
369.42	66.22
369.631	27.31
369.842	82.6
370.053	0.68
370.264	0.68
370.474	2.73
370.685	27.31
370.896	4.78
371.107	90.79
371.317	43.69
371.528	17.07
371.739	-25.94
371.95	86.7
372.16	19.11
372.371	31.4
372.582	76.46
372.792	47.79
373.003	31.4
373.214	10.92
373.424	125.61
373.635	2.73
373.846	88.75
374.056	105.13
374.267	53.93
374.477	55.98
374.688	-5.46
374.898	62.12
375.109	10.92
375.319	-27.99
375.53	-1.37
375.74	23.21
375.951	70.31
376.161	62.12
376.372	37.55
376.582	35.5
376.793	62.12
377.003	43.69
377.214	-34.13
377.424	70.31
377.635	70.31
377.845	10.92
378.055	39.59
378.266	-5.46
378.476	-32.08
378.686	51.88
378.897	96.94
379.107	60.07
379.317	90.79
379.528	6.83
379.738	74.41
379.948	58.03
380.158	86.7
380.369	4.78
380.579	82.6
380.789	12.97
380.999	-38.23
381.21	47.79
381.42	160.42
381.63	15.02
381.84	43.69
382.05	76.46
382.261	51.88
382.471	10.92
382.681	72.36
382.891	41.64
383.101	78.51
383.311	55.98
383.521	10.92
383.731	31.4
383.941	96.94
384.151	76.46
384.361	31.4
384.571	19.11
384.781	64.17
384.991	31.4
385.201	15.02
385.411	25.26
385.621	88.75
385.831	-3.41
386.041	49.83
386.251	15.02
386.461	80.55
386.671	35.5
386.881	12.97
387.091	90.79
387.301	88.75
387.511	4.78
387.72	-13.65
387.93	70.31
388.14	68.27
388.35	117.42
388.56	90.79
388.769	129.7
388.979	60.07
389.189	27.31
389.399	64.17
389.609	25.26
389.818	66.22
390.028	-25.94
390.238	23.21
390.447	41.64
390.657	94.89
390.867	123.56
391.076	25.26
391.286	6.83
391.496	29.35
391.705	74.41
391.915	162.47
392.125	15.02
392.334	4.78
392.544	109.23
392.753	70.31
392.963	51.88
393.172	29.35
393.382	-30.04
393.591	84.65
393.801	17.07
394.01	135.85
394.22	62.12
394.429	35.5
394.639	23.21
394.848	76.46
395.058	60.07
395.267	37.55
395.477	-5.46
395.686	-23.89
395.895	131.75
396.105	68.27
396.314	80.55
396.524	53.93
396.733	21.16
396.942	64.17
397.152	98.99
397.361	49.83
397.57	10.92
397.78	101.03
397.989	84.65
398.198	66.22
398.407	64.17
398.617	76.46
398.826	68.27
399.035	25.26
399.244	113.32
399.453	76.46
399.663	98.99
399.872	80.55
400.081	23.21
400.29	58.03
400.499	66.22
400.708	31.4
400.917	74.41
401.127	60.07
401.336	8.87
401.545	170.66
401.754	19.11
401.963	96.94
402.172	137.9
402.381	92.84
402.59	64.17
402.799	92.84
403.008	43.69
403.217	123.56
403.426	139.94
403.635	-7.51
403.844	49.83
404.053	70.31
404.262	139.94
404.471	160.42
404.68	127.66
404.888	111.27
405.097	111.27
405.306	86.7
405.515	68.27
405.724	90.79
405.933	117.42
406.142	123.56
406.35	109.23
406.559	199.34
406.768	201.38
406.977	148.14
407.185	193.19
407.394	162.47
407.603	170.66
407.812	221.86
408.02	158.38
408.229	242.34
408.438	148.14
408.646	154.28
408.855	217.77
409.064	273.06
409.272	209.58
409.481	277.16
409.69	189.1
409.898	213.67
410.107	223.91
410.315	148.14
410.524	230.06
410.733	273.06
410.941	273.06
411.15	244.39
411.358	281.25
411.567	303.78
411.775	277.16
411.984	336.55
412.192	393.89
412.401	400.04
412.609	404.13
412.818	426.66
413.026	434.85
413.234	522.91
413.443	457.38
413.651	490.15
413.86	461.48
414.068	486.05
414.276	553.63
414.485	582.31
414.693	524.96
414.901	598.69
415.11	635.55
415.318	551.59
415.526	606.88
415.734	740
415.943	682.66
416.151	764.58
416.359	760.48
416.567	729.76
416.776	817.82
416.984	815.77
417.192	875.17
417.4	746.14
417.608	856.73
417.817	860.83
418.025	903.84
418.233	1000.09
418.441	993.95
418.649	1004.19
418.857	1125.02
419.065	1125.02
419.273	1102.49
419.481	1137.31
419.689	1266.33
419.897	1489.56
420.105	1335.96
420.313	1198.74
420.521	1424.02
420.729	1424.02
420.937	1499.8
421.145	1462.93
421.353	1557.14
421.561	1647.25
421.769	1759.89
421.977	1747.6
422.185	1757.84
422.393	1895.05
422.601	2065.04
422.809	1993.36
423.017	1958.54
423.224	2192.01
423.432	2235.02
423.64	2239.11
423.848	2327.18
424.056	2273.93
424.263	2552.45
424.471	2566.79
424.679	2620.03
424.887	2699.91
425.094	2771.58
425.302	2841.22
425.51	2878.08
425.718	2839.17
425.925	2929.28
426.133	3082.88
426.341	3316.34
426.548	3517.05
426.756	3330.68
426.964	3402.36
427.171	3662.45
427.379	3957.36
427.586	3732.08
427.794	4047.47
428.001	4080.24
428.209	4311.66
428.417	4305.51
428.624	4672.1
428.832	4647.52
429.039	4731.49
429.247	4508.26
429.454	4928.1
429.662	5288.54
429.869	5073.5
430.076	5272.15
430.284	5274.2
430.491	5487.19
430.699	5661.27
430.906	5640.79
431.114	5628.5
431.321	5990.99
431.528	6124.11
431.736	6531.65
431.943	6763.08
432.15	6500.94
432.358	6726.21
432.565	7043.65
432.772	6873.67
432.979	7434.81
433.187	7514.68
433.394	7524.92
433.601	7916.08
433.808	7971.38
434.016	8000.05
434.223	8315.44
434.43	8974.88
434.637	8491.56
434.844	9116.19
435.052	9290.27
435.259	9341.47
435.466	9509.4
435.673	9308.7
435.88	9824.79
436.087	10297.87
436.294	10287.63
436.501	10218
436.708	10213.9
436.915	10762.76
437.122	11323.9
437.329	11057.67
437.537	11483.64
437.743	11768.31
437.95	11641.34
438.157	11987.44
438.364	12653.03
438.571	12470.76
438.778	12554.73
438.985	13840.86
439.192	13175.27
439.399	13736.41
439.606	13494.75
439.813	14191.06
440.02	15014.34
440.227	14821.83
440.433	14604.75
440.64	15243.71
440.847	14942.66
441.054	15587.77
441.261	16325.04
441.467	16105.91
441.674	16363.95
441.881	16933.29
442.088	16912.81
442.294	17019.3
442.501	17416.61
442.708	17680.8
442.914	18241.94
443.121	19061.13
443.328	18809.23
443.534	19837.31
443.741	19569.02
443.948	18891.15
444.154	20574.58
444.361	20214.13
444.568	20529.52
444.774	20621.68
444.981	20924.78
445.187	20969.83
445.394	22303.06
445.6	21553.51
445.807	24078.65
446.013	22763.86
446.22	23605.57
446.426	24174.91
446.633	24629.55
446.839	24998.19
447.046	24156.47
447.252	25401.64
447.459	25245.99
447.665	25403.69
447.871	26698
448.078	27588.87
448.284	26491.16
448.491	27142.41
448.697	28088.57
448.903	28600.57
449.11	28641.53
449.316	28016.9
449.522	28514.55
449.728	29124.85
449.935	29698.28
450.141	29821.16
450.347	30376.16
450.553	29026.54
450.76	29751.52
450.966	30361.82
451.172	30136.54
451.378	30769.37
451.584	30253.28
451.791	30918.87
451.997	30865.62
452.203	31457.48
452.409	31176.91
452.615	30748.89
452.821	29714.66
453.027	29348.07
453.233	31359.18
453.44	29806.82
453.646	30148.83
453.852	30451.93
454.058	30578.9
454.264	29610.21
454.47	30263.52
454.676	29591.78
454.882	30769.37
455.088	27812.1
455.294	28539.13
455.5	28762.36
455.705	28952.82
455.911	27828.48
456.117	27109.65
456.323	27017.49
456.529	25409.83
456.735	26376.47
456.941	25504.04
457.147	25340.2
457.352	24955.18
457.558	24195.39
457.764	24609.08
457.97	24117.56
458.176	23322.95
458.381	22982.99
458.587	22184.28
458.793	22391.12
458.999	21037.42
459.204	22708.56
459.41	21887.32
459.616	20869.48
459.821	20298.1
460.027	20199.8
460.233	19884.41
460.438	19038.6
460.644	19495.3
460.85	18190.74
461.055	18119.06
461.261	18172.31
461.466	16755.12
461.672	16204.21
461.878	17533.34
462.083	16413.1
462.289	15991.22
462.494	15829.43
462.7	15124.93
462.905	14637.52
463.111	15208.9
463.316	15124.93
463.522	14744.01
463.727	15133.12
463.932	15034.82
464.138	14668.23
464.343	14895.56
464.549	14436.81
464.754	14860.74
464.959	14678.47
465.165	14299.6
465.37	14205.39
465.575	13875.67
465.781	14303.7
465.986	14404.05
466.191	13797.85
466.397	13357.53
466.602	13189.6
466.807	13189.6
467.012	13244.9
467.218	13142.5
467.423	13179.36
467.628	13296.1
467.833	13720.03
468.038	13201.89
