Data from USB4F104151__46__10-23-07-487.txt Node

Date: Wed Mar 12 10:23:07 EDT 2025
User: louis
Spectrometer: USB4F10415
Trigger mode: 4
Integration Time (sec): 3.000000E-2
Scans to average: 1
Electric dark correction enabled: true
Nonlinearity correction enabled: false
Boxcar width: 0
XAxis mode: Wavelengths
Number of Pixels in Spectrum: 3648
>>>>>Begin Spectral Data<<<<<
178.204	-72.19
178.424	-72.19
178.644	-72.19
178.864	-174.59
179.084	-119.29
179.304	-70.14
179.524	15.87
179.744	26.11
179.964	42.5
180.184	3.58
180.404	-10.75
180.624	1.54
180.844	19.97
181.064	-84.48
181.283	15.87
181.503	36.35
181.723	3.58
181.943	11.78
182.163	60.93
182.383	-23.04
182.602	13.82
182.822	89.6
183.042	-12.8
183.262	11.78
183.482	28.16
183.701	79.36
183.921	-14.85
184.141	-25.09
184.361	118.27
184.58	112.13
184.8	19.97
185.02	-14.85
185.239	60.93
185.459	40.45
185.679	30.21
185.898	-92.67
186.118	-64
186.338	-31.23
186.557	19.97
186.777	17.92
186.997	-6.66
187.216	26.11
187.436	36.35
187.655	58.88
187.875	62.98
188.095	36.35
188.314	89.6
188.534	87.55
188.753	71.17
188.973	15.87
189.192	130.56
189.412	11.78
189.631	48.64
189.851	71.17
190.07	56.83
190.29	26.11
190.509	5.63
190.729	58.88
190.948	67.07
191.168	140.8
191.387	48.64
191.607	22.02
191.826	9.73
192.045	-12.8
192.265	38.4
192.484	95.74
192.704	-8.7
192.923	-49.66
193.142	83.45
193.362	67.07
193.581	19.97
193.8	44.54
194.02	62.98
194.239	-37.38
194.458	-31.23
194.678	48.64
194.897	81.41
195.116	19.97
195.335	-12.8
195.555	3.58
195.774	40.45
195.993	-8.7
196.212	-92.67
196.432	-2.56
196.651	65.02
196.87	-70.14
197.089	79.36
197.308	110.08
197.528	11.78
197.747	34.3
197.966	77.31
198.185	1.54
198.404	54.78
198.623	62.98
198.842	17.92
199.062	-18.94
199.281	85.5
199.5	-2.56
199.719	24.06
199.938	67.07
200.157	34.3
200.376	58.88
200.595	19.97
200.814	69.12
201.033	5.63
201.252	-20.99
201.471	87.55
201.69	105.98
201.909	42.5
202.128	58.88
202.347	38.4
202.566	-72.19
202.785	19.97
203.004	-2.56
203.223	19.97
203.442	30.21
203.661	1.54
203.879	34.3
204.098	22.02
204.317	-0.51
204.536	-6.66
204.755	85.5
204.974	54.78
205.193	17.92
205.411	52.74
205.63	60.93
205.849	71.17
206.068	-10.75
206.287	32.26
206.505	58.88
206.724	30.21
206.943	46.59
207.162	-2.56
207.381	34.3
207.599	9.73
207.818	11.78
208.037	-12.8
208.255	-16.9
208.474	11.78
208.693	46.59
208.911	3.58
209.13	42.5
209.349	34.3
209.567	17.92
209.786	83.45
210.005	112.13
210.223	-8.7
210.442	7.68
210.661	24.06
210.879	36.35
211.098	34.3
211.316	-2.56
211.535	112.13
211.753	36.35
211.972	50.69
212.191	46.59
212.409	52.74
212.628	3.58
212.846	38.4
213.065	54.78
213.283	79.36
213.502	-18.94
213.72	9.73
213.938	30.21
214.157	17.92
214.375	42.5
214.594	-16.9
214.812	40.45
215.031	128.51
215.249	62.98
215.467	11.78
215.686	77.31
215.904	26.11
216.122	46.59
216.341	56.83
216.559	5.63
216.778	5.63
216.996	19.97
217.214	97.79
217.432	60.93
217.651	28.16
217.869	13.82
218.087	-12.8
218.306	-10.75
218.524	69.12
218.742	103.93
218.96	13.82
219.179	52.74
219.397	34.3
219.615	24.06
219.833	22.02
220.051	40.45
220.27	46.59
220.488	-14.85
220.706	71.17
220.924	48.64
221.142	65.02
221.36	44.54
221.578	1.54
221.796	11.78
222.015	5.63
222.233	24.06
222.451	34.3
222.669	50.69
222.887	13.82
223.105	17.92
223.323	5.63
223.541	-20.99
223.759	13.82
223.977	22.02
224.195	36.35
224.413	91.65
224.631	-2.56
224.849	17.92
225.067	161.28
225.285	60.93
225.503	44.54
225.721	-14.85
225.939	13.82
226.157	-27.14
226.375	38.4
226.592	26.11
226.81	60.93
227.028	-6.66
227.246	3.58
227.464	81.41
227.682	95.74
227.9	73.21
228.117	13.82
228.335	181.76
228.553	44.54
228.771	50.69
228.989	9.73
229.206	87.55
229.424	67.07
229.642	46.59
229.86	34.3
230.077	112.13
230.295	54.78
230.513	97.79
230.731	142.85
230.948	32.26
231.166	1.54
231.384	-8.7
231.601	1.54
231.819	114.17
232.037	-25.09
232.254	34.3
232.472	54.78
232.689	3.58
232.907	62.98
233.125	3.58
233.342	3.58
233.56	9.73
233.777	3.58
233.995	-31.23
234.213	87.55
234.43	48.64
234.648	56.83
234.865	-37.38
235.083	36.35
235.3	-12.8
235.518	-8.7
235.735	32.26
235.953	83.45
236.17	-2.56
236.388	65.02
236.605	-10.75
236.822	85.5
237.04	54.78
237.257	-2.56
237.475	-23.04
237.692	54.78
237.909	67.07
238.127	-0.51
238.344	50.69
238.562	-4.61
238.779	30.21
238.996	13.82
239.214	40.45
239.431	36.35
239.648	-33.28
239.865	13.82
240.083	38.4
240.3	26.11
240.517	-2.56
240.735	69.12
240.952	87.55
241.169	36.35
241.386	95.74
241.603	3.58
241.821	54.78
242.038	44.54
242.255	95.74
242.472	26.11
242.689	83.45
242.907	79.36
243.124	73.21
243.341	34.3
243.558	13.82
243.775	13.82
243.992	17.92
244.209	77.31
244.426	5.63
244.643	54.78
244.86	13.82
245.078	3.58
245.295	99.84
245.512	17.92
245.729	62.98
245.946	79.36
246.163	22.02
246.38	138.75
246.597	60.93
246.814	-6.66
247.031	83.45
247.248	99.84
247.464	120.32
247.681	-12.8
247.898	30.21
248.115	85.5
248.332	-0.51
248.549	77.31
248.766	99.84
248.983	48.64
249.2	15.87
249.417	28.16
249.633	77.31
249.85	60.93
250.067	79.36
250.284	38.4
250.501	54.78
250.717	46.59
250.934	22.02
251.151	-35.33
251.368	54.78
251.585	65.02
251.801	62.98
252.018	42.5
252.235	13.82
252.451	-6.66
252.668	30.21
252.885	108.03
253.102	34.3
253.318	108.03
253.535	22.02
253.752	-8.7
253.968	34.3
254.185	-33.28
254.401	-14.85
254.618	81.41
254.835	44.54
255.051	116.22
255.268	34.3
255.484	1.54
255.701	62.98
255.917	81.41
256.134	1.54
256.351	62.98
256.567	3.58
256.784	32.26
257	11.78
257.217	112.13
257.433	52.74
257.65	95.74
257.866	34.3
258.082	-64
258.299	-2.56
258.515	60.93
258.732	52.74
258.948	3.58
259.165	36.35
259.381	62.98
259.597	-41.47
259.814	38.4
260.03	60.93
260.246	-20.99
260.463	60.93
260.679	13.82
260.895	1.54
261.112	83.45
261.328	5.63
261.544	56.83
261.761	118.27
261.977	38.4
262.193	65.02
262.409	95.74
262.626	58.88
262.842	34.3
263.058	13.82
263.274	11.78
263.49	67.07
263.707	89.6
263.923	15.87
264.139	9.73
264.355	28.16
264.571	77.31
264.787	11.78
265.004	54.78
265.22	-68.09
265.436	22.02
265.652	67.07
265.868	46.59
266.084	-43.52
266.3	65.02
266.516	-10.75
266.732	38.4
266.948	101.89
267.164	95.74
267.38	79.36
267.596	34.3
267.812	58.88
268.028	69.12
268.244	54.78
268.46	60.93
268.676	26.11
268.892	34.3
269.108	52.74
269.324	-10.75
269.54	36.35
269.756	17.92
269.972	-31.23
270.188	42.5
270.403	-25.09
270.619	-14.85
270.835	40.45
271.051	81.41
271.267	26.11
271.483	60.93
271.698	3.58
271.914	75.26
272.13	58.88
272.346	32.26
272.562	-33.28
272.777	19.97
272.993	95.74
273.209	30.21
273.425	67.07
273.64	-18.94
273.856	95.74
274.072	19.97
274.287	65.02
274.503	44.54
274.719	30.21
274.934	52.74
275.15	44.54
275.366	-6.66
275.581	5.63
275.797	30.21
276.012	30.21
276.228	-0.51
276.444	75.26
276.659	50.69
276.875	5.63
277.09	46.59
277.306	26.11
277.521	44.54
277.737	15.87
277.952	62.98
278.168	87.55
278.383	22.02
278.599	-2.56
278.814	81.41
279.03	54.78
279.245	38.4
279.461	44.54
279.676	87.55
279.892	110.08
280.107	-0.51
280.322	-25.09
280.538	62.98
280.753	54.78
280.969	79.36
281.184	-2.56
281.399	36.35
281.615	71.17
281.83	-61.95
282.045	13.82
282.26	-2.56
282.476	9.73
282.691	46.59
282.906	-0.51
283.122	26.11
283.337	50.69
283.552	60.93
283.767	13.82
283.983	99.84
284.198	26.11
284.413	56.83
284.628	-29.18
284.843	-6.66
285.058	50.69
285.274	17.92
285.489	40.45
285.704	11.78
285.919	30.21
286.134	13.82
286.349	1.54
286.564	-14.85
286.779	-4.61
286.995	95.74
287.21	36.35
287.425	48.64
287.64	95.74
287.855	77.31
288.07	-12.8
288.285	153.09
288.5	38.4
288.715	-6.66
288.93	-4.61
289.145	30.21
289.36	40.45
289.575	54.78
289.79	62.98
290.004	34.3
290.219	48.64
290.434	13.82
290.649	50.69
290.864	62.98
291.079	11.78
291.294	32.26
291.509	-2.56
291.724	-8.7
291.938	54.78
292.153	3.58
292.368	9.73
292.583	-12.8
292.798	65.02
293.012	101.89
293.227	62.98
293.442	58.88
293.657	54.78
293.871	17.92
294.086	85.5
294.301	97.79
294.516	89.6
294.73	60.93
294.945	-43.52
295.16	105.98
295.374	28.16
295.589	56.83
295.804	52.74
296.018	85.5
296.233	54.78
296.447	81.41
296.662	-18.94
296.877	81.41
297.091	56.83
297.306	60.93
297.52	71.17
297.735	32.26
297.949	42.5
298.164	75.26
298.378	42.5
298.593	17.92
298.807	22.02
299.022	40.45
299.236	1.54
299.451	81.41
299.665	36.35
299.88	38.4
300.094	50.69
300.309	71.17
300.523	52.74
300.737	42.5
300.952	79.36
301.166	9.73
301.381	54.78
301.595	28.16
301.809	48.64
302.024	26.11
302.238	-25.09
302.452	48.64
302.667	9.73
302.881	75.26
303.095	22.02
303.309	-47.62
303.524	-2.56
303.738	50.69
303.952	28.16
304.166	50.69
304.381	-43.52
304.595	101.89
304.809	89.6
305.023	54.78
305.237	19.97
305.452	34.3
305.666	65.02
305.88	56.83
306.094	-14.85
306.308	93.69
306.522	73.21
306.736	48.64
306.95	54.78
307.164	38.4
307.379	71.17
307.593	79.36
307.807	77.31
308.021	-14.85
308.235	42.5
308.449	103.93
308.663	-8.7
308.877	32.26
309.091	58.88
309.305	52.74
309.519	-51.71
309.733	50.69
309.947	60.93
310.161	91.65
310.374	75.26
310.588	34.3
310.802	38.4
311.016	-14.85
311.23	38.4
311.444	17.92
311.658	-25.09
311.872	85.5
312.085	155.13
312.299	77.31
312.513	-2.56
312.727	40.45
312.941	50.69
313.154	87.55
313.368	38.4
313.582	101.89
313.796	60.93
314.009	34.3
314.223	46.59
314.437	17.92
314.651	130.56
314.864	93.69
315.078	30.21
315.292	24.06
315.505	32.26
315.719	112.13
315.933	30.21
316.146	19.97
316.36	34.3
316.573	71.17
316.787	9.73
317.001	7.68
317.214	28.16
317.428	52.74
317.641	7.68
317.855	71.17
318.068	110.08
318.282	79.36
318.495	79.36
318.709	30.21
318.922	40.45
319.136	89.6
319.349	60.93
319.563	3.58
319.776	46.59
319.99	17.92
320.203	54.78
320.417	34.3
320.63	58.88
320.843	65.02
321.057	22.02
321.27	11.78
321.483	30.21
321.697	91.65
321.91	9.73
322.124	40.45
322.337	85.5
322.55	44.54
322.763	-2.56
322.977	69.12
323.19	62.98
323.403	54.78
323.617	28.16
323.83	114.17
324.043	40.45
324.256	24.06
324.469	58.88
324.683	169.47
324.896	85.5
325.109	50.69
325.322	-29.18
325.535	79.36
325.748	71.17
325.962	-10.75
326.175	52.74
326.388	69.12
326.601	183.81
326.814	48.64
327.027	67.07
327.24	101.89
327.453	28.16
327.666	26.11
327.879	112.13
328.092	124.41
328.305	-18.94
328.518	-41.47
328.731	-4.61
328.944	60.93
329.157	62.98
329.37	69.12
329.583	153.09
329.796	54.78
330.009	-43.52
330.222	91.65
330.435	79.36
330.648	60.93
330.861	71.17
331.073	87.55
331.286	38.4
331.499	40.45
331.712	-35.33
331.925	62.98
332.138	62.98
332.35	60.93
332.563	56.83
332.776	17.92
332.989	26.11
333.202	75.26
333.414	56.83
333.627	114.17
333.84	-12.8
334.053	60.93
334.265	-14.85
334.478	19.97
334.691	-10.75
334.903	118.27
335.116	13.82
335.329	44.54
335.541	69.12
335.754	60.93
335.966	-14.85
336.179	42.5
336.392	44.54
336.604	-6.66
336.817	30.21
337.029	22.02
337.242	-20.99
337.454	48.64
337.667	48.64
337.88	101.89
338.092	140.8
338.305	48.64
338.517	5.63
338.729	38.4
338.942	22.02
339.154	60.93
339.367	42.5
339.579	71.17
339.792	77.31
340.004	110.08
340.217	46.59
340.429	-10.75
340.641	11.78
340.854	-27.14
341.066	54.78
341.278	71.17
341.491	120.32
341.703	34.3
341.915	-39.42
342.128	11.78
342.34	54.78
342.552	-4.61
342.764	11.78
342.977	103.93
343.189	67.07
343.401	71.17
343.613	-70.14
343.826	56.83
344.038	28.16
344.25	30.21
344.462	19.97
344.674	108.03
344.886	87.55
345.099	93.69
345.311	54.78
345.523	15.87
345.735	-37.38
345.947	73.21
346.159	15.87
346.371	1.54
346.583	-14.85
346.795	69.12
347.007	22.02
347.219	48.64
347.431	56.83
347.643	79.36
347.855	-39.42
348.067	91.65
348.279	54.78
348.491	17.92
348.703	77.31
348.915	58.88
349.127	38.4
349.339	54.78
349.551	-53.76
349.763	95.74
349.975	1.54
350.187	151.04
350.399	54.78
350.61	30.21
350.822	67.07
351.034	30.21
351.246	40.45
351.458	128.51
351.669	65.02
351.881	79.36
352.093	81.41
352.305	116.22
352.517	87.55
352.728	91.65
352.94	79.36
353.152	38.4
353.363	-4.61
353.575	5.63
353.787	77.31
353.999	19.97
354.21	153.09
354.422	50.69
354.633	36.35
354.845	85.5
355.057	17.92
355.268	67.07
355.48	103.93
355.692	50.69
355.903	83.45
356.115	93.69
356.326	67.07
356.538	95.74
356.749	24.06
356.961	108.03
357.172	3.58
357.384	-4.61
357.595	185.85
357.807	87.55
358.018	120.32
358.23	79.36
358.441	136.7
358.653	22.02
358.864	34.3
359.075	97.79
359.287	44.54
359.498	71.17
359.709	62.98
359.921	-35.33
360.132	34.3
360.344	71.17
360.555	56.83
360.766	9.73
360.977	46.59
361.189	87.55
361.4	-12.8
361.611	110.08
361.823	116.22
362.034	34.3
362.245	-2.56
362.456	22.02
362.667	93.69
362.879	73.21
363.09	77.31
363.301	44.54
363.512	58.88
363.723	42.5
363.935	103.93
364.146	81.41
364.357	83.45
364.568	48.64
364.779	1.54
364.99	42.5
365.201	81.41
365.412	91.65
365.623	81.41
365.834	89.6
366.045	118.27
366.256	30.21
366.467	36.35
366.678	83.45
366.889	26.11
367.1	71.17
367.311	73.21
367.522	13.82
367.733	7.68
367.944	83.45
368.155	79.36
368.366	146.94
368.577	77.31
368.788	67.07
368.999	-41.47
369.209	91.65
369.42	75.26
369.631	130.56
369.842	30.21
370.053	62.98
370.264	108.03
370.474	3.58
370.685	50.69
370.896	54.78
371.107	95.74
371.317	89.6
371.528	101.89
371.739	83.45
371.95	89.6
372.16	79.36
372.371	52.74
372.582	60.93
372.792	5.63
373.003	95.74
373.214	54.78
373.424	157.18
373.635	-4.61
373.846	89.6
374.056	75.26
374.267	58.88
374.477	87.55
374.688	11.78
374.898	118.27
375.109	28.16
375.319	67.07
375.53	148.99
375.74	89.6
375.951	38.4
376.161	67.07
376.372	85.5
376.582	34.3
376.793	28.16
377.003	7.68
377.214	50.69
377.424	75.26
377.635	19.97
377.845	5.63
378.055	95.74
378.266	24.06
378.476	17.92
378.686	71.17
378.897	99.84
379.107	69.12
379.317	22.02
379.528	13.82
379.738	60.93
379.948	17.92
380.158	69.12
380.369	3.58
380.579	52.74
380.789	38.4
380.999	103.93
381.21	38.4
381.42	112.13
381.63	5.63
381.84	95.74
382.05	46.59
382.261	101.89
382.471	124.41
382.681	50.69
382.891	142.85
383.101	32.26
383.311	54.78
383.521	126.46
383.731	97.79
383.941	146.94
384.151	116.22
384.361	15.87
384.571	112.13
384.781	153.09
384.991	60.93
385.201	69.12
385.411	112.13
385.621	62.98
385.831	69.12
386.041	140.8
386.251	71.17
386.461	73.21
386.671	54.78
386.881	67.07
387.091	126.46
387.301	95.74
387.511	87.55
387.72	5.63
387.93	105.98
388.14	30.21
388.35	75.26
388.56	71.17
388.769	58.88
388.979	77.31
389.189	54.78
389.399	-39.42
389.609	22.02
389.818	60.93
390.028	19.97
390.238	13.82
390.447	13.82
390.657	112.13
390.867	62.98
391.076	103.93
391.286	71.17
391.496	67.07
391.705	108.03
391.915	40.45
392.125	89.6
392.334	75.26
392.544	103.93
392.753	89.6
392.963	95.74
393.172	126.46
393.382	48.64
393.591	95.74
393.801	85.5
394.01	26.11
394.22	97.79
394.429	83.45
394.639	91.65
394.848	79.36
395.058	120.32
395.267	87.55
395.477	79.36
395.686	79.36
395.895	132.61
396.105	153.09
396.314	175.61
396.524	83.45
396.733	50.69
396.942	116.22
397.152	136.7
397.361	128.51
397.57	177.66
397.78	71.17
397.989	89.6
398.198	192
398.407	120.32
398.617	177.66
398.826	60.93
399.035	126.46
399.244	83.45
399.453	112.13
399.663	103.93
399.872	132.61
400.081	69.12
400.29	103.93
400.499	95.74
400.708	241.15
400.917	62.98
401.127	194.05
401.336	124.41
401.545	108.03
401.754	255.48
401.963	110.08
402.172	110.08
402.381	83.45
402.59	210.43
402.799	239.1
403.008	120.32
403.217	146.94
403.426	128.51
403.635	83.45
403.844	192
404.053	177.66
404.262	138.75
404.471	249.34
404.68	151.04
404.888	159.23
405.097	136.7
405.306	204.28
405.515	308.73
405.724	161.28
405.933	157.18
406.142	140.8
406.35	206.33
406.559	179.71
406.768	243.2
406.977	251.39
407.185	220.67
407.394	198.14
407.603	181.76
407.812	294.4
408.02	222.72
408.229	251.39
408.438	273.92
408.646	189.95
408.855	173.57
409.064	253.44
409.272	282.11
409.481	275.96
409.69	345.59
409.898	265.72
410.107	388.6
410.315	349.69
410.524	316.92
410.733	323.07
410.941	400.89
411.15	413.18
411.358	390.65
411.567	468.47
411.775	456.19
411.984	544.25
412.192	486.9
412.401	402.94
412.609	583.16
412.818	611.83
413.026	607.73
413.234	534.01
413.443	591.35
413.651	607.73
413.86	673.27
414.068	652.79
414.276	677.37
414.485	742.9
414.693	675.32
414.901	775.67
415.11	790
415.318	751.09
415.526	845.3
415.734	861.68
415.943	871.92
416.151	916.98
416.359	857.59
416.567	955.89
416.776	1046
416.984	1074.67
417.192	1019.38
417.4	1095.15
417.608	1062.38
417.817	1142.25
418.025	1246.7
418.233	1203.69
418.441	1234.41
418.649	1277.42
418.857	1383.91
419.065	1373.68
419.273	1394.15
419.481	1609.19
419.689	1607.14
419.897	1644.01
420.105	1676.77
420.313	1701.35
420.521	1725.93
420.729	1793.51
420.937	1900
421.145	1887.72
421.353	2020.83
421.561	2098.66
421.769	2080.22
421.977	2291.17
422.185	2233.82
422.393	2397.66
422.601	2528.73
422.809	2385.37
423.017	2412
423.224	2569.69
423.432	2680.28
423.64	2756.05
423.848	2964.95
424.056	2977.23
424.263	3134.93
424.471	3194.32
424.679	3114.45
424.887	3323.34
425.094	3317.2
425.302	3530.19
425.51	3706.31
425.718	3737.03
425.925	3732.94
426.133	3808.71
426.341	4027.84
426.548	4378.05
426.756	4337.09
426.964	4351.42
427.171	4664.76
427.379	4697.53
427.586	4804.02
427.794	4871.61
428.001	5168.56
428.209	5469.61
428.417	5139.89
428.624	5602.73
428.832	5727.66
429.039	5707.18
429.247	5576.11
429.454	6233.5
429.662	6632.86
429.869	6194.59
430.076	6542.75
430.284	6393.25
430.491	6636.95
430.699	7021.97
430.906	6991.25
431.114	7044.5
431.321	7654.8
431.528	7417.23
431.736	8115.59
431.943	8459.65
432.15	8185.22
432.358	8179.08
432.565	8885.62
432.772	8607.1
432.979	9133.43
433.187	9514.35
433.394	9246.07
433.601	9893.23
433.808	9928.04
434.016	9899.37
434.223	10515.81
434.43	11011.42
434.637	10671.45
434.844	11558.22
435.052	11601.23
435.259	11369.81
435.466	11502.93
435.673	11484.5
435.88	12418.37
436.087	12971.32
436.294	12795.2
436.501	12647.74
436.708	12744
436.915	13440.31
437.122	13739.31
437.329	13706.54
437.537	14415.14
437.743	14441.76
437.95	14611.75
438.157	15070.49
438.364	15686.93
438.571	15478.04
438.778	15813.9
438.985	17009.92
439.192	16473.35
439.399	16841.98
439.606	16485.64
439.813	17384.69
440.02	18674.92
440.227	18117.87
440.433	18003.18
440.64	18617.57
440.847	18416.87
441.054	18916.58
441.261	20102.35
441.467	19979.47
441.674	20358.35
441.881	20819.14
442.088	20800.71
442.294	20749.51
442.501	21494.97
442.708	21433.53
442.914	22414.51
443.121	23217.31
443.328	22871.2
443.534	24671.37
443.741	23575.7
443.948	23276.7
444.154	25193.6
444.361	24863.88
444.568	25271.42
444.774	25164.93
444.981	25678.97
445.187	26221.68
445.394	27221.09
445.6	26782.82
445.807	29523.01
446.013	28032.08
446.22	28617.8
446.426	29740.09
446.633	29910.07
446.839	31034.41
447.046	29725.75
447.252	31347.75
447.459	31427.62
447.665	31007.78
447.871	31966.23
448.078	33872.89
448.284	32171.03
448.491	32853
448.697	34055.16
448.903	34739.18
449.11	34849.77
449.316	34415.6
449.522	35060.71
449.728	35832.8
449.935	36031.45
450.141	36060.12
450.347	36821.97
450.553	35468.26
450.76	36045.79
450.966	37098.44
451.172	36432.85
451.378	37526.47
451.584	36828.11
451.791	37465.03
451.997	37219.27
452.203	38214.58
452.409	38112.19
452.615	37870.53
452.821	36195.29
453.027	36281.3
453.233	37915.58
453.44	36250.58
453.646	36588.5
453.852	36781.01
454.058	37362.63
454.264	36053.98
454.47	37211.08
454.676	36211.67
454.882	37233.61
455.088	33997.82
455.294	34515.95
455.5	34915.31
455.705	35208.17
455.911	33786.88
456.117	33383.43
456.323	32953.35
456.529	31001.64
456.735	32406.55
456.941	31278.11
457.147	30921.77
457.352	30231.6
457.558	29609.02
457.764	29852.73
457.97	29269.06
458.176	28539.98
458.381	28703.82
458.587	27118.69
458.793	27202.66
458.999	25875.57
459.204	27348.06
459.41	26455.15
459.616	25103.49
459.821	25109.63
460.027	25222.27
460.233	24345.74
460.438	23452.83
460.644	23848.08
460.85	22629.54
461.055	22285.48
461.261	22019.25
461.466	20442.31
461.672	19662.04
461.878	20892.87
462.083	20006.09
462.289	19479.77
462.494	19629.27
462.7	18636
462.905	18207.98
463.111	18779.36
463.316	18603.24
463.522	18371.82
463.727	18240.75
463.932	18199.79
464.138	18255.08
464.343	18076.91
464.549	17452.28
464.754	18273.51
464.959	18023.66
465.165	17976.56
465.37	17020.16
465.575	16762.11
465.781	17257.72
465.986	17470.71
466.191	16938.24
466.397	16420.1
466.602	15621.39
466.807	16297.22
467.012	16438.53
467.218	16164.11
467.423	16448.77
467.628	16252.17
467.833	16708.87
468.038	16092.43
