Data from USB4F104151__247__10-31-03-626.txt Node

Date: Wed Mar 12 10:31:03 EDT 2025
User: louis
Spectrometer: USB4F10415
Trigger mode: 4
Integration Time (sec): 3.000000E-2
Scans to average: 1
Electric dark correction enabled: true
Nonlinearity correction enabled: false
Boxcar width: 0
XAxis mode: Wavelengths
Number of Pixels in Spectrum: 3648
>>>>>Begin Spectral Data<<<<<
178.204	-138.24
178.424	-138.24
178.644	-138.24
178.864	-87.04
179.084	-146.43
179.304	-3.07
179.524	37.89
179.744	-15.36
179.964	-11.26
180.184	-35.84
180.404	7.17
180.624	5.12
180.844	56.32
181.064	-15.36
181.283	7.17
181.503	-58.37
181.723	25.6
181.943	-19.46
182.163	-13.31
182.383	-15.36
182.602	25.6
182.822	7.17
183.042	44.03
183.262	-64.51
183.482	-33.79
183.701	-7.17
183.921	52.22
184.141	-84.99
184.361	9.22
184.58	-35.84
184.8	-19.46
185.02	-3.07
185.239	19.46
185.459	-60.42
185.679	95.23
185.898	-27.65
186.118	35.84
186.338	1.02
186.557	29.7
186.777	-50.18
186.997	146.43
187.216	-37.89
187.436	72.7
187.655	-3.07
187.875	23.55
188.095	3.07
188.314	29.7
188.534	35.84
188.753	29.7
188.973	9.22
189.192	48.13
189.412	50.18
189.631	11.26
189.851	9.22
190.07	78.85
190.29	-54.27
190.509	15.36
190.729	-7.17
190.948	37.89
191.168	119.81
191.387	-5.12
191.607	39.94
191.826	82.94
192.045	74.75
192.265	7.17
192.484	-50.18
192.704	21.5
192.923	-37.89
193.142	60.42
193.362	58.37
193.581	44.03
193.8	21.5
194.02	84.99
194.239	37.89
194.458	91.13
194.678	50.18
194.897	37.89
195.116	66.56
195.335	125.95
195.555	-11.26
195.774	56.32
195.993	11.26
196.212	13.31
196.432	-52.22
196.651	44.03
196.87	-11.26
197.089	74.75
197.308	23.55
197.528	23.55
197.747	-13.31
197.966	25.6
198.185	68.61
198.404	50.18
198.623	84.99
198.842	25.6
199.062	50.18
199.281	74.75
199.5	-19.46
199.719	27.65
199.938	93.18
200.157	41.98
200.376	46.08
200.595	48.13
200.814	37.89
201.033	1.02
201.252	17.41
201.471	91.13
201.69	115.71
201.909	-35.84
202.128	17.41
202.347	15.36
202.566	19.46
202.785	-11.26
203.004	62.46
203.223	99.33
203.442	29.7
203.661	37.89
203.879	50.18
204.098	87.04
204.317	11.26
204.536	3.07
204.755	21.5
204.974	15.36
205.193	52.22
205.411	25.6
205.63	54.27
205.849	27.65
206.068	27.65
206.287	70.65
206.505	60.42
206.724	13.31
206.943	66.56
207.162	52.22
207.381	19.46
207.599	-31.74
207.818	72.7
208.037	-15.36
208.255	7.17
208.474	5.12
208.693	-15.36
208.911	-29.7
209.13	21.5
209.349	72.7
209.567	62.46
209.786	41.98
210.005	46.08
210.223	3.07
210.442	-52.22
210.661	3.07
210.879	-19.46
211.098	41.98
211.316	25.6
211.535	9.22
211.753	19.46
211.972	-44.03
212.191	-3.07
212.409	15.36
212.628	27.65
212.846	48.13
213.065	84.99
213.283	-25.6
213.502	60.42
213.72	76.8
213.938	25.6
214.157	41.98
214.375	3.07
214.594	5.12
214.812	60.42
215.031	89.09
215.249	27.65
215.467	-99.33
215.686	23.55
215.904	1.02
216.122	-35.84
216.341	25.6
216.559	66.56
216.778	111.61
216.996	33.79
217.214	-48.13
217.432	-33.79
217.651	-3.07
217.869	-7.17
218.087	-3.07
218.306	29.7
218.524	23.55
218.742	-13.31
218.96	46.08
219.179	-5.12
219.397	31.74
219.615	66.56
219.833	74.75
220.051	17.41
220.27	19.46
220.488	54.27
220.706	89.09
220.924	-64.51
221.142	7.17
221.36	29.7
221.578	-31.74
221.796	35.84
222.015	11.26
222.233	-13.31
222.451	41.98
222.669	21.5
222.887	17.41
223.105	-15.36
223.323	50.18
223.541	7.17
223.759	58.37
223.977	64.51
224.195	-5.12
224.413	7.17
224.631	103.42
224.849	-35.84
225.067	-11.26
225.285	-50.18
225.503	5.12
225.721	17.41
225.939	82.94
226.157	-35.84
226.375	70.65
226.592	-5.12
226.81	95.23
227.028	1.02
227.246	95.23
227.464	68.61
227.682	89.09
227.9	66.56
228.117	29.7
228.335	99.33
228.553	5.12
228.771	-11.26
228.989	76.8
229.206	52.22
229.424	33.79
229.642	-23.55
229.86	33.79
230.077	-1.02
230.295	1.02
230.513	52.22
230.731	50.18
230.948	109.57
231.166	-13.31
231.384	-31.74
231.601	-3.07
231.819	-5.12
232.037	15.36
232.254	-25.6
232.472	46.08
232.689	-64.51
232.907	103.42
233.125	-60.42
233.342	82.94
233.56	-21.5
233.777	19.46
233.995	46.08
234.213	-17.41
234.43	41.98
234.648	-25.6
234.865	48.13
235.083	62.46
235.3	31.74
235.518	11.26
235.735	103.42
235.953	101.37
236.17	19.46
236.388	9.22
236.605	-19.46
236.822	44.03
237.04	50.18
237.257	70.65
237.475	9.22
237.692	17.41
237.909	-11.26
238.127	-19.46
238.344	-23.55
238.562	11.26
238.779	-76.8
238.996	107.52
239.214	111.61
239.431	-11.26
239.648	-37.89
239.865	31.74
240.083	64.51
240.3	-7.17
240.517	-13.31
240.735	54.27
240.952	-11.26
241.169	62.46
241.386	78.85
241.603	-35.84
241.821	-21.5
242.038	76.8
242.255	70.65
242.472	-31.74
242.689	54.27
242.907	-19.46
243.124	11.26
243.341	54.27
243.558	33.79
243.775	25.6
243.992	37.89
244.209	-68.61
244.426	123.9
244.643	52.22
244.86	58.37
245.078	91.13
245.295	54.27
245.512	41.98
245.729	-39.94
245.946	29.7
246.163	-19.46
246.38	-11.26
246.597	76.8
246.814	-21.5
247.031	52.22
247.248	-39.94
247.464	17.41
247.681	-31.74
247.898	9.22
248.115	91.13
248.332	7.17
248.549	62.46
248.766	101.37
248.983	89.09
249.2	48.13
249.417	19.46
249.633	41.98
249.85	111.61
250.067	1.02
250.284	-29.7
250.501	25.6
250.717	76.8
250.934	-82.94
251.151	52.22
251.368	-27.65
251.585	17.41
251.801	23.55
252.018	5.12
252.235	76.8
252.451	11.26
252.668	91.13
252.885	-1.02
253.102	46.08
253.318	54.27
253.535	62.46
253.752	46.08
253.968	-68.61
254.185	78.85
254.401	37.89
254.618	21.5
254.835	-39.94
255.051	7.17
255.268	60.42
255.484	50.18
255.701	54.27
255.917	113.66
256.134	-29.7
256.351	-11.26
256.567	-3.07
256.784	-11.26
257	35.84
257.217	7.17
257.433	-58.37
257.65	39.94
257.866	-35.84
258.082	31.74
258.299	-13.31
258.515	130.05
258.732	29.7
258.948	33.79
259.165	35.84
259.381	44.03
259.597	13.31
259.814	44.03
260.03	39.94
260.246	-9.22
260.463	48.13
260.679	60.42
260.895	17.41
261.112	17.41
261.328	35.84
261.544	37.89
261.761	46.08
261.977	-21.5
262.193	-5.12
262.409	1.02
262.626	-35.84
262.842	23.55
263.058	35.84
263.274	13.31
263.49	3.07
263.707	111.61
263.923	27.65
264.139	-11.26
264.355	9.22
264.571	13.31
264.787	37.89
265.004	46.08
265.22	62.46
265.436	13.31
265.652	70.65
265.868	-9.22
266.084	41.98
266.3	64.51
266.516	-46.08
266.732	29.7
266.948	68.61
267.164	68.61
267.38	31.74
267.596	95.23
267.812	160.77
268.028	-3.07
268.244	-9.22
268.46	52.22
268.676	84.99
268.892	33.79
269.108	-27.65
269.324	78.85
269.54	41.98
269.756	-5.12
269.972	-19.46
270.188	119.81
270.403	9.22
270.619	33.79
270.835	58.37
271.051	70.65
271.267	-3.07
271.483	17.41
271.698	58.37
271.914	5.12
272.13	105.47
272.346	93.18
272.562	33.79
272.777	60.42
272.993	37.89
273.209	44.03
273.425	128
273.64	-5.12
273.856	41.98
274.072	19.46
274.287	44.03
274.503	31.74
274.719	66.56
274.934	-13.31
275.15	11.26
275.366	5.12
275.581	-9.22
275.797	29.7
276.012	29.7
276.228	66.56
276.444	27.65
276.659	50.18
276.875	11.26
277.09	60.42
277.306	19.46
277.521	97.28
277.737	25.6
277.952	44.03
278.168	-23.55
278.383	56.32
278.599	-27.65
278.814	50.18
279.03	23.55
279.245	68.61
279.461	56.32
279.676	7.17
279.892	17.41
280.107	-11.26
280.322	95.23
280.538	66.56
280.753	15.36
280.969	52.22
281.184	13.31
281.399	66.56
281.615	-44.03
281.83	29.7
282.045	7.17
282.26	60.42
282.476	82.94
282.691	9.22
282.906	25.6
283.122	39.94
283.337	44.03
283.552	41.98
283.767	19.46
283.983	87.04
284.198	91.13
284.413	62.46
284.628	-21.5
284.843	15.36
285.058	95.23
285.274	52.22
285.489	-19.46
285.704	48.13
285.919	23.55
286.134	46.08
286.349	-46.08
286.564	25.6
286.779	29.7
286.995	44.03
287.21	19.46
287.425	11.26
287.64	-39.94
287.855	17.41
288.07	39.94
288.285	76.8
288.5	115.71
288.715	52.22
288.93	21.5
289.145	70.65
289.36	60.42
289.575	7.17
289.79	-37.89
290.004	-11.26
290.219	27.65
290.434	23.55
290.649	-41.98
290.864	29.7
291.079	-15.36
291.294	39.94
291.509	-35.84
291.724	64.51
291.938	-56.32
292.153	54.27
292.368	33.79
292.583	50.18
292.798	52.22
293.012	44.03
293.227	46.08
293.442	17.41
293.657	-3.07
293.871	62.46
294.086	-7.17
294.301	117.76
294.516	48.13
294.73	31.74
294.945	21.5
295.16	19.46
295.374	27.65
295.589	46.08
295.804	1.02
296.018	74.75
296.233	103.42
296.447	87.04
296.662	41.98
296.877	48.13
297.091	91.13
297.306	25.6
297.52	25.6
297.735	21.5
297.949	78.85
298.164	50.18
298.378	99.33
298.593	-5.12
298.807	-11.26
299.022	50.18
299.236	78.85
299.451	56.32
299.665	13.31
299.88	35.84
300.094	39.94
300.309	60.42
300.523	78.85
300.737	-5.12
300.952	52.22
301.166	66.56
301.381	-5.12
301.595	-37.89
301.809	29.7
302.024	82.94
302.238	-7.17
302.452	54.27
302.667	-7.17
302.881	78.85
303.095	33.79
303.309	103.42
303.524	-44.03
303.738	37.89
303.952	17.41
304.166	68.61
304.381	-33.79
304.595	121.85
304.809	-13.31
305.023	103.42
305.237	-60.42
305.452	58.37
305.666	89.09
305.88	29.7
306.094	52.22
306.308	11.26
306.522	68.61
306.736	27.65
306.95	33.79
307.164	27.65
307.379	-50.18
307.593	62.46
307.807	46.08
308.021	44.03
308.235	46.08
308.449	-7.17
308.663	11.26
308.877	64.51
309.091	46.08
309.305	62.46
309.519	-60.42
309.733	52.22
309.947	9.22
310.161	84.99
310.374	33.79
310.588	107.52
310.802	44.03
311.016	35.84
311.23	62.46
311.444	25.6
311.658	-29.7
311.872	103.42
312.085	66.56
312.299	99.33
312.513	44.03
312.727	119.81
312.941	50.18
313.154	41.98
313.368	-3.07
313.582	64.51
313.796	3.07
314.009	74.75
314.223	19.46
314.437	37.89
314.651	78.85
314.864	21.5
315.078	68.61
315.292	-95.23
315.505	29.7
315.719	58.37
315.933	-11.26
316.146	-5.12
316.36	-5.12
316.573	21.5
316.787	25.6
317.001	78.85
317.214	41.98
317.428	50.18
317.641	80.89
317.855	-15.36
318.068	60.42
318.282	111.61
318.495	37.89
318.709	44.03
318.922	33.79
319.136	87.04
319.349	19.46
319.563	80.89
319.776	52.22
319.99	11.26
320.203	107.52
320.417	-9.22
320.63	44.03
320.843	171.01
321.057	9.22
321.27	1.02
321.483	78.85
321.697	50.18
321.91	70.65
322.124	5.12
322.337	50.18
322.55	19.46
322.763	35.84
322.977	39.94
323.19	-13.31
323.403	23.55
323.617	41.98
323.83	44.03
324.043	111.61
324.256	3.07
324.469	87.04
324.683	56.32
324.896	15.36
325.109	70.65
325.322	72.7
325.535	136.19
325.748	58.37
325.962	-7.17
326.175	31.74
326.388	64.51
326.601	33.79
326.814	-5.12
327.027	74.75
327.24	97.28
327.453	31.74
327.666	70.65
327.879	46.08
328.092	-13.31
328.305	23.55
328.518	-15.36
328.731	27.65
328.944	41.98
329.157	29.7
329.37	19.46
329.583	13.31
329.796	87.04
330.009	21.5
330.222	25.6
330.435	-19.46
330.648	64.51
330.861	78.85
331.073	29.7
331.286	46.08
331.499	5.12
331.712	-52.22
331.925	-19.46
332.138	-3.07
332.35	56.32
332.563	46.08
332.776	52.22
332.989	91.13
333.202	27.65
333.414	41.98
333.627	19.46
333.84	41.98
334.053	105.47
334.265	17.41
334.478	66.56
334.691	1.02
334.903	50.18
335.116	41.98
335.329	66.56
335.541	35.84
335.754	138.24
335.966	21.5
336.179	95.23
336.392	50.18
336.604	31.74
336.817	87.04
337.029	-15.36
337.242	82.94
337.454	91.13
337.667	41.98
337.88	-56.32
338.092	-5.12
338.305	52.22
338.517	76.8
338.729	33.79
338.942	87.04
339.154	37.89
339.367	54.27
339.579	78.85
339.792	74.75
340.004	19.46
340.217	17.41
340.429	17.41
340.641	-1.02
340.854	70.65
341.066	99.33
341.278	95.23
341.491	37.89
341.703	80.89
341.915	-44.03
342.128	91.13
342.34	33.79
342.552	50.18
342.764	17.41
342.977	60.42
343.189	52.22
343.401	52.22
343.613	27.65
343.826	66.56
344.038	-7.17
344.25	31.74
344.462	84.99
344.674	21.5
344.886	25.6
345.099	37.89
345.311	68.61
345.523	29.7
345.735	-70.65
345.947	29.7
346.159	76.8
346.371	23.55
346.583	41.98
346.795	138.24
347.007	50.18
347.219	56.32
347.431	-3.07
347.643	78.85
347.855	31.74
348.067	48.13
348.279	-5.12
348.491	-7.17
348.703	105.47
348.915	62.46
349.127	107.52
349.339	-5.12
349.551	-11.26
349.763	31.74
349.975	-19.46
350.187	56.32
350.399	76.8
350.61	-7.17
350.822	-11.26
351.034	99.33
351.246	31.74
351.458	54.27
351.669	91.13
351.881	82.94
352.093	-1.02
352.305	52.22
352.517	31.74
352.728	27.65
352.94	62.46
353.152	62.46
353.363	39.94
353.575	109.57
353.787	-13.31
353.999	1.02
354.21	35.84
354.422	74.75
354.633	76.8
354.845	44.03
355.057	54.27
355.268	-17.41
355.48	52.22
355.692	37.89
355.903	-11.26
356.115	78.85
356.326	-39.94
356.538	99.33
356.749	27.65
356.961	60.42
357.172	17.41
357.384	87.04
357.595	117.76
357.807	-7.17
358.018	95.23
358.23	31.74
358.441	62.46
358.653	82.94
358.864	82.94
359.075	27.65
359.287	89.09
359.498	1.02
359.709	46.08
359.921	33.79
360.132	44.03
360.344	46.08
360.555	48.13
360.766	44.03
360.977	27.65
361.189	78.85
361.4	1.02
361.611	60.42
361.823	105.47
362.034	35.84
362.245	-3.07
362.456	29.7
362.667	82.94
362.879	19.46
363.09	70.65
363.301	66.56
363.512	29.7
363.723	3.07
363.935	39.94
364.146	87.04
364.357	1.02
364.568	5.12
364.779	31.74
364.99	52.22
365.201	70.65
365.412	46.08
365.623	27.65
365.834	93.18
366.045	-23.55
366.256	84.99
366.467	160.77
366.678	105.47
366.889	11.26
367.1	41.98
367.311	41.98
367.522	105.47
367.733	128
367.944	119.81
368.155	76.8
368.366	46.08
368.577	-23.55
368.788	89.09
368.999	13.31
369.209	70.65
369.42	89.09
369.631	140.29
369.842	72.7
370.053	62.46
370.264	58.37
370.474	66.56
370.685	21.5
370.896	56.32
371.107	33.79
371.317	62.46
371.528	7.17
371.739	39.94
371.95	17.41
372.16	107.52
372.371	50.18
372.582	3.07
372.792	9.22
373.003	33.79
373.214	87.04
373.424	41.98
373.635	89.09
373.846	173.05
374.056	-5.12
374.267	152.57
374.477	46.08
374.688	5.12
374.898	84.99
375.109	72.7
375.319	-31.74
375.53	3.07
375.74	56.32
375.951	56.32
376.161	58.37
376.372	76.8
376.582	27.65
376.793	68.61
377.003	72.7
377.214	7.17
377.424	-1.02
377.635	107.52
377.845	89.09
378.055	31.74
378.266	33.79
378.476	9.22
378.686	21.5
378.897	48.13
379.107	144.38
379.317	27.65
379.528	66.56
379.738	52.22
379.948	1.02
380.158	113.66
380.369	19.46
380.579	52.22
380.789	33.79
380.999	70.65
381.21	101.37
381.42	134.14
381.63	44.03
381.84	-15.36
382.05	54.27
382.261	41.98
382.471	44.03
382.681	35.84
382.891	37.89
383.101	52.22
383.311	87.04
383.521	19.46
383.731	19.46
383.941	82.94
384.151	-3.07
384.361	44.03
384.571	66.56
384.781	41.98
384.991	70.65
385.201	39.94
385.411	64.51
385.621	-31.74
385.831	103.42
386.041	54.27
386.251	44.03
386.461	87.04
386.671	93.18
386.881	87.04
387.091	56.32
387.301	95.23
387.511	41.98
387.72	27.65
387.93	97.28
388.14	41.98
388.35	44.03
388.56	82.94
388.769	39.94
388.979	82.94
389.189	58.37
389.399	15.36
389.609	78.85
389.818	48.13
390.028	15.36
390.238	109.57
390.447	56.32
390.657	-13.31
390.867	60.42
391.076	52.22
391.286	78.85
391.496	80.89
391.705	109.57
391.915	156.67
392.125	-1.02
392.334	41.98
392.544	58.37
392.753	54.27
392.963	46.08
393.172	91.13
393.382	119.81
393.591	91.13
393.801	84.99
394.01	128
394.22	84.99
394.429	111.61
394.639	21.5
394.848	121.85
395.058	64.51
395.267	82.94
395.477	64.51
395.686	125.95
395.895	152.57
396.105	150.53
396.314	60.42
396.524	80.89
396.733	99.33
396.942	97.28
397.152	144.38
397.361	44.03
397.57	76.8
397.78	78.85
397.989	166.91
398.198	220.16
398.407	68.61
398.617	89.09
398.826	107.52
399.035	50.18
399.244	111.61
399.453	99.33
399.663	119.81
399.872	136.19
400.081	111.61
400.29	144.38
400.499	54.27
400.708	62.46
400.917	144.38
401.127	158.72
401.336	84.99
401.545	154.62
401.754	84.99
401.963	164.86
402.172	175.1
402.381	123.9
402.59	89.09
402.799	119.81
403.008	183.29
403.217	136.19
403.426	156.67
403.635	84.99
403.844	132.09
404.053	134.14
404.262	218.11
404.471	187.39
404.68	128
404.888	162.81
405.097	166.91
405.306	195.58
405.515	130.05
405.724	201.72
405.933	191.49
406.142	152.57
406.35	177.15
406.559	265.21
406.768	240.64
406.977	248.83
407.185	187.39
407.394	242.68
407.603	130.05
407.812	283.64
408.02	226.3
408.229	183.29
408.438	214.01
408.646	254.97
408.855	293.88
409.064	263.16
409.272	297.98
409.481	324.6
409.69	271.36
409.898	295.93
410.107	300.03
410.315	332.79
410.524	304.12
410.733	373.75
410.941	404.47
411.15	373.75
411.358	392.19
411.567	443.39
411.775	472.06
411.984	412.67
412.192	435.19
412.401	447.48
412.609	553.98
412.818	582.65
413.026	506.87
413.234	601.08
413.443	553.98
413.651	642.04
413.86	592.89
414.068	736.24
414.276	639.99
414.485	515.06
414.693	709.62
414.901	740.34
415.11	748.53
415.318	773.11
415.526	814.07
415.734	711.67
415.943	754.68
416.151	967.67
416.359	859.12
416.567	857.07
416.776	1061.87
416.984	1043.44
417.192	1027.06
417.4	844.79
417.608	936.95
417.817	1104.88
418.025	1182.7
418.233	1250.28
418.441	1168.37
418.649	1238
418.857	1354.73
419.065	1434.6
419.273	1430.51
419.481	1487.85
419.689	1471.47
419.897	1608.68
420.105	1594.34
420.313	1602.54
420.521	1639.4
420.729	1731.56
420.937	1715.17
421.145	1795.04
421.353	1885.16
421.561	1967.07
421.769	1946.59
421.977	2143.2
422.185	2116.58
422.393	2180.06
422.601	2341.85
422.809	2423.77
423.017	2395.1
423.224	2425.82
423.432	2499.55
423.64	2685.91
423.848	2745.3
424.056	2870.23
424.263	2946
424.471	3023.83
424.679	3167.18
424.887	3224.53
425.094	3341.26
425.302	3412.94
425.51	3441.61
425.718	3638.22
425.925	3546.06
426.133	3824.58
426.341	3845.06
426.548	4123.59
426.756	4172.74
426.964	4330.43
427.171	4283.33
427.379	4469.69
427.586	4416.44
427.794	4707.26
428.001	4953.01
428.209	5073.84
428.417	4987.83
428.624	5516.2
428.832	5546.92
429.039	5329.84
429.247	5520.3
429.454	5909.41
429.662	6220.71
429.869	5825.45
430.076	6394.78
430.284	6247.33
430.491	6357.92
430.699	6812.57
430.906	6769.56
431.114	6802.33
431.321	7173.01
431.528	7099.28
431.736	7719.82
431.943	7986.05
432.15	7787.4
432.358	7805.83
432.565	8317.83
432.772	8307.59
432.979	8553.34
433.187	8934.26
433.394	8678.27
433.601	9409.39
433.808	9554.8
434.016	9474.93
434.223	10101.61
434.43	10490.72
434.637	10343.27
434.844	10875.74
435.052	11334.48
435.259	11133.78
435.466	11279.19
435.673	11051.86
435.88	11627.34
436.087	12389.19
436.294	12419.91
436.501	11993.93
436.708	12575.55
436.915	12759.87
437.122	13337.4
437.329	13339.44
437.537	13667.12
437.743	13894.44
437.95	13859.63
438.157	14482.21
438.364	15340.31
438.571	14768.93
438.778	14883.61
438.985	16323.33
439.192	15915.79
439.399	16470.79
439.606	16141.07
439.813	16884.48
440.02	17984.24
440.227	17666.8
440.433	17535.73
440.64	18027.24
440.847	18000.62
441.054	18162.41
441.261	19727.06
441.467	19692.24
441.674	19741.39
441.881	20587.21
442.088	20392.65
442.294	19935.95
442.501	20687.56
442.708	21039.81
442.914	21996.21
443.121	22772.39
443.328	21985.97
443.534	23825.04
443.741	23311
443.948	22629.03
444.154	24097.42
444.361	24189.58
444.568	24558.22
444.774	24244.88
444.981	24605.32
445.187	25672.31
445.394	26595.95
445.6	26411.63
445.807	28893.77
446.013	27413.09
446.22	27587.16
446.426	29170.24
446.633	29323.84
446.839	29819.45
447.046	29043.27
447.252	30439.98
447.459	30284.34
447.665	30968.36
447.871	31963.67
448.078	33268.23
448.284	31769.12
448.491	32238.1
448.697	33516.03
448.903	34501.11
449.11	34675.18
449.316	33520.13
449.522	34286.07
449.728	35396.07
449.935	35377.64
450.141	35437.03
450.347	35932.64
450.553	35238.37
450.76	35281.38
450.966	36227.54
451.172	35932.64
451.378	36780.49
451.584	36194.78
451.791	37308.87
451.997	37181.9
452.203	37679.55
452.409	37706.18
452.615	37548.48
452.821	35885.53
453.027	35404.26
453.233	37349.83
453.44	35944.92
453.646	36174.3
453.852	36504.02
454.058	36987.34
454.264	35805.66
454.47	36264.41
454.676	35480.03
454.882	36880.85
455.088	33751.55
455.294	34095.61
455.5	34640.37
455.705	35168.74
455.911	33528.32
456.117	32995.85
456.323	32205.33
456.529	30575.15
456.735	31914.52
456.941	31230.5
457.147	30775.85
457.352	29829.69
457.558	29211.2
457.764	29235.78
457.97	29110.85
458.176	28244.56
458.381	28570.19
458.587	26460.78
458.793	26880.61
458.999	25508.47
459.204	27263.58
459.41	26741.35
459.616	25066.11
459.821	25148.03
460.027	24722.05
460.233	24253.07
460.438	22790.82
460.644	23413.4
460.85	22268.59
461.055	21914.29
461.261	21463.74
461.466	20130.51
461.672	19520.21
461.878	20804.29
462.083	19552.98
462.289	19311.32
462.494	19350.23
462.7	18176.75
462.905	17560.31
463.111	18361.06
463.316	18688.74
463.522	18021.1
463.727	17930.99
463.932	17896.17
464.138	17775.34
464.343	18023.15
464.549	17419
464.754	18014.96
464.959	17660.66
465.165	17836.78
465.37	16988.92
465.575	16532.23
465.781	17328.89
465.986	17330.94
466.191	16788.22
466.397	16427.78
466.602	15596.31
466.807	16216.84
467.012	16028.43
467.218	16130.83
467.423	15661.84
