Data from USB4F104151__57__10-23-52-573.txt Node

Date: Wed Mar 12 10:23:52 EDT 2025
User: louis
Spectrometer: USB4F10415
Trigger mode: 4
Integration Time (sec): 3.000000E-2
Scans to average: 1
Electric dark correction enabled: true
Nonlinearity correction enabled: false
Boxcar width: 0
XAxis mode: Wavelengths
Number of Pixels in Spectrum: 3648
>>>>>Begin Spectral Data<<<<<
178.204	-146.43
178.424	-146.43
178.644	-146.43
178.864	-52.22
179.084	-101.37
179.304	-64.51
179.524	19.46
179.744	19.46
179.964	46.08
180.184	50.18
180.404	9.22
180.624	54.27
180.844	-56.32
181.064	-41.98
181.283	19.46
181.503	-27.65
181.723	-27.65
181.943	21.5
182.163	31.74
182.383	17.41
182.602	74.75
182.822	25.6
183.042	13.31
183.262	25.6
183.482	23.55
183.701	5.12
183.921	15.36
184.141	-70.65
184.361	41.98
184.58	82.94
184.8	-7.17
185.02	9.22
185.239	115.71
185.459	23.55
185.679	125.95
185.898	44.03
186.118	68.61
186.338	27.65
186.557	13.31
186.777	78.85
186.997	78.85
187.216	7.17
187.436	21.5
187.655	60.42
187.875	84.99
188.095	19.46
188.314	70.65
188.534	78.85
188.753	41.98
188.973	-7.17
189.192	46.08
189.412	54.27
189.631	60.42
189.851	5.12
190.07	60.42
190.29	48.13
190.509	54.27
190.729	-33.79
190.948	46.08
191.168	87.04
191.387	56.32
191.607	41.98
191.826	48.13
192.045	5.12
192.265	58.37
192.484	-7.17
192.704	105.47
192.923	52.22
193.142	78.85
193.362	37.89
193.581	74.75
193.8	35.84
194.02	142.33
194.239	31.74
194.458	21.5
194.678	82.94
194.897	-11.26
195.116	41.98
195.335	35.84
195.555	31.74
195.774	31.74
195.993	78.85
196.212	-27.65
196.432	60.42
196.651	46.08
196.87	29.7
197.089	93.18
197.308	46.08
197.528	52.22
197.747	35.84
197.966	46.08
198.185	15.36
198.404	27.65
198.623	113.66
198.842	117.76
199.062	101.37
199.281	44.03
199.5	9.22
199.719	29.7
199.938	111.61
200.157	52.22
200.376	21.5
200.595	82.94
200.814	25.6
201.033	-29.7
201.252	70.65
201.471	68.61
201.69	-3.07
201.909	27.65
202.128	64.51
202.347	111.61
202.566	-11.26
202.785	-27.65
203.004	-17.41
203.223	136.19
203.442	35.84
203.661	-11.26
203.879	25.6
204.098	78.85
204.317	66.56
204.536	91.13
204.755	37.89
204.974	48.13
205.193	78.85
205.411	35.84
205.63	115.71
205.849	62.46
206.068	1.02
206.287	93.18
206.505	35.84
206.724	1.02
206.943	17.41
207.162	-9.22
207.381	7.17
207.599	52.22
207.818	39.94
208.037	66.56
208.255	-3.07
208.474	-41.98
208.693	78.85
208.911	29.7
209.13	-1.02
209.349	97.28
209.567	-19.46
209.786	27.65
210.005	33.79
210.223	-7.17
210.442	-11.26
210.661	113.66
210.879	17.41
211.098	5.12
211.316	76.8
211.535	48.13
211.753	17.41
211.972	15.36
212.191	27.65
212.409	91.13
212.628	37.89
212.846	27.65
213.065	72.7
213.283	111.61
213.502	70.65
213.72	-7.17
213.938	5.12
214.157	70.65
214.375	31.74
214.594	97.28
214.812	44.03
215.031	111.61
215.249	5.12
215.467	15.36
215.686	37.89
215.904	25.6
216.122	19.46
216.341	-15.36
216.559	37.89
216.778	177.15
216.996	74.75
217.214	13.31
217.432	-35.84
217.651	35.84
217.869	64.51
218.087	-15.36
218.306	37.89
218.524	64.51
218.742	41.98
218.96	68.61
219.179	76.8
219.397	44.03
219.615	66.56
219.833	52.22
220.051	46.08
220.27	74.75
220.488	52.22
220.706	31.74
220.924	13.31
221.142	37.89
221.36	54.27
221.578	35.84
221.796	37.89
222.015	25.6
222.233	58.37
222.451	84.99
222.669	56.32
222.887	95.23
223.105	70.65
223.323	44.03
223.541	41.98
223.759	68.61
223.977	-70.65
224.195	134.14
224.413	87.04
224.631	62.46
224.849	-5.12
225.067	25.6
225.285	46.08
225.503	70.65
225.721	23.55
225.939	109.57
226.157	54.27
226.375	164.86
226.592	82.94
226.81	46.08
227.028	-5.12
227.246	103.42
227.464	-9.22
227.682	66.56
227.9	64.51
228.117	60.42
228.335	11.26
228.553	54.27
228.771	70.65
228.989	41.98
229.206	50.18
229.424	70.65
229.642	66.56
229.86	-1.02
230.077	15.36
230.295	68.61
230.513	84.99
230.731	97.28
230.948	95.23
231.166	113.66
231.384	41.98
231.601	-1.02
231.819	152.57
232.037	66.56
232.254	-7.17
232.472	80.89
232.689	-41.98
232.907	136.19
233.125	21.5
233.342	41.98
233.56	-39.94
233.777	27.65
233.995	-13.31
234.213	84.99
234.43	-7.17
234.648	60.42
234.865	-39.94
235.083	62.46
235.3	119.81
235.518	70.65
235.735	97.28
235.953	140.29
236.17	74.75
236.388	119.81
236.605	37.89
236.822	52.22
237.04	44.03
237.257	54.27
237.475	144.38
237.692	140.29
237.909	128
238.127	17.41
238.344	5.12
238.562	37.89
238.779	54.27
238.996	52.22
239.214	56.32
239.431	95.23
239.648	9.22
239.865	21.5
240.083	-3.07
240.3	132.09
240.517	-3.07
240.735	13.31
240.952	89.09
241.169	121.85
241.386	72.7
241.603	-15.36
241.821	39.94
242.038	50.18
242.255	82.94
242.472	66.56
242.689	70.65
242.907	23.55
243.124	25.6
243.341	19.46
243.558	-21.5
243.775	29.7
243.992	9.22
244.209	105.47
244.426	72.7
244.643	-23.55
244.86	76.8
245.078	78.85
245.295	13.31
245.512	21.5
245.729	19.46
245.946	115.71
246.163	70.65
246.38	17.41
246.597	33.79
246.814	52.22
247.031	58.37
247.248	17.41
247.464	37.89
247.681	80.89
247.898	87.04
248.115	46.08
248.332	-7.17
248.549	60.42
248.766	101.37
248.983	97.28
249.2	76.8
249.417	99.33
249.633	-7.17
249.85	66.56
250.067	15.36
250.284	50.18
250.501	54.27
250.717	60.42
250.934	-23.55
251.151	11.26
251.368	44.03
251.585	160.77
251.801	91.13
252.018	68.61
252.235	64.51
252.451	52.22
252.668	60.42
252.885	66.56
253.102	37.89
253.318	39.94
253.535	25.6
253.752	46.08
253.968	23.55
254.185	29.7
254.401	70.65
254.618	-5.12
254.835	68.61
255.051	52.22
255.268	91.13
255.484	23.55
255.701	74.75
255.917	60.42
256.134	39.94
256.351	123.9
256.567	29.7
256.784	-3.07
257	29.7
257.217	78.85
257.433	52.22
257.65	60.42
257.866	35.84
258.082	3.07
258.299	7.17
258.515	50.18
258.732	41.98
258.948	23.55
259.165	70.65
259.381	1.02
259.597	52.22
259.814	41.98
260.03	15.36
260.246	39.94
260.463	138.24
260.679	132.09
260.895	-21.5
261.112	72.7
261.328	39.94
261.544	74.75
261.761	80.89
261.977	7.17
262.193	-31.74
262.409	41.98
262.626	62.46
262.842	33.79
263.058	54.27
263.274	91.13
263.49	15.36
263.707	93.18
263.923	-21.5
264.139	11.26
264.355	97.28
264.571	111.61
264.787	29.7
265.004	82.94
265.22	119.81
265.436	66.56
265.652	29.7
265.868	46.08
266.084	5.12
266.3	76.8
266.516	-33.79
266.732	13.31
266.948	3.07
267.164	25.6
267.38	82.94
267.596	-13.31
267.812	93.18
268.028	62.46
268.244	62.46
268.46	66.56
268.676	62.46
268.892	138.24
269.108	72.7
269.324	27.65
269.54	-15.36
269.756	9.22
269.972	5.12
270.188	27.65
270.403	80.89
270.619	17.41
270.835	29.7
271.051	78.85
271.267	39.94
271.483	19.46
271.698	19.46
271.914	54.27
272.13	19.46
272.346	89.09
272.562	35.84
272.777	54.27
272.993	13.31
273.209	60.42
273.425	-3.07
273.64	101.37
273.856	99.33
274.072	64.51
274.287	13.31
274.503	-15.36
274.719	50.18
274.934	91.13
275.15	-3.07
275.366	44.03
275.581	-3.07
275.797	80.89
276.012	76.8
276.228	72.7
276.444	37.89
276.659	109.57
276.875	19.46
277.09	46.08
277.306	-44.03
277.521	76.8
277.737	17.41
277.952	97.28
278.168	17.41
278.383	74.75
278.599	33.79
278.814	17.41
279.03	31.74
279.245	60.42
279.461	111.61
279.676	35.84
279.892	5.12
280.107	80.89
280.322	78.85
280.538	74.75
280.753	87.04
280.969	84.99
281.184	115.71
281.399	74.75
281.615	46.08
281.83	156.67
282.045	60.42
282.26	54.27
282.476	152.57
282.691	93.18
282.906	44.03
283.122	95.23
283.337	62.46
283.552	60.42
283.767	60.42
283.983	68.61
284.198	17.41
284.413	91.13
284.628	54.27
284.843	50.18
285.058	76.8
285.274	-35.84
285.489	41.98
285.704	130.05
285.919	87.04
286.134	78.85
286.349	54.27
286.564	33.79
286.779	52.22
286.995	58.37
287.21	9.22
287.425	70.65
287.64	33.79
287.855	107.52
288.07	119.81
288.285	128
288.5	39.94
288.715	52.22
288.93	-1.02
289.145	46.08
289.36	142.33
289.575	62.46
289.79	66.56
290.004	37.89
290.219	78.85
290.434	46.08
290.649	62.46
290.864	46.08
291.079	5.12
291.294	35.84
291.509	68.61
291.724	62.46
291.938	-5.12
292.153	5.12
292.368	17.41
292.583	37.89
292.798	37.89
293.012	7.17
293.227	29.7
293.442	87.04
293.657	76.8
293.871	111.61
294.086	62.46
294.301	44.03
294.516	148.48
294.73	66.56
294.945	68.61
295.16	117.76
295.374	21.5
295.589	62.46
295.804	101.37
296.018	78.85
296.233	64.51
296.447	50.18
296.662	41.98
296.877	56.32
297.091	52.22
297.306	101.37
297.52	13.31
297.735	29.7
297.949	54.27
298.164	62.46
298.378	84.99
298.593	27.65
298.807	25.6
299.022	87.04
299.236	44.03
299.451	29.7
299.665	50.18
299.88	54.27
300.094	101.37
300.309	70.65
300.523	52.22
300.737	93.18
300.952	82.94
301.166	78.85
301.381	37.89
301.595	48.13
301.809	60.42
302.024	29.7
302.238	46.08
302.452	35.84
302.667	-5.12
302.881	66.56
303.095	48.13
303.309	87.04
303.524	19.46
303.738	9.22
303.952	74.75
304.166	52.22
304.381	87.04
304.595	82.94
304.809	19.46
305.023	35.84
305.237	5.12
305.452	109.57
305.666	125.95
305.88	91.13
306.094	125.95
306.308	89.09
306.522	56.32
306.736	107.52
306.95	52.22
307.164	80.89
307.379	84.99
307.593	107.52
307.807	5.12
308.021	74.75
308.235	91.13
308.449	46.08
308.663	-23.55
308.877	130.05
309.091	130.05
309.305	74.75
309.519	60.42
309.733	74.75
309.947	89.09
310.161	33.79
310.374	46.08
310.588	115.71
310.802	107.52
311.016	-15.36
311.23	13.31
311.444	56.32
311.658	50.18
311.872	78.85
312.085	68.61
312.299	84.99
312.513	99.33
312.727	23.55
312.941	-17.41
313.154	27.65
313.368	70.65
313.582	54.27
313.796	136.19
314.009	50.18
314.223	13.31
314.437	62.46
314.651	64.51
314.864	15.36
315.078	9.22
315.292	-50.18
315.505	17.41
315.719	52.22
315.933	70.65
316.146	46.08
316.36	78.85
316.573	60.42
316.787	62.46
317.001	78.85
317.214	54.27
317.428	84.99
317.641	3.07
317.855	7.17
318.068	119.81
318.282	113.66
318.495	93.18
318.709	62.46
318.922	164.86
319.136	46.08
319.349	62.46
319.563	70.65
319.776	-19.46
319.99	31.74
320.203	21.5
320.417	46.08
320.63	82.94
320.843	138.24
321.057	58.37
321.27	39.94
321.483	109.57
321.697	52.22
321.91	62.46
322.124	54.27
322.337	37.89
322.55	48.13
322.763	70.65
322.977	41.98
323.19	3.07
323.403	3.07
323.617	46.08
323.83	58.37
324.043	52.22
324.256	134.14
324.469	46.08
324.683	140.29
324.896	25.6
325.109	31.74
325.322	-3.07
325.535	37.89
325.748	48.13
325.962	-35.84
326.175	136.19
326.388	89.09
326.601	7.17
326.814	68.61
327.027	41.98
327.24	117.76
327.453	17.41
327.666	7.17
327.879	50.18
328.092	37.89
328.305	29.7
328.518	37.89
328.731	95.23
328.944	109.57
329.157	152.57
329.37	123.9
329.583	107.52
329.796	74.75
330.009	91.13
330.222	78.85
330.435	76.8
330.648	101.37
330.861	27.65
331.073	70.65
331.286	95.23
331.499	13.31
331.712	-15.36
331.925	54.27
332.138	52.22
332.35	111.61
332.563	91.13
332.776	72.7
332.989	35.84
333.202	99.33
333.414	152.57
333.627	99.33
333.84	37.89
334.053	-19.46
334.265	-15.36
334.478	11.26
334.691	35.84
334.903	13.31
335.116	41.98
335.329	60.42
335.541	62.46
335.754	91.13
335.966	91.13
336.179	19.46
336.392	-33.79
336.604	48.13
336.817	156.67
337.029	66.56
337.242	64.51
337.454	125.95
337.667	66.56
337.88	103.42
338.092	74.75
338.305	87.04
338.517	25.6
338.729	37.89
338.942	128
339.154	74.75
339.367	74.75
339.579	-17.41
339.792	-46.08
340.004	-13.31
340.217	76.8
340.429	123.9
340.641	35.84
340.854	99.33
341.066	44.03
341.278	50.18
341.491	62.46
341.703	-37.89
341.915	29.7
342.128	103.42
342.34	87.04
342.552	60.42
342.764	27.65
342.977	56.32
343.189	99.33
343.401	107.52
343.613	19.46
343.826	-9.22
344.038	84.99
344.25	68.61
344.462	-11.26
344.674	78.85
344.886	89.09
345.099	80.89
345.311	105.47
345.523	103.42
345.735	60.42
345.947	9.22
346.159	95.23
346.371	-11.26
346.583	93.18
346.795	109.57
347.007	19.46
347.219	48.13
347.431	-23.55
347.643	160.77
347.855	117.76
348.067	13.31
348.279	-48.13
348.491	123.9
348.703	121.85
348.915	132.09
349.127	52.22
349.339	103.42
349.551	60.42
349.763	25.6
349.975	54.27
350.187	117.76
350.399	78.85
350.61	66.56
350.822	-1.02
351.034	103.42
351.246	84.99
351.458	54.27
351.669	78.85
351.881	205.82
352.093	52.22
352.305	54.27
352.517	23.55
352.728	138.24
352.94	21.5
353.152	52.22
353.363	-7.17
353.575	60.42
353.787	62.46
353.999	101.37
354.21	162.81
354.422	82.94
354.633	82.94
354.845	95.23
355.057	-27.65
355.268	144.38
355.48	82.94
355.692	64.51
355.903	111.61
356.115	9.22
356.326	21.5
356.538	54.27
356.749	46.08
356.961	87.04
357.172	76.8
357.384	9.22
357.595	58.37
357.807	13.31
358.018	41.98
358.23	-3.07
358.441	95.23
358.653	37.89
358.864	111.61
359.075	68.61
359.287	99.33
359.498	60.42
359.709	84.99
359.921	27.65
360.132	101.37
360.344	58.37
360.555	84.99
360.766	105.47
360.977	64.51
361.189	70.65
361.4	48.13
361.611	54.27
361.823	5.12
362.034	35.84
362.245	87.04
362.456	39.94
362.667	37.89
362.879	50.18
363.09	-7.17
363.301	119.81
363.512	84.99
363.723	21.5
363.935	46.08
364.146	117.76
364.357	37.89
364.568	125.95
364.779	3.07
364.99	101.37
365.201	91.13
365.412	82.94
365.623	70.65
365.834	25.6
366.045	70.65
366.256	-39.94
366.467	35.84
366.678	103.42
366.889	87.04
367.1	11.26
367.311	46.08
367.522	74.75
367.733	99.33
367.944	128
368.155	11.26
368.366	50.18
368.577	78.85
368.788	105.47
368.999	29.7
369.209	175.1
369.42	150.53
369.631	156.67
369.842	52.22
370.053	123.9
370.264	19.46
370.474	72.7
370.685	72.7
370.896	70.65
371.107	64.51
371.317	56.32
371.528	52.22
371.739	107.52
371.95	76.8
372.16	70.65
372.371	29.7
372.582	84.99
372.792	136.19
373.003	68.61
373.214	128
373.424	74.75
373.635	19.46
373.846	115.71
374.056	54.27
374.267	29.7
374.477	3.07
374.688	-7.17
374.898	107.52
375.109	33.79
375.319	103.42
375.53	101.37
375.74	52.22
375.951	70.65
376.161	125.95
376.372	144.38
376.582	101.37
376.793	91.13
377.003	74.75
377.214	31.74
377.424	29.7
377.635	62.46
377.845	95.23
378.055	117.76
378.266	52.22
378.476	109.57
378.686	93.18
378.897	128
379.107	54.27
379.317	23.55
379.528	58.37
379.738	46.08
379.948	46.08
380.158	119.81
380.369	82.94
380.579	97.28
380.789	3.07
380.999	123.9
381.21	89.09
381.42	66.56
381.63	130.05
381.84	101.37
382.05	103.42
382.261	91.13
382.471	70.65
382.681	87.04
382.891	128
383.101	21.5
383.311	132.09
383.521	78.85
383.731	72.7
383.941	136.19
384.151	68.61
384.361	103.42
384.571	125.95
384.781	134.14
384.991	148.48
385.201	111.61
385.411	101.37
385.621	64.51
385.831	119.81
386.041	91.13
386.251	119.81
386.461	50.18
386.671	117.76
386.881	146.43
387.091	119.81
387.301	99.33
387.511	101.37
387.72	62.46
387.93	48.13
388.14	64.51
388.35	152.57
388.56	107.52
388.769	91.13
388.979	31.74
389.189	68.61
389.399	103.42
389.609	76.8
389.818	13.31
390.028	82.94
390.238	84.99
390.447	64.51
390.657	140.29
390.867	-7.17
391.076	125.95
391.286	148.48
391.496	91.13
391.705	52.22
391.915	119.81
392.125	138.24
392.334	103.42
392.544	125.95
392.753	115.71
392.963	91.13
393.172	23.55
393.382	113.66
393.591	82.94
393.801	82.94
394.01	91.13
394.22	91.13
394.429	128
394.639	136.19
394.848	187.39
395.058	76.8
395.267	95.23
395.477	91.13
395.686	177.15
395.895	185.34
396.105	89.09
396.314	144.38
396.524	134.14
396.733	64.51
396.942	115.71
397.152	166.91
397.361	99.33
397.57	158.72
397.78	130.05
397.989	62.46
398.198	201.72
398.407	107.52
398.617	189.44
398.826	128
399.035	130.05
399.244	128
399.453	232.44
399.663	179.2
399.872	140.29
400.081	82.94
400.29	207.87
400.499	82.94
400.708	44.03
400.917	103.42
401.127	144.38
401.336	95.23
401.545	144.38
401.754	136.19
401.963	82.94
402.172	130.05
402.381	158.72
402.59	187.39
402.799	134.14
403.008	93.18
403.217	191.49
403.426	132.09
403.635	121.85
403.844	125.95
404.053	168.96
404.262	191.49
404.471	242.68
404.68	152.57
404.888	185.34
405.097	160.77
405.306	193.53
405.515	175.1
405.724	195.58
405.933	289.79
406.142	175.1
406.35	263.16
406.559	271.36
406.768	281.6
406.977	312.32
407.185	259.07
407.394	238.59
407.603	259.07
407.812	254.97
408.02	222.2
408.229	242.68
408.438	308.22
408.646	308.22
408.855	310.27
409.064	300.03
409.272	369.66
409.481	400.38
409.69	300.03
409.898	355.32
410.107	394.23
410.315	420.86
410.524	369.66
410.733	398.33
410.941	427
411.15	502.78
411.358	445.43
411.567	568.31
411.775	445.43
411.984	539.64
412.192	535.54
412.401	539.64
412.609	568.31
412.818	545.78
413.026	635.89
413.234	607.22
413.443	680.95
413.651	672.76
413.86	697.33
414.068	744.44
414.276	783.35
414.485	832.5
414.693	795.64
414.901	795.64
415.11	809.97
415.318	799.73
415.526	969.71
415.734	988.14
415.943	955.38
416.151	1053.68
416.359	1033.2
416.567	1008.62
416.776	1080.3
416.984	1221.61
417.192	1154.03
417.4	1133.55
417.608	1188.85
417.817	1262.57
418.025	1291.24
418.233	1346.54
418.441	1324.01
418.649	1403.88
418.857	1498.09
419.065	1561.58
419.273	1459.18
419.481	1731.56
419.689	1641.45
419.897	1760.23
420.105	1749.99
420.313	1844.2
420.521	1926.11
420.729	1975.27
420.937	1911.78
421.145	2022.37
421.353	2122.72
421.561	2333.66
421.769	2202.59
421.977	2384.86
422.185	2409.44
422.393	2683.86
422.601	2739.16
422.809	2587.61
423.017	2593.75
423.224	2735.06
423.432	2984.91
423.64	2964.43
423.848	3197.9
424.056	3146.7
424.263	3445.71
424.471	3337.17
424.679	3279.82
424.887	3599.31
425.094	3615.69
425.302	3754.95
425.51	3963.84
425.718	3918.79
425.925	4164.54
426.133	4182.98
426.341	4412.35
426.548	4713.4
426.756	4701.11
426.964	4780.98
427.171	4850.61
427.379	5217.2
427.586	5237.68
427.794	5288.88
428.001	5563.31
428.209	5831.59
428.417	5510.06
428.624	6083.49
428.832	6232.99
429.039	6245.28
429.247	6011.81
429.454	6609.82
429.662	6966.17
429.869	6808.47
430.076	6966.17
430.284	6812.57
430.491	7052.18
430.699	7674.76
430.906	7689.1
431.114	7697.29
431.321	7924.62
431.528	8213.38
431.736	8651.64
431.943	9098.1
432.15	8809.34
432.358	8821.63
432.565	9456.5
432.772	9071.48
432.979	10027.88
433.187	9913.19
433.394	10048.36
433.601	10840.92
433.808	10820.44
434.016	10562.4
434.223	11113.3
434.43	11524.94
434.637	11570
434.844	12313.41
435.052	12432.19
435.259	12407.62
435.466	12294.98
435.673	12471.11
435.88	13122.36
436.087	14021.42
436.294	13742.89
436.501	13513.52
436.708	13693.74
436.915	14445.35
437.122	14902.04
437.329	14648.1
437.537	15362.84
437.743	15586.07
437.95	15524.63
438.157	16460.55
438.364	16882.43
438.571	16771.84
438.778	17048.32
438.985	18569.96
439.192	17588.98
439.399	18361.06
439.606	17738.48
439.813	18668.26
440.02	20210.38
440.227	19741.39
440.433	19317.47
440.64	20079.31
440.847	19835.6
441.054	20437.7
441.261	21877.43
441.467	21727.92
441.674	22125.23
441.881	22852.26
442.088	22450.86
442.294	22272.68
442.501	23085.73
442.708	23495.32
442.914	24287.89
443.121	25502.33
443.328	24935.04
443.534	26538.6
443.741	25944.69
443.948	25469.56
444.154	27161.19
444.361	26843.75
444.568	27492.96
444.774	27187.81
444.981	27454.05
445.187	28351.06
445.394	29540.93
445.6	28924.49
445.807	32045.59
446.013	30554.67
446.22	31345.19
446.426	32299.54
446.633	32571.92
446.839	33638.91
447.046	32266.77
447.252	34089.46
447.459	34175.48
447.665	33624.57
447.871	35529.19
448.078	36542.93
448.284	34970.09
448.491	35891.68
448.697	37173.7
448.903	37945.79
449.11	37943.74
449.316	37202.38
449.522	38277.56
449.728	38934.96
449.935	39328.17
450.141	39131.56
450.347	39946.65
450.553	38840.75
450.76	39367.08
450.966	40339.86
451.172	39932.32
451.378	40964.49
451.584	40286.62
451.791	40638.87
451.997	40583.57
452.203	41396.62
452.409	41828.74
452.615	41650.56
452.821	39897.5
453.027	39692.71
453.233	41628.04
453.44	39518.63
453.646	40116.64
453.852	40188.31
454.058	41099.66
454.264	39578.02
454.47	40327.58
454.676	39287.21
454.882	40819.09
455.088	36934.09
455.294	37667.27
455.5	38224.31
455.705	38721.97
455.911	36819.41
456.117	36377.04
456.323	35967.45
456.529	33718.78
456.735	35158.5
456.941	34314.74
457.147	33698.3
457.352	32807.44
457.558	32516.62
457.764	32727.56
457.97	32000.54
458.176	31304.23
458.381	31490.59
458.587	29833.78
458.793	29456.96
458.999	28113.49
459.204	30003.77
459.41	29368.9
459.616	27417.18
459.821	27427.42
460.027	27312.74
460.233	26378.86
460.438	25389.69
460.644	25653.88
460.85	24818.31
461.055	24103.57
461.261	24003.22
461.466	22137.52
461.672	21523.13
461.878	23177.89
462.083	21684.92
462.289	21312.19
462.494	21123.77
462.7	19925.71
462.905	19466.97
463.111	20384.46
463.316	20390.6
463.522	19976.91
463.727	20159.18
463.932	20034.25
464.138	19366.62
464.343	19849.94
464.549	19116.76
464.754	19751.63
464.959	19716.82
465.165	19663.57
465.37	18637.54
465.575	18383.59
465.781	18899.68
465.986	18750.18
466.191	18469.61
466.397	17900.27
466.602	17488.63
466.807	17926.89
