Data from USB4F104151__176__10-27-48-737.txt Node

Date: Wed Mar 12 10:27:48 EDT 2025
User: louis
Spectrometer: USB4F10415
Trigger mode: 4
Integration Time (sec): 3.000000E-2
Scans to average: 1
Electric dark correction enabled: true
Nonlinearity correction enabled: false
Boxcar width: 0
XAxis mode: Wavelengths
Number of Pixels in Spectrum: 3648
>>>>>Begin Spectral Data<<<<<
178.204	-126.97
178.424	-126.97
178.644	-126.97
178.864	-120.83
179.084	-124.93
179.304	-10.24
179.524	-30.72
179.744	53.25
179.964	18.43
180.184	-16.38
180.404	-55.3
180.624	10.24
180.844	81.92
181.064	-65.54
181.283	-8.19
181.503	-20.48
181.723	43.01
181.943	-14.34
182.163	6.14
182.383	67.58
182.602	-2.05
182.822	69.63
183.042	92.16
183.262	-18.43
183.482	45.06
183.701	47.1
183.921	-18.43
184.141	-10.24
184.361	38.91
184.58	-2.05
184.8	4.1
185.02	16.38
185.239	24.58
185.459	36.86
185.679	4.1
185.898	12.29
186.118	69.63
186.338	55.3
186.557	-8.19
186.777	-36.86
186.997	-22.53
187.216	55.3
187.436	100.35
187.655	20.48
187.875	67.58
188.095	18.43
188.314	88.06
188.534	73.73
188.753	-8.19
188.973	-4.1
189.192	69.63
189.412	36.86
189.631	-6.14
189.851	63.49
190.07	73.73
190.29	-53.25
190.509	45.06
190.729	108.54
190.948	61.44
191.168	122.88
191.387	57.34
191.607	18.43
191.826	30.72
192.045	-4.1
192.265	-38.91
192.484	22.53
192.704	88.06
192.923	-22.53
193.142	28.67
193.362	86.01
193.581	32.77
193.8	53.25
194.02	75.77
194.239	-14.34
194.458	51.2
194.678	-16.38
194.897	12.29
195.116	45.06
195.335	38.91
195.555	6.14
195.774	24.58
195.993	18.43
196.212	59.39
196.432	-10.24
196.651	-51.2
196.87	-2.05
197.089	79.87
197.308	-34.82
197.528	34.82
197.747	-20.48
197.966	47.1
198.185	77.82
198.404	-81.92
198.623	28.67
198.842	6.14
199.062	57.34
199.281	71.68
199.5	28.67
199.719	108.54
199.938	4.1
200.157	83.97
200.376	6.14
200.595	-18.43
200.814	20.48
201.033	108.54
201.252	12.29
201.471	28.67
201.69	-4.1
201.909	96.25
202.128	30.72
202.347	38.91
202.566	-2.05
202.785	67.58
203.004	-2.05
203.223	124.93
203.442	57.34
203.661	14.34
203.879	-2.05
204.098	59.39
204.317	22.53
204.536	34.82
204.755	8.19
204.974	20.48
205.193	-6.14
205.411	92.16
205.63	28.67
205.849	63.49
206.068	22.53
206.287	28.67
206.505	55.3
206.724	-4.1
206.943	30.72
207.162	4.1
207.381	-8.19
207.599	-12.29
207.818	88.06
208.037	16.38
208.255	-18.43
208.474	-59.39
208.693	38.91
208.911	30.72
209.13	10.24
209.349	-2.05
209.567	79.87
209.786	67.58
210.005	61.44
210.223	-4.1
210.442	-6.14
210.661	10.24
210.879	57.34
211.098	-83.97
211.316	-18.43
211.535	18.43
211.753	26.62
211.972	61.44
212.191	-10.24
212.409	-0
212.628	-6.14
212.846	28.67
213.065	-38.91
213.283	18.43
213.502	63.49
213.72	-14.34
213.938	-18.43
214.157	-22.53
214.375	49.15
214.594	-26.62
214.812	-2.05
215.031	20.48
215.249	-45.06
215.467	-4.1
215.686	51.2
215.904	24.58
216.122	18.43
216.341	6.14
216.559	67.58
216.778	116.73
216.996	79.87
217.214	63.49
217.432	-43.01
217.651	-30.72
217.869	12.29
218.087	10.24
218.306	22.53
218.524	40.96
218.742	47.1
218.96	14.34
219.179	-18.43
219.397	59.39
219.615	73.73
219.833	10.24
220.051	28.67
220.27	-12.29
220.488	-16.38
220.706	26.62
220.924	38.91
221.142	86.01
221.36	10.24
221.578	-18.43
221.796	14.34
222.015	-20.48
222.233	-43.01
222.451	92.16
222.669	63.49
222.887	16.38
223.105	88.06
223.323	45.06
223.541	2.05
223.759	77.82
223.977	-38.91
224.195	116.73
224.413	26.62
224.631	45.06
224.849	4.1
225.067	108.54
225.285	67.58
225.503	49.15
225.721	-67.58
225.939	-0
226.157	16.38
226.375	63.49
226.592	-6.14
226.81	38.91
227.028	100.35
227.246	24.58
227.464	36.86
227.682	81.92
227.9	38.91
228.117	67.58
228.335	45.06
228.553	6.14
228.771	20.48
228.989	63.49
229.206	-2.05
229.424	81.92
229.642	-47.1
229.86	-6.14
230.077	34.82
230.295	-26.62
230.513	2.05
230.731	47.1
230.948	100.35
231.166	79.87
231.384	40.96
231.601	43.01
231.819	120.83
232.037	18.43
232.254	4.1
232.472	-10.24
232.689	-18.43
232.907	86.01
233.125	-6.14
233.342	16.38
233.56	10.24
233.777	30.72
233.995	-63.49
234.213	79.87
234.43	77.82
234.648	4.1
234.865	-22.53
235.083	96.25
235.3	59.39
235.518	43.01
235.735	-2.05
235.953	43.01
236.17	77.82
236.388	38.91
236.605	38.91
236.822	6.14
237.04	20.48
237.257	-32.77
237.475	-2.05
237.692	47.1
237.909	-18.43
238.127	104.45
238.344	-12.29
238.562	47.1
238.779	14.34
238.996	-43.01
239.214	-10.24
239.431	16.38
239.648	-20.48
239.865	47.1
240.083	112.64
240.3	18.43
240.517	40.96
240.735	47.1
240.952	12.29
241.169	-10.24
241.386	2.05
241.603	-59.39
241.821	2.05
242.038	32.77
242.255	-4.1
242.472	-47.1
242.689	-0
242.907	40.96
243.124	43.01
243.341	26.62
243.558	-10.24
243.775	26.62
243.992	-34.82
244.209	96.25
244.426	59.39
244.643	30.72
244.86	49.15
245.078	18.43
245.295	14.34
245.512	45.06
245.729	-8.19
245.946	38.91
246.163	45.06
246.38	-10.24
246.597	-0
246.814	4.1
247.031	67.58
247.248	38.91
247.464	55.3
247.681	-22.53
247.898	-4.1
248.115	-22.53
248.332	34.82
248.549	26.62
248.766	-2.05
248.983	24.58
249.2	-40.96
249.417	30.72
249.633	22.53
249.85	36.86
250.067	-32.77
250.284	-30.72
250.501	49.15
250.717	8.19
250.934	18.43
251.151	8.19
251.368	63.49
251.585	45.06
251.801	4.1
252.018	-26.62
252.235	43.01
252.451	-6.14
252.668	-4.1
252.885	45.06
253.102	-14.34
253.318	-30.72
253.535	18.43
253.752	-2.05
253.968	-26.62
254.185	-0
254.401	-57.34
254.618	63.49
254.835	-22.53
255.051	24.58
255.268	38.91
255.484	43.01
255.701	24.58
255.917	75.77
256.134	-77.82
256.351	8.19
256.567	-22.53
256.784	-14.34
257	-43.01
257.217	-2.05
257.433	8.19
257.65	73.73
257.866	45.06
258.082	47.1
258.299	-65.54
258.515	14.34
258.732	83.97
258.948	51.2
259.165	94.21
259.381	-8.19
259.597	36.86
259.814	-55.3
260.03	20.48
260.246	8.19
260.463	40.96
260.679	28.67
260.895	-26.62
261.112	77.82
261.328	-22.53
261.544	-10.24
261.761	100.35
261.977	22.53
262.193	-30.72
262.409	-0
262.626	77.82
262.842	-2.05
263.058	16.38
263.274	10.24
263.49	34.82
263.707	30.72
263.923	-10.24
264.139	47.1
264.355	32.77
264.571	14.34
264.787	20.48
265.004	38.91
265.22	36.86
265.436	47.1
265.652	-4.1
265.868	38.91
266.084	47.1
266.3	30.72
266.516	-57.34
266.732	12.29
266.948	-28.67
267.164	22.53
267.38	61.44
267.596	47.1
267.812	108.54
268.028	55.3
268.244	-71.68
268.46	-26.62
268.676	20.48
268.892	-8.19
269.108	45.06
269.324	-75.77
269.54	32.77
269.756	94.21
269.972	-43.01
270.188	-10.24
270.403	4.1
270.619	45.06
270.835	-2.05
271.051	-61.44
271.267	-14.34
271.483	-6.14
271.698	14.34
271.914	-4.1
272.13	10.24
272.346	30.72
272.562	120.83
272.777	-2.05
272.993	55.3
273.209	47.1
273.425	73.73
273.64	-24.58
273.856	38.91
274.072	45.06
274.287	26.62
274.503	-12.29
274.719	12.29
274.934	38.91
275.15	34.82
275.366	83.97
275.581	-14.34
275.797	-16.38
276.012	32.77
276.228	32.77
276.444	26.62
276.659	28.67
276.875	2.05
277.09	47.1
277.306	6.14
277.521	4.1
277.737	30.72
277.952	-0
278.168	43.01
278.383	28.67
278.599	47.1
278.814	-10.24
279.03	-20.48
279.245	-2.05
279.461	-34.82
279.676	22.53
279.892	-14.34
280.107	-10.24
280.322	-26.62
280.538	2.05
280.753	-18.43
280.969	61.44
281.184	38.91
281.399	26.62
281.615	47.1
281.83	-36.86
282.045	-20.48
282.26	-14.34
282.476	-28.67
282.691	-18.43
282.906	28.67
283.122	28.67
283.337	14.34
283.552	63.49
283.767	18.43
283.983	75.77
284.198	-28.67
284.413	53.25
284.628	24.58
284.843	-18.43
285.058	30.72
285.274	32.77
285.489	-8.19
285.704	49.15
285.919	12.29
286.134	-34.82
286.349	26.62
286.564	59.39
286.779	43.01
286.995	22.53
287.21	-55.3
287.425	-30.72
287.64	-24.58
287.855	6.14
288.07	-67.58
288.285	-47.1
288.5	94.21
288.715	43.01
288.93	-2.05
289.145	34.82
289.36	69.63
289.575	8.19
289.79	116.73
290.004	-28.67
290.219	55.3
290.434	47.1
290.649	18.43
290.864	4.1
291.079	28.67
291.294	53.25
291.509	79.87
291.724	77.82
291.938	14.34
292.153	-18.43
292.368	8.19
292.583	-47.1
292.798	6.14
293.012	26.62
293.227	-61.44
293.442	73.73
293.657	20.48
293.871	47.1
294.086	10.24
294.301	12.29
294.516	79.87
294.73	108.54
294.945	45.06
295.16	10.24
295.374	63.49
295.589	-6.14
295.804	16.38
296.018	22.53
296.233	55.3
296.447	96.25
296.662	43.01
296.877	-12.29
297.091	47.1
297.306	47.1
297.52	59.39
297.735	94.21
297.949	69.63
298.164	81.92
298.378	-51.2
298.593	8.19
298.807	-2.05
299.022	-0
299.236	47.1
299.451	4.1
299.665	65.53
299.88	96.25
300.094	-32.77
300.309	73.73
300.523	53.25
300.737	51.2
300.952	-51.2
301.166	32.77
301.381	-55.3
301.595	47.1
301.809	4.1
302.024	-43.01
302.238	28.67
302.452	71.68
302.667	14.34
302.881	40.96
303.095	-12.29
303.309	28.67
303.524	6.14
303.738	40.96
303.952	-30.72
304.166	-8.19
304.381	45.06
304.595	18.43
304.809	79.87
305.023	28.67
305.237	49.15
305.452	22.53
305.666	57.34
305.88	45.06
306.094	-8.19
306.308	18.43
306.522	14.34
306.736	47.1
306.95	102.4
307.164	16.38
307.379	-10.24
307.593	59.39
307.807	34.82
308.021	18.43
308.235	-26.62
308.449	-40.96
308.663	51.2
308.877	55.3
309.091	-14.34
309.305	-28.67
309.519	24.58
309.733	-4.1
309.947	49.15
310.161	-4.1
310.374	40.96
310.588	71.68
310.802	-51.2
311.016	14.34
311.23	57.34
311.444	8.19
311.658	73.73
311.872	34.82
312.085	36.86
312.299	47.1
312.513	26.62
312.727	-24.58
312.941	-2.05
313.154	10.24
313.368	28.67
313.582	61.44
313.796	6.14
314.009	-92.16
314.223	40.96
314.437	-4.1
314.651	73.73
314.864	65.53
315.078	28.67
315.292	-4.1
315.505	43.01
315.719	65.53
315.933	-36.86
316.146	16.38
316.36	-10.24
316.573	12.29
316.787	45.06
317.001	-20.48
317.214	-6.14
317.428	-28.67
317.641	22.53
317.855	-30.72
318.068	18.43
318.282	59.39
318.495	47.1
318.709	6.14
318.922	2.05
319.136	57.34
319.349	63.49
319.563	-10.24
319.776	96.25
319.99	-10.24
320.203	-43.01
320.417	24.58
320.63	8.19
320.843	79.87
321.057	14.34
321.27	20.48
321.483	47.1
321.697	75.77
321.91	-16.38
322.124	69.63
322.337	61.44
322.55	-24.58
322.763	-10.24
322.977	59.39
323.19	2.05
323.403	-10.24
323.617	38.91
323.83	94.21
324.043	14.34
324.256	22.53
324.469	-16.38
324.683	59.39
324.896	4.1
325.109	-24.58
325.322	22.53
325.535	32.77
325.748	12.29
325.962	20.48
326.175	67.58
326.388	63.49
326.601	98.3
326.814	-10.24
327.027	38.91
327.24	63.49
327.453	-6.14
327.666	20.48
327.879	77.82
328.092	59.39
328.305	-8.19
328.518	20.48
328.731	18.43
328.944	28.67
329.157	65.53
329.37	-26.62
329.583	102.4
329.796	86.01
330.009	-14.34
330.222	53.25
330.435	20.48
330.648	40.96
330.861	49.15
331.073	55.3
331.286	79.87
331.499	126.97
331.712	28.67
331.925	67.58
332.138	-12.29
332.35	51.2
332.563	-6.14
332.776	63.49
332.989	36.86
333.202	22.53
333.414	18.43
333.627	14.34
333.84	-18.43
334.053	-28.67
334.265	40.96
334.478	2.05
334.691	59.39
334.903	18.43
335.116	-14.34
335.329	6.14
335.541	118.78
335.754	24.58
335.966	77.82
336.179	51.2
336.392	53.25
336.604	77.82
336.817	86.01
337.029	86.01
337.242	-14.34
337.454	28.67
337.667	83.97
337.88	43.01
338.092	88.06
338.305	59.39
338.517	38.91
338.729	77.82
338.942	-36.86
339.154	120.83
339.367	-67.58
339.579	96.25
339.792	-4.1
340.004	-38.91
340.217	-59.39
340.429	34.82
340.641	16.38
340.854	-0
341.066	18.43
341.278	79.87
341.491	98.3
341.703	71.68
341.915	8.19
342.128	38.91
342.34	55.3
342.552	30.72
342.764	24.58
342.977	40.96
343.189	16.38
343.401	-34.82
343.613	38.91
343.826	16.38
344.038	14.34
344.25	12.29
344.462	18.43
344.674	-45.06
344.886	-43.01
345.099	55.3
345.311	-22.53
345.523	-12.29
345.735	-16.38
345.947	90.11
346.159	106.49
346.371	83.97
346.583	90.11
346.795	57.34
347.007	81.92
347.219	-51.2
347.431	110.59
347.643	79.87
347.855	26.62
348.067	40.96
348.279	43.01
348.491	6.14
348.703	55.3
348.915	6.14
349.127	26.62
349.339	-2.05
349.551	22.53
349.763	94.21
349.975	-34.82
350.187	77.82
350.399	22.53
350.61	47.1
350.822	28.67
351.034	51.2
351.246	30.72
351.458	73.73
351.669	49.15
351.881	14.34
352.093	51.2
352.305	32.77
352.517	30.72
352.728	59.39
352.94	47.1
353.152	88.06
353.363	-36.86
353.575	-14.34
353.787	34.82
353.999	32.77
354.21	8.19
354.422	36.86
354.633	71.68
354.845	40.96
355.057	-10.24
355.268	43.01
355.48	-4.1
355.692	53.25
355.903	-4.1
356.115	8.19
356.326	24.58
356.538	96.25
356.749	69.63
356.961	71.68
357.172	36.86
357.384	90.11
357.595	96.25
357.807	59.39
358.018	22.53
358.23	2.05
358.441	-16.38
358.653	57.34
358.864	-10.24
359.075	22.53
359.287	51.2
359.498	61.44
359.709	61.44
359.921	38.91
360.132	51.2
360.344	73.73
360.555	-14.34
360.766	26.62
360.977	-0
361.189	71.68
361.4	34.82
361.611	34.82
361.823	106.49
362.034	-20.48
362.245	-59.39
362.456	-34.82
362.667	30.72
362.879	26.62
363.09	38.91
363.301	34.82
363.512	12.29
363.723	-57.34
363.935	100.35
364.146	118.78
364.357	55.3
364.568	24.58
364.779	-0
364.99	32.77
365.201	-4.1
365.412	63.49
365.623	65.53
365.834	30.72
366.045	-6.14
366.256	55.3
366.467	28.67
366.678	122.88
366.889	-4.1
367.1	-10.24
367.311	59.39
367.522	73.73
367.733	129.02
367.944	4.1
368.155	22.53
368.366	63.49
368.577	63.49
368.788	53.25
368.999	-22.53
369.209	38.91
369.42	-26.62
369.631	112.64
369.842	49.15
370.053	88.06
370.264	151.55
370.474	30.72
370.685	-43.01
370.896	10.24
371.107	96.25
371.317	63.49
371.528	10.24
371.739	88.06
371.95	77.82
372.16	75.77
372.371	90.11
372.582	6.14
372.792	71.68
373.003	100.35
373.214	34.82
373.424	79.87
373.635	24.58
373.846	20.48
374.056	-10.24
374.267	22.53
374.477	49.15
374.688	47.1
374.898	10.24
375.109	-8.19
375.319	61.44
375.53	-16.38
375.74	-0
375.951	-18.43
376.161	67.58
376.372	129.02
376.582	2.05
376.793	6.14
377.003	-22.53
377.214	22.53
377.424	28.67
377.635	-12.29
377.845	14.34
378.055	122.88
378.266	-36.86
378.476	18.43
378.686	51.2
378.897	100.35
379.107	86.01
379.317	55.3
379.528	40.96
379.738	-2.05
379.948	45.06
380.158	55.3
380.369	-26.62
380.579	16.38
380.789	-20.48
380.999	51.2
381.21	34.82
381.42	77.82
381.63	47.1
381.84	88.06
382.05	38.91
382.261	100.35
382.471	36.86
382.681	63.49
382.891	108.54
383.101	88.06
383.311	-26.62
383.521	30.72
383.731	4.1
383.941	73.73
384.151	43.01
384.361	108.54
384.571	-22.53
384.781	108.54
384.991	88.06
385.201	133.12
385.411	55.3
385.621	47.1
385.831	86.01
386.041	53.25
386.251	71.68
386.461	81.92
386.671	116.73
386.881	6.14
387.091	49.15
387.301	90.11
387.511	18.43
387.72	34.82
387.93	59.39
388.14	10.24
388.35	-28.67
388.56	69.63
388.769	63.49
388.979	67.58
389.189	75.77
389.399	32.77
389.609	110.59
389.818	30.72
390.028	22.53
390.238	28.67
390.447	24.58
390.657	45.06
390.867	-4.1
391.076	81.92
391.286	59.39
391.496	73.73
391.705	65.53
391.915	51.2
392.125	88.06
392.334	81.92
392.544	79.87
392.753	83.97
392.963	59.39
393.172	59.39
393.382	55.3
393.591	88.06
393.801	69.63
394.01	59.39
394.22	-20.48
394.429	18.43
394.639	-4.1
394.848	53.25
395.058	2.05
395.267	55.3
395.477	12.29
395.686	102.4
395.895	114.69
396.105	118.78
396.314	75.77
396.524	114.69
396.733	94.21
396.942	157.69
397.152	94.21
397.361	53.25
397.57	65.53
397.78	71.68
397.989	75.77
398.198	122.88
398.407	129.02
398.617	59.39
398.826	104.45
399.035	75.77
399.244	129.02
399.453	129.02
399.663	88.06
399.872	100.35
400.081	43.01
400.29	90.11
400.499	59.39
400.708	96.25
400.917	131.07
401.127	149.5
401.336	104.45
401.545	180.22
401.754	149.5
401.963	108.54
402.172	55.3
402.381	81.92
402.59	79.87
402.799	133.12
403.008	149.5
403.217	129.02
403.426	126.97
403.635	96.25
403.844	30.72
404.053	108.54
404.262	135.17
404.471	190.46
404.68	129.02
404.888	81.92
405.097	14.34
405.306	137.21
405.515	106.49
405.724	155.65
405.933	182.27
406.142	137.21
406.35	178.17
406.559	106.49
406.768	178.17
406.977	143.36
407.185	137.21
407.394	153.6
407.603	116.73
407.812	169.98
408.02	225.28
408.229	210.94
408.438	120.83
408.646	161.79
408.855	139.26
409.064	235.52
409.272	169.98
409.481	301.05
409.69	196.6
409.898	178.17
410.107	272.38
410.315	227.32
410.524	243.71
410.733	280.57
410.941	284.67
411.15	307.2
411.358	309.24
411.567	317.44
411.775	235.52
411.984	294.91
412.192	344.06
412.401	266.24
412.609	423.93
412.818	389.11
413.026	331.77
413.234	438.27
413.443	350.2
413.651	397.31
413.86	405.5
414.068	481.27
414.276	524.28
414.485	489.46
414.693	501.75
414.901	614.39
415.11	538.62
415.318	481.27
415.526	587.77
415.734	616.44
415.943	628.73
416.151	708.6
416.359	620.53
416.567	679.93
416.776	688.12
416.984	681.97
417.192	751.6
417.4	696.31
417.608	804.85
417.817	772.08
418.025	843.76
418.233	905.2
418.441	761.84
418.649	913.39
418.857	1083.38
419.065	1032.18
419.273	1028.08
419.481	1060.85
419.689	1060.85
419.897	1034.22
420.105	1167.34
420.313	1312.75
420.521	1302.51
420.729	1265.64
420.937	1345.52
421.145	1411.05
421.353	1462.25
421.561	1466.35
421.769	1501.16
421.977	1576.94
422.185	1562.6
422.393	1701.86
422.601	1693.67
422.809	1845.22
423.017	1757.16
423.224	1794.02
423.432	1914.85
423.64	1908.71
423.848	2172.89
424.056	1970.15
424.263	2213.85
424.471	2179.04
424.679	2283.49
424.887	2342.88
425.094	2299.87
425.302	2557.91
425.51	2592.73
425.718	2615.26
425.925	2682.84
426.133	2666.46
426.341	2832.34
426.548	3039.19
426.756	3012.56
426.964	3217.36
427.171	3250.13
427.379	3307.47
427.586	3403.72
427.794	3436.49
428.001	3442.64
428.209	3841.99
428.417	3686.34
428.624	3948.48
428.832	3995.59
429.039	3995.59
429.247	4059.07
429.454	4413.37
429.662	4560.83
429.869	4392.89
430.076	4659.13
430.284	4573.11
430.491	4845.49
430.699	5093.3
430.906	4962.23
431.114	5048.24
431.321	5273.52
431.528	5474.22
431.736	5666.73
431.943	5937.06
432.15	5820.33
432.358	5883.81
432.565	6205.35
432.772	5996.45
432.979	6397.85
433.187	6539.16
433.394	6561.69
433.601	7143.31
433.808	7028.63
434.016	6827.93
434.223	7194.51
434.43	7735.18
434.637	7583.63
434.844	7954.31
435.052	8189.83
435.259	8118.15
435.466	8320.9
435.673	8058.76
435.88	8673.15
436.087	9207.67
436.294	9099.13
436.501	8847.22
436.708	9127.8
436.915	9396.08
437.122	9879.4
437.329	9854.83
437.537	10022.76
437.743	10264.42
437.95	10098.53
438.157	10712.92
438.364	11093.85
438.571	10983.26
438.778	11069.27
438.985	12083.02
439.192	11759.44
439.399	12013.38
439.606	11704.14
439.813	12224.33
440.02	12971.83
440.227	12959.55
440.433	12844.86
440.64	13287.22
440.847	13096.76
441.054	13500.21
441.261	14233.38
441.467	14212.9
441.674	14456.61
441.881	15005.47
442.088	15034.14
442.294	14647.07
442.501	15331.09
442.708	15279.89
442.914	15873.81
443.121	16731.9
443.328	16125.71
443.534	17442.55
443.741	16994.04
443.948	16723.71
444.154	17827.57
444.361	17676.02
444.568	17827.57
444.774	17696.5
444.981	18134.76
445.187	18591.46
445.394	19363.54
445.6	19291.87
445.807	20917.95
446.013	20197.07
446.22	20459.21
446.426	21018.3
446.633	21448.38
446.839	21915.31
447.046	21393.08
447.252	22402.73
447.459	22572.71
447.665	22447.79
447.871	23428.76
448.078	24352.4
448.284	23051.94
448.491	23799.44
448.697	24825.48
448.903	25097.86
449.11	24852.1
449.316	24487.56
449.522	25093.76
449.728	25794.17
449.935	25964.15
450.141	25767.54
450.347	26441.32
450.553	25599.61
450.76	25853.56
450.966	26566.25
451.172	26334.83
451.378	27049.57
451.584	26572.39
451.791	27237.98
451.997	27147.87
452.203	27655.77
452.409	27369.05
452.615	27090.53
452.821	26300.01
453.027	26052.21
453.233	26977.89
453.44	26277.49
453.646	26023.54
453.852	26656.36
454.058	27012.71
454.264	25994.87
454.47	26564.2
454.676	25937.52
454.882	26504.81
455.088	24454.79
455.294	24567.43
455.5	24977.03
455.705	25450.11
455.911	24342.16
456.117	24024.72
456.323	23557.78
456.529	22136.49
456.735	23129.76
456.941	22451.88
457.147	22255.28
457.352	21335.74
457.558	21176
457.764	21444.28
457.97	20960.96
458.176	20483.78
458.381	20565.7
458.587	19474.13
458.793	19338.97
458.999	18632.42
459.204	19740.37
459.41	19164.89
459.616	18020.08
459.821	17514.23
460.027	17975.02
460.233	17219.32
460.438	16291.59
460.644	16850.69
460.85	16025.36
461.055	15918.86
461.261	15865.61
461.466	14501.67
461.672	14305.06
461.878	15300.37
462.083	14378.79
462.289	13825.84
462.494	13977.39
462.7	13207.35
462.905	13049.66
463.111	13391.67
463.316	13397.81
463.522	13102.9
463.727	12873.53
463.932	12984.12
464.138	12908.35
464.343	12963.64
464.549	12764.99
464.754	12998.46
464.959	13023.03
465.165	12928.83
465.37	12322.63
465.575	11999.05
465.781	12314.44
465.986	12447.55
466.191	12089.16
466.397	11726.67
466.602	11405.14
466.807	11671.37
467.012	11632.46
467.218	11728.72
467.423	11396.95
467.628	11571.02
467.833	12171.08
