Data from USB4F104151__69__10-24-03-582.txt Node

Date: Wed Mar 12 10:24:03 EDT 2025
User: louis
Spectrometer: USB4F10415
Trigger mode: 4
Integration Time (sec): 3.000000E-2
Scans to average: 1
Electric dark correction enabled: true
Nonlinearity correction enabled: false
Boxcar width: 0
XAxis mode: Wavelengths
Number of Pixels in Spectrum: 3648
>>>>>Begin Spectral Data<<<<<
178.204	-90.62
178.424	-90.62
178.644	-90.62
178.864	-80.38
179.084	-127.49
179.304	-2.56
179.524	40.45
179.744	-23.04
179.964	32.26
180.184	-45.57
180.404	-37.38
180.624	24.06
180.844	-43.52
181.064	-57.86
181.283	81.41
181.503	-14.85
181.723	46.59
181.943	-70.14
182.163	36.35
182.383	22.02
182.602	24.06
182.822	34.3
183.042	48.64
183.262	17.92
183.482	-2.56
183.701	-31.23
183.921	-0.51
184.141	71.17
184.361	124.41
184.58	34.3
184.8	-16.9
185.02	-27.14
185.239	56.83
185.459	15.87
185.679	-16.9
185.898	28.16
186.118	65.02
186.338	79.36
186.557	87.55
186.777	1.54
186.997	11.78
187.216	34.3
187.436	122.37
187.655	75.26
187.875	97.79
188.095	50.69
188.314	-8.7
188.534	22.02
188.753	34.3
188.973	-74.24
189.192	89.6
189.412	-59.9
189.631	46.59
189.851	65.02
190.07	46.59
190.29	-6.66
190.509	-4.61
190.729	79.36
190.948	-39.42
191.168	48.64
191.387	-10.75
191.607	7.68
191.826	15.87
192.045	-0.51
192.265	65.02
192.484	-4.61
192.704	5.63
192.923	-39.42
193.142	42.5
193.362	-29.18
193.581	28.16
193.8	48.64
194.02	5.63
194.239	54.78
194.458	38.4
194.678	9.73
194.897	11.78
195.116	5.63
195.335	79.36
195.555	-12.8
195.774	83.45
195.993	128.51
196.212	28.16
196.432	-25.09
196.651	42.5
196.87	54.78
197.089	42.5
197.308	17.92
197.528	83.45
197.747	-20.99
197.966	73.21
198.185	122.37
198.404	-8.7
198.623	-6.66
198.842	19.97
199.062	67.07
199.281	-4.61
199.5	28.16
199.719	89.6
199.938	153.09
200.157	103.93
200.376	50.69
200.595	34.3
200.814	144.89
201.033	28.16
201.252	50.69
201.471	-10.75
201.69	67.07
201.909	17.92
202.128	85.5
202.347	-0.51
202.566	69.12
202.785	40.45
203.004	38.4
203.223	122.37
203.442	26.11
203.661	85.5
203.879	22.02
204.098	54.78
204.317	28.16
204.536	38.4
204.755	7.68
204.974	58.88
205.193	48.64
205.411	67.07
205.63	77.31
205.849	44.54
206.068	97.79
206.287	19.97
206.505	32.26
206.724	62.98
206.943	-4.61
207.162	15.87
207.381	83.45
207.599	40.45
207.818	54.78
208.037	-43.52
208.255	34.3
208.474	50.69
208.693	44.54
208.911	5.63
209.13	28.16
209.349	67.07
209.567	71.17
209.786	108.03
210.005	1.54
210.223	5.63
210.442	40.45
210.661	99.84
210.879	42.5
211.098	62.98
211.316	42.5
211.535	56.83
211.753	85.5
211.972	44.54
212.191	26.11
212.409	75.26
212.628	103.93
212.846	-4.61
213.065	36.35
213.283	65.02
213.502	7.68
213.72	71.17
213.938	36.35
214.157	11.78
214.375	38.4
214.594	22.02
214.812	-39.42
215.031	30.21
215.249	-2.56
215.467	65.02
215.686	11.78
215.904	99.84
216.122	116.22
216.341	62.98
216.559	48.64
216.778	44.54
216.996	7.68
217.214	-0.51
217.432	24.06
217.651	-16.9
217.869	36.35
218.087	5.63
218.306	36.35
218.524	1.54
218.742	-23.04
218.96	-0.51
219.179	26.11
219.397	65.02
219.615	79.36
219.833	11.78
220.051	58.88
220.27	118.27
220.488	97.79
220.706	17.92
220.924	24.06
221.142	67.07
221.36	1.54
221.578	-12.8
221.796	11.78
222.015	73.21
222.233	22.02
222.451	65.02
222.669	-23.04
222.887	32.26
223.105	-37.38
223.323	81.41
223.541	3.58
223.759	46.59
223.977	24.06
224.195	71.17
224.413	54.78
224.631	93.69
224.849	17.92
225.067	101.89
225.285	-4.61
225.503	73.21
225.721	1.54
225.939	-16.9
226.157	26.11
226.375	157.18
226.592	7.68
226.81	38.4
227.028	11.78
227.246	62.98
227.464	67.07
227.682	58.88
227.9	32.26
228.117	77.31
228.335	26.11
228.553	50.69
228.771	30.21
228.989	58.88
229.206	-25.09
229.424	50.69
229.642	32.26
229.86	30.21
230.077	34.3
230.295	73.21
230.513	116.22
230.731	30.21
230.948	46.59
231.166	58.88
231.384	32.26
231.601	89.6
231.819	60.93
232.037	11.78
232.254	54.78
232.472	44.54
232.689	71.17
232.907	73.21
233.125	130.56
233.342	-61.95
233.56	22.02
233.777	28.16
233.995	19.97
234.213	81.41
234.43	83.45
234.648	28.16
234.865	22.02
235.083	69.12
235.3	69.12
235.518	32.26
235.735	58.88
235.953	34.3
236.17	75.26
236.388	-10.75
236.605	42.5
236.822	83.45
237.04	5.63
237.257	79.36
237.475	30.21
237.692	-2.56
237.909	54.78
238.127	-23.04
238.344	81.41
238.562	44.54
238.779	58.88
238.996	38.4
239.214	46.59
239.431	46.59
239.648	7.68
239.865	-16.9
240.083	83.45
240.3	34.3
240.517	52.74
240.735	40.45
240.952	34.3
241.169	112.13
241.386	22.02
241.603	62.98
241.821	30.21
242.038	118.27
242.255	32.26
242.472	58.88
242.689	56.83
242.907	83.45
243.124	54.78
243.341	54.78
243.558	26.11
243.775	-14.85
243.992	-16.9
244.209	5.63
244.426	77.31
244.643	-10.75
244.86	7.68
245.078	91.65
245.295	73.21
245.512	34.3
245.729	11.78
245.946	40.45
246.163	-8.7
246.38	-49.66
246.597	77.31
246.814	91.65
247.031	112.13
247.248	5.63
247.464	103.93
247.681	105.98
247.898	62.98
248.115	-6.66
248.332	19.97
248.549	38.4
248.766	136.7
248.983	22.02
249.2	75.26
249.417	32.26
249.633	62.98
249.85	17.92
250.067	34.3
250.284	75.26
250.501	165.37
250.717	46.59
250.934	65.02
251.151	-6.66
251.368	58.88
251.585	97.79
251.801	48.64
252.018	7.68
252.235	114.17
252.451	40.45
252.668	60.93
252.885	67.07
253.102	24.06
253.318	17.92
253.535	36.35
253.752	26.11
253.968	58.88
254.185	19.97
254.401	42.5
254.618	19.97
254.835	15.87
255.051	71.17
255.268	32.26
255.484	44.54
255.701	-10.75
255.917	198.14
256.134	-8.7
256.351	83.45
256.567	-49.66
256.784	91.65
257	3.58
257.217	69.12
257.433	58.88
257.65	85.5
257.866	34.3
258.082	50.69
258.299	75.26
258.515	42.5
258.732	48.64
258.948	24.06
259.165	75.26
259.381	54.78
259.597	58.88
259.814	13.82
260.03	36.35
260.246	-16.9
260.463	48.64
260.679	67.07
260.895	34.3
261.112	50.69
261.328	17.92
261.544	9.73
261.761	146.94
261.977	3.58
262.193	-20.99
262.409	17.92
262.626	50.69
262.842	40.45
263.058	-10.75
263.274	71.17
263.49	83.45
263.707	77.31
263.923	9.73
264.139	17.92
264.355	122.37
264.571	24.06
264.787	34.3
265.004	58.88
265.22	-12.8
265.436	97.79
265.652	99.84
265.868	-6.66
266.084	-14.85
266.3	81.41
266.516	85.5
266.732	58.88
266.948	32.26
267.164	17.92
267.38	-14.85
267.596	38.4
267.812	17.92
268.028	30.21
268.244	48.64
268.46	19.97
268.676	36.35
268.892	58.88
269.108	1.54
269.324	30.21
269.54	60.93
269.756	38.4
269.972	1.54
270.188	26.11
270.403	75.26
270.619	44.54
270.835	38.4
271.051	19.97
271.267	-10.75
271.483	50.69
271.698	44.54
271.914	30.21
272.13	148.99
272.346	60.93
272.562	30.21
272.777	91.65
272.993	56.83
273.209	1.54
273.425	22.02
273.64	32.26
273.856	26.11
274.072	15.87
274.287	34.3
274.503	15.87
274.719	62.98
274.934	97.79
275.15	50.69
275.366	75.26
275.581	42.5
275.797	46.59
276.012	42.5
276.228	17.92
276.444	3.58
276.659	83.45
276.875	81.41
277.09	-27.14
277.306	-20.99
277.521	75.26
277.737	50.69
277.952	15.87
278.168	75.26
278.383	83.45
278.599	36.35
278.814	83.45
279.03	46.59
279.245	52.74
279.461	34.3
279.676	42.5
279.892	5.63
280.107	30.21
280.322	95.74
280.538	40.45
280.753	26.11
280.969	38.4
281.184	67.07
281.399	58.88
281.615	60.93
281.83	75.26
282.045	24.06
282.26	48.64
282.476	34.3
282.691	19.97
282.906	7.68
283.122	30.21
283.337	-0.51
283.552	38.4
283.767	48.64
283.983	67.07
284.198	56.83
284.413	60.93
284.628	50.69
284.843	81.41
285.058	56.83
285.274	89.6
285.489	81.41
285.704	50.69
285.919	22.02
286.134	1.54
286.349	89.6
286.564	17.92
286.779	122.37
286.995	15.87
287.21	-43.52
287.425	65.02
287.64	-10.75
287.855	24.06
288.07	48.64
288.285	81.41
288.5	110.08
288.715	93.69
288.93	103.93
289.145	-8.7
289.36	75.26
289.575	-25.09
289.79	54.78
290.004	103.93
290.219	52.74
290.434	15.87
290.649	11.78
290.864	-43.52
291.079	22.02
291.294	89.6
291.509	34.3
291.724	46.59
291.938	73.21
292.153	36.35
292.368	-25.09
292.583	34.3
292.798	81.41
293.012	32.26
293.227	87.55
293.442	7.68
293.657	132.61
293.871	103.93
294.086	17.92
294.301	91.65
294.516	48.64
294.73	11.78
294.945	67.07
295.16	40.45
295.374	77.31
295.589	56.83
295.804	-0.51
296.018	32.26
296.233	148.99
296.447	19.97
296.662	-6.66
296.877	-0.51
297.091	5.63
297.306	54.78
297.52	30.21
297.735	9.73
297.949	42.5
298.164	71.17
298.378	36.35
298.593	58.88
298.807	24.06
299.022	15.87
299.236	26.11
299.451	19.97
299.665	24.06
299.88	17.92
300.094	50.69
300.309	62.98
300.523	-6.66
300.737	5.63
300.952	79.36
301.166	22.02
301.381	24.06
301.595	-6.66
301.809	19.97
302.024	69.12
302.238	58.88
302.452	69.12
302.667	77.31
302.881	38.4
303.095	36.35
303.309	105.98
303.524	-0.51
303.738	48.64
303.952	15.87
304.166	9.73
304.381	38.4
304.595	54.78
304.809	58.88
305.023	58.88
305.237	-4.61
305.452	-4.61
305.666	11.78
305.88	44.54
306.094	67.07
306.308	75.26
306.522	38.4
306.736	11.78
306.95	-6.66
307.164	79.36
307.379	-14.85
307.593	46.59
307.807	83.45
308.021	140.8
308.235	42.5
308.449	122.37
308.663	58.88
308.877	83.45
309.091	40.45
309.305	85.5
309.519	28.16
309.733	54.78
309.947	-2.56
310.161	9.73
310.374	48.64
310.588	112.13
310.802	1.54
311.016	75.26
311.23	34.3
311.444	30.21
311.658	73.21
311.872	42.5
312.085	-10.75
312.299	91.65
312.513	65.02
312.727	1.54
312.941	-8.7
313.154	7.68
313.368	65.02
313.582	32.26
313.796	30.21
314.009	136.7
314.223	105.98
314.437	46.59
314.651	56.83
314.864	67.07
315.078	38.4
315.292	50.69
315.505	15.87
315.719	46.59
315.933	73.21
316.146	-39.42
316.36	48.64
316.573	60.93
316.787	44.54
317.001	69.12
317.214	34.3
317.428	5.63
317.641	40.45
317.855	-10.75
318.068	130.56
318.282	7.68
318.495	165.37
318.709	1.54
318.922	46.59
319.136	7.68
319.349	91.65
319.563	22.02
319.776	44.54
319.99	17.92
320.203	128.51
320.417	-2.56
320.63	54.78
320.843	99.84
321.057	95.74
321.27	116.22
321.483	77.31
321.697	97.79
321.91	48.64
322.124	91.65
322.337	32.26
322.55	73.21
322.763	95.74
322.977	93.69
323.19	19.97
323.403	79.36
323.617	-18.94
323.83	91.65
324.043	60.93
324.256	-27.14
324.469	42.5
324.683	87.55
324.896	36.35
325.109	44.54
325.322	-25.09
325.535	85.5
325.748	30.21
325.962	34.3
326.175	65.02
326.388	124.41
326.601	83.45
326.814	11.78
327.027	24.06
327.24	83.45
327.453	-86.53
327.666	116.22
327.879	62.98
328.092	54.78
328.305	81.41
328.518	28.16
328.731	15.87
328.944	1.54
329.157	62.98
329.37	1.54
329.583	54.78
329.796	79.36
330.009	77.31
330.222	91.65
330.435	32.26
330.648	46.59
330.861	95.74
331.073	36.35
331.286	65.02
331.499	75.26
331.712	-27.14
331.925	50.69
332.138	73.21
332.35	69.12
332.563	50.69
332.776	91.65
332.989	40.45
333.202	67.07
333.414	40.45
333.627	48.64
333.84	-12.8
334.053	124.41
334.265	1.54
334.478	108.03
334.691	116.22
334.903	105.98
335.116	-20.99
335.329	93.69
335.541	67.07
335.754	67.07
335.966	-8.7
336.179	103.93
336.392	50.69
336.604	9.73
336.817	91.65
337.029	30.21
337.242	128.51
337.454	110.08
337.667	30.21
337.88	165.37
338.092	42.5
338.305	110.08
338.517	62.98
338.729	85.5
338.942	110.08
339.154	112.13
339.367	36.35
339.579	83.45
339.792	32.26
340.004	97.79
340.217	7.68
340.429	54.78
340.641	1.54
340.854	34.3
341.066	48.64
341.278	26.11
341.491	165.37
341.703	95.74
341.915	3.58
342.128	69.12
342.34	46.59
342.552	50.69
342.764	54.78
342.977	50.69
343.189	42.5
343.401	44.54
343.613	-31.23
343.826	38.4
344.038	58.88
344.25	46.59
344.462	-20.99
344.674	48.64
344.886	24.06
345.099	11.78
345.311	75.26
345.523	87.55
345.735	-18.94
345.947	-8.7
346.159	34.3
346.371	-0.51
346.583	103.93
346.795	93.69
347.007	93.69
347.219	116.22
347.431	52.74
347.643	13.82
347.855	60.93
348.067	58.88
348.279	105.98
348.491	38.4
348.703	62.98
348.915	58.88
349.127	24.06
349.339	83.45
349.551	-0.51
349.763	-20.99
349.975	42.5
350.187	48.64
350.399	19.97
350.61	87.55
350.822	34.3
351.034	34.3
351.246	91.65
351.458	75.26
351.669	114.17
351.881	108.03
352.093	101.89
352.305	112.13
352.517	22.02
352.728	54.78
352.94	101.89
353.152	22.02
353.363	65.02
353.575	71.17
353.787	140.8
353.999	132.61
354.21	108.03
354.422	24.06
354.633	-2.56
354.845	46.59
355.057	42.5
355.268	71.17
355.48	-6.66
355.692	65.02
355.903	75.26
356.115	9.73
356.326	5.63
356.538	108.03
356.749	65.02
356.961	144.89
357.172	46.59
357.384	15.87
357.595	67.07
357.807	52.74
358.018	83.45
358.23	38.4
358.441	124.41
358.653	73.21
358.864	7.68
359.075	26.11
359.287	-8.7
359.498	99.84
359.709	40.45
359.921	85.5
360.132	48.64
360.344	13.82
360.555	81.41
360.766	71.17
360.977	1.54
361.189	28.16
361.4	-12.8
361.611	93.69
361.823	108.03
362.034	48.64
362.245	42.5
362.456	26.11
362.667	44.54
362.879	15.87
363.09	56.83
363.301	38.4
363.512	34.3
363.723	105.98
363.935	-12.8
364.146	124.41
364.357	46.59
364.568	85.5
364.779	54.78
364.99	42.5
365.201	-12.8
365.412	93.69
365.623	-0.51
365.834	62.98
366.045	67.07
366.256	103.93
366.467	62.98
366.678	-8.7
366.889	13.82
367.1	44.54
367.311	75.26
367.522	17.92
367.733	34.3
367.944	85.5
368.155	79.36
368.366	79.36
368.577	-25.09
368.788	62.98
368.999	-6.66
369.209	116.22
369.42	218.62
369.631	87.55
369.842	60.93
370.053	42.5
370.264	71.17
370.474	42.5
370.685	73.21
370.896	11.78
371.107	103.93
371.317	65.02
371.528	54.78
371.739	81.41
371.95	67.07
372.16	42.5
372.371	-29.18
372.582	67.07
372.792	79.36
373.003	108.03
373.214	89.6
373.424	116.22
373.635	48.64
373.846	38.4
374.056	17.92
374.267	56.83
374.477	-37.38
374.688	34.3
374.898	58.88
375.109	101.89
375.319	46.59
375.53	126.46
375.74	42.5
375.951	30.21
376.161	40.45
376.372	77.31
376.582	-10.75
376.793	112.13
377.003	42.5
377.214	87.55
377.424	97.79
377.635	108.03
377.845	1.54
378.055	87.55
378.266	-18.94
378.476	79.36
378.686	5.63
378.897	192
379.107	83.45
379.317	-2.56
379.528	48.64
379.738	67.07
379.948	40.45
380.158	56.83
380.369	97.79
380.579	36.35
380.789	-68.09
380.999	44.54
381.21	103.93
381.42	116.22
381.63	95.74
381.84	75.26
382.05	54.78
382.261	116.22
382.471	67.07
382.681	32.26
382.891	132.61
383.101	73.21
383.311	1.54
383.521	77.31
383.731	87.55
383.941	19.97
384.151	56.83
384.361	30.21
384.571	99.84
384.781	89.6
384.991	50.69
385.201	89.6
385.411	89.6
385.621	50.69
385.831	89.6
386.041	22.02
386.251	71.17
386.461	136.7
386.671	22.02
386.881	50.69
387.091	44.54
387.301	91.65
387.511	48.64
387.72	65.02
387.93	26.11
388.14	48.64
388.35	103.93
388.56	75.26
388.769	155.13
388.979	44.54
389.189	62.98
389.399	32.26
389.609	79.36
389.818	40.45
390.028	87.55
390.238	50.69
390.447	56.83
390.657	95.74
390.867	99.84
391.076	15.87
391.286	40.45
391.496	103.93
391.705	71.17
391.915	124.41
392.125	89.6
392.334	65.02
392.544	71.17
392.753	50.69
392.963	38.4
393.172	151.04
393.382	77.31
393.591	124.41
393.801	103.93
394.01	132.61
394.22	108.03
394.429	11.78
394.639	13.82
394.848	87.55
395.058	122.37
395.267	75.26
395.477	155.13
395.686	122.37
395.895	151.04
396.105	87.55
396.314	97.79
396.524	116.22
396.733	130.56
396.942	116.22
397.152	108.03
397.361	146.94
397.57	101.89
397.78	146.94
397.989	62.98
398.198	108.03
398.407	81.41
398.617	136.7
398.826	95.74
399.035	22.02
399.244	108.03
399.453	58.88
399.663	138.75
399.872	77.31
400.081	124.41
400.29	140.8
400.499	93.69
400.708	140.8
400.917	38.4
401.127	148.99
401.336	110.08
401.545	216.57
401.754	173.57
401.963	151.04
402.172	95.74
402.381	140.8
402.59	155.13
402.799	130.56
403.008	140.8
403.217	110.08
403.426	230.91
403.635	140.8
403.844	52.74
404.053	173.57
404.262	120.32
404.471	134.65
404.68	173.57
404.888	163.33
405.097	93.69
405.306	169.47
405.515	202.24
405.724	169.47
405.933	175.61
406.142	202.24
406.35	230.91
406.559	198.14
406.768	179.71
406.977	292.35
407.185	183.81
407.394	224.76
407.603	159.23
407.812	185.85
408.02	222.72
408.229	228.86
408.438	204.28
408.646	222.72
408.855	290.3
409.064	222.72
409.272	204.28
409.481	308.73
409.69	275.96
409.898	222.72
410.107	343.55
410.315	296.44
410.524	273.92
410.733	308.73
410.941	247.29
411.15	429.56
411.358	407.03
411.567	384.51
411.775	378.36
411.984	364.03
412.192	411.13
412.401	398.84
412.609	546.3
412.818	484.86
413.026	460.28
413.234	484.86
413.443	495.1
413.651	572.92
413.86	566.78
414.068	462.33
414.276	615.93
414.485	570.87
414.693	632.31
414.901	648.69
415.11	669.17
415.318	607.73
415.526	710.13
415.734	790
415.943	703.99
416.151	792.05
416.359	861.68
416.567	812.53
416.776	865.78
416.984	916.98
417.192	878.07
417.4	923.12
417.608	943.6
417.817	1011.18
418.025	1093.1
418.233	1189.36
418.441	1029.62
418.649	1107.44
418.857	1250.8
419.065	1218.03
419.273	1238.51
419.481	1338.86
419.689	1408.49
419.897	1453.55
420.105	1347.05
420.313	1512.94
420.521	1447.4
420.729	1582.57
420.937	1619.43
421.145	1754.6
421.353	1697.25
421.561	1742.31
421.769	1844.71
421.977	1955.3
422.185	1836.52
422.393	2031.07
422.601	2080.22
422.809	2186.72
423.017	2156
423.224	2307.55
423.432	2266.59
423.64	2262.49
423.848	2532.83
424.056	2516.44
424.263	2633.18
424.471	2641.37
424.679	2778.58
424.887	2840.02
425.094	3096.02
425.302	2958.8
425.51	2987.47
425.718	3167.7
425.925	3167.7
426.133	3470.8
426.341	3425.74
426.548	3636.68
426.756	3659.21
426.964	3800.52
427.171	3894.72
427.379	4132.29
427.586	4175.3
427.794	4154.82
428.001	4369.85
428.209	4486.59
428.417	4480.44
428.624	4812.21
428.832	4789.69
429.039	4842.93
429.247	4849.08
429.454	5186.99
429.662	5641.64
429.869	5262.77
430.076	5641.64
430.284	5490.09
430.491	5655.98
430.699	5920.17
430.906	6018.47
431.114	6225.31
431.321	6313.38
431.528	6366.62
431.736	6800.79
431.943	7187.86
432.15	6905.24
432.358	7034.26
432.565	7327.12
432.772	7316.88
432.979	7845.26
433.187	7972.23
433.394	7937.41
433.601	8590.72
433.808	8596.86
434.016	8367.49
434.223	8629.63
434.43	9407.86
434.637	9125.24
434.844	9706.86
435.052	9811.31
435.259	9930.09
435.466	10055.01
435.673	9764.2
435.88	10261.86
436.087	10786.14
436.294	10992.98
436.501	10771.8
436.708	11062.62
436.915	11588.94
437.122	11937.1
437.329	11877.71
437.537	12238.15
437.743	12162.37
437.95	12148.04
438.157	12838.2
438.364	13425.97
438.571	13212.98
438.778	13260.09
438.985	14710.05
439.192	13915.44
439.399	14474.53
439.606	14093.61
439.813	14873.89
440.02	15674.64
440.227	15654.16
440.433	15451.41
440.64	15871.25
440.847	15893.77
441.054	16098.57
441.261	17259.77
441.467	16999.68
441.674	17302.78
441.881	18124.01
442.088	18035.95
442.294	17788.14
442.501	18341.1
442.708	18713.83
442.914	19580.12
443.121	19983.57
443.328	19612.88
443.534	20903.11
443.741	20309.19
443.948	20045.01
444.154	21673.14
444.361	21380.28
444.568	21490.87
444.774	21568.69
444.981	21740.72
445.187	22551.72
445.394	23354.52
445.6	22863.01
445.807	25431.16
446.013	24353.93
446.22	24634.5
446.426	25308.29
446.633	25648.25
446.839	26475.63
447.046	25382.01
447.252	26731.62
447.459	26823.78
447.665	27173.99
447.871	27858.01
448.078	28894.28
448.284	27782.23
448.491	28619.85
448.697	29494.33
448.903	30108.72
449.11	30053.43
449.316	28990.53
449.522	30297.14
449.728	30569.52
449.935	31065.13
450.141	31263.78
450.347	32193.56
450.553	31054.89
450.76	31022.12
450.966	31910.94
451.172	31792.15
451.378	32437.27
451.584	32132.12
451.791	32467.98
451.997	32336.91
452.203	33246.21
452.409	32723.98
452.615	32713.74
452.821	31761.44
453.027	31390.75
453.233	32613.39
453.44	31585.31
453.646	31685.66
453.852	31939.61
454.058	31992.86
454.264	31071.27
454.47	32214.04
454.676	31378.47
454.882	32261.14
455.088	29502.53
455.294	29713.47
455.5	30276.66
455.705	30655.53
455.911	29230.15
456.117	28505.17
456.323	28386.38
456.529	26846.31
456.735	27987.03
456.941	27315.3
457.147	26999.91
457.352	26158.19
457.558	25709.69
457.764	25793.65
457.97	25228.42
458.176	24476.81
458.381	24640.65
458.587	23661.72
458.793	23348.38
458.999	22262.96
459.204	24054.93
459.41	23368.86
459.616	21492.92
459.821	21701.81
460.027	21843.12
460.233	21185.72
460.438	20200.65
460.644	20667.59
460.85	19332.31
461.055	19281.11
461.261	19010.78
461.466	17685.75
461.672	17118.46
461.878	18586.85
462.083	17110.27
462.289	16889.09
462.494	16807.17
462.7	15760.66
462.905	15439.12
463.111	16192.78
463.316	16354.57
463.522	15791.38
463.727	15834.38
463.932	15600.91
464.138	15596.82
464.343	15471.89
464.549	15142.17
464.754	15576.34
464.959	15772.94
465.165	15523.09
465.37	14912.8
465.575	14564.64
465.781	14947.61
465.986	14896.41
466.191	14429.48
466.397	14273.83
466.602	13481.27
466.807	14116.14
467.012	14318.89
467.218	13950.25
467.423	14001.45
467.628	13907.24
467.833	14779.68
468.038	13780.27
