Data from USB4F104151__38__10-22-38-721.txt Node

Date: Wed Mar 12 10:22:38 EDT 2025
User: louis
Spectrometer: USB4F10415
Trigger mode: 4
Integration Time (sec): 3.000000E-2
Scans to average: 1
Electric dark correction enabled: true
Nonlinearity correction enabled: false
Boxcar width: 0
XAxis mode: Wavelengths
Number of Pixels in Spectrum: 3648
>>>>>Begin Spectral Data<<<<<
178.204	-43.86
178.424	-43.86
178.644	-43.86
178.864	-160.59
179.084	-99.16
179.304	-2.9
179.524	-19.29
179.744	-29.52
179.964	101.55
180.184	-64.34
180.404	29.87
180.624	52.39
180.844	-41.81
181.064	-82.77
181.283	19.63
181.503	-11.09
181.723	48.3
181.943	-54.1
182.163	40.11
182.383	17.58
182.602	64.68
182.822	29.87
183.042	91.31
183.262	17.58
183.482	-35.67
183.701	-35.67
183.921	-2.9
184.141	21.67
184.361	-2.9
184.58	33.96
184.8	-9.05
185.02	5.29
185.239	58.54
185.459	-4.95
185.679	44.2
185.898	7.34
186.118	64.68
186.338	38.06
186.557	-2.9
186.777	-70.48
186.997	-21.33
187.216	-17.24
187.436	70.83
187.655	58.54
187.875	11.43
188.095	-31.57
188.314	50.35
188.534	46.25
188.753	-17.24
188.973	62.63
189.192	81.07
189.412	-11.09
189.631	-31.57
189.851	46.25
190.07	122.02
190.29	15.53
190.509	42.15
190.729	29.87
190.948	-13.14
191.168	160.94
191.387	87.21
191.607	1.19
191.826	60.59
192.045	3.24
192.265	7.34
192.484	3.24
192.704	-47.96
192.923	15.53
193.142	66.73
193.362	19.63
193.581	11.43
193.8	46.25
194.02	54.44
194.239	-13.14
194.458	68.78
194.678	-0.85
194.897	42.15
195.116	-50
195.335	13.48
195.555	33.96
195.774	33.96
195.993	5.29
196.212	-27.48
196.432	-27.48
196.651	21.67
196.87	23.72
197.089	56.49
197.308	-17.24
197.528	-19.29
197.747	-43.86
197.966	72.87
198.185	-2.9
198.404	-0.85
198.623	42.15
198.842	-23.38
199.062	56.49
199.281	-7
199.5	62.63
199.719	58.54
199.938	11.43
200.157	33.96
200.376	40.11
200.595	91.31
200.814	58.54
201.033	23.72
201.252	-13.14
201.471	5.29
201.69	21.67
201.909	-2.9
202.128	44.2
202.347	31.91
202.566	38.06
202.785	-9.05
203.004	-56.15
203.223	99.5
203.442	-29.52
203.661	60.59
203.879	-43.86
204.098	27.82
204.317	-9.05
204.536	56.49
204.755	27.82
204.974	5.29
205.193	27.82
205.411	17.58
205.63	36.01
205.849	-27.48
206.068	21.67
206.287	-27.48
206.505	-27.48
206.724	-15.19
206.943	-45.91
207.162	13.48
207.381	42.15
207.599	64.68
207.818	25.77
208.037	-13.14
208.255	25.77
208.474	-54.1
208.693	-0.85
208.911	31.91
209.13	-37.72
209.349	38.06
209.567	27.82
209.786	48.3
210.005	62.63
210.223	38.06
210.442	-7
210.661	-29.52
210.879	-35.67
211.098	42.15
211.316	-31.57
211.535	36.01
211.753	-19.29
211.972	5.29
212.191	-19.29
212.409	17.58
212.628	11.43
212.846	64.68
213.065	15.53
213.283	7.34
213.502	17.58
213.72	72.87
213.938	50.35
214.157	-64.34
214.375	62.63
214.594	83.11
214.812	44.2
215.031	9.39
215.249	42.15
215.467	54.44
215.686	15.53
215.904	97.45
216.122	11.43
216.341	44.2
216.559	-4.95
216.778	46.25
216.996	17.58
217.214	27.82
217.432	-23.38
217.651	-58.2
217.869	56.49
218.087	62.63
218.306	40.11
218.524	83.11
218.742	-21.33
218.96	97.45
219.179	38.06
219.397	-29.52
219.615	-4.95
219.833	60.59
220.051	62.63
220.27	-66.39
220.488	50.35
220.706	62.63
220.924	-11.09
221.142	-9.05
221.36	-17.24
221.578	1.19
221.796	-21.33
222.015	46.25
222.233	46.25
222.451	48.3
222.669	87.21
222.887	-0.85
223.105	38.06
223.323	83.11
223.541	5.29
223.759	40.11
223.977	40.11
224.195	68.78
224.413	36.01
224.631	29.87
224.849	21.67
225.067	13.48
225.285	42.15
225.503	52.39
225.721	-35.67
225.939	-68.44
226.157	-11.09
226.375	142.5
226.592	-0.85
226.81	-70.48
227.028	52.39
227.246	76.97
227.464	-13.14
227.682	27.82
227.9	5.29
228.117	58.54
228.335	-31.57
228.553	31.91
228.771	13.48
228.989	17.58
229.206	95.4
229.424	38.06
229.642	56.49
229.86	38.06
230.077	81.07
230.295	62.63
230.513	31.91
230.731	33.96
230.948	62.63
231.166	74.92
231.384	11.43
231.601	-15.19
231.819	70.83
232.037	15.53
232.254	38.06
232.472	-27.48
232.689	-56.15
232.907	33.96
233.125	29.87
233.342	21.67
233.56	70.83
233.777	-25.43
233.995	21.67
234.213	74.92
234.43	-35.67
234.648	52.39
234.865	13.48
235.083	74.92
235.3	-39.76
235.518	-33.62
235.735	50.35
235.953	29.87
236.17	-35.67
236.388	70.83
236.605	-43.86
236.822	58.54
237.04	29.87
237.257	42.15
237.475	36.01
237.692	-29.52
237.909	9.39
238.127	54.44
238.344	-9.05
238.562	58.54
238.779	-52.05
238.996	15.53
239.214	85.16
239.431	107.69
239.648	33.96
239.865	27.82
240.083	50.35
240.3	60.59
240.517	-60.24
240.735	11.43
240.952	25.77
241.169	25.77
241.386	42.15
241.603	-17.24
241.821	-4.95
242.038	64.68
242.255	13.48
242.472	19.63
242.689	-19.29
242.907	21.67
243.124	42.15
243.341	-31.57
243.558	-19.29
243.775	95.4
243.992	-17.24
244.209	-13.14
244.426	83.11
244.643	60.59
244.86	52.39
245.078	62.63
245.295	27.82
245.512	-15.19
245.729	7.34
245.946	89.26
246.163	21.67
246.38	17.58
246.597	-4.95
246.814	70.83
247.031	-11.09
247.248	46.25
247.464	52.39
247.681	66.73
247.898	-11.09
248.115	70.83
248.332	19.63
248.549	36.01
248.766	60.59
248.983	13.48
249.2	60.59
249.417	79.02
249.633	-2.9
249.85	62.63
250.067	-19.29
250.284	46.25
250.501	72.87
250.717	117.93
250.934	-11.09
251.151	-47.96
251.368	19.63
251.585	25.77
251.801	66.73
252.018	-43.86
252.235	33.96
252.451	23.72
252.668	62.63
252.885	87.21
253.102	9.39
253.318	66.73
253.535	33.96
253.752	-13.14
253.968	25.77
254.185	-103.25
254.401	17.58
254.618	23.72
254.835	3.24
255.051	9.39
255.268	64.68
255.484	5.29
255.701	38.06
255.917	72.87
256.134	-52.05
256.351	-13.14
256.567	-0.85
256.784	52.39
257	25.77
257.217	76.97
257.433	52.39
257.65	50.35
257.866	140.46
258.082	-27.48
258.299	27.82
258.515	42.15
258.732	9.39
258.948	-9.05
259.165	-7
259.381	42.15
259.597	68.78
259.814	64.68
260.03	40.11
260.246	64.68
260.463	62.63
260.679	54.44
260.895	87.21
261.112	113.83
261.328	-39.76
261.544	7.34
261.761	64.68
261.977	-27.48
262.193	-7
262.409	97.45
262.626	42.15
262.842	-17.24
263.058	-41.81
263.274	85.16
263.49	70.83
263.707	93.35
263.923	-21.33
264.139	62.63
264.355	-21.33
264.571	19.63
264.787	1.19
265.004	5.29
265.22	103.59
265.436	33.96
265.652	19.63
265.868	31.91
266.084	-11.09
266.3	58.54
266.516	-52.05
266.732	70.83
266.948	38.06
267.164	74.92
267.38	54.44
267.596	52.39
267.812	56.49
268.028	54.44
268.244	-7
268.46	87.21
268.676	17.58
268.892	72.87
269.108	-11.09
269.324	-2.9
269.54	-4.95
269.756	52.39
269.972	83.11
270.188	11.43
270.403	-4.95
270.619	25.77
270.835	-2.9
271.051	66.73
271.267	42.15
271.483	50.35
271.698	-7
271.914	103.59
272.13	-43.86
272.346	-2.9
272.562	99.5
272.777	-7
272.993	-25.43
273.209	9.39
273.425	-27.48
273.64	52.39
273.856	50.35
274.072	54.44
274.287	21.67
274.503	19.63
274.719	-11.09
274.934	44.2
275.15	-0.85
275.366	15.53
275.581	5.29
275.797	25.77
276.012	62.63
276.228	46.25
276.444	74.92
276.659	89.26
276.875	-35.67
277.09	33.96
277.306	-11.09
277.521	42.15
277.737	42.15
277.952	-15.19
278.168	62.63
278.383	25.77
278.599	-13.14
278.814	72.87
279.03	-19.29
279.245	42.15
279.461	-0.85
279.676	70.83
279.892	-13.14
280.107	29.87
280.322	-4.95
280.538	29.87
280.753	62.63
280.969	27.82
281.184	-15.19
281.399	83.11
281.615	-0.85
281.83	72.87
282.045	56.49
282.26	58.54
282.476	58.54
282.691	3.24
282.906	3.24
283.122	66.73
283.337	54.44
283.552	68.78
283.767	5.29
283.983	9.39
284.198	58.54
284.413	44.2
284.628	27.82
284.843	-11.09
285.058	115.88
285.274	36.01
285.489	46.25
285.704	79.02
285.919	11.43
286.134	1.19
286.349	42.15
286.564	33.96
286.779	91.31
286.995	-11.09
287.21	-33.62
287.425	54.44
287.64	81.07
287.855	79.02
288.07	27.82
288.285	13.48
288.5	62.63
288.715	68.78
288.93	-4.95
289.145	3.24
289.36	54.44
289.575	17.58
289.79	54.44
290.004	-58.2
290.219	62.63
290.434	5.29
290.649	-56.15
290.864	-15.19
291.079	81.07
291.294	62.63
291.509	-45.91
291.724	-84.82
291.938	33.96
292.153	25.77
292.368	25.77
292.583	50.35
292.798	54.44
293.012	-2.9
293.227	15.53
293.442	48.3
293.657	21.67
293.871	36.01
294.086	29.87
294.301	83.11
294.516	87.21
294.73	60.59
294.945	-54.1
295.16	62.63
295.374	21.67
295.589	103.59
295.804	-7
296.018	46.25
296.233	70.83
296.447	54.44
296.662	83.11
296.877	29.87
297.091	74.92
297.306	13.48
297.52	-109.4
297.735	15.53
297.949	46.25
298.164	66.73
298.378	89.26
298.593	40.11
298.807	66.73
299.022	103.59
299.236	-2.9
299.451	60.59
299.665	74.92
299.88	1.19
300.094	74.92
300.309	44.2
300.523	76.97
300.737	-15.19
300.952	46.25
301.166	91.31
301.381	-43.86
301.595	-11.09
301.809	109.74
302.024	38.06
302.238	97.45
302.452	54.44
302.667	44.2
302.881	38.06
303.095	54.44
303.309	29.87
303.524	-4.95
303.738	38.06
303.952	7.34
304.166	13.48
304.381	-60.24
304.595	66.73
304.809	72.87
305.023	50.35
305.237	13.48
305.452	23.72
305.666	-25.43
305.88	9.39
306.094	50.35
306.308	62.63
306.522	31.91
306.736	97.45
306.95	29.87
307.164	-4.95
307.379	23.72
307.593	95.4
307.807	5.29
308.021	60.59
308.235	54.44
308.449	21.67
308.663	1.19
308.877	56.49
309.091	93.35
309.305	25.77
309.519	-11.09
309.733	-2.9
309.947	21.67
310.161	95.4
310.374	-31.57
310.588	29.87
310.802	-27.48
311.016	46.25
311.23	79.02
311.444	-43.86
311.658	40.11
311.872	58.54
312.085	46.25
312.299	79.02
312.513	101.55
312.727	111.78
312.941	-52.05
313.154	3.24
313.368	5.29
313.582	46.25
313.796	93.35
314.009	101.55
314.223	91.31
314.437	-11.09
314.651	27.82
314.864	70.83
315.078	-23.38
315.292	29.87
315.505	-17.24
315.719	62.63
315.933	7.34
316.146	13.48
316.36	-25.43
316.573	79.02
316.787	13.48
317.001	27.82
317.214	13.48
317.428	29.87
317.641	-64.34
317.855	17.58
318.068	70.83
318.282	5.29
318.495	87.21
318.709	-4.95
318.922	48.3
319.136	103.59
319.349	66.73
319.563	-27.48
319.776	79.02
319.99	27.82
320.203	62.63
320.417	42.15
320.63	-13.14
320.843	1.19
321.057	38.06
321.27	56.49
321.483	48.3
321.697	132.26
321.91	70.83
322.124	144.55
322.337	95.4
322.55	85.16
322.763	-15.19
322.977	83.11
323.19	7.34
323.403	31.91
323.617	58.54
323.83	66.73
324.043	-39.76
324.256	126.12
324.469	25.77
324.683	-7
324.896	9.39
325.109	11.43
325.322	-25.43
325.535	74.92
325.748	44.2
325.962	60.59
326.175	38.06
326.388	107.69
326.601	54.44
326.814	56.49
327.027	31.91
327.24	105.64
327.453	-2.9
327.666	60.59
327.879	50.35
328.092	62.63
328.305	95.4
328.518	-15.19
328.731	7.34
328.944	36.01
329.157	40.11
329.37	66.73
329.583	68.78
329.796	79.02
330.009	-76.63
330.222	52.39
330.435	17.58
330.648	44.2
330.861	117.93
331.073	52.39
331.286	25.77
331.499	-23.38
331.712	-35.67
331.925	-25.43
332.138	36.01
332.35	25.77
332.563	-39.76
332.776	136.36
332.989	-0.85
333.202	119.98
333.414	-0.85
333.627	21.67
333.84	50.35
334.053	29.87
334.265	62.63
334.478	52.39
334.691	103.59
334.903	5.29
335.116	-31.57
335.329	21.67
335.541	46.25
335.754	56.49
335.966	-2.9
336.179	50.35
336.392	-2.9
336.604	58.54
336.817	74.92
337.029	74.92
337.242	58.54
337.454	140.46
337.667	42.15
337.88	66.73
338.092	87.21
338.305	87.21
338.517	-4.95
338.729	54.44
338.942	144.55
339.154	23.72
339.367	-19.29
339.579	40.11
339.792	62.63
340.004	66.73
340.217	56.49
340.429	54.44
340.641	-47.96
340.854	70.83
341.066	81.07
341.278	-2.9
341.491	58.54
341.703	19.63
341.915	19.63
342.128	66.73
342.34	36.01
342.552	17.58
342.764	-19.29
342.977	54.44
343.189	81.07
343.401	13.48
343.613	-11.09
343.826	36.01
344.038	-13.14
344.25	52.39
344.462	19.63
344.674	36.01
344.886	60.59
345.099	25.77
345.311	-7
345.523	89.26
345.735	5.29
345.947	-56.15
346.159	-19.29
346.371	64.68
346.583	76.97
346.795	70.83
347.007	19.63
347.219	76.97
347.431	-15.19
347.643	42.15
347.855	134.31
348.067	44.2
348.279	40.11
348.491	40.11
348.703	54.44
348.915	13.48
349.127	-70.48
349.339	21.67
349.551	40.11
349.763	113.83
349.975	25.77
350.187	101.55
350.399	29.87
350.61	11.43
350.822	19.63
351.034	3.24
351.246	64.68
351.458	25.77
351.669	-2.9
351.881	66.73
352.093	52.39
352.305	66.73
352.517	36.01
352.728	-11.09
352.94	66.73
353.152	-37.72
353.363	-45.91
353.575	-2.9
353.787	124.07
353.999	74.92
354.21	142.5
354.422	29.87
354.633	38.06
354.845	29.87
355.057	44.2
355.268	21.67
355.48	52.39
355.692	-21.33
355.903	33.96
356.115	70.83
356.326	-54.1
356.538	140.46
356.749	-2.9
356.961	105.64
357.172	17.58
357.384	3.24
357.595	124.07
357.807	79.02
358.018	-35.67
358.23	56.49
358.441	146.6
358.653	3.24
358.864	25.77
359.075	-56.15
359.287	31.91
359.498	42.15
359.709	83.11
359.921	83.11
360.132	85.16
360.344	15.53
360.555	74.92
360.766	56.49
360.977	46.25
361.189	17.58
361.4	19.63
361.611	52.39
361.823	107.69
362.034	42.15
362.245	25.77
362.456	87.21
362.667	74.92
362.879	38.06
363.09	103.59
363.301	68.78
363.512	48.3
363.723	44.2
363.935	74.92
364.146	31.91
364.357	27.82
364.568	103.59
364.779	21.67
364.99	107.69
365.201	66.73
365.412	79.02
365.623	60.59
365.834	111.78
366.045	17.58
366.256	66.73
366.467	29.87
366.678	101.55
366.889	1.19
367.1	60.59
367.311	66.73
367.522	70.83
367.733	44.2
367.944	103.59
368.155	31.91
368.366	62.63
368.577	130.22
368.788	29.87
368.999	19.63
369.209	54.44
369.42	68.78
369.631	130.22
369.842	-23.38
370.053	52.39
370.264	50.35
370.474	-64.34
370.685	48.3
370.896	36.01
371.107	107.69
371.317	128.17
371.528	36.01
371.739	56.49
371.95	91.31
372.16	93.35
372.371	-21.33
372.582	95.4
372.792	89.26
373.003	132.26
373.214	-11.09
373.424	3.24
373.635	5.29
373.846	99.5
374.056	99.5
374.267	17.58
374.477	54.44
374.688	83.11
374.898	23.72
375.109	5.29
375.319	9.39
375.53	54.44
375.74	38.06
375.951	21.67
376.161	50.35
376.372	162.98
376.582	27.82
376.793	21.67
377.003	38.06
377.214	54.44
377.424	25.77
377.635	44.2
377.845	11.43
378.055	83.11
378.266	42.15
378.476	-21.33
378.686	31.91
378.897	70.83
379.107	107.69
379.317	58.54
379.528	-0.85
379.738	17.58
379.948	7.34
380.158	60.59
380.369	158.89
380.579	48.3
380.789	-4.95
380.999	36.01
381.21	64.68
381.42	111.78
381.63	70.83
381.84	15.53
382.05	89.26
382.261	79.02
382.471	25.77
382.681	74.92
382.891	128.17
383.101	105.64
383.311	54.44
383.521	95.4
383.731	29.87
383.941	111.78
384.151	93.35
384.361	62.63
384.571	87.21
384.781	89.26
384.991	58.54
385.201	130.22
385.411	36.01
385.621	40.11
385.831	52.39
386.041	79.02
386.251	58.54
386.461	62.63
386.671	91.31
386.881	38.06
387.091	66.73
387.301	56.49
387.511	76.97
387.72	93.35
387.93	70.83
388.14	31.91
388.35	-21.33
388.56	119.98
388.769	62.63
388.979	46.25
389.189	36.01
389.399	60.59
389.609	136.36
389.818	93.35
390.028	33.96
390.238	187.56
390.447	70.83
390.657	29.87
390.867	68.78
391.076	50.35
391.286	68.78
391.496	76.97
391.705	46.25
391.915	70.83
392.125	109.74
392.334	152.74
392.544	54.44
392.753	62.63
392.963	21.67
393.172	115.88
393.382	5.29
393.591	44.2
393.801	81.07
394.01	74.92
394.22	111.78
394.429	25.77
394.639	23.72
394.848	33.96
395.058	117.93
395.267	95.4
395.477	42.15
395.686	138.41
395.895	115.88
396.105	169.13
396.314	136.36
396.524	74.92
396.733	38.06
396.942	119.98
397.152	101.55
397.361	177.32
397.57	105.64
397.78	150.7
397.989	124.07
398.198	85.16
398.407	76.97
398.617	107.69
398.826	128.17
399.035	23.72
399.244	93.35
399.453	115.88
399.663	128.17
399.872	93.35
400.081	144.55
400.29	91.31
400.499	44.2
400.708	91.31
400.917	119.98
401.127	134.31
401.336	48.3
401.545	171.18
401.754	140.46
401.963	189.61
402.172	136.36
402.381	183.46
402.59	87.21
402.799	128.17
403.008	136.36
403.217	70.83
403.426	179.37
403.635	68.78
403.844	136.36
404.053	124.07
404.262	130.22
404.471	230.57
404.68	191.66
404.888	38.06
405.097	87.21
405.306	185.51
405.515	216.23
405.724	189.61
405.933	242.85
406.142	142.5
406.35	236.71
406.559	144.55
406.768	224.42
406.977	238.76
407.185	230.57
407.394	177.32
407.603	185.51
407.812	224.42
408.02	283.81
408.229	238.76
408.438	283.81
408.646	259.24
408.855	253.09
409.064	322.73
409.272	279.72
409.481	273.57
409.69	298.15
409.898	304.29
410.107	263.33
410.315	355.49
410.524	390.31
410.733	285.86
410.941	382.12
411.15	410.79
411.358	382.12
411.567	408.74
411.775	380.07
411.984	439.46
412.192	421.03
412.401	453.8
412.609	519.33
412.818	490.66
413.026	490.66
413.234	595.11
413.443	617.63
413.651	591.01
413.86	670.88
414.068	627.87
414.276	681.12
414.485	599.2
414.693	685.22
414.901	812.19
415.11	636.06
415.318	822.43
415.526	824.48
415.734	828.57
415.943	883.87
416.151	914.59
416.359	963.74
416.567	941.21
416.776	963.74
416.984	994.46
417.192	1103
417.4	1070.23
417.608	1123.48
417.817	1045.66
418.025	1201.3
418.233	1189.02
418.441	1221.78
418.649	1250.46
418.857	1326.23
419.065	1397.91
419.273	1449.11
419.481	1447.06
419.689	1520.79
419.897	1672.34
420.105	1682.58
420.313	1660.05
420.521	1784.98
420.729	1807.5
420.937	1856.65
421.145	1909.9
421.353	1868.94
421.561	2088.07
421.769	2131.08
421.977	2286.73
422.185	2143.37
422.393	2342.02
422.601	2540.68
422.809	2446.47
423.017	2532.48
423.224	2593.92
423.432	2741.38
423.64	2727.04
423.848	2978.94
424.056	2858.11
424.263	3153.02
424.471	3064.96
424.679	3124.35
424.887	3314.81
425.094	3535.99
425.302	3335.29
425.51	3517.56
425.718	3820.66
425.925	3804.27
426.133	3890.29
426.341	3921.01
426.548	4174.95
426.756	4346.98
426.964	4244.59
427.171	4476.01
427.379	4668.52
427.586	4740.19
427.794	4983.9
428.001	5090.4
428.209	5508.18
428.417	5149.79
428.624	5643.35
428.832	5645.4
429.039	5604.44
429.247	5659.73
429.454	6257.74
429.662	6411.34
429.869	6065.23
430.076	6532.17
430.284	6390.86
430.491	6798.4
430.699	6908.99
430.906	7005.25
431.114	6974.53
431.321	7173.18
431.528	7558.2
431.736	7820.34
431.943	8365.1
432.15	8004.66
432.358	8102.96
432.565	8696.87
432.772	8545.32
432.979	9045.02
433.187	9235.49
433.394	9282.59
433.601	9794.58
433.808	9780.25
434.016	9567.26
434.223	10200.08
434.43	10800.13
434.637	10652.68
434.844	11176.96
435.052	11598.84
435.259	11351.04
435.466	11465.72
435.673	11136
435.88	12291.06
436.087	12682.22
436.294	12549.1
436.501	12530.67
436.708	12655.59
436.915	13253.6
437.122	13593.56
437.329	13673.43
437.537	14334.93
437.743	14261.2
437.95	14332.88
438.157	15094.72
438.364	15414.21
438.571	15430.59
438.778	15676.35
438.985	17038.25
439.192	16315.31
439.399	16853.93
439.606	16554.93
439.813	17138.6
440.02	18523.02
440.227	18086.81
440.433	18113.43
440.64	18439.06
440.847	18539.41
441.054	18883.47
441.261	19913.59
441.467	19770.24
441.674	20028.28
441.881	20996.97
442.088	20775.79
442.294	20618.1
442.501	21250.92
442.708	21531.49
442.914	22557.52
443.121	23644.99
443.328	22793.04
443.534	24662.83
443.741	23733.06
443.948	23395.14
444.154	25271.08
444.361	24879.92
444.568	25131.82
444.774	25334.57
444.981	25135.92
445.187	26065.69
445.394	27110.16
445.6	26651.41
445.807	29166.32
446.013	28220.16
446.22	28439.29
446.426	29428.46
446.633	30272.22
446.839	31068.88
447.046	29780.71
447.252	31437.51
447.459	31359.69
447.665	31204.05
447.871	32551.61
448.078	34032.29
448.284	32602.81
448.491	33084.08
448.697	34462.36
448.903	34769.56
449.11	34734.74
449.316	34742.94
449.522	35007.12
449.728	35871.37
449.935	36006.53
450.141	36276.87
450.347	37055.09
450.553	35783.3
450.76	36196.99
450.966	36895.35
451.172	36944.5
451.378	37546.61
451.584	37034.61
451.791	37929.58
451.997	37585.52
452.203	38107.75
452.409	37825.13
452.615	38165.09
452.821	36612.73
453.027	36285.06
453.233	38652.51
453.44	36452.99
453.646	37163.64
453.852	37182.07
454.058	37456.5
454.264	36649.6
454.47	36967.03
454.676	36268.67
454.882	37386.86
455.088	33968.8
455.294	34955.93
455.5	35101.33
455.705	35508.88
455.911	34226.85
456.117	33303.21
456.323	32957.11
456.529	31126.22
456.735	32400.06
456.941	31687.37
457.147	31423.18
457.352	30255.84
457.558	29811.43
457.764	29717.22
457.97	29307.63
458.176	28592.89
458.381	28683
458.587	27185.93
458.793	27210.51
458.999	26039.07
459.204	27851.52
459.41	26956.56
459.616	25043.76
459.821	25117.48
460.027	25072.43
460.233	24765.23
460.438	23329.61
460.644	23620.42
460.85	22580.05
461.055	22293.33
461.261	22156.12
461.466	20581.23
461.672	19868.54
461.878	21306.21
462.083	19993.47
462.289	19499.91
462.494	19475.33
462.7	18518.93
462.905	18213.78
463.111	18865.03
463.316	18703.25
463.522	18463.63
463.727	18324.37
463.932	18586.51
464.138	18353.04
464.343	18258.84
464.549	17779.61
464.754	18543.5
464.959	18133.91
465.165	17929.11
465.37	17333.15
465.575	16845.74
465.781	17398.69
465.986	17599.39
466.191	17003.43
466.397	16815.02
466.602	15784.89
466.807	16407.47
