Data from USB4F104151__198__10-29-31-536.txt Node

Date: Wed Mar 12 10:29:31 EDT 2025
User: louis
Spectrometer: USB4F10415
Trigger mode: 4
Integration Time (sec): 3.000000E-2
Scans to average: 1
Electric dark correction enabled: true
Nonlinearity correction enabled: false
Boxcar width: 0
XAxis mode: Wavelengths
Number of Pixels in Spectrum: 3648
>>>>>Begin Spectral Data<<<<<
178.204	-104.28
178.424	-104.28
178.644	-104.28
178.864	-102.23
179.084	-85.84
179.304	-8.02
179.524	24.75
179.744	18.6
179.964	43.18
180.184	-44.88
180.404	4.27
180.624	-24.4
180.844	-36.69
181.064	0.17
181.283	-22.36
181.503	34.99
181.723	10.41
181.943	-91.99
182.163	37.03
182.383	0.17
182.602	6.31
182.822	45.23
183.042	61.61
183.262	20.65
183.482	28.84
183.701	0.17
183.921	41.13
184.141	-12.12
184.361	51.37
184.58	18.6
184.8	-5.97
185.02	-36.69
185.239	118.95
185.459	14.51
185.679	114.86
185.898	-71.51
186.118	53.42
186.338	86.19
186.557	71.85
186.777	-46.93
186.997	53.42
187.216	63.66
187.436	24.75
187.655	49.32
187.875	61.61
188.095	77.99
188.314	71.85
188.534	75.95
188.753	12.46
188.973	53.42
189.192	77.99
189.412	18.6
189.631	37.03
189.851	73.9
190.07	96.43
190.29	-12.12
190.509	24.75
190.729	2.22
190.948	28.84
191.168	43.18
191.387	49.32
191.607	84.14
191.826	104.62
192.045	-1.88
192.265	67.75
192.484	-40.79
192.704	12.46
192.923	2.22
193.142	86.19
193.362	18.6
193.581	16.55
193.8	41.13
194.02	77.99
194.239	69.8
194.458	6.31
194.678	-16.21
194.897	28.84
195.116	102.57
195.335	67.75
195.555	18.6
195.774	-26.45
195.993	67.75
196.212	4.27
196.432	45.23
196.651	34.99
196.87	0.17
197.089	100.52
197.308	80.04
197.528	53.42
197.747	45.23
197.966	51.37
198.185	69.8
198.404	0.17
198.623	94.38
198.842	67.75
199.062	69.8
199.281	67.75
199.5	37.03
199.719	65.71
199.938	-34.64
200.157	143.53
200.376	82.09
200.595	6.31
200.814	69.8
201.033	80.04
201.252	77.99
201.471	84.14
201.69	32.94
201.909	32.94
202.128	12.46
202.347	82.09
202.566	28.84
202.785	57.51
203.004	94.38
203.223	73.9
203.442	73.9
203.661	92.33
203.879	-20.31
204.098	28.84
204.317	53.42
204.536	49.32
204.755	28.84
204.974	39.08
205.193	43.18
205.411	47.27
205.63	57.51
205.849	69.8
206.068	20.65
206.287	84.14
206.505	61.61
206.724	71.85
206.943	55.47
207.162	32.94
207.381	34.99
207.599	96.43
207.818	22.7
208.037	-8.02
208.255	-57.17
208.474	45.23
208.693	65.71
208.911	-51.03
209.13	65.71
209.349	4.27
209.567	45.23
209.786	110.76
210.005	34.99
210.223	45.23
210.442	20.65
210.661	45.23
210.879	16.55
211.098	39.08
211.316	94.38
211.535	53.42
211.753	28.84
211.972	57.51
212.191	4.27
212.409	73.9
212.628	61.61
212.846	59.56
213.065	65.71
213.283	94.38
213.502	6.31
213.72	-10.07
213.938	86.19
214.157	86.19
214.375	49.32
214.594	55.47
214.812	53.42
215.031	92.33
215.249	34.99
215.467	73.9
215.686	37.03
215.904	98.47
216.122	45.23
216.341	121
216.559	2.22
216.778	63.66
216.996	0.17
217.214	24.75
217.432	32.94
217.651	-65.36
217.869	-28.5
218.087	51.37
218.306	45.23
218.524	34.99
218.742	59.56
218.96	75.95
219.179	8.36
219.397	18.6
219.615	110.76
219.833	41.13
220.051	4.27
220.27	147.62
220.488	86.19
220.706	24.75
220.924	32.94
221.142	-18.26
221.36	-3.93
221.578	41.13
221.796	55.47
222.015	73.9
222.233	20.65
222.451	112.81
222.669	39.08
222.887	22.7
223.105	4.27
223.323	26.79
223.541	61.61
223.759	102.57
223.977	-18.26
224.195	61.61
224.413	133.29
224.631	2.22
224.849	55.47
225.067	125.1
225.285	4.27
225.503	49.32
225.721	20.65
225.939	82.09
226.157	59.56
226.375	172.2
226.592	4.27
226.81	-22.36
227.028	94.38
227.246	84.14
227.464	53.42
227.682	-8.02
227.9	2.22
228.117	73.9
228.335	-24.4
228.553	45.23
228.771	125.1
228.989	65.71
229.206	45.23
229.424	104.62
229.642	51.37
229.86	53.42
230.077	88.23
230.295	69.8
230.513	112.81
230.731	10.41
230.948	77.99
231.166	37.03
231.384	94.38
231.601	71.85
231.819	-8.02
232.037	14.51
232.254	28.84
232.472	108.71
232.689	-5.97
232.907	43.18
233.125	-10.07
233.342	22.7
233.56	61.61
233.777	61.61
233.995	114.86
234.213	75.95
234.43	100.52
234.648	12.46
234.865	-18.26
235.083	98.47
235.3	4.27
235.518	61.61
235.735	90.28
235.953	45.23
236.17	84.14
236.388	55.47
236.605	-18.26
236.822	37.03
237.04	-38.74
237.257	8.36
237.475	73.9
237.692	34.99
237.909	28.84
238.127	-8.02
238.344	63.66
238.562	59.56
238.779	10.41
238.996	57.51
239.214	65.71
239.431	45.23
239.648	10.41
239.865	112.81
240.083	59.56
240.3	127.14
240.517	59.56
240.735	98.47
240.952	84.14
241.169	43.18
241.386	-5.97
241.603	61.61
241.821	90.28
242.038	88.23
242.255	28.84
242.472	59.56
242.689	32.94
242.907	65.71
243.124	59.56
243.341	0.17
243.558	6.31
243.775	4.27
243.992	-42.84
244.209	84.14
244.426	53.42
244.643	67.75
244.86	28.84
245.078	106.67
245.295	22.7
245.512	53.42
245.729	53.42
245.946	59.56
246.163	106.67
246.38	-1.88
246.597	92.33
246.814	26.79
247.031	45.23
247.248	24.75
247.464	69.8
247.681	102.57
247.898	-55.12
248.115	110.76
248.332	-57.17
248.549	90.28
248.766	45.23
248.983	110.76
249.2	41.13
249.417	69.8
249.633	-30.55
249.85	34.99
250.067	-44.88
250.284	69.8
250.501	20.65
250.717	88.23
250.934	18.6
251.151	24.75
251.368	-38.74
251.585	-14.17
251.801	-48.98
252.018	69.8
252.235	77.99
252.451	-8.02
252.668	53.42
252.885	28.84
253.102	28.84
253.318	16.55
253.535	75.95
253.752	-14.17
253.968	32.94
254.185	80.04
254.401	30.89
254.618	14.51
254.835	-42.84
255.051	20.65
255.268	-46.93
255.484	82.09
255.701	18.6
255.917	82.09
256.134	-40.79
256.351	4.27
256.567	-48.98
256.784	26.79
257	41.13
257.217	65.71
257.433	26.79
257.65	73.9
257.866	116.9
258.082	14.51
258.299	24.75
258.515	92.33
258.732	37.03
258.948	41.13
259.165	65.71
259.381	-1.88
259.597	80.04
259.814	63.66
260.03	69.8
260.246	-12.12
260.463	61.61
260.679	59.56
260.895	51.37
261.112	45.23
261.328	-20.31
261.544	10.41
261.761	141.48
261.977	2.22
262.193	53.42
262.409	98.47
262.626	47.27
262.842	59.56
263.058	34.99
263.274	104.62
263.49	71.85
263.707	96.43
263.923	63.66
264.139	20.65
264.355	45.23
264.571	82.09
264.787	28.84
265.004	141.48
265.22	84.14
265.436	116.9
265.652	47.27
265.868	67.75
266.084	61.61
266.3	32.94
266.516	8.36
266.732	73.9
266.948	45.23
267.164	84.14
267.38	53.42
267.596	10.41
267.812	157.86
268.028	90.28
268.244	30.89
268.46	32.94
268.676	16.55
268.892	75.95
269.108	61.61
269.324	24.75
269.54	-46.93
269.756	45.23
269.972	61.61
270.188	28.84
270.403	24.75
270.619	34.99
270.835	-5.97
271.051	26.79
271.267	94.38
271.483	-20.31
271.698	94.38
271.914	10.41
272.13	49.32
272.346	45.23
272.562	-12.12
272.777	114.86
272.993	61.61
273.209	-5.97
273.425	73.9
273.64	53.42
273.856	39.08
274.072	20.65
274.287	47.27
274.503	-24.4
274.719	53.42
274.934	73.9
275.15	73.9
275.366	41.13
275.581	-32.6
275.797	26.79
276.012	-32.6
276.228	41.13
276.444	-42.84
276.659	41.13
276.875	34.99
277.09	41.13
277.306	43.18
277.521	61.61
277.737	57.51
277.952	0.17
278.168	67.75
278.383	69.8
278.599	45.23
278.814	20.65
279.03	32.94
279.245	118.95
279.461	28.84
279.676	53.42
279.892	-20.31
280.107	-40.79
280.322	102.57
280.538	98.47
280.753	0.17
280.969	77.99
281.184	49.32
281.399	43.18
281.615	92.33
281.83	49.32
282.045	24.75
282.26	86.19
282.476	57.51
282.691	67.75
282.906	96.43
283.122	90.28
283.337	-3.93
283.552	49.32
283.767	102.57
283.983	-1.88
284.198	63.66
284.413	121
284.628	26.79
284.843	26.79
285.058	16.55
285.274	-8.02
285.489	24.75
285.704	69.8
285.919	77.99
286.134	108.71
286.349	84.14
286.564	16.55
286.779	110.76
286.995	39.08
287.21	22.7
287.425	80.04
287.64	45.23
287.855	67.75
288.07	43.18
288.285	59.56
288.5	90.28
288.715	112.81
288.93	49.32
289.145	26.79
289.36	63.66
289.575	45.23
289.79	20.65
290.004	77.99
290.219	61.61
290.434	77.99
290.649	-1.88
290.864	151.72
291.079	12.46
291.294	53.42
291.509	51.37
291.724	-12.12
291.938	18.6
292.153	90.28
292.368	-3.93
292.583	59.56
292.798	71.85
293.012	96.43
293.227	24.75
293.442	39.08
293.657	53.42
293.871	53.42
294.086	53.42
294.301	98.47
294.516	47.27
294.73	88.23
294.945	8.36
295.16	20.65
295.374	32.94
295.589	108.71
295.804	4.27
296.018	61.61
296.233	63.66
296.447	69.8
296.662	4.27
296.877	104.62
297.091	65.71
297.306	80.04
297.52	-30.55
297.735	53.42
297.949	75.95
298.164	75.95
298.378	75.95
298.593	53.42
298.807	59.56
299.022	80.04
299.236	53.42
299.451	53.42
299.665	-14.17
299.88	41.13
300.094	4.27
300.309	75.95
300.523	96.43
300.737	10.41
300.952	65.71
301.166	63.66
301.381	65.71
301.595	65.71
301.809	63.66
302.024	43.18
302.238	14.51
302.452	67.75
302.667	32.94
302.881	112.81
303.095	94.38
303.309	80.04
303.524	24.75
303.738	80.04
303.952	69.8
304.166	110.76
304.381	-63.32
304.595	71.85
304.809	37.03
305.023	-20.31
305.237	63.66
305.452	34.99
305.666	55.47
305.88	92.33
306.094	145.58
306.308	77.99
306.522	112.81
306.736	39.08
306.95	94.38
307.164	65.71
307.379	10.41
307.593	80.04
307.807	71.85
308.021	88.23
308.235	53.42
308.449	28.84
308.663	92.33
308.877	26.79
309.091	43.18
309.305	51.37
309.519	14.51
309.733	63.66
309.947	-3.93
310.161	80.04
310.374	59.56
310.588	86.19
310.802	49.32
311.016	53.42
311.23	102.57
311.444	41.13
311.658	86.19
311.872	49.32
312.085	69.8
312.299	125.1
312.513	80.04
312.727	49.32
312.941	77.99
313.154	75.95
313.368	63.66
313.582	51.37
313.796	65.71
314.009	75.95
314.223	118.95
314.437	110.76
314.651	59.56
314.864	82.09
315.078	51.37
315.292	53.42
315.505	63.66
315.719	53.42
315.933	51.37
316.146	26.79
316.36	-40.79
316.573	14.51
316.787	-14.17
317.001	98.47
317.214	14.51
317.428	112.81
317.641	43.18
317.855	-1.88
318.068	20.65
318.282	96.43
318.495	98.47
318.709	65.71
318.922	37.03
319.136	92.33
319.349	94.38
319.563	69.8
319.776	92.33
319.99	88.23
320.203	-20.31
320.417	37.03
320.63	20.65
320.843	106.67
321.057	8.36
321.27	53.42
321.483	73.9
321.697	49.32
321.91	43.18
322.124	80.04
322.337	59.56
322.55	32.94
322.763	41.13
322.977	49.32
323.19	16.55
323.403	53.42
323.617	61.61
323.83	41.13
324.043	2.22
324.256	84.14
324.469	73.9
324.683	104.62
324.896	53.42
325.109	14.51
325.322	6.31
325.535	-26.45
325.748	53.42
325.962	18.6
326.175	90.28
326.388	88.23
326.601	22.7
326.814	-1.88
327.027	133.29
327.24	73.9
327.453	8.36
327.666	133.29
327.879	73.9
328.092	90.28
328.305	110.76
328.518	47.27
328.731	-10.07
328.944	80.04
329.157	39.08
329.37	51.37
329.583	45.23
329.796	63.66
330.009	145.58
330.222	118.95
330.435	84.14
330.648	61.61
330.861	49.32
331.073	57.51
331.286	166.06
331.499	92.33
331.712	53.42
331.925	63.66
332.138	137.38
332.35	196.78
332.563	-28.5
332.776	4.27
332.989	-28.5
333.202	65.71
333.414	-38.74
333.627	80.04
333.84	71.85
334.053	0.17
334.265	55.47
334.478	51.37
334.691	104.62
334.903	53.42
335.116	43.18
335.329	116.9
335.541	20.65
335.754	147.62
335.966	-22.36
336.179	39.08
336.392	77.99
336.604	63.66
336.817	67.75
337.029	28.84
337.242	22.7
337.454	61.61
337.667	116.9
337.88	92.33
338.092	32.94
338.305	63.66
338.517	86.19
338.729	135.34
338.942	139.43
339.154	84.14
339.367	-16.21
339.579	104.62
339.792	28.84
340.004	133.29
340.217	69.8
340.429	61.61
340.641	45.23
340.854	65.71
341.066	-18.26
341.278	143.53
341.491	94.38
341.703	55.47
341.915	69.8
342.128	53.42
342.34	53.42
342.552	41.13
342.764	51.37
342.977	104.62
343.189	77.99
343.401	84.14
343.613	51.37
343.826	53.42
344.038	-18.26
344.25	143.53
344.462	-16.21
344.674	69.8
344.886	28.84
345.099	94.38
345.311	51.37
345.523	57.51
345.735	59.56
345.947	49.32
346.159	20.65
346.371	145.58
346.583	45.23
346.795	129.19
347.007	92.33
347.219	41.13
347.431	34.99
347.643	153.77
347.855	118.95
348.067	32.94
348.279	-30.55
348.491	75.95
348.703	67.75
348.915	32.94
349.127	4.27
349.339	71.85
349.551	34.99
349.763	75.95
349.975	86.19
350.187	80.04
350.399	100.52
350.61	90.28
350.822	90.28
351.034	86.19
351.246	-1.88
351.458	88.23
351.669	110.76
351.881	69.8
352.093	116.9
352.305	90.28
352.517	39.08
352.728	84.14
352.94	37.03
353.152	14.51
353.363	67.75
353.575	22.7
353.787	53.42
353.999	12.46
354.21	100.52
354.422	57.51
354.633	96.43
354.845	22.7
355.057	77.99
355.268	63.66
355.48	168.1
355.692	43.18
355.903	22.7
356.115	39.08
356.326	-5.97
356.538	137.38
356.749	47.27
356.961	43.18
357.172	102.57
357.384	49.32
357.595	65.71
357.807	69.8
358.018	110.76
358.23	45.23
358.441	73.9
358.653	98.47
358.864	75.95
359.075	30.89
359.287	82.09
359.498	86.19
359.709	8.36
359.921	77.99
360.132	69.8
360.344	104.62
360.555	51.37
360.766	69.8
360.977	86.19
361.189	69.8
361.4	106.67
361.611	129.19
361.823	127.14
362.034	147.62
362.245	88.23
362.456	28.84
362.667	39.08
362.879	14.51
363.09	18.6
363.301	75.95
363.512	28.84
363.723	45.23
363.935	49.32
364.146	67.75
364.357	16.55
364.568	80.04
364.779	6.31
364.99	133.29
365.201	8.36
365.412	51.37
365.623	28.84
365.834	73.9
366.045	41.13
366.256	73.9
366.467	137.38
366.678	94.38
366.889	41.13
367.1	90.28
367.311	84.14
367.522	43.18
367.733	98.47
367.944	100.52
368.155	59.56
368.366	84.14
368.577	96.43
368.788	131.24
368.999	102.57
369.209	135.34
369.42	51.37
369.631	61.61
369.842	32.94
370.053	102.57
370.264	37.03
370.474	129.19
370.685	34.99
370.896	53.42
371.107	88.23
371.317	90.28
371.528	94.38
371.739	77.99
371.95	112.81
372.16	90.28
372.371	8.36
372.582	65.71
372.792	143.53
373.003	139.43
373.214	90.28
373.424	30.89
373.635	-12.12
373.846	43.18
374.056	90.28
374.267	0.17
374.477	84.14
374.688	-3.93
374.898	82.09
375.109	90.28
375.319	116.9
375.53	129.19
375.74	94.38
375.951	57.51
376.161	71.85
376.372	86.19
376.582	22.7
376.793	92.33
377.003	102.57
377.214	43.18
377.424	121
377.635	26.79
377.845	65.71
378.055	112.81
378.266	55.47
378.476	6.31
378.686	80.04
378.897	112.81
379.107	110.76
379.317	131.24
379.528	51.37
379.738	77.99
379.948	-8.02
380.158	24.75
380.369	75.95
380.579	92.33
380.789	98.47
380.999	-5.97
381.21	164.01
381.42	123.05
381.63	43.18
381.84	121
382.05	102.57
382.261	121
382.471	131.24
382.681	86.19
382.891	49.32
383.101	82.09
383.311	110.76
383.521	77.99
383.731	86.19
383.941	159.91
384.151	77.99
384.361	8.36
384.571	73.9
384.781	53.42
384.991	153.77
385.201	114.86
385.411	53.42
385.621	114.86
385.831	108.71
386.041	71.85
386.251	69.8
386.461	34.99
386.671	69.8
386.881	118.95
387.091	118.95
387.301	137.38
387.511	65.71
387.72	110.76
387.93	86.19
388.14	94.38
388.35	69.8
388.56	12.46
388.769	127.14
388.979	4.27
389.189	24.75
389.399	59.56
389.609	77.99
389.818	67.75
390.028	4.27
390.238	30.89
390.447	61.61
390.657	133.29
390.867	10.41
391.076	49.32
391.286	90.28
391.496	184.49
391.705	77.99
391.915	184.49
392.125	110.76
392.334	63.66
392.544	121
392.753	39.08
392.963	108.71
393.172	106.67
393.382	75.95
393.591	123.05
393.801	75.95
394.01	174.25
394.22	84.14
394.429	123.05
394.639	86.19
394.848	90.28
395.058	133.29
395.267	94.38
395.477	131.24
395.686	151.72
395.895	135.34
396.105	147.62
396.314	65.71
396.524	141.48
396.733	67.75
396.942	170.15
397.152	159.91
397.361	170.15
397.57	121
397.78	55.47
397.989	127.14
398.198	137.38
398.407	110.76
398.617	114.86
398.826	127.14
399.035	102.57
399.244	75.95
399.453	180.39
399.663	139.43
399.872	137.38
400.081	75.95
400.29	125.1
400.499	112.81
400.708	168.1
400.917	137.38
401.127	135.34
401.336	45.23
401.545	198.82
401.754	168.1
401.963	209.06
402.172	182.44
402.381	125.1
402.59	161.96
402.799	131.24
403.008	94.38
403.217	178.34
403.426	159.91
403.635	121
403.844	164.01
404.053	141.48
404.262	188.58
404.471	192.68
404.68	112.81
404.888	213.16
405.097	161.96
405.306	198.82
405.515	245.93
405.724	190.63
405.933	202.92
406.142	217.26
406.35	204.97
406.559	278.69
406.768	194.73
406.977	299.17
407.185	270.5
407.394	290.98
407.603	219.3
407.812	276.65
408.02	258.21
408.229	284.84
408.438	299.17
408.646	295.08
408.855	280.74
409.064	305.32
409.272	352.42
409.481	360.61
409.69	370.85
409.898	305.32
410.107	393.38
410.315	381.09
410.524	360.61
410.733	372.9
410.941	434.34
411.15	393.38
411.358	475.3
411.567	540.83
411.775	471.2
411.984	542.88
412.192	553.12
412.401	641.18
412.609	563.36
412.818	661.66
413.026	553.12
413.234	606.37
413.443	632.99
413.651	602.27
413.86	708.77
414.068	710.82
414.276	708.77
414.485	696.48
414.693	790.69
414.901	835.74
415.11	868.51
415.318	817.31
415.526	829.6
415.734	960.67
415.943	936.09
416.151	940.19
416.359	970.91
416.567	1003.68
416.776	1081.5
416.984	1171.61
417.192	1175.7
417.4	1245.34
417.608	1216.66
417.817	1212.57
418.025	1321.11
418.233	1280.15
418.441	1349.78
418.649	1423.51
418.857	1489.04
419.065	1413.27
419.273	1562.77
419.481	1650.83
419.689	1702.03
419.897	1765.52
420.105	1720.46
420.313	1831.05
420.521	1880.21
420.729	1894.54
420.937	1890.45
421.145	2031.76
421.353	2181.26
421.561	2224.26
421.769	2357.38
421.977	2373.77
422.185	2343.05
422.393	2504.84
422.601	2644.1
422.809	2678.91
423.017	2625.67
423.224	2736.26
423.432	2998.4
423.64	2951.29
423.848	3278.97
424.056	3076.22
424.263	3383.42
424.471	3393.65
424.679	3416.18
424.887	3608.69
425.094	3690.61
425.302	3729.52
425.51	3864.69
425.718	3897.46
425.925	4120.68
426.133	4202.6
426.341	4395.11
426.548	4593.76
426.756	4550.76
426.964	4554.85
427.171	4823.14
427.379	4991.07
427.586	5034.08
427.794	5335.13
428.001	5492.82
428.209	5785.68
428.417	5699.67
428.624	6234.19
428.832	6015.05
429.039	6123.6
429.247	6031.44
429.454	6662.21
429.662	7059.52
429.869	6584.39
430.076	7008.32
430.284	6809.67
430.491	7268.41
430.699	7479.35
430.906	7690.29
431.114	7757.88
431.321	7929.91
431.528	8228.91
431.736	8550.44
431.943	9046.05
432.15	8765.48
432.358	8732.71
432.565	9371.68
432.772	9359.39
432.979	9867.28
433.187	9898
433.394	9959.44
433.601	10747.91
433.808	10567.69
434.016	10571.79
434.223	10930.18
434.43	11954.16
434.637	11548.67
434.844	12195.82
435.052	12529.64
435.259	12249.07
435.466	12691.43
435.673	12308.46
435.88	13156.32
436.087	13862.87
436.294	13545.44
436.501	13395.93
436.708	13709.27
436.915	14346.19
437.122	15200.19
437.329	14862.28
437.537	15296.45
437.743	15755.19
437.95	15622.08
438.157	16062.39
438.364	16689.07
438.571	16605.1
438.778	16748.46
438.985	18499.47
439.192	17471.39
439.399	18431.89
439.606	17975.19
439.813	18915.21
440.02	20082.55
440.227	19652.48
440.433	19539.84
440.64	20363.12
440.847	20019.07
441.054	20512.63
441.261	21847.9
441.467	21708.64
441.674	22116.19
441.881	22843.21
442.088	22875.98
442.294	22421.33
442.501	23322.44
442.708	23490.37
442.914	24631.09
443.121	25706.27
443.328	24885.04
443.534	26945.3
443.741	25919.26
443.948	25495.33
444.154	27385.61
444.361	27174.67
444.568	27428.62
444.774	27295.5
444.981	27731.72
445.187	28546.81
445.394	29538.02
445.6	29296.36
445.807	32310.97
446.013	30584.54
446.22	30942.93
446.426	32118.46
446.633	32806.58
446.839	33914.53
447.046	32384.7
447.252	34088.61
447.459	34309.79
447.665	34066.08
447.871	35274.38
448.078	36923
448.284	34963.09
448.491	36167.3
448.697	37381.74
448.903	38207.08
449.11	38293.09
449.316	37334.64
449.522	38219.36
449.728	39073.37
449.935	39382.61
450.141	39468.62
450.347	40253
450.553	39196.24
450.76	39564.88
450.966	40564.29
451.172	40179.27
451.378	40912.44
451.584	40394.31
451.791	41401.91
451.997	41043.51
452.203	41975.34
452.409	41641.52
452.615	41213.49
452.821	40130.12
453.027	39720.52
453.233	41797.16
453.44	39730.76
453.646	40367.68
453.852	40398.4
454.058	41328.18
454.264	39779.92
454.47	40752.7
454.676	39700.04
454.882	40789.56
455.088	37430.9
455.294	37369.46
455.5	37932.65
455.705	38784.6
455.911	37330.55
456.117	36517.5
456.323	35997.32
456.529	34043.56
456.735	35653.26
456.941	34373.28
457.147	34145.95
457.352	32800.44
457.558	32757.43
457.764	32454.33
457.97	32188.1
458.176	31289.04
458.381	31545.03
458.587	29654.76
458.793	29562.6
458.999	28630.77
459.204	30181.09
459.41	29742.82
459.616	27578.12
459.821	27408.14
460.027	27703.04
460.233	26797.84
460.438	25671.46
460.644	25923.36
460.85	24766.26
461.055	24631.09
461.261	24506.16
461.466	22402.9
461.672	21911.39
461.878	23416.65
462.083	22021.98
462.289	21383.01
462.494	21475.17
462.7	20141.94
462.905	19603.33
463.111	20559.73
463.316	20584.3
463.522	20438.9
463.727	20201.33
463.932	20193.14
464.138	20080.5
464.343	19955.58
464.549	19591.04
464.754	20178.81
464.959	19918.71
465.165	19791.74
465.37	18843.53
465.575	18579.34
465.781	19261.32
465.986	19326.85
466.191	18673.55
466.397	18304.92
466.602	17485.73
466.807	18214.8
467.012	18263.96
467.218	18112.41
