Data from USB4F104151__293__10-42-29-170.txt Node

Date: Wed Mar 12 10:42:29 EDT 2025
User: louis
Spectrometer: USB4F10415
Trigger mode: 4
Integration Time (sec): 3.000000E-2
Scans to average: 1
Electric dark correction enabled: true
Nonlinearity correction enabled: false
Boxcar width: 0
XAxis mode: Wavelengths
Number of Pixels in Spectrum: 3648
>>>>>Begin Spectral Data<<<<<
178.204	-128.68
178.424	-128.68
178.644	-128.68
178.864	-97.96
179.084	-157.35
179.304	-48.81
179.524	-52.91
179.744	-5.8
179.964	55.64
180.184	-3.75
180.404	-13.99
180.624	-22.19
180.844	45.4
181.064	-5.8
181.283	35.16
181.503	-38.57
181.723	55.64
181.943	-40.62
182.163	110.93
182.383	59.73
182.602	10.58
182.822	45.4
183.042	24.92
183.262	10.58
183.482	29.01
183.701	10.58
183.921	22.87
184.141	-3.75
184.361	10.58
184.58	16.73
184.8	69.97
185.02	26.96
185.239	78.16
185.459	-32.43
185.679	35.16
185.898	20.82
186.118	-3.75
186.338	-22.19
186.557	35.16
186.777	-50.86
186.997	0.34
187.216	26.96
187.436	14.68
187.655	59.73
187.875	18.77
188.095	94.55
188.314	41.3
188.534	18.77
188.753	35.16
188.973	39.25
189.192	82.26
189.412	90.45
189.631	24.92
189.851	22.87
190.07	88.4
190.29	-46.76
190.509	-24.23
190.729	41.3
190.948	31.06
191.168	108.88
191.387	31.06
191.607	35.16
191.826	18.77
192.045	18.77
192.265	16.73
192.484	18.77
192.704	76.12
192.923	-9.9
193.142	53.59
193.362	-9.9
193.581	188.75
193.8	43.35
194.02	98.64
194.239	63.83
194.458	76.12
194.678	-13.99
194.897	4.44
195.116	51.54
195.335	39.25
195.555	16.73
195.774	39.25
195.993	33.11
196.212	-7.85
196.432	24.92
196.651	61.78
196.87	35.16
197.089	82.26
197.308	53.59
197.528	55.64
197.747	29.01
197.966	-38.57
198.185	104.79
198.404	8.53
198.623	74.07
198.842	39.25
199.062	78.16
199.281	86.36
199.5	6.49
199.719	24.92
199.938	59.73
200.157	82.26
200.376	72.02
200.595	55.64
200.814	24.92
201.033	-22.19
201.252	26.96
201.471	-5.8
201.69	49.49
201.909	-24.23
202.128	20.82
202.347	86.36
202.566	-52.91
202.785	72.02
203.004	2.39
203.223	72.02
203.442	26.96
203.661	-11.95
203.879	-38.57
204.098	88.4
204.317	20.82
204.536	53.59
204.755	51.54
204.974	117.08
205.193	33.11
205.411	100.69
205.63	16.73
205.849	57.68
206.068	59.73
206.287	45.4
206.505	78.16
206.724	-34.47
206.943	57.68
207.162	20.82
207.381	-7.85
207.599	53.59
207.818	-54.95
208.037	49.49
208.255	29.01
208.474	102.74
208.693	43.35
208.911	69.97
209.13	10.58
209.349	0.34
209.567	63.83
209.786	31.06
210.005	6.49
210.223	59.73
210.442	-32.43
210.661	41.3
210.879	-16.04
211.098	18.77
211.316	63.83
211.535	20.82
211.753	92.5
211.972	22.87
212.191	10.58
212.409	47.44
212.628	33.11
212.846	33.11
213.065	41.3
213.283	18.77
213.502	-7.85
213.72	59.73
213.938	6.49
214.157	45.4
214.375	-13.99
214.594	41.3
214.812	2.39
215.031	16.73
215.249	-18.09
215.467	-38.57
215.686	26.96
215.904	143.7
216.122	37.2
216.341	45.4
216.559	57.68
216.778	-16.04
216.996	108.88
217.214	33.11
217.432	-34.47
217.651	-44.71
217.869	18.77
218.087	29.01
218.306	35.16
218.524	-1.71
218.742	18.77
218.96	139.6
219.179	6.49
219.397	10.58
219.615	80.21
219.833	115.03
220.051	-20.14
220.27	51.54
220.488	43.35
220.706	43.35
220.924	10.58
221.142	-50.86
221.36	45.4
221.578	61.78
221.796	-22.19
222.015	98.64
222.233	22.87
222.451	51.54
222.669	10.58
222.887	76.12
223.105	-44.71
223.323	63.83
223.541	59.73
223.759	37.2
223.977	-28.33
224.195	26.96
224.413	41.3
224.631	63.83
224.849	20.82
225.067	102.74
225.285	-28.33
225.503	6.49
225.721	-102.06
225.939	43.35
226.157	2.39
226.375	39.25
226.592	-81.58
226.81	-38.57
227.028	6.49
227.246	155.99
227.464	49.49
227.682	49.49
227.9	26.96
228.117	72.02
228.335	35.16
228.553	125.27
228.771	47.44
228.989	43.35
229.206	65.88
229.424	4.44
229.642	-30.38
229.86	-63.15
230.077	67.92
230.295	16.73
230.513	-7.85
230.731	108.88
230.948	102.74
231.166	80.21
231.384	-57
231.601	45.4
231.819	45.4
232.037	4.44
232.254	-13.99
232.472	74.07
232.689	-38.57
232.907	96.6
233.125	8.53
233.342	43.35
233.56	53.59
233.777	43.35
233.995	72.02
234.213	53.59
234.43	76.12
234.648	-28.33
234.865	-7.85
235.083	2.39
235.3	35.16
235.518	4.44
235.735	104.79
235.953	59.73
236.17	41.3
236.388	-7.85
236.605	82.26
236.822	41.3
237.04	37.2
237.257	37.2
237.475	-9.9
237.692	14.68
237.909	63.83
238.127	22.87
238.344	4.44
238.562	31.06
238.779	-9.9
238.996	24.92
239.214	-18.09
239.431	47.44
239.648	20.82
239.865	78.16
240.083	69.97
240.3	-59.05
240.517	12.63
240.735	49.49
240.952	51.54
241.169	10.58
241.386	29.01
241.603	22.87
241.821	-32.43
242.038	49.49
242.255	67.92
242.472	-38.57
242.689	43.35
242.907	80.21
243.124	-16.04
243.341	4.44
243.558	-18.09
243.775	-3.75
243.992	-40.62
244.209	55.64
244.426	12.63
244.643	-34.47
244.86	14.68
245.078	55.64
245.295	55.64
245.512	102.74
245.729	-16.04
245.946	-9.9
246.163	-48.81
246.38	31.06
246.597	-13.99
246.814	20.82
247.031	55.64
247.248	18.77
247.464	-9.9
247.681	41.3
247.898	74.07
248.115	82.26
248.332	35.16
248.549	26.96
248.766	49.49
248.983	-11.95
249.2	-79.53
249.417	33.11
249.633	35.16
249.85	22.87
250.067	35.16
250.284	47.44
250.501	63.83
250.717	-20.14
250.934	22.87
251.151	-36.52
251.368	63.83
251.585	158.03
251.801	43.35
252.018	45.4
252.235	80.21
252.451	61.78
252.668	35.16
252.885	96.6
253.102	65.88
253.318	26.96
253.535	-67.24
253.752	18.77
253.968	18.77
254.185	8.53
254.401	51.54
254.618	39.25
254.835	76.12
255.051	112.98
255.268	-52.91
255.484	26.96
255.701	14.68
255.917	59.73
256.134	-16.04
256.351	-30.38
256.567	63.83
256.784	59.73
257	-9.9
257.217	-3.75
257.433	67.92
257.65	80.21
257.866	20.82
258.082	47.44
258.299	22.87
258.515	20.82
258.732	-7.85
258.948	35.16
259.165	49.49
259.381	26.96
259.597	92.5
259.814	39.25
260.03	63.83
260.246	2.39
260.463	41.3
260.679	43.35
260.895	35.16
261.112	49.49
261.328	24.92
261.544	-26.28
261.761	108.88
261.977	26.96
262.193	24.92
262.409	20.82
262.626	65.88
262.842	24.92
263.058	45.4
263.274	-1.71
263.49	-3.75
263.707	72.02
263.923	22.87
264.139	37.2
264.355	6.49
264.571	20.82
264.787	2.39
265.004	110.93
265.22	-50.86
265.436	76.12
265.652	69.97
265.868	80.21
266.084	76.12
266.3	55.64
266.516	-22.19
266.732	6.49
266.948	55.64
267.164	78.16
267.38	14.68
267.596	104.79
267.812	76.12
268.028	41.3
268.244	12.63
268.46	33.11
268.676	35.16
268.892	92.5
269.108	0.34
269.324	69.97
269.54	41.3
269.756	55.64
269.972	-59.05
270.188	90.45
270.403	-63.15
270.619	29.01
270.835	-61.1
271.051	20.82
271.267	12.63
271.483	4.44
271.698	141.65
271.914	33.11
272.13	12.63
272.346	82.26
272.562	53.59
272.777	-30.38
272.993	55.64
273.209	24.92
273.425	16.73
273.64	-69.29
273.856	43.35
274.072	22.87
274.287	41.3
274.503	6.49
274.719	6.49
274.934	100.69
275.15	24.92
275.366	-22.19
275.581	-5.8
275.797	61.78
276.012	80.21
276.228	33.11
276.444	47.44
276.659	88.4
276.875	-1.71
277.09	37.2
277.306	-13.99
277.521	61.78
277.737	72.02
277.952	-28.33
278.168	76.12
278.383	115.03
278.599	67.92
278.814	63.83
279.03	51.54
279.245	45.4
279.461	39.25
279.676	98.64
279.892	-42.67
280.107	31.06
280.322	-11.95
280.538	-38.57
280.753	8.53
280.969	37.2
281.184	10.58
281.399	94.55
281.615	26.96
281.83	24.92
282.045	-30.38
282.26	20.82
282.476	10.58
282.691	59.73
282.906	94.55
283.122	20.82
283.337	29.01
283.552	104.79
283.767	-54.95
283.983	39.25
284.198	31.06
284.413	86.36
284.628	-18.09
284.843	14.68
285.058	84.31
285.274	69.97
285.489	63.83
285.704	127.32
285.919	74.07
286.134	14.68
286.349	2.39
286.564	6.49
286.779	33.11
286.995	67.92
287.21	-11.95
287.425	59.73
287.64	57.68
287.855	4.44
288.07	-22.19
288.285	4.44
288.5	76.12
288.715	106.84
288.93	39.25
289.145	-13.99
289.36	141.65
289.575	22.87
289.79	63.83
290.004	-22.19
290.219	49.49
290.434	59.73
290.649	12.63
290.864	26.96
291.079	20.82
291.294	-3.75
291.509	55.64
291.724	4.44
291.938	-7.85
292.153	2.39
292.368	-46.76
292.583	57.68
292.798	96.6
293.012	76.12
293.227	57.68
293.442	-24.23
293.657	51.54
293.871	37.2
294.086	61.78
294.301	59.73
294.516	123.22
294.73	-7.85
294.945	69.97
295.16	76.12
295.374	129.36
295.589	123.22
295.804	14.68
296.018	49.49
296.233	82.26
296.447	22.87
296.662	14.68
296.877	-13.99
297.091	26.96
297.306	16.73
297.52	41.3
297.735	16.73
297.949	18.77
298.164	72.02
298.378	45.4
298.593	33.11
298.807	-9.9
299.022	63.83
299.236	0.34
299.451	-22.19
299.665	-5.8
299.88	-1.71
300.094	39.25
300.309	67.92
300.523	22.87
300.737	-11.95
300.952	43.35
301.166	104.79
301.381	4.44
301.595	18.77
301.809	-5.8
302.024	4.44
302.238	-50.86
302.452	51.54
302.667	31.06
302.881	115.03
303.095	102.74
303.309	92.5
303.524	80.21
303.738	-42.67
303.952	67.92
304.166	76.12
304.381	55.64
304.595	88.4
304.809	49.49
305.023	84.31
305.237	59.73
305.452	8.53
305.666	119.12
305.88	26.96
306.094	67.92
306.308	51.54
306.522	6.49
306.736	-46.76
306.95	47.44
307.164	-26.28
307.379	6.49
307.593	80.21
307.807	72.02
308.021	96.6
308.235	24.92
308.449	-54.95
308.663	29.01
308.877	131.41
309.091	26.96
309.305	90.45
309.519	-7.85
309.733	-5.8
309.947	18.77
310.161	16.73
310.374	104.79
310.588	43.35
310.802	26.96
311.016	-9.9
311.23	-18.09
311.444	-3.75
311.658	43.35
311.872	-16.04
312.085	76.12
312.299	2.39
312.513	-26.28
312.727	33.11
312.941	94.55
313.154	18.77
313.368	6.49
313.582	102.74
313.796	74.07
314.009	10.58
314.223	51.54
314.437	-9.9
314.651	26.96
314.864	2.39
315.078	49.49
315.292	65.88
315.505	22.87
315.719	74.07
315.933	-32.43
316.146	2.39
316.36	-9.9
316.573	139.6
316.787	41.3
317.001	4.44
317.214	100.69
317.428	72.02
317.641	-16.04
317.855	-30.38
318.068	26.96
318.282	141.65
318.495	43.35
318.709	74.07
318.922	20.82
319.136	86.36
319.349	78.16
319.563	74.07
319.776	-9.9
319.99	-1.71
320.203	82.26
320.417	57.68
320.63	76.12
320.843	102.74
321.057	123.22
321.27	31.06
321.483	104.79
321.697	76.12
321.91	74.07
322.124	63.83
322.337	-9.9
322.55	98.64
322.763	67.92
322.977	-16.04
323.19	18.77
323.403	-38.57
323.617	80.21
323.83	10.58
324.043	18.77
324.256	86.36
324.469	39.25
324.683	102.74
324.896	35.16
325.109	12.63
325.322	-9.9
325.535	-11.95
325.748	67.92
325.962	33.11
326.175	-5.8
326.388	59.73
326.601	115.03
326.814	115.03
327.027	35.16
327.24	82.26
327.453	-20.14
327.666	84.31
327.879	59.73
328.092	18.77
328.305	57.68
328.518	14.68
328.731	-28.33
328.944	47.44
329.157	67.92
329.37	14.68
329.583	65.88
329.796	108.88
330.009	29.01
330.222	123.22
330.435	82.26
330.648	6.49
330.861	72.02
331.073	53.59
331.286	24.92
331.499	147.8
331.712	26.96
331.925	108.88
332.138	-9.9
332.35	33.11
332.563	-3.75
332.776	74.07
332.989	8.53
333.202	10.58
333.414	47.44
333.627	-13.99
333.84	55.64
334.053	61.78
334.265	6.49
334.478	39.25
334.691	59.73
334.903	53.59
335.116	-26.28
335.329	72.02
335.541	51.54
335.754	57.68
335.966	-16.04
336.179	20.82
336.392	61.78
336.604	61.78
336.817	119.12
337.029	20.82
337.242	14.68
337.454	53.59
337.667	20.82
337.88	158.03
338.092	123.22
338.305	2.39
338.517	78.16
338.729	86.36
338.942	63.83
339.154	6.49
339.367	37.2
339.579	67.92
339.792	-24.23
340.004	119.12
340.217	51.54
340.429	78.16
340.641	84.31
340.854	10.58
341.066	2.39
341.278	8.53
341.491	123.22
341.703	74.07
341.915	65.88
342.128	22.87
342.34	49.49
342.552	94.55
342.764	74.07
342.977	12.63
343.189	24.92
343.401	2.39
343.613	12.63
343.826	43.35
344.038	35.16
344.25	104.79
344.462	10.58
344.674	45.4
344.886	-7.85
345.099	112.98
345.311	29.01
345.523	22.87
345.735	72.02
345.947	63.83
346.159	-50.86
346.371	39.25
346.583	137.56
346.795	31.06
347.007	-11.95
347.219	63.83
347.431	22.87
347.643	41.3
347.855	59.73
348.067	100.69
348.279	-59.05
348.491	76.12
348.703	39.25
348.915	41.3
349.127	51.54
349.339	115.03
349.551	47.44
349.763	76.12
349.975	16.73
350.187	63.83
350.399	57.68
350.61	96.6
350.822	43.35
351.034	55.64
351.246	-11.95
351.458	112.98
351.669	8.53
351.881	80.21
352.093	-30.38
352.305	108.88
352.517	65.88
352.728	84.31
352.94	20.82
353.152	-5.8
353.363	33.11
353.575	39.25
353.787	39.25
353.999	100.69
354.21	59.73
354.422	92.5
354.633	-5.8
354.845	82.26
355.057	96.6
355.268	82.26
355.48	-11.95
355.692	-5.8
355.903	84.31
356.115	53.59
356.326	-28.33
356.538	41.3
356.749	45.4
356.961	61.78
357.172	45.4
357.384	-9.9
357.595	131.41
357.807	8.53
358.018	-28.33
358.23	76.12
358.441	29.01
358.653	37.2
358.864	76.12
359.075	29.01
359.287	151.89
359.498	117.08
359.709	35.16
359.921	51.54
360.132	51.54
360.344	63.83
360.555	65.88
360.766	47.44
360.977	78.16
361.189	92.5
361.4	39.25
361.611	92.5
361.823	98.64
362.034	41.3
362.245	-1.71
362.456	18.77
362.667	117.08
362.879	39.25
363.09	98.64
363.301	72.02
363.512	41.3
363.723	-9.9
363.935	29.01
364.146	22.87
364.357	26.96
364.568	49.49
364.779	67.92
364.99	72.02
365.201	-40.62
365.412	63.83
365.623	-3.75
365.834	35.16
366.045	80.21
366.256	94.55
366.467	115.03
366.678	33.11
366.889	-36.52
367.1	108.88
367.311	92.5
367.522	121.17
367.733	18.77
367.944	33.11
368.155	-16.04
368.366	104.79
368.577	125.27
368.788	45.4
368.999	16.73
369.209	92.5
369.42	147.8
369.631	121.17
369.842	108.88
370.053	-22.19
370.264	69.97
370.474	31.06
370.685	43.35
370.896	104.79
371.107	61.78
371.317	80.21
371.528	43.35
371.739	41.3
371.95	65.88
372.16	76.12
372.371	31.06
372.582	8.53
372.792	80.21
373.003	51.54
373.214	72.02
373.424	129.36
373.635	49.49
373.846	53.59
374.056	35.16
374.267	47.44
374.477	96.6
374.688	65.88
374.898	119.12
375.109	51.54
375.319	80.21
375.53	88.4
375.74	51.54
375.951	29.01
376.161	92.5
376.372	108.88
376.582	39.25
376.793	100.69
377.003	-9.9
377.214	63.83
377.424	26.96
377.635	78.16
377.845	12.63
378.055	129.36
378.266	72.02
378.476	24.92
378.686	12.63
378.897	4.44
379.107	67.92
379.317	63.83
379.528	65.88
379.738	31.06
379.948	39.25
380.158	88.4
380.369	-32.43
380.579	92.5
380.789	88.4
380.999	4.44
381.21	67.92
381.42	102.74
381.63	31.06
381.84	102.74
382.05	67.92
382.261	88.4
382.471	84.31
382.681	82.26
382.891	55.64
383.101	108.88
383.311	55.64
383.521	24.92
383.731	35.16
383.941	129.36
384.151	135.51
384.361	29.01
384.571	55.64
384.781	108.88
384.991	117.08
385.201	55.64
385.411	96.6
385.621	10.58
385.831	143.7
386.041	82.26
386.251	67.92
386.461	194.9
386.671	80.21
386.881	61.78
387.091	104.79
387.301	41.3
387.511	53.59
387.72	55.64
387.93	147.8
388.14	0.34
388.35	63.83
388.56	90.45
388.769	102.74
388.979	39.25
389.189	-13.99
389.399	141.65
389.609	49.49
389.818	131.41
390.028	31.06
390.238	108.88
390.447	149.84
390.657	125.27
390.867	43.35
391.076	-3.75
391.286	57.68
391.496	72.02
391.705	69.97
391.915	115.03
392.125	151.89
392.334	41.3
392.544	133.46
392.753	94.55
392.963	29.01
393.172	137.56
393.382	72.02
393.591	106.84
393.801	117.08
394.01	164.18
394.22	53.59
394.429	74.07
394.639	121.17
394.848	51.54
395.058	86.36
395.267	110.93
395.477	80.21
395.686	115.03
395.895	147.8
396.105	151.89
396.314	90.45
396.524	131.41
396.733	96.6
396.942	127.32
397.152	84.31
397.361	82.26
397.57	121.17
397.78	96.6
397.989	166.23
398.198	192.85
398.407	133.46
398.617	100.69
398.826	117.08
399.035	141.65
399.244	141.65
399.453	170.32
399.663	145.75
399.872	162.13
400.081	69.97
400.29	147.8
400.499	98.64
400.708	37.2
400.917	117.08
401.127	88.4
401.336	121.17
401.545	176.47
401.754	67.92
401.963	147.8
402.172	67.92
402.381	153.94
402.59	133.46
402.799	129.36
403.008	186.71
403.217	123.22
403.426	205.14
403.635	121.17
403.844	164.18
404.053	115.03
404.262	178.51
404.471	250.19
404.68	213.33
404.888	102.74
405.097	121.17
405.306	158.03
405.515	153.94
405.724	219.47
405.933	235.86
406.142	221.52
406.35	209.23
406.559	213.33
406.768	219.47
406.977	268.63
407.185	231.76
407.394	268.63
407.603	287.06
407.812	254.29
408.02	297.3
408.229	272.72
408.438	272.72
408.646	274.77
408.855	276.82
409.064	231.76
409.272	311.63
409.481	358.74
409.69	305.49
409.898	297.3
410.107	375.12
410.315	446.8
410.524	332.11
410.733	426.32
410.941	317.78
411.15	438.61
411.358	448.85
411.567	348.5
411.775	454.99
411.984	485.71
412.192	553.29
412.401	473.42
412.609	440.65
412.818	524.62
413.026	512.33
413.234	598.35
413.443	649.55
413.651	633.16
413.86	710.99
414.068	762.19
414.276	756.04
414.485	653.64
414.693	756.04
414.901	911.69
415.11	829.77
415.318	811.34
415.526	903.5
415.734	772.43
415.943	926.02
416.151	956.74
416.359	999.75
416.567	952.65
416.776	1018.18
416.984	1083.72
417.192	1116.48
417.4	1145.16
417.608	1182.02
417.817	1280.32
418.025	1249.6
418.233	1354.05
418.441	1337.66
418.649	1401.15
418.857	1448.26
419.065	1544.51
419.273	1501.5
419.481	1591.61
419.689	1626.43
419.897	1714.49
420.105	1757.5
420.313	1804.6
420.521	1907
420.729	1894.71
420.937	1990.97
421.145	2144.56
421.353	2124.08
421.561	2167.09
421.769	2259.25
421.977	2287.92
422.185	2400.56
422.393	2421.04
422.601	2658.6
422.809	2672.94
423.017	2609.45
423.224	2734.38
423.432	2869.55
423.64	2867.5
423.848	3127.59
424.056	2967.85
424.263	3361.06
424.471	3279.14
424.679	3377.44
424.887	3606.81
425.094	3696.92
425.302	3737.88
425.51	3768.6
425.718	3920.15
425.925	4065.56
426.133	4202.77
426.341	4325.65
426.548	4503.82
426.756	4503.82
426.964	4452.63
427.171	4923.66
427.379	5101.83
427.586	5142.79
427.794	5361.92
428.001	5390.6
428.209	5648.64
428.417	5587.2
428.624	6015.23
428.832	5996.79
429.039	5984.51
429.247	6043.9
429.454	6650.1
429.662	7192.81
429.869	6541.55
430.076	6865.13
430.284	6983.91
430.491	7006.44
430.699	7495.91
430.906	7606.5
431.114	7704.8
431.321	8026.33
431.528	8091.87
431.736	8616.15
431.943	8771.79
432.15	8601.81
432.358	8741.07
432.565	9394.37
432.772	9105.61
432.979	9595.07
433.187	9795.78
433.394	9767.1
433.601	10377.4
433.808	10723.51
434.016	10750.13
434.223	10913.97
434.43	11710.63
434.637	11352.23
434.844	11983.01
435.052	12241.05
435.259	12288.15
435.466	12288.15
435.673	12103.84
435.88	13090.96
436.087	13719.68
436.294	13559.94
436.501	13435.02
436.708	13740.16
436.915	14323.83
437.122	14698.61
437.329	14772.34
437.537	15087.73
437.743	15554.66
437.95	15501.42
438.157	16169.05
438.364	16754.77
438.571	16410.71
438.778	16746.58
438.985	18141.25
439.192	17514.57
439.399	18026.56
439.606	17666.12
439.813	18753.59
440.02	19791.91
440.227	19595.31
440.433	19384.37
440.64	19855.4
440.847	19939.37
441.054	20406.3
441.261	21555.21
441.467	21141.52
441.674	21960.71
441.881	22323.2
442.088	22511.61
442.294	21950.47
442.501	22849.53
442.708	23242.74
442.914	24430.56
443.121	24858.59
443.328	25114.58
443.534	26226.63
443.741	25733.07
443.948	25515.98
444.154	27447.22
444.361	26888.12
444.568	27131.83
444.774	27451.31
444.981	27197.37
445.187	28112.81
445.394	29509.52
445.6	28710.82
445.807	31989.61
446.013	30588.8
446.22	31043.45
446.426	31889.26
446.633	32305
446.839	33529.69
447.046	32210.79
447.252	33681.24
447.459	33714
447.665	33646.42
447.871	35020.61
448.078	36794.15
448.284	35061.57
448.491	35872.56
448.697	37285.66
448.903	37910.29
449.11	37947.15
449.316	37388.06
449.522	37957.39
449.728	38569.74
449.935	39397.12
450.141	39264
450.347	39677.69
450.553	38764.29
450.76	39433.98
450.966	40431.34
451.172	39886.58
451.378	40926.95
451.584	40498.92
451.791	40756.97
451.997	41393.89
452.203	41537.24
452.409	42036.95
452.615	41522.91
452.821	39907.06
453.027	39454.46
453.233	41346.78
453.44	39538.43
453.646	39845.62
453.852	40169.2
454.058	40840.93
454.264	39198.46
454.47	40345.33
454.676	39487.23
454.882	40527.59
455.088	37310.24
455.294	38014.74
455.5	38475.53
455.705	38932.23
455.911	36970.27
456.117	36396.84
456.323	35790.64
456.529	33845.07
456.735	35270.46
456.941	34563.91
457.147	33560.41
457.352	33040.22
457.558	32335.72
457.764	32200.55
457.97	31786.86
458.176	30891.9
458.381	31029.12
458.587	29722.51
458.793	29577.11
458.999	28039.08
459.204	30070.67
459.41	28995.48
459.616	27531.19
459.821	27365.3
460.027	27209.65
460.233	26644.41
460.438	25094.1
460.644	25579.47
460.85	24684.51
461.055	24035.3
461.261	23861.23
461.466	22134.79
461.672	21506.06
461.878	23126
462.083	21710.86
462.289	21192.72
462.494	20809.75
462.7	20054.05
462.905	19787.82
463.111	20289.57
463.316	20127.78
463.522	19658.79
463.727	19798.06
463.932	19976.23
464.138	19685.42
464.343	19814.44
464.549	19001.4
464.754	19863.59
464.959	19630.12
465.165	19384.37
465.37	18415.68
465.575	18135.1
465.781	18944.05
465.986	19163.18
466.191	18221.12
466.397	18077.76
466.602	17006.67
466.807	18092.1
467.012	17829.96
467.218	17526.86
