Data from USB4F104151__246__10-30-58-016.txt Node

Date: Wed Mar 12 10:30:58 EDT 2025
User: louis
Spectrometer: USB4F10415
Trigger mode: 4
Integration Time (sec): 3.000000E-2
Scans to average: 1
Electric dark correction enabled: true
Nonlinearity correction enabled: false
Boxcar width: 0
XAxis mode: Wavelengths
Number of Pixels in Spectrum: 3648
>>>>>Begin Spectral Data<<<<<
178.204	-71
178.424	-71
178.644	-71
178.864	-91.48
179.084	-68.95
179.304	17.07
179.524	21.16
179.744	-21.85
179.964	68.27
180.184	-48.47
180.404	51.88
180.624	-15.7
180.844	-21.85
181.064	-21.85
181.283	-13.65
181.503	-19.8
181.723	4.78
181.943	-21.85
182.163	72.36
182.383	15.02
182.602	51.88
182.822	47.79
183.042	-23.89
183.262	43.69
183.482	66.22
183.701	45.74
183.921	43.69
184.141	-120.15
184.361	49.83
184.58	94.89
184.8	49.83
185.02	19.11
185.239	107.18
185.459	15.02
185.679	98.99
185.898	12.97
186.118	170.66
186.338	2.73
186.557	51.88
186.777	-83.28
186.997	12.97
187.216	55.98
187.436	96.94
187.655	29.35
187.875	101.03
188.095	58.03
188.314	68.27
188.534	92.84
188.753	33.45
188.973	68.27
189.192	115.37
189.412	23.21
189.631	76.46
189.851	64.17
190.07	31.4
190.29	33.45
190.509	33.45
190.729	23.21
190.948	60.07
191.168	115.37
191.387	121.51
191.607	60.07
191.826	76.46
192.045	0.68
192.265	55.98
192.484	94.89
192.704	2.73
192.923	-36.18
193.142	172.71
193.362	23.21
193.581	109.22
193.8	146.09
194.02	109.22
194.239	-38.23
194.458	70.31
194.678	41.64
194.897	78.51
195.116	66.22
195.335	43.69
195.555	92.84
195.774	15.02
195.993	19.11
196.212	31.4
196.432	-7.51
196.651	72.36
196.87	37.55
197.089	66.22
197.308	8.87
197.528	101.03
197.747	66.22
197.966	68.27
198.185	17.07
198.404	47.79
198.623	43.69
198.842	68.27
199.062	103.08
199.281	47.79
199.5	60.07
199.719	51.88
199.938	60.07
200.157	60.07
200.376	78.51
200.595	103.08
200.814	27.31
201.033	49.83
201.252	80.55
201.471	92.84
201.69	17.07
201.909	2.73
202.128	47.79
202.347	125.61
202.566	55.98
202.785	66.22
203.004	41.64
203.223	94.89
203.442	-27.99
203.661	27.31
203.879	84.65
204.098	80.55
204.317	51.88
204.536	53.93
204.755	74.41
204.974	88.75
205.193	96.94
205.411	121.51
205.63	101.03
205.849	35.5
206.068	78.51
206.287	35.5
206.505	64.17
206.724	111.27
206.943	51.88
207.162	2.73
207.381	41.64
207.599	23.21
207.818	60.07
208.037	6.83
208.255	60.07
208.474	86.7
208.693	109.22
208.911	51.88
209.13	31.4
209.349	109.22
209.567	-7.51
209.786	133.8
210.005	35.5
210.223	-7.51
210.442	27.31
210.661	82.6
210.879	27.31
211.098	15.02
211.316	60.07
211.535	25.26
211.753	58.03
211.972	37.55
212.191	43.69
212.409	47.79
212.628	76.46
212.846	-3.41
213.065	53.93
213.283	101.03
213.502	43.69
213.72	23.21
213.938	29.35
214.157	78.51
214.375	55.98
214.594	68.27
214.812	27.31
215.031	17.07
215.249	-38.23
215.467	-7.51
215.686	-5.46
215.904	94.89
216.122	-17.75
216.341	70.31
216.559	35.5
216.778	43.69
216.996	55.98
217.214	-40.28
217.432	76.46
217.651	19.11
217.869	45.74
218.087	29.35
218.306	80.55
218.524	58.03
218.742	131.75
218.96	62.12
219.179	12.97
219.397	80.55
219.615	76.46
219.833	84.65
220.051	25.26
220.27	31.4
220.488	64.17
220.706	43.69
220.924	129.7
221.142	-58.71
221.36	-30.04
221.578	12.97
221.796	2.73
222.015	82.6
222.233	10.92
222.451	64.17
222.669	27.31
222.887	-13.65
223.105	27.31
223.323	72.36
223.541	-1.37
223.759	4.78
223.977	78.51
224.195	43.69
224.413	127.66
224.631	98.99
224.849	-23.89
225.067	68.27
225.285	80.55
225.503	39.59
225.721	-13.65
225.939	53.93
226.157	68.27
226.375	76.46
226.592	90.79
226.81	23.21
227.028	6.83
227.246	47.79
227.464	19.11
227.682	72.36
227.9	80.55
228.117	64.17
228.335	47.79
228.553	88.75
228.771	49.83
228.989	53.93
229.206	115.37
229.424	66.22
229.642	-5.46
229.86	23.21
230.077	107.18
230.295	123.56
230.513	101.03
230.731	58.03
230.948	41.64
231.166	84.65
231.384	4.78
231.601	27.31
231.819	6.83
232.037	98.99
232.254	68.27
232.472	113.32
232.689	78.51
232.907	72.36
233.125	27.31
233.342	72.36
233.56	-23.89
233.777	17.07
233.995	33.45
234.213	25.26
234.43	47.79
234.648	47.79
234.865	4.78
235.083	29.35
235.3	39.59
235.518	76.46
235.735	68.27
235.953	125.61
236.17	31.4
236.388	17.07
236.605	47.79
236.822	33.45
237.04	-15.7
237.257	6.83
237.475	2.73
237.692	15.02
237.909	55.98
238.127	47.79
238.344	90.79
238.562	103.08
238.779	-38.23
238.996	51.88
239.214	0.68
239.431	35.5
239.648	31.4
239.865	72.36
240.083	62.12
240.3	25.26
240.517	12.97
240.735	47.79
240.952	25.26
241.169	103.08
241.386	19.11
241.603	43.69
241.821	-1.37
242.038	41.64
242.255	88.75
242.472	105.13
242.689	62.12
242.907	-25.94
243.124	49.83
243.341	58.03
243.558	19.11
243.775	-19.8
243.992	-13.65
244.209	35.5
244.426	84.65
244.643	70.31
244.86	33.45
245.078	51.88
245.295	47.79
245.512	41.64
245.729	-9.56
245.946	45.74
246.163	35.5
246.38	58.03
246.597	43.69
246.814	84.65
247.031	74.41
247.248	64.17
247.464	39.59
247.681	35.5
247.898	55.98
248.115	31.4
248.332	98.99
248.549	113.32
248.766	2.73
248.983	39.59
249.2	88.75
249.417	-17.75
249.633	64.17
249.85	107.18
250.067	35.5
250.284	60.07
250.501	68.27
250.717	111.27
250.934	8.87
251.151	35.5
251.368	49.83
251.585	2.73
251.801	-11.61
252.018	84.65
252.235	101.03
252.451	6.83
252.668	39.59
252.885	68.27
253.102	53.93
253.318	31.4
253.535	51.88
253.752	90.79
253.968	12.97
254.185	-17.75
254.401	82.6
254.618	103.08
254.835	-19.8
255.051	47.79
255.268	62.12
255.484	33.45
255.701	82.6
255.917	47.79
256.134	-87.38
256.351	86.7
256.567	2.73
256.784	51.88
257	-44.37
257.217	58.03
257.433	66.22
257.65	47.79
257.866	37.55
258.082	0.68
258.299	125.61
258.515	66.22
258.732	21.16
258.948	23.21
259.165	21.16
259.381	29.35
259.597	-13.65
259.814	47.79
260.03	62.12
260.246	84.65
260.463	37.55
260.679	15.02
260.895	43.69
261.112	98.99
261.328	21.16
261.544	43.69
261.761	135.85
261.977	101.03
262.193	23.21
262.409	84.65
262.626	66.22
262.842	-34.13
263.058	66.22
263.274	72.36
263.49	39.59
263.707	66.22
263.923	33.45
264.139	-13.65
264.355	70.31
264.571	96.94
264.787	58.03
265.004	-23.89
265.22	-15.7
265.436	68.27
265.652	41.64
265.868	76.46
266.084	27.31
266.3	55.98
266.516	-44.37
266.732	47.79
266.948	2.73
267.164	47.79
267.38	55.98
267.596	47.79
267.812	41.64
268.028	103.08
268.244	17.07
268.46	31.4
268.676	64.17
268.892	121.51
269.108	10.92
269.324	53.93
269.54	55.98
269.756	141.99
269.972	21.16
270.188	39.59
270.403	0.68
270.619	-32.08
270.835	47.79
271.051	35.5
271.267	72.36
271.483	55.98
271.698	43.69
271.914	129.7
272.13	72.36
272.346	35.5
272.562	68.27
272.777	27.31
272.993	94.89
273.209	55.98
273.425	76.46
273.64	-13.65
273.856	82.6
274.072	133.8
274.287	55.98
274.503	51.88
274.719	33.45
274.934	-38.23
275.15	19.11
275.366	64.17
275.581	29.35
275.797	31.4
276.012	76.46
276.228	6.83
276.444	76.46
276.659	60.07
276.875	-11.61
277.09	19.11
277.306	21.16
277.521	45.74
277.737	29.35
277.952	74.41
278.168	27.31
278.383	19.11
278.599	68.27
278.814	101.03
279.03	23.21
279.245	139.94
279.461	111.27
279.676	121.51
279.892	60.07
280.107	58.03
280.322	23.21
280.538	150.18
280.753	-38.23
280.969	105.13
281.184	78.51
281.399	103.08
281.615	47.79
281.83	76.46
282.045	-32.08
282.26	6.83
282.476	92.84
282.691	127.66
282.906	6.83
283.122	105.13
283.337	15.02
283.552	76.46
283.767	68.27
283.983	58.03
284.198	129.7
284.413	86.7
284.628	84.65
284.843	43.69
285.058	86.7
285.274	72.36
285.489	51.88
285.704	51.88
285.919	117.42
286.134	70.31
286.349	86.7
286.564	90.79
286.779	64.17
286.995	84.65
287.21	10.92
287.425	135.85
287.64	41.64
287.855	53.93
288.07	-30.04
288.285	141.99
288.5	101.03
288.715	96.94
288.93	17.07
289.145	68.27
289.36	53.93
289.575	-27.99
289.79	74.41
290.004	60.07
290.219	72.36
290.434	27.31
290.649	31.4
290.864	39.59
291.079	96.94
291.294	90.79
291.509	84.65
291.724	80.55
291.938	82.6
292.153	55.98
292.368	109.22
292.583	80.55
292.798	-11.61
293.012	76.46
293.227	-9.56
293.442	58.03
293.657	45.74
293.871	-7.51
294.086	27.31
294.301	111.27
294.516	66.22
294.73	70.31
294.945	103.08
295.16	105.13
295.374	109.22
295.589	88.75
295.804	68.27
296.018	25.26
296.233	53.93
296.447	37.55
296.662	-19.8
296.877	76.46
297.091	150.18
297.306	35.5
297.52	43.69
297.735	-38.23
297.949	72.36
298.164	43.69
298.378	64.17
298.593	39.59
298.807	74.41
299.022	0.68
299.236	53.93
299.451	123.56
299.665	31.4
299.88	55.98
300.094	45.74
300.309	101.03
300.523	58.03
300.737	78.51
300.952	66.22
301.166	78.51
301.381	2.73
301.595	31.4
301.809	90.79
302.024	35.5
302.238	82.6
302.452	125.61
302.667	39.59
302.881	76.46
303.095	25.26
303.309	127.66
303.524	19.11
303.738	47.79
303.952	55.98
304.166	55.98
304.381	39.59
304.595	60.07
304.809	31.4
305.023	49.83
305.237	96.94
305.452	33.45
305.666	76.46
305.88	27.31
306.094	39.59
306.308	113.32
306.522	135.85
306.736	94.89
306.95	33.45
307.164	19.11
307.379	70.31
307.593	111.27
307.807	117.42
308.021	150.18
308.235	53.93
308.449	43.69
308.663	31.4
308.877	47.79
309.091	23.21
309.305	68.27
309.519	-5.46
309.733	131.75
309.947	-21.85
310.161	62.12
310.374	47.79
310.588	117.42
310.802	74.41
311.016	84.65
311.23	76.46
311.444	60.07
311.658	-36.18
311.872	41.64
312.085	37.55
312.299	23.21
312.513	25.26
312.727	15.02
312.941	58.03
313.154	39.59
313.368	35.5
313.582	43.69
313.796	80.55
314.009	15.02
314.223	82.6
314.437	125.61
314.651	121.51
314.864	27.31
315.078	72.36
315.292	-64.85
315.505	86.7
315.719	12.97
315.933	64.17
316.146	33.45
316.36	45.74
316.573	123.56
316.787	117.42
317.001	33.45
317.214	19.11
317.428	45.74
317.641	23.21
317.855	129.7
318.068	92.84
318.282	98.99
318.495	144.04
318.709	148.14
318.922	21.16
319.136	60.07
319.349	41.64
319.563	64.17
319.776	19.11
319.99	10.92
320.203	84.65
320.417	68.27
320.63	23.21
320.843	80.55
321.057	105.13
321.27	82.6
321.483	60.07
321.697	53.93
321.91	55.98
322.124	78.51
322.337	68.27
322.55	47.79
322.763	43.69
322.977	84.65
323.19	88.75
323.403	-9.56
323.617	88.75
323.83	27.31
324.043	27.31
324.256	82.6
324.469	15.02
324.683	84.65
324.896	51.88
325.109	131.75
325.322	39.59
325.535	84.65
325.748	43.69
325.962	31.4
326.175	23.21
326.388	96.94
326.601	33.45
326.814	39.59
327.027	-7.51
327.24	109.22
327.453	68.27
327.666	96.94
327.879	70.31
328.092	15.02
328.305	58.03
328.518	41.64
328.731	43.69
328.944	47.79
329.157	37.55
329.37	74.41
329.583	115.37
329.796	49.83
330.009	25.26
330.222	84.65
330.435	49.83
330.648	66.22
330.861	62.12
331.073	105.13
331.286	60.07
331.499	105.13
331.712	-46.42
331.925	74.41
332.138	37.55
332.35	68.27
332.563	19.11
332.776	55.98
332.989	27.31
333.202	41.64
333.414	21.16
333.627	80.55
333.84	96.94
334.053	21.16
334.265	78.51
334.478	27.31
334.691	43.69
334.903	82.6
335.116	19.11
335.329	84.65
335.541	64.17
335.754	113.32
335.966	96.94
336.179	60.07
336.392	58.03
336.604	55.98
336.817	62.12
337.029	68.27
337.242	45.74
337.454	76.46
337.667	55.98
337.88	107.18
338.092	107.18
338.305	129.7
338.517	60.07
338.729	51.88
338.942	80.55
339.154	88.75
339.367	23.21
339.579	39.59
339.792	39.59
340.004	94.89
340.217	60.07
340.429	84.65
340.641	51.88
340.854	80.55
341.066	17.07
341.278	101.03
341.491	41.64
341.703	58.03
341.915	68.27
342.128	103.08
342.34	72.36
342.552	55.98
342.764	101.03
342.977	41.64
343.189	41.64
343.401	92.84
343.613	35.5
343.826	101.03
344.038	47.79
344.25	70.31
344.462	27.31
344.674	90.79
344.886	76.46
345.099	76.46
345.311	21.16
345.523	72.36
345.735	17.07
345.947	113.32
346.159	17.07
346.371	86.7
346.583	76.46
346.795	92.84
347.007	60.07
347.219	164.52
347.431	41.64
347.643	105.13
347.855	17.07
348.067	90.79
348.279	12.97
348.491	88.75
348.703	98.99
348.915	27.31
349.127	41.64
349.339	76.46
349.551	107.18
349.763	113.32
349.975	25.26
350.187	121.51
350.399	133.8
350.61	55.98
350.822	19.11
351.034	121.51
351.246	88.75
351.458	105.13
351.669	29.35
351.881	150.18
352.093	98.99
352.305	29.35
352.517	117.42
352.728	21.16
352.94	113.32
353.152	84.65
353.363	55.98
353.575	88.75
353.787	68.27
353.999	76.46
354.21	154.28
354.422	53.93
354.633	68.27
354.845	66.22
355.057	37.55
355.268	117.42
355.48	107.18
355.692	43.69
355.903	51.88
356.115	68.27
356.326	2.73
356.538	133.8
356.749	6.83
356.961	101.03
357.172	144.04
357.384	51.88
357.595	141.99
357.807	70.31
358.018	43.69
358.23	84.65
358.441	129.7
358.653	-25.94
358.864	15.02
359.075	51.88
359.287	41.64
359.498	90.79
359.709	176.81
359.921	64.17
360.132	123.56
360.344	150.18
360.555	31.4
360.766	133.8
360.977	125.61
361.189	105.13
361.4	58.03
361.611	84.65
361.823	152.23
362.034	98.99
362.245	35.5
362.456	58.03
362.667	94.89
362.879	68.27
363.09	152.23
363.301	72.36
363.512	94.89
363.723	109.22
363.935	2.73
364.146	70.31
364.357	-40.28
364.568	76.46
364.779	-48.47
364.99	162.47
365.201	101.03
365.412	162.47
365.623	-21.85
365.834	129.7
366.045	-13.65
366.256	105.13
366.467	146.09
366.678	98.99
366.889	121.51
367.1	68.27
367.311	115.37
367.522	94.89
367.733	47.79
367.944	70.31
368.155	107.18
368.366	51.88
368.577	51.88
368.788	170.66
368.999	2.73
369.209	76.46
369.42	96.94
369.631	94.89
369.842	148.14
370.053	43.69
370.264	76.46
370.474	82.6
370.685	66.22
370.896	131.75
371.107	55.98
371.317	98.99
371.528	133.8
371.739	176.81
371.95	82.6
372.16	92.84
372.371	82.6
372.582	141.99
372.792	60.07
373.003	152.23
373.214	109.22
373.424	55.98
373.635	-13.65
373.846	152.23
374.056	150.18
374.267	51.88
374.477	31.4
374.688	66.22
374.898	137.9
375.109	31.4
375.319	109.22
375.53	78.51
375.74	150.18
375.951	96.94
376.161	103.08
376.372	168.62
376.582	86.7
376.793	43.69
377.003	150.18
377.214	115.37
377.424	51.88
377.635	21.16
377.845	117.42
378.055	121.51
378.266	64.17
378.476	53.93
378.686	146.09
378.897	27.31
379.107	64.17
379.317	107.18
379.528	17.07
379.738	58.03
379.948	-7.51
380.158	152.23
380.369	101.03
380.579	117.42
380.789	82.6
380.999	109.22
381.21	17.07
381.42	131.75
381.63	90.79
381.84	74.41
382.05	96.94
382.261	156.33
382.471	156.33
382.681	137.9
382.891	111.27
383.101	58.03
383.311	43.69
383.521	66.22
383.731	27.31
383.941	123.56
384.151	76.46
384.361	123.56
384.571	27.31
384.781	129.7
384.991	168.62
385.201	111.27
385.411	105.13
385.621	119.46
385.831	101.03
386.041	84.65
386.251	117.42
386.461	127.66
386.671	68.27
386.881	111.27
387.091	94.89
387.301	92.84
387.511	74.41
387.72	64.17
387.93	160.42
388.14	109.22
388.35	125.61
388.56	105.13
388.769	127.66
388.979	191.14
389.189	94.89
389.399	139.94
389.609	76.46
389.818	139.94
390.028	35.5
390.238	103.08
390.447	66.22
390.657	39.59
390.867	92.84
391.076	35.5
391.286	199.34
391.496	146.09
391.705	70.31
391.915	60.07
392.125	141.99
392.334	133.8
392.544	164.52
392.753	101.03
392.963	121.51
393.172	117.42
393.382	82.6
393.591	172.71
393.801	131.75
394.01	197.29
394.22	96.94
394.429	131.75
394.639	96.94
394.848	68.27
395.058	68.27
395.267	164.52
395.477	78.51
395.686	129.7
395.895	133.8
396.105	170.66
396.314	82.6
396.524	125.61
396.733	127.66
396.942	262.82
397.152	185
397.361	178.86
397.57	92.84
397.78	133.8
397.989	76.46
398.198	162.47
398.407	119.46
398.617	199.34
398.826	123.56
399.035	166.57
399.244	213.67
399.453	92.84
399.663	164.52
399.872	207.53
400.081	195.24
400.29	146.09
400.499	139.94
400.708	174.76
400.917	170.66
401.127	154.28
401.336	170.66
401.545	195.24
401.754	207.53
401.963	230.06
402.172	137.9
402.381	213.67
402.59	158.38
402.799	70.31
403.008	228.01
403.217	252.58
403.426	213.67
403.635	162.47
403.844	178.86
404.053	178.86
404.262	180.9
404.471	289.45
404.68	232.1
404.888	260.77
405.097	166.57
405.306	238.25
405.515	275.11
405.724	250.53
405.933	299.69
406.142	240.29
406.35	297.64
406.559	348.84
406.768	285.35
406.977	344.74
407.185	299.69
407.394	281.25
407.603	318.12
407.812	330.41
408.02	342.69
408.229	326.31
408.438	342.69
408.646	385.7
408.855	326.31
409.064	449.19
409.272	336.55
409.481	494.24
409.69	377.51
409.898	357.03
410.107	416.42
410.315	465.57
410.524	510.63
410.733	467.62
410.941	527.01
411.15	498.34
411.358	527.01
411.567	688.8
411.775	565.92
411.984	602.79
412.192	653.98
412.401	727.71
412.609	721.57
412.818	666.27
413.026	715.42
413.234	758.43
413.443	780.96
413.651	813.73
413.86	838.3
414.068	875.17
414.276	944.8
414.485	934.56
414.693	952.99
414.901	1057.43
415.11	1059.48
415.318	1026.71
415.526	1110.68
415.734	1163.93
415.943	1196.7
416.151	1268.38
416.359	1170.07
416.567	1372.82
416.776	1362.58
416.984	1448.6
417.192	1454.74
417.4	1415.83
417.608	1442.45
417.817	1602.19
418.025	1677.97
418.233	1673.87
418.441	1608.34
418.649	1768.08
418.857	1872.53
419.065	1958.54
419.273	2017.93
419.481	1931.92
419.689	2122.38
419.897	2114.19
420.105	2204.3
420.313	2337.41
420.521	2394.76
420.729	2347.65
420.937	2501.25
421.145	2591.36
421.353	2704
421.561	2744.96
421.769	2833.02
421.977	3027.58
422.185	2998.91
422.393	3293.82
422.601	3271.29
422.809	3236.47
423.017	3453.56
423.224	3629.68
423.432	3656.31
423.64	3607.16
423.848	4041.32
424.056	4102.76
424.263	4153.96
424.471	4178.54
424.679	4321.9
424.887	4438.63
425.094	4702.82
425.302	4754.02
425.51	4883.04
425.718	4940.38
425.925	5055.07
426.133	5276.25
426.341	5487.19
426.548	5659.22
426.756	5704.28
426.964	5931.6
427.171	6269.51
427.379	6359.63
427.586	6505.03
427.794	6652.49
428.001	7031.36
428.209	7311.93
428.417	7133.76
428.624	7625.27
428.832	7551.54
429.039	7645.75
429.247	7617.08
429.454	8372.78
429.662	8858.15
429.869	8325.68
430.076	8825.38
430.284	8493.61
430.491	8985.12
430.699	9658.9
430.906	9560.6
431.114	9697.81
431.321	10066.45
431.528	10258.96
431.736	10842.63
431.943	11172.35
432.15	11026.95
432.358	10918.4
432.565	11645.43
432.772	11532.79
432.979	12394.99
433.187	12360.17
433.394	12642.79
433.601	13445.6
433.808	13384.16
434.016	13457.89
434.223	13908.44
434.43	14899.66
434.637	14414.29
434.844	15280.58
435.052	15790.52
435.259	15417.79
435.466	15856.06
435.673	15598.01
435.88	16677.29
436.087	17166.76
436.294	17310.11
436.501	16755.11
436.708	17652.13
436.915	17885.59
437.122	18520.46
437.329	18411.92
437.537	19300.74
437.743	19437.95
437.95	19229.06
438.157	20517.23
438.364	20709.74
438.571	21088.62
438.778	21113.19
438.985	23322.95
439.192	22042.97
439.399	23226.7
439.606	22262.1
439.813	23691.59
440.02	25098.54
440.227	24523.06
440.433	24346.94
440.64	25387.3
440.847	24875.31
441.054	25641.25
441.261	27214.09
441.467	26878.22
441.674	27793.67
441.881	28297.47
442.088	28549.37
442.294	27771.14
442.501	28610.81
442.708	29317.36
442.914	30638.3
443.121	31758.53
443.328	31256.78
443.534	33155.25
443.741	32415.93
443.948	31633.61
444.154	34304.16
444.361	33714.34
444.568	33999.01
444.774	33980.58
444.981	34648.22
445.187	35227.79
445.394	36925.56
445.6	36325.5
445.807	40058.95
446.013	37879.91
446.22	38719.58
446.426	40495.17
446.633	40388.67
446.839	41920.56
447.046	40527.94
447.252	42446.88
447.459	42520.61
447.665	41775.15
447.871	44095.5
448.078	45916.14
448.284	43323.41
448.491	44402.69
448.697	46256.1
448.903	47243.23
449.11	47452.12
449.316	46632.93
449.522	47228.89
449.728	48244.68
449.935	48508.87
450.141	48805.83
450.347	50071.47
450.553	48422.86
450.76	49006.53
450.966	50147.25
451.172	49672.12
451.378	50995.1
451.584	49928.11
451.791	50999.2
451.997	50995.1
452.203	51834.77
452.409	51503
452.615	51302.3
452.821	49715.12
453.027	49186.75
453.233	51447.71
453.44	49354.68
453.646	49964.98
453.852	50302.89
454.058	50730.92
454.264	49084.35
454.47	50204.59
454.676	49102.78
454.882	50966.43
455.088	46569.44
455.294	47153.12
455.5	47423.45
455.705	48191.44
455.911	45981.68
456.117	45006.84
456.323	44863.49
456.529	42328.1
456.735	44298.25
456.941	43139.1
457.147	42534.95
457.352	41271.35
457.558	40452.16
457.764	40693.82
457.97	39794.76
458.176	39254.1
458.381	38891.61
458.587	37245.04
458.793	37081.2
458.999	35127.44
459.204	37984.36
459.41	36972.66
459.616	34349.21
459.821	34343.07
460.027	34244.77
460.233	33636.52
460.438	31926.47
460.644	32530.62
460.85	31129.81
461.055	30478.55
461.261	30314.72
461.466	28367.1
461.672	27269.39
461.878	29450.47
462.083	27371.78
462.289	26820.88
462.494	26419.48
462.7	25313.58
462.905	25045.29
463.111	25932.06
463.316	25723.17
463.522	25282.86
463.727	25301.29
463.932	25170.22
464.138	24957.23
464.343	25080.11
464.549	24172.86
464.754	25180.46
464.959	24822.06
465.165	24707.38
465.37	23812.42
465.575	22939.98
465.781	24189.24
465.986	24097.08
