Data from USB4F104151__1__10-19-48-130.txt Node

Date: Wed Mar 12 10:19:48 EDT 2025
User: louis
Spectrometer: USB4F10415
Trigger mode: 4
Integration Time (sec): 3.000000E-2
Scans to average: 1
Electric dark correction enabled: true
Nonlinearity correction enabled: false
Boxcar width: 0
XAxis mode: Wavelengths
Number of Pixels in Spectrum: 3648
>>>>>Begin Spectral Data<<<<<
178.204	-62.46
178.424	-62.46
178.644	-62.46
178.864	-89.09
179.084	-78.85
179.304	-1.02
179.524	31.74
179.744	17.41
179.964	-7.17
180.184	-1.02
180.404	-11.26
180.624	-11.26
180.844	-21.5
181.064	-35.84
181.283	33.79
181.503	-33.79
181.723	39.94
181.943	62.46
182.163	134.14
182.383	-3.07
182.602	52.22
182.822	74.75
183.042	136.19
183.262	80.89
183.482	-7.17
183.701	13.31
183.921	48.13
184.141	11.26
184.361	107.52
184.58	82.94
184.8	15.36
185.02	5.12
185.239	113.66
185.459	103.42
185.679	144.38
185.898	-50.18
186.118	166.91
186.338	-1.02
186.557	62.46
186.777	1.02
186.997	78.85
187.216	-19.46
187.436	80.89
187.655	33.79
187.875	148.48
188.095	39.94
188.314	95.23
188.534	144.38
188.753	17.41
188.973	62.46
189.192	25.6
189.412	80.89
189.631	33.79
189.851	156.67
190.07	91.13
190.29	-31.74
190.509	58.37
190.729	25.6
190.948	93.18
191.168	68.61
191.387	64.51
191.607	44.03
191.826	87.04
192.045	52.22
192.265	66.56
192.484	1.02
192.704	33.79
192.923	7.17
193.142	91.13
193.362	11.26
193.581	107.52
193.8	70.65
194.02	-9.22
194.239	5.12
194.458	41.98
194.678	17.41
194.897	-3.07
195.116	66.56
195.335	44.03
195.555	70.65
195.774	97.28
195.993	84.99
196.212	113.66
196.432	78.85
196.651	91.13
196.87	41.98
197.089	82.94
197.308	13.31
197.528	9.22
197.747	62.46
197.966	156.67
198.185	50.18
198.404	15.36
198.623	119.81
198.842	89.09
199.062	95.23
199.281	41.98
199.5	95.23
199.719	50.18
199.938	17.41
200.157	82.94
200.376	68.61
200.595	95.23
200.814	29.7
201.033	91.13
201.252	13.31
201.471	37.89
201.69	95.23
201.909	37.89
202.128	113.66
202.347	74.75
202.566	1.02
202.785	70.65
203.004	50.18
203.223	105.47
203.442	91.13
203.661	50.18
203.879	23.55
204.098	105.47
204.317	-23.55
204.536	1.02
204.755	117.76
204.974	41.98
205.193	44.03
205.411	21.5
205.63	64.51
205.849	80.89
206.068	84.99
206.287	50.18
206.505	-13.31
206.724	27.65
206.943	-19.46
207.162	35.84
207.381	54.27
207.599	-1.02
207.818	1.02
208.037	17.41
208.255	56.32
208.474	39.94
208.693	23.55
208.911	70.65
209.13	136.19
209.349	21.5
209.567	39.94
209.786	89.09
210.005	-27.65
210.223	62.46
210.442	-7.17
210.661	29.7
210.879	-1.02
211.098	-1.02
211.316	60.42
211.535	74.75
211.753	103.42
211.972	82.94
212.191	33.79
212.409	11.26
212.628	125.95
212.846	25.6
213.065	31.74
213.283	31.74
213.502	33.79
213.72	-33.79
213.938	29.7
214.157	58.37
214.375	66.56
214.594	-17.41
214.812	56.32
215.031	-7.17
215.249	54.27
215.467	27.65
215.686	5.12
215.904	84.99
216.122	72.7
216.341	70.65
216.559	91.13
216.778	31.74
216.996	54.27
217.214	9.22
217.432	-25.6
217.651	19.46
217.869	11.26
218.087	66.56
218.306	56.32
218.524	35.84
218.742	111.61
218.96	46.08
219.179	-19.46
219.397	68.61
219.615	154.62
219.833	140.29
220.051	39.94
220.27	50.18
220.488	74.75
220.706	82.94
220.924	50.18
221.142	72.7
221.36	78.85
221.578	5.12
221.796	89.09
222.015	27.65
222.233	-19.46
222.451	115.71
222.669	21.5
222.887	48.13
223.105	-7.17
223.323	111.61
223.541	-15.36
223.759	70.65
223.977	1.02
224.195	113.66
224.413	50.18
224.631	46.08
224.849	91.13
225.067	41.98
225.285	93.18
225.503	33.79
225.721	-11.26
225.939	46.08
226.157	121.85
226.375	107.52
226.592	-5.12
226.81	72.7
227.028	70.65
227.246	72.7
227.464	80.89
227.682	87.04
227.9	31.74
228.117	80.89
228.335	33.79
228.553	121.85
228.771	15.36
228.989	46.08
229.206	15.36
229.424	21.5
229.642	15.36
229.86	39.94
230.077	74.75
230.295	58.37
230.513	15.36
230.731	54.27
230.948	105.47
231.166	78.85
231.384	33.79
231.601	54.27
231.819	84.99
232.037	62.46
232.254	48.13
232.472	15.36
232.689	82.94
232.907	7.17
233.125	29.7
233.342	91.13
233.56	60.42
233.777	50.18
233.995	87.04
234.213	74.75
234.43	111.61
234.648	48.13
234.865	19.46
235.083	52.22
235.3	62.46
235.518	46.08
235.735	3.07
235.953	39.94
236.17	35.84
236.388	138.24
236.605	33.79
236.822	97.28
237.04	78.85
237.257	-11.26
237.475	27.65
237.692	54.27
237.909	27.65
238.127	-25.6
238.344	82.94
238.562	46.08
238.779	-17.41
238.996	-27.65
239.214	25.6
239.431	152.57
239.648	39.94
239.865	72.7
240.083	74.75
240.3	103.42
240.517	17.41
240.735	93.18
240.952	123.9
241.169	70.65
241.386	130.05
241.603	-5.12
241.821	82.94
242.038	80.89
242.255	97.28
242.472	19.46
242.689	105.47
242.907	74.75
243.124	-7.17
243.341	82.94
243.558	48.13
243.775	-52.22
243.992	-23.55
244.209	72.7
244.426	58.37
244.643	62.46
244.86	54.27
245.078	74.75
245.295	-7.17
245.512	41.98
245.729	58.37
245.946	58.37
246.163	39.94
246.38	105.47
246.597	74.75
246.814	-21.5
247.031	101.37
247.248	103.42
247.464	-7.17
247.681	89.09
247.898	7.17
248.115	74.75
248.332	41.98
248.549	44.03
248.766	99.33
248.983	121.85
249.2	62.46
249.417	46.08
249.633	33.79
249.85	99.33
250.067	41.98
250.284	78.85
250.501	60.42
250.717	9.22
250.934	25.6
251.151	64.51
251.368	87.04
251.585	82.94
251.801	25.6
252.018	101.37
252.235	62.46
252.451	23.55
252.668	-9.22
252.885	125.95
253.102	66.56
253.318	105.47
253.535	11.26
253.752	82.94
253.968	44.03
254.185	35.84
254.401	70.65
254.618	-5.12
254.835	66.56
255.051	103.42
255.268	66.56
255.484	-7.17
255.701	74.75
255.917	107.52
256.134	44.03
256.351	48.13
256.567	66.56
256.784	93.18
257	-25.6
257.217	3.07
257.433	9.22
257.65	46.08
257.866	41.98
258.082	-27.65
258.299	7.17
258.515	64.51
258.732	-5.12
258.948	-54.27
259.165	117.76
259.381	91.13
259.597	48.13
259.814	162.81
260.03	91.13
260.246	41.98
260.463	66.56
260.679	60.42
260.895	39.94
261.112	99.33
261.328	125.95
261.544	48.13
261.761	58.37
261.977	62.46
262.193	82.94
262.409	17.41
262.626	89.09
262.842	64.51
263.058	23.55
263.274	84.99
263.49	54.27
263.707	64.51
263.923	87.04
264.139	5.12
264.355	17.41
264.571	74.75
264.787	-1.02
265.004	13.31
265.22	91.13
265.436	89.09
265.652	-9.22
265.868	50.18
266.084	33.79
266.3	130.05
266.516	78.85
266.732	82.94
266.948	21.5
267.164	95.23
267.38	23.55
267.596	78.85
267.812	29.7
268.028	70.65
268.244	-9.22
268.46	74.75
268.676	80.89
268.892	48.13
269.108	78.85
269.324	66.56
269.54	1.02
269.756	97.28
269.972	66.56
270.188	29.7
270.403	48.13
270.619	82.94
270.835	72.7
271.051	72.7
271.267	46.08
271.483	33.79
271.698	78.85
271.914	95.23
272.13	-9.22
272.346	91.13
272.562	19.46
272.777	95.23
272.993	70.65
273.209	-19.46
273.425	58.37
273.64	70.65
273.856	95.23
274.072	70.65
274.287	37.89
274.503	56.32
274.719	58.37
274.934	99.33
275.15	48.13
275.366	76.8
275.581	37.89
275.797	39.94
276.012	41.98
276.228	-17.41
276.444	56.32
276.659	80.89
276.875	-3.07
277.09	89.09
277.306	37.89
277.521	76.8
277.737	21.5
277.952	54.27
278.168	54.27
278.383	132.09
278.599	9.22
278.814	25.6
279.03	-11.26
279.245	144.38
279.461	62.46
279.676	15.36
279.892	80.89
280.107	54.27
280.322	15.36
280.538	125.95
280.753	11.26
280.969	37.89
281.184	91.13
281.399	70.65
281.615	39.94
281.83	-19.46
282.045	33.79
282.26	60.42
282.476	-39.94
282.691	52.22
282.906	66.56
283.122	144.38
283.337	-17.41
283.552	50.18
283.767	21.5
283.983	29.7
284.198	70.65
284.413	93.18
284.628	33.79
284.843	33.79
285.058	50.18
285.274	11.26
285.489	29.7
285.704	74.75
285.919	31.74
286.134	74.75
286.349	56.32
286.564	103.42
286.779	89.09
286.995	41.98
287.21	39.94
287.425	91.13
287.64	21.5
287.855	58.37
288.07	58.37
288.285	113.66
288.5	41.98
288.715	52.22
288.93	97.28
289.145	9.22
289.36	103.42
289.575	29.7
289.79	5.12
290.004	66.56
290.219	78.85
290.434	95.23
290.649	99.33
290.864	74.75
291.079	35.84
291.294	23.55
291.509	-17.41
291.724	101.37
291.938	19.46
292.153	62.46
292.368	76.8
292.583	-17.41
292.798	15.36
293.012	52.22
293.227	41.98
293.442	41.98
293.657	97.28
293.871	105.47
294.086	82.94
294.301	52.22
294.516	-23.55
294.73	125.95
294.945	35.84
295.16	105.47
295.374	48.13
295.589	37.89
295.804	25.6
296.018	33.79
296.233	87.04
296.447	39.94
296.662	29.7
296.877	97.28
297.091	46.08
297.306	50.18
297.52	25.6
297.735	95.23
297.949	33.79
298.164	54.27
298.378	97.28
298.593	31.74
298.807	140.29
299.022	17.41
299.236	64.51
299.451	82.94
299.665	68.61
299.88	35.84
300.094	89.09
300.309	66.56
300.523	33.79
300.737	62.46
300.952	56.32
301.166	87.04
301.381	70.65
301.595	-23.55
301.809	62.46
302.024	17.41
302.238	-1.02
302.452	17.41
302.667	33.79
302.881	121.85
303.095	111.61
303.309	111.61
303.524	13.31
303.738	95.23
303.952	21.5
304.166	132.09
304.381	27.65
304.595	144.38
304.809	97.28
305.023	29.7
305.237	-1.02
305.452	1.02
305.666	70.65
305.88	82.94
306.094	66.56
306.308	68.61
306.522	84.99
306.736	29.7
306.95	39.94
307.164	130.05
307.379	21.5
307.593	121.85
307.807	128
308.021	54.27
308.235	103.42
308.449	-5.12
308.663	56.32
308.877	78.85
309.091	17.41
309.305	91.13
309.519	58.37
309.733	68.61
309.947	95.23
310.161	17.41
310.374	66.56
310.588	35.84
310.802	80.89
311.016	17.41
311.23	54.27
311.444	23.55
311.658	1.02
311.872	82.94
312.085	56.32
312.299	117.76
312.513	41.98
312.727	74.75
312.941	66.56
313.154	60.42
313.368	58.37
313.582	84.99
313.796	64.51
314.009	74.75
314.223	111.61
314.437	70.65
314.651	158.72
314.864	9.22
315.078	109.57
315.292	-19.46
315.505	52.22
315.719	95.23
315.933	91.13
316.146	13.31
316.36	33.79
316.573	35.84
316.787	132.09
317.001	78.85
317.214	60.42
317.428	29.7
317.641	33.79
317.855	72.7
318.068	78.85
318.282	82.94
318.495	58.37
318.709	56.32
318.922	62.46
319.136	74.75
319.349	76.8
319.563	46.08
319.776	70.65
319.99	13.31
320.203	58.37
320.417	78.85
320.63	13.31
320.843	119.81
321.057	111.61
321.27	25.6
321.483	52.22
321.697	1.02
321.91	-7.17
322.124	56.32
322.337	-7.17
322.55	101.37
322.763	78.85
322.977	48.13
323.19	7.17
323.403	70.65
323.617	37.89
323.83	97.28
324.043	-31.74
324.256	44.03
324.469	31.74
324.683	80.89
324.896	87.04
325.109	64.51
325.322	111.61
325.535	44.03
325.748	80.89
325.962	70.65
326.175	41.98
326.388	46.08
326.601	74.75
326.814	27.65
327.027	89.09
327.24	132.09
327.453	74.75
327.666	115.71
327.879	103.42
328.092	111.61
328.305	62.46
328.518	-7.17
328.731	82.94
328.944	-1.02
329.157	117.76
329.37	130.05
329.583	154.62
329.796	91.13
330.009	-1.02
330.222	113.66
330.435	91.13
330.648	39.94
330.861	74.75
331.073	87.04
331.286	117.76
331.499	25.6
331.712	13.31
331.925	35.84
332.138	-3.07
332.35	50.18
332.563	33.79
332.776	150.53
332.989	80.89
333.202	91.13
333.414	58.37
333.627	95.23
333.84	50.18
334.053	74.75
334.265	54.27
334.478	52.22
334.691	62.46
334.903	54.27
335.116	78.85
335.329	21.5
335.541	23.55
335.754	33.79
335.966	89.09
336.179	74.75
336.392	19.46
336.604	66.56
336.817	99.33
337.029	70.65
337.242	50.18
337.454	68.61
337.667	21.5
337.88	76.8
338.092	23.55
338.305	80.89
338.517	-5.12
338.729	44.03
338.942	70.65
339.154	-1.02
339.367	29.7
339.579	46.08
339.792	56.32
340.004	1.02
340.217	66.56
340.429	37.89
340.641	41.98
340.854	19.46
341.066	70.65
341.278	154.62
341.491	156.67
341.703	70.65
341.915	-15.36
342.128	58.37
342.34	21.5
342.552	74.75
342.764	17.41
342.977	130.05
343.189	52.22
343.401	80.89
343.613	23.55
343.826	48.13
344.038	-15.36
344.25	160.77
344.462	64.51
344.674	87.04
344.886	-48.13
345.099	11.26
345.311	107.52
345.523	181.25
345.735	50.18
345.947	50.18
346.159	37.89
346.371	66.56
346.583	72.7
346.795	78.85
347.007	115.71
347.219	140.29
347.431	52.22
347.643	105.47
347.855	87.04
348.067	78.85
348.279	62.46
348.491	33.79
348.703	56.32
348.915	64.51
349.127	76.8
349.339	58.37
349.551	-1.02
349.763	80.89
349.975	68.61
350.187	64.51
350.399	78.85
350.61	54.27
350.822	82.94
351.034	91.13
351.246	113.66
351.458	103.42
351.669	91.13
351.881	74.75
352.093	54.27
352.305	17.41
352.517	138.24
352.728	109.57
352.94	25.6
353.152	107.52
353.363	31.74
353.575	99.33
353.787	103.42
353.999	105.47
354.21	121.85
354.422	33.79
354.633	9.22
354.845	64.51
355.057	58.37
355.268	41.98
355.48	80.89
355.692	-64.51
355.903	121.85
356.115	7.17
356.326	50.18
356.538	107.52
356.749	74.75
356.961	52.22
357.172	89.09
357.384	23.55
357.595	111.61
357.807	89.09
358.018	101.37
358.23	62.46
358.441	68.61
358.653	48.13
358.864	72.7
359.075	130.05
359.287	58.37
359.498	91.13
359.709	87.04
359.921	89.09
360.132	66.56
360.344	-3.07
360.555	52.22
360.766	152.57
360.977	41.98
361.189	50.18
361.4	11.26
361.611	31.74
361.823	87.04
362.034	58.37
362.245	37.89
362.456	117.76
362.667	121.85
362.879	33.79
363.09	101.37
363.301	29.7
363.512	39.94
363.723	87.04
363.935	113.66
364.146	146.43
364.357	68.61
364.568	105.47
364.779	93.18
364.99	103.42
365.201	29.7
365.412	70.65
365.623	-19.46
365.834	105.47
366.045	37.89
366.256	58.37
366.467	89.09
366.678	33.79
366.889	99.33
367.1	99.33
367.311	33.79
367.522	62.46
367.733	70.65
367.944	-13.31
368.155	95.23
368.366	52.22
368.577	93.18
368.788	87.04
368.999	89.09
369.209	9.22
369.42	136.19
369.631	177.15
369.842	-15.36
370.053	35.84
370.264	70.65
370.474	82.94
370.685	101.37
370.896	41.98
371.107	31.74
371.317	62.46
371.528	64.51
371.739	87.04
371.95	7.17
372.16	48.13
372.371	62.46
372.582	72.7
372.792	121.85
373.003	56.32
373.214	140.29
373.424	5.12
373.635	66.56
373.846	148.48
374.056	-9.22
374.267	50.18
374.477	78.85
374.688	119.81
374.898	-1.02
375.109	50.18
375.319	23.55
375.53	82.94
375.74	17.41
375.951	70.65
376.161	103.42
376.372	113.66
376.582	54.27
376.793	140.29
377.003	21.5
377.214	48.13
377.424	21.5
377.635	58.37
377.845	150.53
378.055	136.19
378.266	76.8
378.476	72.7
378.686	115.71
378.897	107.52
379.107	66.56
379.317	97.28
379.528	13.31
379.738	66.56
379.948	33.79
380.158	76.8
380.369	72.7
380.579	78.85
380.789	74.75
380.999	179.2
381.21	93.18
381.42	103.42
381.63	97.28
381.84	121.85
382.05	80.89
382.261	82.94
382.471	138.24
382.681	39.94
382.891	160.77
383.101	41.98
383.311	103.42
383.521	123.9
383.731	70.65
383.941	107.52
384.151	109.57
384.361	95.23
384.571	130.05
384.781	23.55
384.991	111.61
385.201	152.57
385.411	72.7
385.621	70.65
385.831	107.52
386.041	58.37
386.251	138.24
386.461	150.53
386.671	109.57
386.881	78.85
387.091	33.79
387.301	144.38
387.511	58.37
387.72	103.42
387.93	82.94
388.14	-23.55
388.35	31.74
388.56	113.66
388.769	158.72
388.979	134.14
389.189	91.13
389.399	64.51
389.609	80.89
389.818	113.66
390.028	82.94
390.238	95.23
390.447	44.03
390.657	113.66
390.867	17.41
391.076	84.99
391.286	130.05
391.496	160.77
391.705	134.14
391.915	130.05
392.125	113.66
392.334	91.13
392.544	66.56
392.753	89.09
392.963	84.99
393.172	97.28
393.382	138.24
393.591	146.43
393.801	91.13
394.01	166.91
394.22	23.55
394.429	87.04
394.639	152.57
394.848	164.86
395.058	82.94
395.267	74.75
395.477	171.01
395.686	128
395.895	189.44
396.105	105.47
396.314	123.9
396.524	99.33
396.733	99.33
396.942	152.57
397.152	91.13
397.361	152.57
397.57	91.13
397.78	46.08
397.989	136.19
398.198	171.01
398.407	78.85
398.617	62.46
398.826	91.13
399.035	103.42
399.244	140.29
399.453	179.2
399.663	140.29
399.872	156.67
400.081	99.33
400.29	125.95
400.499	72.7
400.708	125.95
400.917	66.56
401.127	185.34
401.336	113.66
401.545	205.82
401.754	97.28
401.963	74.75
402.172	89.09
402.381	168.96
402.59	171.01
402.799	171.01
403.008	148.48
403.217	218.11
403.426	164.86
403.635	119.81
403.844	56.32
404.053	136.19
404.262	125.95
404.471	144.38
404.68	197.63
404.888	125.95
405.097	164.86
405.306	191.49
405.515	228.35
405.724	175.1
405.933	228.35
406.142	312.32
406.35	257.02
406.559	158.72
406.768	158.72
406.977	193.53
407.185	226.3
407.394	216.06
407.603	197.63
407.812	246.78
408.02	289.79
408.229	304.12
408.438	271.36
408.646	183.29
408.855	302.08
409.064	359.42
409.272	300.03
409.481	367.61
409.69	390.14
409.898	304.12
410.107	304.12
410.315	381.95
410.524	269.31
410.733	363.51
410.941	353.27
411.15	427
411.358	474.1
411.567	394.23
411.775	424.95
411.984	476.15
412.192	545.78
412.401	402.43
412.609	537.59
412.818	539.64
413.026	558.07
413.234	629.75
413.443	564.22
413.651	461.82
413.86	668.66
414.068	590.84
414.276	683
414.485	603.13
414.693	709.62
414.901	777.2
415.11	822.26
415.318	730.1
415.526	750.58
415.734	846.84
415.943	797.68
416.151	949.23
416.359	883.7
416.567	955.38
416.776	1014.77
416.984	992.24
417.192	988.14
417.4	967.67
417.608	1063.92
417.817	1084.4
418.025	1172.46
418.233	1194.99
418.441	1194.99
418.649	1203.18
418.857	1346.54
419.065	1364.97
419.273	1354.73
419.481	1455.08
419.689	1481.71
419.897	1522.66
420.105	1555.43
420.313	1641.45
420.521	1684.45
420.729	1799.14
420.937	1739.75
421.145	1971.17
421.353	1973.22
421.561	2110.43
421.769	2137.06
421.977	2276.32
422.185	2223.07
422.393	2204.64
422.601	2423.77
422.809	2434.01
423.017	2358.24
423.224	2556.89
423.432	2511.83
423.64	2671.58
423.848	2927.57
424.056	2827.22
424.263	3072.98
424.471	3050.45
424.679	3158.99
424.887	3271.63
425.094	3357.64
425.302	3398.6
425.51	3449.8
425.718	3662.79
425.925	3568.59
426.133	3728.33
426.341	4060.1
426.548	4045.76
426.756	4291.52
426.964	4158.4
427.171	4570.04
427.379	4531.13
427.586	4660.15
427.794	4750.26
428.001	5053.36
428.209	5112.75
428.417	5112.75
428.624	5567.4
428.832	5544.88
429.039	5350.32
429.247	5340.08
429.454	5907.37
429.662	6245.28
429.869	5979.04
430.076	6386.59
430.284	6196.13
430.491	6488.99
430.699	6804.38
430.906	6976.41
431.114	6898.58
431.321	7183.25
431.528	7316.37
431.736	7723.91
431.943	8063.88
432.15	7865.22
432.358	8166.28
432.565	8422.27
432.772	8170.37
432.979	8838.01
433.187	9071.48
433.394	8932.22
433.601	9606
433.808	9825.13
434.016	9464.69
434.223	10001.26
434.43	10529.63
434.637	10302.31
434.844	11031.38
435.052	11207.51
435.259	11232.08
435.466	11252.56
435.673	11107.16
435.88	12145.48
436.087	12548.93
436.294	12385.09
436.501	12186.44
436.708	12448.58
436.915	12935.99
437.122	13435.7
437.329	13466.42
437.537	13935.4
437.743	13964.07
437.95	14023.47
438.157	14777.12
438.364	15086.36
438.571	15434.52
438.778	15235.86
438.985	16603.91
439.192	15940.36
439.399	16716.54
439.606	16022.28
439.813	17136.38
440.02	17902.32
440.227	17697.52
440.433	17773.3
440.64	18475.75
440.847	17941.23
441.054	18514.66
441.261	19747.54
441.467	19778.26
441.674	19870.42
441.881	20490.95
442.088	20579.01
442.294	20671.17
442.501	20624.07
442.708	21420.73
442.914	22041.26
443.121	23216.8
443.328	22577.83
443.534	24339.08
443.741	23212.7
443.948	23216.8
444.154	24611.46
444.361	24406.67
444.568	24857.22
444.774	24863.36
444.981	24855.17
445.187	25848.44
445.394	26749.54
445.6	26530.41
445.807	28856.9
446.013	27734.62
446.22	28342.86
446.426	29471.29
446.633	29686.33
446.839	30485.04
447.046	29094.47
447.252	30884.39
447.459	30751.27
447.665	30665.26
447.871	32436.75
448.078	33511.94
448.284	31506.98
448.491	32717.32
448.697	33944.06
448.903	34343.41
449.11	34302.45
449.316	33942.01
449.522	34548.21
449.728	35394.02
449.935	35793.37
450.141	35424.74
450.347	36434.39
450.553	35389.92
450.76	35527.14
450.966	36829.65
451.172	36518.35
451.378	37018.06
451.584	36690.38
451.791	36925.9
451.997	37231.05
452.203	37673.41
452.409	37566.91
452.615	37308.87
452.821	35877.34
453.027	35719.65
453.233	37546.44
453.44	35998.17
453.646	36475.35
453.852	36395.48
454.058	36858.32
454.264	35584.48
454.47	36495.83
454.676	35250.66
454.882	36995.53
455.088	33905.15
455.294	34103.8
455.5	34288.12
455.705	34886.12
455.911	33497.6
456.117	32678.41
456.323	32086.55
456.529	30503.47
456.735	31728.16
456.941	31181.35
457.147	30306.87
457.352	29561.4
457.558	29176.39
457.764	29053.51
457.97	28908.1
458.176	28279.38
458.381	28181.07
458.587	26757.74
458.793	26595.95
458.999	25434.75
459.204	27277.92
459.41	26364.53
459.616	24711.81
459.821	24820.36
460.027	24261.26
460.233	24167.06
460.438	22846.12
460.644	22772.39
460.85	22031.02
461.055	21783.22
461.261	21473.98
461.466	20202.19
461.672	19593.94
461.878	20906.69
462.083	19411.67
462.289	18948.83
462.494	19004.13
462.7	18174.7
462.905	17795.82
463.111	18301.67
463.316	18291.43
463.522	18062.06
463.727	17994.48
463.932	17840.88
464.138	17707.76
464.343	17730.29
464.549	17314.55
464.754	17894.13
464.959	17986.29
465.165	17695.47
465.37	16972.54
465.575	16444.17
465.781	16986.88
465.986	17056.51
466.191	16560.9
466.397	16231.18
466.602	15694.61
