Data from USB4F104151__2__10-19-49-113.txt Node

Date: Wed Mar 12 10:19:49 EDT 2025
User: louis
Spectrometer: USB4F10415
Trigger mode: 4
Integration Time (sec): 3.000000E-2
Scans to average: 1
Electric dark correction enabled: true
Nonlinearity correction enabled: false
Boxcar width: 0
XAxis mode: Wavelengths
Number of Pixels in Spectrum: 3648
>>>>>Begin Spectral Data<<<<<
178.204	-150.7
178.424	-150.7
178.644	-150.7
178.864	-175.27
179.084	-117.93
179.304	-38.06
179.524	-36.01
179.744	-40.11
179.964	50
180.184	-1.19
180.404	-33.96
180.624	15.19
180.844	88.92
181.064	-17.58
181.283	45.91
181.503	-33.96
181.723	0.85
181.943	-15.53
182.163	50
182.383	35.67
182.602	52.05
182.822	-44.2
183.042	13.14
183.262	-25.77
183.482	-3.24
183.701	-29.87
183.921	-27.82
184.141	-44.2
184.361	-7.34
184.58	-1.19
184.8	21.33
185.02	76.63
185.239	-3.24
185.459	27.48
185.679	4.95
185.898	-25.77
186.118	31.57
186.338	41.81
186.557	-40.11
186.777	-95.4
186.997	-21.67
187.216	-36.01
187.436	-25.77
187.655	-23.72
187.875	54.1
188.095	37.72
188.314	43.86
188.534	-23.72
188.753	-19.63
188.973	47.96
189.192	-46.25
189.412	-21.67
189.631	-3.24
189.851	45.91
190.07	72.53
190.29	0.85
190.509	-3.24
190.729	-19.63
190.948	66.39
191.168	68.44
191.387	97.11
191.607	-29.87
191.826	13.14
192.045	-7.34
192.265	15.19
192.484	11.09
192.704	-3.24
192.923	-48.3
193.142	-7.34
193.362	13.14
193.581	31.57
193.8	29.52
194.02	11.09
194.239	64.34
194.458	45.91
194.678	17.24
194.897	-19.63
195.116	39.76
195.335	23.38
195.555	9.05
195.774	-33.96
195.993	33.62
196.212	-40.11
196.432	4.95
196.651	9.05
196.87	-21.67
197.089	37.72
197.308	9.05
197.528	66.39
197.747	-3.24
197.966	43.86
198.185	-5.29
198.404	-36.01
198.623	23.38
198.842	-25.77
199.062	4.95
199.281	-1.19
199.5	4.95
199.719	17.24
199.938	31.57
200.157	31.57
200.376	11.09
200.595	37.72
200.814	-5.29
201.033	-17.58
201.252	11.09
201.471	21.33
201.69	60.24
201.909	21.33
202.128	13.14
202.347	68.44
202.566	29.52
202.785	-48.3
203.004	-33.96
203.223	21.33
203.442	72.53
203.661	-15.53
203.879	25.43
204.098	37.72
204.317	-46.25
204.536	-60.59
204.755	-7.34
204.974	54.1
205.193	35.67
205.411	70.48
205.63	-52.39
205.849	-44.2
206.068	50
206.287	21.33
206.505	9.05
206.724	37.72
206.943	-29.87
207.162	0.85
207.381	35.67
207.599	29.52
207.818	11.09
208.037	37.72
208.255	-62.63
208.474	45.91
208.693	41.81
208.911	-42.15
209.13	-36.01
209.349	21.33
209.567	-9.39
209.786	62.29
210.005	56.15
210.223	47.96
210.442	-7.34
210.661	76.63
210.879	13.14
211.098	39.76
211.316	13.14
211.535	31.57
211.753	7
211.972	68.44
212.191	21.33
212.409	25.43
212.628	103.25
212.846	-83.11
213.065	-25.77
213.283	-19.63
213.502	-11.43
213.72	27.48
213.938	58.2
214.157	50
214.375	27.48
214.594	-27.82
214.812	45.91
215.031	-1.19
215.249	0.85
215.467	-21.67
215.686	9.05
215.904	9.05
216.122	-5.29
216.341	33.62
216.559	25.43
216.778	111.44
216.996	-23.72
217.214	27.48
217.432	-60.59
217.651	68.44
217.869	0.85
218.087	17.24
218.306	62.29
218.524	13.14
218.742	4.95
218.96	21.33
219.179	-27.82
219.397	7
219.615	60.24
219.833	21.33
220.051	-5.29
220.27	45.91
220.488	31.57
220.706	17.24
220.924	4.95
221.142	-5.29
221.36	-11.43
221.578	-21.67
221.796	-40.11
222.015	47.96
222.233	-33.96
222.451	78.68
222.669	-19.63
222.887	60.24
223.105	-31.91
223.323	-70.83
223.541	29.52
223.759	82.77
223.977	21.33
224.195	66.39
224.413	33.62
224.631	54.1
224.849	21.33
225.067	35.67
225.285	-76.97
225.503	56.15
225.721	29.52
225.939	-11.43
226.157	62.29
226.375	54.1
226.592	-40.11
226.81	-23.72
227.028	54.1
227.246	136.02
227.464	21.33
227.682	29.52
227.9	-13.48
228.117	2.9
228.335	4.95
228.553	-13.48
228.771	93.01
228.989	-9.39
229.206	-9.39
229.424	-40.11
229.642	7
229.86	-48.3
230.077	50
230.295	80.72
230.513	80.72
230.731	50
230.948	99.16
231.166	54.1
231.384	45.91
231.601	37.72
231.819	-11.43
232.037	-5.29
232.254	-25.77
232.472	25.43
232.689	-60.59
232.907	37.72
233.125	0.85
233.342	-52.39
233.56	11.09
233.777	-25.77
233.995	-3.24
234.213	21.33
234.43	13.14
234.648	-23.72
234.865	-11.43
235.083	72.53
235.3	60.24
235.518	-25.77
235.735	45.91
235.953	21.33
236.17	72.53
236.388	15.19
236.605	0.85
236.822	76.63
237.04	86.87
237.257	68.44
237.475	-54.44
237.692	-25.77
237.909	29.52
238.127	17.24
238.344	-64.68
238.562	68.44
238.779	21.33
238.996	-1.19
239.214	-42.15
239.431	54.1
239.648	-72.87
239.865	31.57
240.083	-5.29
240.3	-25.77
240.517	23.38
240.735	109.4
240.952	43.86
241.169	37.72
241.386	29.52
241.603	-17.58
241.821	-1.19
242.038	11.09
242.255	41.81
242.472	-13.48
242.689	-7.34
242.907	90.96
243.124	-38.06
243.341	-31.91
243.558	-58.54
243.775	-7.34
243.992	0.85
244.209	60.24
244.426	43.86
244.643	-25.77
244.86	-27.82
245.078	25.43
245.295	27.48
245.512	-19.63
245.729	-15.53
245.946	31.57
246.163	-33.96
246.38	15.19
246.597	70.48
246.814	39.76
247.031	43.86
247.248	23.38
247.464	25.43
247.681	-23.72
247.898	103.25
248.115	-23.72
248.332	70.48
248.549	29.52
248.766	17.24
248.983	70.48
249.2	19.29
249.417	-3.24
249.633	-72.87
249.85	-21.67
250.067	29.52
250.284	19.29
250.501	41.81
250.717	-1.19
250.934	29.52
251.151	-44.2
251.368	52.05
251.585	4.95
251.801	4.95
252.018	35.67
252.235	-5.29
252.451	-60.59
252.668	-1.19
252.885	25.43
253.102	-25.77
253.318	70.48
253.535	11.09
253.752	4.95
253.968	-13.48
254.185	23.38
254.401	41.81
254.618	66.39
254.835	15.19
255.051	-3.24
255.268	7
255.484	-44.2
255.701	17.24
255.917	82.77
256.134	4.95
256.351	37.72
256.567	-44.2
256.784	-44.2
257	-17.58
257.217	64.34
257.433	-62.63
257.65	13.14
257.866	21.33
258.082	-38.06
258.299	7
258.515	64.34
258.732	-11.43
258.948	-7.34
259.165	2.9
259.381	4.95
259.597	37.72
259.814	-13.48
260.03	9.05
260.246	13.14
260.463	29.52
260.679	-17.58
260.895	21.33
261.112	45.91
261.328	2.9
261.544	-27.82
261.761	95.06
261.977	4.95
262.193	15.19
262.409	62.29
262.626	64.34
262.842	0.85
263.058	0.85
263.274	-3.24
263.49	-7.34
263.707	-19.63
263.923	-36.01
264.139	127.83
264.355	103.25
264.571	-33.96
264.787	7
265.004	19.29
265.22	29.52
265.436	58.2
265.652	-1.19
265.868	-9.39
266.084	-66.73
266.3	-19.63
266.516	31.57
266.732	0.85
266.948	37.72
267.164	-11.43
267.38	13.14
267.596	9.05
267.812	23.38
268.028	41.81
268.244	19.29
268.46	17.24
268.676	-38.06
268.892	52.05
269.108	27.48
269.324	33.62
269.54	-13.48
269.756	23.38
269.972	-68.78
270.188	-17.58
270.403	41.81
270.619	41.81
270.835	-5.29
271.051	27.48
271.267	35.67
271.483	-3.24
271.698	62.29
271.914	76.63
272.13	35.67
272.346	68.44
272.562	-15.53
272.777	52.05
272.993	11.09
273.209	78.68
273.425	47.96
273.64	-31.91
273.856	72.53
274.072	0.85
274.287	21.33
274.503	11.09
274.719	-36.01
274.934	7
275.15	45.91
275.366	-11.43
275.581	-19.63
275.797	-56.49
276.012	-5.29
276.228	2.9
276.444	-7.34
276.659	15.19
276.875	-76.97
277.09	2.9
277.306	43.86
277.521	13.14
277.737	52.05
277.952	54.1
278.168	31.57
278.383	60.24
278.599	-60.59
278.814	45.91
279.03	-79.02
279.245	95.06
279.461	-5.29
279.676	54.1
279.892	-15.53
280.107	-40.11
280.322	-19.63
280.538	31.57
280.753	-15.53
280.969	11.09
281.184	72.53
281.399	29.52
281.615	7
281.83	21.33
282.045	-38.06
282.26	-17.58
282.476	47.96
282.691	25.43
282.906	43.86
283.122	33.62
283.337	-5.29
283.552	19.29
283.767	39.76
283.983	37.72
284.198	41.81
284.413	66.39
284.628	60.24
284.843	-29.87
285.058	35.67
285.274	33.62
285.489	9.05
285.704	17.24
285.919	25.43
286.134	-15.53
286.349	23.38
286.564	19.29
286.779	66.39
286.995	29.52
287.21	25.43
287.425	88.92
287.64	29.52
287.855	17.24
288.07	11.09
288.285	39.76
288.5	37.72
288.715	29.52
288.93	-17.58
289.145	35.67
289.36	70.48
289.575	17.24
289.79	-5.29
290.004	-13.48
290.219	-3.24
290.434	60.24
290.649	7
290.864	-11.43
291.079	-38.06
291.294	13.14
291.509	-7.34
291.724	25.43
291.938	41.81
292.153	0.85
292.368	54.1
292.583	60.24
292.798	-19.63
293.012	43.86
293.227	17.24
293.442	-19.63
293.657	82.77
293.871	74.58
294.086	33.62
294.301	15.19
294.516	90.96
294.73	37.72
294.945	-15.53
295.16	23.38
295.374	72.53
295.589	-11.43
295.804	82.77
296.018	2.9
296.233	84.82
296.447	-42.15
296.662	29.52
296.877	17.24
297.091	29.52
297.306	64.34
297.52	-15.53
297.735	76.63
297.949	11.09
298.164	70.48
298.378	9.05
298.593	47.96
298.807	-15.53
299.022	-52.39
299.236	45.91
299.451	-15.53
299.665	41.81
299.88	0.85
300.094	66.39
300.309	41.81
300.523	54.1
300.737	-23.72
300.952	21.33
301.166	19.29
301.381	-58.54
301.595	52.05
301.809	37.72
302.024	39.76
302.238	-7.34
302.452	78.68
302.667	33.62
302.881	-1.19
303.095	-7.34
303.309	-15.53
303.524	-23.72
303.738	23.38
303.952	0.85
304.166	93.01
304.381	-54.44
304.595	-7.34
304.809	-11.43
305.023	13.14
305.237	29.52
305.452	-15.53
305.666	-9.39
305.88	121.68
306.094	41.81
306.308	74.58
306.522	101.2
306.736	43.86
306.95	-5.29
307.164	-3.24
307.379	25.43
307.593	90.96
307.807	47.96
308.021	54.1
308.235	-11.43
308.449	90.96
308.663	17.24
308.877	7
309.091	-1.19
309.305	-70.83
309.519	-46.25
309.733	-23.72
309.947	-13.48
310.161	109.4
310.374	-13.48
310.588	95.06
310.802	23.38
311.016	41.81
311.23	11.09
311.444	13.14
311.658	50
311.872	72.53
312.085	37.72
312.299	66.39
312.513	70.48
312.727	84.82
312.941	66.39
313.154	58.2
313.368	19.29
313.582	-5.29
313.796	-31.91
314.009	50
314.223	19.29
314.437	17.24
314.651	37.72
314.864	29.52
315.078	4.95
315.292	-5.29
315.505	43.86
315.719	-42.15
315.933	13.14
316.146	-3.24
316.36	-64.68
316.573	0.85
316.787	13.14
317.001	37.72
317.214	21.33
317.428	72.53
317.641	62.29
317.855	-7.34
318.068	-7.34
318.282	33.62
318.495	-11.43
318.709	39.76
318.922	-23.72
319.136	-5.29
319.349	21.33
319.563	13.14
319.776	9.05
319.99	11.09
320.203	60.24
320.417	-99.5
320.63	-11.43
320.843	78.68
321.057	17.24
321.27	-13.48
321.483	37.72
321.697	111.44
321.91	-3.24
322.124	54.1
322.337	-13.48
322.55	21.33
322.763	13.14
322.977	-27.82
323.19	-11.43
323.403	82.77
323.617	-3.24
323.83	-5.29
324.043	9.05
324.256	15.19
324.469	-85.16
324.683	52.05
324.896	-15.53
325.109	45.91
325.322	25.43
325.535	43.86
325.748	-62.63
325.962	-38.06
326.175	33.62
326.388	-15.53
326.601	50
326.814	35.67
327.027	-46.25
327.24	64.34
327.453	2.9
327.666	35.67
327.879	15.19
328.092	43.86
328.305	52.05
328.518	60.24
328.731	37.72
328.944	-21.67
329.157	27.48
329.37	41.81
329.583	68.44
329.796	117.59
330.009	-19.63
330.222	56.15
330.435	-7.34
330.648	0.85
330.861	0.85
331.073	19.29
331.286	-11.43
331.499	2.9
331.712	29.52
331.925	-7.34
332.138	31.57
332.35	76.63
332.563	25.43
332.776	47.96
332.989	-42.15
333.202	-25.77
333.414	39.76
333.627	45.91
333.84	50
334.053	31.57
334.265	37.72
334.478	60.24
334.691	68.44
334.903	64.34
335.116	-19.63
335.329	-3.24
335.541	-27.82
335.754	21.33
335.966	19.29
336.179	19.29
336.392	4.95
336.604	25.43
336.817	13.14
337.029	33.62
337.242	43.86
337.454	37.72
337.667	-1.19
337.88	82.77
338.092	105.3
338.305	60.24
338.517	-19.63
338.729	68.44
338.942	140.12
339.154	2.9
339.367	-36.01
339.579	-15.53
339.792	21.33
340.004	25.43
340.217	-36.01
340.429	123.73
340.641	29.52
340.854	-19.63
341.066	-13.48
341.278	78.68
341.491	95.06
341.703	27.48
341.915	29.52
342.128	56.15
342.34	-11.43
342.552	54.1
342.764	76.63
342.977	-3.24
343.189	41.81
343.401	-7.34
343.613	78.68
343.826	-23.72
344.038	95.06
344.25	56.15
344.462	29.52
344.674	4.95
344.886	86.87
345.099	50
345.311	-56.49
345.523	45.91
345.735	-76.97
345.947	66.39
346.159	29.52
346.371	4.95
346.583	29.52
346.795	62.29
347.007	23.38
347.219	43.86
347.431	-13.48
347.643	64.34
347.855	-27.82
348.067	43.86
348.279	11.09
348.491	-48.3
348.703	50
348.915	21.33
349.127	21.33
349.339	123.73
349.551	33.62
349.763	13.14
349.975	-23.72
350.187	72.53
350.399	27.48
350.61	7
350.822	-3.24
351.034	35.67
351.246	17.24
351.458	80.72
351.669	13.14
351.881	17.24
352.093	50
352.305	64.34
352.517	43.86
352.728	62.29
352.94	-19.63
353.152	27.48
353.363	-15.53
353.575	-5.29
353.787	86.87
353.999	129.88
354.21	62.29
354.422	17.24
354.633	27.48
354.845	50
355.057	33.62
355.268	19.29
355.48	37.72
355.692	-40.11
355.903	-5.29
356.115	-19.63
356.326	58.2
356.538	17.24
356.749	43.86
356.961	82.77
357.172	15.19
357.384	-21.67
357.595	82.77
357.807	41.81
358.018	25.43
358.23	4.95
358.441	56.15
358.653	58.2
358.864	62.29
359.075	33.62
359.287	-11.43
359.498	90.96
359.709	-1.19
359.921	84.82
360.132	-21.67
360.344	-1.19
360.555	78.68
360.766	41.81
360.977	39.76
361.189	17.24
361.4	33.62
361.611	47.96
361.823	-19.63
362.034	0.85
362.245	-93.35
362.456	17.24
362.667	-19.63
362.879	21.33
363.09	74.58
363.301	27.48
363.512	7
363.723	62.29
363.935	-36.01
364.146	90.96
364.357	70.48
364.568	21.33
364.779	-29.87
364.99	31.57
365.201	35.67
365.412	66.39
365.623	90.96
365.834	45.91
366.045	68.44
366.256	41.81
366.467	13.14
366.678	13.14
366.889	29.52
367.1	4.95
367.311	-3.24
367.522	54.1
367.733	70.48
367.944	47.96
368.155	58.2
368.366	60.24
368.577	86.87
368.788	4.95
368.999	80.72
369.209	43.86
369.42	70.48
369.631	90.96
369.842	9.05
370.053	58.2
370.264	58.2
370.474	7
370.685	43.86
370.896	17.24
371.107	70.48
371.317	66.39
371.528	37.72
371.739	52.05
371.95	82.77
372.16	115.54
372.371	19.29
372.582	9.05
372.792	29.52
373.003	66.39
373.214	9.05
373.424	64.34
373.635	25.43
373.846	142.16
374.056	7
374.267	52.05
374.477	68.44
374.688	-60.59
374.898	-44.2
375.109	66.39
375.319	13.14
375.53	68.44
375.74	80.72
375.951	21.33
376.161	45.91
376.372	21.33
376.582	68.44
376.793	19.29
377.003	17.24
377.214	66.39
377.424	54.1
377.635	29.52
377.845	21.33
378.055	45.91
378.266	-11.43
378.476	82.77
378.686	45.91
378.897	37.72
379.107	90.96
379.317	64.34
379.528	-3.24
379.738	86.87
379.948	-15.53
380.158	9.05
380.369	4.95
380.579	62.29
380.789	-11.43
380.999	-42.15
381.21	111.44
381.42	29.52
381.63	70.48
381.84	50
382.05	78.68
382.261	131.92
382.471	4.95
382.681	-54.44
382.891	78.68
383.101	82.77
383.311	11.09
383.521	43.86
383.731	109.4
383.941	29.52
384.151	-7.34
384.361	64.34
384.571	-5.29
384.781	-1.19
384.991	103.25
385.201	56.15
385.411	35.67
385.621	58.2
385.831	70.48
386.041	50
386.251	21.33
386.461	88.92
386.671	52.05
386.881	76.63
387.091	70.48
387.301	47.96
387.511	35.67
387.72	62.29
387.93	21.33
388.14	97.11
388.35	129.88
388.56	62.29
388.769	19.29
388.979	-5.29
389.189	-38.06
389.399	15.19
389.609	109.4
389.818	90.96
390.028	52.05
390.238	64.34
390.447	45.91
390.657	86.87
390.867	45.91
391.076	88.92
391.286	97.11
391.496	99.16
391.705	-19.63
391.915	35.67
392.125	4.95
392.334	43.86
392.544	25.43
392.753	4.95
392.963	78.68
393.172	13.14
393.382	17.24
393.591	31.57
393.801	70.48
394.01	33.62
394.22	93.01
394.429	43.86
394.639	45.91
394.848	37.72
395.058	68.44
395.267	86.87
395.477	35.67
395.686	88.92
395.895	123.73
396.105	203.6
396.314	162.64
396.524	76.63
396.733	62.29
396.942	64.34
397.152	56.15
397.361	41.81
397.57	31.57
397.78	35.67
397.989	131.92
398.198	136.02
398.407	123.73
398.617	90.96
398.826	45.91
399.035	113.49
399.244	152.4
399.453	54.1
399.663	45.91
399.872	140.12
400.081	66.39
400.29	176.98
400.499	68.44
400.708	127.83
400.917	115.54
401.127	160.59
401.336	78.68
401.545	99.16
401.754	101.2
401.963	150.36
402.172	80.72
402.381	123.73
402.59	82.77
402.799	115.54
403.008	111.44
403.217	109.4
403.426	160.59
403.635	209.75
403.844	148.31
404.053	154.45
404.262	111.44
404.471	176.98
404.68	160.59
404.888	70.48
405.097	168.79
405.306	150.36
405.515	215.89
405.724	181.07
405.933	166.74
406.142	146.26
406.35	185.17
406.559	256.85
406.768	236.37
406.977	162.64
407.185	244.56
407.394	224.08
407.603	211.79
407.812	193.36
408.02	185.17
408.229	179.03
408.438	236.37
408.646	193.36
408.855	213.84
409.064	330.58
409.272	197.46
409.481	248.66
409.69	246.61
409.898	228.18
410.107	312.14
410.315	275.28
410.524	265.04
410.733	377.68
410.941	396.11
411.15	373.58
411.358	353.1
411.567	445.26
411.775	369.49
411.984	482.13
412.192	525.13
412.401	424.78
412.609	525.13
412.818	545.61
413.026	508.75
413.234	525.13
413.443	516.94
413.651	568.14
413.86	559.95
414.068	602.96
414.276	605
414.485	600.91
414.693	666.44
414.901	682.83
415.11	678.73
415.318	754.51
415.526	766.79
415.734	703.31
415.943	803.66
416.151	891.72
416.359	805.71
416.567	836.42
416.776	922.44
416.984	863.05
417.192	1020.74
417.4	1043.27
417.608	1065.8
417.817	1157.96
418.025	1180.48
418.233	1221.44
418.441	1170.24
418.649	1241.92
418.857	1356.61
419.065	1413.95
419.273	1354.56
419.481	1356.61
419.689	1452.86
419.897	1551.17
420.105	1639.23
420.313	1475.39
420.521	1655.61
420.729	1614.65
420.937	1737.53
421.145	1782.59
421.353	1930.04
421.561	1954.62
421.769	2059.06
421.977	2065.21
422.185	2114.36
422.393	2249.52
422.601	2452.27
422.809	2396.98
423.017	2310.96
423.224	2554.67
423.432	2675.5
423.64	2569.01
423.848	2822.95
424.056	2798.38
424.263	3050.28
424.471	2904.87
424.679	3017.51
424.887	3167.01
425.094	3271.46
425.302	3369.76
425.51	3445.54
425.718	3531.55
425.925	3576.61
426.133	3588.89
426.341	3949.34
426.548	4000.54
426.756	3957.53
426.964	4191
427.171	4371.22
427.379	4358.93
427.586	4616.97
427.794	4709.13
428.001	4961.03
428.209	5231.37
428.417	5196.55
428.624	5272.32
428.832	5462.79
429.039	5378.82
429.247	5339.91
429.454	5856
429.662	6167.29
429.869	5853.95
430.076	6472.43
430.284	6206.2
430.491	6253.3
430.699	6841.07
430.906	6599.41
431.114	6869.74
431.321	7107.3
431.528	7269.09
431.736	7672.54
431.943	8145.63
432.15	7811.81
432.358	7918.3
432.565	8239.83
432.772	8264.41
432.979	8792.78
433.187	8825.55
433.394	8796.88
433.601	9491.14
433.808	9534.15
434.016	9525.96
434.223	9863.87
434.43	10472.12
434.637	10300.09
434.844	10914.48
435.052	11066.03
435.259	11213.48
435.466	11391.66
435.673	11012.78
435.88	11917.98
436.087	12458.65
436.294	12454.55
436.501	12073.63
436.708	12559
436.915	12982.93
437.122	13406.86
437.329	13374.09
437.537	13791.87
437.743	14080.64
437.95	14047.87
438.157	14682.74
438.364	15155.82
438.571	14889.59
438.778	15303.28
438.985	16487
439.192	15993.44
439.399	16530.01
439.606	16241.25
439.813	17091.15
440.02	18106.95
440.227	17715.78
440.433	17664.58
440.64	18168.38
440.847	18123.33
441.054	18481.72
441.261	19812.9
441.467	19644.97
441.674	19673.64
441.881	20560.41
442.088	20328.99
442.294	20128.29
442.501	20883.99
442.708	21150.23
442.914	22114.82
443.121	22991.35
443.328	22536.7
443.534	24142.31
443.741	23337.46
443.948	22841.85
444.154	24584.67
444.361	24613.34
444.568	24506.85
444.774	24730.08
444.981	25057.75
445.187	25649.61
445.394	26620.35
445.6	26292.68
445.807	28590.5
446.013	27795.89
446.22	28334.5
446.426	29153.69
446.633	29510.04
446.839	30171.53
447.046	29251.99
447.252	30873.98
447.459	30824.83
447.665	30779.78
447.871	31840.62
448.078	33339.74
448.284	31617.39
448.491	32647.52
448.697	33726.8
448.903	34173.26
449.11	34349.39
449.316	33691.99
449.522	34580.81
449.728	35305.79
449.935	35574.07
450.141	35551.54
450.347	36344.11
450.553	35359.03
450.76	35776.82
450.966	36849.96
451.172	36358.44
451.378	36733.22
451.584	36665.64
451.791	37116.19
451.997	37251.36
452.203	37499.16
452.409	37390.62
452.615	37396.76
452.821	36071.73
453.027	35903.79
453.233	37425.43
453.44	35832.11
453.646	36389.16
453.852	36204.84
454.058	37253.4
454.264	35619.13
454.47	36321.58
454.676	35582.26
454.882	36634.92
455.088	33479
455.294	33749.33
455.5	34449.74
455.705	34785.6
455.911	33063.26
456.117	32731.49
456.323	31945.07
456.529	31136.12
456.735	31809.9
456.941	30515.59
457.147	30552.45
457.352	29372.82
457.558	28965.28
457.764	28858.78
457.97	28729.76
458.176	27955.63
458.381	28004.78
458.587	26665.41
458.793	26782.14
458.999	25190.87
459.204	27173.3
459.41	26352.07
459.616	24822.23
459.821	24121.83
460.027	24173.03
460.233	23955.94
460.438	22610.43
460.644	23017.97
460.85	22258.18
461.055	21686.79
461.261	21768.71
461.466	19909.16
461.672	19671.59
461.878	20998.68
462.083	19493.42
462.289	18989.62
462.494	18846.26
462.7	18147.9
462.905	17517.13
463.111	18268.73
463.316	18403.9
463.522	18043.46
463.727	18199.1
463.932	17697.35
464.138	17506.89
464.343	17717.83
464.549	17152.59
464.754	17830.47
464.959	17793.61
465.165	17445.45
465.37	16616.02
465.575	16183.9
465.781	17140.3
465.986	16982.61
466.191	16306.78
466.397	16224.86
466.602	15393.39
466.807	15909.47
467.012	15950.43
467.218	16069.22
467.423	15811.17
467.628	15940.19
