Data from USB4F104151__33__10-22-10-404.txt Node

Date: Wed Mar 12 10:22:10 EDT 2025
User: louis
Spectrometer: USB4F10415
Trigger mode: 4
Integration Time (sec): 3.000000E-2
Scans to average: 1
Electric dark correction enabled: true
Nonlinearity correction enabled: false
Boxcar width: 0
XAxis mode: Wavelengths
Number of Pixels in Spectrum: 3648
>>>>>Begin Spectral Data<<<<<
178.204	-59.05
178.424	-59.05
178.644	-59.05
178.864	-143.02
179.084	-163.5
179.304	-5.8
179.524	37.2
179.744	-73.39
179.964	86.36
180.184	-46.76
180.404	22.87
180.624	-40.62
180.844	39.25
181.064	-28.33
181.283	-18.09
181.503	-9.9
181.723	37.2
181.943	-69.29
182.163	53.59
182.383	2.39
182.602	20.82
182.822	-3.75
183.042	102.74
183.262	37.2
183.482	33.11
183.701	16.73
183.921	69.97
184.141	24.92
184.361	96.6
184.58	65.88
184.8	51.54
185.02	12.63
185.239	67.92
185.459	76.12
185.679	78.16
185.898	16.73
186.118	49.49
186.338	2.39
186.557	22.87
186.777	20.82
186.997	18.77
187.216	-42.67
187.436	69.97
187.655	16.73
187.875	108.88
188.095	29.01
188.314	-7.85
188.534	82.26
188.753	20.82
188.973	104.79
189.192	45.4
189.412	57.68
189.631	37.2
189.851	55.64
190.07	82.26
190.29	90.45
190.509	86.36
190.729	51.54
190.948	51.54
191.168	92.5
191.387	2.39
191.607	-5.8
191.826	100.69
192.045	10.58
192.265	-3.75
192.484	12.63
192.704	102.74
192.923	35.16
193.142	45.4
193.362	-1.71
193.581	55.64
193.8	0.34
194.02	84.31
194.239	20.82
194.458	59.73
194.678	39.25
194.897	29.01
195.116	-24.23
195.335	-13.99
195.555	69.97
195.774	45.4
195.993	59.73
196.212	88.4
196.432	47.44
196.651	2.39
196.87	16.73
197.089	6.49
197.308	-42.67
197.528	80.21
197.747	-54.95
197.966	43.35
198.185	74.07
198.404	117.08
198.623	37.2
198.842	-16.04
199.062	65.88
199.281	24.92
199.5	12.63
199.719	94.55
199.938	4.44
200.157	47.44
200.376	33.11
200.595	69.97
200.814	4.44
201.033	35.16
201.252	-22.19
201.471	2.39
201.69	110.93
201.909	82.26
202.128	65.88
202.347	-1.71
202.566	84.31
202.785	47.44
203.004	10.58
203.223	88.4
203.442	131.41
203.661	-24.23
203.879	104.79
204.098	47.44
204.317	18.77
204.536	26.96
204.755	-3.75
204.974	51.54
205.193	-20.14
205.411	82.26
205.63	51.54
205.849	102.74
206.068	59.73
206.287	-7.85
206.505	-11.95
206.724	90.45
206.943	76.12
207.162	61.78
207.381	53.59
207.599	47.44
207.818	0.34
208.037	12.63
208.255	67.92
208.474	12.63
208.693	22.87
208.911	51.54
209.13	47.44
209.349	12.63
209.567	43.35
209.786	29.01
210.005	57.68
210.223	59.73
210.442	-11.95
210.661	55.64
210.879	29.01
211.098	4.44
211.316	-11.95
211.535	117.08
211.753	43.35
211.972	63.83
212.191	39.25
212.409	84.31
212.628	-11.95
212.846	39.25
213.065	-38.57
213.283	33.11
213.502	-3.75
213.72	69.97
213.938	29.01
214.157	20.82
214.375	4.44
214.594	-36.52
214.812	22.87
215.031	6.49
215.249	53.59
215.467	59.73
215.686	39.25
215.904	139.6
216.122	-3.75
216.341	29.01
216.559	47.44
216.778	57.68
216.996	20.82
217.214	53.59
217.432	24.92
217.651	-24.23
217.869	59.73
218.087	39.25
218.306	57.68
218.524	-50.86
218.742	-1.71
218.96	12.63
219.179	-36.52
219.397	78.16
219.615	82.26
219.833	-28.33
220.051	78.16
220.27	26.96
220.488	29.01
220.706	4.44
220.924	45.4
221.142	31.06
221.36	14.68
221.578	86.36
221.796	86.36
222.015	16.73
222.233	43.35
222.451	84.31
222.669	-50.86
222.887	33.11
223.105	26.96
223.323	53.59
223.541	29.01
223.759	53.59
223.977	24.92
224.195	78.16
224.413	33.11
224.631	86.36
224.849	43.35
225.067	69.97
225.285	31.06
225.503	49.49
225.721	-44.71
225.939	41.3
226.157	2.39
226.375	65.88
226.592	-30.38
226.81	10.58
227.028	53.59
227.246	-24.23
227.464	18.77
227.682	78.16
227.9	94.55
228.117	39.25
228.335	55.64
228.553	16.73
228.771	10.58
228.989	90.45
229.206	20.82
229.424	-22.19
229.642	69.97
229.86	41.3
230.077	53.59
230.295	10.58
230.513	61.78
230.731	86.36
230.948	94.55
231.166	49.49
231.384	31.06
231.601	-44.71
231.819	-5.8
232.037	-3.75
232.254	57.68
232.472	-3.75
232.689	-5.8
232.907	59.73
233.125	45.4
233.342	92.5
233.56	53.59
233.777	61.78
233.995	72.02
234.213	72.02
234.43	10.58
234.648	8.53
234.865	80.21
235.083	67.92
235.3	69.97
235.518	90.45
235.735	18.77
235.953	86.36
236.17	-3.75
236.388	29.01
236.605	-5.8
236.822	98.64
237.04	-36.52
237.257	33.11
237.475	20.82
237.692	39.25
237.909	43.35
238.127	61.78
238.344	2.39
238.562	24.92
238.779	16.73
238.996	55.64
239.214	35.16
239.431	2.39
239.648	26.96
239.865	51.54
240.083	90.45
240.3	4.44
240.517	0.34
240.735	14.68
240.952	88.4
241.169	59.73
241.386	29.01
241.603	61.78
241.821	65.88
242.038	80.21
242.255	119.12
242.472	-32.43
242.689	47.44
242.907	86.36
243.124	26.96
243.341	12.63
243.558	47.44
243.775	2.39
243.992	-9.9
244.209	72.02
244.426	76.12
244.643	69.97
244.86	10.58
245.078	74.07
245.295	43.35
245.512	37.2
245.729	63.83
245.946	61.78
246.163	37.2
246.38	106.84
246.597	8.53
246.814	61.78
247.031	110.93
247.248	33.11
247.464	37.2
247.681	57.68
247.898	63.83
248.115	39.25
248.332	33.11
248.549	65.88
248.766	92.5
248.983	78.16
249.2	16.73
249.417	37.2
249.633	43.35
249.85	61.78
250.067	67.92
250.284	26.96
250.501	8.53
250.717	18.77
250.934	24.92
251.151	53.59
251.368	-3.75
251.585	22.87
251.801	98.64
252.018	80.21
252.235	90.45
252.451	29.01
252.668	26.96
252.885	0.34
253.102	-5.8
253.318	-16.04
253.535	24.92
253.752	35.16
253.968	16.73
254.185	74.07
254.401	76.12
254.618	12.63
254.835	31.06
255.051	121.17
255.268	-63.15
255.484	53.59
255.701	57.68
255.917	29.01
256.134	20.82
256.351	47.44
256.567	16.73
256.784	29.01
257	43.35
257.217	65.88
257.433	90.45
257.65	67.92
257.866	74.07
258.082	31.06
258.299	49.49
258.515	24.92
258.732	59.73
258.948	63.83
259.165	12.63
259.381	55.64
259.597	67.92
259.814	20.82
260.03	41.3
260.246	37.2
260.463	98.64
260.679	72.02
260.895	4.44
261.112	43.35
261.328	39.25
261.544	18.77
261.761	37.2
261.977	84.31
262.193	37.2
262.409	43.35
262.626	-30.38
262.842	47.44
263.058	53.59
263.274	20.82
263.49	67.92
263.707	96.6
263.923	69.97
264.139	69.97
264.355	18.77
264.571	59.73
264.787	20.82
265.004	59.73
265.22	6.49
265.436	-3.75
265.652	2.39
265.868	82.26
266.084	51.54
266.3	22.87
266.516	18.77
266.732	24.92
266.948	29.01
267.164	49.49
267.38	0.34
267.596	37.2
267.812	33.11
268.028	72.02
268.244	24.92
268.46	29.01
268.676	53.59
268.892	-22.19
269.108	35.16
269.324	-20.14
269.54	55.64
269.756	65.88
269.972	69.97
270.188	2.39
270.403	41.3
270.619	-7.85
270.835	51.54
271.051	57.68
271.267	82.26
271.483	22.87
271.698	35.16
271.914	20.82
272.13	37.2
272.346	14.68
272.562	45.4
272.777	16.73
272.993	8.53
273.209	110.93
273.425	6.49
273.64	29.01
273.856	78.16
274.072	-24.23
274.287	-16.04
274.503	-18.09
274.719	47.44
274.934	35.16
275.15	6.49
275.366	22.87
275.581	61.78
275.797	61.78
276.012	-22.19
276.228	35.16
276.444	12.63
276.659	78.16
276.875	-57
277.09	2.39
277.306	35.16
277.521	43.35
277.737	12.63
277.952	86.36
278.168	117.08
278.383	96.6
278.599	78.16
278.814	106.84
279.03	41.3
279.245	94.55
279.461	45.4
279.676	86.36
279.892	-1.71
280.107	69.97
280.322	4.44
280.538	37.2
280.753	-20.14
280.969	-22.19
281.184	110.93
281.399	82.26
281.615	51.54
281.83	-24.23
282.045	-7.85
282.26	88.4
282.476	45.4
282.691	12.63
282.906	4.44
283.122	110.93
283.337	31.06
283.552	-5.8
283.767	55.64
283.983	84.31
284.198	-13.99
284.413	115.03
284.628	33.11
284.843	69.97
285.058	-20.14
285.274	10.58
285.489	92.5
285.704	100.69
285.919	26.96
286.134	45.4
286.349	6.49
286.564	63.83
286.779	137.56
286.995	29.01
287.21	16.73
287.425	37.2
287.64	10.58
287.855	22.87
288.07	-3.75
288.285	-38.57
288.5	108.88
288.715	22.87
288.93	31.06
289.145	4.44
289.36	80.21
289.575	22.87
289.79	22.87
290.004	51.54
290.219	82.26
290.434	-44.71
290.649	-67.24
290.864	-13.99
291.079	26.96
291.294	76.12
291.509	82.26
291.724	-9.9
291.938	49.49
292.153	6.49
292.368	45.4
292.583	86.36
292.798	35.16
293.012	37.2
293.227	53.59
293.442	20.82
293.657	39.25
293.871	86.36
294.086	61.78
294.301	51.54
294.516	-26.28
294.73	37.2
294.945	-26.28
295.16	123.22
295.374	84.31
295.589	37.2
295.804	-5.8
296.018	20.82
296.233	88.4
296.447	22.87
296.662	-38.57
296.877	-16.04
297.091	59.73
297.306	26.96
297.52	-18.09
297.735	35.16
297.949	26.96
298.164	61.78
298.378	47.44
298.593	78.16
298.807	86.36
299.022	41.3
299.236	29.01
299.451	47.44
299.665	57.68
299.88	43.35
300.094	31.06
300.309	82.26
300.523	98.64
300.737	14.68
300.952	110.93
301.166	12.63
301.381	33.11
301.595	-11.95
301.809	37.2
302.024	29.01
302.238	8.53
302.452	74.07
302.667	6.49
302.881	94.55
303.095	59.73
303.309	37.2
303.524	65.88
303.738	108.88
303.952	18.77
304.166	59.73
304.381	4.44
304.595	39.25
304.809	41.3
305.023	-11.95
305.237	10.58
305.452	49.49
305.666	51.54
305.88	45.4
306.094	-7.85
306.308	57.68
306.522	53.59
306.736	18.77
306.95	37.2
307.164	57.68
307.379	-1.71
307.593	106.84
307.807	90.45
308.021	125.27
308.235	51.54
308.449	-26.28
308.663	90.45
308.877	133.46
309.091	141.65
309.305	59.73
309.519	-73.39
309.733	102.74
309.947	39.25
310.161	41.3
310.374	104.79
310.588	78.16
310.802	35.16
311.016	-28.33
311.23	94.55
311.444	-5.8
311.658	39.25
311.872	41.3
312.085	39.25
312.299	18.77
312.513	51.54
312.727	72.02
312.941	-22.19
313.154	84.31
313.368	65.88
313.582	33.11
313.796	12.63
314.009	76.12
314.223	80.21
314.437	100.69
314.651	67.92
314.864	59.73
315.078	59.73
315.292	22.87
315.505	-32.43
315.719	2.39
315.933	131.41
316.146	33.11
316.36	-20.14
316.573	59.73
316.787	31.06
317.001	69.97
317.214	41.3
317.428	67.92
317.641	-5.8
317.855	94.55
318.068	4.44
318.282	37.2
318.495	43.35
318.709	45.4
318.922	69.97
319.136	69.97
319.349	69.97
319.563	137.56
319.776	43.35
319.99	53.59
320.203	43.35
320.417	45.4
320.63	108.88
320.843	43.35
321.057	143.7
321.27	102.74
321.483	80.21
321.697	135.51
321.91	69.97
322.124	41.3
322.337	53.59
322.55	96.6
322.763	86.36
322.977	121.17
323.19	-1.71
323.403	45.4
323.617	-11.95
323.83	67.92
324.043	0.34
324.256	137.56
324.469	24.92
324.683	61.78
324.896	80.21
325.109	-16.04
325.322	90.45
325.535	84.31
325.748	41.3
325.962	-11.95
326.175	117.08
326.388	139.6
326.601	106.84
326.814	47.44
327.027	20.82
327.24	63.83
327.453	2.39
327.666	104.79
327.879	-38.57
328.092	82.26
328.305	-5.8
328.518	65.88
328.731	-1.71
328.944	65.88
329.157	29.01
329.37	12.63
329.583	82.26
329.796	98.64
330.009	33.11
330.222	80.21
330.435	43.35
330.648	47.44
330.861	55.64
331.073	-73.39
331.286	69.97
331.499	-5.8
331.712	4.44
331.925	145.75
332.138	51.54
332.35	162.13
332.563	63.83
332.776	37.2
332.989	2.39
333.202	-16.04
333.414	76.12
333.627	72.02
333.84	-5.8
334.053	65.88
334.265	12.63
334.478	20.82
334.691	69.97
334.903	16.73
335.116	57.68
335.329	160.08
335.541	59.73
335.754	115.03
335.966	69.97
336.179	102.74
336.392	53.59
336.604	78.16
336.817	53.59
337.029	-65.19
337.242	37.2
337.454	108.88
337.667	49.49
337.88	33.11
338.092	55.64
338.305	112.98
338.517	51.54
338.729	53.59
338.942	76.12
339.154	92.5
339.367	67.92
339.579	76.12
339.792	45.4
340.004	6.49
340.217	160.08
340.429	90.45
340.641	12.63
340.854	43.35
341.066	16.73
341.278	86.36
341.491	69.97
341.703	90.45
341.915	0.34
342.128	72.02
342.34	61.78
342.552	84.31
342.764	39.25
342.977	88.4
343.189	151.89
343.401	115.03
343.613	45.4
343.826	55.64
344.038	18.77
344.25	69.97
344.462	16.73
344.674	2.39
344.886	110.93
345.099	-20.14
345.311	37.2
345.523	57.68
345.735	12.63
345.947	137.56
346.159	37.2
346.371	49.49
346.583	65.88
346.795	129.36
347.007	65.88
347.219	139.6
347.431	43.35
347.643	98.64
347.855	123.22
348.067	67.92
348.279	76.12
348.491	37.2
348.703	33.11
348.915	59.73
349.127	96.6
349.339	69.97
349.551	43.35
349.763	47.44
349.975	10.58
350.187	53.59
350.399	100.69
350.61	16.73
350.822	33.11
351.034	74.07
351.246	72.02
351.458	37.2
351.669	35.16
351.881	147.8
352.093	131.41
352.305	86.36
352.517	29.01
352.728	106.84
352.94	53.59
353.152	82.26
353.363	102.74
353.575	78.16
353.787	69.97
353.999	49.49
354.21	63.83
354.422	117.08
354.633	61.78
354.845	94.55
355.057	82.26
355.268	94.55
355.48	168.27
355.692	39.25
355.903	-3.75
356.115	88.4
356.326	90.45
356.538	78.16
356.749	6.49
356.961	78.16
357.172	51.54
357.384	47.44
357.595	96.6
357.807	33.11
358.018	78.16
358.23	45.4
358.441	143.7
358.653	104.79
358.864	47.44
359.075	45.4
359.287	76.12
359.498	-30.38
359.709	-9.9
359.921	69.97
360.132	86.36
360.344	24.92
360.555	84.31
360.766	69.97
360.977	45.4
361.189	127.32
361.4	90.45
361.611	78.16
361.823	37.2
362.034	94.55
362.245	35.16
362.456	0.34
362.667	92.5
362.879	63.83
363.09	41.3
363.301	135.51
363.512	47.44
363.723	49.49
363.935	96.6
364.146	80.21
364.357	135.51
364.568	43.35
364.779	96.6
364.99	137.56
365.201	141.65
365.412	53.59
365.623	-7.85
365.834	65.88
366.045	43.35
366.256	37.2
366.467	57.68
366.678	90.45
366.889	-24.23
367.1	53.59
367.311	69.97
367.522	37.2
367.733	90.45
367.944	-16.04
368.155	78.16
368.366	82.26
368.577	86.36
368.788	74.07
368.999	63.83
369.209	61.78
369.42	119.12
369.631	86.36
369.842	141.65
370.053	2.39
370.264	131.41
370.474	125.27
370.685	84.31
370.896	92.5
371.107	115.03
371.317	31.06
371.528	-16.04
371.739	6.49
371.95	100.69
372.16	22.87
372.371	67.92
372.582	22.87
372.792	102.74
373.003	106.84
373.214	74.07
373.424	86.36
373.635	29.01
373.846	110.93
374.056	43.35
374.267	90.45
374.477	57.68
374.688	12.63
374.898	67.92
375.109	112.98
375.319	6.49
375.53	69.97
375.74	29.01
375.951	10.58
376.161	67.92
376.372	133.46
376.582	135.51
376.793	80.21
377.003	29.01
377.214	31.06
377.424	108.88
377.635	110.93
377.845	-1.71
378.055	88.4
378.266	41.3
378.476	86.36
378.686	141.65
378.897	59.73
379.107	137.56
379.317	72.02
379.528	55.64
379.738	72.02
379.948	4.44
380.158	2.39
380.369	8.53
380.579	123.22
380.789	20.82
380.999	112.98
381.21	53.59
381.42	14.68
381.63	170.32
381.84	76.12
382.05	12.63
382.261	129.36
382.471	63.83
382.681	-28.33
382.891	90.45
383.101	108.88
383.311	96.6
383.521	78.16
383.731	160.08
383.941	92.5
384.151	102.74
384.361	12.63
384.571	88.4
384.781	65.88
384.991	131.41
385.201	143.7
385.411	53.59
385.621	102.74
385.831	147.8
386.041	127.32
386.251	53.59
386.461	90.45
386.671	119.12
386.881	92.5
387.091	20.82
387.301	127.32
387.511	78.16
387.72	86.36
387.93	80.21
388.14	57.68
388.35	100.69
388.56	119.12
388.769	92.5
388.979	86.36
389.189	29.01
389.399	158.03
389.609	69.97
389.818	139.6
390.028	96.6
390.238	61.78
390.447	41.3
390.657	119.12
390.867	102.74
391.076	102.74
391.286	90.45
391.496	57.68
391.705	110.93
391.915	141.65
392.125	80.21
392.334	131.41
392.544	115.03
392.753	86.36
392.963	84.31
393.172	131.41
393.382	-3.75
393.591	155.99
393.801	65.88
394.01	217.43
394.22	86.36
394.429	102.74
394.639	80.21
394.848	203.09
395.058	139.6
395.267	98.64
395.477	76.12
395.686	170.32
395.895	201.04
396.105	196.95
396.314	94.55
396.524	110.93
396.733	86.36
396.942	123.22
397.152	176.47
397.361	49.49
397.57	129.36
397.78	133.46
397.989	119.12
398.198	172.37
398.407	168.27
398.617	121.17
398.826	135.51
399.035	106.84
399.244	160.08
399.453	149.84
399.663	108.88
399.872	100.69
400.081	176.47
400.29	108.88
400.499	90.45
400.708	117.08
400.917	143.7
401.127	172.37
401.336	182.61
401.545	110.93
401.754	221.52
401.963	121.17
402.172	84.31
402.381	149.84
402.59	119.12
402.799	192.85
403.008	196.95
403.217	186.71
403.426	174.42
403.635	201.04
403.844	225.62
404.053	158.03
404.262	188.75
404.471	231.76
404.68	207.19
404.888	201.04
405.097	192.85
405.306	217.43
405.515	217.43
405.724	127.32
405.933	221.52
406.142	239.95
406.35	217.43
406.559	207.19
406.768	278.87
406.977	276.82
407.185	293.2
407.394	246.1
407.603	252.24
407.812	356.69
408.02	301.39
408.229	274.77
408.438	330.06
408.646	307.54
408.855	385.36
409.064	397.65
409.272	356.69
409.481	422.22
409.69	307.54
409.898	414.03
410.107	373.07
410.315	432.46
410.524	358.74
410.733	442.7
410.941	504.14
411.15	467.28
411.358	534.86
411.567	543.05
411.775	498
411.984	516.43
412.192	483.66
412.401	608.59
412.609	633.16
412.818	596.3
413.026	635.21
413.234	686.41
413.443	657.74
413.651	678.22
413.86	717.13
414.068	792.91
414.276	725.32
414.485	778.57
414.693	872.78
414.901	1024.33
415.11	913.74
415.318	887.11
415.526	919.88
415.734	1028.42
415.943	1007.94
416.151	1057.09
416.359	1063.24
416.567	1114.44
416.776	1208.64
416.984	1083.72
417.192	1306.95
417.4	1245.51
417.608	1413.44
417.817	1380.67
418.025	1431.87
418.233	1470.78
418.441	1421.63
418.649	1544.51
418.857	1681.72
419.065	1562.94
419.273	1638.72
419.481	1644.86
419.689	1820.99
419.897	1931.58
420.105	1919.29
420.313	2033.97
420.521	2036.02
420.729	2150.71
420.937	2265.39
421.145	2203.96
421.353	2484.53
421.561	2400.56
421.769	2566.45
421.977	2556.21
422.185	2621.74
422.393	2797.87
422.601	2935.08
422.809	2998.57
423.017	2978.09
423.224	2969.9
423.432	3189.03
423.64	3150.12
423.848	3512.61
424.056	3414.31
424.263	3576.09
424.471	3549.47
424.679	3680.54
424.887	3879.19
425.094	4071.7
425.302	4172.05
425.51	4272.4
425.718	4278.55
425.925	4440.34
426.133	4495.63
426.341	4831.5
426.548	5056.78
426.756	5087.5
426.964	5079.3
427.171	5284.1
427.379	5560.58
427.586	5675.26
427.794	5822.72
428.001	6119.67
428.209	6367.48
428.417	6289.65
428.624	6740.21
428.832	6725.87
429.039	6406.39
429.247	6764.78
429.454	7090.41
429.662	7573.73
429.869	7106.79
430.076	7743.71
430.284	7778.53
430.491	7829.73
430.699	8376.53
430.906	8151.26
431.114	8417.49
431.321	8485.08
431.528	8861.9
431.736	9263.3
431.943	9754.82
432.15	9566.4
432.358	9613.51
432.565	10201.27
432.772	10334.39
432.979	10733.75
433.187	10780.85
433.394	10983.6
433.601	11681.96
433.808	11714.72
434.016	11790.5
434.223	12054.69
434.43	12837.01
434.637	12492.95
434.844	13543.56
435.052	13904
435.259	13613.19
435.466	13793.41
435.673	13662.34
435.88	14434.43
436.087	15157.36
436.294	15255.66
436.501	14743.67
436.708	15206.51
436.915	15722.6
437.122	16398.43
437.329	16271.45
437.537	16963.67
437.743	17231.95
437.95	17031.25
438.157	18053.19
438.364	18659.38
438.571	18382.91
438.778	18446.4
438.985	20262.94
439.192	19654.7
439.399	20129.83
439.606	19677.23
439.813	21051.41
440.02	22280.19
440.227	22071.3
440.433	21432.33
440.64	22337.54
440.847	22001.67
441.054	22470.65
441.261	23937
441.467	23674.86
441.674	24399.84
441.881	25192.4
442.088	25190.36
442.294	24788.96
442.501	25565.14
442.708	26038.22
442.914	27011
443.121	28420
443.328	27473.84
443.534	29585.3
443.741	28694.43
443.948	28051.37
444.154	30093.19
444.361	29708.18
444.568	30044.04
444.774	30269.32
444.981	30668.67
445.187	31342.46
445.394	32556.9
445.6	32163.69
445.807	35567.41
446.013	33498.97
446.22	34502.47
446.426	35616.57
446.633	35794.74
446.839	37185.31
447.046	35706.68
447.252	37334.81
447.459	37820.18
447.665	37265.18
447.871	38971.14
448.078	40425.2
448.284	39034.63
448.491	39712.5
448.697	41010.92
448.903	42049.24
449.11	42092.24
449.316	40978.15
449.522	42065.62
449.728	42587.85
449.935	43239.11
450.141	43024.07
450.347	44484.27
450.553	42841.8
450.76	43255.49
450.966	44766.89
451.172	44177.08
451.378	44787.37
451.584	44203.7
451.791	45295.27
451.997	45078.18
452.203	45983.38
452.409	45463.2
452.615	45807.26
452.821	43884.22
453.027	43912.89
453.233	45227.68
453.44	43802.3
453.646	44240.56
453.852	44250.8
454.058	45287.07
454.264	43734.71
454.47	44580.53
454.676	43464.38
454.882	45088.42
455.088	41098.98
455.294	41299.68
455.5	41811.67
455.705	42677.96
455.911	40875.75
456.117	39941.88
456.323	39517.95
456.529	37181.21
456.735	38500.11
456.941	37744.41
457.147	37400.35
457.352	36423.47
457.558	35710.77
457.764	35860.27
457.97	35057.47
458.176	34174.8
458.381	34355.02
458.587	32661.35
458.793	32556.9
458.999	30953.34
459.204	33382.23
459.41	32151.4
459.616	30017.42
459.821	30341
460.027	30463.88
460.233	29523.86
460.438	27901.87
460.644	28825.5
460.85	27316.15
461.055	26879.93
461.261	26619.84
461.466	24926.17
461.672	23980.01
461.878	25968.59
462.083	24123.37
462.289	23748.59
462.494	23263.22
462.7	22538.24
462.905	21741.58
463.111	22458.37
463.316	22587.39
463.522	22306.82
463.727	22261.76
463.932	22372.35
464.138	21882.89
464.343	21999.62
464.549	21565.45
464.754	22028.29
464.959	22005.77
465.165	21673.99
465.37	20877.33
465.575	20428.83
465.781	21139.47
465.986	21235.73
466.191	20539.42
466.397	19828.77
466.602	19322.93
466.807	19730.47
467.012	19879.97
467.218	19869.73
467.423	19542.06
