Data from USB4F104151__8__10-20-35-915.txt Node

Date: Wed Mar 12 10:20:35 EDT 2025
User: louis
Spectrometer: USB4F10415
Trigger mode: 4
Integration Time (sec): 3.000000E-2
Scans to average: 1
Electric dark correction enabled: true
Nonlinearity correction enabled: false
Boxcar width: 0
XAxis mode: Wavelengths
Number of Pixels in Spectrum: 3648
>>>>>Begin Spectral Data<<<<<
178.204	-196.43
178.424	-196.43
178.644	-196.43
178.864	-153.43
179.084	-51.03
179.304	-20.31
179.524	-65.36
179.744	34.99
179.964	49.32
180.184	4.27
180.404	-40.79
180.624	55.47
180.844	-53.08
181.064	-71.51
181.283	34.99
181.503	14.51
181.723	57.51
181.943	-71.51
182.163	2.22
182.383	-20.31
182.602	-48.98
182.822	6.31
183.042	16.55
183.262	-22.36
183.482	4.27
183.701	-20.31
183.921	14.51
184.141	8.36
184.361	16.55
184.58	47.27
184.8	-57.17
185.02	49.32
185.239	-32.6
185.459	-3.93
185.679	43.18
185.898	41.13
186.118	51.37
186.338	-5.97
186.557	43.18
186.777	2.22
186.997	41.13
187.216	-10.07
187.436	116.9
187.655	-34.64
187.875	63.66
188.095	-22.36
188.314	100.52
188.534	32.94
188.753	4.27
188.973	-36.69
189.192	34.99
189.412	-8.02
189.631	-46.93
189.851	47.27
190.07	-55.12
190.29	-14.17
190.509	-22.36
190.729	39.08
190.948	51.37
191.168	57.51
191.387	47.27
191.607	0.17
191.826	-65.36
192.045	37.03
192.265	47.27
192.484	-46.93
192.704	-40.79
192.923	26.79
193.142	43.18
193.362	37.03
193.581	6.31
193.8	41.13
194.02	51.37
194.239	26.79
194.458	-8.02
194.678	-46.93
194.897	-34.64
195.116	86.19
195.335	20.65
195.555	-40.79
195.774	-71.51
195.993	-51.03
196.212	0.17
196.432	-18.26
196.651	8.36
196.87	-8.02
197.089	47.27
197.308	63.66
197.528	-20.31
197.747	22.7
197.966	24.75
198.185	47.27
198.404	14.51
198.623	4.27
198.842	-8.02
199.062	28.84
199.281	49.32
199.5	24.75
199.719	-22.36
199.938	0.17
200.157	71.85
200.376	-14.17
200.595	6.31
200.814	4.27
201.033	-10.07
201.252	51.37
201.471	32.94
201.69	18.6
201.909	2.22
202.128	59.56
202.347	-34.64
202.566	-32.6
202.785	-63.32
203.004	-46.93
203.223	59.56
203.442	26.79
203.661	0.17
203.879	34.99
204.098	12.46
204.317	16.55
204.536	24.75
204.755	-14.17
204.974	57.51
205.193	73.9
205.411	65.71
205.63	34.99
205.849	67.75
206.068	80.04
206.287	-71.51
206.505	-98.13
206.724	-18.26
206.943	-20.31
207.162	55.47
207.381	-22.36
207.599	41.13
207.818	-12.12
208.037	14.51
208.255	6.31
208.474	26.79
208.693	-32.6
208.911	-5.97
209.13	18.6
209.349	80.04
209.567	2.22
209.786	2.22
210.005	75.95
210.223	12.46
210.442	16.55
210.661	-10.07
210.879	-8.02
211.098	-5.97
211.316	-1.88
211.535	10.41
211.753	45.23
211.972	88.23
212.191	24.75
212.409	-16.21
212.628	2.22
212.846	-32.6
213.065	2.22
213.283	49.32
213.502	-30.55
213.72	34.99
213.938	18.6
214.157	43.18
214.375	14.51
214.594	-34.64
214.812	-55.12
215.031	-24.4
215.249	-10.07
215.467	2.22
215.686	-8.02
215.904	-3.93
216.122	34.99
216.341	-18.26
216.559	-32.6
216.778	6.31
216.996	-16.21
217.214	-3.93
217.432	51.37
217.651	-30.55
217.869	34.99
218.087	-79.7
218.306	-30.55
218.524	-40.79
218.742	-14.17
218.96	12.46
219.179	67.75
219.397	-10.07
219.615	55.47
219.833	28.84
220.051	-14.17
220.27	-14.17
220.488	-8.02
220.706	51.37
220.924	39.08
221.142	2.22
221.36	47.27
221.578	-30.55
221.796	-8.02
222.015	10.41
222.233	6.31
222.451	10.41
222.669	-5.97
222.887	18.6
223.105	18.6
223.323	51.37
223.541	16.55
223.759	32.94
223.977	16.55
224.195	32.94
224.413	26.79
224.631	-10.07
224.849	-8.02
225.067	84.14
225.285	32.94
225.503	-87.89
225.721	-42.84
225.939	24.75
226.157	67.75
226.375	77.99
226.592	-20.31
226.81	6.31
227.028	57.51
227.246	-12.12
227.464	-32.6
227.682	-38.74
227.9	22.7
228.117	82.09
228.335	69.8
228.553	20.65
228.771	-28.5
228.989	24.75
229.206	69.8
229.424	-20.31
229.642	-1.88
229.86	10.41
230.077	32.94
230.295	-22.36
230.513	125.1
230.731	67.75
230.948	16.55
231.166	24.75
231.384	-30.55
231.601	10.41
231.819	32.94
232.037	65.71
232.254	4.27
232.472	71.85
232.689	20.65
232.907	43.18
233.125	16.55
233.342	-3.93
233.56	-14.17
233.777	28.84
233.995	4.27
234.213	75.95
234.43	16.55
234.648	-10.07
234.865	-1.88
235.083	-36.69
235.3	8.36
235.518	16.55
235.735	90.28
235.953	47.27
236.17	43.18
236.388	-63.32
236.605	14.51
236.822	16.55
237.04	41.13
237.257	-18.26
237.475	-5.97
237.692	6.31
237.909	47.27
238.127	-61.27
238.344	18.6
238.562	-36.69
238.779	-48.98
238.996	-71.51
239.214	4.27
239.431	10.41
239.648	-32.6
239.865	71.85
240.083	2.22
240.3	-14.17
240.517	28.84
240.735	-1.88
240.952	-32.6
241.169	-10.07
241.386	-1.88
241.603	-1.88
241.821	-69.46
242.038	77.99
242.255	16.55
242.472	-18.26
242.689	-1.88
242.907	18.6
243.124	-57.17
243.341	34.99
243.558	-5.97
243.775	-10.07
243.992	10.41
244.209	16.55
244.426	22.7
244.643	98.47
244.86	-12.12
245.078	41.13
245.295	16.55
245.512	22.7
245.729	8.36
245.946	-55.12
246.163	26.79
246.38	-57.17
246.597	0.17
246.814	18.6
247.031	-22.36
247.248	-8.02
247.464	-8.02
247.681	-71.51
247.898	6.31
248.115	-18.26
248.332	-16.21
248.549	71.85
248.766	82.09
248.983	112.81
249.2	10.41
249.417	16.55
249.633	10.41
249.85	41.13
250.067	84.14
250.284	16.55
250.501	57.51
250.717	22.7
250.934	-77.65
251.151	55.47
251.368	6.31
251.585	55.47
251.801	2.22
252.018	-46.93
252.235	104.62
252.451	-5.97
252.668	-12.12
252.885	96.43
253.102	-8.02
253.318	16.55
253.535	28.84
253.752	-16.21
253.968	6.31
254.185	-38.74
254.401	22.7
254.618	-20.31
254.835	8.36
255.051	63.66
255.268	12.46
255.484	30.89
255.701	-5.97
255.917	84.14
256.134	10.41
256.351	26.79
256.567	-16.21
256.784	-14.17
257	12.46
257.217	100.52
257.433	2.22
257.65	47.27
257.866	71.85
258.082	8.36
258.299	-30.55
258.515	10.41
258.732	-32.6
258.948	-5.97
259.165	12.46
259.381	82.09
259.597	28.84
259.814	49.32
260.03	-18.26
260.246	26.79
260.463	-16.21
260.679	2.22
260.895	-14.17
261.112	14.51
261.328	2.22
261.544	-14.17
261.761	-1.88
261.977	-22.36
262.193	-40.79
262.409	0.17
262.626	10.41
262.842	43.18
263.058	73.9
263.274	49.32
263.49	-77.65
263.707	49.32
263.923	-38.74
264.139	20.65
264.355	43.18
264.571	16.55
264.787	-40.79
265.004	75.95
265.22	-3.93
265.436	-8.02
265.652	-10.07
265.868	-22.36
266.084	-30.55
266.3	-10.07
266.516	22.7
266.732	-12.12
266.948	-10.07
267.164	0.17
267.38	20.65
267.596	14.51
267.812	112.81
268.028	43.18
268.244	47.27
268.46	41.13
268.676	8.36
268.892	0.17
269.108	2.22
269.324	-28.5
269.54	6.31
269.756	100.52
269.972	-18.26
270.188	-32.6
270.403	88.23
270.619	-51.03
270.835	10.41
271.051	127.14
271.267	26.79
271.483	-30.55
271.698	67.75
271.914	-3.93
272.13	-22.36
272.346	-28.5
272.562	-46.93
272.777	18.6
272.993	-8.02
273.209	22.7
273.425	47.27
273.64	30.89
273.856	18.6
274.072	51.37
274.287	18.6
274.503	67.75
274.719	49.32
274.934	-26.45
275.15	86.19
275.366	-3.93
275.581	10.41
275.797	24.75
276.012	41.13
276.228	-22.36
276.444	-5.97
276.659	10.41
276.875	10.41
277.09	-42.84
277.306	-51.03
277.521	-87.89
277.737	2.22
277.952	45.23
278.168	80.04
278.383	-44.88
278.599	14.51
278.814	94.38
279.03	-14.17
279.245	108.71
279.461	14.51
279.676	47.27
279.892	10.41
280.107	-28.5
280.322	12.46
280.538	8.36
280.753	-98.13
280.969	63.66
281.184	2.22
281.399	43.18
281.615	37.03
281.83	51.37
282.045	-38.74
282.26	10.41
282.476	4.27
282.691	75.95
282.906	14.51
283.122	41.13
283.337	-34.64
283.552	82.09
283.767	-22.36
283.983	82.09
284.198	41.13
284.413	49.32
284.628	-18.26
284.843	10.41
285.058	82.09
285.274	18.6
285.489	-116.56
285.704	34.99
285.919	2.22
286.134	67.75
286.349	30.89
286.564	34.99
286.779	106.67
286.995	18.6
287.21	-18.26
287.425	39.08
287.64	-5.97
287.855	8.36
288.07	51.37
288.285	37.03
288.5	26.79
288.715	-1.88
288.93	10.41
289.145	-16.21
289.36	39.08
289.575	51.37
289.79	39.08
290.004	-83.8
290.219	14.51
290.434	22.7
290.649	-8.02
290.864	34.99
291.079	73.9
291.294	-20.31
291.509	10.41
291.724	-67.41
291.938	47.27
292.153	28.84
292.368	12.46
292.583	30.89
292.798	20.65
293.012	-1.88
293.227	73.9
293.442	-18.26
293.657	22.7
293.871	-34.64
294.086	2.22
294.301	22.7
294.516	32.94
294.73	92.33
294.945	10.41
295.16	24.75
295.374	8.36
295.589	67.75
295.804	-32.6
296.018	75.95
296.233	34.99
296.447	34.99
296.662	-3.93
296.877	47.27
297.091	-53.08
297.306	8.36
297.52	-48.98
297.735	59.56
297.949	-34.64
298.164	41.13
298.378	22.7
298.593	-32.6
298.807	-14.17
299.022	63.66
299.236	67.75
299.451	-22.36
299.665	-5.97
299.88	59.56
300.094	45.23
300.309	41.13
300.523	49.32
300.737	-40.79
300.952	6.31
301.166	69.8
301.381	-40.79
301.595	43.18
301.809	4.27
302.024	-10.07
302.238	8.36
302.452	100.52
302.667	22.7
302.881	-8.02
303.095	80.04
303.309	-53.08
303.524	-26.45
303.738	43.18
303.952	12.46
304.166	8.36
304.381	-55.12
304.595	30.89
304.809	4.27
305.023	26.79
305.237	39.08
305.452	100.52
305.666	18.6
305.88	53.42
306.094	-30.55
306.308	14.51
306.522	14.51
306.736	-32.6
306.95	43.18
307.164	51.37
307.379	34.99
307.593	-8.02
307.807	24.75
308.021	98.47
308.235	-5.97
308.449	82.09
308.663	-12.12
308.877	73.9
309.091	39.08
309.305	14.51
309.519	59.56
309.733	82.09
309.947	-5.97
310.161	26.79
310.374	47.27
310.588	-38.74
310.802	4.27
311.016	43.18
311.23	-18.26
311.444	-32.6
311.658	12.46
311.872	-1.88
312.085	92.33
312.299	80.04
312.513	18.6
312.727	32.94
312.941	-30.55
313.154	75.95
313.368	-20.31
313.582	71.85
313.796	43.18
314.009	-8.02
314.223	14.51
314.437	4.27
314.651	-20.31
314.864	30.89
315.078	-3.93
315.292	63.66
315.505	-30.55
315.719	-89.94
315.933	67.75
316.146	51.37
316.36	-71.51
316.573	51.37
316.787	12.46
317.001	12.46
317.214	-51.03
317.428	96.43
317.641	2.22
317.855	51.37
318.068	-44.88
318.282	26.79
318.495	-18.26
318.709	84.14
318.922	65.71
319.136	12.46
319.349	41.13
319.563	59.56
319.776	-3.93
319.99	-24.4
320.203	-20.31
320.417	16.55
320.63	-5.97
320.843	8.36
321.057	-20.31
321.27	2.22
321.483	18.6
321.697	28.84
321.91	8.36
322.124	73.9
322.337	-10.07
322.55	28.84
322.763	53.42
322.977	-5.97
323.19	26.79
323.403	77.99
323.617	-20.31
323.83	80.04
324.043	-28.5
324.256	-51.03
324.469	24.75
324.683	59.56
324.896	49.32
325.109	51.37
325.322	-75.6
325.535	37.03
325.748	-16.21
325.962	-8.02
326.175	12.46
326.388	8.36
326.601	34.99
326.814	16.55
327.027	34.99
327.24	116.9
327.453	22.7
327.666	45.23
327.879	34.99
328.092	-32.6
328.305	43.18
328.518	22.7
328.731	-24.4
328.944	28.84
329.157	34.99
329.37	-22.36
329.583	80.04
329.796	84.14
330.009	-91.99
330.222	32.94
330.435	22.7
330.648	-34.64
330.861	32.94
331.073	57.51
331.286	30.89
331.499	-22.36
331.712	-24.4
331.925	61.61
332.138	92.33
332.35	131.24
332.563	2.22
332.776	104.62
332.989	14.51
333.202	10.41
333.414	22.7
333.627	0.17
333.84	149.67
334.053	39.08
334.265	47.27
334.478	84.14
334.691	57.51
334.903	47.27
335.116	18.6
335.329	-8.02
335.541	-1.88
335.754	16.55
335.966	59.56
336.179	34.99
336.392	20.65
336.604	4.27
336.817	59.56
337.029	20.65
337.242	24.75
337.454	-44.88
337.667	28.84
337.88	63.66
338.092	82.09
338.305	10.41
338.517	22.7
338.729	2.22
338.942	34.99
339.154	18.6
339.367	18.6
339.579	22.7
339.792	6.31
340.004	43.18
340.217	34.99
340.429	71.85
340.641	8.36
340.854	12.46
341.066	-1.88
341.278	-22.36
341.491	114.86
341.703	28.84
341.915	8.36
342.128	51.37
342.34	69.8
342.552	18.6
342.764	2.22
342.977	37.03
343.189	26.79
343.401	116.9
343.613	-12.12
343.826	37.03
344.038	63.66
344.25	4.27
344.462	39.08
344.674	-69.46
344.886	6.31
345.099	86.19
345.311	16.55
345.523	45.23
345.735	-75.6
345.947	102.57
346.159	73.9
346.371	-1.88
346.583	43.18
346.795	45.23
347.007	-26.45
347.219	6.31
347.431	67.75
347.643	47.27
347.855	-16.21
348.067	118.95
348.279	-8.02
348.491	22.7
348.703	18.6
348.915	75.95
349.127	-28.5
349.339	51.37
349.551	14.51
349.763	61.61
349.975	34.99
350.187	71.85
350.399	-26.45
350.61	69.8
350.822	49.32
351.034	4.27
351.246	90.28
351.458	34.99
351.669	57.51
351.881	51.37
352.093	4.27
352.305	32.94
352.517	34.99
352.728	112.81
352.94	12.46
353.152	80.04
353.363	-32.6
353.575	63.66
353.787	73.9
353.999	73.9
354.21	137.38
354.422	0.17
354.633	30.89
354.845	14.51
355.057	41.13
355.268	96.43
355.48	157.86
355.692	8.36
355.903	32.94
356.115	34.99
356.326	4.27
356.538	84.14
356.749	32.94
356.961	51.37
357.172	-18.26
357.384	-22.36
357.595	88.23
357.807	43.18
358.018	12.46
358.23	51.37
358.441	26.79
358.653	8.36
358.864	32.94
359.075	-20.31
359.287	84.14
359.498	69.8
359.709	8.36
359.921	22.7
360.132	-30.55
360.344	45.23
360.555	-10.07
360.766	10.41
360.977	-42.84
361.189	129.19
361.4	-36.69
361.611	65.71
361.823	16.55
362.034	32.94
362.245	-24.4
362.456	26.79
362.667	39.08
362.879	-51.03
363.09	26.79
363.301	-5.97
363.512	51.37
363.723	37.03
363.935	-46.93
364.146	30.89
364.357	-18.26
364.568	73.9
364.779	34.99
364.99	34.99
365.201	-22.36
365.412	-22.36
365.623	-32.6
365.834	59.56
366.045	71.85
366.256	16.55
366.467	-1.88
366.678	0.17
366.889	18.6
367.1	104.62
367.311	69.8
367.522	-65.36
367.733	65.71
367.944	2.22
368.155	41.13
368.366	67.75
368.577	166.06
368.788	37.03
368.999	-5.97
369.209	123.05
369.42	139.43
369.631	75.95
369.842	71.85
370.053	-16.21
370.264	49.32
370.474	-8.02
370.685	43.18
370.896	37.03
371.107	63.66
371.317	65.71
371.528	-32.6
371.739	14.51
371.95	41.13
372.16	6.31
372.371	-5.97
372.582	43.18
372.792	75.95
373.003	100.52
373.214	10.41
373.424	-1.88
373.635	-40.79
373.846	174.25
374.056	-8.02
374.267	6.31
374.477	84.14
374.688	-8.02
374.898	71.85
375.109	10.41
375.319	51.37
375.53	14.51
375.74	59.56
375.951	86.19
376.161	0.17
376.372	45.23
376.582	39.08
376.793	12.46
377.003	16.55
377.214	-10.07
377.424	94.38
377.635	45.23
377.845	69.8
378.055	71.85
378.266	51.37
378.476	100.52
378.686	16.55
378.897	39.08
379.107	0.17
379.317	-14.17
379.528	24.75
379.738	71.85
379.948	32.94
380.158	-8.02
380.369	12.46
380.579	28.84
380.789	4.27
380.999	100.52
381.21	41.13
381.42	37.03
381.63	61.61
381.84	12.46
382.05	39.08
382.261	69.8
382.471	32.94
382.681	49.32
382.891	75.95
383.101	94.38
383.311	-34.64
383.521	75.95
383.731	71.85
383.941	0.17
384.151	34.99
384.361	65.71
384.571	18.6
384.781	59.56
384.991	84.14
385.201	6.31
385.411	108.71
385.621	98.47
385.831	-18.26
386.041	28.84
386.251	53.42
386.461	55.47
386.671	104.62
386.881	45.23
387.091	8.36
387.301	86.19
387.511	22.7
387.72	71.85
387.93	55.47
388.14	-14.17
388.35	26.79
388.56	34.99
388.769	-8.02
388.979	22.7
389.189	59.56
389.399	22.7
389.609	77.99
389.818	47.27
390.028	67.75
390.238	30.89
390.447	-8.02
390.657	71.85
390.867	49.32
391.076	4.27
391.286	-3.93
391.496	37.03
391.705	28.84
391.915	55.47
392.125	161.96
392.334	-10.07
392.544	88.23
392.753	67.75
392.963	39.08
393.172	106.67
393.382	71.85
393.591	94.38
393.801	65.71
394.01	118.95
394.22	82.09
394.429	32.94
394.639	75.95
394.848	49.32
395.058	123.05
395.267	104.62
395.477	75.95
395.686	118.95
395.895	104.62
396.105	114.86
396.314	90.28
396.524	41.13
396.733	-12.12
396.942	84.14
397.152	108.71
397.361	98.47
397.57	84.14
397.78	20.65
397.989	90.28
398.198	188.58
398.407	86.19
398.617	104.62
398.826	51.37
399.035	88.23
399.244	73.9
399.453	71.85
399.663	39.08
399.872	100.52
400.081	18.6
400.29	43.18
400.499	88.23
400.708	157.86
400.917	127.14
401.127	49.32
401.336	30.89
401.545	116.9
401.754	137.38
401.963	63.66
402.172	114.86
402.381	118.95
402.59	141.48
402.799	145.58
403.008	45.23
403.217	96.43
403.426	84.14
403.635	114.86
403.844	110.76
404.053	127.14
404.262	141.48
404.471	202.92
404.68	174.25
404.888	125.1
405.097	141.48
405.306	202.92
405.515	141.48
405.724	133.29
405.933	145.58
406.142	233.64
406.35	180.39
406.559	241.83
406.768	209.06
406.977	104.62
407.185	200.87
407.394	243.88
407.603	239.78
407.812	211.11
408.02	245.93
408.229	188.58
408.438	272.55
408.646	168.1
408.855	362.66
409.064	325.8
409.272	307.37
409.481	299.17
409.69	313.51
409.898	213.16
410.107	331.94
410.315	286.89
410.524	290.98
410.733	319.65
410.941	280.74
411.15	415.91
411.358	348.33
411.567	477.35
411.775	403.62
411.984	460.96
412.192	446.63
412.401	417.96
412.609	465.06
412.818	475.3
413.026	467.11
413.234	514.21
413.443	526.5
413.651	559.27
413.86	614.56
414.068	618.66
414.276	608.42
414.485	663.71
414.693	608.42
414.901	682.14
415.11	610.47
415.318	731.3
415.526	712.86
415.734	805.02
415.943	856.22
416.151	811.17
416.359	882.85
416.567	854.17
416.776	999.58
416.984	991.39
417.192	1042.59
417.4	1126.55
417.608	1073.31
417.817	1151.13
418.025	1167.51
418.233	1237.14
418.441	1179.8
418.649	1194.14
418.857	1417.37
419.065	1384.6
419.273	1400.98
419.481	1462.42
419.689	1509.52
419.897	1644.69
420.105	1720.46
420.313	1736.85
420.521	1687.7
420.729	1839.25
420.937	1851.53
421.145	1915.02
421.353	1949.84
421.561	2044.04
421.769	2168.97
421.977	2193.55
422.185	2168.97
422.393	2349.19
422.601	2435.21
422.809	2427.01
423.017	2484.36
423.224	2492.55
423.432	2646.15
423.64	2680.96
423.848	2885.76
424.056	2801.79
424.263	3192.95
424.471	3002.49
424.679	3035.26
424.887	3317.88
425.094	3422.33
425.302	3364.98
425.51	3502.2
425.718	3569.78
425.925	3733.62
426.133	3788.91
426.341	4012.14
426.548	4305
426.756	4391.02
426.964	4411.5
427.171	4624.48
427.379	4606.05
427.586	4802.66
427.794	4892.77
428.001	5118.04
428.209	5183.58
428.417	5220.44
428.624	5507.16
428.832	5619.8
429.039	5527.64
429.247	5494.87
429.454	6209.61
429.662	6420.55
429.869	6025.29
430.076	6522.95
430.284	6340.68
430.491	6582.34
430.699	7123.01
430.906	6807.62
431.114	7110.72
431.321	7184.45
431.528	7401.53
431.736	8011.82
431.943	8271.92
432.15	7927.86
432.358	8108.08
432.565	8491.05
432.772	8685.61
432.979	9011.23
433.187	8953.89
433.394	9207.84
433.601	9746.45
433.808	9945.11
434.016	9705.49
434.223	10059.79
434.43	10770.44
434.637	10582.03
434.844	11218.94
435.052	11452.41
435.259	11491.32
435.466	11519.99
435.673	11376.64
435.88	12222.45
436.087	12808.17
436.294	12552.17
436.501	12513.26
436.708	12591.08
436.915	13404.13
437.122	13701.08
437.329	13785.05
437.537	14125.01
437.743	14471.12
437.95	14444.49
438.157	15302.59
438.364	15368.13
438.571	15523.77
438.778	15538.11
438.985	17147.81
439.192	16273.33
439.399	16758.7
439.606	16641.96
439.813	17659.81
440.02	18405.27
440.227	17952.66
440.433	17690.52
440.64	18304.92
440.847	18534.29
441.054	18734.99
441.261	20084.6
441.467	19836.8
441.674	20328.31
441.881	20928.36
442.088	21161.83
442.294	20651.89
442.501	21180.26
442.708	21708.64
442.914	22652.75
443.121	23406.41
443.328	22753.1
443.534	24172.35
443.741	23859.01
443.948	23326.53
444.154	25108.27
444.361	24956.72
444.568	25304.87
444.774	24999.73
444.981	25319.21
445.187	25956.13
445.394	27467.53
445.6	26906.38
445.807	29335.28
446.013	27873.03
446.22	28755.7
446.426	29550.31
446.633	30181.09
446.839	31221.45
447.046	29931.23
447.252	31313.61
447.459	31129.3
447.665	31520.46
447.871	32460.48
448.078	33818.28
448.284	32321.21
448.491	33097.39
448.697	34041.51
448.903	34862.74
449.11	35143.31
449.316	34188.96
449.522	34983.57
449.728	35913.35
449.935	36386.43
450.141	35962.5
450.347	37011.06
450.553	35647.11
450.76	36077.19
450.966	37097.08
451.172	36978.29
451.378	37985.9
451.584	36990.58
451.791	37639.79
451.997	37940.84
452.203	38512.22
452.409	38299.23
452.615	37863.02
452.821	36724.35
453.027	36353.66
453.233	38092.39
453.44	36400.77
453.646	36560.51
453.852	36615.8
454.058	37492.33
454.264	36001.41
454.47	36949.62
454.676	35970.69
454.882	37265.01
455.088	33879.72
455.294	34449.05
455.5	34860.69
455.705	35268.24
455.911	33988.26
456.117	33277.61
456.323	32571.07
456.529	31160.02
456.735	32241.34
456.941	31323.85
457.147	30953.17
457.352	30140.13
457.558	29812.45
457.764	29646.57
457.97	28960.5
458.176	28237.56
458.381	28167.93
458.587	26859.28
458.793	26851.09
458.999	25743.14
459.204	27309.83
459.41	26304.28
459.616	24999.73
459.821	24721.2
460.027	24897.33
460.233	24393.53
460.438	23248.71
460.644	23412.55
460.85	22407
461.055	22189.91
461.261	21778.27
461.466	20248.44
461.672	19756.93
461.878	20961.13
462.083	19814.27
462.289	19361.67
462.494	19253.12
462.7	18501.52
462.905	17698.72
463.111	18448.27
463.316	18552.72
463.522	18337.68
463.727	18167.7
463.932	18134.93
464.138	17786.78
464.343	17868.7
464.549	17442.72
464.754	17844.12
464.959	17872.79
465.165	17964.95
465.37	16902.06
465.575	16547.76
465.781	17088.42
465.986	17364.9
466.191	16641.96
466.397	16482.22
466.602	15730.62
466.807	16207.8
467.012	16355.25
