Data from USB4F104151__30__10-21-52-166.txt Node

Date: Wed Mar 12 10:21:52 EDT 2025
User: louis
Spectrometer: USB4F10415
Trigger mode: 4
Integration Time (sec): 3.000000E-2
Scans to average: 1
Electric dark correction enabled: true
Nonlinearity correction enabled: false
Boxcar width: 0
XAxis mode: Wavelengths
Number of Pixels in Spectrum: 3648
>>>>>Begin Spectral Data<<<<<
178.204	-132.95
178.424	-132.95
178.644	-132.95
178.864	-112.47
179.084	-112.47
179.304	-8.02
179.524	-63.32
179.744	14.51
179.964	10.41
180.184	-20.31
180.404	-5.97
180.624	4.27
180.844	45.23
181.064	-57.17
181.283	8.36
181.503	4.27
181.723	67.75
181.943	-55.12
182.163	37.03
182.383	71.85
182.602	65.71
182.822	-22.36
183.042	-1.88
183.262	-79.7
183.482	-26.45
183.701	-40.79
183.921	2.22
184.141	6.31
184.361	22.7
184.58	-28.5
184.8	12.46
185.02	12.46
185.239	0.17
185.459	80.04
185.679	51.37
185.898	14.51
186.118	77.99
186.338	8.36
186.557	6.31
186.777	-26.45
186.997	-1.88
187.216	-38.74
187.436	114.86
187.655	41.13
187.875	94.38
188.095	22.7
188.314	67.75
188.534	-1.88
188.753	92.33
188.973	39.08
189.192	26.79
189.412	-32.6
189.631	57.51
189.851	-3.93
190.07	10.41
190.29	-12.12
190.509	16.55
190.729	22.7
190.948	-5.97
191.168	96.43
191.387	55.47
191.607	77.99
191.826	6.31
192.045	-16.21
192.265	51.37
192.484	-8.02
192.704	-14.17
192.923	18.6
193.142	10.41
193.362	2.22
193.581	22.7
193.8	65.71
194.02	67.75
194.239	-63.32
194.458	37.03
194.678	2.22
194.897	14.51
195.116	10.41
195.335	14.51
195.555	24.75
195.774	20.65
195.993	69.8
196.212	-3.93
196.432	-38.74
196.651	39.08
196.87	34.99
197.089	41.13
197.308	26.79
197.528	92.33
197.747	8.36
197.966	32.94
198.185	39.08
198.404	10.41
198.623	82.09
198.842	82.09
199.062	-5.97
199.281	20.65
199.5	16.55
199.719	112.81
199.938	67.75
200.157	8.36
200.376	59.56
200.595	55.47
200.814	55.47
201.033	-14.17
201.252	84.14
201.471	26.79
201.69	-22.36
201.909	41.13
202.128	-34.64
202.347	22.7
202.566	6.31
202.785	-30.55
203.004	2.22
203.223	96.43
203.442	41.13
203.661	-1.88
203.879	12.46
204.098	30.89
204.317	-46.93
204.536	133.29
204.755	18.6
204.974	22.7
205.193	22.7
205.411	71.85
205.63	-12.12
205.849	39.08
206.068	14.51
206.287	75.95
206.505	49.32
206.724	22.7
206.943	16.55
207.162	20.65
207.381	37.03
207.599	-44.88
207.818	8.36
208.037	49.32
208.255	30.89
208.474	22.7
208.693	61.61
208.911	37.03
209.13	20.65
209.349	45.23
209.567	10.41
209.786	57.51
210.005	90.28
210.223	108.71
210.442	-63.32
210.661	57.51
210.879	-18.26
211.098	32.94
211.316	16.55
211.535	59.56
211.753	77.99
211.972	-30.55
212.191	-34.64
212.409	43.18
212.628	55.47
212.846	51.37
213.065	-14.17
213.283	-5.97
213.502	43.18
213.72	12.46
213.938	73.9
214.157	53.42
214.375	51.37
214.594	80.04
214.812	0.17
215.031	2.22
215.249	10.41
215.467	-28.5
215.686	2.22
215.904	16.55
216.122	43.18
216.341	55.47
216.559	-10.07
216.778	92.33
216.996	75.95
217.214	84.14
217.432	-30.55
217.651	26.79
217.869	-55.12
218.087	43.18
218.306	-12.12
218.524	75.95
218.742	-65.36
218.96	75.95
219.179	-10.07
219.397	108.71
219.615	55.47
219.833	28.84
220.051	34.99
220.27	61.61
220.488	-8.02
220.706	-10.07
220.924	55.47
221.142	53.42
221.36	26.79
221.578	16.55
221.796	22.7
222.015	-18.26
222.233	75.95
222.451	98.47
222.669	22.7
222.887	106.67
223.105	32.94
223.323	8.36
223.541	24.75
223.759	108.71
223.977	43.18
224.195	73.9
224.413	-10.07
224.631	28.84
224.849	39.08
225.067	127.14
225.285	-3.93
225.503	-42.84
225.721	6.31
225.939	47.27
226.157	0.17
226.375	59.56
226.592	-53.08
226.81	6.31
227.028	26.79
227.246	41.13
227.464	-83.8
227.682	53.42
227.9	69.8
228.117	26.79
228.335	77.99
228.553	92.33
228.771	51.37
228.989	45.23
229.206	-22.36
229.424	-5.97
229.642	26.79
229.86	20.65
230.077	20.65
230.295	18.6
230.513	34.99
230.731	34.99
230.948	88.23
231.166	8.36
231.384	0.17
231.601	2.22
231.819	75.95
232.037	37.03
232.254	28.84
232.472	57.51
232.689	53.42
232.907	104.62
233.125	-34.64
233.342	0.17
233.56	14.51
233.777	-71.51
233.995	-26.45
234.213	61.61
234.43	67.75
234.648	69.8
234.865	-5.97
235.083	8.36
235.3	57.51
235.518	16.55
235.735	51.37
235.953	30.89
236.17	14.51
236.388	49.32
236.605	43.18
236.822	125.1
237.04	20.65
237.257	108.71
237.475	-34.64
237.692	51.37
237.909	55.47
238.127	77.99
238.344	80.04
238.562	121
238.779	-26.45
238.996	47.27
239.214	61.61
239.431	30.89
239.648	-10.07
239.865	14.51
240.083	20.65
240.3	-40.79
240.517	-10.07
240.735	49.32
240.952	73.9
241.169	67.75
241.386	67.75
241.603	65.71
241.821	24.75
242.038	18.6
242.255	8.36
242.472	18.6
242.689	92.33
242.907	-32.6
243.124	86.19
243.341	4.27
243.558	53.42
243.775	59.56
243.992	0.17
244.209	16.55
244.426	26.79
244.643	43.18
244.86	-24.4
245.078	47.27
245.295	106.67
245.512	20.65
245.729	-24.4
245.946	59.56
246.163	61.61
246.38	69.8
246.597	65.71
246.814	108.71
247.031	-32.6
247.248	-5.97
247.464	10.41
247.681	65.71
247.898	16.55
248.115	45.23
248.332	0.17
248.549	63.66
248.766	94.38
248.983	28.84
249.2	63.66
249.417	71.85
249.633	0.17
249.85	59.56
250.067	-1.88
250.284	-5.97
250.501	41.13
250.717	22.7
250.934	8.36
251.151	39.08
251.368	67.75
251.585	-18.26
251.801	-8.02
252.018	-24.4
252.235	-16.21
252.451	41.13
252.668	-30.55
252.885	22.7
253.102	8.36
253.318	75.95
253.535	2.22
253.752	-53.08
253.968	6.31
254.185	34.99
254.401	0.17
254.618	82.09
254.835	116.9
255.051	34.99
255.268	24.75
255.484	30.89
255.701	-10.07
255.917	37.03
256.134	12.46
256.351	14.51
256.567	73.9
256.784	39.08
257	61.61
257.217	-5.97
257.433	75.95
257.65	71.85
257.866	75.95
258.082	-36.69
258.299	-46.93
258.515	-1.88
258.732	2.22
258.948	-26.45
259.165	28.84
259.381	20.65
259.597	37.03
259.814	12.46
260.03	59.56
260.246	-1.88
260.463	-48.98
260.679	-3.93
260.895	-26.45
261.112	84.14
261.328	75.95
261.544	34.99
261.761	47.27
261.977	-14.17
262.193	49.32
262.409	121
262.626	39.08
262.842	4.27
263.058	-12.12
263.274	32.94
263.49	2.22
263.707	20.65
263.923	26.79
264.139	6.31
264.355	2.22
264.571	84.14
264.787	18.6
265.004	67.75
265.22	88.23
265.436	14.51
265.652	-3.93
265.868	12.46
266.084	-5.97
266.3	63.66
266.516	20.65
266.732	6.31
266.948	51.37
267.164	43.18
267.38	12.46
267.596	43.18
267.812	57.51
268.028	0.17
268.244	16.55
268.46	20.65
268.676	-38.74
268.892	8.36
269.108	26.79
269.324	26.79
269.54	-20.31
269.756	43.18
269.972	4.27
270.188	-14.17
270.403	-5.97
270.619	57.51
270.835	53.42
271.051	-12.12
271.267	22.7
271.483	30.89
271.698	67.75
271.914	57.51
272.13	47.27
272.346	34.99
272.562	47.27
272.777	77.99
272.993	63.66
273.209	30.89
273.425	75.95
273.64	18.6
273.856	96.43
274.072	0.17
274.287	-53.08
274.503	110.76
274.719	20.65
274.934	106.67
275.15	-32.6
275.366	92.33
275.581	-5.97
275.797	30.89
276.012	-14.17
276.228	16.55
276.444	47.27
276.659	135.34
276.875	41.13
277.09	14.51
277.306	-46.93
277.521	14.51
277.737	63.66
277.952	98.47
278.168	37.03
278.383	34.99
278.599	34.99
278.814	-16.21
279.03	41.13
279.245	69.8
279.461	-46.93
279.676	-16.21
279.892	-28.5
280.107	24.75
280.322	-69.46
280.538	30.89
280.753	-1.88
280.969	-1.88
281.184	-5.97
281.399	110.76
281.615	45.23
281.83	0.17
282.045	4.27
282.26	57.51
282.476	12.46
282.691	32.94
282.906	26.79
283.122	82.09
283.337	4.27
283.552	47.27
283.767	37.03
283.983	12.46
284.198	61.61
284.413	80.04
284.628	47.27
284.843	24.75
285.058	39.08
285.274	92.33
285.489	-67.41
285.704	116.9
285.919	55.47
286.134	14.51
286.349	-5.97
286.564	10.41
286.779	121
286.995	14.51
287.21	0.17
287.425	28.84
287.64	80.04
287.855	-16.21
288.07	41.13
288.285	18.6
288.5	39.08
288.715	55.47
288.93	67.75
289.145	-36.69
289.36	59.56
289.575	8.36
289.79	4.27
290.004	16.55
290.219	41.13
290.434	16.55
290.649	-48.98
290.864	65.71
291.079	-22.36
291.294	90.28
291.509	28.84
291.724	22.7
291.938	-12.12
292.153	-32.6
292.368	34.99
292.583	129.19
292.798	2.22
293.012	26.79
293.227	41.13
293.442	80.04
293.657	77.99
293.871	45.23
294.086	-32.6
294.301	102.57
294.516	98.47
294.73	-14.17
294.945	47.27
295.16	41.13
295.374	75.95
295.589	53.42
295.804	24.75
296.018	174.25
296.233	108.71
296.447	34.99
296.662	51.37
296.877	-5.97
297.091	88.23
297.306	53.42
297.52	-5.97
297.735	51.37
297.949	65.71
298.164	14.51
298.378	43.18
298.593	18.6
298.807	67.75
299.022	6.31
299.236	94.38
299.451	47.27
299.665	41.13
299.88	53.42
300.094	26.79
300.309	90.28
300.523	100.52
300.737	82.09
300.952	67.75
301.166	22.7
301.381	26.79
301.595	32.94
301.809	2.22
302.024	-10.07
302.238	18.6
302.452	139.43
302.667	47.27
302.881	59.56
303.095	51.37
303.309	59.56
303.524	6.31
303.738	20.65
303.952	-18.26
304.166	37.03
304.381	82.09
304.595	112.81
304.809	49.32
305.023	2.22
305.237	37.03
305.452	75.95
305.666	10.41
305.88	88.23
306.094	71.85
306.308	-71.51
306.522	43.18
306.736	20.65
306.95	116.9
307.164	86.19
307.379	30.89
307.593	57.51
307.807	14.51
308.021	82.09
308.235	37.03
308.449	-22.36
308.663	18.6
308.877	100.52
309.091	30.89
309.305	37.03
309.519	4.27
309.733	127.14
309.947	-14.17
310.161	37.03
310.374	102.57
310.588	49.32
310.802	59.56
311.016	20.65
311.23	20.65
311.444	43.18
311.658	98.47
311.872	80.04
312.085	41.13
312.299	55.47
312.513	141.48
312.727	133.29
312.941	-34.64
313.154	53.42
313.368	39.08
313.582	123.05
313.796	-42.84
314.009	18.6
314.223	47.27
314.437	88.23
314.651	-26.45
314.864	-22.36
315.078	-18.26
315.292	57.51
315.505	16.55
315.719	-8.02
315.933	77.99
316.146	26.79
316.36	88.23
316.573	121
316.787	-14.17
317.001	24.75
317.214	20.65
317.428	24.75
317.641	2.22
317.855	63.66
318.068	-24.4
318.282	43.18
318.495	-18.26
318.709	84.14
318.922	53.42
319.136	65.71
319.349	43.18
319.563	-55.12
319.776	125.1
319.99	49.32
320.203	125.1
320.417	-14.17
320.63	10.41
320.843	92.33
321.057	-5.97
321.27	43.18
321.483	-48.98
321.697	102.57
321.91	6.31
322.124	12.46
322.337	-3.93
322.55	2.22
322.763	41.13
322.977	80.04
323.19	-38.74
323.403	69.8
323.617	22.7
323.83	20.65
324.043	53.42
324.256	8.36
324.469	20.65
324.683	63.66
324.896	4.27
325.109	63.66
325.322	30.89
325.535	71.85
325.748	41.13
325.962	86.19
326.175	-10.07
326.388	18.6
326.601	100.52
326.814	67.75
327.027	-40.79
327.24	125.1
327.453	18.6
327.666	49.32
327.879	51.37
328.092	80.04
328.305	-73.56
328.518	6.31
328.731	51.37
328.944	34.99
329.157	71.85
329.37	4.27
329.583	67.75
329.796	61.61
330.009	65.71
330.222	26.79
330.435	-5.97
330.648	53.42
330.861	137.38
331.073	49.32
331.286	65.71
331.499	80.04
331.712	32.94
331.925	47.27
332.138	-1.88
332.35	32.94
332.563	-32.6
332.776	104.62
332.989	16.55
333.202	41.13
333.414	-5.97
333.627	94.38
333.84	75.95
334.053	-5.97
334.265	26.79
334.478	22.7
334.691	4.27
334.903	20.65
335.116	-30.55
335.329	55.47
335.541	10.41
335.754	53.42
335.966	-22.36
336.179	-22.36
336.392	34.99
336.604	92.33
336.817	65.71
337.029	18.6
337.242	-1.88
337.454	90.28
337.667	-14.17
337.88	86.19
338.092	43.18
338.305	71.85
338.517	96.43
338.729	73.9
338.942	98.47
339.154	14.51
339.367	67.75
339.579	-8.02
339.792	43.18
340.004	61.61
340.217	53.42
340.429	12.46
340.641	39.08
340.854	43.18
341.066	-5.97
341.278	14.51
341.491	43.18
341.703	88.23
341.915	14.51
342.128	84.14
342.34	24.75
342.552	39.08
342.764	30.89
342.977	59.56
343.189	94.38
343.401	94.38
343.613	43.18
343.826	-3.93
344.038	-16.21
344.25	55.47
344.462	18.6
344.674	28.84
344.886	47.27
345.099	84.14
345.311	53.42
345.523	39.08
345.735	8.36
345.947	-22.36
346.159	-18.26
346.371	-1.88
346.583	59.56
346.795	80.04
347.007	51.37
347.219	112.81
347.431	2.22
347.643	51.37
347.855	14.51
348.067	116.9
348.279	30.89
348.491	-20.31
348.703	53.42
348.915	22.7
349.127	22.7
349.339	80.04
349.551	90.28
349.763	10.41
349.975	16.55
350.187	100.52
350.399	47.27
350.61	53.42
350.822	2.22
351.034	14.51
351.246	22.7
351.458	55.47
351.669	-14.17
351.881	65.71
352.093	16.55
352.305	69.8
352.517	57.51
352.728	112.81
352.94	-14.17
353.152	26.79
353.363	51.37
353.575	-1.88
353.787	88.23
353.999	47.27
354.21	59.56
354.422	8.36
354.633	82.09
354.845	37.03
355.057	34.99
355.268	53.42
355.48	55.47
355.692	26.79
355.903	34.99
356.115	75.95
356.326	14.51
356.538	65.71
356.749	26.79
356.961	129.19
357.172	16.55
357.384	45.23
357.595	118.95
357.807	24.75
358.018	-12.12
358.23	-14.17
358.441	82.09
358.653	55.47
358.864	63.66
359.075	-46.93
359.287	84.14
359.498	61.61
359.709	30.89
359.921	59.56
360.132	59.56
360.344	59.56
360.555	-8.02
360.766	67.75
360.977	12.46
361.189	51.37
361.4	24.75
361.611	94.38
361.823	47.27
362.034	82.09
362.245	-8.02
362.456	88.23
362.667	61.61
362.879	20.65
363.09	69.8
363.301	34.99
363.512	75.95
363.723	16.55
363.935	32.94
364.146	80.04
364.357	-14.17
364.568	16.55
364.779	-12.12
364.99	43.18
365.201	51.37
365.412	37.03
365.623	-22.36
365.834	51.37
366.045	84.14
366.256	125.1
366.467	61.61
366.678	108.71
366.889	98.47
367.1	32.94
367.311	51.37
367.522	43.18
367.733	73.9
367.944	41.13
368.155	57.51
368.366	145.58
368.577	110.76
368.788	77.99
368.999	106.67
369.209	57.51
369.42	127.14
369.631	123.05
369.842	84.14
370.053	106.67
370.264	51.37
370.474	73.9
370.685	45.23
370.896	30.89
371.107	57.51
371.317	61.61
371.528	80.04
371.739	22.7
371.95	28.84
372.16	22.7
372.371	51.37
372.582	28.84
372.792	108.71
373.003	18.6
373.214	51.37
373.424	94.38
373.635	65.71
373.846	28.84
374.056	8.36
374.267	92.33
374.477	10.41
374.688	63.66
374.898	84.14
375.109	22.7
375.319	14.51
375.53	84.14
375.74	41.13
375.951	-18.26
376.161	59.56
376.372	71.85
376.582	12.46
376.793	71.85
377.003	45.23
377.214	63.66
377.424	32.94
377.635	88.23
377.845	20.65
378.055	104.62
378.266	-22.36
378.476	57.51
378.686	73.9
378.897	43.18
379.107	86.19
379.317	30.89
379.528	8.36
379.738	92.33
379.948	14.51
380.158	61.61
380.369	55.47
380.579	63.66
380.789	32.94
380.999	4.27
381.21	80.04
381.42	57.51
381.63	4.27
381.84	10.41
382.05	112.81
382.261	92.33
382.471	28.84
382.681	37.03
382.891	57.51
383.101	18.6
383.311	16.55
383.521	24.75
383.731	59.56
383.941	92.33
384.151	43.18
384.361	59.56
384.571	43.18
384.781	75.95
384.991	96.43
385.201	49.32
385.411	-14.17
385.621	32.94
385.831	77.99
386.041	90.28
386.251	-1.88
386.461	96.43
386.671	86.19
386.881	37.03
387.091	8.36
387.301	2.22
387.511	26.79
387.72	80.04
387.93	57.51
388.14	-5.97
388.35	96.43
388.56	59.56
388.769	80.04
388.979	10.41
389.189	26.79
389.399	20.65
389.609	47.27
389.818	110.76
390.028	100.52
390.238	57.51
390.447	88.23
390.657	75.95
390.867	96.43
391.076	18.6
391.286	92.33
391.496	53.42
391.705	108.71
391.915	49.32
392.125	100.52
392.334	80.04
392.544	51.37
392.753	55.47
392.963	-10.07
393.172	90.28
393.382	51.37
393.591	34.99
393.801	82.09
394.01	112.81
394.22	88.23
394.429	63.66
394.639	96.43
394.848	100.52
395.058	75.95
395.267	106.67
395.477	43.18
395.686	123.05
395.895	164.01
396.105	20.65
396.314	141.48
396.524	153.77
396.733	190.63
396.942	112.81
397.152	67.75
397.361	104.62
397.57	98.47
397.78	82.09
397.989	170.15
398.198	170.15
398.407	112.81
398.617	75.95
398.826	133.29
399.035	75.95
399.244	221.35
399.453	131.24
399.663	131.24
399.872	125.1
400.081	102.57
400.29	174.25
400.499	129.19
400.708	51.37
400.917	114.86
401.127	147.62
401.336	106.67
401.545	192.68
401.754	92.33
401.963	104.62
402.172	102.57
402.381	75.95
402.59	77.99
402.799	116.9
403.008	188.58
403.217	137.38
403.426	145.58
403.635	127.14
403.844	129.19
404.053	131.24
404.262	174.25
404.471	161.96
404.68	108.71
404.888	116.9
405.097	155.82
405.306	133.29
405.515	196.78
405.724	153.77
405.933	170.15
406.142	82.09
406.35	137.38
406.559	170.15
406.768	221.35
406.977	288.93
407.185	174.25
407.394	190.63
407.603	166.06
407.812	235.69
408.02	241.83
408.229	309.41
408.438	237.74
408.646	202.92
408.855	280.74
409.064	215.21
409.272	204.97
409.481	284.84
409.69	309.41
409.898	333.99
410.107	274.6
410.315	295.08
410.524	333.99
410.733	346.28
410.941	372.9
411.15	374.95
411.358	383.14
411.567	385.19
411.775	383.14
411.984	366.76
412.192	454.82
412.401	417.96
412.609	469.16
412.818	516.26
413.026	450.72
413.234	485.54
413.443	526.5
413.651	598.18
413.86	643.23
414.068	610.47
414.276	628.9
414.485	682.14
414.693	592.03
414.901	688.29
415.11	661.66
415.318	710.82
415.526	778.4
415.734	788.64
415.943	796.83
416.151	895.13
416.359	917.66
416.567	911.52
416.776	911.52
416.984	1026.2
417.192	1001.63
417.4	1054.87
417.608	1005.72
417.817	1030.3
418.025	1099.93
418.233	1179.8
418.441	1108.12
418.649	1173.66
418.857	1302.68
419.065	1263.77
419.273	1251.48
419.481	1466.52
419.689	1374.36
419.897	1450.13
420.105	1613.97
420.313	1652.88
420.521	1568.91
420.729	1583.25
420.937	1685.65
421.145	1771.66
421.353	2001.04
421.561	1908.88
421.769	2013.32
421.977	2123.91
422.185	2025.61
422.393	2214.02
422.601	2275.46
422.809	2398.34
423.017	2252.94
423.224	2429.06
423.432	2586.76
423.64	2574.47
423.848	2680.96
424.056	2588.8
424.263	2795.65
424.471	2828.42
424.679	2973.82
424.887	3119.23
425.094	3188.86
425.302	3176.57
425.51	3291.26
425.718	3352.7
425.925	3539.06
426.133	3653.75
426.341	3793.01
426.548	4098.16
426.756	3848.3
426.964	3827.82
427.171	4049
427.379	4352.1
427.586	4294.76
427.794	4448.36
428.001	4626.53
428.209	4982.88
428.417	4915.3
428.624	5247.07
428.832	5068.89
429.039	5314.65
429.247	5193.82
429.454	5621.84
429.662	6146.12
429.869	5544.02
430.076	6162.51
430.284	5793.87
430.491	6178.89
430.699	6518.86
430.906	6625.35
431.114	6510.66
431.321	6686.79
431.528	6957.12
431.736	7444.54
431.943	7723.06
432.15	7626.81
432.358	7626.81
432.565	8265.77
432.772	8103.98
432.979	8349.74
433.187	8587.3
433.394	8529.96
433.601	9123.87
433.808	9152.54
434.016	9152.54
434.223	9611.29
434.43	10012.69
434.637	9824.28
434.844	10444.81
435.052	10670.09
435.259	10719.24
435.466	10743.81
435.673	10596.36
435.88	11386.88
436.087	11954.16
436.294	11915.25
436.501	11667.45
436.708	12099.57
436.915	12505.07
437.122	12783.59
437.329	12720.1
437.537	13156.32
437.743	13490.14
437.95	13109.22
438.157	14206.93
438.364	14350.29
438.571	14317.52
438.778	14581.71
438.985	15781.82
439.192	15384.51
439.399	15826.87
439.606	15298.5
439.813	16121.78
440.02	17012.65
440.227	16959.4
440.433	16750.51
440.64	17391.52
440.847	17108.9
441.054	17430.43
441.261	18642.83
441.467	18636.69
441.674	18755.47
441.881	19322.76
442.088	19298.18
442.294	19206.02
442.501	19906.43
442.708	20287.35
442.914	21047.15
443.121	21811.04
443.328	21258.09
443.534	22677.33
443.741	21942.11
443.948	21395.3
444.154	23369.54
444.361	23070.54
444.568	23674.69
444.774	23660.35
444.981	23519.04
445.187	24403.77
445.394	25704.23
445.6	25024.3
445.807	27571.97
446.013	26367.77
446.22	26691.35
446.426	27989.76
446.633	27840.26
446.839	28815.09
447.046	27502.34
447.252	29368.04
447.459	29181.68
447.665	29069.04
447.871	30396.12
448.078	31692.49
448.284	30332.64
448.491	30961.36
448.697	32245.44
448.903	32440
449.11	32816.82
449.316	32190.14
449.522	32413.37
449.728	33668.78
449.935	33885.86
450.141	33463.98
450.347	34397.85
450.553	33392.3
450.76	33808.04
450.966	34901.65
451.172	34447.01
451.378	35143.31
451.584	34406.05
451.791	35495.57
451.997	35010.2
452.203	35544.72
452.409	35307.15
452.615	35776.14
452.821	33971.88
453.027	33935.01
453.233	35552.91
453.44	33861.29
453.646	34490.01
453.852	34709.15
454.058	34610.84
454.264	33873.57
454.47	34457.24
454.676	33902.25
454.882	34672.28
455.088	31837.89
455.294	32323.26
455.5	32749.24
455.705	32943.8
455.911	31864.52
456.117	31389.39
456.323	30406.36
456.529	29097.71
456.735	30336.73
456.941	29646.57
457.147	29085.42
457.352	27954.94
457.558	27866.88
457.764	27668.23
457.97	27391.75
458.176	26373.91
458.381	26738.45
458.587	25177.9
458.793	25456.42
458.999	23883.58
459.204	25599.78
459.41	24909.61
459.616	23564.1
459.821	23560
460.027	23420.74
460.233	23074.63
460.438	21645.15
460.644	21931.87
460.85	20717.42
461.055	20813.68
461.261	20799.34
461.466	19140.49
461.672	18339.73
461.878	19758.97
462.083	18485.14
462.289	18210.71
462.494	18151.32
462.7	17426.34
462.905	16725.93
463.111	17403.81
463.316	17508.26
463.522	17321.89
463.727	17229.73
463.932	17022.89
464.138	16979.88
464.343	16967.59
464.549	16574.38
464.754	17250.21
464.959	16926.63
465.165	16705.45
465.37	16168.88
465.575	15833.02
465.781	16390.06
465.986	16351.15
466.191	15755.19
466.397	15437.76
466.602	14653.39
466.807	15478.72
467.012	15429.57
467.218	15386.56
467.423	15093.7
