Data from USB4F104151__210__10-29-52-407.txt Node

Date: Wed Mar 12 10:29:52 EDT 2025
User: louis
Spectrometer: USB4F10415
Trigger mode: 4
Integration Time (sec): 3.000000E-2
Scans to average: 1
Electric dark correction enabled: true
Nonlinearity correction enabled: false
Boxcar width: 0
XAxis mode: Wavelengths
Number of Pixels in Spectrum: 3648
>>>>>Begin Spectral Data<<<<<
178.204	-171.35
178.424	-171.35
178.644	-171.35
178.864	-77.14
179.084	-128.34
179.304	-15.7
179.524	29.35
179.744	33.45
179.964	-3.41
180.184	-60.76
180.404	-38.23
180.624	-27.99
180.844	8.87
181.064	-34.13
181.283	78.51
181.503	10.92
181.723	19.11
181.943	-44.37
182.163	70.31
182.383	78.51
182.602	15.02
182.822	21.16
183.042	86.7
183.262	21.16
183.482	21.16
183.701	10.92
183.921	33.45
184.141	-9.56
184.361	96.94
184.58	12.97
184.8	60.07
185.02	-7.51
185.239	23.21
185.459	-36.18
185.679	45.74
185.898	21.16
186.118	86.7
186.338	41.64
186.557	84.65
186.777	-19.8
186.997	94.89
187.216	-19.8
187.436	66.22
187.655	94.89
187.875	148.14
188.095	0.68
188.314	66.22
188.534	82.6
188.753	70.31
188.973	27.31
189.192	101.03
189.412	-23.89
189.631	-48.47
189.851	2.73
190.07	103.08
190.29	8.87
190.509	60.07
190.729	-11.61
190.948	43.69
191.168	121.51
191.387	-13.65
191.607	15.02
191.826	53.93
192.045	-7.51
192.265	19.11
192.484	84.65
192.704	78.51
192.923	49.83
193.142	82.6
193.362	-40.28
193.581	62.12
193.8	6.83
194.02	41.64
194.239	0.68
194.458	-27.99
194.678	6.83
194.897	94.89
195.116	37.55
195.335	35.5
195.555	78.51
195.774	60.07
195.993	107.18
196.212	82.6
196.432	21.16
196.651	43.69
196.87	-56.66
197.089	94.89
197.308	76.46
197.528	66.22
197.747	45.74
197.966	8.87
198.185	94.89
198.404	-25.94
198.623	64.17
198.842	-15.7
199.062	-13.65
199.281	78.51
199.5	-3.41
199.719	2.73
199.938	-5.46
200.157	98.99
200.376	37.55
200.595	68.27
200.814	133.8
201.033	60.07
201.252	137.9
201.471	39.59
201.69	29.35
201.909	60.07
202.128	-34.13
202.347	-17.75
202.566	-27.99
202.785	19.11
203.004	-7.51
203.223	117.42
203.442	8.87
203.661	-17.75
203.879	2.73
204.098	19.11
204.317	-44.37
204.536	10.92
204.755	45.74
204.974	74.41
205.193	72.36
205.411	109.22
205.63	82.6
205.849	31.4
206.068	68.27
206.287	58.03
206.505	17.07
206.724	-11.61
206.943	19.11
207.162	115.37
207.381	21.16
207.599	35.5
207.818	68.27
208.037	37.55
208.255	-11.61
208.474	62.12
208.693	92.84
208.911	47.79
209.13	37.55
209.349	127.66
209.567	49.83
209.786	8.87
210.005	-5.46
210.223	4.78
210.442	-3.41
210.661	37.55
210.879	4.78
211.098	29.35
211.316	15.02
211.535	15.02
211.753	2.73
211.972	-5.46
212.191	17.07
212.409	2.73
212.628	58.03
212.846	21.16
213.065	60.07
213.283	60.07
213.502	37.55
213.72	45.74
213.938	-23.89
214.157	29.35
214.375	17.07
214.594	45.74
214.812	68.27
215.031	15.02
215.249	119.46
215.467	51.88
215.686	60.07
215.904	139.94
216.122	21.16
216.341	62.12
216.559	82.6
216.778	8.87
216.996	109.22
217.214	94.89
217.432	19.11
217.651	12.97
217.869	62.12
218.087	33.45
218.306	78.51
218.524	45.74
218.742	-34.13
218.96	0.68
219.179	47.79
219.397	-5.46
219.615	53.93
219.833	37.55
220.051	-21.85
220.27	62.12
220.488	-9.56
220.706	39.59
220.924	41.64
221.142	8.87
221.36	0.68
221.578	49.83
221.796	33.45
222.015	-7.51
222.233	17.07
222.451	76.46
222.669	19.11
222.887	45.74
223.105	17.07
223.323	29.35
223.541	-34.13
223.759	68.27
223.977	-13.65
224.195	103.08
224.413	27.31
224.631	41.64
224.849	21.16
225.067	51.88
225.285	33.45
225.503	31.4
225.721	0.68
225.939	29.35
226.157	10.92
226.375	109.22
226.592	-58.71
226.81	21.16
227.028	84.65
227.246	62.12
227.464	43.69
227.682	-27.99
227.9	90.79
228.117	58.03
228.335	-17.75
228.553	43.69
228.771	-21.85
228.989	47.79
229.206	72.36
229.424	101.03
229.642	27.31
229.86	-13.65
230.077	68.27
230.295	49.83
230.513	66.22
230.731	86.7
230.948	51.88
231.166	47.79
231.384	10.92
231.601	31.4
231.819	60.07
232.037	41.64
232.254	62.12
232.472	-7.51
232.689	68.27
232.907	31.4
233.125	-17.75
233.342	10.92
233.56	60.07
233.777	10.92
233.995	35.5
234.213	29.35
234.43	84.65
234.648	62.12
234.865	23.21
235.083	60.07
235.3	6.83
235.518	-32.08
235.735	37.55
235.953	-19.8
236.17	-34.13
236.388	19.11
236.605	-23.89
236.822	129.7
237.04	90.79
237.257	4.78
237.475	-7.51
237.692	62.12
237.909	53.93
238.127	-27.99
238.344	35.5
238.562	51.88
238.779	47.79
238.996	-52.56
239.214	70.31
239.431	45.74
239.648	49.83
239.865	39.59
240.083	17.07
240.3	-48.47
240.517	88.75
240.735	6.83
240.952	58.03
241.169	98.99
241.386	-44.37
241.603	74.41
241.821	92.84
242.038	125.61
242.255	25.26
242.472	-19.8
242.689	19.11
242.907	103.08
243.124	-15.7
243.341	4.78
243.558	12.97
243.775	35.5
243.992	-30.04
244.209	60.07
244.426	47.79
244.643	19.11
244.86	92.84
245.078	115.37
245.295	96.94
245.512	8.87
245.729	-46.42
245.946	72.36
246.163	64.17
246.38	-52.56
246.597	-1.37
246.814	-7.51
247.031	2.73
247.248	45.74
247.464	10.92
247.681	60.07
247.898	55.98
248.115	90.79
248.332	19.11
248.549	98.99
248.766	92.84
248.983	2.73
249.2	45.74
249.417	-27.99
249.633	49.83
249.85	33.45
250.067	37.55
250.284	103.08
250.501	41.64
250.717	58.03
250.934	-44.37
251.151	121.51
251.368	-5.46
251.585	62.12
251.801	-5.46
252.018	19.11
252.235	60.07
252.451	43.69
252.668	29.35
252.885	58.03
253.102	-42.32
253.318	-11.61
253.535	37.55
253.752	41.64
253.968	62.12
254.185	88.75
254.401	68.27
254.618	70.31
254.835	8.87
255.051	107.18
255.268	58.03
255.484	49.83
255.701	70.31
255.917	66.22
256.134	10.92
256.351	51.88
256.567	10.92
256.784	29.35
257	-27.99
257.217	78.51
257.433	-13.65
257.65	21.16
257.866	101.03
258.082	62.12
258.299	12.97
258.515	109.22
258.732	-56.66
258.948	41.64
259.165	27.31
259.381	51.88
259.597	21.16
259.814	37.55
260.03	27.31
260.246	47.79
260.463	37.55
260.679	43.69
260.895	-44.37
261.112	103.08
261.328	21.16
261.544	-42.32
261.761	127.66
261.977	-7.51
262.193	43.69
262.409	-19.8
262.626	43.69
262.842	92.84
263.058	-36.18
263.274	-11.61
263.49	17.07
263.707	82.6
263.923	82.6
264.139	43.69
264.355	-23.89
264.571	70.31
264.787	-21.85
265.004	33.45
265.22	41.64
265.436	10.92
265.652	115.37
265.868	60.07
266.084	45.74
266.3	58.03
266.516	41.64
266.732	98.99
266.948	43.69
267.164	25.26
267.38	31.4
267.596	90.79
267.812	86.7
268.028	60.07
268.244	115.37
268.46	10.92
268.676	4.78
268.892	23.21
269.108	84.65
269.324	43.69
269.54	35.5
269.756	94.89
269.972	29.35
270.188	29.35
270.403	-1.37
270.619	45.74
270.835	58.03
271.051	-34.13
271.267	62.12
271.483	-30.04
271.698	-21.85
271.914	66.22
272.13	84.65
272.346	62.12
272.562	37.55
272.777	78.51
272.993	37.55
273.209	-87.38
273.425	-3.41
273.64	78.51
273.856	72.36
274.072	72.36
274.287	12.97
274.503	-34.13
274.719	-5.46
274.934	2.73
275.15	4.78
275.366	29.35
275.581	55.98
275.797	33.45
276.012	27.31
276.228	-9.56
276.444	-5.46
276.659	131.75
276.875	49.83
277.09	35.5
277.306	0.68
277.521	51.88
277.737	-17.75
277.952	92.84
278.168	-19.8
278.383	76.46
278.599	29.35
278.814	-19.8
279.03	29.35
279.245	92.84
279.461	53.93
279.676	49.83
279.892	-52.56
280.107	29.35
280.322	-30.04
280.538	60.07
280.753	-17.75
280.969	90.79
281.184	29.35
281.399	72.36
281.615	-21.85
281.83	41.64
282.045	10.92
282.26	66.22
282.476	76.46
282.691	58.03
282.906	-56.66
283.122	-3.41
283.337	35.5
283.552	125.61
283.767	62.12
283.983	45.74
284.198	27.31
284.413	45.74
284.628	47.79
284.843	94.89
285.058	-3.41
285.274	45.74
285.489	27.31
285.704	84.65
285.919	15.02
286.134	10.92
286.349	21.16
286.564	12.97
286.779	86.7
286.995	0.68
287.21	-7.51
287.425	80.55
287.64	23.21
287.855	80.55
288.07	0.68
288.285	53.93
288.5	-21.85
288.715	129.7
288.93	-5.46
289.145	10.92
289.36	17.07
289.575	29.35
289.79	96.94
290.004	-23.89
290.219	47.79
290.434	27.31
290.649	41.64
290.864	8.87
291.079	53.93
291.294	-3.41
291.509	29.35
291.724	68.27
291.938	27.31
292.153	60.07
292.368	-11.61
292.583	-7.51
292.798	62.12
293.012	86.7
293.227	-44.37
293.442	35.5
293.657	-30.04
293.871	68.27
294.086	27.31
294.301	68.27
294.516	107.18
294.73	27.31
294.945	-52.56
295.16	68.27
295.374	47.79
295.589	68.27
295.804	45.74
296.018	66.22
296.233	150.18
296.447	4.78
296.662	21.16
296.877	37.55
297.091	35.5
297.306	-11.61
297.52	45.74
297.735	19.11
297.949	60.07
298.164	-13.65
298.378	49.83
298.593	68.27
298.807	86.7
299.022	-38.23
299.236	68.27
299.451	45.74
299.665	-1.37
299.88	51.88
300.094	-19.8
300.309	39.59
300.523	68.27
300.737	-52.56
300.952	109.22
301.166	17.07
301.381	12.97
301.595	19.11
301.809	-27.99
302.024	-56.66
302.238	-7.51
302.452	64.17
302.667	23.21
302.881	55.98
303.095	-34.13
303.309	-9.56
303.524	70.31
303.738	-44.37
303.952	-36.18
304.166	41.64
304.381	-38.23
304.595	-9.56
304.809	12.97
305.023	76.46
305.237	4.78
305.452	-23.89
305.666	39.59
305.88	-17.75
306.094	70.31
306.308	45.74
306.522	53.93
306.736	49.83
306.95	60.07
307.164	-36.18
307.379	70.31
307.593	41.64
307.807	119.46
308.021	84.65
308.235	45.74
308.449	78.51
308.663	12.97
308.877	121.51
309.091	70.31
309.305	-1.37
309.519	41.64
309.733	53.93
309.947	-23.89
310.161	-1.37
310.374	-71
310.588	111.27
310.802	51.88
311.016	62.12
311.23	94.89
311.444	94.89
311.658	-13.65
311.872	78.51
312.085	23.21
312.299	47.79
312.513	49.83
312.727	17.07
312.941	17.07
313.154	68.27
313.368	8.87
313.582	70.31
313.796	33.45
314.009	12.97
314.223	33.45
314.437	53.93
314.651	94.89
314.864	51.88
315.078	45.74
315.292	-7.51
315.505	12.97
315.719	2.73
315.933	17.07
316.146	-17.75
316.36	-27.99
316.573	90.79
316.787	78.51
317.001	29.35
317.214	12.97
317.428	49.83
317.641	0.68
317.855	6.83
318.068	66.22
318.282	4.78
318.495	43.69
318.709	101.03
318.922	17.07
319.136	15.02
319.349	123.56
319.563	-48.47
319.776	8.87
319.99	23.21
320.203	62.12
320.417	21.16
320.63	45.74
320.843	86.7
321.057	2.73
321.27	62.12
321.483	-3.41
321.697	31.4
321.91	70.31
322.124	76.46
322.337	148.14
322.55	121.51
322.763	-9.56
322.977	70.31
323.19	60.07
323.403	60.07
323.617	70.31
323.83	33.45
324.043	8.87
324.256	86.7
324.469	-36.18
324.683	84.65
324.896	84.65
325.109	66.22
325.322	-42.32
325.535	10.92
325.748	43.69
325.962	74.41
326.175	-15.7
326.388	8.87
326.601	148.14
326.814	109.22
327.027	15.02
327.24	53.93
327.453	-13.65
327.666	92.84
327.879	41.64
328.092	60.07
328.305	15.02
328.518	39.59
328.731	0.68
328.944	-7.51
329.157	70.31
329.37	53.93
329.583	92.84
329.796	70.31
330.009	0.68
330.222	43.69
330.435	123.56
330.648	41.64
330.861	37.55
331.073	23.21
331.286	51.88
331.499	-11.61
331.712	33.45
331.925	12.97
332.138	152.23
332.35	-1.37
332.563	51.88
332.776	37.55
332.989	8.87
333.202	17.07
333.414	-23.89
333.627	-11.61
333.84	27.31
334.053	70.31
334.265	21.16
334.478	-11.61
334.691	66.22
334.903	45.74
335.116	49.83
335.329	66.22
335.541	80.55
335.754	86.7
335.966	-48.47
336.179	25.26
336.392	58.03
336.604	25.26
336.817	47.79
337.029	49.83
337.242	-21.85
337.454	62.12
337.667	25.26
337.88	115.37
338.092	-1.37
338.305	111.27
338.517	12.97
338.729	27.31
338.942	70.31
339.154	39.59
339.367	70.31
339.579	90.79
339.792	12.97
340.004	39.59
340.217	-13.65
340.429	15.02
340.641	19.11
340.854	66.22
341.066	-19.8
341.278	39.59
341.491	90.79
341.703	47.79
341.915	66.22
342.128	103.08
342.34	70.31
342.552	29.35
342.764	21.16
342.977	31.4
343.189	53.93
343.401	-7.51
343.613	53.93
343.826	12.97
344.038	-50.52
344.25	111.27
344.462	41.64
344.674	51.88
344.886	2.73
345.099	144.04
345.311	74.41
345.523	10.92
345.735	27.31
345.947	21.16
346.159	78.51
346.371	37.55
346.583	39.59
346.795	127.66
347.007	31.4
347.219	47.79
347.431	19.11
347.643	82.6
347.855	64.17
348.067	27.31
348.279	33.45
348.491	45.74
348.703	94.89
348.915	-13.65
349.127	35.5
349.339	10.92
349.551	119.46
349.763	45.74
349.975	37.55
350.187	-17.75
350.399	72.36
350.61	12.97
350.822	27.31
351.034	0.68
351.246	70.31
351.458	-19.8
351.669	47.79
351.881	111.27
352.093	45.74
352.305	90.79
352.517	62.12
352.728	146.09
352.94	109.22
353.152	10.92
353.363	-30.04
353.575	49.83
353.787	10.92
353.999	82.6
354.21	58.03
354.422	72.36
354.633	29.35
354.845	53.93
355.057	-5.46
355.268	76.46
355.48	70.31
355.692	10.92
355.903	29.35
356.115	-3.41
356.326	49.83
356.538	92.84
356.749	31.4
356.961	29.35
357.172	45.74
357.384	-5.46
357.595	139.94
357.807	82.6
358.018	39.59
358.23	-1.37
358.441	139.94
358.653	121.51
358.864	-3.41
359.075	31.4
359.287	51.88
359.498	4.78
359.709	98.99
359.921	21.16
360.132	23.21
360.344	123.56
360.555	109.22
360.766	72.36
360.977	25.26
361.189	66.22
361.4	8.87
361.611	98.99
361.823	86.7
362.034	37.55
362.245	-19.8
362.456	55.98
362.667	49.83
362.879	58.03
363.09	-5.46
363.301	60.07
363.512	94.89
363.723	33.45
363.935	31.4
364.146	88.75
364.357	55.98
364.568	62.12
364.779	-36.18
364.99	62.12
365.201	23.21
365.412	80.55
365.623	-44.37
365.834	101.03
366.045	98.99
366.256	66.22
366.467	29.35
366.678	78.51
366.889	-30.04
367.1	35.5
367.311	86.7
367.522	78.51
367.733	45.74
367.944	78.51
368.155	58.03
368.366	55.98
368.577	45.74
368.788	10.92
368.999	29.35
369.209	68.27
369.42	111.27
369.631	-3.41
369.842	84.65
370.053	49.83
370.264	70.31
370.474	39.59
370.685	53.93
370.896	45.74
371.107	37.55
371.317	125.61
371.528	-58.71
371.739	41.64
371.95	74.41
372.16	103.08
372.371	37.55
372.582	25.26
372.792	49.83
373.003	49.83
373.214	78.51
373.424	55.98
373.635	25.26
373.846	86.7
374.056	27.31
374.267	-36.18
374.477	-7.51
374.688	29.35
374.898	84.65
375.109	84.65
375.319	21.16
375.53	82.6
375.74	111.27
375.951	74.41
376.161	111.27
376.372	111.27
376.582	101.03
376.793	133.8
377.003	55.98
377.214	45.74
377.424	41.64
377.635	12.97
377.845	88.75
378.055	105.13
378.266	37.55
378.476	60.07
378.686	35.5
378.897	27.31
379.107	-23.89
379.317	103.08
379.528	74.41
379.738	37.55
379.948	8.87
380.158	35.5
380.369	78.51
380.579	135.85
380.789	17.07
380.999	45.74
381.21	53.93
381.42	49.83
381.63	10.92
381.84	41.64
382.05	66.22
382.261	133.8
382.471	115.37
382.681	-60.76
382.891	86.7
383.101	94.89
383.311	70.31
383.521	53.93
383.731	72.36
383.941	29.35
384.151	12.97
384.361	78.51
384.571	135.85
384.781	88.75
384.991	23.21
385.201	66.22
385.411	109.22
385.621	17.07
385.831	74.41
386.041	29.35
386.251	49.83
386.461	115.37
386.671	146.09
386.881	-3.41
387.091	25.26
387.301	21.16
387.511	21.16
387.72	70.31
387.93	92.84
388.14	101.03
388.35	70.31
388.56	78.51
388.769	51.88
388.979	49.83
389.189	-1.37
389.399	37.55
389.609	111.27
389.818	53.93
390.028	-30.04
390.238	25.26
390.447	12.97
390.657	139.94
390.867	51.88
391.076	66.22
391.286	111.27
391.496	66.22
391.705	2.73
391.915	58.03
392.125	-11.61
392.334	84.65
392.544	101.03
392.753	41.64
392.963	76.46
393.172	82.6
393.382	12.97
393.591	119.46
393.801	-23.89
394.01	160.42
394.22	86.7
394.429	90.79
394.639	68.27
394.848	117.42
395.058	107.18
395.267	70.31
395.477	96.94
395.686	47.79
395.895	78.51
396.105	133.8
396.314	101.03
396.524	62.12
396.733	15.02
396.942	115.37
397.152	117.42
397.361	90.79
397.57	66.22
397.78	119.46
397.989	115.37
398.198	156.33
398.407	94.89
398.617	144.04
398.826	82.6
399.035	78.51
399.244	129.7
399.453	98.99
399.663	117.42
399.872	150.18
400.081	105.13
400.29	103.08
400.499	109.22
400.708	76.46
400.917	117.42
401.127	111.27
401.336	43.69
401.545	139.94
401.754	123.56
401.963	90.79
402.172	45.74
402.381	107.18
402.59	119.46
402.799	113.32
403.008	111.27
403.217	74.41
403.426	94.89
403.635	172.71
403.844	131.75
404.053	176.81
404.262	156.33
404.471	105.13
404.68	133.8
404.888	137.9
405.097	168.62
405.306	156.33
405.515	121.51
405.724	219.82
405.933	185
406.142	113.32
406.35	150.18
406.559	164.52
406.768	121.51
406.977	160.42
407.185	217.77
407.394	221.86
407.603	123.56
407.812	168.62
408.02	238.25
408.229	207.53
408.438	207.53
408.646	170.66
408.855	225.96
409.064	316.07
409.272	205.48
409.481	297.64
409.69	301.73
409.898	176.81
410.107	275.11
410.315	336.55
410.524	289.45
410.733	336.55
410.941	311.97
411.15	350.89
411.358	316.07
411.567	357.03
411.775	357.03
411.984	494.24
412.192	389.8
412.401	412.32
412.609	494.24
412.818	449.19
413.026	457.38
413.234	471.72
413.443	529.06
413.651	461.48
413.86	500.39
414.068	586.4
414.276	527.01
414.485	596.64
414.693	639.65
414.901	608.93
415.11	531.11
415.318	723.62
415.526	756.38
415.734	617.12
415.943	746.14
416.151	772.77
416.359	813.73
416.567	778.91
416.776	869.02
416.984	895.64
417.192	875.17
417.4	909.98
417.608	938.65
417.817	967.32
418.025	1032.86
418.233	1034.91
418.441	1055.39
418.649	1118.87
418.857	1278.62
419.065	1268.38
419.273	1106.59
419.481	1268.38
419.689	1340.05
419.897	1333.91
420.105	1436.31
420.313	1401.49
420.521	1409.69
420.729	1460.88
420.937	1569.43
421.145	1499.8
421.353	1753.74
421.561	1821.33
421.769	1827.47
421.977	1895.05
422.185	1856.14
422.393	1974.92
422.601	2151.05
422.809	2282.12
423.017	2167.43
423.224	2267.78
423.432	2435.72
423.64	2310.79
423.848	2525.83
424.056	2466.44
424.263	2585.22
424.471	2695.81
424.679	2656.9
424.887	2865.79
425.094	2890.37
425.302	2912.89
425.51	3168.89
425.718	3086.97
425.925	3060.35
426.133	3207.8
426.341	3445.37
426.548	3455.61
426.756	3758.71
426.964	3601.01
427.171	3672.69
427.379	4108.91
427.586	3983.98
427.794	4223.59
428.001	4366.95
428.209	4403.82
428.417	4418.15
428.624	4772.45
428.832	4713.06
429.039	4797.03
429.247	4651.62
429.454	5251.67
429.662	5665.36
429.869	5071.45
430.076	5464.66
430.284	5337.69
430.491	5593.69
430.699	5898.83
430.906	5859.92
431.114	5841.49
431.321	6183.5
431.528	6382.15
431.736	6578.76
431.943	6933.06
432.15	6844.99
432.358	6828.61
432.565	7332.41
432.772	7207.48
432.979	7576.12
433.187	7615.03
433.394	7821.88
433.601	8303.15
433.808	8309.29
434.016	8301.1
434.223	8784.42
434.43	9093.66
434.637	9005.6
434.844	9615.9
435.052	9855.51
435.259	9755.16
435.466	9626.14
435.673	9716.25
435.88	10095.12
436.087	10596.87
436.294	10664.46
436.501	10588.68
436.708	10779.14
436.915	11041.28
437.122	11522.55
437.329	11598.33
437.537	11870.71
437.743	11952.63
437.95	11971.06
438.157	12677.61
438.364	12976.61
438.571	12872.17
438.778	12984.8
438.985	14195.15
439.192	13648.35
439.399	14068.18
439.606	13736.41
439.813	14696.91
440.02	15552.96
440.227	15114.69
440.433	14942.66
440.64	15530.43
440.847	15774.14
441.054	15866.3
441.261	16953.77
441.467	16658.86
441.674	16863.66
441.881	17408.42
442.088	17605.02
442.294	17596.83
442.501	17938.84
442.708	18409.87
442.914	19081.61
443.121	19837.31
443.328	19356.04
443.534	20373.88
443.741	20107.64
443.948	19683.71
444.154	21258.6
444.361	21143.91
444.568	21543.27
444.774	21512.55
444.981	21350.76
445.187	21913.95
445.394	22872.4
445.6	22731.09
445.807	24901.93
446.013	23841.09
446.22	24336.7
446.426	25219.37
446.633	25340.2
446.839	26036.51
447.046	24953.13
447.252	26169.63
447.459	26335.51
447.665	26429.72
447.871	27343.11
448.078	28418.3
448.284	27074.83
448.491	27994.37
448.697	28866.8
448.903	29366.51
449.11	29571.3
449.316	29094.13
449.522	29747.43
449.728	30226.65
449.935	30718.17
450.141	30515.42
450.347	31334.6
450.553	30044.38
450.76	30380.25
450.966	31357.13
451.172	31146.19
451.378	31885.51
451.584	31514.83
451.791	32221.37
451.997	31553.74
452.203	32235.71
452.409	31897.8
452.615	31981.76
452.821	30931.15
453.027	30712.02
453.233	32010.43
453.44	30587.1
453.646	31316.17
453.852	31424.72
454.058	32018.63
454.264	30750.93
454.47	31400.14
454.676	30523.61
454.882	31789.25
455.088	28764.4
455.294	29075.69
455.5	29395.18
455.705	30050.53
455.911	28788.98
456.117	28375.29
456.323	27652.36
456.529	26349.85
456.735	27554.05
456.941	26622.23
457.147	26374.42
457.352	25340.2
457.558	24985.9
457.764	25309.48
457.97	25112.88
458.176	24361.27
458.381	24424.76
458.587	23181.64
458.793	23007.56
458.999	21660
459.204	23292.23
459.41	22786.38
459.616	21102.95
459.821	21014.89
460.027	21021.03
460.233	20859.24
460.438	19638.65
460.644	19962.23
460.85	19040.65
461.055	18925.96
461.261	18692.49
461.466	17484.19
461.672	16834.99
461.878	17779.1
462.083	16798.12
462.289	16406.96
462.494	16529.84
462.7	15720.89
462.905	15225.28
463.111	15692.22
463.316	15946.17
463.522	15593.92
463.727	15643.07
463.932	15313.34
464.138	15190.47
464.343	15368.64
464.549	15155.65
464.754	15395.26
464.959	15428.03
465.165	15176.13
465.37	14555.6
465.575	14408.14
465.781	14522.83
465.986	14758.35
466.191	14244.31
466.397	14098.9
466.602	13328.86
466.807	13887.96
