Data from USB4F104151__86__10-24-22-022.txt Node

Date: Wed Mar 12 10:24:22 EDT 2025
User: louis
Spectrometer: USB4F10415
Trigger mode: 4
Integration Time (sec): 3.000000E-2
Scans to average: 1
Electric dark correction enabled: true
Nonlinearity correction enabled: false
Boxcar width: 0
XAxis mode: Wavelengths
Number of Pixels in Spectrum: 3648
>>>>>Begin Spectral Data<<<<<
178.204	-113.66
178.424	-113.66
178.644	-113.66
178.864	-185.34
179.084	-99.33
179.304	-9.22
179.524	13.31
179.744	9.22
179.964	21.5
180.184	-52.22
180.404	-17.41
180.624	-58.37
180.844	89.09
181.064	-29.7
181.283	11.26
181.503	9.22
181.723	13.31
181.943	5.12
182.163	56.32
182.383	-31.74
182.602	11.26
182.822	68.61
183.042	56.32
183.262	-3.07
183.482	-37.89
183.701	48.13
183.921	72.7
184.141	-41.98
184.361	9.22
184.58	23.55
184.8	-23.55
185.02	-25.6
185.239	66.56
185.459	5.12
185.679	3.07
185.898	-70.65
186.118	11.26
186.338	-5.12
186.557	80.89
186.777	-37.89
186.997	23.55
187.216	-9.22
187.436	66.56
187.655	58.37
187.875	23.55
188.095	-48.13
188.314	44.03
188.534	-1.02
188.753	17.41
188.973	70.65
189.192	68.61
189.412	93.18
189.631	-15.36
189.851	39.94
190.07	52.22
190.29	1.02
190.509	-23.55
190.729	-17.41
190.948	95.23
191.168	109.57
191.387	11.26
191.607	39.94
191.826	17.41
192.045	15.36
192.265	56.32
192.484	41.98
192.704	-25.6
192.923	-37.89
193.142	41.98
193.362	9.22
193.581	52.22
193.8	39.94
194.02	46.08
194.239	23.55
194.458	17.41
194.678	56.32
194.897	29.7
195.116	37.89
195.335	9.22
195.555	17.41
195.774	1.02
195.993	27.65
196.212	-5.12
196.432	11.26
196.651	37.89
196.87	7.17
197.089	80.89
197.308	25.6
197.528	31.74
197.747	-56.32
197.966	3.07
198.185	82.94
198.404	-13.31
198.623	-29.7
198.842	9.22
199.062	21.5
199.281	9.22
199.5	33.79
199.719	70.65
199.938	60.42
200.157	80.89
200.376	64.51
200.595	58.37
200.814	1.02
201.033	-37.89
201.252	66.56
201.471	27.65
201.69	35.84
201.909	3.07
202.128	-9.22
202.347	35.84
202.566	3.07
202.785	-35.84
203.004	-9.22
203.223	27.65
203.442	62.46
203.661	15.36
203.879	99.33
204.098	-5.12
204.317	68.61
204.536	87.04
204.755	146.43
204.974	17.41
205.193	35.84
205.411	56.32
205.63	48.13
205.849	72.7
206.068	15.36
206.287	46.08
206.505	76.8
206.724	66.56
206.943	76.8
207.162	58.37
207.381	-1.02
207.599	41.98
207.818	11.26
208.037	11.26
208.255	35.84
208.474	70.65
208.693	-5.12
208.911	15.36
209.13	37.89
209.349	37.89
209.567	25.6
209.786	-27.65
210.005	23.55
210.223	72.7
210.442	-15.36
210.661	58.37
210.879	3.07
211.098	52.22
211.316	33.79
211.535	31.74
211.753	5.12
211.972	35.84
212.191	56.32
212.409	37.89
212.628	-1.02
212.846	-29.7
213.065	27.65
213.283	44.03
213.502	60.42
213.72	19.46
213.938	93.18
214.157	27.65
214.375	66.56
214.594	15.36
214.812	31.74
215.031	27.65
215.249	27.65
215.467	11.26
215.686	-23.55
215.904	11.26
216.122	-11.26
216.341	33.79
216.559	54.27
216.778	1.02
216.996	11.26
217.214	-21.5
217.432	29.7
217.651	56.32
217.869	31.74
218.087	17.41
218.306	-15.36
218.524	56.32
218.742	66.56
218.96	-13.31
219.179	27.65
219.397	39.94
219.615	123.9
219.833	50.18
220.051	25.6
220.27	1.02
220.488	48.13
220.706	62.46
220.924	3.07
221.142	-11.26
221.36	44.03
221.578	-29.7
221.796	27.65
222.015	17.41
222.233	-48.13
222.451	-1.02
222.669	-21.5
222.887	46.08
223.105	50.18
223.323	35.84
223.541	-9.22
223.759	97.28
223.977	-33.79
224.195	41.98
224.413	58.37
224.631	19.46
224.849	15.36
225.067	-64.51
225.285	-52.22
225.503	44.03
225.721	-13.31
225.939	54.27
226.157	41.98
226.375	39.94
226.592	25.6
226.81	-13.31
227.028	72.7
227.246	60.42
227.464	-15.36
227.682	80.89
227.9	41.98
228.117	64.51
228.335	11.26
228.553	41.98
228.771	35.84
228.989	60.42
229.206	64.51
229.424	52.22
229.642	3.07
229.86	44.03
230.077	15.36
230.295	50.18
230.513	35.84
230.731	27.65
230.948	142.33
231.166	48.13
231.384	9.22
231.601	50.18
231.819	68.61
232.037	-21.5
232.254	17.41
232.472	44.03
232.689	-7.17
232.907	84.99
233.125	44.03
233.342	52.22
233.56	-64.51
233.777	31.74
233.995	82.94
234.213	89.09
234.43	31.74
234.648	-21.5
234.865	33.79
235.083	35.84
235.3	52.22
235.518	44.03
235.735	82.94
235.953	52.22
236.17	29.7
236.388	-11.26
236.605	99.33
236.822	138.24
237.04	41.98
237.257	-11.26
237.475	-29.7
237.692	95.23
237.909	-54.27
238.127	39.94
238.344	97.28
238.562	-7.17
238.779	15.36
238.996	23.55
239.214	-11.26
239.431	27.65
239.648	11.26
239.865	66.56
240.083	89.09
240.3	-7.17
240.517	31.74
240.735	5.12
240.952	66.56
241.169	78.85
241.386	46.08
241.603	17.41
241.821	68.61
242.038	29.7
242.255	15.36
242.472	-93.18
242.689	109.57
242.907	31.74
243.124	-9.22
243.341	60.42
243.558	-5.12
243.775	33.79
243.992	19.46
244.209	60.42
244.426	78.85
244.643	58.37
244.86	33.79
245.078	-5.12
245.295	76.8
245.512	-1.02
245.729	-3.07
245.946	27.65
246.163	-17.41
246.38	-54.27
246.597	-39.94
246.814	5.12
247.031	39.94
247.248	35.84
247.464	3.07
247.681	60.42
247.898	35.84
248.115	-11.26
248.332	7.17
248.549	-25.6
248.766	35.84
248.983	1.02
249.2	54.27
249.417	29.7
249.633	46.08
249.85	89.09
250.067	-15.36
250.284	33.79
250.501	1.02
250.717	19.46
250.934	-48.13
251.151	-21.5
251.368	15.36
251.585	84.99
251.801	66.56
252.018	5.12
252.235	-25.6
252.451	70.65
252.668	-31.74
252.885	72.7
253.102	19.46
253.318	5.12
253.535	76.8
253.752	9.22
253.968	-35.84
254.185	41.98
254.401	93.18
254.618	44.03
254.835	-21.5
255.051	33.79
255.268	27.65
255.484	15.36
255.701	3.07
255.917	74.75
256.134	13.31
256.351	50.18
256.567	-19.46
256.784	97.28
257	-52.22
257.217	21.5
257.433	19.46
257.65	31.74
257.866	52.22
258.082	-19.46
258.299	-23.55
258.515	-11.26
258.732	3.07
258.948	-37.89
259.165	62.46
259.381	-25.6
259.597	107.52
259.814	-5.12
260.03	60.42
260.246	17.41
260.463	44.03
260.679	25.6
260.895	25.6
261.112	72.7
261.328	-13.31
261.544	-35.84
261.761	87.04
261.977	25.6
262.193	-17.41
262.409	58.37
262.626	27.65
262.842	52.22
263.058	7.17
263.274	39.94
263.49	39.94
263.707	11.26
263.923	29.7
264.139	-7.17
264.355	37.89
264.571	56.32
264.787	48.13
265.004	60.42
265.22	-23.55
265.436	25.6
265.652	64.51
265.868	41.98
266.084	-5.12
266.3	27.65
266.516	44.03
266.732	84.99
266.948	23.55
267.164	72.7
267.38	21.5
267.596	48.13
267.812	109.57
268.028	60.42
268.244	35.84
268.46	-44.03
268.676	54.27
268.892	23.55
269.108	74.75
269.324	-15.36
269.54	87.04
269.756	35.84
269.972	-11.26
270.188	-5.12
270.403	-80.89
270.619	62.46
270.835	68.61
271.051	48.13
271.267	-25.6
271.483	17.41
271.698	-11.26
271.914	62.46
272.13	5.12
272.346	80.89
272.562	-27.65
272.777	50.18
272.993	7.17
273.209	58.37
273.425	109.57
273.64	31.74
273.856	27.65
274.072	-23.55
274.287	-1.02
274.503	142.33
274.719	70.65
274.934	-17.41
275.15	37.89
275.366	-1.02
275.581	-68.61
275.797	44.03
276.012	72.7
276.228	41.98
276.444	9.22
276.659	117.76
276.875	35.84
277.09	11.26
277.306	-15.36
277.521	99.33
277.737	-39.94
277.952	76.8
278.168	17.41
278.383	27.65
278.599	21.5
278.814	-37.89
279.03	72.7
279.245	48.13
279.461	-7.17
279.676	68.61
279.892	9.22
280.107	72.7
280.322	-15.36
280.538	70.65
280.753	35.84
280.969	-27.65
281.184	99.33
281.399	78.85
281.615	115.71
281.83	23.55
282.045	-13.31
282.26	9.22
282.476	-3.07
282.691	70.65
282.906	50.18
283.122	-39.94
283.337	-15.36
283.552	58.37
283.767	52.22
283.983	17.41
284.198	15.36
284.413	37.89
284.628	-1.02
284.843	11.26
285.058	5.12
285.274	58.37
285.489	-11.26
285.704	91.13
285.919	35.84
286.134	-46.08
286.349	-72.7
286.564	-56.32
286.779	48.13
286.995	91.13
287.21	1.02
287.425	31.74
287.64	19.46
287.855	15.36
288.07	-97.28
288.285	54.27
288.5	17.41
288.715	72.7
288.93	-33.79
289.145	25.6
289.36	123.9
289.575	-39.94
289.79	25.6
290.004	-21.5
290.219	25.6
290.434	11.26
290.649	48.13
290.864	50.18
291.079	76.8
291.294	52.22
291.509	68.61
291.724	13.31
291.938	15.36
292.153	76.8
292.368	19.46
292.583	-27.65
292.798	21.5
293.012	82.94
293.227	80.89
293.442	35.84
293.657	68.61
293.871	52.22
294.086	58.37
294.301	60.42
294.516	93.18
294.73	101.37
294.945	-31.74
295.16	72.7
295.374	119.81
295.589	-5.12
295.804	11.26
296.018	68.61
296.233	23.55
296.447	-1.02
296.662	-33.79
296.877	64.51
297.091	27.65
297.306	56.32
297.52	76.8
297.735	17.41
297.949	31.74
298.164	44.03
298.378	50.18
298.593	41.98
298.807	66.56
299.022	19.46
299.236	52.22
299.451	-7.17
299.665	44.03
299.88	121.85
300.094	50.18
300.309	44.03
300.523	25.6
300.737	23.55
300.952	64.51
301.166	52.22
301.381	35.84
301.595	-29.7
301.809	50.18
302.024	-44.03
302.238	1.02
302.452	-7.17
302.667	41.98
302.881	107.52
303.095	68.61
303.309	31.74
303.524	3.07
303.738	-41.98
303.952	-62.46
304.166	95.23
304.381	9.22
304.595	29.7
304.809	-29.7
305.023	1.02
305.237	48.13
305.452	-23.55
305.666	41.98
305.88	44.03
306.094	66.56
306.308	60.42
306.522	50.18
306.736	72.7
306.95	25.6
307.164	-37.89
307.379	-64.51
307.593	56.32
307.807	64.51
308.021	70.65
308.235	1.02
308.449	39.94
308.663	109.57
308.877	76.8
309.091	89.09
309.305	-33.79
309.519	-54.27
309.733	60.42
309.947	19.46
310.161	54.27
310.374	33.79
310.588	21.5
310.802	3.07
311.016	62.46
311.23	9.22
311.444	50.18
311.658	37.89
311.872	70.65
312.085	35.84
312.299	31.74
312.513	23.55
312.727	52.22
312.941	-29.7
313.154	68.61
313.368	-7.17
313.582	70.65
313.796	13.31
314.009	-9.22
314.223	142.33
314.437	95.23
314.651	-74.75
314.864	-25.6
315.078	-15.36
315.292	48.13
315.505	64.51
315.719	91.13
315.933	62.46
316.146	-15.36
316.36	82.94
316.573	41.98
316.787	64.51
317.001	56.32
317.214	-1.02
317.428	-27.65
317.641	-60.42
317.855	15.36
318.068	-3.07
318.282	58.37
318.495	60.42
318.709	23.55
318.922	68.61
319.136	68.61
319.349	39.94
319.563	68.61
319.776	31.74
319.99	23.55
320.203	48.13
320.417	99.33
320.63	84.99
320.843	58.37
321.057	44.03
321.27	27.65
321.483	7.17
321.697	56.32
321.91	54.27
322.124	52.22
322.337	52.22
322.55	11.26
322.763	66.56
322.977	44.03
323.19	39.94
323.403	50.18
323.617	54.27
323.83	130.05
324.043	27.65
324.256	7.17
324.469	-37.89
324.683	44.03
324.896	52.22
325.109	105.47
325.322	1.02
325.535	121.85
325.748	-29.7
325.962	23.55
326.175	39.94
326.388	64.51
326.601	23.55
326.814	3.07
327.027	1.02
327.24	50.18
327.453	-13.31
327.666	21.5
327.879	35.84
328.092	56.32
328.305	101.37
328.518	1.02
328.731	-5.12
328.944	99.33
329.157	44.03
329.37	17.41
329.583	46.08
329.796	50.18
330.009	13.31
330.222	56.32
330.435	35.84
330.648	80.89
330.861	-7.17
331.073	52.22
331.286	70.65
331.499	82.94
331.712	27.65
331.925	64.51
332.138	33.79
332.35	39.94
332.563	60.42
332.776	46.08
332.989	19.46
333.202	33.79
333.414	84.99
333.627	125.95
333.84	80.89
334.053	99.33
334.265	54.27
334.478	9.22
334.691	119.81
334.903	44.03
335.116	52.22
335.329	50.18
335.541	-5.12
335.754	187.39
335.966	-9.22
336.179	70.65
336.392	-21.5
336.604	-15.36
336.817	-11.26
337.029	48.13
337.242	-23.55
337.454	-1.02
337.667	25.6
337.88	138.24
338.092	64.51
338.305	48.13
338.517	19.46
338.729	52.22
338.942	103.42
339.154	13.31
339.367	9.22
339.579	13.31
339.792	-37.89
340.004	58.37
340.217	44.03
340.429	56.32
340.641	50.18
340.854	13.31
341.066	-5.12
341.278	23.55
341.491	64.51
341.703	109.57
341.915	56.32
342.128	9.22
342.34	-23.55
342.552	62.46
342.764	101.37
342.977	46.08
343.189	93.18
343.401	121.85
343.613	15.36
343.826	31.74
344.038	1.02
344.25	35.84
344.462	-41.98
344.674	87.04
344.886	105.47
345.099	58.37
345.311	62.46
345.523	-5.12
345.735	17.41
345.947	111.61
346.159	3.07
346.371	66.56
346.583	41.98
346.795	50.18
347.007	35.84
347.219	50.18
347.431	-46.08
347.643	68.61
347.855	117.76
348.067	46.08
348.279	54.27
348.491	52.22
348.703	35.84
348.915	-37.89
349.127	41.98
349.339	54.27
349.551	68.61
349.763	150.53
349.975	72.7
350.187	107.52
350.399	44.03
350.61	101.37
350.822	17.41
351.034	68.61
351.246	9.22
351.458	56.32
351.669	50.18
351.881	64.51
352.093	70.65
352.305	48.13
352.517	62.46
352.728	25.6
352.94	58.37
353.152	64.51
353.363	9.22
353.575	113.66
353.787	23.55
353.999	11.26
354.21	117.76
354.422	13.31
354.633	56.32
354.845	52.22
355.057	52.22
355.268	68.61
355.48	173.05
355.692	-27.65
355.903	33.79
356.115	74.75
356.326	-5.12
356.538	41.98
356.749	89.09
356.961	117.76
357.172	37.89
357.384	99.33
357.595	125.95
357.807	9.22
358.018	58.37
358.23	117.76
358.441	80.89
358.653	33.79
358.864	7.17
359.075	35.84
359.287	58.37
359.498	44.03
359.709	91.13
359.921	117.76
360.132	46.08
360.344	-13.31
360.555	58.37
360.766	52.22
360.977	5.12
361.189	44.03
361.4	44.03
361.611	17.41
361.823	158.72
362.034	80.89
362.245	-1.02
362.456	76.8
362.667	37.89
362.879	93.18
363.09	23.55
363.301	91.13
363.512	48.13
363.723	15.36
363.935	84.99
364.146	93.18
364.357	125.95
364.568	91.13
364.779	60.42
364.99	82.94
365.201	33.79
365.412	62.46
365.623	33.79
365.834	27.65
366.045	76.8
366.256	-1.02
366.467	87.04
366.678	72.7
366.889	31.74
367.1	-35.84
367.311	7.17
367.522	9.22
367.733	-39.94
367.944	41.98
368.155	107.52
368.366	130.05
368.577	7.17
368.788	66.56
368.999	-11.26
369.209	27.65
369.42	87.04
369.631	119.81
369.842	37.89
370.053	44.03
370.264	11.26
370.474	19.46
370.685	82.94
370.896	-41.98
371.107	89.09
371.317	31.74
371.528	60.42
371.739	80.89
371.95	48.13
372.16	29.7
372.371	33.79
372.582	62.46
372.792	25.6
373.003	13.31
373.214	-48.13
373.424	84.99
373.635	23.55
373.846	142.33
374.056	7.17
374.267	56.32
374.477	-3.07
374.688	109.57
374.898	140.29
375.109	82.94
375.319	-19.46
375.53	95.23
375.74	44.03
375.951	23.55
376.161	115.71
376.372	27.65
376.582	117.76
376.793	19.46
377.003	23.55
377.214	46.08
377.424	72.7
377.635	-7.17
377.845	11.26
378.055	78.85
378.266	80.89
378.476	76.8
378.686	123.9
378.897	70.65
379.107	130.05
379.317	54.27
379.528	35.84
379.738	76.8
379.948	56.32
380.158	54.27
380.369	44.03
380.579	31.74
380.789	82.94
380.999	115.71
381.21	-11.26
381.42	52.22
381.63	89.09
381.84	113.66
382.05	105.47
382.261	136.19
382.471	33.79
382.681	80.89
382.891	48.13
383.101	27.65
383.311	-11.26
383.521	84.99
383.731	-7.17
383.941	35.84
384.151	56.32
384.361	64.51
384.571	54.27
384.781	66.56
384.991	70.65
385.201	128
385.411	70.65
385.621	107.52
385.831	19.46
386.041	64.51
386.251	68.61
386.461	66.56
386.671	41.98
386.881	60.42
387.091	44.03
387.301	125.95
387.511	105.47
387.72	111.61
387.93	33.79
388.14	1.02
388.35	117.76
388.56	103.42
388.769	78.85
388.979	64.51
389.189	-1.02
389.399	19.46
389.609	64.51
389.818	52.22
390.028	39.94
390.238	105.47
390.447	17.41
390.657	109.57
390.867	46.08
391.076	41.98
391.286	95.23
391.496	-21.5
391.705	27.65
391.915	111.61
392.125	123.9
392.334	-17.41
392.544	64.51
392.753	74.75
392.963	87.04
393.172	25.6
393.382	84.99
393.591	117.76
393.801	68.61
394.01	107.52
394.22	68.61
394.429	87.04
394.639	103.42
394.848	76.8
395.058	125.95
395.267	91.13
395.477	48.13
395.686	175.1
395.895	134.14
396.105	177.15
396.314	125.95
396.524	35.84
396.733	66.56
396.942	134.14
397.152	121.85
397.361	23.55
397.57	113.66
397.78	93.18
397.989	220.16
398.198	199.68
398.407	134.14
398.617	82.94
398.826	64.51
399.035	89.09
399.244	58.37
399.453	70.65
399.663	89.09
399.872	115.71
400.081	52.22
400.29	154.62
400.499	93.18
400.708	199.68
400.917	132.09
401.127	31.74
401.336	82.94
401.545	183.29
401.754	35.84
401.963	130.05
402.172	162.81
402.381	123.9
402.59	109.57
402.799	197.63
403.008	171.01
403.217	177.15
403.426	117.76
403.635	93.18
403.844	146.43
404.053	189.44
404.262	154.62
404.471	205.82
404.68	156.67
404.888	152.57
405.097	181.25
405.306	185.34
405.515	166.91
405.724	214.01
405.933	244.73
406.142	181.25
406.35	297.98
406.559	144.38
406.768	244.73
406.977	205.82
407.185	269.31
407.394	224.25
407.603	205.82
407.812	166.91
408.02	392.19
408.229	277.5
408.438	332.79
408.646	246.78
408.855	281.6
409.064	289.79
409.272	238.59
409.481	353.27
409.69	353.27
409.898	271.36
410.107	328.7
410.315	398.33
410.524	420.86
410.733	394.23
410.941	394.23
411.15	453.63
411.358	404.47
411.567	517.11
411.775	465.91
411.984	513.02
412.192	461.82
412.401	531.45
412.609	535.54
412.818	562.17
413.026	629.75
413.234	527.35
413.443	670.71
413.651	576.5
413.86	625.65
414.068	744.44
414.276	691.19
414.485	799.73
414.693	783.35
414.901	855.03
415.11	812.02
415.318	756.72
415.526	818.16
415.734	830.45
415.943	926.71
416.151	867.31
416.359	1022.96
416.567	1063.92
416.776	1096.69
416.984	1047.54
417.192	1223.66
417.4	1068.02
417.608	1084.4
417.817	1065.97
418.025	1291.24
418.233	1346.54
418.441	1330.16
418.649	1297.39
418.857	1563.62
419.065	1543.14
419.273	1489.9
419.481	1629.16
419.689	1690.6
419.897	1721.32
420.105	1817.57
420.313	1825.76
420.521	1876.96
420.729	1928.16
420.937	1989.6
421.145	2139.1
421.353	2124.77
421.561	2247.65
421.769	2296.8
421.977	2487.26
422.185	2393.05
422.393	2501.59
422.601	2778.07
422.809	2622.42
423.017	2683.86
423.224	2876.37
423.432	2894.8
423.64	2888.66
423.848	3183.57
424.056	3066.83
424.263	3316.69
424.471	3388.36
424.679	3320.78
424.887	3480.52
425.094	3593.16
425.302	3787.72
425.51	3847.11
425.718	4008.9
425.925	3953.6
426.133	3986.37
426.341	4350.91
426.548	4639.67
426.756	4553.66
426.964	4615.1
427.171	4867
427.379	4934.58
427.586	5176.24
427.794	5307.31
428.001	5442.48
428.209	5725.1
428.417	5610.41
428.624	6253.47
428.832	6040.48
429.039	6134.69
429.247	6081.44
429.454	6656.92
429.662	7070.61
429.869	6548.38
430.076	7111.57
430.284	6892.44
430.491	7193.49
430.699	7527.31
430.906	7687.05
431.114	7746.44
431.321	8092.55
431.528	8123.27
431.736	8725.37
431.943	8876.92
432.15	8635.26
432.358	8954.74
432.565	9319.28
432.772	9173.88
432.979	9790.31
433.187	10152.81
433.394	10003.3
433.601	10750.81
433.808	10765.15
434.016	10589.02
434.223	11060.06
434.43	11606.86
434.637	11502.42
434.844	12155.72
435.052	12417.86
435.259	12581.7
435.466	12448.58
435.673	12256.07
435.88	13339.44
436.087	13959.98
436.294	13847.34
436.501	13523.76
436.708	13726.51
436.915	14291.75
437.122	15072.03
437.329	15031.07
437.537	15123.23
437.743	15731.47
437.95	15571.73
438.157	16470.79
438.364	16646.91
438.571	16655.11
438.778	16786.18
438.985	18580.2
439.192	17781.49
439.399	18301.67
439.606	17947.37
439.813	19069.66
440.02	19870.42
440.227	19569.37
440.433	19405.53
440.64	20034.25
440.847	19817.17
441.054	20619.97
441.261	21805.75
441.467	21342.91
441.674	21947.06
441.881	22600.36
442.088	22633.13
442.294	22444.71
442.501	22858.4
442.708	23499.42
442.914	24439.44
443.121	25188.99
443.328	24312.46
443.534	26393.2
443.741	25741.94
443.948	25404.03
444.154	27460.19
444.361	26616.43
444.568	27130.47
444.774	27173.47
444.981	27662.94
445.187	28619.34
445.394	29696.57
445.6	29063.75
445.807	31918.62
446.013	30566.96
446.22	31050.28
446.426	32180.76
446.633	32467.47
446.839	33477.12
447.046	32033.3
447.252	33964.54
447.459	33796.6
447.665	33403.39
447.871	35123.69
448.078	36665.81
448.284	34570.74
448.491	35949.02
448.697	37224.9
448.903	38023.61
449.11	38074.81
449.316	37159.37
449.522	37683.65
449.728	38656.43
449.935	39246.25
450.141	38855.09
450.347	39694.75
450.553	38592.95
450.76	39029.16
450.966	40057.24
451.172	39739.81
451.378	40475.03
451.584	39913.89
451.791	40911.25
451.997	40595.86
452.203	41439.62
452.409	41347.47
452.615	41005.45
452.821	38945.2
453.027	39238.06
453.233	41232.78
453.44	39317.93
453.646	39999.9
453.852	39877.02
454.058	40554.9
454.264	39137.71
454.47	39838.11
454.676	39143.85
454.882	40577.43
455.088	37372.36
455.294	37308.87
455.5	37773.76
455.705	38226.36
455.911	36655.57
456.117	36047.32
456.323	35592.67
456.529	33409.54
456.735	34789.87
456.941	33974.78
457.147	33796.6
457.352	32502.29
457.558	32240.15
457.764	31965.72
457.97	31388.19
458.176	31105.57
458.381	30794.28
458.587	29442.62
458.793	29475.39
458.999	27839.06
459.204	29776.44
459.41	28861
459.616	27388.51
459.821	26935.91
460.027	26980.96
460.233	26364.53
460.438	25105.02
460.644	25305.73
460.85	24124.05
461.055	23771.8
461.261	23636.63
461.466	22117.04
461.672	21402.3
461.878	23083.68
462.083	21504.7
462.289	21207.74
462.494	20605.64
462.7	19954.38
462.905	19352.28
463.111	20138.7
463.316	20116.17
463.522	19700.44
463.727	19876.56
463.932	19507.93
464.138	19739.35
464.343	19497.69
464.549	18979.55
464.754	19702.48
464.959	19305.18
465.165	19204.83
465.37	18457.32
465.575	18162.41
465.781	18893.54
465.986	19100.38
466.191	18109.16
466.397	17709.81
466.602	16980.73
466.807	17885.94
467.012	17713.91
