Data from USB4F104151__114__10-24-57-300.txt Node

Date: Wed Mar 12 10:24:57 EDT 2025
User: louis
Spectrometer: USB4F10415
Trigger mode: 4
Integration Time (sec): 3.000000E-2
Scans to average: 1
Electric dark correction enabled: true
Nonlinearity correction enabled: false
Boxcar width: 0
XAxis mode: Wavelengths
Number of Pixels in Spectrum: 3648
>>>>>Begin Spectral Data<<<<<
178.204	-99.5
178.424	-99.5
178.644	-99.5
178.864	-158.89
179.084	-101.55
179.304	-3.24
179.524	17.24
179.744	4.95
179.964	99.16
180.184	4.95
180.404	39.76
180.624	-21.67
180.844	27.48
181.064	-79.02
181.283	4.95
181.503	-17.58
181.723	-76.97
181.943	-33.96
182.163	21.33
182.383	-29.87
182.602	43.86
182.822	64.34
183.042	-50.35
183.262	9.05
183.482	-38.06
183.701	19.29
183.921	9.05
184.141	31.57
184.361	7
184.58	-23.72
184.8	68.44
185.02	-31.91
185.239	95.06
185.459	-46.25
185.679	-13.48
185.898	74.58
186.118	27.48
186.338	-33.96
186.557	-23.72
186.777	0.85
186.997	43.86
187.216	-15.53
187.436	37.72
187.655	-15.53
187.875	41.81
188.095	97.11
188.314	31.57
188.534	97.11
188.753	23.38
188.973	-17.58
189.192	56.15
189.412	52.05
189.631	68.44
189.851	43.86
190.07	78.68
190.29	2.9
190.509	27.48
190.729	64.34
190.948	80.72
191.168	43.86
191.387	84.82
191.607	-11.43
191.826	39.76
192.045	-25.77
192.265	-42.15
192.484	-11.43
192.704	23.38
192.923	39.76
193.142	121.68
193.362	21.33
193.581	64.34
193.8	95.06
194.02	25.43
194.239	25.43
194.458	45.91
194.678	4.95
194.897	27.48
195.116	-15.53
195.335	-27.82
195.555	-11.43
195.774	-54.44
195.993	93.01
196.212	-68.78
196.432	50
196.651	39.76
196.87	0.85
197.089	82.77
197.308	78.68
197.528	17.24
197.747	-19.63
197.966	23.38
198.185	-33.96
198.404	17.24
198.623	39.76
198.842	-17.58
199.062	74.58
199.281	11.09
199.5	2.9
199.719	31.57
199.938	13.14
200.157	27.48
200.376	68.44
200.595	15.19
200.814	60.24
201.033	-11.43
201.252	19.29
201.471	54.1
201.69	-23.72
201.909	31.57
202.128	-13.48
202.347	-11.43
202.566	31.57
202.785	23.38
203.004	-19.63
203.223	88.92
203.442	62.29
203.661	105.3
203.879	43.86
204.098	60.24
204.317	35.67
204.536	50
204.755	54.1
204.974	-9.39
205.193	25.43
205.411	29.52
205.63	-11.43
205.849	37.72
206.068	35.67
206.287	52.05
206.505	11.09
206.724	86.87
206.943	-33.96
207.162	-17.58
207.381	-46.25
207.599	-17.58
207.818	-38.06
208.037	52.05
208.255	13.14
208.474	37.72
208.693	29.52
208.911	-42.15
209.13	7
209.349	4.95
209.567	76.63
209.786	160.59
210.005	27.48
210.223	64.34
210.442	54.1
210.661	19.29
210.879	54.1
211.098	74.58
211.316	68.44
211.535	56.15
211.753	15.19
211.972	52.05
212.191	11.09
212.409	-40.11
212.628	54.1
212.846	-5.29
213.065	52.05
213.283	33.62
213.502	54.1
213.72	82.77
213.938	97.11
214.157	78.68
214.375	52.05
214.594	105.3
214.812	-1.19
215.031	15.19
215.249	-3.24
215.467	19.29
215.686	25.43
215.904	21.33
216.122	7
216.341	7
216.559	-21.67
216.778	-29.87
216.996	19.29
217.214	-48.3
217.432	-85.16
217.651	17.24
217.869	-17.58
218.087	11.09
218.306	-29.87
218.524	-1.19
218.742	-3.24
218.96	15.19
219.179	2.9
219.397	41.81
219.615	107.35
219.833	25.43
220.051	-56.49
220.27	4.95
220.488	62.29
220.706	-19.63
220.924	13.14
221.142	-5.29
221.36	52.05
221.578	60.24
221.796	41.81
222.015	-19.63
222.233	-19.63
222.451	39.76
222.669	19.29
222.887	-9.39
223.105	-42.15
223.323	27.48
223.541	-17.58
223.759	15.19
223.977	-40.11
224.195	27.48
224.413	50
224.631	72.53
224.849	74.58
225.067	113.49
225.285	25.43
225.503	19.29
225.721	-93.35
225.939	2.9
226.157	29.52
226.375	56.15
226.592	-3.24
226.81	-15.53
227.028	19.29
227.246	35.67
227.464	-19.63
227.682	39.76
227.9	43.86
228.117	29.52
228.335	74.58
228.553	25.43
228.771	15.19
228.989	56.15
229.206	45.91
229.424	66.39
229.642	-33.96
229.86	27.48
230.077	-7.34
230.295	-44.2
230.513	21.33
230.731	19.29
230.948	19.29
231.166	-5.29
231.384	54.1
231.601	84.82
231.819	35.67
232.037	56.15
232.254	56.15
232.472	4.95
232.689	68.44
232.907	58.2
233.125	-50.35
233.342	64.34
233.56	-58.54
233.777	78.68
233.995	4.95
234.213	74.58
234.43	27.48
234.648	-58.54
234.865	-1.19
235.083	23.38
235.3	29.52
235.518	68.44
235.735	62.29
235.953	39.76
236.17	29.52
236.388	76.63
236.605	56.15
236.822	72.53
237.04	62.29
237.257	27.48
237.475	90.96
237.692	-3.24
237.909	39.76
238.127	39.76
238.344	-50.35
238.562	125.78
238.779	-21.67
238.996	93.01
239.214	-23.72
239.431	107.35
239.648	-56.49
239.865	15.19
240.083	19.29
240.3	-58.54
240.517	-66.73
240.735	39.76
240.952	54.1
241.169	31.57
241.386	-25.77
241.603	60.24
241.821	-3.24
242.038	-44.2
242.255	-25.77
242.472	-11.43
242.689	29.52
242.907	39.76
243.124	138.07
243.341	95.06
243.558	45.91
243.775	27.48
243.992	2.9
244.209	13.14
244.426	80.72
244.643	43.86
244.86	43.86
245.078	29.52
245.295	78.68
245.512	39.76
245.729	-48.3
245.946	-25.77
246.163	35.67
246.38	-23.72
246.597	31.57
246.814	-11.43
247.031	-50.35
247.248	-17.58
247.464	-48.3
247.681	60.24
247.898	86.87
248.115	2.9
248.332	-5.29
248.549	86.87
248.766	39.76
248.983	56.15
249.2	54.1
249.417	80.72
249.633	7
249.85	78.68
250.067	23.38
250.284	70.48
250.501	43.86
250.717	52.05
250.934	23.38
251.151	25.43
251.368	23.38
251.585	47.96
251.801	0.85
252.018	35.67
252.235	119.64
252.451	2.9
252.668	68.44
252.885	37.72
253.102	88.92
253.318	7
253.535	-3.24
253.752	2.9
253.968	56.15
254.185	39.76
254.401	21.33
254.618	82.77
254.835	-21.67
255.051	138.07
255.268	13.14
255.484	62.29
255.701	41.81
255.917	27.48
256.134	68.44
256.351	64.34
256.567	39.76
256.784	-7.34
257	-60.59
257.217	-15.53
257.433	93.01
257.65	66.39
257.866	76.63
258.082	-9.39
258.299	13.14
258.515	58.2
258.732	56.15
258.948	-17.58
259.165	-9.39
259.381	76.63
259.597	-25.77
259.814	17.24
260.03	-3.24
260.246	68.44
260.463	52.05
260.679	-5.29
260.895	33.62
261.112	47.96
261.328	27.48
261.544	35.67
261.761	121.68
261.977	13.14
262.193	-13.48
262.409	39.76
262.626	35.67
262.842	103.25
263.058	25.43
263.274	76.63
263.49	-33.96
263.707	105.3
263.923	-9.39
264.139	50
264.355	54.1
264.571	7
264.787	27.48
265.004	78.68
265.22	29.52
265.436	-29.87
265.652	-70.83
265.868	-13.48
266.084	109.4
266.3	21.33
266.516	-21.67
266.732	101.2
266.948	-3.24
267.164	15.19
267.38	2.9
267.596	60.24
267.812	66.39
268.028	37.72
268.244	15.19
268.46	56.15
268.676	2.9
268.892	54.1
269.108	-36.01
269.324	58.2
269.54	-5.29
269.756	52.05
269.972	-42.15
270.188	19.29
270.403	29.52
270.619	13.14
270.835	84.82
271.051	17.24
271.267	33.62
271.483	76.63
271.698	54.1
271.914	39.76
272.13	-11.43
272.346	39.76
272.562	39.76
272.777	129.88
272.993	-54.44
273.209	60.24
273.425	78.68
273.64	43.86
273.856	31.57
274.072	-13.48
274.287	-11.43
274.503	4.95
274.719	35.67
274.934	21.33
275.15	-3.24
275.366	72.53
275.581	19.29
275.797	45.91
276.012	45.91
276.228	-23.72
276.444	39.76
276.659	109.4
276.875	45.91
277.09	13.14
277.306	-15.53
277.521	64.34
277.737	39.76
277.952	19.29
278.168	-15.53
278.383	-17.58
278.599	37.72
278.814	-17.58
279.03	64.34
279.245	45.91
279.461	11.09
279.676	-1.19
279.892	-11.43
280.107	15.19
280.322	43.86
280.538	27.48
280.753	-21.67
280.969	47.96
281.184	-9.39
281.399	-33.96
281.615	56.15
281.83	68.44
282.045	70.48
282.26	11.09
282.476	4.95
282.691	115.54
282.906	45.91
283.122	88.92
283.337	-7.34
283.552	64.34
283.767	11.09
283.983	117.59
284.198	-29.87
284.413	125.78
284.628	19.29
284.843	43.86
285.058	52.05
285.274	11.09
285.489	0.85
285.704	29.52
285.919	-5.29
286.134	-3.24
286.349	68.44
286.564	-9.39
286.779	80.72
286.995	21.33
287.21	-13.48
287.425	39.76
287.64	-3.24
287.855	29.52
288.07	29.52
288.285	47.96
288.5	103.25
288.715	109.4
288.93	-17.58
289.145	9.05
289.36	58.2
289.575	-17.58
289.79	56.15
290.004	25.43
290.219	-25.77
290.434	103.25
290.649	54.1
290.864	41.81
291.079	15.19
291.294	0.85
291.509	-19.63
291.724	62.29
291.938	56.15
292.153	4.95
292.368	-3.24
292.583	7
292.798	-1.19
293.012	72.53
293.227	66.39
293.442	-15.53
293.657	35.67
293.871	-7.34
294.086	23.38
294.301	70.48
294.516	25.43
294.73	54.1
294.945	31.57
295.16	31.57
295.374	50
295.589	113.49
295.804	-3.24
296.018	58.2
296.233	29.52
296.447	13.14
296.662	-13.48
296.877	17.24
297.091	72.53
297.306	43.86
297.52	4.95
297.735	54.1
297.949	11.09
298.164	68.44
298.378	23.38
298.593	117.59
298.807	-25.77
299.022	105.3
299.236	54.1
299.451	33.62
299.665	-21.67
299.88	35.67
300.094	-9.39
300.309	-17.58
300.523	-54.44
300.737	52.05
300.952	52.05
301.166	47.96
301.381	13.14
301.595	-46.25
301.809	33.62
302.024	-36.01
302.238	-5.29
302.452	56.15
302.667	7
302.881	-11.43
303.095	-5.29
303.309	25.43
303.524	35.67
303.738	35.67
303.952	23.38
304.166	111.44
304.381	-60.59
304.595	62.29
304.809	21.33
305.023	64.34
305.237	-3.24
305.452	27.48
305.666	76.63
305.88	82.77
306.094	4.95
306.308	37.72
306.522	52.05
306.736	88.92
306.95	72.53
307.164	37.72
307.379	29.52
307.593	62.29
307.807	31.57
308.021	23.38
308.235	9.05
308.449	17.24
308.663	54.1
308.877	101.2
309.091	64.34
309.305	7
309.519	45.91
309.733	60.24
309.947	-50.35
310.161	-21.67
310.374	68.44
310.588	64.34
310.802	-38.06
311.016	76.63
311.23	0.85
311.444	64.34
311.658	47.96
311.872	90.96
312.085	15.19
312.299	58.2
312.513	35.67
312.727	27.48
312.941	-38.06
313.154	15.19
313.368	105.3
313.582	23.38
313.796	39.76
314.009	19.29
314.223	23.38
314.437	39.76
314.651	56.15
314.864	11.09
315.078	15.19
315.292	29.52
315.505	31.57
315.719	27.48
315.933	-27.82
316.146	21.33
316.36	-11.43
316.573	47.96
316.787	39.76
317.001	13.14
317.214	39.76
317.428	154.45
317.641	31.57
317.855	19.29
318.068	56.15
318.282	-17.58
318.495	39.76
318.709	39.76
318.922	25.43
319.136	31.57
319.349	41.81
319.563	62.29
319.776	19.29
319.99	76.63
320.203	119.64
320.417	88.92
320.63	39.76
320.843	82.77
321.057	62.29
321.27	84.82
321.483	74.58
321.697	52.05
321.91	80.72
322.124	19.29
322.337	47.96
322.55	52.05
322.763	31.57
322.977	52.05
323.19	64.34
323.403	-17.58
323.617	60.24
323.83	31.57
324.043	54.1
324.256	37.72
324.469	66.39
324.683	123.73
324.896	-5.29
325.109	39.76
325.322	-25.77
325.535	29.52
325.748	47.96
325.962	-3.24
326.175	76.63
326.388	47.96
326.601	7
326.814	56.15
327.027	-1.19
327.24	64.34
327.453	-13.48
327.666	-3.24
327.879	45.91
328.092	117.59
328.305	23.38
328.518	68.44
328.731	-27.82
328.944	11.09
329.157	58.2
329.37	72.53
329.583	-19.63
329.796	13.14
330.009	52.05
330.222	47.96
330.435	7
330.648	62.29
330.861	52.05
331.073	95.06
331.286	58.2
331.499	2.9
331.712	-25.77
331.925	25.43
332.138	-33.96
332.35	11.09
332.563	7
332.776	72.53
332.989	84.82
333.202	-40.11
333.414	11.09
333.627	39.76
333.84	-29.87
334.053	-3.24
334.265	-21.67
334.478	31.57
334.691	43.86
334.903	-3.24
335.116	2.9
335.329	66.39
335.541	47.96
335.754	95.06
335.966	54.1
336.179	47.96
336.392	-21.67
336.604	66.39
336.817	-1.19
337.029	103.25
337.242	84.82
337.454	56.15
337.667	64.34
337.88	97.11
338.092	29.52
338.305	37.72
338.517	0.85
338.729	76.63
338.942	72.53
339.154	23.38
339.367	-25.77
339.579	80.72
339.792	76.63
340.004	93.01
340.217	86.87
340.429	58.2
340.641	-50.35
340.854	109.4
341.066	78.68
341.278	72.53
341.491	45.91
341.703	-50.35
341.915	13.14
342.128	66.39
342.34	74.58
342.552	4.95
342.764	27.48
342.977	-11.43
343.189	39.76
343.401	-17.58
343.613	11.09
343.826	52.05
344.038	35.67
344.25	68.44
344.462	-13.48
344.674	52.05
344.886	31.57
345.099	37.72
345.311	27.48
345.523	23.38
345.735	-3.24
345.947	39.76
346.159	-25.77
346.371	50
346.583	45.91
346.795	123.73
347.007	0.85
347.219	97.11
347.431	-27.82
347.643	33.62
347.855	25.43
348.067	45.91
348.279	0.85
348.491	84.82
348.703	35.67
348.915	37.72
349.127	45.91
349.339	88.92
349.551	-29.87
349.763	43.86
349.975	23.38
350.187	68.44
350.399	21.33
350.61	64.34
350.822	29.52
351.034	80.72
351.246	15.19
351.458	-11.43
351.669	62.29
351.881	37.72
352.093	80.72
352.305	80.72
352.517	90.96
352.728	64.34
352.94	74.58
353.152	95.06
353.363	-5.29
353.575	23.38
353.787	56.15
353.999	-11.43
354.21	56.15
354.422	2.9
354.633	-36.01
354.845	43.86
355.057	0.85
355.268	19.29
355.48	56.15
355.692	-17.58
355.903	-5.29
356.115	19.29
356.326	-27.82
356.538	39.76
356.749	78.68
356.961	97.11
357.172	39.76
357.384	27.48
357.595	29.52
357.807	23.38
358.018	-1.19
358.23	72.53
358.441	133.97
358.653	70.48
358.864	39.76
359.075	37.72
359.287	25.43
359.498	95.06
359.709	105.3
359.921	7
360.132	31.57
360.344	99.16
360.555	25.43
360.766	-1.19
360.977	-19.63
361.189	37.72
361.4	27.48
361.611	47.96
361.823	84.82
362.034	19.29
362.245	35.67
362.456	93.01
362.667	23.38
362.879	37.72
363.09	80.72
363.301	13.14
363.512	68.44
363.723	13.14
363.935	25.43
364.146	86.87
364.357	72.53
364.568	109.4
364.779	-42.15
364.99	23.38
365.201	43.86
365.412	-38.06
365.623	-29.87
365.834	39.76
366.045	60.24
366.256	52.05
366.467	123.73
366.678	52.05
366.889	68.44
367.1	43.86
367.311	58.2
367.522	23.38
367.733	-33.96
367.944	56.15
368.155	-1.19
368.366	58.2
368.577	70.48
368.788	105.3
368.999	31.57
369.209	109.4
369.42	72.53
369.631	72.53
369.842	37.72
370.053	17.24
370.264	105.3
370.474	15.19
370.685	45.91
370.896	23.38
371.107	78.68
371.317	31.57
371.528	43.86
371.739	68.44
371.95	-17.58
372.16	88.92
372.371	43.86
372.582	56.15
372.792	27.48
373.003	80.72
373.214	70.48
373.424	72.53
373.635	78.68
373.846	82.77
374.056	80.72
374.267	144.21
374.477	58.2
374.688	39.76
374.898	23.38
375.109	109.4
375.319	39.76
375.53	76.63
375.74	56.15
375.951	27.48
376.161	13.14
376.372	76.63
376.582	99.16
376.793	45.91
377.003	70.48
377.214	90.96
377.424	64.34
377.635	25.43
377.845	35.67
378.055	39.76
378.266	-46.25
378.476	74.58
378.686	37.72
378.897	-1.19
379.107	47.96
379.317	56.15
379.528	4.95
379.738	39.76
379.948	2.9
380.158	52.05
380.369	-5.29
380.579	113.49
380.789	56.15
380.999	39.76
381.21	105.3
381.42	103.25
381.63	50
381.84	97.11
382.05	39.76
382.261	70.48
382.471	113.49
382.681	-17.58
382.891	136.02
383.101	76.63
383.311	-62.63
383.521	29.52
383.731	58.2
383.941	129.88
384.151	21.33
384.361	129.88
384.571	-5.29
384.781	64.34
384.991	131.92
385.201	101.2
385.411	88.92
385.621	60.24
385.831	15.19
386.041	52.05
386.251	58.2
386.461	37.72
386.671	88.92
386.881	21.33
387.091	68.44
387.301	19.29
387.511	11.09
387.72	82.77
387.93	125.78
388.14	66.39
388.35	37.72
388.56	133.97
388.769	136.02
388.979	52.05
389.189	64.34
389.399	56.15
389.609	25.43
389.818	103.25
390.028	72.53
390.238	-11.43
390.447	84.82
390.657	123.73
390.867	9.05
391.076	-17.58
391.286	88.92
391.496	58.2
391.705	58.2
391.915	179.03
392.125	74.58
392.334	95.06
392.544	74.58
392.753	80.72
392.963	19.29
393.172	136.02
393.382	72.53
393.591	142.16
393.801	23.38
394.01	64.34
394.22	84.82
394.429	162.64
394.639	47.96
394.848	62.29
395.058	121.68
395.267	111.44
395.477	97.11
395.686	62.29
395.895	2.9
396.105	105.3
396.314	80.72
396.524	78.68
396.733	39.76
396.942	127.83
397.152	170.83
397.361	168.79
397.57	131.92
397.78	138.07
397.989	129.88
398.198	127.83
398.407	80.72
398.617	97.11
398.826	117.59
399.035	62.29
399.244	125.78
399.453	78.68
399.663	181.07
399.872	125.78
400.081	181.07
400.29	189.27
400.499	95.06
400.708	185.17
400.917	154.45
401.127	105.3
401.336	39.76
401.545	170.83
401.754	148.31
401.963	158.55
402.172	125.78
402.381	144.21
402.59	160.59
402.799	146.26
403.008	215.89
403.217	152.4
403.426	219.99
403.635	97.11
403.844	125.78
404.053	72.53
404.262	183.12
404.471	269.14
404.68	262.99
404.888	189.27
405.097	213.84
405.306	197.46
405.515	162.64
405.724	111.44
405.933	195.41
406.142	246.61
406.35	191.31
406.559	187.22
406.768	152.4
406.977	236.37
407.185	252.75
407.394	246.61
407.603	170.83
407.812	207.7
408.02	310.1
408.229	248.66
408.438	242.51
408.646	211.79
408.855	265.04
409.064	320.34
409.272	281.43
409.481	334.67
409.69	383.82
409.898	301.9
410.107	301.9
410.315	338.77
410.524	375.63
410.733	420.69
410.941	342.86
411.15	392.02
411.358	408.4
411.567	428.88
411.775	408.4
411.984	461.65
412.192	488.27
412.401	424.78
412.609	516.94
412.818	551.76
413.026	609.1
413.234	621.39
413.443	617.29
413.651	586.57
413.86	553.8
414.068	658.25
414.276	658.25
414.485	740.17
414.693	691.02
414.901	822.09
415.11	799.56
415.318	760.65
415.526	854.86
415.734	817.99
415.943	783.18
416.151	965.45
416.359	920.39
416.567	998.21
416.776	1035.08
416.984	1080.13
417.192	1088.32
417.4	1147.72
417.608	1162.05
417.817	1123.14
418.025	1190.72
418.233	1268.55
418.441	1260.35
418.649	1303.36
418.857	1381.18
419.065	1538.88
419.273	1420.1
419.481	1463.1
419.689	1626.94
419.897	1612.6
420.105	1690.43
420.313	1813.31
420.521	1796.92
420.729	1739.58
420.937	1839.93
421.145	2042.68
421.353	1968.95
421.561	2276.15
421.769	2188.08
421.977	2204.47
422.185	2249.52
422.393	2370.35
422.601	2536.24
422.809	2657.07
423.017	2579.25
423.224	2734.89
423.432	2765.61
423.64	2816.81
423.848	2984.74
424.056	3095.33
424.263	3238.69
424.471	3291.94
424.679	3283.75
424.887	3320.61
425.094	3478.3
425.302	3377.95
425.51	3562.27
425.718	3795.74
425.925	3867.42
426.133	3853.08
426.341	4234
426.548	4508.43
426.756	4293.4
426.964	4457.23
427.171	4565.78
427.379	4766.48
427.586	4774.67
427.794	4971.27
428.001	5192.45
428.209	5552.9
428.417	5290.76
428.624	5772.03
428.832	5675.77
429.039	5653.25
429.247	5788.41
429.454	6402.8
429.662	6656.75
429.869	6269.69
430.076	6793.97
430.284	6587.12
430.491	6988.52
430.699	7115.5
430.906	7285.48
431.114	7213.8
431.321	7543.52
431.528	7660.26
431.736	8039.13
431.943	8555.22
432.15	8450.77
432.358	8420.05
432.565	8819.41
432.772	9024.2
432.979	9364.17
433.187	9349.83
433.394	9601.73
433.601	10156.73
433.808	10160.83
434.016	10095.29
434.223	10375.86
434.43	11072.17
434.637	10941.1
434.844	11532.97
435.052	11887.26
435.259	11717.28
435.466	11877.02
435.673	11813.54
435.88	12825.23
436.087	13095.57
436.294	13277.83
436.501	12864.15
436.708	13097.61
436.915	13531.78
437.122	14092.93
437.329	14082.69
437.537	14557.82
437.743	14817.91
437.95	14746.23
438.157	15532.65
438.364	16011.87
438.571	15827.56
438.778	15837.8
438.985	17459.79
439.192	16851.54
439.399	17439.31
439.606	16853.59
439.813	17934.92
440.02	18831.93
440.227	18696.76
440.433	18438.72
440.64	19071.54
440.847	18987.57
441.054	19614.25
441.261	20605.47
441.467	20568.6
441.674	20843.03
441.881	21434.89
442.088	21320.21
442.294	21365.26
442.501	22143.49
442.708	22168.07
442.914	22997.49
443.121	24490.46
443.328	23849.45
443.534	25307.6
443.741	24734.17
443.948	23886.31
444.154	25706.96
444.361	26022.34
444.568	26102.22
444.774	26167.75
444.981	26229.19
445.187	26948.03
445.394	28240.29
445.6	28027.31
445.807	30595.46
446.013	28836.25
446.22	29567.38
446.426	30765.44
446.633	31144.31
446.839	31650.16
447.046	30626.18
447.252	32266.6
447.459	32883.04
447.665	32166.25
447.871	33421.66
448.078	34697.54
448.284	33120.6
448.491	33958.22
448.697	35356.99
448.903	35991.86
449.11	35848.5
449.316	35643.7
449.522	35971.38
449.728	37284.12
449.935	37290.27
450.141	37503.26
450.347	37781.78
450.553	37017.89
450.76	36950.31
450.966	38203.66
451.172	37904.66
451.378	38945.03
451.584	38156.56
451.791	39225.6
451.997	38586.63
452.203	39248.13
452.409	39244.03
452.615	39348.48
452.821	37734.68
453.027	37404.95
453.233	39479.55
453.44	37716.25
453.646	37959.95
453.852	38359.31
454.058	38920.45
454.264	37755.16
454.47	38015.25
454.676	37165.34
454.882	38486.28
455.088	35219.77
455.294	35694.9
455.5	36192.56
455.705	36569.38
455.911	34861.38
456.117	34347.34
456.323	33964.37
456.529	32088.43
456.735	33313.11
456.941	32676.19
457.147	31938.93
457.352	31009.15
457.558	30869.89
457.764	30505.35
457.97	30476.68
458.176	29432.21
458.381	29438.36
458.587	28041.64
458.793	27693.49
458.999	26763.71
459.204	28459.43
459.41	27666.86
459.616	25960.91
459.821	25913.8
460.027	25772.49
460.233	25098.71
460.438	24302.05
460.644	24365.54
460.85	23159.28
461.055	23003.64
461.261	22383.1
461.466	21240.34
461.672	20634.14
461.878	21862.92
462.083	20464.16
462.289	20183.59
462.494	19943.97
462.7	19167.79
462.905	18659.9
463.111	19485.23
463.316	19431.98
463.522	18932.28
463.727	19003.96
463.932	18819.64
464.138	18616.89
464.343	18879.03
464.549	18172.48
464.754	18692.66
464.959	18725.43
465.165	18410.04
465.37	17996.35
465.575	17068.62
465.781	18102.85
465.986	18195.01
466.191	17590.86
466.397	17119.82
466.602	16355.93
466.807	17025.62
467.012	16861.78
467.218	16929.36
467.423	16454.23
