Data from USB4F104151__270__10-40-40-335.txt Node

Date: Wed Mar 12 10:40:40 EDT 2025
User: louis
Spectrometer: USB4F10415
Trigger mode: 4
Integration Time (sec): 3.000000E-2
Scans to average: 1
Electric dark correction enabled: true
Nonlinearity correction enabled: false
Boxcar width: 0
XAxis mode: Wavelengths
Number of Pixels in Spectrum: 3648
>>>>>Begin Spectral Data<<<<<
178.204	-172.54
178.424	-172.54
178.644	-172.54
178.864	-154.11
179.084	-115.2
179.304	-10.75
179.524	-61.95
179.744	24.06
179.964	77.31
180.184	-0.51
180.404	15.87
180.624	-12.8
180.844	38.4
181.064	-82.43
181.283	-45.57
181.503	-12.8
181.723	71.17
181.943	-23.04
182.163	114.17
182.383	22.02
182.602	69.12
182.822	71.17
183.042	15.87
183.262	-2.56
183.482	-41.47
183.701	65.02
183.921	44.54
184.141	-4.61
184.361	38.4
184.58	73.21
184.8	13.82
185.02	-20.99
185.239	181.76
185.459	34.3
185.679	112.13
185.898	-10.75
186.118	122.37
186.338	56.83
186.557	44.54
186.777	71.17
186.997	22.02
187.216	-8.7
187.436	108.03
187.655	15.87
187.875	26.11
188.095	62.98
188.314	71.17
188.534	89.6
188.753	67.07
188.973	71.17
189.192	5.63
189.412	11.78
189.631	93.69
189.851	56.83
190.07	118.27
190.29	-8.7
190.509	44.54
190.729	-66.05
190.948	85.5
191.168	105.98
191.387	5.63
191.607	11.78
191.826	26.11
192.045	-57.86
192.265	-4.61
192.484	54.78
192.704	11.78
192.923	-25.09
193.142	108.03
193.362	99.84
193.581	62.98
193.8	48.64
194.02	7.68
194.239	3.58
194.458	-20.99
194.678	-12.8
194.897	108.03
195.116	46.59
195.335	67.07
195.555	-0.51
195.774	58.88
195.993	15.87
196.212	24.06
196.432	67.07
196.651	56.83
196.87	1.54
197.089	60.93
197.308	-2.56
197.528	-0.51
197.747	28.16
197.966	34.3
198.185	124.41
198.404	9.73
198.623	75.26
198.842	1.54
199.062	38.4
199.281	48.64
199.5	32.26
199.719	48.64
199.938	32.26
200.157	118.27
200.376	-4.61
200.595	65.02
200.814	58.88
201.033	112.13
201.252	101.89
201.471	97.79
201.69	71.17
201.909	85.5
202.128	50.69
202.347	5.63
202.566	19.97
202.785	-4.61
203.004	81.41
203.223	44.54
203.442	56.83
203.661	32.26
203.879	75.26
204.098	7.68
204.317	62.98
204.536	132.61
204.755	7.68
204.974	77.31
205.193	56.83
205.411	65.02
205.63	56.83
205.849	42.5
206.068	44.54
206.287	19.97
206.505	93.69
206.724	-16.9
206.943	93.69
207.162	50.69
207.381	34.3
207.599	-2.56
207.818	-27.14
208.037	40.45
208.255	52.74
208.474	7.68
208.693	36.35
208.911	44.54
209.13	91.65
209.349	60.93
209.567	65.02
209.786	120.32
210.005	114.17
210.223	97.79
210.442	-6.66
210.661	73.21
210.879	36.35
211.098	52.74
211.316	48.64
211.535	52.74
211.753	46.59
211.972	11.78
212.191	87.55
212.409	-35.33
212.628	-16.9
212.846	52.74
213.065	15.87
213.283	56.83
213.502	65.02
213.72	81.41
213.938	46.59
214.157	40.45
214.375	95.74
214.594	-16.9
214.812	44.54
215.031	19.97
215.249	34.3
215.467	73.21
215.686	-29.18
215.904	81.41
216.122	1.54
216.341	138.75
216.559	44.54
216.778	48.64
216.996	69.12
217.214	79.36
217.432	44.54
217.651	69.12
217.869	-10.75
218.087	44.54
218.306	-4.61
218.524	56.83
218.742	15.87
218.96	101.89
219.179	46.59
219.397	56.83
219.615	50.69
219.833	67.07
220.051	73.21
220.27	24.06
220.488	-33.28
220.706	44.54
220.924	89.6
221.142	-0.51
221.36	44.54
221.578	83.45
221.796	34.3
222.015	44.54
222.233	-0.51
222.451	28.16
222.669	36.35
222.887	99.84
223.105	44.54
223.323	42.5
223.541	42.5
223.759	81.41
223.977	7.68
224.195	105.98
224.413	-0.51
224.631	138.75
224.849	65.02
225.067	112.13
225.285	17.92
225.503	11.78
225.721	-45.57
225.939	116.22
226.157	48.64
226.375	118.27
226.592	15.87
226.81	122.37
227.028	48.64
227.246	91.65
227.464	52.74
227.682	1.54
227.9	13.82
228.117	85.5
228.335	22.02
228.553	58.88
228.771	46.59
228.989	69.12
229.206	87.55
229.424	22.02
229.642	46.59
229.86	87.55
230.077	114.17
230.295	24.06
230.513	9.73
230.731	85.5
230.948	65.02
231.166	85.5
231.384	38.4
231.601	40.45
231.819	132.61
232.037	-14.85
232.254	67.07
232.472	56.83
232.689	-49.66
232.907	71.17
233.125	103.93
233.342	54.78
233.56	-8.7
233.777	44.54
233.995	30.21
234.213	17.92
234.43	44.54
234.648	3.58
234.865	24.06
235.083	95.74
235.3	24.06
235.518	103.93
235.735	93.69
235.953	87.55
236.17	48.64
236.388	-14.85
236.605	5.63
236.822	65.02
237.04	75.26
237.257	13.82
237.475	46.59
237.692	40.45
237.909	36.35
238.127	44.54
238.344	-18.94
238.562	108.03
238.779	-14.85
238.996	-18.94
239.214	-6.66
239.431	46.59
239.648	83.45
239.865	83.45
240.083	103.93
240.3	38.4
240.517	32.26
240.735	-10.75
240.952	91.65
241.169	40.45
241.386	-0.51
241.603	67.07
241.821	9.73
242.038	30.21
242.255	67.07
242.472	-12.8
242.689	81.41
242.907	126.46
243.124	46.59
243.341	60.93
243.558	44.54
243.775	81.41
243.992	-29.18
244.209	85.5
244.426	11.78
244.643	17.92
244.86	24.06
245.078	112.13
245.295	38.4
245.512	56.83
245.729	81.41
245.946	124.41
246.163	26.11
246.38	-25.09
246.597	58.88
246.814	50.69
247.031	81.41
247.248	101.89
247.464	42.5
247.681	81.41
247.898	-68.09
248.115	56.83
248.332	46.59
248.549	71.17
248.766	97.79
248.983	81.41
249.2	89.6
249.417	15.87
249.633	69.12
249.85	17.92
250.067	65.02
250.284	-27.14
250.501	17.92
250.717	17.92
250.934	40.45
251.151	46.59
251.368	77.31
251.585	13.82
251.801	-25.09
252.018	40.45
252.235	118.27
252.451	19.97
252.668	54.78
252.885	56.83
253.102	-12.8
253.318	3.58
253.535	89.6
253.752	9.73
253.968	85.5
254.185	-4.61
254.401	65.02
254.618	75.26
254.835	48.64
255.051	89.6
255.268	67.07
255.484	101.89
255.701	30.21
255.917	15.87
256.134	30.21
256.351	11.78
256.567	67.07
256.784	24.06
257	52.74
257.217	48.64
257.433	155.13
257.65	77.31
257.866	-68.09
258.082	22.02
258.299	26.11
258.515	62.98
258.732	54.78
258.948	50.69
259.165	116.22
259.381	65.02
259.597	36.35
259.814	85.5
260.03	32.26
260.246	87.55
260.463	85.5
260.679	79.36
260.895	13.82
261.112	38.4
261.328	50.69
261.544	77.31
261.761	40.45
261.977	91.65
262.193	-41.47
262.409	81.41
262.626	71.17
262.842	124.41
263.058	26.11
263.274	48.64
263.49	3.58
263.707	36.35
263.923	75.26
264.139	22.02
264.355	65.02
264.571	77.31
264.787	32.26
265.004	50.69
265.22	112.13
265.436	44.54
265.652	-23.04
265.868	15.87
266.084	48.64
266.3	11.78
266.516	48.64
266.732	65.02
266.948	95.74
267.164	58.88
267.38	42.5
267.596	161.28
267.812	83.45
268.028	44.54
268.244	103.93
268.46	24.06
268.676	-16.9
268.892	67.07
269.108	24.06
269.324	30.21
269.54	-61.95
269.756	32.26
269.972	93.69
270.188	75.26
270.403	71.17
270.619	34.3
270.835	91.65
271.051	65.02
271.267	-16.9
271.483	1.54
271.698	118.27
271.914	89.6
272.13	62.98
272.346	65.02
272.562	32.26
272.777	89.6
272.993	15.87
273.209	67.07
273.425	44.54
273.64	34.3
273.856	52.74
274.072	28.16
274.287	44.54
274.503	118.27
274.719	58.88
274.934	26.11
275.15	62.98
275.366	-6.66
275.581	9.73
275.797	-0.51
276.012	132.61
276.228	-45.57
276.444	-16.9
276.659	87.55
276.875	-6.66
277.09	36.35
277.306	83.45
277.521	77.31
277.737	62.98
277.952	128.51
278.168	56.83
278.383	62.98
278.599	69.12
278.814	9.73
279.03	15.87
279.245	91.65
279.461	54.78
279.676	44.54
279.892	15.87
280.107	24.06
280.322	5.63
280.538	46.59
280.753	65.02
280.969	26.11
281.184	85.5
281.399	89.6
281.615	34.3
281.83	93.69
282.045	67.07
282.26	128.51
282.476	56.83
282.691	79.36
282.906	81.41
283.122	73.21
283.337	-16.9
283.552	62.98
283.767	32.26
283.983	67.07
284.198	-2.56
284.413	69.12
284.628	-12.8
284.843	75.26
285.058	62.98
285.274	-14.85
285.489	103.93
285.704	87.55
285.919	19.97
286.134	-4.61
286.349	26.11
286.564	89.6
286.779	19.97
286.995	36.35
287.21	-12.8
287.425	114.17
287.64	-33.28
287.855	52.74
288.07	26.11
288.285	77.31
288.5	30.21
288.715	-25.09
288.93	1.54
289.145	11.78
289.36	42.5
289.575	99.84
289.79	52.74
290.004	32.26
290.219	62.98
290.434	15.87
290.649	13.82
290.864	-16.9
291.079	44.54
291.294	38.4
291.509	85.5
291.724	9.73
291.938	79.36
292.153	75.26
292.368	13.82
292.583	-10.75
292.798	36.35
293.012	-12.8
293.227	48.64
293.442	56.83
293.657	15.87
293.871	1.54
294.086	62.98
294.301	134.65
294.516	157.18
294.73	87.55
294.945	52.74
295.16	97.79
295.374	77.31
295.589	73.21
295.804	-16.9
296.018	56.83
296.233	114.17
296.447	126.46
296.662	-68.09
296.877	54.78
297.091	-16.9
297.306	73.21
297.52	118.27
297.735	65.02
297.949	26.11
298.164	-0.51
298.378	73.21
298.593	81.41
298.807	32.26
299.022	19.97
299.236	56.83
299.451	71.17
299.665	99.84
299.88	73.21
300.094	142.85
300.309	19.97
300.523	77.31
300.737	67.07
300.952	28.16
301.166	116.22
301.381	69.12
301.595	-4.61
301.809	42.5
302.024	9.73
302.238	-29.18
302.452	120.32
302.667	9.73
302.881	40.45
303.095	87.55
303.309	62.98
303.524	89.6
303.738	22.02
303.952	69.12
304.166	36.35
304.381	-8.7
304.595	103.93
304.809	48.64
305.023	67.07
305.237	67.07
305.452	19.97
305.666	65.02
305.88	30.21
306.094	144.89
306.308	97.79
306.522	95.74
306.736	-14.85
306.95	24.06
307.164	3.58
307.379	-6.66
307.593	67.07
307.807	58.88
308.021	58.88
308.235	89.6
308.449	42.5
308.663	65.02
308.877	97.79
309.091	-0.51
309.305	11.78
309.519	22.02
309.733	112.13
309.947	67.07
310.161	44.54
310.374	32.26
310.588	87.55
310.802	-8.7
311.016	22.02
311.23	48.64
311.444	11.78
311.658	58.88
311.872	60.93
312.085	105.98
312.299	103.93
312.513	103.93
312.727	-33.28
312.941	-8.7
313.154	110.08
313.368	54.78
313.582	128.51
313.796	65.02
314.009	-37.38
314.223	85.5
314.437	-8.7
314.651	56.83
314.864	128.51
315.078	52.74
315.292	28.16
315.505	-35.33
315.719	124.41
315.933	40.45
316.146	-8.7
316.36	26.11
316.573	126.46
316.787	110.08
317.001	93.69
317.214	-25.09
317.428	93.69
317.641	15.87
317.855	89.6
318.068	52.74
318.282	79.36
318.495	89.6
318.709	83.45
318.922	40.45
319.136	140.8
319.349	65.02
319.563	62.98
319.776	81.41
319.99	28.16
320.203	30.21
320.417	93.69
320.63	67.07
320.843	19.97
321.057	52.74
321.27	105.98
321.483	101.89
321.697	85.5
321.91	79.36
322.124	58.88
322.337	67.07
322.55	89.6
322.763	-8.7
322.977	73.21
323.19	89.6
323.403	34.3
323.617	38.4
323.83	9.73
324.043	52.74
324.256	26.11
324.469	56.83
324.683	5.63
324.896	22.02
325.109	26.11
325.322	15.87
325.535	79.36
325.748	128.51
325.962	30.21
326.175	56.83
326.388	48.64
326.601	71.17
326.814	54.78
327.027	50.69
327.24	81.41
327.453	13.82
327.666	97.79
327.879	42.5
328.092	58.88
328.305	62.98
328.518	44.54
328.731	-14.85
328.944	77.31
329.157	114.17
329.37	62.98
329.583	85.5
329.796	110.08
330.009	-16.9
330.222	118.27
330.435	89.6
330.648	36.35
330.861	91.65
331.073	79.36
331.286	87.55
331.499	77.31
331.712	-20.99
331.925	3.58
332.138	48.64
332.35	97.79
332.563	73.21
332.776	13.82
332.989	42.5
333.202	-14.85
333.414	48.64
333.627	118.27
333.84	103.93
334.053	-14.85
334.265	24.06
334.478	85.5
334.691	36.35
334.903	60.93
335.116	3.58
335.329	81.41
335.541	19.97
335.754	85.5
335.966	95.74
336.179	48.64
336.392	28.16
336.604	-12.8
336.817	62.98
337.029	54.78
337.242	97.79
337.454	24.06
337.667	73.21
337.88	97.79
338.092	19.97
338.305	95.74
338.517	36.35
338.729	-12.8
338.942	52.74
339.154	-8.7
339.367	-2.56
339.579	46.59
339.792	48.64
340.004	120.32
340.217	19.97
340.429	32.26
340.641	-4.61
340.854	11.78
341.066	89.6
341.278	93.69
341.491	85.5
341.703	62.98
341.915	46.59
342.128	42.5
342.34	60.93
342.552	28.16
342.764	30.21
342.977	114.17
343.189	54.78
343.401	83.45
343.613	7.68
343.826	-25.09
344.038	38.4
344.25	24.06
344.462	56.83
344.674	108.03
344.886	97.79
345.099	122.37
345.311	3.58
345.523	22.02
345.735	-18.94
345.947	122.37
346.159	40.45
346.371	85.5
346.583	36.35
346.795	136.7
347.007	44.54
347.219	42.5
347.431	34.3
347.643	95.74
347.855	13.82
348.067	-0.51
348.279	97.79
348.491	13.82
348.703	97.79
348.915	-16.9
349.127	-57.86
349.339	13.82
349.551	34.3
349.763	177.66
349.975	-2.56
350.187	112.13
350.399	32.26
350.61	95.74
350.822	108.03
351.034	26.11
351.246	56.83
351.458	99.84
351.669	19.97
351.881	15.87
352.093	9.73
352.305	69.12
352.517	75.26
352.728	122.37
352.94	40.45
353.152	62.98
353.363	89.6
353.575	101.89
353.787	22.02
353.999	75.26
354.21	73.21
354.422	30.21
354.633	118.27
354.845	7.68
355.057	60.93
355.268	15.87
355.48	89.6
355.692	-39.42
355.903	7.68
356.115	56.83
356.326	19.97
356.538	112.13
356.749	108.03
356.961	67.07
357.172	30.21
357.384	97.79
357.595	87.55
357.807	50.69
358.018	36.35
358.23	7.68
358.441	48.64
358.653	114.17
358.864	28.16
359.075	44.54
359.287	46.59
359.498	108.03
359.709	46.59
359.921	71.17
360.132	-27.14
360.344	95.74
360.555	36.35
360.766	65.02
360.977	71.17
361.189	65.02
361.4	73.21
361.611	48.64
361.823	1.54
362.034	65.02
362.245	62.98
362.456	69.12
362.667	56.83
362.879	71.17
363.09	81.41
363.301	110.08
363.512	40.45
363.723	-2.56
363.935	73.21
364.146	19.97
364.357	83.45
364.568	77.31
364.779	52.74
364.99	192
365.201	54.78
365.412	75.26
365.623	22.02
365.834	79.36
366.045	71.17
366.256	91.65
366.467	93.69
366.678	54.78
366.889	73.21
367.1	83.45
367.311	120.32
367.522	99.84
367.733	101.89
367.944	112.13
368.155	79.36
368.366	95.74
368.577	97.79
368.788	77.31
368.999	3.58
369.209	48.64
369.42	52.74
369.631	138.75
369.842	50.69
370.053	-2.56
370.264	75.26
370.474	101.89
370.685	46.59
370.896	91.65
371.107	179.71
371.317	-2.56
371.528	-6.66
371.739	24.06
371.95	38.4
372.16	77.31
372.371	11.78
372.582	62.98
372.792	132.61
373.003	22.02
373.214	73.21
373.424	136.7
373.635	54.78
373.846	105.98
374.056	79.36
374.267	69.12
374.477	124.41
374.688	56.83
374.898	159.23
375.109	112.13
375.319	91.65
375.53	155.13
375.74	118.27
375.951	28.16
376.161	54.78
376.372	48.64
376.582	81.41
376.793	65.02
377.003	32.26
377.214	5.63
377.424	85.5
377.635	38.4
377.845	79.36
378.055	124.41
378.266	36.35
378.476	89.6
378.686	52.74
378.897	128.51
379.107	65.02
379.317	146.94
379.528	42.5
379.738	101.89
379.948	85.5
380.158	32.26
380.369	56.83
380.579	140.8
380.789	83.45
380.999	34.3
381.21	38.4
381.42	101.89
381.63	101.89
381.84	71.17
382.05	65.02
382.261	95.74
382.471	91.65
382.681	34.3
382.891	126.46
383.101	17.92
383.311	91.65
383.521	126.46
383.731	105.98
383.941	52.74
384.151	93.69
384.361	56.83
384.571	87.55
384.781	52.74
384.991	48.64
385.201	114.17
385.411	56.83
385.621	93.69
385.831	97.79
386.041	69.12
386.251	81.41
386.461	93.69
386.671	93.69
386.881	101.89
387.091	73.21
387.301	128.51
387.511	24.06
387.72	69.12
387.93	138.75
388.14	40.45
388.35	60.93
388.56	122.37
388.769	65.02
388.979	81.41
389.189	26.11
389.399	73.21
389.609	103.93
389.818	157.18
390.028	81.41
390.238	40.45
390.447	-35.33
390.657	140.8
390.867	87.55
391.076	73.21
391.286	163.33
391.496	73.21
391.705	103.93
391.915	124.41
392.125	114.17
392.334	58.88
392.544	103.93
392.753	85.5
392.963	93.69
393.172	159.23
393.382	65.02
393.591	140.8
393.801	56.83
394.01	122.37
394.22	179.71
394.429	87.55
394.639	134.65
394.848	122.37
395.058	169.47
395.267	83.45
395.477	163.33
395.686	85.5
395.895	116.22
396.105	183.81
396.314	208.38
396.524	62.98
396.733	196.09
396.942	136.7
397.152	130.56
397.361	140.8
397.57	91.65
397.78	89.6
397.989	155.13
398.198	146.94
398.407	95.74
398.617	187.9
398.826	171.52
399.035	146.94
399.244	163.33
399.453	153.09
399.663	130.56
399.872	171.52
400.081	110.08
400.29	58.88
400.499	148.99
400.708	177.66
400.917	163.33
401.127	198.14
401.336	216.57
401.545	155.13
401.754	214.52
401.963	196.09
402.172	155.13
402.381	89.6
402.59	142.85
402.799	142.85
403.008	144.89
403.217	192
403.426	185.85
403.635	116.22
403.844	153.09
404.053	196.09
404.262	105.98
404.471	179.71
404.68	202.24
404.888	169.47
405.097	161.28
405.306	169.47
405.515	247.29
405.724	179.71
405.933	247.29
406.142	251.39
406.35	269.82
406.559	237.05
406.768	265.72
406.977	237.05
407.185	212.48
407.394	208.38
407.603	232.96
407.812	286.2
408.02	294.4
408.229	257.53
408.438	261.63
408.646	214.52
408.855	325.12
409.064	345.59
409.272	286.2
409.481	310.78
409.69	349.69
409.898	357.88
410.107	366.07
410.315	368.12
410.524	376.31
410.733	278.01
410.941	437.75
411.15	482.81
411.358	433.66
411.567	491
411.775	437.75
411.984	437.75
412.192	454.14
412.401	482.81
412.609	501.24
412.818	564.73
413.026	589.3
413.234	589.3
413.443	652.79
413.651	669.17
413.86	656.89
414.068	753.14
414.276	777.72
414.485	665.08
414.693	790
414.901	740.85
415.11	820.72
415.318	812.53
415.526	892.4
415.734	835.06
415.943	990.7
416.151	953.84
416.359	908.79
416.567	1011.18
416.776	1080.82
416.984	1107.44
417.192	1089.01
417.4	1162.73
417.608	1134.06
417.817	1168.88
418.025	1209.84
418.233	1428.97
418.441	1439.21
418.649	1392.11
418.857	1435.11
419.065	1568.23
419.273	1461.74
419.481	1543.66
419.689	1637.86
419.897	1775.08
420.105	1789.41
420.313	1779.17
420.521	1916.39
420.729	1945.06
420.937	2043.36
421.145	2067.94
421.353	2063.84
421.561	2256.35
421.769	2338.27
421.977	2434.52
422.185	2414.04
422.393	2506.2
422.601	2698.71
422.809	2573.78
423.017	2610.65
423.224	2784.73
423.432	2956.75
423.64	2973.14
423.848	3282.38
424.056	3227.09
424.263	3313.1
424.471	3343.82
424.679	3427.79
424.887	3632.58
425.094	3659.21
425.302	3802.57
425.51	3812.81
425.718	3993.03
425.925	4009.41
426.133	4302.27
426.341	4410.81
426.548	4722.1
426.756	4728.25
426.964	4603.32
427.171	5019.06
427.379	5080.5
427.586	5082.55
427.794	5459.37
428.001	5686.7
428.209	5805.48
428.417	5764.52
428.624	6096.29
428.832	6057.38
429.039	6294.94
429.247	6137.25
429.454	6682.01
429.662	7232.91
429.869	6706.59
430.076	7191.95
430.284	6999.45
430.491	7267.73
430.699	7640.46
430.906	7673.23
431.114	7906.7
431.321	8166.79
431.528	8322.43
431.736	8531.33
431.943	9184.63
432.15	8846.71
432.358	9016.69
432.565	9624.94
432.772	9510.25
432.979	9950.57
433.187	10087.78
433.394	10220.9
433.601	10997.08
433.808	10775.9
434.016	10714.46
434.223	11291.99
434.43	12182.85
434.637	11869.51
434.844	12596.54
435.052	12733.76
435.259	12688.7
435.466	12670.27
435.673	12739.9
435.88	13516.08
436.087	13950.25
436.294	14107.94
436.501	13915.44
436.708	14208.3
436.915	14634.27
437.122	15164.7
437.329	15215.9
437.537	15844.62
437.743	16149.77
437.95	15928.59
438.157	16749.82
438.364	17124.6
438.571	17263.86
438.778	17237.24
438.985	18996.45
439.192	18011.37
439.399	18822.37
439.606	18502.89
439.813	19371.22
440.02	20780.23
440.227	20133.07
440.433	20024.53
440.64	20694.21
440.847	20587.72
441.054	21400.76
441.261	22178.99
441.467	22269.1
441.674	22961.31
441.881	23534.74
442.088	23458.97
442.294	23454.87
442.501	23839.89
442.708	24396.94
442.914	25377.92
443.121	25965.68
443.328	25652.34
443.534	27810.9
443.741	26584.17
443.948	26315.89
444.154	28392.53
444.361	27872.34
444.568	28476.49
444.774	28075.09
444.981	28326.99
445.187	29570.11
445.394	30475.31
445.6	30020.66
445.807	33041.42
446.013	32007.19
446.22	32486.42
446.426	33494.02
446.633	33907.71
446.839	34702.32
447.046	33348.61
447.252	35415.01
447.459	35603.42
447.665	34835.44
447.871	36574.16
448.078	38171.58
448.284	36361.17
448.491	37254.09
448.697	38605.75
448.903	39424.93
449.11	39420.84
449.316	38706.1
449.522	39576.48
449.728	40674.2
449.935	40643.48
450.141	40907.66
450.347	41546.63
450.553	40221.59
450.76	40725.39
450.966	41522.05
451.172	41255.82
451.378	42386.3
451.584	41249.67
451.791	42466.17
451.997	42054.53
452.203	43002.74
452.409	42828.66
452.615	42367.87
452.821	41216.91
453.027	40522.65
453.233	42380.15
453.44	40786.83
453.646	41169.8
453.852	41644.93
454.058	42115.97
454.264	40399.77
454.47	41452.42
454.676	40596.37
454.882	41851.78
455.088	37905.34
455.294	38628.27
455.5	38933.42
455.705	39363.5
455.911	37815.23
456.117	37012.43
456.323	36465.62
456.529	34675.69
456.735	36076.51
456.941	34937.83
457.147	34431.99
457.352	33672.19
457.558	33197.06
457.764	32875.53
457.97	32349.2
458.176	31392.8
458.381	31630.37
458.587	30204.98
458.793	29979.7
458.999	28771.4
459.204	30454.83
459.41	30022.71
459.616	27667.55
459.821	27688.03
460.027	27587.68
460.233	26999.91
460.438	25752.7
460.644	25943.16
460.85	24771.72
461.055	24642.7
461.261	24540.3
461.466	22549.67
461.672	21796.02
461.878	23354.52
462.083	22197.42
462.289	21583.03
462.494	21318.84
462.7	20798.66
462.905	19844.31
463.111	20653.25
463.316	20593.86
463.522	20454.6
463.727	20151.5
463.932	20227.28
464.138	20059.34
464.343	19922.13
464.549	19586.26
464.754	20221.13
464.959	20167.88
465.165	19932.37
465.37	19492.05
465.575	18803.94
465.781	19397.85
465.986	19610.84
466.191	18654.44
466.397	18531.56
466.602	17583.35
466.807	18396.39
467.012	18357.48
