Data from USB4F104151__296__10-43-21-695.txt Node

Date: Wed Mar 12 10:43:21 EDT 2025
User: louis
Spectrometer: USB4F10415
Trigger mode: 4
Integration Time (sec): 3.000000E-2
Scans to average: 1
Electric dark correction enabled: true
Nonlinearity correction enabled: false
Boxcar width: 0
XAxis mode: Wavelengths
Number of Pixels in Spectrum: 3648
>>>>>Begin Spectral Data<<<<<
178.204	-90.62
178.424	-90.62
178.644	-90.62
178.864	-117.25
179.084	-76.29
179.304	44.54
179.524	-37.38
179.744	1.54
179.964	30.21
180.184	-43.52
180.404	30.21
180.624	50.69
180.844	3.58
181.064	-47.62
181.283	-37.38
181.503	-2.56
181.723	7.68
181.943	-53.76
182.163	48.64
182.383	62.98
182.602	93.69
182.822	67.07
183.042	-20.99
183.262	15.87
183.482	48.64
183.701	65.02
183.921	-10.75
184.141	-72.19
184.361	108.03
184.58	65.02
184.8	89.6
185.02	46.59
185.239	56.83
185.459	62.98
185.679	91.65
185.898	-20.99
186.118	44.54
186.338	65.02
186.557	50.69
186.777	17.92
186.997	-12.8
187.216	-31.23
187.436	36.35
187.655	46.59
187.875	62.98
188.095	28.16
188.314	103.93
188.534	112.13
188.753	17.92
188.973	36.35
189.192	95.74
189.412	46.59
189.631	13.82
189.851	-12.8
190.07	73.21
190.29	-55.81
190.509	-4.61
190.729	1.54
190.948	65.02
191.168	128.51
191.387	46.59
191.607	-25.09
191.826	50.69
192.045	38.4
192.265	-70.14
192.484	99.84
192.704	-31.23
192.923	-20.99
193.142	11.78
193.362	89.6
193.581	17.92
193.8	17.92
194.02	67.07
194.239	91.65
194.458	24.06
194.678	48.64
194.897	87.55
195.116	36.35
195.335	-0.51
195.555	71.17
195.774	5.63
195.993	36.35
196.212	38.4
196.432	28.16
196.651	24.06
196.87	73.21
197.089	13.82
197.308	83.45
197.528	87.55
197.747	17.92
197.966	13.82
198.185	138.75
198.404	60.93
198.623	34.3
198.842	75.26
199.062	65.02
199.281	99.84
199.5	46.59
199.719	24.06
199.938	56.83
200.157	91.65
200.376	77.31
200.595	7.68
200.814	89.6
201.033	-74.24
201.252	77.31
201.471	97.79
201.69	89.6
201.909	54.78
202.128	11.78
202.347	9.73
202.566	22.02
202.785	5.63
203.004	50.69
203.223	132.61
203.442	5.63
203.661	40.45
203.879	36.35
204.098	91.65
204.317	5.63
204.536	52.74
204.755	77.31
204.974	103.93
205.193	75.26
205.411	91.65
205.63	-49.66
205.849	52.74
206.068	7.68
206.287	9.73
206.505	81.41
206.724	79.36
206.943	3.58
207.162	22.02
207.381	19.97
207.599	1.54
207.818	77.31
208.037	15.87
208.255	38.4
208.474	22.02
208.693	67.07
208.911	71.17
209.13	-16.9
209.349	5.63
209.567	56.83
209.786	67.07
210.005	5.63
210.223	3.58
210.442	-37.38
210.661	65.02
210.879	-2.56
211.098	46.59
211.316	85.5
211.535	40.45
211.753	-16.9
211.972	32.26
212.191	-84.48
212.409	60.93
212.628	-29.18
212.846	19.97
213.065	126.46
213.283	26.11
213.502	22.02
213.72	26.11
213.938	73.21
214.157	62.98
214.375	-2.56
214.594	46.59
214.812	73.21
215.031	81.41
215.249	17.92
215.467	91.65
215.686	58.88
215.904	32.26
216.122	36.35
216.341	36.35
216.559	22.02
216.778	58.88
216.996	93.69
217.214	-4.61
217.432	52.74
217.651	-37.38
217.869	-27.14
218.087	11.78
218.306	48.64
218.524	15.87
218.742	1.54
218.96	7.68
219.179	26.11
219.397	1.54
219.615	77.31
219.833	124.41
220.051	65.02
220.27	62.98
220.488	-23.04
220.706	44.54
220.924	83.45
221.142	5.63
221.36	1.54
221.578	124.41
221.796	-0.51
222.015	30.21
222.233	30.21
222.451	36.35
222.669	26.11
222.887	67.07
223.105	101.89
223.323	97.79
223.541	28.16
223.759	13.82
223.977	83.45
224.195	52.74
224.413	99.84
224.631	65.02
224.849	75.26
225.067	87.55
225.285	36.35
225.503	30.21
225.721	19.97
225.939	97.79
226.157	30.21
226.375	144.89
226.592	22.02
226.81	34.3
227.028	40.45
227.246	132.61
227.464	22.02
227.682	79.36
227.9	69.12
228.117	69.12
228.335	34.3
228.553	58.88
228.771	67.07
228.989	65.02
229.206	9.73
229.424	26.11
229.642	1.54
229.86	140.8
230.077	38.4
230.295	13.82
230.513	-6.66
230.731	128.51
230.948	38.4
231.166	50.69
231.384	83.45
231.601	-23.04
231.819	110.08
232.037	-37.38
232.254	79.36
232.472	22.02
232.689	-27.14
232.907	132.61
233.125	40.45
233.342	-25.09
233.56	65.02
233.777	116.22
233.995	79.36
234.213	36.35
234.43	24.06
234.648	38.4
234.865	-35.33
235.083	124.41
235.3	19.97
235.518	-33.28
235.735	101.89
235.953	56.83
236.17	44.54
236.388	15.87
236.605	22.02
236.822	83.45
237.04	65.02
237.257	91.65
237.475	-0.51
237.692	15.87
237.909	28.16
238.127	11.78
238.344	5.63
238.562	93.69
238.779	122.37
238.996	5.63
239.214	89.6
239.431	73.21
239.648	38.4
239.865	52.74
240.083	-0.51
240.3	34.3
240.517	15.87
240.735	67.07
240.952	42.5
241.169	99.84
241.386	-35.33
241.603	60.93
241.821	79.36
242.038	103.93
242.255	89.6
242.472	60.93
242.689	-12.8
242.907	-14.85
243.124	42.5
243.341	-31.23
243.558	28.16
243.775	42.5
243.992	-31.23
244.209	42.5
244.426	77.31
244.643	101.89
244.86	34.3
245.078	69.12
245.295	34.3
245.512	79.36
245.729	36.35
245.946	83.45
246.163	46.59
246.38	62.98
246.597	67.07
246.814	-2.56
247.031	91.65
247.248	40.45
247.464	71.17
247.681	-45.57
247.898	40.45
248.115	118.27
248.332	36.35
248.549	69.12
248.766	30.21
248.983	11.78
249.2	75.26
249.417	73.21
249.633	26.11
249.85	52.74
250.067	83.45
250.284	118.27
250.501	65.02
250.717	46.59
250.934	-10.75
251.151	48.64
251.368	38.4
251.585	52.74
251.801	93.69
252.018	69.12
252.235	44.54
252.451	22.02
252.668	-6.66
252.885	91.65
253.102	73.21
253.318	118.27
253.535	128.51
253.752	56.83
253.968	30.21
254.185	89.6
254.401	83.45
254.618	89.6
254.835	-14.85
255.051	67.07
255.268	34.3
255.484	165.37
255.701	19.97
255.917	54.78
256.134	62.98
256.351	-8.7
256.567	36.35
256.784	7.68
257	-39.42
257.217	65.02
257.433	67.07
257.65	118.27
257.866	136.7
258.082	3.58
258.299	81.41
258.515	52.74
258.732	38.4
258.948	65.02
259.165	87.55
259.381	91.65
259.597	36.35
259.814	42.5
260.03	15.87
260.246	71.17
260.463	75.26
260.679	-14.85
260.895	28.16
261.112	99.84
261.328	26.11
261.544	50.69
261.761	91.65
261.977	1.54
262.193	112.13
262.409	58.88
262.626	95.74
262.842	108.03
263.058	7.68
263.274	52.74
263.49	46.59
263.707	58.88
263.923	28.16
264.139	44.54
264.355	75.26
264.571	97.79
264.787	67.07
265.004	69.12
265.22	26.11
265.436	54.78
265.652	22.02
265.868	120.32
266.084	54.78
266.3	30.21
266.516	15.87
266.732	73.21
266.948	46.59
267.164	108.03
267.38	-10.75
267.596	44.54
267.812	116.22
268.028	112.13
268.244	91.65
268.46	26.11
268.676	15.87
268.892	67.07
269.108	69.12
269.324	50.69
269.54	13.82
269.756	54.78
269.972	5.63
270.188	87.55
270.403	65.02
270.619	105.98
270.835	-10.75
271.051	122.37
271.267	75.26
271.483	71.17
271.698	15.87
271.914	-23.04
272.13	-0.51
272.346	67.07
272.562	48.64
272.777	-29.18
272.993	-14.85
273.209	32.26
273.425	-10.75
273.64	5.63
273.856	116.22
274.072	50.69
274.287	-35.33
274.503	83.45
274.719	-8.7
274.934	17.92
275.15	50.69
275.366	69.12
275.581	99.84
275.797	22.02
276.012	71.17
276.228	40.45
276.444	58.88
276.659	130.56
276.875	50.69
277.09	95.74
277.306	56.83
277.521	3.58
277.737	44.54
277.952	-0.51
278.168	15.87
278.383	79.36
278.599	60.93
278.814	30.21
279.03	36.35
279.245	120.32
279.461	50.69
279.676	124.41
279.892	26.11
280.107	5.63
280.322	116.22
280.538	58.88
280.753	73.21
280.969	69.12
281.184	65.02
281.399	7.68
281.615	13.82
281.83	85.5
282.045	42.5
282.26	79.36
282.476	81.41
282.691	54.78
282.906	17.92
283.122	42.5
283.337	110.08
283.552	34.3
283.767	103.93
283.983	44.54
284.198	22.02
284.413	144.89
284.628	-8.7
284.843	24.06
285.058	-55.81
285.274	17.92
285.489	65.02
285.704	116.22
285.919	42.5
286.134	89.6
286.349	99.84
286.564	73.21
286.779	99.84
286.995	71.17
287.21	28.16
287.425	40.45
287.64	40.45
287.855	58.88
288.07	-4.61
288.285	95.74
288.5	112.13
288.715	103.93
288.93	89.6
289.145	48.64
289.36	22.02
289.575	11.78
289.79	40.45
290.004	62.98
290.219	95.74
290.434	1.54
290.649	71.17
290.864	91.65
291.079	44.54
291.294	58.88
291.509	95.74
291.724	44.54
291.938	-23.04
292.153	44.54
292.368	75.26
292.583	112.13
292.798	34.3
293.012	142.85
293.227	60.93
293.442	34.3
293.657	91.65
293.871	-14.85
294.086	91.65
294.301	91.65
294.516	65.02
294.73	-29.18
294.945	-27.14
295.16	30.21
295.374	32.26
295.589	58.88
295.804	50.69
296.018	34.3
296.233	79.36
296.447	58.88
296.662	38.4
296.877	99.84
297.091	22.02
297.306	32.26
297.52	26.11
297.735	69.12
297.949	95.74
298.164	112.13
298.378	-39.42
298.593	83.45
298.807	7.68
299.022	62.98
299.236	128.51
299.451	75.26
299.665	50.69
299.88	71.17
300.094	58.88
300.309	7.68
300.523	87.55
300.737	38.4
300.952	75.26
301.166	54.78
301.381	15.87
301.595	71.17
301.809	99.84
302.024	54.78
302.238	46.59
302.452	134.65
302.667	50.69
302.881	136.7
303.095	28.16
303.309	114.17
303.524	28.16
303.738	93.69
303.952	54.78
304.166	130.56
304.381	36.35
304.595	91.65
304.809	58.88
305.023	11.78
305.237	9.73
305.452	-16.9
305.666	34.3
305.88	126.46
306.094	34.3
306.308	128.51
306.522	3.58
306.736	48.64
306.95	128.51
307.164	34.3
307.379	-16.9
307.593	75.26
307.807	50.69
308.021	81.41
308.235	73.21
308.449	42.5
308.663	65.02
308.877	42.5
309.091	58.88
309.305	-4.61
309.519	26.11
309.733	71.17
309.947	3.58
310.161	71.17
310.374	54.78
310.588	83.45
310.802	81.41
311.016	77.31
311.23	71.17
311.444	42.5
311.658	69.12
311.872	65.02
312.085	83.45
312.299	73.21
312.513	48.64
312.727	73.21
312.941	-8.7
313.154	26.11
313.368	58.88
313.582	75.26
313.796	-49.66
314.009	42.5
314.223	148.99
314.437	85.5
314.651	50.69
314.864	24.06
315.078	69.12
315.292	-25.09
315.505	19.97
315.719	26.11
315.933	40.45
316.146	85.5
316.36	11.78
316.573	83.45
316.787	13.82
317.001	91.65
317.214	38.4
317.428	48.64
317.641	19.97
317.855	42.5
318.068	118.27
318.282	97.79
318.495	99.84
318.709	73.21
318.922	-10.75
319.136	93.69
319.349	36.35
319.563	75.26
319.776	69.12
319.99	40.45
320.203	83.45
320.417	50.69
320.63	97.79
320.843	124.41
321.057	105.98
321.27	65.02
321.483	75.26
321.697	52.74
321.91	79.36
322.124	-53.76
322.337	40.45
322.55	52.74
322.763	93.69
322.977	65.02
323.19	15.87
323.403	60.93
323.617	97.79
323.83	40.45
324.043	13.82
324.256	87.55
324.469	58.88
324.683	79.36
324.896	-18.94
325.109	30.21
325.322	34.3
325.535	114.17
325.748	105.98
325.962	58.88
326.175	79.36
326.388	-6.66
326.601	65.02
326.814	69.12
327.027	75.26
327.24	114.17
327.453	15.87
327.666	42.5
327.879	28.16
328.092	75.26
328.305	103.93
328.518	148.99
328.731	19.97
328.944	60.93
329.157	91.65
329.37	26.11
329.583	91.65
329.796	89.6
330.009	-37.38
330.222	97.79
330.435	46.59
330.648	87.55
330.861	60.93
331.073	69.12
331.286	58.88
331.499	118.27
331.712	26.11
331.925	38.4
332.138	65.02
332.35	17.92
332.563	73.21
332.776	60.93
332.989	1.54
333.202	54.78
333.414	89.6
333.627	22.02
333.84	50.69
334.053	91.65
334.265	75.26
334.478	-10.75
334.691	79.36
334.903	58.88
335.116	50.69
335.329	71.17
335.541	32.26
335.754	146.94
335.966	118.27
336.179	50.69
336.392	67.07
336.604	85.5
336.817	75.26
337.029	101.89
337.242	67.07
337.454	95.74
337.667	22.02
337.88	132.61
338.092	69.12
338.305	120.32
338.517	32.26
338.729	26.11
338.942	118.27
339.154	46.59
339.367	-0.51
339.579	99.84
339.792	3.58
340.004	85.5
340.217	114.17
340.429	120.32
340.641	54.78
340.854	58.88
341.066	69.12
341.278	144.89
341.491	71.17
341.703	134.65
341.915	28.16
342.128	126.46
342.34	116.22
342.552	116.22
342.764	28.16
342.977	85.5
343.189	54.78
343.401	67.07
343.613	5.63
343.826	44.54
344.038	60.93
344.25	114.17
344.462	11.78
344.674	105.98
344.886	95.74
345.099	95.74
345.311	19.97
345.523	-14.85
345.735	7.68
345.947	110.08
346.159	77.31
346.371	101.89
346.583	40.45
346.795	114.17
347.007	67.07
347.219	120.32
347.431	85.5
347.643	134.65
347.855	67.07
348.067	93.69
348.279	65.02
348.491	34.3
348.703	112.13
348.915	38.4
349.127	67.07
349.339	114.17
349.551	5.63
349.763	130.56
349.975	91.65
350.187	116.22
350.399	163.33
350.61	26.11
350.822	17.92
351.034	58.88
351.246	26.11
351.458	114.17
351.669	83.45
351.881	122.37
352.093	124.41
352.305	60.93
352.517	19.97
352.728	99.84
352.94	89.6
353.152	38.4
353.363	17.92
353.575	67.07
353.787	118.27
353.999	-2.56
354.21	58.88
354.422	105.98
354.633	-12.8
354.845	60.93
355.057	15.87
355.268	95.74
355.48	101.89
355.692	38.4
355.903	77.31
356.115	42.5
356.326	56.83
356.538	83.45
356.749	58.88
356.961	77.31
357.172	83.45
357.384	73.21
357.595	93.69
357.807	112.13
358.018	40.45
358.23	7.68
358.441	132.61
358.653	62.98
358.864	1.54
359.075	-0.51
359.287	42.5
359.498	89.6
359.709	73.21
359.921	75.26
360.132	34.3
360.344	99.84
360.555	-72.19
360.766	112.13
360.977	44.54
361.189	81.41
361.4	56.83
361.611	67.07
361.823	108.03
362.034	81.41
362.245	-0.51
362.456	17.92
362.667	108.03
362.879	-41.47
363.09	34.3
363.301	52.74
363.512	-8.7
363.723	77.31
363.935	48.64
364.146	128.51
364.357	15.87
364.568	120.32
364.779	42.5
364.99	67.07
365.201	-35.33
365.412	124.41
365.623	3.58
365.834	85.5
366.045	50.69
366.256	85.5
366.467	-0.51
366.678	9.73
366.889	46.59
367.1	48.64
367.311	36.35
367.522	-6.66
367.733	69.12
367.944	112.13
368.155	19.97
368.366	120.32
368.577	38.4
368.788	97.79
368.999	34.3
369.209	75.26
369.42	50.69
369.631	128.51
369.842	62.98
370.053	48.64
370.264	97.79
370.474	91.65
370.685	50.69
370.896	75.26
371.107	67.07
371.317	62.98
371.528	83.45
371.739	144.89
371.95	28.16
372.16	118.27
372.371	-2.56
372.582	50.69
372.792	97.79
373.003	91.65
373.214	67.07
373.424	134.65
373.635	73.21
373.846	71.17
374.056	95.74
374.267	148.99
374.477	87.55
374.688	50.69
374.898	22.02
375.109	116.22
375.319	40.45
375.53	110.08
375.74	62.98
375.951	89.6
376.161	69.12
376.372	101.89
376.582	11.78
376.793	130.56
377.003	85.5
377.214	69.12
377.424	73.21
377.635	85.5
377.845	95.74
378.055	163.33
378.266	163.33
378.476	83.45
378.686	26.11
378.897	67.07
379.107	93.69
379.317	30.21
379.528	79.36
379.738	69.12
379.948	40.45
380.158	85.5
380.369	126.46
380.579	95.74
380.789	40.45
380.999	118.27
381.21	95.74
381.42	108.03
381.63	52.74
381.84	108.03
382.05	77.31
382.261	108.03
382.471	69.12
382.681	65.02
382.891	75.26
383.101	46.59
383.311	60.93
383.521	132.61
383.731	159.23
383.941	118.27
384.151	42.5
384.361	85.5
384.571	95.74
384.781	24.06
384.991	54.78
385.201	114.17
385.411	108.03
385.621	67.07
385.831	69.12
386.041	110.08
386.251	-18.94
386.461	38.4
386.671	140.8
386.881	114.17
387.091	44.54
387.301	165.37
387.511	46.59
387.72	83.45
387.93	112.13
388.14	75.26
388.35	83.45
388.56	175.61
388.769	85.5
388.979	110.08
389.189	17.92
389.399	40.45
389.609	87.55
389.818	148.99
390.028	32.26
390.238	99.84
390.447	28.16
390.657	114.17
390.867	42.5
391.076	101.89
391.286	153.09
391.496	79.36
391.705	65.02
391.915	99.84
392.125	87.55
392.334	28.16
392.544	79.36
392.753	118.27
392.963	75.26
393.172	189.95
393.382	67.07
393.591	155.13
393.801	34.3
394.01	130.56
394.22	87.55
394.429	153.09
394.639	128.51
394.848	179.71
395.058	148.99
395.267	73.21
395.477	144.89
395.686	108.03
395.895	185.85
396.105	165.37
396.314	128.51
396.524	79.36
396.733	36.35
396.942	101.89
397.152	40.45
397.361	142.85
397.57	126.46
397.78	153.09
397.989	136.7
398.198	177.66
398.407	140.8
398.617	132.61
398.826	91.65
399.035	95.74
399.244	144.89
399.453	192
399.663	167.42
399.872	235
400.081	124.41
400.29	159.23
400.499	140.8
400.708	79.36
400.917	30.21
401.127	83.45
401.336	97.79
401.545	167.42
401.754	175.61
401.963	183.81
402.172	224.76
402.381	85.5
402.59	99.84
402.799	177.66
403.008	198.14
403.217	218.62
403.426	185.85
403.635	101.89
403.844	171.52
404.053	140.8
404.262	196.09
404.471	239.1
404.68	91.65
404.888	144.89
405.097	175.61
405.306	308.73
405.515	208.38
405.724	116.22
405.933	206.33
406.142	230.91
406.35	251.39
406.559	208.38
406.768	181.76
406.977	210.43
407.185	226.81
407.394	226.81
407.603	237.05
407.812	331.26
408.02	306.68
408.229	255.48
408.438	329.21
408.646	224.76
408.855	316.92
409.064	302.59
409.272	247.29
409.481	357.88
409.69	273.92
409.898	278.01
410.107	374.27
410.315	388.6
410.524	308.73
410.733	486.9
410.941	396.79
411.15	452.09
411.358	435.71
411.567	503.29
411.775	458.23
411.984	480.76
412.192	466.42
412.401	429.56
412.609	579.06
412.818	656.89
413.026	591.35
413.234	591.35
413.443	550.39
413.651	589.3
413.86	611.83
414.068	677.37
414.276	751.09
414.485	703.99
414.693	783.86
414.901	828.92
415.11	771.57
415.318	820.72
415.526	892.4
415.734	843.25
415.943	896.5
416.151	914.93
416.359	957.94
416.567	996.85
416.776	921.07
416.984	1021.42
417.192	1056.24
417.4	1082.86
417.608	1093.1
417.817	1121.77
418.025	1230.32
418.233	1340.91
418.441	1289.71
418.649	1381.87
418.857	1383.91
419.065	1521.13
419.273	1357.29
419.481	1465.83
419.689	1562.09
419.897	1684.97
420.105	1680.87
420.313	1668.58
420.521	1781.22
420.729	1852.9
420.937	1893.86
421.145	1906.15
421.353	2078.18
421.561	2133.47
421.769	2297.31
421.977	2229.73
422.185	2313.69
422.393	2467.29
422.601	2559.45
422.809	2491.87
423.017	2577.88
423.224	2727.38
423.432	2809.3
423.64	2790.87
423.848	3050.96
424.056	2985.43
424.263	3284.43
424.471	3190.22
424.679	3294.67
424.887	3395.02
425.094	3589.58
425.302	3603.91
425.51	3634.63
425.718	3694.02
425.925	3798.47
426.133	4017.6
426.341	4197.82
426.548	4347.33
426.756	4369.85
426.964	4416.96
427.171	4627.9
427.379	4767.16
427.586	4820.41
427.794	4974
428.001	5225.9
428.209	5612.97
428.417	5244.34
428.624	5911.97
428.832	5764.52
429.039	5719.46
429.247	5561.77
429.454	6198.69
429.662	6757.78
429.869	6299.04
430.076	6641.05
430.284	6557.08
430.491	6849.94
430.699	7218.58
430.906	7165.33
431.114	7056.79
431.321	7677.32
431.528	7589.26
431.736	8101.25
431.943	8689.02
432.15	8334.72
432.358	8312.19
432.565	8873.34
432.772	8766.84
432.979	9272.69
433.187	9352.56
433.394	9526.64
433.601	10290.53
433.808	10200.42
434.016	10143.08
434.223	10521.95
434.43	10982.74
434.637	10900.83
434.844	11437.39
435.052	11961.67
435.259	11808.08
435.466	11945.29
435.673	11525.46
435.88	12574.02
436.087	13239.61
436.294	13315.38
436.501	12830.01
436.708	13372.72
436.915	13733.17
437.122	14208.3
437.329	14124.33
437.537	14497.06
437.743	14845.21
437.95	14781.73
438.157	15531.28
438.364	16119.05
438.571	16028.94
438.778	15985.93
438.985	17706.23
439.192	17034.49
439.399	17505.52
439.606	17036.54
439.813	18097.39
440.02	19168.48
440.227	18765.03
440.433	18566.37
440.64	19547.35
440.847	19016.93
441.054	19643.6
441.261	20847.81
441.467	20532.42
441.674	21499.06
441.881	21871.79
442.088	21943.47
442.294	21638.33
442.501	22244.52
442.708	22641.83
442.914	23456.92
443.121	24448.14
443.328	24097.94
443.534	25726.07
443.741	24673.42
443.948	24593.54
444.154	26391.66
444.361	26276.98
444.568	26393.71
444.774	26248.3
444.981	26700.9
445.187	27192.42
445.394	28632.14
445.6	28240.98
445.807	30788.65
446.013	29467.71
446.22	30112.82
446.426	31329.31
446.633	31493.15
446.839	32431.12
447.046	31183.91
447.252	33090.57
447.459	32695.31
447.665	32666.64
447.871	34573.3
448.078	35791.84
448.284	33924.09
448.491	35111.91
448.697	36008.92
448.903	36649.94
449.11	37073.87
449.316	35931.1
449.522	37143.5
449.728	37891.01
449.935	38351.8
450.141	38048.7
450.347	39127.98
450.553	37682.11
450.76	38216.63
450.966	39377.83
451.172	38939.57
451.378	39599.01
451.584	38892.46
451.791	40059.8
451.997	40043.42
452.203	40160.16
452.409	40242.07
452.615	40539.03
452.821	38853.55
453.027	38114.23
453.233	40543.13
453.44	38644.66
453.646	38910.89
453.852	39103.4
454.058	39785.38
454.264	38446.01
454.47	39226.28
454.676	38069.18
454.882	39556
455.088	36254.68
455.294	36508.63
455.5	37198.79
455.705	37589.95
455.911	36096.99
456.117	35453.92
456.323	35025.9
456.529	32875.53
456.735	34116.6
456.941	33463.3
457.147	33184.77
457.352	32144.41
457.558	31867.93
457.764	31663.13
457.97	31009.83
458.176	30385.2
458.381	30385.2
458.587	28853.32
458.793	28576.84
458.999	27460.7
459.204	29107.27
459.41	28544.08
459.616	26471.53
459.821	26874.98
460.027	26436.72
460.233	25945.2
460.438	24513.67
460.644	25042.05
460.85	23710.87
461.055	23813.27
461.261	23489.69
461.466	21816.5
461.672	20708.55
461.878	22545.58
462.083	21007.55
462.289	20466.89
462.494	20606.15
462.7	19428.57
462.905	19148
463.111	19567.83
463.316	19811.54
463.522	19137.76
463.727	19293.4
463.932	19234.01
464.138	19250.39
464.343	19145.95
464.549	18607.33
464.754	19541.21
464.959	18994.4
465.165	19029.21
465.37	18255.08
465.575	17837.3
465.781	18334.95
465.986	18717.92
466.191	17958.13
466.397	17702.13
466.602	16702.72
466.807	17372.41
467.012	17476.85
