Data from USB4F104151__153__10-26-59-962.txt Node

Date: Wed Mar 12 10:26:59 EDT 2025
User: louis
Spectrometer: USB4F10415
Trigger mode: 4
Integration Time (sec): 3.000000E-2
Scans to average: 1
Electric dark correction enabled: true
Nonlinearity correction enabled: false
Boxcar width: 0
XAxis mode: Wavelengths
Number of Pixels in Spectrum: 3648
>>>>>Begin Spectral Data<<<<<
178.204	-72.19
178.424	-72.19
178.644	-72.19
178.864	-168.45
179.084	-121.34
179.304	-14.85
179.524	13.82
179.744	-4.61
179.964	9.73
180.184	-2.56
180.404	-23.04
180.624	-18.94
180.844	19.97
181.064	-0.51
181.283	62.98
181.503	-31.23
181.723	-10.75
181.943	-107.01
182.163	50.69
182.383	-14.85
182.602	34.3
182.822	67.07
183.042	17.92
183.262	71.17
183.482	15.87
183.701	44.54
183.921	-2.56
184.141	62.98
184.361	52.74
184.58	69.12
184.8	105.98
185.02	-12.8
185.239	5.63
185.459	71.17
185.679	38.4
185.898	-23.04
186.118	9.73
186.338	22.02
186.557	38.4
186.777	13.82
186.997	13.82
187.216	-4.61
187.436	103.93
187.655	-2.56
187.875	85.5
188.095	26.11
188.314	36.35
188.534	83.45
188.753	-35.33
188.973	-10.75
189.192	77.31
189.412	50.69
189.631	17.92
189.851	46.59
190.07	9.73
190.29	-45.57
190.509	1.54
190.729	19.97
190.948	136.7
191.168	159.23
191.387	71.17
191.607	36.35
191.826	40.45
192.045	-12.8
192.265	-2.56
192.484	81.41
192.704	9.73
192.923	5.63
193.142	62.98
193.362	30.21
193.581	62.98
193.8	-27.14
194.02	1.54
194.239	54.78
194.458	30.21
194.678	-2.56
194.897	36.35
195.116	58.88
195.335	69.12
195.555	93.69
195.774	69.12
195.993	26.11
196.212	-14.85
196.432	-66.05
196.651	-2.56
196.87	67.07
197.089	87.55
197.308	112.13
197.528	32.26
197.747	-35.33
197.966	28.16
198.185	1.54
198.404	32.26
198.623	-20.99
198.842	-2.56
199.062	52.74
199.281	28.16
199.5	9.73
199.719	148.99
199.938	17.92
200.157	52.74
200.376	17.92
200.595	54.78
200.814	60.93
201.033	17.92
201.252	95.74
201.471	-23.04
201.69	116.22
201.909	32.26
202.128	-0.51
202.347	9.73
202.566	77.31
202.785	34.3
203.004	19.97
203.223	89.6
203.442	5.63
203.661	62.98
203.879	34.3
204.098	19.97
204.317	22.02
204.536	60.93
204.755	30.21
204.974	58.88
205.193	48.64
205.411	48.64
205.63	22.02
205.849	24.06
206.068	93.69
206.287	19.97
206.505	44.54
206.724	-2.56
206.943	-27.14
207.162	34.3
207.381	120.32
207.599	62.98
207.818	-39.42
208.037	77.31
208.255	44.54
208.474	5.63
208.693	62.98
208.911	-10.75
209.13	60.93
209.349	58.88
209.567	-27.14
209.786	69.12
210.005	28.16
210.223	13.82
210.442	38.4
210.661	56.83
210.879	-20.99
211.098	11.78
211.316	19.97
211.535	-4.61
211.753	54.78
211.972	85.5
212.191	-31.23
212.409	77.31
212.628	32.26
212.846	34.3
213.065	-2.56
213.283	26.11
213.502	40.45
213.72	46.59
213.938	9.73
214.157	132.61
214.375	-10.75
214.594	9.73
214.812	54.78
215.031	73.21
215.249	5.63
215.467	34.3
215.686	101.89
215.904	22.02
216.122	9.73
216.341	46.59
216.559	-2.56
216.778	46.59
216.996	28.16
217.214	54.78
217.432	65.02
217.651	-33.28
217.869	79.36
218.087	75.26
218.306	22.02
218.524	67.07
218.742	-25.09
218.96	-8.7
219.179	11.78
219.397	48.64
219.615	83.45
219.833	24.06
220.051	7.68
220.27	11.78
220.488	38.4
220.706	105.98
220.924	7.68
221.142	54.78
221.36	52.74
221.578	11.78
221.796	9.73
222.015	-18.94
222.233	-27.14
222.451	85.5
222.669	9.73
222.887	36.35
223.105	42.5
223.323	19.97
223.541	62.98
223.759	-2.56
223.977	67.07
224.195	-12.8
224.413	89.6
224.631	3.58
224.849	101.89
225.067	60.93
225.285	-53.76
225.503	71.17
225.721	38.4
225.939	-16.9
226.157	22.02
226.375	91.65
226.592	7.68
226.81	1.54
227.028	17.92
227.246	114.17
227.464	36.35
227.682	99.84
227.9	54.78
228.117	-18.94
228.335	-27.14
228.553	34.3
228.771	58.88
228.989	54.78
229.206	103.93
229.424	3.58
229.642	-31.23
229.86	11.78
230.077	67.07
230.295	93.69
230.513	13.82
230.731	15.87
230.948	38.4
231.166	56.83
231.384	48.64
231.601	-12.8
231.819	5.63
232.037	77.31
232.254	-35.33
232.472	3.58
232.689	30.21
232.907	60.93
233.125	46.59
233.342	91.65
233.56	65.02
233.777	44.54
233.995	85.5
234.213	54.78
234.43	48.64
234.648	32.26
234.865	38.4
235.083	79.36
235.3	48.64
235.518	69.12
235.735	19.97
235.953	32.26
236.17	-35.33
236.388	17.92
236.605	-2.56
236.822	-4.61
237.04	32.26
237.257	42.5
237.475	36.35
237.692	19.97
237.909	19.97
238.127	-16.9
238.344	24.06
238.562	-4.61
238.779	50.69
238.996	-66.05
239.214	40.45
239.431	103.93
239.648	-0.51
239.865	91.65
240.083	97.79
240.3	75.26
240.517	22.02
240.735	-8.7
240.952	38.4
241.169	89.6
241.386	97.79
241.603	1.54
241.821	36.35
242.038	56.83
242.255	-20.99
242.472	-51.71
242.689	83.45
242.907	-0.51
243.124	-18.94
243.341	52.74
243.558	40.45
243.775	-12.8
243.992	3.58
244.209	54.78
244.426	103.93
244.643	-18.94
244.86	17.92
245.078	-2.56
245.295	79.36
245.512	5.63
245.729	46.59
245.946	13.82
246.163	-6.66
246.38	-12.8
246.597	-4.61
246.814	69.12
247.031	34.3
247.248	28.16
247.464	46.59
247.681	46.59
247.898	85.5
248.115	9.73
248.332	1.54
248.549	62.98
248.766	67.07
248.983	110.08
249.2	17.92
249.417	-16.9
249.633	42.5
249.85	5.63
250.067	-2.56
250.284	11.78
250.501	75.26
250.717	-10.75
250.934	50.69
251.151	-4.61
251.368	52.74
251.585	65.02
251.801	36.35
252.018	46.59
252.235	-39.42
252.451	40.45
252.668	56.83
252.885	-16.9
253.102	69.12
253.318	26.11
253.535	22.02
253.752	-20.99
253.968	36.35
254.185	69.12
254.401	48.64
254.618	71.17
254.835	30.21
255.051	54.78
255.268	58.88
255.484	1.54
255.701	48.64
255.917	75.26
256.134	32.26
256.351	34.3
256.567	15.87
256.784	13.82
257	17.92
257.217	15.87
257.433	73.21
257.65	-2.56
257.866	77.31
258.082	132.61
258.299	60.93
258.515	73.21
258.732	105.98
258.948	103.93
259.165	13.82
259.381	15.87
259.597	58.88
259.814	17.92
260.03	-31.23
260.246	38.4
260.463	40.45
260.679	5.63
260.895	15.87
261.112	91.65
261.328	69.12
261.544	81.41
261.761	69.12
261.977	11.78
262.193	13.82
262.409	93.69
262.626	42.5
262.842	69.12
263.058	3.58
263.274	58.88
263.49	54.78
263.707	32.26
263.923	136.7
264.139	3.58
264.355	93.69
264.571	67.07
264.787	9.73
265.004	67.07
265.22	-20.99
265.436	93.69
265.652	15.87
265.868	60.93
266.084	1.54
266.3	50.69
266.516	7.68
266.732	93.69
266.948	62.98
267.164	42.5
267.38	-18.94
267.596	7.68
267.812	93.69
268.028	50.69
268.244	50.69
268.46	26.11
268.676	26.11
268.892	32.26
269.108	83.45
269.324	7.68
269.54	1.54
269.756	79.36
269.972	11.78
270.188	44.54
270.403	-6.66
270.619	50.69
270.835	73.21
271.051	87.55
271.267	-4.61
271.483	9.73
271.698	32.26
271.914	26.11
272.13	32.26
272.346	26.11
272.562	-10.75
272.777	79.36
272.993	15.87
273.209	15.87
273.425	7.68
273.64	34.3
273.856	75.26
274.072	24.06
274.287	40.45
274.503	87.55
274.719	71.17
274.934	71.17
275.15	91.65
275.366	-35.33
275.581	97.79
275.797	15.87
276.012	-10.75
276.228	17.92
276.444	5.63
276.659	46.59
276.875	-18.94
277.09	71.17
277.306	17.92
277.521	79.36
277.737	79.36
277.952	22.02
278.168	9.73
278.383	99.84
278.599	34.3
278.814	26.11
279.03	108.03
279.245	101.89
279.461	7.68
279.676	52.74
279.892	-6.66
280.107	-6.66
280.322	-0.51
280.538	128.51
280.753	-59.9
280.969	99.84
281.184	48.64
281.399	65.02
281.615	-27.14
281.83	26.11
282.045	1.54
282.26	-10.75
282.476	65.02
282.691	11.78
282.906	75.26
283.122	85.5
283.337	40.45
283.552	46.59
283.767	34.3
283.983	89.6
284.198	75.26
284.413	34.3
284.628	28.16
284.843	48.64
285.058	73.21
285.274	5.63
285.489	1.54
285.704	87.55
285.919	17.92
286.134	40.45
286.349	-4.61
286.564	38.4
286.779	93.69
286.995	32.26
287.21	56.83
287.425	69.12
287.64	65.02
287.855	26.11
288.07	32.26
288.285	56.83
288.5	83.45
288.715	36.35
288.93	30.21
289.145	36.35
289.36	79.36
289.575	-45.57
289.79	26.11
290.004	-4.61
290.219	71.17
290.434	7.68
290.649	5.63
290.864	52.74
291.079	19.97
291.294	81.41
291.509	79.36
291.724	-16.9
291.938	13.82
292.153	87.55
292.368	87.55
292.583	87.55
292.798	17.92
293.012	81.41
293.227	32.26
293.442	60.93
293.657	1.54
293.871	54.78
294.086	91.65
294.301	99.84
294.516	69.12
294.73	52.74
294.945	-16.9
295.16	15.87
295.374	95.74
295.589	-12.8
295.804	13.82
296.018	118.27
296.233	71.17
296.447	105.98
296.662	30.21
296.877	65.02
297.091	3.58
297.306	-37.38
297.52	5.63
297.735	46.59
297.949	34.3
298.164	58.88
298.378	58.88
298.593	1.54
298.807	52.74
299.022	-4.61
299.236	11.78
299.451	44.54
299.665	1.54
299.88	97.79
300.094	-20.99
300.309	30.21
300.523	58.88
300.737	5.63
300.952	60.93
301.166	101.89
301.381	112.13
301.595	30.21
301.809	32.26
302.024	1.54
302.238	54.78
302.452	77.31
302.667	-25.09
302.881	118.27
303.095	67.07
303.309	-0.51
303.524	7.68
303.738	5.63
303.952	38.4
304.166	54.78
304.381	54.78
304.595	62.98
304.809	22.02
305.023	36.35
305.237	58.88
305.452	28.16
305.666	28.16
305.88	9.73
306.094	79.36
306.308	54.78
306.522	-2.56
306.736	120.32
306.95	36.35
307.164	15.87
307.379	-10.75
307.593	73.21
307.807	54.78
308.021	22.02
308.235	89.6
308.449	-0.51
308.663	28.16
308.877	118.27
309.091	-43.52
309.305	120.32
309.519	11.78
309.733	67.07
309.947	28.16
310.161	13.82
310.374	46.59
310.588	75.26
310.802	52.74
311.016	50.69
311.23	26.11
311.444	46.59
311.658	28.16
311.872	132.61
312.085	46.59
312.299	120.32
312.513	60.93
312.727	118.27
312.941	-6.66
313.154	83.45
313.368	71.17
313.582	-6.66
313.796	34.3
314.009	50.69
314.223	15.87
314.437	-39.42
314.651	36.35
314.864	44.54
315.078	87.55
315.292	3.58
315.505	-14.85
315.719	-4.61
315.933	54.78
316.146	77.31
316.36	34.3
316.573	99.84
316.787	38.4
317.001	60.93
317.214	22.02
317.428	36.35
317.641	50.69
317.855	-2.56
318.068	52.74
318.282	95.74
318.495	75.26
318.709	42.5
318.922	52.74
319.136	26.11
319.349	50.69
319.563	-12.8
319.776	112.13
319.99	-10.75
320.203	148.99
320.417	28.16
320.63	-10.75
320.843	69.12
321.057	1.54
321.27	112.13
321.483	89.6
321.697	-18.94
321.91	85.5
322.124	99.84
322.337	-51.71
322.55	-2.56
322.763	1.54
322.977	-27.14
323.19	32.26
323.403	83.45
323.617	89.6
323.83	62.98
324.043	19.97
324.256	69.12
324.469	30.21
324.683	11.78
324.896	75.26
325.109	-10.75
325.322	38.4
325.535	44.54
325.748	132.61
325.962	42.5
326.175	77.31
326.388	108.03
326.601	52.74
326.814	24.06
327.027	58.88
327.24	79.36
327.453	-29.18
327.666	93.69
327.879	69.12
328.092	56.83
328.305	44.54
328.518	7.68
328.731	65.02
328.944	52.74
329.157	67.07
329.37	3.58
329.583	157.18
329.796	101.89
330.009	71.17
330.222	60.93
330.435	30.21
330.648	44.54
330.861	67.07
331.073	24.06
331.286	81.41
331.499	26.11
331.712	32.26
331.925	89.6
332.138	58.88
332.35	54.78
332.563	5.63
332.776	24.06
332.989	44.54
333.202	32.26
333.414	69.12
333.627	34.3
333.84	34.3
334.053	118.27
334.265	87.55
334.478	-27.14
334.691	-10.75
334.903	34.3
335.116	79.36
335.329	77.31
335.541	83.45
335.754	85.5
335.966	30.21
336.179	52.74
336.392	83.45
336.604	99.84
336.817	73.21
337.029	73.21
337.242	54.78
337.454	62.98
337.667	-33.28
337.88	46.59
338.092	120.32
338.305	105.98
338.517	-4.61
338.729	93.69
338.942	48.64
339.154	65.02
339.367	-16.9
339.579	56.83
339.792	28.16
340.004	50.69
340.217	103.93
340.429	60.93
340.641	36.35
340.854	13.82
341.066	-0.51
341.278	56.83
341.491	52.74
341.703	38.4
341.915	-8.7
342.128	116.22
342.34	81.41
342.552	48.64
342.764	13.82
342.977	-18.94
343.189	30.21
343.401	50.69
343.613	-12.8
343.826	73.21
344.038	22.02
344.25	132.61
344.462	42.5
344.674	95.74
344.886	-10.75
345.099	108.03
345.311	26.11
345.523	52.74
345.735	-6.66
345.947	71.17
346.159	32.26
346.371	93.69
346.583	40.45
346.795	99.84
347.007	44.54
347.219	-14.85
347.431	30.21
347.643	101.89
347.855	50.69
348.067	110.08
348.279	65.02
348.491	54.78
348.703	28.16
348.915	3.58
349.127	9.73
349.339	58.88
349.551	50.69
349.763	108.03
349.975	19.97
350.187	97.79
350.399	54.78
350.61	56.83
350.822	42.5
351.034	65.02
351.246	77.31
351.458	79.36
351.669	81.41
351.881	9.73
352.093	-35.33
352.305	19.97
352.517	62.98
352.728	81.41
352.94	95.74
353.152	62.98
353.363	116.22
353.575	-2.56
353.787	101.89
353.999	38.4
354.21	85.5
354.422	30.21
354.633	54.78
354.845	56.83
355.057	-37.38
355.268	79.36
355.48	54.78
355.692	40.45
355.903	124.41
356.115	38.4
356.326	-57.86
356.538	128.51
356.749	30.21
356.961	93.69
357.172	48.64
357.384	13.82
357.595	144.89
357.807	52.74
358.018	24.06
358.23	1.54
358.441	101.89
358.653	22.02
358.864	48.64
359.075	30.21
359.287	87.55
359.498	34.3
359.709	9.73
359.921	99.84
360.132	54.78
360.344	54.78
360.555	58.88
360.766	99.84
360.977	161.28
361.189	122.37
361.4	5.63
361.611	101.89
361.823	58.88
362.034	93.69
362.245	-14.85
362.456	122.37
362.667	67.07
362.879	65.02
363.09	-23.04
363.301	-35.33
363.512	30.21
363.723	42.5
363.935	79.36
364.146	120.32
364.357	3.58
364.568	85.5
364.779	15.87
364.99	75.26
365.201	40.45
365.412	30.21
365.623	38.4
365.834	7.68
366.045	-4.61
366.256	128.51
366.467	153.09
366.678	-37.38
366.889	15.87
367.1	83.45
367.311	44.54
367.522	62.98
367.733	91.65
367.944	58.88
368.155	-2.56
368.366	48.64
368.577	26.11
368.788	95.74
368.999	42.5
369.209	71.17
369.42	161.28
369.631	32.26
369.842	83.45
370.053	22.02
370.264	58.88
370.474	15.87
370.685	1.54
370.896	5.63
371.107	103.93
371.317	124.41
371.528	83.45
371.739	22.02
371.95	-10.75
372.16	103.93
372.371	91.65
372.582	17.92
372.792	54.78
373.003	89.6
373.214	7.68
373.424	5.63
373.635	38.4
373.846	132.61
374.056	-18.94
374.267	13.82
374.477	24.06
374.688	60.93
374.898	124.41
375.109	67.07
375.319	24.06
375.53	52.74
375.74	73.21
375.951	19.97
376.161	75.26
376.372	112.13
376.582	13.82
376.793	73.21
377.003	73.21
377.214	-4.61
377.424	54.78
377.635	5.63
377.845	-27.14
378.055	151.04
378.266	-23.04
378.476	46.59
378.686	7.68
378.897	-10.75
379.107	89.6
379.317	24.06
379.528	46.59
379.738	69.12
379.948	-2.56
380.158	91.65
380.369	91.65
380.579	67.07
380.789	13.82
380.999	103.93
381.21	75.26
381.42	69.12
381.63	26.11
381.84	95.74
382.05	101.89
382.261	114.17
382.471	38.4
382.681	17.92
382.891	75.26
383.101	56.83
383.311	56.83
383.521	71.17
383.731	128.51
383.941	95.74
384.151	142.85
384.361	42.5
384.571	85.5
384.781	83.45
384.991	126.46
385.201	99.84
385.411	138.75
385.621	62.98
385.831	122.37
386.041	56.83
386.251	-39.42
386.461	87.55
386.671	36.35
386.881	32.26
387.091	5.63
387.301	175.61
387.511	71.17
387.72	22.02
387.93	116.22
388.14	99.84
388.35	58.88
388.56	122.37
388.769	30.21
388.979	17.92
389.189	42.5
389.399	28.16
389.609	95.74
389.818	101.89
390.028	-12.8
390.238	44.54
390.447	101.89
390.657	19.97
390.867	126.46
391.076	38.4
391.286	36.35
391.496	65.02
391.705	9.73
391.915	114.17
392.125	67.07
392.334	42.5
392.544	118.27
392.753	54.78
392.963	79.36
393.172	73.21
393.382	83.45
393.591	81.41
393.801	134.65
394.01	97.79
394.22	101.89
394.429	48.64
394.639	75.26
394.848	-2.56
395.058	65.02
395.267	120.32
395.477	210.43
395.686	99.84
395.895	181.76
396.105	171.52
396.314	112.13
396.524	103.93
396.733	65.02
396.942	101.89
397.152	140.8
397.361	200.19
397.57	134.65
397.78	73.21
397.989	108.03
398.198	87.55
398.407	165.37
398.617	93.69
398.826	91.65
399.035	17.92
399.244	122.37
399.453	222.72
399.663	138.75
399.872	163.33
400.081	148.99
400.29	165.37
400.499	153.09
400.708	153.09
400.917	120.32
401.127	89.6
401.336	122.37
401.545	196.09
401.754	116.22
401.963	134.65
402.172	140.8
402.381	120.32
402.59	93.69
402.799	144.89
403.008	67.07
403.217	144.89
403.426	22.02
403.635	140.8
403.844	144.89
404.053	138.75
404.262	183.81
404.471	187.9
404.68	173.57
404.888	146.94
405.097	173.57
405.306	151.04
405.515	230.91
405.724	142.85
405.933	183.81
406.142	177.66
406.35	275.96
406.559	232.96
406.768	235
406.977	292.35
407.185	222.72
407.394	269.82
407.603	163.33
407.812	230.91
408.02	171.52
408.229	259.58
408.438	228.86
408.646	255.48
408.855	294.4
409.064	239.1
409.272	247.29
409.481	243.2
409.69	321.02
409.898	255.48
410.107	374.27
410.315	329.21
410.524	335.35
410.733	380.41
410.941	280.06
411.15	435.71
411.358	470.52
411.567	409.08
411.775	476.66
411.984	423.42
412.192	486.9
412.401	470.52
412.609	542.2
412.818	572.92
413.026	548.34
413.234	542.2
413.443	517.62
413.651	579.06
413.86	587.26
414.068	687.61
414.276	675.32
414.485	689.65
414.693	579.06
414.901	665.08
415.11	757.24
415.318	857.59
415.526	734.71
415.734	792.05
415.943	800.24
416.151	933.36
416.359	898.55
416.567	871.92
416.776	1023.47
416.984	1046
417.192	1068.53
417.4	1037.81
417.608	1117.68
417.817	1074.67
418.025	1226.22
418.233	1279.47
418.441	1244.65
418.649	1248.75
418.857	1367.53
419.065	1377.77
419.273	1347.05
419.481	1396.2
419.689	1514.98
419.897	1609.19
420.105	1641.96
420.313	1625.58
420.521	1682.92
420.729	1680.87
420.937	1758.69
421.145	1801.7
421.353	1844.71
421.561	1990.11
421.769	2084.32
421.977	2192.86
422.185	2088.42
422.393	2252.25
422.601	2424.28
422.809	2323.93
423.017	2524.63
423.224	2508.25
423.432	2649.56
423.64	2512.35
423.848	2909.65
424.056	2831.83
424.263	3151.31
424.471	3134.93
424.679	3128.78
424.887	3243.47
425.094	3362.25
425.302	3388.88
425.51	3573.19
425.718	3579.34
425.925	3595.72
426.133	3808.71
426.341	3857.86
426.548	4124.1
426.756	4105.67
426.964	4142.53
427.171	4453.82
427.379	4519.36
427.586	4740.54
427.794	4705.72
428.001	5014.96
428.209	5199.28
428.417	5090.74
428.624	5555.63
428.832	5354.93
429.039	5436.85
429.247	5508.52
429.454	5969.32
429.662	6552.99
429.869	5799.34
430.076	6376.86
430.284	6102.43
430.491	6434.21
430.699	6661.53
430.906	6835.61
431.114	6837.66
431.321	7185.81
431.528	7353.74
431.736	7697.8
431.943	8111.49
432.15	7783.82
432.358	8062.34
432.565	8371.58
432.772	8584.57
432.979	8684.92
433.187	8996.21
433.394	8770.94
433.601	9391.47
433.808	9643.37
434.016	9532.78
434.223	9985.38
434.43	10544.48
434.637	10280.29
434.844	11066.71
435.052	11232.6
435.259	10937.69
435.466	11165.01
435.673	11101.53
435.88	11855.18
436.087	12225.86
436.294	12549.44
436.501	12215.62
436.708	12612.93
436.915	12784.96
437.122	13579.57
437.329	13434.16
437.537	13849.9
437.743	14118.18
437.95	13784.37
438.157	14710.05
438.364	15158.55
438.571	14957.85
438.778	15127.83
438.985	16786.69
439.192	15686.93
439.399	16452.87
439.606	16184.59
439.813	16932.09
440.02	18121.96
440.227	17554.68
440.433	17122.55
440.64	18113.77
440.847	17814.77
441.054	18199.79
441.261	19707.09
441.467	19369.18
441.674	19674.32
441.881	20356.3
442.088	20167.88
442.294	20200.65
442.501	20884.67
442.708	21146.81
442.914	22062.26
443.121	22865.06
443.328	22201.52
443.534	23966.87
443.741	23411.87
443.948	22989.99
444.154	24388.75
444.361	24319.12
444.568	24712.33
444.774	24573.07
444.981	24626.31
445.187	25332.86
445.394	26240.11
445.6	26180.72
445.807	28539.98
446.013	27485.28
446.22	27868.25
446.426	28922.95
446.633	29135.94
446.839	30041.14
447.046	29121.6
447.252	30542.89
447.459	30708.78
447.665	30327.86
447.871	31583.26
448.078	32908.3
448.284	31573.02
448.491	32494.61
448.697	33352.71
448.903	33950.71
449.11	34343.92
449.316	33608.7
449.522	33893.37
449.728	34933.74
449.935	35240.93
450.141	35191.78
450.347	35863.52
450.553	34804.72
450.76	35101.67
450.966	36211.67
451.172	35986.39
451.378	36506.58
451.584	36160.47
451.791	36549.59
451.997	36754.38
452.203	37049.29
452.409	37258.18
452.615	37059.53
452.821	35621.86
453.027	34886.64
453.233	36944.84
453.44	35324.9
453.646	35771.36
453.852	36062.17
454.058	36275.16
454.264	35281.89
454.47	36600.79
454.676	35038.19
454.882	36570.07
455.088	33160.2
455.294	33588.22
455.5	34227.19
455.705	34601.97
455.911	33147.91
456.117	32523.28
456.323	32232.47
456.529	30223.41
456.735	31620.13
456.941	30831.66
457.147	30604.33
457.352	29387.84
457.558	28707.91
457.764	29019.21
457.97	28382.29
458.176	27995.22
458.381	27874.39
458.587	26209.39
458.793	26426.48
458.999	24976.51
459.204	26905.7
459.41	26102.9
459.616	24548.49
459.821	24482.95
460.027	24355.98
460.233	23833.75
460.438	22840.48
460.644	22736.04
460.85	21650.61
461.055	21568.69
461.261	21529.78
461.466	19834.07
461.672	19440.86
461.878	20665.54
462.083	19299.55
462.289	18963.68
462.494	18842.85
462.7	17818.86
462.905	17464.57
463.111	18236.65
463.316	17994.99
463.522	17714.42
463.727	17919.21
463.932	17566.96
464.138	17577.2
464.343	17714.42
464.549	17294.58
464.754	17941.74
464.959	17646.83
465.165	17483
465.37	16663.81
465.575	16409.86
465.781	16839.94
465.986	16958.72
466.191	16495.88
466.397	16221.45
466.602	15406.36
466.807	15832.33
467.012	15815.95
467.218	15652.11
467.423	15676.69
467.628	15525.14
