Data from USB4F104151__251__10-31-05-186.txt Node

Date: Wed Mar 12 10:31:05 EDT 2025
User: louis
Spectrometer: USB4F10415
Trigger mode: 4
Integration Time (sec): 3.000000E-2
Scans to average: 1
Electric dark correction enabled: true
Nonlinearity correction enabled: false
Boxcar width: 0
XAxis mode: Wavelengths
Number of Pixels in Spectrum: 3648
>>>>>Begin Spectral Data<<<<<
178.204	-93.69
178.424	-93.69
178.644	-93.69
178.864	-144.89
179.084	-93.69
179.304	-13.82
179.524	-42.5
179.744	-48.64
179.964	10.75
180.184	-40.45
180.404	49.66
180.624	33.28
180.844	-24.06
181.064	20.99
181.283	6.66
181.503	2.56
181.723	45.57
181.943	-67.07
182.163	74.24
182.383	-26.11
182.602	-7.68
182.822	90.62
183.042	43.52
183.262	-22.02
183.482	29.18
183.701	-28.16
183.921	33.28
184.141	-22.02
184.361	23.04
184.58	14.85
184.8	10.75
185.02	45.57
185.239	102.91
185.459	23.04
185.679	8.7
185.898	-44.54
186.118	20.99
186.338	-19.97
186.557	53.76
186.777	-5.63
186.997	57.86
187.216	8.7
187.436	6.66
187.655	49.66
187.875	66.05
188.095	64
188.314	14.85
188.534	119.29
188.753	-58.88
188.973	-24.06
189.192	61.95
189.412	55.81
189.631	47.62
189.851	-15.87
190.07	33.28
190.29	41.47
190.509	59.9
190.729	64
190.948	78.33
191.168	150.01
191.387	-1.54
191.607	53.76
191.826	51.71
192.045	12.8
192.265	61.95
192.484	37.38
192.704	35.33
192.923	-11.78
193.142	117.25
193.362	27.14
193.581	66.05
193.8	55.81
194.02	-26.11
194.239	33.28
194.458	12.8
194.678	39.42
194.897	107.01
195.116	117.25
195.335	12.8
195.555	43.52
195.774	104.96
195.993	-15.87
196.212	43.52
196.432	-9.73
196.651	4.61
196.87	10.75
197.089	29.18
197.308	20.99
197.528	31.23
197.747	-11.78
197.966	-69.12
198.185	-11.78
198.404	16.9
198.623	4.61
198.842	61.95
199.062	-11.78
199.281	41.47
199.5	35.33
199.719	-7.68
199.938	45.57
200.157	2.56
200.376	49.66
200.595	37.38
200.814	-13.82
201.033	-44.54
201.252	53.76
201.471	6.66
201.69	37.38
201.909	49.66
202.128	18.94
202.347	-7.68
202.566	-26.11
202.785	35.33
203.004	82.43
203.223	51.71
203.442	0.51
203.661	4.61
203.879	-19.97
204.098	6.66
204.317	-48.64
204.536	45.57
204.755	-17.92
204.974	43.52
205.193	53.76
205.411	96.77
205.63	25.09
205.849	78.33
206.068	57.86
206.287	-9.73
206.505	61.95
206.724	37.38
206.943	27.14
207.162	16.9
207.381	-5.63
207.599	61.95
207.818	37.38
208.037	-9.73
208.255	-40.45
208.474	18.94
208.693	-11.78
208.911	82.43
209.13	-52.74
209.349	33.28
209.567	55.81
209.786	102.91
210.005	12.8
210.223	2.56
210.442	-65.02
210.661	47.62
210.879	51.71
211.098	43.52
211.316	-13.82
211.535	76.29
211.753	-3.58
211.972	-7.68
212.191	-5.63
212.409	51.71
212.628	-7.68
212.846	78.33
213.065	-30.21
213.283	31.23
213.502	-7.68
213.72	98.81
213.938	43.52
214.157	45.57
214.375	-15.87
214.594	6.66
214.812	41.47
215.031	35.33
215.249	-9.73
215.467	37.38
215.686	4.61
215.904	16.9
216.122	92.67
216.341	41.47
216.559	-32.26
216.778	55.81
216.996	74.24
217.214	-15.87
217.432	12.8
217.651	12.8
217.869	-32.26
218.087	14.85
218.306	16.9
218.524	-26.11
218.742	20.99
218.96	4.61
219.179	-28.16
219.397	16.9
219.615	43.52
219.833	41.47
220.051	-52.74
220.27	20.99
220.488	107.01
220.706	68.09
220.924	27.14
221.142	82.43
221.36	20.99
221.578	-1.54
221.796	37.38
222.015	47.62
222.233	100.86
222.451	49.66
222.669	74.24
222.887	27.14
223.105	18.94
223.323	12.8
223.541	27.14
223.759	8.7
223.977	-9.73
224.195	43.52
224.413	-9.73
224.631	78.33
224.849	78.33
225.067	35.33
225.285	-3.58
225.503	-5.63
225.721	-30.21
225.939	20.99
226.157	41.47
226.375	74.24
226.592	27.14
226.81	74.24
227.028	74.24
227.246	180.73
227.464	76.29
227.682	55.81
227.9	-7.68
228.117	43.52
228.335	10.75
228.553	-9.73
228.771	-38.4
228.989	74.24
229.206	-32.26
229.424	59.9
229.642	-40.45
229.86	59.9
230.077	-9.73
230.295	25.09
230.513	94.72
230.731	14.85
230.948	37.38
231.166	25.09
231.384	31.23
231.601	-15.87
231.819	123.39
232.037	29.18
232.254	-46.59
232.472	33.28
232.689	53.76
232.907	66.05
233.125	35.33
233.342	23.04
233.56	-5.63
233.777	0.51
233.995	-15.87
234.213	35.33
234.43	-38.4
234.648	-73.21
234.865	12.8
235.083	45.57
235.3	-19.97
235.518	-15.87
235.735	84.48
235.953	33.28
236.17	-3.58
236.388	-75.26
236.605	-19.97
236.822	92.67
237.04	16.9
237.257	8.7
237.475	90.62
237.692	45.57
237.909	-1.54
238.127	-17.92
238.344	10.75
238.562	10.75
238.779	-60.93
238.996	-1.54
239.214	-3.58
239.431	47.62
239.648	-30.21
239.865	96.77
240.083	18.94
240.3	-7.68
240.517	70.14
240.735	29.18
240.952	53.76
241.169	4.61
241.386	37.38
241.603	-11.78
241.821	12.8
242.038	29.18
242.255	86.53
242.472	25.09
242.689	86.53
242.907	33.28
243.124	23.04
243.341	39.42
243.558	12.8
243.775	47.62
243.992	35.33
244.209	41.47
244.426	96.77
244.643	18.94
244.86	-24.06
245.078	98.81
245.295	8.7
245.512	-22.02
245.729	18.94
245.946	23.04
246.163	20.99
246.38	-17.92
246.597	55.81
246.814	-5.63
247.031	-58.88
247.248	14.85
247.464	72.19
247.681	33.28
247.898	92.67
248.115	72.19
248.332	23.04
248.549	41.47
248.766	70.14
248.983	55.81
249.2	27.14
249.417	-28.16
249.633	20.99
249.85	-30.21
250.067	18.94
250.284	4.61
250.501	102.91
250.717	57.86
250.934	-19.97
251.151	125.44
251.368	86.53
251.585	61.95
251.801	-13.82
252.018	6.66
252.235	6.66
252.451	8.7
252.668	41.47
252.885	18.94
253.102	66.05
253.318	12.8
253.535	-54.78
253.752	68.09
253.968	23.04
254.185	0.51
254.401	61.95
254.618	43.52
254.835	57.86
255.051	59.9
255.268	45.57
255.484	41.47
255.701	18.94
255.917	-3.58
256.134	33.28
256.351	12.8
256.567	92.67
256.784	12.8
257	-19.97
257.217	53.76
257.433	92.67
257.65	2.56
257.866	61.95
258.082	-24.06
258.299	-7.68
258.515	113.15
258.732	-56.83
258.948	76.29
259.165	12.8
259.381	-19.97
259.597	70.14
259.814	12.8
260.03	20.99
260.246	10.75
260.463	37.38
260.679	49.66
260.895	43.52
261.112	39.42
261.328	66.05
261.544	31.23
261.761	-5.63
261.977	-19.97
262.193	33.28
262.409	49.66
262.626	94.72
262.842	14.85
263.058	-13.82
263.274	119.29
263.49	68.09
263.707	0.51
263.923	14.85
264.139	-89.6
264.355	10.75
264.571	57.86
264.787	16.9
265.004	35.33
265.22	10.75
265.436	78.33
265.652	55.81
265.868	4.61
266.084	29.18
266.3	8.7
266.516	55.81
266.732	-1.54
266.948	-1.54
267.164	43.52
267.38	49.66
267.596	107.01
267.812	37.38
268.028	-7.68
268.244	-36.35
268.46	74.24
268.676	-1.54
268.892	51.71
269.108	45.57
269.324	-44.54
269.54	33.28
269.756	115.2
269.972	4.61
270.188	-7.68
270.403	-83.45
270.619	82.43
270.835	35.33
271.051	18.94
271.267	-5.63
271.483	14.85
271.698	98.81
271.914	27.14
272.13	55.81
272.346	-26.11
272.562	43.52
272.777	57.86
272.993	104.96
273.209	57.86
273.425	109.05
273.64	20.99
273.856	12.8
274.072	20.99
274.287	8.7
274.503	27.14
274.719	29.18
274.934	20.99
275.15	18.94
275.366	25.09
275.581	-1.54
275.797	35.33
276.012	29.18
276.228	8.7
276.444	55.81
276.659	70.14
276.875	51.71
277.09	-1.54
277.306	33.28
277.521	53.76
277.737	-19.97
277.952	31.23
278.168	-32.26
278.383	8.7
278.599	41.47
278.814	37.38
279.03	12.8
279.245	82.43
279.461	-28.16
279.676	68.09
279.892	-15.87
280.107	-26.11
280.322	37.38
280.538	27.14
280.753	4.61
280.969	-40.45
281.184	-46.59
281.399	57.86
281.615	10.75
281.83	68.09
282.045	8.7
282.26	-11.78
282.476	43.52
282.691	2.56
282.906	12.8
283.122	12.8
283.337	35.33
283.552	-50.69
283.767	-19.97
283.983	31.23
284.198	18.94
284.413	33.28
284.628	49.66
284.843	74.24
285.058	59.9
285.274	64
285.489	45.57
285.704	-3.58
285.919	-108.03
286.134	25.09
286.349	59.9
286.564	57.86
286.779	111.1
286.995	16.9
287.21	-1.54
287.425	20.99
287.64	53.76
287.855	156.16
288.07	-30.21
288.285	88.57
288.5	10.75
288.715	49.66
288.93	49.66
289.145	23.04
289.36	31.23
289.575	31.23
289.79	18.94
290.004	76.29
290.219	57.86
290.434	41.47
290.649	78.33
290.864	6.66
291.079	68.09
291.294	129.53
291.509	4.61
291.724	20.99
291.938	78.33
292.153	6.66
292.368	-34.3
292.583	84.48
292.798	27.14
293.012	70.14
293.227	90.62
293.442	84.48
293.657	84.48
293.871	68.09
294.086	-28.16
294.301	39.42
294.516	86.53
294.73	6.66
294.945	-5.63
295.16	-13.82
295.374	74.24
295.589	-44.54
295.804	-1.54
296.018	82.43
296.233	72.19
296.447	16.9
296.662	33.28
296.877	121.34
297.091	78.33
297.306	59.9
297.52	-38.4
297.735	39.42
297.949	43.52
298.164	45.57
298.378	-15.87
298.593	4.61
298.807	76.29
299.022	23.04
299.236	12.8
299.451	-32.26
299.665	-32.26
299.88	41.47
300.094	55.81
300.309	20.99
300.523	-15.87
300.737	-17.92
300.952	-19.97
301.166	80.38
301.381	4.61
301.595	25.09
301.809	27.14
302.024	-7.68
302.238	12.8
302.452	102.91
302.667	119.29
302.881	66.05
303.095	55.81
303.309	53.76
303.524	23.04
303.738	68.09
303.952	51.71
304.166	2.56
304.381	-24.06
304.595	45.57
304.809	25.09
305.023	66.05
305.237	53.76
305.452	-1.54
305.666	0.51
305.88	59.9
306.094	33.28
306.308	70.14
306.522	82.43
306.736	88.57
306.95	82.43
307.164	61.95
307.379	43.52
307.593	86.53
307.807	68.09
308.021	-7.68
308.235	25.09
308.449	-24.06
308.663	-36.35
308.877	98.81
309.091	92.67
309.305	45.57
309.519	37.38
309.733	72.19
309.947	-15.87
310.161	49.66
310.374	47.62
310.588	70.14
310.802	-5.63
311.016	18.94
311.23	2.56
311.444	61.95
311.658	14.85
311.872	96.77
312.085	25.09
312.299	66.05
312.513	41.47
312.727	57.86
312.941	-3.58
313.154	23.04
313.368	37.38
313.582	66.05
313.796	74.24
314.009	55.81
314.223	72.19
314.437	68.09
314.651	33.28
314.864	-13.82
315.078	-7.68
315.292	-26.11
315.505	70.14
315.719	51.71
315.933	-3.58
316.146	49.66
316.36	27.14
316.573	31.23
316.787	49.66
317.001	27.14
317.214	109.05
317.428	-19.97
317.641	78.33
317.855	41.47
318.068	53.76
318.282	18.94
318.495	35.33
318.709	37.38
318.922	78.33
319.136	18.94
319.349	61.95
319.563	27.14
319.776	12.8
319.99	-9.73
320.203	-1.54
320.417	51.71
320.63	37.38
320.843	57.86
321.057	64
321.27	90.62
321.483	33.28
321.697	135.68
321.91	-26.11
322.124	29.18
322.337	10.75
322.55	-28.16
322.763	10.75
322.977	53.76
323.19	35.33
323.403	29.18
323.617	29.18
323.83	-7.68
324.043	51.71
324.256	37.38
324.469	-93.69
324.683	20.99
324.896	94.72
325.109	-5.63
325.322	-5.63
325.535	61.95
325.748	104.96
325.962	-15.87
326.175	57.86
326.388	76.29
326.601	51.71
326.814	55.81
327.027	10.75
327.24	53.76
327.453	-118.27
327.666	137.73
327.879	74.24
328.092	45.57
328.305	57.86
328.518	90.62
328.731	-36.35
328.944	-3.58
329.157	84.48
329.37	49.66
329.583	139.77
329.796	78.33
330.009	20.99
330.222	37.38
330.435	76.29
330.648	37.38
330.861	66.05
331.073	86.53
331.286	47.62
331.499	74.24
331.712	-32.26
331.925	94.72
332.138	10.75
332.35	39.42
332.563	78.33
332.776	37.38
332.989	-48.64
333.202	-19.97
333.414	29.18
333.627	129.53
333.84	-7.68
334.053	0.51
334.265	31.23
334.478	76.29
334.691	6.66
334.903	72.19
335.116	41.47
335.329	-46.59
335.541	45.57
335.754	68.09
335.966	74.24
336.179	70.14
336.392	8.7
336.604	59.9
336.817	35.33
337.029	-24.06
337.242	29.18
337.454	-28.16
337.667	41.47
337.88	78.33
338.092	86.53
338.305	47.62
338.517	45.57
338.729	37.38
338.942	6.66
339.154	45.57
339.367	-3.58
339.579	135.68
339.792	35.33
340.004	47.62
340.217	82.43
340.429	29.18
340.641	4.61
340.854	47.62
341.066	25.09
341.278	135.68
341.491	98.81
341.703	121.34
341.915	-22.02
342.128	49.66
342.34	2.56
342.552	8.7
342.764	86.53
342.977	70.14
343.189	59.9
343.401	61.95
343.613	16.9
343.826	61.95
344.038	49.66
344.25	53.76
344.462	6.66
344.674	37.38
344.886	76.29
345.099	45.57
345.311	45.57
345.523	-28.16
345.735	-7.68
345.947	66.05
346.159	51.71
346.371	55.81
346.583	41.47
346.795	74.24
347.007	-22.02
347.219	-67.07
347.431	18.94
347.643	27.14
347.855	-1.54
348.067	107.01
348.279	55.81
348.491	16.9
348.703	-9.73
348.915	-9.73
349.127	98.81
349.339	33.28
349.551	78.33
349.763	100.86
349.975	41.47
350.187	8.7
350.399	92.67
350.61	53.76
350.822	113.15
351.034	41.47
351.246	14.85
351.458	100.86
351.669	-28.16
351.881	98.81
352.093	41.47
352.305	98.81
352.517	23.04
352.728	88.57
352.94	66.05
353.152	31.23
353.363	18.94
353.575	49.66
353.787	20.99
353.999	74.24
354.21	96.77
354.422	12.8
354.633	-9.73
354.845	-13.82
355.057	35.33
355.268	41.47
355.48	10.75
355.692	88.57
355.903	12.8
356.115	47.62
356.326	-32.26
356.538	78.33
356.749	-11.78
356.961	47.62
357.172	-1.54
357.384	27.14
357.595	150.01
357.807	16.9
358.018	92.67
358.23	70.14
358.441	96.77
358.653	117.25
358.864	37.38
359.075	37.38
359.287	78.33
359.498	152.06
359.709	59.9
359.921	51.71
360.132	70.14
360.344	12.8
360.555	76.29
360.766	35.33
360.977	92.67
361.189	74.24
361.4	-52.74
361.611	51.71
361.823	66.05
362.034	66.05
362.245	-30.21
362.456	23.04
362.667	70.14
362.879	4.61
363.09	59.9
363.301	53.76
363.512	78.33
363.723	41.47
363.935	59.9
364.146	18.94
364.357	18.94
364.568	94.72
364.779	45.57
364.99	53.76
365.201	0.51
365.412	37.38
365.623	59.9
365.834	29.18
366.045	14.85
366.256	57.86
366.467	102.91
366.678	80.38
366.889	43.52
367.1	74.24
367.311	45.57
367.522	45.57
367.733	20.99
367.944	92.67
368.155	25.09
368.366	43.52
368.577	59.9
368.788	6.66
368.999	104.96
369.209	33.28
369.42	147.97
369.631	96.77
369.842	125.44
370.053	-26.11
370.264	35.33
370.474	45.57
370.685	39.42
370.896	33.28
371.107	66.05
371.317	16.9
371.528	12.8
371.739	109.05
371.95	100.86
372.16	16.9
372.371	-3.58
372.582	4.61
372.792	-19.97
373.003	-15.87
373.214	18.94
373.424	55.81
373.635	94.72
373.846	107.01
374.056	43.52
374.267	72.19
374.477	51.71
374.688	18.94
374.898	-36.35
375.109	55.81
375.319	102.91
375.53	78.33
375.74	76.29
375.951	127.49
376.161	2.56
376.372	84.48
376.582	-7.68
376.793	115.2
377.003	31.23
377.214	-24.06
377.424	-3.58
377.635	78.33
377.845	117.25
378.055	113.15
378.266	49.66
378.476	66.05
378.686	117.25
378.897	25.09
379.107	-9.73
379.317	100.86
379.528	8.7
379.738	31.23
379.948	2.56
380.158	131.58
380.369	96.77
380.579	47.62
380.789	35.33
380.999	51.71
381.21	57.86
381.42	76.29
381.63	27.14
381.84	-11.78
382.05	43.52
382.261	31.23
382.471	59.9
382.681	70.14
382.891	20.99
383.101	8.7
383.311	18.94
383.521	49.66
383.731	137.73
383.941	76.29
384.151	33.28
384.361	-1.54
384.571	35.33
384.781	82.43
384.991	107.01
385.201	123.39
385.411	29.18
385.621	29.18
385.831	90.62
386.041	43.52
386.251	33.28
386.461	70.14
386.671	51.71
386.881	195.07
387.091	33.28
387.301	47.62
387.511	29.18
387.72	84.48
387.93	72.19
388.14	55.81
388.35	57.86
388.56	37.38
388.769	49.66
388.979	49.66
389.189	55.81
389.399	53.76
389.609	66.05
389.818	61.95
390.028	57.86
390.238	35.33
390.447	61.95
390.657	64
390.867	152.06
391.076	8.7
391.286	53.76
391.496	94.72
391.705	51.71
391.915	121.34
392.125	104.96
392.334	4.61
392.544	84.48
392.753	57.86
392.963	113.15
393.172	150.01
393.382	57.86
393.591	152.06
393.801	57.86
394.01	98.81
394.22	39.42
394.429	117.25
394.639	80.38
394.848	107.01
395.058	45.57
395.267	43.52
395.477	82.43
395.686	45.57
395.895	78.33
396.105	180.73
396.314	47.62
396.524	86.53
396.733	125.44
396.942	96.77
397.152	104.96
397.361	143.87
397.57	59.9
397.78	59.9
397.989	127.49
398.198	98.81
398.407	119.29
398.617	98.81
398.826	141.82
399.035	174.59
399.244	94.72
399.453	127.49
399.663	156.16
399.872	121.34
400.081	76.29
400.29	150.01
400.499	100.86
400.708	109.05
400.917	129.53
401.127	109.05
401.336	100.86
401.545	131.58
401.754	152.06
401.963	139.77
402.172	172.54
402.381	61.95
402.59	133.63
402.799	82.43
403.008	160.25
403.217	193.02
403.426	37.38
403.635	135.68
403.844	82.43
404.053	96.77
404.262	168.45
404.471	223.74
404.68	131.58
404.888	59.9
405.097	102.91
405.306	150.01
405.515	166.4
405.724	115.2
405.933	188.93
406.142	152.06
406.35	158.21
406.559	201.21
406.768	217.6
406.977	250.36
407.185	225.79
407.394	276.99
407.603	248.32
407.812	221.69
408.02	291.32
408.229	303.61
408.438	229.88
408.646	186.88
408.855	182.78
409.064	250.36
409.272	266.75
409.481	315.9
409.69	307.71
409.898	313.85
410.107	381.43
410.315	356.86
410.524	299.52
410.733	350.71
410.941	344.57
411.15	369.15
411.358	430.59
411.567	371.19
411.775	436.73
411.984	387.58
412.192	397.82
412.401	475.64
412.609	492.02
412.818	528.89
413.026	539.13
413.234	569.85
413.443	502.26
413.651	506.36
413.86	532.98
414.068	606.71
414.276	686.58
414.485	651.77
414.693	672.25
414.901	700.92
415.11	745.97
415.318	698.87
415.526	684.53
415.734	850.42
415.943	844.28
416.151	838.13
416.359	846.32
416.567	934.39
416.776	981.49
416.984	1063.41
417.192	1057.26
417.4	1071.6
417.608	1012.21
417.817	1106.42
418.025	1178.09
418.233	1249.77
418.441	1163.76
418.649	1235.44
418.857	1335.79
419.065	1251.82
419.273	1446.38
419.481	1452.52
419.689	1538.54
419.897	1509.86
420.105	1573.35
420.313	1683.94
420.521	1638.89
420.729	1724.9
420.937	1757.67
421.145	1780.2
421.353	2052.58
421.561	1962.47
421.769	2036.19
421.977	2163.17
422.185	2095.58
422.393	2214.37
422.601	2404.83
422.809	2240.99
423.017	2413.02
423.224	2437.59
423.432	2615.77
423.64	2558.42
423.848	2920.92
424.056	2728.41
424.263	2933.2
424.471	2935.25
424.679	2879.96
424.887	3166.67
425.094	3336.65
425.302	3240.4
425.51	3385.8
425.718	3502.54
425.925	3539.4
426.133	3602.89
426.341	4026.82
426.548	4121.03
426.756	3975.62
426.964	4075.97
427.171	4286.91
427.379	4385.21
427.586	4579.77
427.794	4692.41
428.001	4821.43
428.209	5063.09
428.417	5067.19
428.624	5302.7
428.832	5452.2
429.039	5360.05
429.247	5394.86
429.454	5810.6
429.662	6336.93
429.869	5865.89
430.076	6369.69
430.284	6025.64
430.491	6427.04
430.699	6789.53
430.906	6748.57
431.114	6787.48
431.321	7139.73
431.528	7252.37
431.736	7711.11
431.943	7969.16
432.15	7752.07
432.358	7913.86
432.565	8339.84
432.772	8196.48
432.979	8710.52
433.187	8747.39
433.394	8614.27
433.601	9496.94
433.808	9460.08
434.016	9380.21
434.223	9711.98
434.43	10371.43
434.637	10285.41
434.844	10877.27
435.052	10895.71
435.259	11030.87
435.466	11178.33
435.673	10981.72
435.88	11567.44
436.087	12396.87
436.294	12349.76
436.501	11913.55
436.708	12308.8
436.915	12654.91
437.122	13295.93
437.329	13269.3
437.537	13537.59
437.743	13875.5
437.95	13869.36
438.157	14438.69
438.364	14784.8
438.571	14856.48
438.778	15071.51
438.985	16431.37
439.192	15722.77
439.399	16431.37
439.606	15878.41
439.813	16548.1
440.02	17649.91
440.227	17285.37
440.433	17107.19
440.64	17942.77
440.847	17721.59
441.054	18299.11
441.261	19456.22
441.467	19054.81
441.674	19517.65
441.881	20429
442.088	20099.28
442.294	19874
442.501	20388.04
442.708	20902.08
442.914	21778.61
443.121	22816.93
443.328	22100.14
443.534	23791.76
443.741	22763.68
443.948	22630.57
444.154	24014.99
444.361	23799.96
444.568	24254.61
444.774	24082.58
444.981	24561.8
445.187	25358.46
445.394	26378.35
445.6	26247.28
445.807	28276.82
446.013	27254.88
446.22	27478.11
446.426	28702.79
446.633	29263.94
446.839	29765.69
447.046	28653.64
447.252	30144.56
447.459	30289.97
447.665	30234.67
447.871	31608.86
448.078	32600.08
448.284	31512.61
448.491	32079.89
448.697	33265.67
448.903	33988.6
449.11	33927.16
449.316	33067.02
449.522	33902.59
449.728	34789.36
449.935	35043.31
450.141	34858.99
450.347	35651.55
450.553	34666.48
450.76	34781.17
450.966	36419.54
451.172	35809.25
451.378	36577.23
451.584	35985.37
451.791	36923.34
451.997	36485.08
452.203	37316.55
452.409	37337.03
452.615	37267.4
452.821	35262.44
453.027	35074.02
453.233	37064.65
453.44	35477.47
453.646	36104.15
453.852	36157.4
454.058	36919.24
454.264	35571.68
454.47	36059.1
454.676	35143.66
454.882	36454.36
455.088	33118.21
455.294	34023.42
455.5	34301.94
455.705	34576.37
455.911	33054.73
456.117	32370.71
456.323	32180.24
456.529	30124.08
456.735	31692.83
456.941	30715.95
457.147	30660.65
457.352	29505.6
457.558	29065.28
457.764	29231.17
457.97	28745.8
458.176	27920.47
458.381	27799.64
458.587	26644.59
458.793	26683.5
458.999	25292.93
459.204	27107.43
459.41	26187.89
459.616	24842.37
459.821	24649.86
460.027	24627.34
460.233	23793.81
460.438	22886.56
460.644	23267.48
460.85	22094
461.055	21823.67
461.261	21614.77
461.466	19892.43
461.672	19265.75
461.878	20867.27
462.083	19732.69
462.289	19157.21
462.494	19054.81
462.7	17907.95
462.905	17451.25
463.111	18209
463.316	18194.67
463.522	18112.75
463.727	18069.74
463.932	17756.4
464.138	17801.46
464.343	17871.09
464.549	17133.82
464.754	17918.19
464.959	17570.04
465.165	17393.91
465.37	16883.97
465.575	16339.21
465.781	16980.22
465.986	17133.82
466.191	16525.57
466.397	16333.06
466.602	15311.13
466.807	16027.92
467.012	16081.16
467.218	16017.68
467.423	15472.92
