Data from USB4F104151__61__10-23-57-763.txt Node

Date: Wed Mar 12 10:23:57 EDT 2025
User: louis
Spectrometer: USB4F10415
Trigger mode: 4
Integration Time (sec): 3.000000E-2
Scans to average: 1
Electric dark correction enabled: true
Nonlinearity correction enabled: false
Boxcar width: 0
XAxis mode: Wavelengths
Number of Pixels in Spectrum: 3648
>>>>>Begin Spectral Data<<<<<
178.204	-167.42
178.424	-167.42
178.644	-167.42
178.864	-93.69
179.084	-116.22
179.304	-36.35
179.524	20.99
179.744	31.23
179.964	6.66
180.184	-44.54
180.404	-62.98
180.624	-46.59
180.844	8.7
181.064	-28.16
181.283	55.81
181.503	23.04
181.723	72.19
181.943	-24.06
182.163	33.28
182.383	51.71
182.602	12.8
182.822	45.57
183.042	35.33
183.262	66.05
183.482	72.19
183.701	2.56
183.921	20.99
184.141	6.66
184.361	70.14
184.58	94.72
184.8	37.38
185.02	-3.58
185.239	23.04
185.459	53.76
185.679	20.99
185.898	0.51
186.118	-24.06
186.338	18.94
186.557	14.85
186.777	-30.21
186.997	-40.45
187.216	25.09
187.436	76.29
187.655	49.66
187.875	39.42
188.095	-9.73
188.314	70.14
188.534	25.09
188.753	35.33
188.973	68.09
189.192	18.94
189.412	33.28
189.631	129.53
189.851	18.94
190.07	94.72
190.29	-9.73
190.509	-3.58
190.729	49.66
190.948	39.42
191.168	20.99
191.387	92.67
191.607	66.05
191.826	8.7
192.045	18.94
192.265	72.19
192.484	-5.63
192.704	47.62
192.923	-58.88
193.142	98.81
193.362	25.09
193.581	156.16
193.8	86.53
194.02	12.8
194.239	123.39
194.458	12.8
194.678	61.95
194.897	4.61
195.116	76.29
195.335	86.53
195.555	92.67
195.774	59.9
195.993	104.96
196.212	45.57
196.432	20.99
196.651	20.99
196.87	2.56
197.089	51.71
197.308	59.9
197.528	37.38
197.747	20.99
197.966	-1.54
198.185	53.76
198.404	74.24
198.623	82.43
198.842	61.95
199.062	49.66
199.281	37.38
199.5	37.38
199.719	94.72
199.938	16.9
200.157	113.15
200.376	27.14
200.595	100.86
200.814	86.53
201.033	66.05
201.252	84.48
201.471	-26.11
201.69	18.94
201.909	-32.26
202.128	55.81
202.347	47.62
202.566	29.18
202.785	10.75
203.004	-40.45
203.223	143.87
203.442	2.56
203.661	2.56
203.879	-28.16
204.098	35.33
204.317	-30.21
204.536	53.76
204.755	78.33
204.974	55.81
205.193	35.33
205.411	49.66
205.63	20.99
205.849	78.33
206.068	47.62
206.287	61.95
206.505	55.81
206.724	-118.27
206.943	0.51
207.162	66.05
207.381	37.38
207.599	-22.02
207.818	43.52
208.037	33.28
208.255	78.33
208.474	4.61
208.693	-3.58
208.911	88.57
209.13	-44.54
209.349	53.76
209.567	94.72
209.786	53.76
210.005	25.09
210.223	86.53
210.442	-30.21
210.661	-22.02
210.879	2.56
211.098	51.71
211.316	8.7
211.535	61.95
211.753	31.23
211.972	41.47
212.191	64
212.409	25.09
212.628	70.14
212.846	-50.69
213.065	49.66
213.283	111.1
213.502	10.75
213.72	-32.26
213.938	-3.58
214.157	55.81
214.375	-5.63
214.594	51.71
214.812	27.14
215.031	84.48
215.249	90.62
215.467	92.67
215.686	25.09
215.904	80.38
216.122	-3.58
216.341	18.94
216.559	27.14
216.778	6.66
216.996	20.99
217.214	12.8
217.432	66.05
217.651	14.85
217.869	16.9
218.087	109.05
218.306	0.51
218.524	86.53
218.742	14.85
218.96	86.53
219.179	84.48
219.397	10.75
219.615	20.99
219.833	37.38
220.051	25.09
220.27	53.76
220.488	72.19
220.706	33.28
220.924	25.09
221.142	4.61
221.36	10.75
221.578	66.05
221.796	25.09
222.015	-11.78
222.233	37.38
222.451	27.14
222.669	14.85
222.887	-15.87
223.105	0.51
223.323	61.95
223.541	64
223.759	39.42
223.977	12.8
224.195	90.62
224.413	55.81
224.631	51.71
224.849	23.04
225.067	86.53
225.285	0.51
225.503	-38.4
225.721	8.7
225.939	-1.54
226.157	4.61
226.375	117.25
226.592	37.38
226.81	53.76
227.028	45.57
227.246	20.99
227.464	74.24
227.682	37.38
227.9	10.75
228.117	12.8
228.335	51.71
228.553	12.8
228.771	-1.54
228.989	61.95
229.206	33.28
229.424	-32.26
229.642	68.09
229.86	-15.87
230.077	82.43
230.295	59.9
230.513	68.09
230.731	-1.54
230.948	78.33
231.166	92.67
231.384	-11.78
231.601	66.05
231.819	66.05
232.037	23.04
232.254	14.85
232.472	59.9
232.689	10.75
232.907	82.43
233.125	92.67
233.342	4.61
233.56	-3.58
233.777	8.7
233.995	-22.02
234.213	82.43
234.43	61.95
234.648	20.99
234.865	51.71
235.083	51.71
235.3	-9.73
235.518	23.04
235.735	64
235.953	70.14
236.17	20.99
236.388	49.66
236.605	25.09
236.822	78.33
237.04	-1.54
237.257	8.7
237.475	23.04
237.692	-7.68
237.909	6.66
238.127	-24.06
238.344	102.91
238.562	90.62
238.779	16.9
238.996	37.38
239.214	4.61
239.431	23.04
239.648	16.9
239.865	84.48
240.083	61.95
240.3	35.33
240.517	27.14
240.735	-3.58
240.952	59.9
241.169	78.33
241.386	25.09
241.603	111.1
241.821	-3.58
242.038	92.67
242.255	94.72
242.472	27.14
242.689	47.62
242.907	16.9
243.124	-5.63
243.341	135.68
243.558	-22.02
243.775	-44.54
243.992	68.09
244.209	37.38
244.426	94.72
244.643	-38.4
244.86	20.99
245.078	-5.63
245.295	59.9
245.512	51.71
245.729	-24.06
245.946	53.76
246.163	-24.06
246.38	33.28
246.597	20.99
246.814	41.47
247.031	10.75
247.248	4.61
247.464	39.42
247.681	20.99
247.898	31.23
248.115	109.05
248.332	16.9
248.549	43.52
248.766	68.09
248.983	61.95
249.2	53.76
249.417	-3.58
249.633	-34.3
249.85	61.95
250.067	70.14
250.284	0.51
250.501	-13.82
250.717	68.09
250.934	59.9
251.151	29.18
251.368	10.75
251.585	43.52
251.801	51.71
252.018	51.71
252.235	88.57
252.451	45.57
252.668	0.51
252.885	61.95
253.102	88.57
253.318	-3.58
253.535	-15.87
253.752	-5.63
253.968	39.42
254.185	6.66
254.401	49.66
254.618	68.09
254.835	61.95
255.051	8.7
255.268	2.56
255.484	55.81
255.701	-15.87
255.917	66.05
256.134	16.9
256.351	49.66
256.567	-1.54
256.784	27.14
257	66.05
257.217	55.81
257.433	55.81
257.65	-85.5
257.866	53.76
258.082	66.05
258.299	0.51
258.515	16.9
258.732	20.99
258.948	78.33
259.165	33.28
259.381	6.66
259.597	82.43
259.814	53.76
260.03	45.57
260.246	29.18
260.463	16.9
260.679	39.42
260.895	76.29
261.112	64
261.328	55.81
261.544	8.7
261.761	78.33
261.977	2.56
262.193	45.57
262.409	18.94
262.626	94.72
262.842	-11.78
263.058	0.51
263.274	-13.82
263.49	90.62
263.707	74.24
263.923	70.14
264.139	-26.11
264.355	-7.68
264.571	70.14
264.787	45.57
265.004	61.95
265.22	33.28
265.436	-3.58
265.652	76.29
265.868	37.38
266.084	-11.78
266.3	-9.73
266.516	4.61
266.732	29.18
266.948	27.14
267.164	29.18
267.38	29.18
267.596	-19.97
267.812	76.29
268.028	6.66
268.244	86.53
268.46	0.51
268.676	53.76
268.892	10.75
269.108	49.66
269.324	18.94
269.54	-22.02
269.756	59.9
269.972	20.99
270.188	27.14
270.403	0.51
270.619	16.9
270.835	12.8
271.051	27.14
271.267	57.86
271.483	20.99
271.698	109.05
271.914	43.52
272.13	25.09
272.346	61.95
272.562	59.9
272.777	20.99
272.993	35.33
273.209	27.14
273.425	82.43
273.64	41.47
273.856	8.7
274.072	55.81
274.287	2.56
274.503	78.33
274.719	-15.87
274.934	10.75
275.15	66.05
275.366	78.33
275.581	-30.21
275.797	2.56
276.012	-13.82
276.228	-15.87
276.444	16.9
276.659	39.42
276.875	33.28
277.09	45.57
277.306	82.43
277.521	-1.54
277.737	-22.02
277.952	68.09
278.168	23.04
278.383	82.43
278.599	78.33
278.814	-30.21
279.03	-11.78
279.245	86.53
279.461	55.81
279.676	8.7
279.892	-5.63
280.107	0.51
280.322	27.14
280.538	20.99
280.753	-44.54
280.969	39.42
281.184	35.33
281.399	37.38
281.615	-17.92
281.83	35.33
282.045	66.05
282.26	-24.06
282.476	86.53
282.691	18.94
282.906	80.38
283.122	66.05
283.337	37.38
283.552	51.71
283.767	27.14
283.983	49.66
284.198	68.09
284.413	27.14
284.628	-75.26
284.843	29.18
285.058	90.62
285.274	37.38
285.489	37.38
285.704	-22.02
285.919	53.76
286.134	35.33
286.349	-11.78
286.564	12.8
286.779	2.56
286.995	47.62
287.21	-9.73
287.425	4.61
287.64	31.23
287.855	51.71
288.07	49.66
288.285	43.52
288.5	57.86
288.715	78.33
288.93	-3.58
289.145	37.38
289.36	59.9
289.575	59.9
289.79	98.81
290.004	51.71
290.219	76.29
290.434	23.04
290.649	53.76
290.864	78.33
291.079	-13.82
291.294	43.52
291.509	74.24
291.724	78.33
291.938	2.56
292.153	66.05
292.368	4.61
292.583	12.8
292.798	59.9
293.012	74.24
293.227	-7.68
293.442	64
293.657	55.81
293.871	23.04
294.086	-7.68
294.301	90.62
294.516	72.19
294.73	66.05
294.945	59.9
295.16	64
295.374	61.95
295.589	59.9
295.804	45.57
296.018	-42.5
296.233	98.81
296.447	76.29
296.662	2.56
296.877	0.51
297.091	68.09
297.306	37.38
297.52	98.81
297.735	66.05
297.949	29.18
298.164	55.81
298.378	53.76
298.593	43.52
298.807	70.14
299.022	2.56
299.236	86.53
299.451	0.51
299.665	53.76
299.88	4.61
300.094	16.9
300.309	29.18
300.523	59.9
300.737	-30.21
300.952	41.47
301.166	94.72
301.381	-69.12
301.595	47.62
301.809	-30.21
302.024	35.33
302.238	-15.87
302.452	51.71
302.667	41.47
302.881	53.76
303.095	121.34
303.309	70.14
303.524	49.66
303.738	-7.68
303.952	-50.69
304.166	98.81
304.381	-15.87
304.595	150.01
304.809	29.18
305.023	53.76
305.237	59.9
305.452	66.05
305.666	2.56
305.88	113.15
306.094	27.14
306.308	92.67
306.522	33.28
306.736	18.94
306.95	47.62
307.164	-30.21
307.379	-54.78
307.593	53.76
307.807	66.05
308.021	90.62
308.235	18.94
308.449	-1.54
308.663	29.18
308.877	12.8
309.091	-58.88
309.305	2.56
309.519	-11.78
309.733	4.61
309.947	41.47
310.161	55.81
310.374	37.38
310.588	88.57
310.802	10.75
311.016	18.94
311.23	12.8
311.444	-22.02
311.658	61.95
311.872	12.8
312.085	74.24
312.299	35.33
312.513	29.18
312.727	25.09
312.941	31.23
313.154	12.8
313.368	6.66
313.582	47.62
313.796	33.28
314.009	49.66
314.223	102.91
314.437	76.29
314.651	27.14
314.864	53.76
315.078	37.38
315.292	31.23
315.505	33.28
315.719	51.71
315.933	29.18
316.146	80.38
316.36	-19.97
316.573	90.62
316.787	8.7
317.001	23.04
317.214	23.04
317.428	-7.68
317.641	33.28
317.855	66.05
318.068	20.99
318.282	51.71
318.495	102.91
318.709	119.29
318.922	-52.74
319.136	61.95
319.349	18.94
319.563	-15.87
319.776	2.56
319.99	-9.73
320.203	66.05
320.417	39.42
320.63	90.62
320.843	29.18
321.057	29.18
321.27	84.48
321.483	16.9
321.697	78.33
321.91	115.2
322.124	100.86
322.337	59.9
322.55	-24.06
322.763	133.63
322.977	51.71
323.19	-19.97
323.403	66.05
323.617	25.09
323.83	59.9
324.043	43.52
324.256	61.95
324.469	14.85
324.683	57.86
324.896	-5.63
325.109	59.9
325.322	23.04
325.535	-28.16
325.748	-24.06
325.962	20.99
326.175	-24.06
326.388	49.66
326.601	49.66
326.814	70.14
327.027	12.8
327.24	33.28
327.453	-32.26
327.666	94.72
327.879	23.04
328.092	10.75
328.305	8.7
328.518	-11.78
328.731	113.15
328.944	29.18
329.157	53.76
329.37	-13.82
329.583	37.38
329.796	94.72
330.009	-36.35
330.222	68.09
330.435	94.72
330.648	33.28
330.861	41.47
331.073	55.81
331.286	76.29
331.499	78.33
331.712	-11.78
331.925	49.66
332.138	68.09
332.35	90.62
332.563	20.99
332.776	86.53
332.989	51.71
333.202	27.14
333.414	39.42
333.627	31.23
333.84	-28.16
334.053	72.19
334.265	-28.16
334.478	78.33
334.691	10.75
334.903	86.53
335.116	61.95
335.329	47.62
335.541	45.57
335.754	72.19
335.966	61.95
336.179	6.66
336.392	-30.21
336.604	8.7
336.817	113.15
337.029	12.8
337.242	68.09
337.454	88.57
337.667	68.09
337.88	127.49
338.092	55.81
338.305	49.66
338.517	18.94
338.729	43.52
338.942	139.77
339.154	-13.82
339.367	29.18
339.579	104.96
339.792	-26.11
340.004	20.99
340.217	90.62
340.429	6.66
340.641	37.38
340.854	10.75
341.066	8.7
341.278	127.49
341.491	125.44
341.703	-1.54
341.915	-11.78
342.128	41.47
342.34	-24.06
342.552	94.72
342.764	86.53
342.977	12.8
343.189	64
343.401	78.33
343.613	-15.87
343.826	-32.26
344.038	111.1
344.25	49.66
344.462	37.38
344.674	51.71
344.886	53.76
345.099	-32.26
345.311	-13.82
345.523	29.18
345.735	-71.17
345.947	76.29
346.159	14.85
346.371	84.48
346.583	-3.58
346.795	64
347.007	-11.78
347.219	23.04
347.431	29.18
347.643	96.77
347.855	0.51
348.067	27.14
348.279	-30.21
348.491	72.19
348.703	53.76
348.915	27.14
349.127	43.52
349.339	12.8
349.551	45.57
349.763	111.1
349.975	74.24
350.187	20.99
350.399	45.57
350.61	27.14
350.822	29.18
351.034	41.47
351.246	53.76
351.458	82.43
351.669	6.66
351.881	92.67
352.093	51.71
352.305	29.18
352.517	4.61
352.728	82.43
352.94	59.9
353.152	12.8
353.363	61.95
353.575	31.23
353.787	37.38
353.999	33.28
354.21	70.14
354.422	4.61
354.633	37.38
354.845	37.38
355.057	20.99
355.268	-17.92
355.48	70.14
355.692	78.33
355.903	18.94
356.115	-3.58
356.326	4.61
356.538	115.2
356.749	57.86
356.961	90.62
357.172	53.76
357.384	61.95
357.595	178.69
357.807	27.14
358.018	-1.54
358.23	14.85
358.441	76.29
358.653	88.57
358.864	18.94
359.075	-11.78
359.287	-19.97
359.498	53.76
359.709	100.86
359.921	59.9
360.132	39.42
360.344	92.67
360.555	-15.87
360.766	107.01
360.977	37.38
361.189	125.44
361.4	0.51
361.611	37.38
361.823	18.94
362.034	51.71
362.245	53.76
362.456	59.9
362.667	125.44
362.879	94.72
363.09	84.48
363.301	88.57
363.512	47.62
363.723	37.38
363.935	-22.02
364.146	57.86
364.357	47.62
364.568	86.53
364.779	43.52
364.99	37.38
365.201	25.09
365.412	47.62
365.623	61.95
365.834	53.76
366.045	72.19
366.256	23.04
366.467	70.14
366.678	68.09
366.889	68.09
367.1	64
367.311	102.91
367.522	41.47
367.733	29.18
367.944	102.91
368.155	59.9
368.366	-24.06
368.577	92.67
368.788	66.05
368.999	37.38
369.209	76.29
369.42	139.77
369.631	61.95
369.842	49.66
370.053	39.42
370.264	78.33
370.474	-1.54
370.685	61.95
370.896	76.29
371.107	59.9
371.317	43.52
371.528	29.18
371.739	135.68
371.95	88.57
372.16	20.99
372.371	74.24
372.582	0.51
372.792	78.33
373.003	2.56
373.214	61.95
373.424	76.29
373.635	-5.63
373.846	78.33
374.056	10.75
374.267	4.61
374.477	90.62
374.688	4.61
374.898	78.33
375.109	94.72
375.319	59.9
375.53	12.8
375.74	59.9
375.951	14.85
376.161	107.01
376.372	147.97
376.582	100.86
376.793	45.57
377.003	72.19
377.214	111.1
377.424	37.38
377.635	68.09
377.845	4.61
378.055	88.57
378.266	14.85
378.476	64
378.686	88.57
378.897	139.77
379.107	80.38
379.317	55.81
379.528	80.38
379.738	16.9
379.948	98.81
380.158	-1.54
380.369	33.28
380.579	59.9
380.789	53.76
380.999	61.95
381.21	43.52
381.42	158.21
381.63	-69.12
381.84	86.53
382.05	53.76
382.261	74.24
382.471	66.05
382.681	-26.11
382.891	78.33
383.101	66.05
383.311	-50.69
383.521	12.8
383.731	72.19
383.941	57.86
384.151	41.47
384.361	27.14
384.571	37.38
384.781	39.42
384.991	100.86
385.201	66.05
385.411	88.57
385.621	31.23
385.831	84.48
386.041	94.72
386.251	100.86
386.461	174.59
386.671	-15.87
386.881	51.71
387.091	82.43
387.301	51.71
387.511	127.49
387.72	117.25
387.93	64
388.14	53.76
388.35	51.71
388.56	117.25
388.769	66.05
388.979	68.09
389.189	33.28
389.399	12.8
389.609	74.24
389.818	123.39
390.028	113.15
390.238	78.33
390.447	107.01
390.657	53.76
390.867	14.85
391.076	8.7
391.286	70.14
391.496	111.1
391.705	47.62
391.915	96.77
392.125	94.72
392.334	102.91
392.544	82.43
392.753	8.7
392.963	12.8
393.172	102.91
393.382	-1.54
393.591	90.62
393.801	70.14
394.01	152.06
394.22	117.25
394.429	115.2
394.639	111.1
394.848	125.44
395.058	143.87
395.267	86.53
395.477	152.06
395.686	45.57
395.895	100.86
396.105	80.38
396.314	143.87
396.524	94.72
396.733	123.39
396.942	70.14
397.152	188.93
397.361	102.91
397.57	111.1
397.78	164.35
397.989	117.25
398.198	172.54
398.407	127.49
398.617	88.57
398.826	37.38
399.035	37.38
399.244	127.49
399.453	150.01
399.663	82.43
399.872	86.53
400.081	168.45
400.29	59.9
400.499	102.91
400.708	104.96
400.917	111.1
401.127	92.67
401.336	90.62
401.545	180.73
401.754	94.72
401.963	147.97
402.172	178.69
402.381	109.05
402.59	193.02
402.799	82.43
403.008	152.06
403.217	166.4
403.426	107.01
403.635	111.1
403.844	168.45
404.053	135.68
404.262	8.7
404.471	143.87
404.68	184.83
404.888	145.92
405.097	100.86
405.306	178.69
405.515	135.68
405.724	184.83
405.933	246.27
406.142	180.73
406.35	225.79
406.559	131.58
406.768	143.87
406.977	301.56
407.185	176.64
407.394	143.87
407.603	209.4
407.812	231.93
408.02	207.36
408.229	188.93
408.438	295.42
408.646	176.64
408.855	283.13
409.064	258.56
409.272	279.04
409.481	246.27
409.69	305.66
409.898	266.75
410.107	352.76
410.315	252.41
410.524	295.42
410.733	311.8
410.941	330.23
411.15	354.81
411.358	412.15
411.567	473.59
411.775	446.97
411.984	465.4
412.192	467.45
412.401	379.39
412.609	514.55
412.818	455.16
413.026	541.18
413.234	549.37
413.443	502.26
413.651	610.81
413.86	559.61
414.068	612.85
414.276	727.54
414.485	662.01
414.693	690.68
414.901	756.21
415.11	756.21
415.318	729.59
415.526	717.3
415.734	815.6
415.943	817.65
416.151	913.91
416.359	870.9
416.567	840.18
416.776	1004.02
416.984	905.71
417.192	1036.78
417.4	995.82
417.608	1026.54
417.817	1059.31
418.025	1110.51
418.233	1149.42
418.441	1208.81
418.649	1210.86
418.857	1294.83
419.065	1331.69
419.273	1354.22
419.481	1378.79
419.689	1464.81
419.897	1481.19
420.105	1532.39
420.313	1630.7
420.521	1622.5
420.729	1675.75
420.937	1698.28
421.145	1878.5
421.353	1851.88
421.561	1868.26
421.769	1901.03
421.977	2136.54
422.185	2036.19
422.393	2200.03
422.601	2273.76
422.809	2265.57
423.017	2281.95
423.224	2331.1
423.432	2562.52
423.64	2562.52
423.848	2793.94
424.056	2705.88
424.263	2929.11
424.471	2912.72
424.679	2998.74
424.887	3056.08
425.094	3174.86
425.302	3205.58
425.51	3256.78
425.718	3367.37
425.925	3342.8
426.133	3527.11
426.341	3940.8
426.548	3834.31
426.756	3922.37
426.964	3920.32
427.171	4204.99
427.379	4344.25
427.586	4467.13
427.794	4549.05
428.001	4714.94
428.209	4989.36
428.417	4852.15
428.624	5312.94
428.832	5128.63
429.039	5192.11
429.247	5353.9
429.454	5738.92
429.662	6072.74
429.869	5527.98
430.076	6117.79
430.284	5816.74
430.491	6199.71
430.699	6500.76
430.906	6388.13
431.114	6646.17
431.321	6939.03
431.528	6961.56
431.736	7293.33
431.943	7463.31
432.15	7596.43
432.358	7631.24
432.565	8001.93
432.772	7840.14
432.979	8331.65
433.187	8796.54
433.394	8548.73
433.601	9003.38
433.808	9210.23
434.016	8886.65
434.223	9531.76
434.43	9918.82
434.637	9818.47
434.844	10473.82
435.052	10527.07
435.259	10639.71
435.466	10578.27
435.673	10342.75
435.88	11372.88
436.087	11661.65
436.294	11759.95
436.501	11589.97
436.708	11768.14
436.915	12153.16
437.122	12652.86
437.329	12570.94
437.537	13072.7
437.743	13306.16
437.95	13121.85
438.157	13818.16
438.364	14295.33
438.571	14317.86
438.778	14518.56
438.985	15909.13
439.192	15044.89
439.399	15597.84
439.606	15284.5
439.813	16072.97
440.02	17101.05
440.227	16632.07
440.433	16617.73
440.64	17211.64
440.847	16969.98
441.054	17359.1
441.261	18546.92
441.467	18295.02
441.674	18796.77
441.881	19501.27
442.088	19366.1
442.294	19204.31
442.501	19648.72
442.708	19996.88
442.914	21022.91
443.121	21872.82
443.328	20990.14
443.534	22800.55
443.741	21860.53
443.948	21686.45
444.154	23445.66
444.361	23048.35
444.568	23115.94
444.774	23130.27
444.981	23470.23
445.187	24363.15
445.394	25170.05
445.6	24862.85
445.807	27132
446.013	25784.44
446.22	26591.34
446.426	27594.84
446.633	27646.04
446.839	28661.83
447.046	27494.49
447.252	29112.39
447.459	29241.41
447.665	28653.64
447.871	29878.33
448.078	31162.4
448.284	29831.22
448.491	30607.4
448.697	31653.92
448.903	32442.38
449.11	32163.86
449.316	31868.95
449.522	32325.65
449.728	33142.79
449.935	33746.94
450.141	33341.44
450.347	34342.9
450.553	33183.75
450.76	33396.74
450.966	34646
451.172	34338.8
451.378	34936.81
451.584	34334.71
451.791	35149.8
451.997	34973.67
452.203	35403.75
452.409	35416.04
452.615	34912.24
452.821	33632.25
453.027	33517.57
453.233	34902
453.44	34015.22
453.646	34136.06
453.852	34373.62
454.058	34867.18
454.264	33892.35
454.47	34795.5
454.676	33540.1
454.882	34570.22
455.088	31580.19
455.294	32092.18
455.5	32307.22
455.705	32731.15
455.911	31485.98
456.117	31131.68
456.323	30701.61
456.529	28797
456.735	29802.55
456.941	29212.74
457.147	28622.92
457.352	27934.81
457.558	27744.34
457.764	27830.36
457.97	26814.57
458.176	26374.25
458.381	26542.19
458.587	25004.16
458.793	25270.4
458.999	23789.72
459.204	25747.58
459.41	24963.2
459.616	23189.66
459.821	23345.31
460.027	23228.57
460.233	22902.95
460.438	21704.88
460.644	21596.34
460.85	20674.76
461.055	20457.67
461.261	20498.63
461.466	19140.83
461.672	18073.84
461.878	20031.69
462.083	18424.04
462.289	18006.25
462.494	17856.75
462.7	17082.62
462.905	16386.31
463.111	17021.18
463.316	17277.18
463.522	16902.4
463.727	16961.79
463.932	16808.19
464.138	16656.64
464.343	16630.02
464.549	16511.24
464.754	16982.27
464.959	16816.38
465.165	16498.95
465.37	16130.31
465.575	15290.65
465.781	16152.84
465.986	16218.38
466.191	15405.33
466.397	15372.57
466.602	14747.93
466.807	15100.19
467.012	14997.79
467.218	15143.19
467.423	15024.41
467.628	15159.58
467.833	15554.83
468.038	14831.9
468.244	14354.72
