Data from USB4F104151__105__10-24-45-968.txt Node

Date: Wed Mar 12 10:24:45 EDT 2025
User: louis
Spectrometer: USB4F10415
Trigger mode: 4
Integration Time (sec): 3.000000E-2
Scans to average: 1
Electric dark correction enabled: true
Nonlinearity correction enabled: false
Boxcar width: 0
XAxis mode: Wavelengths
Number of Pixels in Spectrum: 3648
>>>>>Begin Spectral Data<<<<<
178.204	-92.84
178.424	-92.84
178.644	-92.84
178.864	-119.46
179.084	-113.32
179.304	-47.79
179.524	-37.55
179.744	-10.92
179.964	-10.92
180.184	32.08
180.404	52.56
180.624	-19.11
180.844	-58.03
181.064	40.28
181.283	19.8
181.503	-19.11
181.723	58.71
181.943	-51.88
182.163	27.99
182.383	-45.74
182.602	7.51
182.822	52.56
183.042	-2.73
183.262	-27.31
183.482	3.41
183.701	-2.73
183.921	-0.68
184.141	-55.98
184.361	-4.78
184.58	-6.83
184.8	13.65
185.02	23.89
185.239	71
185.459	54.61
185.679	54.61
185.898	-6.83
186.118	56.66
186.338	62.8
186.557	95.57
186.777	46.42
186.997	-51.88
187.216	-66.22
187.436	97.62
187.655	111.96
187.875	-12.97
188.095	-41.64
188.314	13.65
188.534	38.23
188.753	23.89
188.973	32.08
189.192	40.28
189.412	42.32
189.631	-23.21
189.851	5.46
190.07	38.23
190.29	105.81
190.509	48.47
190.729	36.18
190.948	50.52
191.168	91.48
191.387	-29.35
191.607	-37.55
191.826	40.28
192.045	5.46
192.265	-17.07
192.484	23.89
192.704	34.13
192.923	52.56
193.142	56.66
193.362	23.89
193.581	60.76
193.8	19.8
194.02	15.7
194.239	64.85
194.458	40.28
194.678	58.71
194.897	1.37
195.116	30.04
195.335	34.13
195.555	-12.97
195.774	13.65
195.993	66.9
196.212	15.7
196.432	5.46
196.651	42.32
196.87	-29.35
197.089	64.85
197.308	9.56
197.528	42.32
197.747	60.76
197.966	23.89
198.185	118.1
198.404	3.41
198.623	103.76
198.842	7.51
199.062	-15.02
199.281	13.65
199.5	-31.4
199.719	40.28
199.938	89.43
200.157	23.89
200.376	15.7
200.595	75.09
200.814	23.89
201.033	7.51
201.252	13.65
201.471	13.65
201.69	32.08
201.909	152.92
202.128	73.04
202.347	19.8
202.566	25.94
202.785	-25.26
203.004	-45.74
203.223	154.96
203.442	66.9
203.661	54.61
203.879	46.42
204.098	101.72
204.317	17.75
204.536	89.43
204.755	-12.97
204.974	68.95
205.193	75.09
205.411	107.86
205.63	56.66
205.849	62.8
206.068	27.99
206.287	73.04
206.505	13.65
206.724	-0.68
206.943	34.13
207.162	62.8
207.381	13.65
207.599	13.65
207.818	64.85
208.037	5.46
208.255	40.28
208.474	-0.68
208.693	75.09
208.911	-4.78
209.13	19.8
209.349	36.18
209.567	-6.83
209.786	128.34
210.005	36.18
210.223	9.56
210.442	-10.92
210.661	56.66
210.879	17.75
211.098	-15.02
211.316	15.7
211.535	-8.87
211.753	56.66
211.972	25.94
212.191	3.41
212.409	1.37
212.628	-23.21
212.846	46.42
213.065	71
213.283	13.65
213.502	56.66
213.72	91.48
213.938	79.19
214.157	3.41
214.375	48.47
214.594	27.99
214.812	54.61
215.031	52.56
215.249	40.28
215.467	17.75
215.686	-19.11
215.904	23.89
216.122	-8.87
216.341	34.13
216.559	36.18
216.778	1.37
216.996	46.42
217.214	-19.11
217.432	13.65
217.651	-6.83
217.869	-6.83
218.087	19.8
218.306	38.23
218.524	87.38
218.742	50.52
218.96	34.13
219.179	-82.6
219.397	-2.73
219.615	54.61
219.833	-0.68
220.051	40.28
220.27	3.41
220.488	-4.78
220.706	36.18
220.924	-8.87
221.142	44.37
221.36	-27.31
221.578	7.51
221.796	60.76
222.015	11.61
222.233	44.37
222.451	77.14
222.669	21.85
222.887	3.41
223.105	-49.83
223.323	32.08
223.541	-12.97
223.759	-15.02
223.977	-23.21
224.195	64.85
224.413	-35.5
224.631	62.8
224.849	30.04
225.067	46.42
225.285	13.65
225.503	-31.4
225.721	-21.16
225.939	79.19
226.157	-6.83
226.375	124.24
226.592	-17.07
226.81	34.13
227.028	122.2
227.246	71
227.464	25.94
227.682	-64.17
227.9	-0.68
228.117	-27.31
228.335	-17.07
228.553	23.89
228.771	93.52
228.989	-6.83
229.206	44.37
229.424	7.51
229.642	50.52
229.86	64.85
230.077	85.33
230.295	-4.78
230.513	-39.59
230.731	73.04
230.948	89.43
231.166	27.99
231.384	77.14
231.601	3.41
231.819	62.8
232.037	34.13
232.254	-19.11
232.472	-49.83
232.689	-25.26
232.907	120.15
233.125	13.65
233.342	64.85
233.56	13.65
233.777	52.56
233.995	95.57
234.213	68.95
234.43	-23.21
234.648	-0.68
234.865	19.8
235.083	114
235.3	19.8
235.518	-8.87
235.735	-58.03
235.953	-2.73
236.17	48.47
236.388	-23.21
236.605	-19.11
236.822	107.86
237.04	111.96
237.257	34.13
237.475	46.42
237.692	38.23
237.909	48.47
238.127	32.08
238.344	-33.45
238.562	73.04
238.779	17.75
238.996	19.8
239.214	5.46
239.431	130.39
239.648	-76.46
239.865	5.46
240.083	83.28
240.3	-29.35
240.517	-35.5
240.735	134.48
240.952	62.8
241.169	85.33
241.386	-8.87
241.603	25.94
241.821	11.61
242.038	66.9
242.255	111.96
242.472	-4.78
242.689	40.28
242.907	-4.78
243.124	73.04
243.341	-60.07
243.558	30.04
243.775	-27.31
243.992	-33.45
244.209	19.8
244.426	89.43
244.643	95.57
244.86	38.23
245.078	42.32
245.295	7.51
245.512	1.37
245.729	-4.78
245.946	64.85
246.163	81.24
246.38	58.71
246.597	68.95
246.814	95.57
247.031	89.43
247.248	81.24
247.464	1.37
247.681	15.7
247.898	27.99
248.115	48.47
248.332	-35.5
248.549	30.04
248.766	120.15
248.983	52.56
249.2	25.94
249.417	-8.87
249.633	27.99
249.85	68.95
250.067	-19.11
250.284	56.66
250.501	11.61
250.717	54.61
250.934	15.7
251.151	48.47
251.368	81.24
251.585	62.8
251.801	13.65
252.018	27.99
252.235	27.99
252.451	23.89
252.668	52.56
252.885	21.85
253.102	23.89
253.318	19.8
253.535	-6.83
253.752	21.85
253.968	1.37
254.185	-31.4
254.401	105.81
254.618	30.04
254.835	23.89
255.051	66.9
255.268	27.99
255.484	25.94
255.701	64.85
255.917	62.8
256.134	13.65
256.351	17.75
256.567	15.7
256.784	15.7
257	3.41
257.217	56.66
257.433	9.56
257.65	118.1
257.866	-15.02
258.082	-12.97
258.299	38.23
258.515	38.23
258.732	-15.02
258.948	95.57
259.165	-2.73
259.381	-4.78
259.597	111.96
259.814	-45.74
260.03	-8.87
260.246	-12.97
260.463	11.61
260.679	75.09
260.895	-25.26
261.112	62.8
261.328	56.66
261.544	56.66
261.761	73.04
261.977	-55.98
262.193	-6.83
262.409	15.7
262.626	75.09
262.842	27.99
263.058	-12.97
263.274	62.8
263.49	-6.83
263.707	27.99
263.923	34.13
264.139	62.8
264.355	27.99
264.571	66.9
264.787	32.08
265.004	68.95
265.22	-27.31
265.436	95.57
265.652	30.04
265.868	11.61
266.084	13.65
266.3	44.37
266.516	-35.5
266.732	5.46
266.948	58.71
267.164	60.76
267.38	77.14
267.596	56.66
267.812	114
268.028	48.47
268.244	25.94
268.46	48.47
268.676	17.75
268.892	56.66
269.108	-23.21
269.324	52.56
269.54	9.56
269.756	11.61
269.972	-10.92
270.188	36.18
270.403	48.47
270.619	42.32
270.835	-21.16
271.051	64.85
271.267	38.23
271.483	7.51
271.698	38.23
271.914	-0.68
272.13	15.7
272.346	21.85
272.562	-49.83
272.777	36.18
272.993	25.94
273.209	81.24
273.425	-4.78
273.64	38.23
273.856	34.13
274.072	25.94
274.287	19.8
274.503	79.19
274.719	32.08
274.934	52.56
275.15	5.46
275.366	7.51
275.581	9.56
275.797	36.18
276.012	32.08
276.228	30.04
276.444	-4.78
276.659	101.72
276.875	30.04
277.09	-25.26
277.306	36.18
277.521	15.7
277.737	79.19
277.952	62.8
278.168	64.85
278.383	-4.78
278.599	56.66
278.814	-37.55
279.03	11.61
279.245	89.43
279.461	85.33
279.676	13.65
279.892	-45.74
280.107	-6.83
280.322	-25.26
280.538	44.37
280.753	5.46
280.969	73.04
281.184	17.75
281.399	40.28
281.615	5.46
281.83	30.04
282.045	44.37
282.26	3.41
282.476	50.52
282.691	68.95
282.906	19.8
283.122	75.09
283.337	23.89
283.552	85.33
283.767	52.56
283.983	62.8
284.198	40.28
284.413	89.43
284.628	-0.68
284.843	23.89
285.058	7.51
285.274	-25.26
285.489	-12.97
285.704	15.7
285.919	5.46
286.134	71
286.349	79.19
286.564	23.89
286.779	46.42
286.995	27.99
287.21	15.7
287.425	-31.4
287.64	32.08
287.855	89.43
288.07	66.9
288.285	-37.55
288.5	66.9
288.715	85.33
288.93	56.66
289.145	21.85
289.36	-31.4
289.575	32.08
289.79	83.28
290.004	-49.83
290.219	13.65
290.434	64.85
290.649	-4.78
290.864	40.28
291.079	36.18
291.294	114
291.509	91.48
291.724	11.61
291.938	97.62
292.153	1.37
292.368	46.42
292.583	21.85
292.798	-35.5
293.012	-25.26
293.227	48.47
293.442	-29.35
293.657	40.28
293.871	105.81
294.086	46.42
294.301	9.56
294.516	64.85
294.73	50.52
294.945	38.23
295.16	52.56
295.374	23.89
295.589	89.43
295.804	-15.02
296.018	-33.45
296.233	-21.16
296.447	114
296.662	19.8
296.877	17.75
297.091	11.61
297.306	91.48
297.52	48.47
297.735	13.65
297.949	1.37
298.164	126.29
298.378	19.8
298.593	52.56
298.807	-15.02
299.022	42.32
299.236	64.85
299.451	19.8
299.665	-35.5
299.88	-0.68
300.094	-31.4
300.309	83.28
300.523	83.28
300.737	34.13
300.952	17.75
301.166	11.61
301.381	30.04
301.595	34.13
301.809	-25.26
302.024	-35.5
302.238	23.89
302.452	62.8
302.667	64.85
302.881	81.24
303.095	-8.87
303.309	11.61
303.524	56.66
303.738	23.89
303.952	25.94
304.166	30.04
304.381	-33.45
304.595	52.56
304.809	-31.4
305.023	-15.02
305.237	34.13
305.452	7.51
305.666	66.9
305.88	97.62
306.094	60.76
306.308	50.52
306.522	-0.68
306.736	56.66
306.95	-0.68
307.164	101.72
307.379	7.51
307.593	50.52
307.807	32.08
308.021	68.95
308.235	3.41
308.449	-4.78
308.663	-43.69
308.877	122.2
309.091	-0.68
309.305	71
309.519	58.71
309.733	48.47
309.947	19.8
310.161	15.7
310.374	32.08
310.588	50.52
310.802	-8.87
311.016	-4.78
311.23	5.46
311.444	48.47
311.658	27.99
311.872	163.15
312.085	97.62
312.299	97.62
312.513	-8.87
312.727	27.99
312.941	-29.35
313.154	-0.68
313.368	38.23
313.582	17.75
313.796	56.66
314.009	68.95
314.223	36.18
314.437	87.38
314.651	36.18
314.864	-12.97
315.078	-21.16
315.292	27.99
315.505	66.9
315.719	73.04
315.933	81.24
316.146	17.75
316.36	-49.83
316.573	81.24
316.787	71
317.001	-4.78
317.214	27.99
317.428	-17.07
317.641	-60.07
317.855	-8.87
318.068	13.65
318.282	64.85
318.495	116.05
318.709	73.04
318.922	15.7
319.136	50.52
319.349	83.28
319.563	34.13
319.776	38.23
319.99	-53.93
320.203	3.41
320.417	38.23
320.63	-43.69
320.843	95.57
321.057	54.61
321.27	17.75
321.483	-2.73
321.697	-21.16
321.91	-8.87
322.124	105.81
322.337	32.08
322.55	68.95
322.763	25.94
322.977	68.95
323.19	-0.68
323.403	27.99
323.617	-4.78
323.83	38.23
324.043	54.61
324.256	40.28
324.469	-19.11
324.683	89.43
324.896	3.41
325.109	81.24
325.322	7.51
325.535	27.99
325.748	36.18
325.962	-12.97
326.175	32.08
326.388	101.72
326.601	44.37
326.814	23.89
327.027	11.61
327.24	89.43
327.453	64.85
327.666	50.52
327.879	48.47
328.092	64.85
328.305	46.42
328.518	62.8
328.731	-43.69
328.944	122.2
329.157	7.51
329.37	-12.97
329.583	71
329.796	73.04
330.009	15.7
330.222	21.85
330.435	30.04
330.648	-35.5
330.861	48.47
331.073	66.9
331.286	71
331.499	5.46
331.712	17.75
331.925	7.51
332.138	19.8
332.35	52.56
332.563	44.37
332.776	103.76
332.989	-35.5
333.202	134.48
333.414	-25.26
333.627	66.9
333.84	-41.64
334.053	15.7
334.265	7.51
334.478	75.09
334.691	54.61
334.903	23.89
335.116	23.89
335.329	-21.16
335.541	109.91
335.754	111.96
335.966	73.04
336.179	52.56
336.392	66.9
336.604	-2.73
336.817	81.24
337.029	19.8
337.242	15.7
337.454	52.56
337.667	30.04
337.88	97.62
338.092	68.95
338.305	58.71
338.517	52.56
338.729	1.37
338.942	68.95
339.154	5.46
339.367	58.71
339.579	34.13
339.792	-25.26
340.004	58.71
340.217	48.47
340.429	42.32
340.641	11.61
340.854	-4.78
341.066	99.67
341.278	101.72
341.491	114
341.703	-25.26
341.915	-0.68
342.128	42.32
342.34	89.43
342.552	19.8
342.764	40.28
342.977	-0.68
343.189	81.24
343.401	48.47
343.613	68.95
343.826	-2.73
344.038	-49.83
344.25	38.23
344.462	23.89
344.674	42.32
344.886	-8.87
345.099	81.24
345.311	-21.16
345.523	54.61
345.735	56.66
345.947	5.46
346.159	23.89
346.371	1.37
346.583	44.37
346.795	60.76
347.007	-0.68
347.219	34.13
347.431	30.04
347.643	48.47
347.855	-43.69
348.067	25.94
348.279	27.99
348.491	114
348.703	27.99
348.915	62.8
349.127	30.04
349.339	130.39
349.551	-6.83
349.763	116.05
349.975	44.37
350.187	17.75
350.399	75.09
350.61	60.76
350.822	-2.73
351.034	23.89
351.246	19.8
351.458	93.52
351.669	5.46
351.881	48.47
352.093	1.37
352.305	91.48
352.517	19.8
352.728	138.58
352.94	56.66
353.152	5.46
353.363	-29.35
353.575	64.85
353.787	60.76
353.999	75.09
354.21	124.24
354.422	105.81
354.633	19.8
354.845	75.09
355.057	-6.83
355.268	109.91
355.48	21.85
355.692	36.18
355.903	56.66
356.115	13.65
356.326	-4.78
356.538	93.52
356.749	1.37
356.961	71
357.172	-53.93
357.384	7.51
357.595	93.52
357.807	19.8
358.018	77.14
358.23	54.61
358.441	146.77
358.653	105.81
358.864	89.43
359.075	79.19
359.287	36.18
359.498	40.28
359.709	36.18
359.921	54.61
360.132	-58.03
360.344	11.61
360.555	62.8
360.766	118.1
360.977	32.08
361.189	62.8
361.4	-41.64
361.611	64.85
361.823	77.14
362.034	11.61
362.245	-17.07
362.456	27.99
362.667	79.19
362.879	5.46
363.09	11.61
363.301	85.33
363.512	32.08
363.723	-29.35
363.935	-0.68
364.146	58.71
364.357	3.41
364.568	50.52
364.779	40.28
364.99	40.28
365.201	-12.97
365.412	77.14
365.623	-10.92
365.834	-12.97
366.045	40.28
366.256	-21.16
366.467	81.24
366.678	44.37
366.889	1.37
367.1	56.66
367.311	95.57
367.522	27.99
367.733	136.53
367.944	126.29
368.155	-55.98
368.366	56.66
368.577	44.37
368.788	107.86
368.999	5.46
369.209	32.08
369.42	48.47
369.631	75.09
369.842	-41.64
370.053	3.41
370.264	73.04
370.474	21.85
370.685	40.28
370.896	79.19
371.107	83.28
371.317	101.72
371.528	75.09
371.739	101.72
371.95	13.65
372.16	71
372.371	-4.78
372.582	11.61
372.792	38.23
373.003	27.99
373.214	21.85
373.424	128.34
373.635	-74.41
373.846	-6.83
374.056	66.9
374.267	68.95
374.477	46.42
374.688	99.67
374.898	1.37
375.109	95.57
375.319	71
375.53	97.62
375.74	138.58
375.951	-0.68
376.161	56.66
376.372	60.76
376.582	48.47
376.793	95.57
377.003	17.75
377.214	13.65
377.424	101.72
377.635	34.13
377.845	7.51
378.055	52.56
378.266	-43.69
378.476	23.89
378.686	44.37
378.897	103.76
379.107	89.43
379.317	54.61
379.528	64.85
379.738	54.61
379.948	7.51
380.158	130.39
380.369	62.8
380.579	7.51
380.789	7.51
380.999	111.96
381.21	64.85
381.42	50.52
381.63	-21.16
381.84	85.33
382.05	38.23
382.261	44.37
382.471	52.56
382.681	60.76
382.891	9.56
383.101	7.51
383.311	7.51
383.521	62.8
383.731	48.47
383.941	30.04
384.151	95.57
384.361	9.56
384.571	66.9
384.781	107.86
384.991	60.76
385.201	64.85
385.411	62.8
385.621	-41.64
385.831	54.61
386.041	128.34
386.251	11.61
386.461	99.67
386.671	48.47
386.881	93.52
387.091	64.85
387.301	48.47
387.511	7.51
387.72	146.77
387.93	56.66
388.14	19.8
388.35	50.52
388.56	52.56
388.769	132.44
388.979	144.72
389.189	95.57
389.399	40.28
389.609	27.99
389.818	58.71
390.028	138.58
390.238	130.39
390.447	48.47
390.657	52.56
390.867	75.09
391.076	-4.78
391.286	71
391.496	40.28
391.705	25.94
391.915	27.99
392.125	144.72
392.334	73.04
392.544	91.48
392.753	36.18
392.963	42.32
393.172	89.43
393.382	36.18
393.591	120.15
393.801	68.95
394.01	13.65
394.22	68.95
394.429	38.23
394.639	48.47
394.848	68.95
395.058	56.66
395.267	71
395.477	114
395.686	81.24
395.895	93.52
396.105	109.91
396.314	64.85
396.524	111.96
396.733	68.95
396.942	130.39
397.152	23.89
397.361	122.2
397.57	79.19
397.78	138.58
397.989	50.52
398.198	64.85
398.407	120.15
398.617	93.52
398.826	122.2
399.035	71
399.244	79.19
399.453	138.58
399.663	114
399.872	42.32
400.081	34.13
400.29	91.48
400.499	122.2
400.708	124.24
400.917	32.08
401.127	120.15
401.336	23.89
401.545	146.77
401.754	144.72
401.963	161.11
402.172	23.89
402.381	93.52
402.59	52.56
402.799	189.78
403.008	95.57
403.217	118.1
403.426	95.57
403.635	179.54
403.844	89.43
404.053	185.68
404.262	52.56
404.471	122.2
404.68	152.92
404.888	187.73
405.097	48.47
405.306	109.91
405.515	261.46
405.724	175.44
405.933	202.07
406.142	177.49
406.35	161.11
406.559	177.49
406.768	165.2
406.977	152.92
407.185	179.54
407.394	202.07
407.603	111.96
407.812	214.35
408.02	118.1
408.229	191.83
408.438	210.26
408.646	216.4
408.855	191.83
409.064	279.89
409.272	277.84
409.481	300.37
409.69	259.41
409.898	247.12
410.107	267.6
410.315	372.05
410.524	267.6
410.733	271.7
410.941	343.38
411.15	314.7
411.358	318.8
411.567	361.81
411.775	400.72
411.984	458.06
412.192	374.1
412.401	337.23
412.609	464.21
412.818	400.72
413.026	499.02
413.234	453.97
413.443	470.35
413.651	482.64
413.86	519.5
414.068	648.52
414.276	556.36
414.485	621.9
414.693	523.6
414.901	636.24
415.11	568.65
415.318	562.51
415.526	603.47
415.734	660.81
415.943	699.72
416.151	726.35
416.359	712.01
416.567	873.8
416.776	773.45
416.984	834.89
417.192	914.76
417.4	845.13
417.608	841.03
417.817	914.76
418.025	916.81
418.233	996.68
418.441	982.34
418.649	1017.16
418.857	1146.18
419.065	1181
419.273	1109.32
419.481	1209.67
419.689	1224
419.897	1217.86
420.105	1307.97
420.313	1471.81
420.521	1393.98
420.729	1443.14
420.937	1516.86
421.145	1551.68
421.353	1680.7
421.561	1690.94
421.769	1842.49
421.977	1862.97
422.185	1813.82
422.393	1875.26
422.601	1932.6
422.809	1944.89
423.017	2063.67
423.224	2114.87
423.432	2182.45
423.64	2260.27
423.848	2387.25
424.056	2297.14
424.263	2512.18
424.471	2399.54
424.679	2624.81
424.887	2639.15
425.094	2800.94
425.302	2780.46
425.51	2934.06
425.718	2950.44
425.925	3106.09
426.133	3112.23
426.341	3306.79
426.548	3450.14
426.756	3441.95
426.964	3482.91
427.171	3824.92
427.379	3677.47
427.586	3800.35
427.794	3880.22
428.001	4267.28
428.209	4394.26
428.417	4220.18
428.624	4592.91
428.832	4508.94
429.039	4482.32
429.247	4525.33
429.454	4977.93
429.662	5383.43
429.869	4910.35
430.076	5477.63
430.284	5045.51
430.491	5365
430.699	5754.11
430.906	5600.51
431.114	5854.46
431.321	5893.37
431.528	6108.41
431.736	6462.71
431.943	6720.75
432.15	6462.71
432.358	6618.35
432.565	6999.27
432.772	6962.41
432.979	7361.77
433.187	7558.37
433.394	7460.07
433.601	8125.66
433.808	8066.27
434.016	8025.31
434.223	8426.71
434.43	8797.39
434.637	8565.97
434.844	9317.58
435.052	9356.49
435.259	9284.81
435.466	9485.51
435.673	9432.26
435.88	9874.62
436.087	10622.13
436.294	10413.24
436.501	10194.11
436.708	10415.29
436.915	10642.61
437.122	11228.33
437.329	11252.91
437.537	11369.64
437.743	11908.26
437.95	11500.71
438.157	12297.37
438.364	12553.37
438.571	12530.84
438.778	12606.61
438.985	14017.66
439.192	13233.29
439.399	13767.81
439.606	13636.74
439.813	14214.27
440.02	15017.07
440.227	14730.36
440.433	14728.31
440.64	15174.77
440.847	15230.06
441.054	15508.58
441.261	16436.31
441.467	16028.77
441.674	16675.93
441.881	17200.21
442.088	17028.18
442.294	17046.61
442.501	17269.84
442.708	17783.88
442.914	18596.92
443.121	19072.05
443.328	18850.87
443.534	19858.47
443.741	19487.79
443.948	18887.73
444.154	20378.65
444.361	20038.69
444.568	20304.93
444.774	20538.4
444.981	20691.99
445.187	21357.58
445.394	22019.08
445.6	22062.08
445.807	24202.21
446.013	22981.62
446.22	23380.98
446.426	24298.47
446.633	24482.78
446.839	25160.66
447.046	24411.1
447.252	25621.45
447.459	25869.26
447.665	25736.14
447.871	26749.89
448.078	27464.63
448.284	26170.31
448.491	27147.19
448.697	28279.72
448.903	28724.13
449.11	28797.85
449.316	28402.6
449.522	28728.22
449.728	29158.3
449.935	29817.74
450.141	29551.51
450.347	30319.49
450.553	29260.69
450.76	29621.14
450.966	30645.12
451.172	30319.49
451.378	31032.19
451.584	30215.05
451.791	30851.97
451.997	30837.63
452.203	31316.86
452.409	31042.43
452.615	31374.2
452.821	30049.16
453.027	29655.95
453.233	31286.14
453.44	30049.16
453.646	30481.28
453.852	30403.46
454.058	31226.74
454.264	30016.4
454.47	30608.26
454.676	29782.93
454.882	30313.35
455.088	28269.48
455.294	28386.21
455.5	28996.51
455.705	29010.84
455.911	27986.86
456.117	27302.84
456.323	26993.59
456.529	25717.71
456.735	26667.97
456.941	25748.43
457.147	25709.52
457.352	24941.53
457.558	24628.19
457.764	24706.01
457.97	23985.13
458.176	23247.86
458.381	23557.1
458.587	22404.1
458.793	22424.58
458.999	20775.96
459.204	22576.12
459.41	22010.89
459.616	20491.29
459.821	20673.56
460.027	20575.26
460.233	20098.08
460.438	19379.25
460.644	19584.04
460.85	18422.84
461.055	18035.78
461.261	18205.76
461.466	16874.58
461.672	16323.68
461.878	17538.12
462.083	16471.13
462.289	16032.86
462.494	15887.46
462.7	15178.86
462.905	14851.19
463.111	15189.1
463.316	15346.8
463.522	15213.68
463.727	15154.29
463.932	15031.41
464.138	14851.19
464.343	14849.14
464.549	14576.76
464.754	14785.65
464.959	15078.51
465.165	14736.5
465.37	14085.25
465.575	13696.13
465.781	14070.91
465.986	14357.63
466.191	13765.76
466.397	13468.81
466.602	13124.75
466.807	13350.03
467.012	13530.25
467.218	13491.34
467.423	13196.43
467.628	13458.57
467.833	13829.25
468.038	13284.49
468.244	13126.8
468.449	13853.83
