Data from USB4F104151__184__10-27-55-366.txt Node

Date: Wed Mar 12 10:27:55 EDT 2025
User: louis
Spectrometer: USB4F10415
Trigger mode: 4
Integration Time (sec): 3.000000E-2
Scans to average: 1
Electric dark correction enabled: true
Nonlinearity correction enabled: false
Boxcar width: 0
XAxis mode: Wavelengths
Number of Pixels in Spectrum: 3648
>>>>>Begin Spectral Data<<<<<
178.204	-138.58
178.424	-138.58
178.644	-138.58
178.864	-111.96
179.084	-124.24
179.304	-40.28
179.524	-13.65
179.744	64.17
179.964	12.97
180.184	2.73
180.404	-15.7
180.624	-17.75
180.844	53.93
181.064	-34.13
181.283	-9.56
181.503	-11.61
181.723	8.87
181.943	-73.04
182.163	129.7
182.383	17.07
182.602	-21.84
182.822	25.26
183.042	45.74
183.262	-27.99
183.482	-1.37
183.701	10.92
183.921	70.31
184.141	-25.94
184.361	103.08
184.58	80.55
184.8	33.45
185.02	4.78
185.239	41.64
185.459	-44.37
185.679	107.18
185.898	-30.04
186.118	25.26
186.338	17.07
186.557	43.69
186.777	-9.56
186.997	31.4
187.216	45.74
187.436	41.64
187.655	37.55
187.875	66.22
188.095	70.31
188.314	-25.94
188.534	109.23
188.753	31.4
188.973	2.73
189.192	92.84
189.412	58.03
189.631	-15.7
189.851	37.55
190.07	66.22
190.29	-32.08
190.509	-62.8
190.729	-48.47
190.948	51.88
191.168	125.61
191.387	58.03
191.607	-5.46
191.826	76.46
192.045	-5.46
192.265	12.97
192.484	51.88
192.704	35.5
192.923	41.64
193.142	78.51
193.362	17.07
193.581	53.93
193.8	-11.61
194.02	41.64
194.239	98.99
194.458	10.92
194.678	-13.65
194.897	19.11
195.116	-13.65
195.335	-9.56
195.555	70.31
195.774	21.16
195.993	6.83
196.212	12.97
196.432	19.11
196.651	45.74
196.87	-27.99
197.089	70.31
197.308	129.7
197.528	60.07
197.747	4.78
197.966	49.83
198.185	29.35
198.404	31.4
198.623	39.59
198.842	86.7
199.062	25.26
199.281	27.31
199.5	58.03
199.719	72.36
199.938	21.16
200.157	45.74
200.376	62.12
200.595	94.89
200.814	-66.9
201.033	86.7
201.252	96.94
201.471	119.46
201.69	58.03
201.909	49.83
202.128	35.5
202.347	39.59
202.566	41.64
202.785	-81.24
203.004	-11.61
203.223	144.04
203.442	27.31
203.661	-48.47
203.879	68.27
204.098	55.98
204.317	47.79
204.536	8.87
204.755	58.03
204.974	37.55
205.193	66.22
205.411	72.36
205.63	17.07
205.849	94.89
206.068	-36.18
206.287	-52.56
206.505	33.45
206.724	2.73
206.943	78.51
207.162	35.5
207.381	6.83
207.599	23.21
207.818	96.94
208.037	-36.18
208.255	27.31
208.474	58.03
208.693	49.83
208.911	41.64
209.13	-17.75
209.349	64.17
209.567	55.98
209.786	111.27
210.005	-7.51
210.223	10.92
210.442	-17.75
210.661	-3.41
210.879	27.31
211.098	25.26
211.316	45.74
211.535	17.07
211.753	27.31
211.972	68.27
212.191	37.55
212.409	25.26
212.628	37.55
212.846	-5.46
213.065	25.26
213.283	86.7
213.502	51.88
213.72	12.97
213.938	-3.41
214.157	21.16
214.375	37.55
214.594	27.31
214.812	51.88
215.031	49.83
215.249	0.68
215.467	60.07
215.686	70.31
215.904	0.68
216.122	47.79
216.341	103.08
216.559	10.92
216.778	98.99
216.996	27.31
217.214	12.97
217.432	-3.41
217.651	41.64
217.869	-9.56
218.087	19.11
218.306	41.64
218.524	51.88
218.742	49.83
218.96	-11.61
219.179	70.31
219.397	66.22
219.615	53.93
219.833	43.69
220.051	-11.61
220.27	35.5
220.488	33.45
220.706	90.79
220.924	21.16
221.142	-46.42
221.36	0.68
221.578	88.75
221.796	4.78
222.015	10.92
222.233	-17.75
222.451	45.74
222.669	-40.28
222.887	-13.65
223.105	4.78
223.323	-19.8
223.541	45.74
223.759	53.93
223.977	12.97
224.195	41.64
224.413	2.73
224.631	101.03
224.849	29.35
225.067	76.46
225.285	-40.28
225.503	47.79
225.721	10.92
225.939	35.5
226.157	53.93
226.375	76.46
226.592	-27.99
226.81	70.31
227.028	45.74
227.246	76.46
227.464	-17.75
227.682	55.98
227.9	64.17
228.117	37.55
228.335	4.78
228.553	37.55
228.771	29.35
228.989	23.21
229.206	74.41
229.424	82.6
229.642	4.78
229.86	-58.71
230.077	35.5
230.295	62.12
230.513	-11.61
230.731	74.41
230.948	98.99
231.166	82.6
231.384	0.68
231.601	47.79
231.819	103.08
232.037	-25.94
232.254	-36.18
232.472	51.88
232.689	74.41
232.907	58.03
233.125	-13.65
233.342	45.74
233.56	51.88
233.777	58.03
233.995	17.07
234.213	78.51
234.43	-50.52
234.648	8.87
234.865	15.02
235.083	92.84
235.3	51.88
235.518	127.66
235.735	-3.41
235.953	23.21
236.17	-38.23
236.388	23.21
236.605	37.55
236.822	58.03
237.04	17.07
237.257	86.7
237.475	41.64
237.692	86.7
237.909	-64.85
238.127	72.36
238.344	12.97
238.562	-13.65
238.779	51.88
238.996	-46.42
239.214	53.93
239.431	80.55
239.648	-36.18
239.865	31.4
240.083	49.83
240.3	45.74
240.517	45.74
240.735	74.41
240.952	58.03
241.169	6.83
241.386	113.32
241.603	31.4
241.821	35.5
242.038	66.22
242.255	45.74
242.472	41.64
242.689	12.97
242.907	51.88
243.124	-3.41
243.341	25.26
243.558	12.97
243.775	17.07
243.992	8.87
244.209	78.51
244.426	45.74
244.643	64.17
244.86	74.41
245.078	62.12
245.295	125.61
245.512	4.78
245.729	-5.46
245.946	82.6
246.163	4.78
246.38	66.22
246.597	19.11
246.814	64.17
247.031	53.93
247.248	25.26
247.464	35.5
247.681	-9.56
247.898	23.21
248.115	43.69
248.332	4.78
248.549	21.16
248.766	29.35
248.983	86.7
249.2	45.74
249.417	90.79
249.633	27.31
249.85	-3.41
250.067	72.36
250.284	51.88
250.501	66.22
250.717	94.89
250.934	70.31
251.151	39.59
251.368	-21.84
251.585	82.6
251.801	60.07
252.018	0.68
252.235	70.31
252.451	37.55
252.668	25.26
252.885	-17.75
253.102	49.83
253.318	27.31
253.535	-19.8
253.752	-46.42
253.968	35.5
254.185	-42.32
254.401	60.07
254.618	60.07
254.835	23.21
255.051	111.27
255.268	15.02
255.484	8.87
255.701	21.16
255.917	-5.46
256.134	37.55
256.351	-64.85
256.567	45.74
256.784	23.21
257	10.92
257.217	78.51
257.433	82.6
257.65	68.27
257.866	-5.46
258.082	-38.23
258.299	-7.51
258.515	88.75
258.732	70.31
258.948	80.55
259.165	-1.37
259.381	2.73
259.597	98.99
259.814	25.26
260.03	25.26
260.246	60.07
260.463	0.68
260.679	6.83
260.895	4.78
261.112	-19.8
261.328	12.97
261.544	21.16
261.761	74.41
261.977	64.17
262.193	21.16
262.409	21.16
262.626	68.27
262.842	58.03
263.058	-13.65
263.274	29.35
263.49	-3.41
263.707	82.6
263.923	76.46
264.139	55.98
264.355	-32.08
264.571	31.4
264.787	2.73
265.004	66.22
265.22	41.64
265.436	-3.41
265.652	-30.04
265.868	49.83
266.084	33.45
266.3	-36.18
266.516	43.69
266.732	10.92
266.948	-15.7
267.164	76.46
267.38	101.03
267.596	137.9
267.812	45.74
268.028	64.17
268.244	37.55
268.46	76.46
268.676	-7.51
268.892	27.31
269.108	23.21
269.324	-99.67
269.54	-25.94
269.756	78.51
269.972	-56.66
270.188	-38.23
270.403	-23.89
270.619	53.93
270.835	45.74
271.051	21.16
271.267	58.03
271.483	10.92
271.698	58.03
271.914	86.7
272.13	27.31
272.346	-38.23
272.562	4.78
272.777	-15.7
272.993	45.74
273.209	25.26
273.425	43.69
273.64	29.35
273.856	74.41
274.072	29.35
274.287	-23.89
274.503	80.55
274.719	53.93
274.934	43.69
275.15	8.87
275.366	15.02
275.581	33.45
275.797	101.03
276.012	12.97
276.228	107.18
276.444	15.02
276.659	62.12
276.875	2.73
277.09	-23.89
277.306	4.78
277.521	-3.41
277.737	21.16
277.952	25.26
278.168	27.31
278.383	90.79
278.599	94.89
278.814	96.94
279.03	68.27
279.245	45.74
279.461	53.93
279.676	2.73
279.892	70.31
280.107	31.4
280.322	0.68
280.538	-3.41
280.753	64.17
280.969	-7.51
281.184	45.74
281.399	70.31
281.615	-64.85
281.83	21.16
282.045	-48.47
282.26	33.45
282.476	-48.47
282.691	60.07
282.906	78.51
283.122	70.31
283.337	84.65
283.552	31.4
283.767	49.83
283.983	74.41
284.198	25.26
284.413	64.17
284.628	58.03
284.843	49.83
285.058	80.55
285.274	94.89
285.489	78.51
285.704	41.64
285.919	-11.61
286.134	37.55
286.349	2.73
286.564	19.11
286.779	96.94
286.995	-11.61
287.21	45.74
287.425	29.35
287.64	45.74
287.855	31.4
288.07	6.83
288.285	-25.94
288.5	-11.61
288.715	21.16
288.93	19.11
289.145	12.97
289.36	-21.84
289.575	-3.41
289.79	129.7
290.004	10.92
290.219	58.03
290.434	-17.75
290.649	62.12
290.864	21.16
291.079	43.69
291.294	29.35
291.509	29.35
291.724	-1.37
291.938	-11.61
292.153	72.36
292.368	72.36
292.583	47.79
292.798	109.23
293.012	35.5
293.227	62.12
293.442	70.31
293.657	88.75
293.871	43.69
294.086	4.78
294.301	-11.61
294.516	37.55
294.73	53.93
294.945	-27.99
295.16	-44.37
295.374	70.31
295.589	21.16
295.804	21.16
296.018	58.03
296.233	96.94
296.447	17.07
296.662	74.41
296.877	49.83
297.091	90.79
297.306	29.35
297.52	66.22
297.735	64.17
297.949	103.08
298.164	12.97
298.378	35.5
298.593	-5.46
298.807	94.89
299.022	15.02
299.236	37.55
299.451	78.51
299.665	86.7
299.88	33.45
300.094	29.35
300.309	58.03
300.523	92.84
300.737	84.65
300.952	37.55
301.166	41.64
301.381	80.55
301.595	23.21
301.809	-48.47
302.024	6.83
302.238	41.64
302.452	12.97
302.667	45.74
302.881	37.55
303.095	43.69
303.309	2.73
303.524	66.22
303.738	-15.7
303.952	10.92
304.166	41.64
304.381	33.45
304.595	74.41
304.809	-27.99
305.023	17.07
305.237	-1.37
305.452	-1.37
305.666	101.03
305.88	58.03
306.094	105.13
306.308	8.87
306.522	31.4
306.736	96.94
306.95	74.41
307.164	-66.9
307.379	101.03
307.593	90.79
307.807	12.97
308.021	158.38
308.235	60.07
308.449	76.46
308.663	84.65
308.877	84.65
309.091	-11.61
309.305	58.03
309.519	4.78
309.733	135.85
309.947	-23.89
310.161	66.22
310.374	19.11
310.588	12.97
310.802	17.07
311.016	51.88
311.23	-19.8
311.444	-11.61
311.658	25.26
311.872	25.26
312.085	-11.61
312.299	82.6
312.513	37.55
312.727	86.7
312.941	0.68
313.154	37.55
313.368	70.31
313.582	-50.52
313.796	41.64
314.009	37.55
314.223	60.07
314.437	113.32
314.651	74.41
314.864	64.17
315.078	35.5
315.292	68.27
315.505	-58.71
315.719	60.07
315.933	21.16
316.146	2.73
316.36	-38.23
316.573	45.74
316.787	58.03
317.001	45.74
317.214	82.6
317.428	60.07
317.641	-23.89
317.855	-15.7
318.068	45.74
318.282	39.59
318.495	78.51
318.709	15.02
318.922	-3.41
319.136	101.03
319.349	125.61
319.563	29.35
319.776	10.92
319.99	-40.28
320.203	53.93
320.417	58.03
320.63	41.64
320.843	82.6
321.057	23.21
321.27	58.03
321.483	47.79
321.697	19.11
321.91	-27.99
322.124	37.55
322.337	123.56
322.55	39.59
322.763	33.45
322.977	39.59
323.19	-23.89
323.403	88.75
323.617	53.93
323.83	25.26
324.043	-5.46
324.256	19.11
324.469	62.12
324.683	55.98
324.896	-19.8
325.109	19.11
325.322	-48.47
325.535	39.59
325.748	-11.61
325.962	-11.61
326.175	33.45
326.388	29.35
326.601	43.69
326.814	41.64
327.027	-11.61
327.24	94.89
327.453	-44.37
327.666	117.42
327.879	94.89
328.092	37.55
328.305	66.22
328.518	8.87
328.731	80.55
328.944	111.27
329.157	66.22
329.37	12.97
329.583	37.55
329.796	29.35
330.009	25.26
330.222	37.55
330.435	66.22
330.648	33.45
330.861	96.94
331.073	103.08
331.286	43.69
331.499	43.69
331.712	17.07
331.925	49.83
332.138	4.78
332.35	92.84
332.563	21.16
332.776	62.12
332.989	35.5
333.202	33.45
333.414	21.16
333.627	70.31
333.84	-44.37
334.053	58.03
334.265	60.07
334.478	12.97
334.691	-9.56
334.903	123.56
335.116	-21.84
335.329	39.59
335.541	35.5
335.754	86.7
335.966	-21.84
336.179	33.45
336.392	64.17
336.604	62.12
336.817	66.22
337.029	94.89
337.242	82.6
337.454	-7.51
337.667	127.66
337.88	-27.99
338.092	41.64
338.305	51.88
338.517	-25.94
338.729	29.35
338.942	35.5
339.154	4.78
339.367	41.64
339.579	74.41
339.792	29.35
340.004	66.22
340.217	21.16
340.429	21.16
340.641	58.03
340.854	23.21
341.066	-32.08
341.278	107.18
341.491	94.89
341.703	31.4
341.915	0.68
342.128	115.37
342.34	2.73
342.552	82.6
342.764	4.78
342.977	96.94
343.189	4.78
343.401	51.88
343.613	-34.13
343.826	94.89
344.038	68.27
344.25	12.97
344.462	0.68
344.674	17.07
344.886	27.31
345.099	70.31
345.311	70.31
345.523	21.16
345.735	-3.41
345.947	82.6
346.159	53.93
346.371	51.88
346.583	53.93
346.795	84.65
347.007	-17.75
347.219	17.07
347.431	-7.51
347.643	101.03
347.855	-5.46
348.067	6.83
348.279	70.31
348.491	45.74
348.703	117.42
348.915	103.08
349.127	17.07
349.339	4.78
349.551	105.13
349.763	43.69
349.975	-48.47
350.187	49.83
350.399	121.51
350.61	29.35
350.822	-3.41
351.034	21.16
351.246	15.02
351.458	39.59
351.669	10.92
351.881	78.51
352.093	82.6
352.305	17.07
352.517	-11.61
352.728	51.88
352.94	-17.75
353.152	21.16
353.363	23.21
353.575	84.65
353.787	113.32
353.999	101.03
354.21	27.31
354.422	-19.8
354.633	19.11
354.845	4.78
355.057	6.83
355.268	62.12
355.48	23.21
355.692	-25.94
355.903	-27.99
356.115	60.07
356.326	29.35
356.538	31.4
356.749	84.65
356.961	25.26
357.172	107.18
357.384	6.83
357.595	115.37
357.807	74.41
358.018	17.07
358.23	51.88
358.441	76.46
358.653	17.07
358.864	-17.75
359.075	53.93
359.287	49.83
359.498	8.87
359.709	35.5
359.921	-27.99
360.132	27.31
360.344	17.07
360.555	-44.37
360.766	-19.8
360.977	45.74
361.189	78.51
361.4	58.03
361.611	53.93
361.823	19.11
362.034	47.79
362.245	33.45
362.456	68.27
362.667	150.18
362.879	35.5
363.09	47.79
363.301	88.75
363.512	10.92
363.723	62.12
363.935	41.64
364.146	4.78
364.357	-44.37
364.568	17.07
364.779	12.97
364.99	66.22
365.201	53.93
365.412	-7.51
365.623	8.87
365.834	23.21
366.045	23.21
366.256	80.55
366.467	74.41
366.678	62.12
366.889	80.55
367.1	78.51
367.311	33.45
367.522	53.93
367.733	101.03
367.944	150.18
368.155	94.89
368.366	66.22
368.577	2.73
368.788	115.37
368.999	72.36
369.209	47.79
369.42	111.27
369.631	58.03
369.842	82.6
370.053	64.17
370.264	109.23
370.474	27.31
370.685	45.74
370.896	31.4
371.107	109.23
371.317	41.64
371.528	29.35
371.739	76.46
371.95	41.64
372.16	37.55
372.371	41.64
372.582	39.59
372.792	43.69
373.003	37.55
373.214	43.69
373.424	90.79
373.635	70.31
373.846	96.94
374.056	29.35
374.267	43.69
374.477	-30.04
374.688	-19.8
374.898	41.64
375.109	-40.28
375.319	101.03
375.53	12.97
375.74	92.84
375.951	70.31
376.161	45.74
376.372	45.74
376.582	127.66
376.793	103.08
377.003	31.4
377.214	0.68
377.424	58.03
377.635	25.26
377.845	62.12
378.055	39.59
378.266	66.22
378.476	-17.75
378.686	55.98
378.897	33.45
379.107	111.27
379.317	33.45
379.528	55.98
379.738	10.92
379.948	-75.09
380.158	8.87
380.369	33.45
380.579	109.23
380.789	25.26
380.999	66.22
381.21	23.21
381.42	53.93
381.63	4.78
381.84	33.45
382.05	60.07
382.261	74.41
382.471	37.55
382.681	21.16
382.891	60.07
383.101	23.21
383.311	-7.51
383.521	25.26
383.731	109.23
383.941	88.75
384.151	37.55
384.361	0.68
384.571	92.84
384.781	51.88
384.991	88.75
385.201	137.9
385.411	68.27
385.621	123.56
385.831	29.35
386.041	86.7
386.251	-5.46
386.461	127.66
386.671	10.92
386.881	113.32
387.091	41.64
387.301	152.23
387.511	23.21
387.72	131.75
387.93	82.6
388.14	27.31
388.35	80.55
388.56	70.31
388.769	86.7
388.979	39.59
389.189	33.45
389.399	41.64
389.609	29.35
389.818	70.31
390.028	33.45
390.238	-46.42
390.447	53.93
390.657	90.79
390.867	15.02
391.076	37.55
391.286	45.74
391.496	66.22
391.705	-19.8
391.915	39.59
392.125	58.03
392.334	51.88
392.544	160.42
392.753	58.03
392.963	6.83
393.172	8.87
393.382	-21.84
393.591	115.37
393.801	66.22
394.01	111.27
394.22	76.46
394.429	131.75
394.639	64.17
394.848	33.45
395.058	113.32
395.267	82.6
395.477	76.46
395.686	37.55
395.895	119.46
396.105	139.94
396.314	88.75
396.524	139.94
396.733	41.64
396.942	141.99
397.152	121.51
397.361	168.62
397.57	-32.08
397.78	74.41
397.989	127.66
398.198	119.46
398.407	94.89
398.617	84.65
398.826	55.98
399.035	127.66
399.244	-34.13
399.453	135.85
399.663	70.31
399.872	84.65
400.081	119.46
400.29	98.99
400.499	82.6
400.708	74.41
400.917	98.99
401.127	86.7
401.336	80.55
401.545	127.66
401.754	135.85
401.963	33.45
402.172	78.51
402.381	103.08
402.59	78.51
402.799	92.84
403.008	43.69
403.217	141.99
403.426	176.81
403.635	25.26
403.844	166.57
404.053	139.94
404.262	127.66
404.471	170.66
404.68	92.84
404.888	80.55
405.097	133.8
405.306	187.05
405.515	90.79
405.724	119.46
405.933	152.23
406.142	170.66
406.35	176.81
406.559	152.23
406.768	215.72
406.977	168.62
407.185	172.71
407.394	209.58
407.603	92.84
407.812	211.62
408.02	275.11
408.229	228.01
408.438	275.11
408.646	242.34
408.855	234.15
409.064	209.58
409.272	262.82
409.481	250.53
409.69	281.25
409.898	324.26
410.107	307.88
410.315	344.74
410.524	209.58
410.733	271.01
410.941	281.25
411.15	400.04
411.358	377.51
411.567	385.7
411.775	311.97
411.984	395.94
412.192	441
412.401	344.74
412.609	438.95
412.818	479.91
413.026	492.2
413.234	475.81
413.443	432.8
413.651	545.44
413.86	533.15
414.068	643.74
414.276	547.49
414.485	512.67
414.693	606.88
414.901	617.12
415.11	641.7
415.318	619.17
415.526	676.51
415.734	713.38
415.943	676.51
416.151	752.29
416.359	842.4
416.567	783.01
416.776	891.55
416.984	893.6
417.192	981.66
417.4	959.13
417.608	963.23
417.817	1012.38
418.025	979.61
418.233	1157.78
418.441	963.23
418.649	1118.87
418.857	1235.61
419.065	1159.83
419.273	1202.84
419.481	1245.85
419.689	1309.33
419.897	1393.3
420.105	1462.93
420.313	1505.94
420.521	1487.51
420.729	1563.28
420.937	1528.47
421.145	1589.91
421.353	1757.84
421.561	1884.81
421.769	1712.78
421.977	1876.62
422.185	1897.1
422.393	2083.47
422.601	2167.43
422.809	2196.11
423.017	2214.54
423.224	2255.5
423.432	2288.26
423.64	2372.23
423.848	2548.36
424.056	2470.53
424.263	2646.66
424.471	2753.15
424.679	2722.43
424.887	2869.89
425.094	3048.06
425.302	2882.17
425.51	3037.82
425.718	3185.27
425.925	3224.19
426.133	3250.81
426.341	3601.01
426.548	3621.49
426.756	3646.07
426.964	3785.33
427.171	3934.83
427.379	4065.9
427.586	4156.01
427.794	4141.68
428.001	4428.39
428.209	4528.74
428.417	4614.76
428.624	4854.37
428.832	4860.51
429.039	4792.93
429.247	4813.41
429.454	5075.55
429.662	5704.28
429.869	5227.1
430.076	5575.25
430.284	5495.38
430.491	5605.97
430.699	5874.26
430.906	5778
431.114	6046.29
431.321	6404.68
431.528	6548.04
431.736	6799.94
431.943	7121.47
432.15	7057.98
432.358	7017.02
432.565	7399.99
432.772	7412.28
432.979	7954.99
433.187	7934.51
433.394	7998
433.601	8542.76
433.808	8444.46
434.016	8335.92
434.223	8614.44
434.43	9228.83
434.637	9224.73
434.844	9703.96
435.052	9769.49
435.259	9691.67
435.466	10113.55
435.673	9785.88
435.88	10508.81
436.087	11147.78
436.294	11098.63
436.501	10615.3
436.708	10947.08
436.915	11477.5
437.122	11971.06
437.329	11663.86
437.537	12128.75
437.743	12438
437.95	12372.46
438.157	12870.12
438.364	13228.51
438.571	13445.6
438.778	13511.13
438.985	14471.63
439.192	14133.72
439.399	14571.98
439.606	13990.36
439.813	14821.83
440.02	15890.87
440.227	15614.4
440.433	15456.7
440.64	16265.65
440.847	15987.13
441.054	16118.2
441.261	17195.43
441.467	17142.18
441.674	17574.3
441.881	18020.76
442.088	18018.71
442.294	17959.32
442.501	18387.35
442.708	18676.11
442.914	19384.71
443.121	20429.17
443.328	19683.71
443.534	21219.69
443.741	20523.38
443.948	20351.35
444.154	21553.51
444.361	21408.1
444.568	21571.94
444.774	21715.3
444.981	21893.47
445.187	22436.18
445.394	23683.39
445.6	23185.74
445.807	25428.26
446.013	24322.36
446.22	24863.02
446.426	25778.47
446.633	25917.73
446.839	26456.34
447.046	25241.9
447.252	27328.78
447.459	26992.91
447.665	26784.02
447.871	28403.96
448.078	29380.84
448.284	27783.43
448.491	28487.93
448.697	29878.5
448.903	30046.43
449.11	30345.44
449.316	29522.15
449.522	30517.46
449.728	31178.96
449.935	31217.87
450.141	31299.79
450.347	32030.91
450.553	30689.49
450.76	31287.5
450.966	31860.93
451.172	32006.34
451.378	32735.42
451.584	31989.95
451.791	32485.56
451.997	32317.63
452.203	33175.73
452.409	33048.75
452.615	33046.71
452.821	31480.01
453.027	31226.06
453.233	33089.71
453.44	31781.06
453.646	31578.31
453.852	32106.69
454.058	32350.4
454.264	31250.64
454.47	32182.46
454.676	31314.12
454.882	32217.28
455.088	29210.86
455.294	29882.59
455.5	30191.84
455.705	30656.73
455.911	29401.32
456.117	28729.59
456.323	28301.56
456.529	27105.55
456.735	27842.82
456.941	27138.32
457.147	26777.87
457.352	25862.43
457.558	25708.83
457.764	25690.4
457.97	25061.68
458.176	24772.91
458.381	24635.7
458.587	23347.53
458.793	23482.69
458.999	22139.22
459.204	23998.78
459.41	23212.36
459.616	21537.12
459.821	21616.99
460.027	21569.89
460.233	21076.33
460.438	20081.02
460.644	20386.16
460.85	19423.62
461.055	18991.5
461.261	18829.71
461.466	17486.24
461.672	17140.13
461.878	18475.41
462.083	17277.35
462.289	16925.1
462.494	16419.25
462.7	15983.03
462.905	15489.47
463.111	15935.93
463.316	16132.53
463.522	15897.02
463.727	15874.49
463.932	15643.07
464.138	15854.01
464.343	15514.05
464.549	15294.91
464.754	15618.49
464.959	15659.45
465.165	15497.66
465.37	14891.46
465.575	14320.08
465.781	15124.93
465.986	15311.3
466.191	14434.77
466.397	14199.25
466.602	13588.96
466.807	14180.82
467.012	14215.63
467.218	14064.08
467.423	14100.95
