Data from USB4F104151__221__10-30-10-021.txt Node

Date: Wed Mar 12 10:30:10 EDT 2025
User: louis
Spectrometer: USB4F10415
Trigger mode: 4
Integration Time (sec): 3.000000E-2
Scans to average: 1
Electric dark correction enabled: true
Nonlinearity correction enabled: false
Boxcar width: 0
XAxis mode: Wavelengths
Number of Pixels in Spectrum: 3648
>>>>>Begin Spectral Data<<<<<
178.204	-50.86
178.424	-50.86
178.644	-50.86
178.864	-75.43
179.084	-87.72
179.304	4.44
179.524	-42.67
179.744	29.01
179.964	80.21
180.184	-34.47
180.404	-57
180.624	-32.43
180.844	29.01
181.064	47.44
181.283	0.34
181.503	-83.63
181.723	59.73
181.943	-16.04
182.163	69.97
182.383	82.26
182.602	-1.71
182.822	121.17
183.042	18.77
183.262	22.87
183.482	18.77
183.701	-34.47
183.921	76.12
184.141	26.96
184.361	18.77
184.58	88.4
184.8	76.12
185.02	43.35
185.239	78.16
185.459	39.25
185.679	133.46
185.898	0.34
186.118	72.02
186.338	31.06
186.557	90.45
186.777	-26.28
186.997	-69.29
187.216	18.77
187.436	18.77
187.655	26.96
187.875	92.5
188.095	10.58
188.314	123.22
188.534	65.88
188.753	-7.85
188.973	45.4
189.192	-1.71
189.412	41.3
189.631	53.59
189.851	69.97
190.07	51.54
190.29	-7.85
190.509	55.64
190.729	26.96
190.948	29.01
191.168	129.36
191.387	55.64
191.607	-5.8
191.826	29.01
192.045	67.92
192.265	39.25
192.484	74.07
192.704	51.54
192.923	8.53
193.142	115.03
193.362	90.45
193.581	55.64
193.8	-1.71
194.02	104.79
194.239	10.58
194.458	74.07
194.678	39.25
194.897	8.53
195.116	78.16
195.335	29.01
195.555	29.01
195.774	65.88
195.993	20.82
196.212	43.35
196.432	51.54
196.651	8.53
196.87	-16.04
197.089	55.64
197.308	102.74
197.528	67.92
197.747	-30.38
197.966	-3.75
198.185	43.35
198.404	24.92
198.623	96.6
198.842	108.88
199.062	-40.62
199.281	121.17
199.5	29.01
199.719	51.54
199.938	131.41
200.157	63.83
200.376	108.88
200.595	112.98
200.814	57.68
201.033	-3.75
201.252	80.21
201.471	-9.9
201.69	26.96
201.909	74.07
202.128	10.58
202.347	12.63
202.566	78.16
202.785	37.2
203.004	39.25
203.223	98.64
203.442	53.59
203.661	78.16
203.879	-34.47
204.098	110.93
204.317	47.44
204.536	55.64
204.755	86.36
204.974	84.31
205.193	63.83
205.411	96.6
205.63	47.44
205.849	-46.76
206.068	63.83
206.287	-1.71
206.505	98.64
206.724	22.87
206.943	31.06
207.162	55.64
207.381	33.11
207.599	45.4
207.818	12.63
208.037	55.64
208.255	0.34
208.474	33.11
208.693	65.88
208.911	47.44
209.13	63.83
209.349	31.06
209.567	26.96
209.786	110.93
210.005	61.78
210.223	18.77
210.442	-36.52
210.661	76.12
210.879	-18.09
211.098	35.16
211.316	35.16
211.535	112.98
211.753	2.39
211.972	24.92
212.191	43.35
212.409	121.17
212.628	24.92
212.846	78.16
213.065	45.4
213.283	-1.71
213.502	0.34
213.72	12.63
213.938	12.63
214.157	33.11
214.375	74.07
214.594	4.44
214.812	51.54
215.031	26.96
215.249	26.96
215.467	112.98
215.686	35.16
215.904	55.64
216.122	80.21
216.341	41.3
216.559	61.78
216.778	80.21
216.996	16.73
217.214	98.64
217.432	14.68
217.651	10.58
217.869	2.39
218.087	69.97
218.306	84.31
218.524	53.59
218.742	63.83
218.96	12.63
219.179	88.4
219.397	22.87
219.615	51.54
219.833	33.11
220.051	63.83
220.27	57.68
220.488	67.92
220.706	33.11
220.924	-57
221.142	-26.28
221.36	49.49
221.578	84.31
221.796	22.87
222.015	51.54
222.233	61.78
222.451	110.93
222.669	-34.47
222.887	31.06
223.105	-9.9
223.323	-22.19
223.541	-5.8
223.759	-16.04
223.977	65.88
224.195	141.65
224.413	131.41
224.631	59.73
224.849	31.06
225.067	86.36
225.285	51.54
225.503	53.59
225.721	18.77
225.939	67.92
226.157	51.54
226.375	90.45
226.592	-16.04
226.81	41.3
227.028	98.64
227.246	41.3
227.464	-26.28
227.682	49.49
227.9	80.21
228.117	0.34
228.335	84.31
228.553	96.6
228.771	4.44
228.989	100.69
229.206	47.44
229.424	84.31
229.642	18.77
229.86	-61.1
230.077	39.25
230.295	125.27
230.513	119.12
230.731	72.02
230.948	72.02
231.166	55.64
231.384	-48.81
231.601	84.31
231.819	84.31
232.037	6.49
232.254	2.39
232.472	84.31
232.689	-42.67
232.907	133.46
233.125	43.35
233.342	-1.71
233.56	10.58
233.777	102.74
233.995	45.4
234.213	127.32
234.43	57.68
234.648	-24.23
234.865	-48.81
235.083	80.21
235.3	51.54
235.518	86.36
235.735	80.21
235.953	108.88
236.17	22.87
236.388	26.96
236.605	6.49
236.822	80.21
237.04	-18.09
237.257	31.06
237.475	-1.71
237.692	43.35
237.909	16.73
238.127	0.34
238.344	-22.19
238.562	37.2
238.779	-77.48
238.996	-3.75
239.214	-7.85
239.431	110.93
239.648	16.73
239.865	74.07
240.083	41.3
240.3	24.92
240.517	14.68
240.735	55.64
240.952	51.54
241.169	80.21
241.386	92.5
241.603	92.5
241.821	26.96
242.038	61.78
242.255	78.16
242.472	43.35
242.689	53.59
242.907	80.21
243.124	18.77
243.341	49.49
243.558	-26.28
243.775	18.77
243.992	6.49
244.209	8.53
244.426	127.32
244.643	100.69
244.86	37.2
245.078	22.87
245.295	51.54
245.512	37.2
245.729	24.92
245.946	74.07
246.163	22.87
246.38	82.26
246.597	47.44
246.814	67.92
247.031	164.18
247.248	115.03
247.464	39.25
247.681	76.12
247.898	96.6
248.115	90.45
248.332	-7.85
248.549	76.12
248.766	178.51
248.983	65.88
249.2	31.06
249.417	80.21
249.633	0.34
249.85	16.73
250.067	100.69
250.284	41.3
250.501	67.92
250.717	65.88
250.934	8.53
251.151	65.88
251.368	76.12
251.585	76.12
251.801	67.92
252.018	20.82
252.235	47.44
252.451	16.73
252.668	41.3
252.885	61.78
253.102	65.88
253.318	78.16
253.535	12.63
253.752	14.68
253.968	51.54
254.185	35.16
254.401	43.35
254.618	78.16
254.835	47.44
255.051	86.36
255.268	96.6
255.484	35.16
255.701	10.58
255.917	82.26
256.134	0.34
256.351	49.49
256.567	-34.47
256.784	24.92
257	65.88
257.217	106.84
257.433	82.26
257.65	22.87
257.866	-3.75
258.082	-5.8
258.299	69.97
258.515	65.88
258.732	39.25
258.948	-32.43
259.165	80.21
259.381	43.35
259.597	49.49
259.814	110.93
260.03	12.63
260.246	84.31
260.463	100.69
260.679	61.78
260.895	63.83
261.112	18.77
261.328	65.88
261.544	-50.86
261.761	94.55
261.977	-46.76
262.193	-120.49
262.409	57.68
262.626	67.92
262.842	-57
263.058	61.78
263.274	72.02
263.49	49.49
263.707	96.6
263.923	-11.95
264.139	35.16
264.355	6.49
264.571	72.02
264.787	86.36
265.004	57.68
265.22	80.21
265.436	53.59
265.652	41.3
265.868	88.4
266.084	39.25
266.3	-18.09
266.516	35.16
266.732	72.02
266.948	63.83
267.164	-9.9
267.38	106.84
267.596	180.56
267.812	2.39
268.028	76.12
268.244	98.64
268.46	26.96
268.676	24.92
268.892	117.08
269.108	-3.75
269.324	39.25
269.54	-54.95
269.756	67.92
269.972	76.12
270.188	47.44
270.403	72.02
270.619	72.02
270.835	102.74
271.051	61.78
271.267	51.54
271.483	55.64
271.698	59.73
271.914	49.49
272.13	76.12
272.346	35.16
272.562	-3.75
272.777	90.45
272.993	22.87
273.209	72.02
273.425	88.4
273.64	47.44
273.856	133.46
274.072	45.4
274.287	100.69
274.503	53.59
274.719	10.58
274.934	69.97
275.15	35.16
275.366	14.68
275.581	-20.14
275.797	4.44
276.012	51.54
276.228	69.97
276.444	4.44
276.659	67.92
276.875	53.59
277.09	26.96
277.306	80.21
277.521	106.84
277.737	12.63
277.952	26.96
278.168	49.49
278.383	80.21
278.599	6.49
278.814	45.4
279.03	-13.99
279.245	155.99
279.461	-44.71
279.676	139.6
279.892	39.25
280.107	-24.23
280.322	53.59
280.538	16.73
280.753	63.83
280.969	-5.8
281.184	63.83
281.399	67.92
281.615	72.02
281.83	69.97
282.045	-16.04
282.26	14.68
282.476	12.63
282.691	80.21
282.906	49.49
283.122	33.11
283.337	57.68
283.552	65.88
283.767	10.58
283.983	57.68
284.198	55.64
284.413	104.79
284.628	26.96
284.843	-22.19
285.058	51.54
285.274	51.54
285.489	47.44
285.704	37.2
285.919	16.73
286.134	-40.62
286.349	74.07
286.564	80.21
286.779	67.92
286.995	6.49
287.21	-7.85
287.425	108.88
287.64	33.11
287.855	84.31
288.07	-16.04
288.285	125.27
288.5	88.4
288.715	41.3
288.93	72.02
289.145	55.64
289.36	49.49
289.575	31.06
289.79	41.3
290.004	-7.85
290.219	86.36
290.434	22.87
290.649	41.3
290.864	-16.04
291.079	51.54
291.294	22.87
291.509	18.77
291.724	84.31
291.938	45.4
292.153	94.55
292.368	35.16
292.583	18.77
292.798	29.01
293.012	16.73
293.227	55.64
293.442	43.35
293.657	63.83
293.871	72.02
294.086	102.74
294.301	143.7
294.516	84.31
294.73	29.01
294.945	51.54
295.16	2.39
295.374	22.87
295.589	59.73
295.804	-46.76
296.018	-26.28
296.233	129.36
296.447	20.82
296.662	33.11
296.877	59.73
297.091	80.21
297.306	26.96
297.52	63.83
297.735	45.4
297.949	51.54
298.164	80.21
298.378	43.35
298.593	20.82
298.807	65.88
299.022	141.65
299.236	18.77
299.451	45.4
299.665	18.77
299.88	6.49
300.094	74.07
300.309	55.64
300.523	10.58
300.737	12.63
300.952	-9.9
301.166	125.27
301.381	0.34
301.595	65.88
301.809	51.54
302.024	29.01
302.238	51.54
302.452	72.02
302.667	6.49
302.881	59.73
303.095	16.73
303.309	96.6
303.524	119.12
303.738	61.78
303.952	-20.14
304.166	67.92
304.381	-18.09
304.595	59.73
304.809	8.53
305.023	39.25
305.237	57.68
305.452	39.25
305.666	55.64
305.88	98.64
306.094	74.07
306.308	67.92
306.522	72.02
306.736	41.3
306.95	45.4
307.164	2.39
307.379	55.64
307.593	84.31
307.807	88.4
308.021	53.59
308.235	47.44
308.449	57.68
308.663	55.64
308.877	65.88
309.091	69.97
309.305	61.78
309.519	35.16
309.733	31.06
309.947	-50.86
310.161	63.83
310.374	80.21
310.588	78.16
310.802	-11.95
311.016	55.64
311.23	61.78
311.444	45.4
311.658	31.06
311.872	74.07
312.085	74.07
312.299	78.16
312.513	69.97
312.727	100.69
312.941	-5.8
313.154	35.16
313.368	102.74
313.582	72.02
313.796	59.73
314.009	26.96
314.223	22.87
314.437	14.68
314.651	94.55
314.864	59.73
315.078	-9.9
315.292	24.92
315.505	-32.43
315.719	-7.85
315.933	137.56
316.146	59.73
316.36	37.2
316.573	41.3
316.787	53.59
317.001	59.73
317.214	59.73
317.428	57.68
317.641	2.39
317.855	55.64
318.068	45.4
318.282	24.92
318.495	55.64
318.709	84.31
318.922	61.78
319.136	31.06
319.349	12.63
319.563	96.6
319.776	65.88
319.99	57.68
320.203	31.06
320.417	74.07
320.63	65.88
320.843	94.55
321.057	72.02
321.27	-20.14
321.483	96.6
321.697	88.4
321.91	55.64
322.124	43.35
322.337	112.98
322.55	-5.8
322.763	84.31
322.977	51.54
323.19	12.63
323.403	18.77
323.617	127.32
323.83	80.21
324.043	33.11
324.256	37.2
324.469	-9.9
324.683	90.45
324.896	84.31
325.109	35.16
325.322	-3.75
325.535	35.16
325.748	110.93
325.962	6.49
326.175	112.98
326.388	84.31
326.601	53.59
326.814	63.83
327.027	61.78
327.24	137.56
327.453	2.39
327.666	88.4
327.879	-3.75
328.092	100.69
328.305	90.45
328.518	41.3
328.731	18.77
328.944	94.55
329.157	29.01
329.37	100.69
329.583	78.16
329.796	86.36
330.009	-5.8
330.222	12.63
330.435	69.97
330.648	26.96
330.861	84.31
331.073	14.68
331.286	96.6
331.499	26.96
331.712	-9.9
331.925	127.32
332.138	47.44
332.35	94.55
332.563	39.25
332.776	33.11
332.989	41.3
333.202	51.54
333.414	37.2
333.627	117.08
333.84	47.44
334.053	80.21
334.265	12.63
334.478	78.16
334.691	47.44
334.903	-54.95
335.116	8.53
335.329	55.64
335.541	147.8
335.754	2.39
335.966	63.83
336.179	26.96
336.392	65.88
336.604	84.31
336.817	55.64
337.029	51.54
337.242	63.83
337.454	78.16
337.667	129.36
337.88	96.6
338.092	94.55
338.305	139.6
338.517	78.16
338.729	-3.75
338.942	104.79
339.154	112.98
339.367	31.06
339.579	94.55
339.792	84.31
340.004	129.36
340.217	59.73
340.429	24.92
340.641	-26.28
340.854	37.2
341.066	35.16
341.278	45.4
341.491	74.07
341.703	65.88
341.915	88.4
342.128	135.51
342.34	55.64
342.552	-40.62
342.764	86.36
342.977	84.31
343.189	53.59
343.401	88.4
343.613	-1.71
343.826	29.01
344.038	72.02
344.25	84.31
344.462	45.4
344.674	76.12
344.886	69.97
345.099	39.25
345.311	49.49
345.523	65.88
345.735	6.49
345.947	92.5
346.159	39.25
346.371	31.06
346.583	51.54
346.795	141.65
347.007	35.16
347.219	106.84
347.431	45.4
347.643	100.69
347.855	26.96
348.067	76.12
348.279	59.73
348.491	78.16
348.703	51.54
348.915	57.68
349.127	6.49
349.339	76.12
349.551	78.16
349.763	65.88
349.975	82.26
350.187	2.39
350.399	76.12
350.61	84.31
350.822	106.84
351.034	72.02
351.246	63.83
351.458	158.03
351.669	117.08
351.881	74.07
352.093	115.03
352.305	51.54
352.517	80.21
352.728	63.83
352.94	43.35
353.152	43.35
353.363	61.78
353.575	65.88
353.787	45.4
353.999	100.69
354.21	69.97
354.422	65.88
354.633	135.51
354.845	96.6
355.057	51.54
355.268	82.26
355.48	22.87
355.692	35.16
355.903	78.16
356.115	8.53
356.326	39.25
356.538	96.6
356.749	59.73
356.961	57.68
357.172	45.4
357.384	59.73
357.595	94.55
357.807	80.21
358.018	67.92
358.23	72.02
358.441	69.97
358.653	125.27
358.864	35.16
359.075	33.11
359.287	86.36
359.498	76.12
359.709	47.44
359.921	24.92
360.132	76.12
360.344	63.83
360.555	78.16
360.766	63.83
360.977	110.93
361.189	133.46
361.4	35.16
361.611	39.25
361.823	49.49
362.034	104.79
362.245	18.77
362.456	100.69
362.667	63.83
362.879	72.02
363.09	80.21
363.301	53.59
363.512	33.11
363.723	53.59
363.935	47.44
364.146	125.27
364.357	43.35
364.568	26.96
364.779	100.69
364.99	74.07
365.201	-1.71
365.412	24.92
365.623	18.77
365.834	88.4
366.045	53.59
366.256	82.26
366.467	94.55
366.678	123.22
366.889	39.25
367.1	-1.71
367.311	125.27
367.522	14.68
367.733	125.27
367.944	151.89
368.155	121.17
368.366	164.18
368.577	88.4
368.788	96.6
368.999	53.59
369.209	74.07
369.42	78.16
369.631	80.21
369.842	8.53
370.053	65.88
370.264	129.36
370.474	18.77
370.685	102.74
370.896	121.17
371.107	53.59
371.317	65.88
371.528	72.02
371.739	115.03
371.95	141.65
372.16	133.46
372.371	69.97
372.582	-9.9
372.792	20.82
373.003	78.16
373.214	151.89
373.424	67.92
373.635	29.01
373.846	137.56
374.056	39.25
374.267	-1.71
374.477	63.83
374.688	-1.71
374.898	53.59
375.109	57.68
375.319	31.06
375.53	123.22
375.74	100.69
375.951	135.51
376.161	55.64
376.372	63.83
376.582	35.16
376.793	143.7
377.003	108.88
377.214	12.63
377.424	-22.19
377.635	67.92
377.845	12.63
378.055	84.31
378.266	41.3
378.476	78.16
378.686	51.54
378.897	76.12
379.107	76.12
379.317	45.4
379.528	14.68
379.738	123.22
379.948	14.68
380.158	10.58
380.369	90.45
380.579	139.6
380.789	78.16
380.999	90.45
381.21	121.17
381.42	131.41
381.63	61.78
381.84	135.51
382.05	112.98
382.261	166.23
382.471	108.88
382.681	88.4
382.891	65.88
383.101	92.5
383.311	76.12
383.521	61.78
383.731	106.84
383.941	37.2
384.151	72.02
384.361	63.83
384.571	63.83
384.781	61.78
384.991	61.78
385.201	84.31
385.411	92.5
385.621	39.25
385.831	26.96
386.041	100.69
386.251	110.93
386.461	162.13
386.671	47.44
386.881	110.93
387.091	55.64
387.301	80.21
387.511	121.17
387.72	84.31
387.93	80.21
388.14	31.06
388.35	45.4
388.56	143.7
388.769	39.25
388.979	57.68
389.189	63.83
389.399	39.25
389.609	45.4
389.818	145.75
390.028	57.68
390.238	18.77
390.447	33.11
390.657	98.64
390.867	22.87
391.076	96.6
391.286	69.97
391.496	45.4
391.705	76.12
391.915	108.88
392.125	115.03
392.334	104.79
392.544	49.49
392.753	119.12
392.963	-30.38
393.172	90.45
393.382	92.5
393.591	100.69
393.801	80.21
394.01	110.93
394.22	59.73
394.429	133.46
394.639	102.74
394.848	49.49
395.058	76.12
395.267	98.64
395.477	108.88
395.686	80.21
395.895	162.13
396.105	170.32
396.314	43.35
396.524	133.46
396.733	76.12
396.942	98.64
397.152	201.04
397.361	135.51
397.57	117.08
397.78	49.49
397.989	78.16
398.198	194.9
398.407	102.74
398.617	127.32
398.826	119.12
399.035	147.8
399.244	57.68
399.453	145.75
399.663	158.03
399.872	115.03
400.081	131.41
400.29	242
400.499	112.98
400.708	108.88
400.917	104.79
401.127	149.84
401.336	125.27
401.545	121.17
401.754	137.56
401.963	160.08
402.172	72.02
402.381	174.42
402.59	149.84
402.799	102.74
403.008	186.71
403.217	106.84
403.426	194.9
403.635	78.16
403.844	162.13
404.053	192.85
404.262	162.13
404.471	190.8
404.68	194.9
404.888	178.51
405.097	211.28
405.306	203.09
405.515	223.57
405.724	180.56
405.933	108.88
406.142	293.2
406.35	227.67
406.559	201.04
406.768	194.9
406.977	289.1
407.185	198.99
407.394	137.56
407.603	205.14
407.812	215.38
408.02	276.82
408.229	252.24
408.438	301.39
408.646	268.63
408.855	264.53
409.064	287.06
409.272	332.11
409.481	299.34
409.69	276.82
409.898	289.1
410.107	285.01
410.315	352.59
410.524	387.41
410.733	342.35
410.941	387.41
411.15	489.81
411.358	465.23
411.567	407.89
411.775	493.9
411.984	434.51
412.192	491.85
412.401	526.67
412.609	596.3
412.818	563.53
413.026	573.77
413.234	477.52
413.443	522.57
413.651	604.49
413.86	694.6
414.068	647.5
414.276	684.36
414.485	639.31
414.693	649.55
414.901	702.79
415.11	825.67
415.318	674.12
415.526	792.91
415.734	874.82
415.943	883.02
416.151	926.02
416.359	928.07
416.567	915.78
416.776	842.06
416.984	1057.09
417.192	1079.62
417.4	1071.43
417.608	1159.49
417.817	1057.09
418.025	1194.31
418.233	1196.36
418.441	1194.31
418.649	1261.89
418.857	1362.24
419.065	1368.38
419.273	1286.47
419.481	1509.69
419.689	1587.52
419.897	1544.51
420.105	1587.52
420.313	1657.15
420.521	1669.44
420.729	1714.49
420.937	1923.38
421.145	1929.53
421.353	2025.78
421.561	2203.96
421.769	1990.97
421.977	2193.72
422.185	2177.33
422.393	2380.08
422.601	2480.43
422.809	2314.55
423.017	2412.85
423.224	2517.29
423.432	2623.79
423.64	2748.72
423.848	2875.69
424.056	2898.22
424.263	3084.58
424.471	3055.91
424.679	3035.43
424.887	3152.17
425.094	3363.11
425.302	3426.59
425.51	3508.51
425.718	3547.42
425.925	3658.01
426.133	3762.46
426.341	4055.32
426.548	4192.53
426.756	4184.34
426.964	4235.54
427.171	4438.29
427.379	4647.18
427.586	4630.8
427.794	4741.39
428.001	4864.27
428.209	5067.02
428.417	5153.03
428.624	5583.1
428.832	5433.6
429.039	5384.45
429.247	5478.66
429.454	6033.66
429.662	6404.34
429.869	5996.79
430.076	6494.45
430.284	6250.74
430.491	6430.96
430.699	6768.88
430.906	6861.04
431.114	7053.55
431.321	7207.14
431.528	7317.73
431.736	7766.24
431.943	8163.54
432.15	7866.59
432.358	7952.6
432.565	8345.81
432.772	8364.25
432.979	8859.85
433.187	8855.76
433.394	9078.99
433.601	9590.98
433.808	9720
434.016	9642.18
434.223	10066.11
434.43	10815.66
434.637	10414.26
434.844	10944.69
435.052	11264.17
435.259	11182.25
435.466	11124.91
435.673	11086
435.88	11806.88
436.087	12400.79
436.294	12531.86
436.501	12046.49
436.708	12566.68
436.915	12759.19
437.122	13605
437.329	13416.58
437.537	14037.12
437.743	14112.89
437.95	14131.33
438.157	14796.92
438.364	14991.47
438.571	15343.72
438.778	15231.08
438.985	16496.73
439.192	15976.55
439.399	16474.2
439.606	16080.99
439.813	17025.11
440.02	18020.42
440.227	17672.26
440.433	17344.59
440.64	18186.3
440.847	18028.61
441.054	18237.5
441.261	19753
441.467	19302.45
441.674	19451.95
441.881	20504.6
442.088	20224.03
442.294	20262.94
442.501	20869.14
442.708	21254.16
442.914	21993.48
443.121	22939.64
443.328	22292.48
443.534	23740.4
443.741	22919.16
443.948	22718.46
444.154	24668.12
444.361	24264.68
444.568	24664.03
444.774	24657.89
444.981	24764.38
445.187	25571.28
445.394	26494.91
445.6	26036.17
445.807	28782.49
446.013	27459.51
446.22	28217.25
446.426	28952.48
446.633	29398.93
446.839	30123.91
447.046	28946.33
447.252	30748.54
447.459	30687.11
447.665	30416.77
447.871	32061.29
448.078	33062.75
448.284	31563.64
448.491	32345.96
448.697	33752.91
448.903	33959.76
449.11	34383.69
449.316	33617.75
449.522	34295.63
449.728	35182.4
449.935	35467.06
450.141	35264.32
450.347	36183.85
450.553	35051.33
450.76	35188.54
450.966	36083.5
451.172	35888.95
451.378	36863.78
451.584	36216.62
451.791	36990.75
451.997	36671.27
452.203	37603.1
452.409	37437.21
452.615	37426.97
452.821	35831.6
453.027	35436.34
453.233	37183.26
453.44	35739.44
453.646	36323.12
453.852	36673.32
454.058	37037.86
454.264	35405.63
454.47	36695.85
454.676	35276.6
454.882	36874.02
455.088	33582.93
455.294	33748.82
455.5	34510.66
455.705	34887.49
455.911	33107.8
456.117	32481.13
456.323	32333.67
456.529	30355.33
456.735	31690.61
456.941	31184.76
457.147	30594.95
457.352	29427.6
457.558	29284.25
457.764	29263.77
457.97	28614.56
458.176	28020.65
458.381	28026.79
458.587	26836.92
458.793	26820.54
458.999	25569.23
459.204	27389.88
459.41	26214.34
459.616	24584.16
459.821	24750.04
460.027	24713.18
460.233	24000.49
460.438	22960.12
460.644	23093.24
460.85	22009.86
461.055	21755.91
461.261	21870.6
461.466	19957.8
461.672	19634.22
461.878	20901.91
462.083	19605.55
462.289	19234.86
462.494	18972.72
462.7	18333.76
462.905	17616.97
463.111	18327.61
463.316	18288.7
463.522	18217.02
463.727	17965.12
463.932	17926.21
464.138	17930.31
464.343	17801.29
464.549	17426.51
464.754	17813.57
464.959	17731.65
465.165	17623.11
465.37	16943.19
465.575	16461.91
465.781	17104.98
465.986	17045.59
466.191	16484.44
466.397	16218.21
466.602	15390.83
466.807	16169.05
467.012	16054.37
467.218	15994.98
467.423	15835.24
