Data from USB4F104151__282__10-42-09-553.txt Node

Date: Wed Mar 12 10:42:09 EDT 2025
User: louis
Spectrometer: USB4F10415
Trigger mode: 4
Integration Time (sec): 3.000000E-2
Scans to average: 1
Electric dark correction enabled: true
Nonlinearity correction enabled: false
Boxcar width: 0
XAxis mode: Wavelengths
Number of Pixels in Spectrum: 3648
>>>>>Begin Spectral Data<<<<<
178.204	-91.82
178.424	-91.82
178.644	-91.82
178.864	-163.5
179.084	-100.01
179.304	-57
179.524	119.12
179.744	-7.85
179.964	14.68
180.184	-67.24
180.404	10.58
180.624	-91.82
180.844	-20.14
181.064	-20.14
181.283	24.92
181.503	-5.8
181.723	100.69
181.943	31.06
182.163	63.83
182.383	57.68
182.602	-30.38
182.822	-5.8
183.042	80.21
183.262	-54.95
183.482	35.16
183.701	31.06
183.921	31.06
184.141	37.2
184.361	82.26
184.58	26.96
184.8	22.87
185.02	31.06
185.239	88.4
185.459	37.2
185.679	-3.75
185.898	-77.48
186.118	14.68
186.338	74.07
186.557	37.2
186.777	-1.71
186.997	39.25
187.216	41.3
187.436	84.31
187.655	53.59
187.875	63.83
188.095	-26.28
188.314	86.36
188.534	110.93
188.753	26.96
188.973	51.54
189.192	39.25
189.412	80.21
189.631	26.96
189.851	29.01
190.07	61.78
190.29	12.63
190.509	51.54
190.729	47.44
190.948	41.3
191.168	180.56
191.387	45.4
191.607	14.68
191.826	78.16
192.045	0.34
192.265	61.78
192.484	-11.95
192.704	51.54
192.923	14.68
193.142	162.13
193.362	47.44
193.581	65.88
193.8	26.96
194.02	51.54
194.239	55.64
194.458	-9.9
194.678	39.25
194.897	31.06
195.116	59.73
195.335	-9.9
195.555	39.25
195.774	10.58
195.993	67.92
196.212	6.49
196.432	39.25
196.651	-24.23
196.87	59.73
197.089	74.07
197.308	84.31
197.528	88.4
197.747	-28.33
197.966	76.12
198.185	76.12
198.404	67.92
198.623	14.68
198.842	8.53
199.062	127.32
199.281	49.49
199.5	-13.99
199.719	65.88
199.938	98.64
200.157	2.39
200.376	-5.8
200.595	20.82
200.814	8.53
201.033	61.78
201.252	72.02
201.471	33.11
201.69	69.97
201.909	-7.85
202.128	43.35
202.347	59.73
202.566	43.35
202.785	-63.15
203.004	-26.28
203.223	61.78
203.442	14.68
203.661	-18.09
203.879	47.44
204.098	47.44
204.317	18.77
204.536	78.16
204.755	51.54
204.974	20.82
205.193	88.4
205.411	39.25
205.63	74.07
205.849	-3.75
206.068	26.96
206.287	20.82
206.505	-26.28
206.724	45.4
206.943	41.3
207.162	-22.19
207.381	45.4
207.599	-65.19
207.818	63.83
208.037	-5.8
208.255	0.34
208.474	-32.43
208.693	20.82
208.911	47.44
209.13	26.96
209.349	112.98
209.567	125.27
209.786	37.2
210.005	22.87
210.223	72.02
210.442	-9.9
210.661	-32.43
210.879	2.39
211.098	26.96
211.316	76.12
211.535	139.6
211.753	6.49
211.972	49.49
212.191	22.87
212.409	12.63
212.628	72.02
212.846	6.49
213.065	35.16
213.283	39.25
213.502	67.92
213.72	74.07
213.938	39.25
214.157	22.87
214.375	26.96
214.594	47.44
214.812	35.16
215.031	-42.67
215.249	-34.47
215.467	57.68
215.686	80.21
215.904	22.87
216.122	6.49
216.341	8.53
216.559	26.96
216.778	33.11
216.996	145.75
217.214	33.11
217.432	18.77
217.651	82.26
217.869	26.96
218.087	31.06
218.306	35.16
218.524	51.54
218.742	74.07
218.96	35.16
219.179	-9.9
219.397	47.44
219.615	141.65
219.833	2.39
220.051	10.58
220.27	-34.47
220.488	69.97
220.706	43.35
220.924	35.16
221.142	106.84
221.36	-5.8
221.578	72.02
221.796	33.11
222.015	110.93
222.233	33.11
222.451	-7.85
222.669	-65.19
222.887	96.6
223.105	57.68
223.323	16.73
223.541	39.25
223.759	45.4
223.977	65.88
224.195	119.12
224.413	24.92
224.631	55.64
224.849	2.39
225.067	96.6
225.285	41.3
225.503	43.35
225.721	43.35
225.939	-22.19
226.157	55.64
226.375	45.4
226.592	-16.04
226.81	-5.8
227.028	59.73
227.246	65.88
227.464	59.73
227.682	80.21
227.9	49.49
228.117	51.54
228.335	47.44
228.553	65.88
228.771	29.01
228.989	49.49
229.206	80.21
229.424	33.11
229.642	6.49
229.86	20.82
230.077	47.44
230.295	29.01
230.513	74.07
230.731	33.11
230.948	92.5
231.166	41.3
231.384	-22.19
231.601	41.3
231.819	125.27
232.037	110.93
232.254	-16.04
232.472	-38.57
232.689	-5.8
232.907	-5.8
233.125	53.59
233.342	4.44
233.56	22.87
233.777	84.31
233.995	-1.71
234.213	86.36
234.43	39.25
234.648	10.58
234.865	22.87
235.083	69.97
235.3	24.92
235.518	69.97
235.735	80.21
235.953	43.35
236.17	-18.09
236.388	24.92
236.605	88.4
236.822	26.96
237.04	59.73
237.257	35.16
237.475	26.96
237.692	35.16
237.909	92.5
238.127	-18.09
238.344	45.4
238.562	4.44
238.779	12.63
238.996	-9.9
239.214	55.64
239.431	20.82
239.648	-30.38
239.865	-9.9
240.083	80.21
240.3	18.77
240.517	-32.43
240.735	63.83
240.952	65.88
241.169	84.31
241.386	72.02
241.603	41.3
241.821	8.53
242.038	69.97
242.255	106.84
242.472	-44.71
242.689	6.49
242.907	39.25
243.124	29.01
243.341	121.17
243.558	10.58
243.775	-18.09
243.992	-1.71
244.209	65.88
244.426	121.17
244.643	59.73
244.86	-46.76
245.078	84.31
245.295	51.54
245.512	39.25
245.729	29.01
245.946	26.96
246.163	2.39
246.38	86.36
246.597	-20.14
246.814	55.64
247.031	39.25
247.248	65.88
247.464	61.78
247.681	47.44
247.898	96.6
248.115	108.88
248.332	-28.33
248.549	53.59
248.766	49.49
248.983	121.17
249.2	45.4
249.417	90.45
249.633	31.06
249.85	80.21
250.067	-24.23
250.284	69.97
250.501	65.88
250.717	59.73
250.934	45.4
251.151	57.68
251.368	63.83
251.585	72.02
251.801	78.16
252.018	51.54
252.235	-18.09
252.451	-7.85
252.668	-13.99
252.885	35.16
253.102	-5.8
253.318	-38.57
253.535	31.06
253.752	88.4
253.968	41.3
254.185	-20.14
254.401	20.82
254.618	59.73
254.835	26.96
255.051	59.73
255.268	16.73
255.484	65.88
255.701	16.73
255.917	37.2
256.134	49.49
256.351	49.49
256.567	-38.57
256.784	-3.75
257	51.54
257.217	10.58
257.433	20.82
257.65	47.44
257.866	-3.75
258.082	51.54
258.299	67.92
258.515	41.3
258.732	26.96
258.948	12.63
259.165	37.2
259.381	82.26
259.597	18.77
259.814	4.44
260.03	80.21
260.246	80.21
260.463	45.4
260.679	92.5
260.895	51.54
261.112	41.3
261.328	-36.52
261.544	2.39
261.761	63.83
261.977	-18.09
262.193	4.44
262.409	110.93
262.626	26.96
262.842	65.88
263.058	84.31
263.274	18.77
263.49	51.54
263.707	102.74
263.923	-18.09
264.139	31.06
264.355	-22.19
264.571	90.45
264.787	-18.09
265.004	63.83
265.22	37.2
265.436	-1.71
265.652	14.68
265.868	57.68
266.084	6.49
266.3	6.49
266.516	-5.8
266.732	59.73
266.948	29.01
267.164	47.44
267.38	86.36
267.596	-9.9
267.812	100.69
268.028	80.21
268.244	18.77
268.46	74.07
268.676	-69.29
268.892	16.73
269.108	20.82
269.324	55.64
269.54	10.58
269.756	119.12
269.972	-36.52
270.188	24.92
270.403	31.06
270.619	78.16
270.835	-24.23
271.051	49.49
271.267	24.92
271.483	-28.33
271.698	26.96
271.914	82.26
272.13	43.35
272.346	59.73
272.562	63.83
272.777	74.07
272.993	4.44
273.209	78.16
273.425	72.02
273.64	10.58
273.856	59.73
274.072	65.88
274.287	12.63
274.503	78.16
274.719	61.78
274.934	96.6
275.15	-26.28
275.366	22.87
275.581	4.44
275.797	51.54
276.012	35.16
276.228	12.63
276.444	92.5
276.659	39.25
276.875	18.77
277.09	76.12
277.306	45.4
277.521	-3.75
277.737	24.92
277.952	74.07
278.168	33.11
278.383	33.11
278.599	67.92
278.814	-20.14
279.03	6.49
279.245	108.88
279.461	45.4
279.676	31.06
279.892	-36.52
280.107	-20.14
280.322	-59.05
280.538	20.82
280.753	31.06
280.969	-13.99
281.184	47.44
281.399	24.92
281.615	61.78
281.83	61.78
282.045	26.96
282.26	8.53
282.476	88.4
282.691	72.02
282.906	20.82
283.122	65.88
283.337	-42.67
283.552	67.92
283.767	41.3
283.983	47.44
284.198	88.4
284.413	98.64
284.628	8.53
284.843	86.36
285.058	43.35
285.274	2.39
285.489	26.96
285.704	78.16
285.919	6.49
286.134	151.89
286.349	-38.57
286.564	53.59
286.779	92.5
286.995	-9.9
287.21	0.34
287.425	16.73
287.64	-42.67
287.855	-3.75
288.07	-7.85
288.285	53.59
288.5	22.87
288.715	20.82
288.93	14.68
289.145	-26.28
289.36	55.64
289.575	96.6
289.79	-16.04
290.004	41.3
290.219	-18.09
290.434	12.63
290.649	37.2
290.864	18.77
291.079	10.58
291.294	51.54
291.509	82.26
291.724	37.2
291.938	-24.23
292.153	92.5
292.368	8.53
292.583	26.96
292.798	45.4
293.012	67.92
293.227	86.36
293.442	-9.9
293.657	8.53
293.871	72.02
294.086	45.4
294.301	131.41
294.516	51.54
294.73	39.25
294.945	-24.23
295.16	22.87
295.374	92.5
295.589	43.35
295.804	59.73
296.018	80.21
296.233	135.51
296.447	35.16
296.662	-18.09
296.877	24.92
297.091	82.26
297.306	80.21
297.52	55.64
297.735	51.54
297.949	82.26
298.164	92.5
298.378	80.21
298.593	-16.04
298.807	24.92
299.022	22.87
299.236	74.07
299.451	45.4
299.665	55.64
299.88	92.5
300.094	20.82
300.309	-5.8
300.523	26.96
300.737	2.39
300.952	65.88
301.166	18.77
301.381	14.68
301.595	29.01
301.809	74.07
302.024	69.97
302.238	-18.09
302.452	63.83
302.667	59.73
302.881	65.88
303.095	69.97
303.309	110.93
303.524	0.34
303.738	14.68
303.952	14.68
304.166	106.84
304.381	35.16
304.595	151.89
304.809	63.83
305.023	39.25
305.237	102.74
305.452	82.26
305.666	31.06
305.88	108.88
306.094	63.83
306.308	41.3
306.522	53.59
306.736	37.2
306.95	112.98
307.164	10.58
307.379	72.02
307.593	37.2
307.807	151.89
308.021	47.44
308.235	-32.43
308.449	18.77
308.663	55.64
308.877	131.41
309.091	47.44
309.305	80.21
309.519	35.16
309.733	80.21
309.947	6.49
310.161	121.17
310.374	22.87
310.588	119.12
310.802	2.39
311.016	49.49
311.23	-1.71
311.444	45.4
311.658	78.16
311.872	129.36
312.085	35.16
312.299	57.68
312.513	59.73
312.727	16.73
312.941	-13.99
313.154	94.55
313.368	43.35
313.582	86.36
313.796	29.01
314.009	119.12
314.223	123.22
314.437	33.11
314.651	51.54
314.864	72.02
315.078	-20.14
315.292	10.58
315.505	41.3
315.719	65.88
315.933	104.79
316.146	37.2
316.36	4.44
316.573	78.16
316.787	110.93
317.001	26.96
317.214	-38.57
317.428	59.73
317.641	76.12
317.855	53.59
318.068	31.06
318.282	72.02
318.495	96.6
318.709	78.16
318.922	55.64
319.136	51.54
319.349	33.11
319.563	14.68
319.776	61.78
319.99	35.16
320.203	29.01
320.417	29.01
320.63	63.83
320.843	123.22
321.057	-5.8
321.27	166.23
321.483	121.17
321.697	119.12
321.91	43.35
322.124	-16.04
322.337	94.55
322.55	43.35
322.763	47.44
322.977	72.02
323.19	-9.9
323.403	119.12
323.617	22.87
323.83	41.3
324.043	2.39
324.256	59.73
324.469	37.2
324.683	84.31
324.896	72.02
325.109	-24.23
325.322	127.32
325.535	94.55
325.748	24.92
325.962	-36.52
326.175	53.59
326.388	39.25
326.601	80.21
326.814	37.2
327.027	0.34
327.24	112.98
327.453	18.77
327.666	96.6
327.879	72.02
328.092	129.36
328.305	65.88
328.518	96.6
328.731	-42.67
328.944	49.49
329.157	121.17
329.37	31.06
329.583	-13.99
329.796	67.92
330.009	29.01
330.222	72.02
330.435	59.73
330.648	92.5
330.861	37.2
331.073	8.53
331.286	92.5
331.499	76.12
331.712	-79.53
331.925	80.21
332.138	80.21
332.35	106.84
332.563	31.06
332.776	47.44
332.989	65.88
333.202	-67.24
333.414	49.49
333.627	98.64
333.84	-32.43
334.053	67.92
334.265	10.58
334.478	16.73
334.691	39.25
334.903	4.44
335.116	37.2
335.329	92.5
335.541	6.49
335.754	43.35
335.966	108.88
336.179	2.39
336.392	12.63
336.604	69.97
336.817	45.4
337.029	88.4
337.242	98.64
337.454	51.54
337.667	14.68
337.88	29.01
338.092	-40.62
338.305	74.07
338.517	47.44
338.729	100.69
338.942	125.27
339.154	72.02
339.367	47.44
339.579	37.2
339.792	80.21
340.004	67.92
340.217	-1.71
340.429	37.2
340.641	39.25
340.854	41.3
341.066	69.97
341.278	16.73
341.491	112.98
341.703	39.25
341.915	47.44
342.128	104.79
342.34	55.64
342.552	37.2
342.764	37.2
342.977	49.49
343.189	2.39
343.401	72.02
343.613	-36.52
343.826	55.64
344.038	35.16
344.25	8.53
344.462	65.88
344.674	31.06
344.886	-26.28
345.099	123.22
345.311	49.49
345.523	2.39
345.735	8.53
345.947	57.68
346.159	59.73
346.371	49.49
346.583	84.31
346.795	117.08
347.007	45.4
347.219	127.32
347.431	80.21
347.643	112.98
347.855	-9.9
348.067	69.97
348.279	16.73
348.491	69.97
348.703	61.78
348.915	57.68
349.127	63.83
349.339	84.31
349.551	57.68
349.763	31.06
349.975	74.07
350.187	158.03
350.399	96.6
350.61	33.11
350.822	67.92
351.034	35.16
351.246	14.68
351.458	53.59
351.669	82.26
351.881	72.02
352.093	49.49
352.305	45.4
352.517	65.88
352.728	106.84
352.94	108.88
353.152	72.02
353.363	-50.86
353.575	55.64
353.787	43.35
353.999	117.08
354.21	76.12
354.422	76.12
354.633	39.25
354.845	104.79
355.057	80.21
355.268	98.64
355.48	4.44
355.692	43.35
355.903	47.44
356.115	59.73
356.326	2.39
356.538	104.79
356.749	82.26
356.961	94.55
357.172	39.25
357.384	72.02
357.595	131.41
357.807	88.4
358.018	47.44
358.23	24.92
358.441	102.74
358.653	141.65
358.864	26.96
359.075	45.4
359.287	78.16
359.498	20.82
359.709	-11.95
359.921	80.21
360.132	102.74
360.344	43.35
360.555	86.36
360.766	41.3
360.977	39.25
361.189	174.42
361.4	59.73
361.611	16.73
361.823	47.44
362.034	88.4
362.245	-40.62
362.456	26.96
362.667	12.63
362.879	22.87
363.09	59.73
363.301	78.16
363.512	-16.04
363.723	90.45
363.935	63.83
364.146	61.78
364.357	49.49
364.568	63.83
364.779	26.96
364.99	86.36
365.201	86.36
365.412	106.84
365.623	-3.75
365.834	151.89
366.045	84.31
366.256	74.07
366.467	57.68
366.678	63.83
366.889	108.88
367.1	94.55
367.311	57.68
367.522	63.83
367.733	96.6
367.944	41.3
368.155	108.88
368.366	94.55
368.577	141.65
368.788	137.56
368.999	96.6
369.209	33.11
369.42	76.12
369.631	106.84
369.842	67.92
370.053	6.49
370.264	80.21
370.474	39.25
370.685	80.21
370.896	115.03
371.107	94.55
371.317	82.26
371.528	55.64
371.739	96.6
371.95	102.74
372.16	80.21
372.371	45.4
372.582	96.6
372.792	86.36
373.003	51.54
373.214	51.54
373.424	20.82
373.635	92.5
373.846	45.4
374.056	61.78
374.267	76.12
374.477	0.34
374.688	41.3
374.898	24.92
375.109	129.36
375.319	37.2
375.53	53.59
375.74	6.49
375.951	33.11
376.161	80.21
376.372	117.08
376.582	51.54
376.793	18.77
377.003	72.02
377.214	104.79
377.424	141.65
377.635	96.6
377.845	53.59
378.055	88.4
378.266	-16.04
378.476	72.02
378.686	51.54
378.897	86.36
379.107	108.88
379.317	106.84
379.528	88.4
379.738	115.03
379.948	-32.43
380.158	98.64
380.369	84.31
380.579	74.07
380.789	104.79
380.999	129.36
381.21	94.55
381.42	172.37
381.63	63.83
381.84	133.46
382.05	147.8
382.261	88.4
382.471	98.64
382.681	84.31
382.891	192.85
383.101	31.06
383.311	78.16
383.521	51.54
383.731	82.26
383.941	59.73
384.151	92.5
384.361	59.73
384.571	59.73
384.781	55.64
384.991	102.74
385.201	100.69
385.411	76.12
385.621	117.08
385.831	88.4
386.041	178.51
386.251	2.39
386.461	80.21
386.671	2.39
386.881	86.36
387.091	69.97
387.301	65.88
387.511	14.68
387.72	112.98
387.93	63.83
388.14	63.83
388.35	162.13
388.56	22.87
388.769	33.11
388.979	4.44
389.189	6.49
389.399	74.07
389.609	51.54
389.818	98.64
390.028	76.12
390.238	96.6
390.447	31.06
390.657	178.51
390.867	115.03
391.076	84.31
391.286	43.35
391.496	55.64
391.705	131.41
391.915	104.79
392.125	61.78
392.334	10.58
392.544	84.31
392.753	100.69
392.963	78.16
393.172	72.02
393.382	37.2
393.591	145.75
393.801	78.16
394.01	115.03
394.22	98.64
394.429	115.03
394.639	84.31
394.848	123.22
395.058	61.78
395.267	51.54
395.477	92.5
395.686	74.07
395.895	53.59
396.105	135.51
396.314	158.03
396.524	104.79
396.733	121.17
396.942	135.51
397.152	100.69
397.361	137.56
397.57	51.54
397.78	143.7
397.989	155.99
398.198	82.26
398.407	112.98
398.617	69.97
398.826	106.84
399.035	160.08
399.244	141.65
399.453	186.71
399.663	121.17
399.872	168.27
400.081	80.21
400.29	141.65
400.499	123.22
400.708	139.6
400.917	147.8
401.127	108.88
401.336	92.5
401.545	186.71
401.754	143.7
401.963	117.08
402.172	153.94
402.381	82.26
402.59	88.4
402.799	145.75
403.008	188.75
403.217	127.32
403.426	137.56
403.635	192.85
403.844	145.75
404.053	192.85
404.262	162.13
404.471	201.04
404.68	153.94
404.888	121.17
405.097	143.7
405.306	121.17
405.515	268.63
405.724	221.52
405.933	192.85
406.142	127.32
406.35	205.14
406.559	155.99
406.768	272.72
406.977	227.67
407.185	266.58
407.394	227.67
407.603	192.85
407.812	274.77
408.02	276.82
408.229	233.81
408.438	313.68
408.646	307.54
408.855	311.63
409.064	260.43
409.272	325.97
409.481	325.97
409.69	350.54
409.898	352.59
410.107	325.97
410.315	444.75
410.524	432.46
410.733	399.7
410.941	387.41
411.15	366.93
411.358	420.17
411.567	545.1
411.775	424.27
411.984	555.34
412.192	510.29
412.401	428.37
412.609	590.16
412.818	579.92
413.026	594.25
413.234	588.11
413.443	733.51
413.651	606.54
413.86	655.69
414.068	766.28
414.276	803.15
414.485	698.7
414.693	764.23
414.901	848.2
415.11	852.3
415.318	846.15
415.526	897.35
415.734	844.1
415.943	960.84
416.151	1063.24
416.359	1018.18
416.567	1030.47
416.776	1069.38
416.984	1165.64
417.192	1222.98
417.4	1167.68
417.608	1128.77
417.817	1202.5
418.025	1321.28
418.233	1380.67
418.441	1390.91
418.649	1345.86
418.857	1536.32
419.065	1558.85
419.273	1562.94
419.481	1620.28
419.689	1775.93
419.897	1751.35
420.105	1794.36
420.313	1845.56
420.521	1968.44
420.729	2060.6
420.937	2109.75
421.145	2093.37
421.353	2177.33
421.561	2347.31
421.769	2380.08
421.977	2478.38
422.185	2398.51
422.393	2566.45
422.601	2799.91
422.809	2718
423.017	2685.23
423.224	2810.15
423.432	2943.27
423.64	2947.37
423.848	3256.61
424.056	3186.98
424.263	3445.02
424.471	3449.12
424.679	3600.67
424.887	3711.26
425.094	3889.43
425.302	3764.51
425.51	3967.26
425.718	4114.71
425.925	4120.85
426.133	4378.9
426.341	4483.34
426.548	4649.23
426.756	4880.65
426.964	4753.68
427.171	5058.82
427.379	5114.12
427.586	5361.92
427.794	5492.99
428.001	5804.28
428.209	5873.92
428.417	5929.21
428.624	6392.05
428.832	6310.13
429.039	6224.12
429.247	6371.57
429.454	6777.07
429.662	7299.3
429.869	6727.92
430.076	7416.04
430.284	7180.52
430.491	7622.88
430.699	7858.4
430.906	7940.32
431.114	7958.75
431.321	8120.54
431.528	8427.73
431.736	9066.7
431.943	9709.76
432.15	9083.08
432.358	9337.03
432.565	9795.78
432.772	9865.41
432.979	10219.71
433.187	10262.71
433.394	10520.76
433.601	11122.86
433.808	11247.79
434.016	11126.96
434.223	11602.08
434.43	12370.07
434.637	11843.74
434.844	12615.83
435.052	13052.05
435.259	12601.49
435.466	13064.33
435.673	12771.47
435.88	13965.44
436.087	14512.25
436.294	14504.06
436.501	14100.61
436.708	14221.44
436.915	14796.92
437.122	15825
437.329	15327.34
437.537	16156.77
437.743	16470.11
437.95	16263.26
438.157	17133.65
438.364	17582.15
438.571	17823.81
438.778	17666.12
438.985	19472.43
439.192	18470.97
439.399	19216.43
439.606	18628.67
439.813	20021.28
440.02	20910.1
440.227	20746.26
440.433	20324.38
440.64	21297.17
440.847	21348.37
441.054	21434.38
441.261	22943.74
441.467	22562.81
441.674	23164.92
441.881	23902.18
442.088	23709.68
442.294	23523.31
442.501	24301.54
442.708	25032.66
442.914	26087.37
443.121	26836.92
443.328	26306.5
443.534	27903.92
443.741	27314.1
443.948	26945.47
444.154	28964.76
444.361	28665.76
444.568	28923.8
444.774	28852.13
444.981	28872.6
445.187	29837.2
445.394	31375.22
445.6	30738.3
445.807	33521.49
446.013	32116.59
446.22	32788.32
446.426	33959.76
446.633	34463.56
446.839	35518.26
447.046	33935.18
447.252	35831.6
447.459	35956.53
447.665	35465.02
447.871	37656.34
448.078	38819.59
448.284	36896.55
448.491	37984.02
448.697	39300.86
448.903	40447.72
449.11	39970.55
449.316	39460.6
449.522	40122.1
449.728	41336.54
449.935	41883.35
450.141	41721.56
450.347	42501.84
450.553	40894.18
450.76	41248.48
450.966	42557.13
451.172	42178.26
451.378	43245.25
451.584	42460.88
451.791	43171.52
451.997	43181.76
452.203	43876.02
452.409	43507.39
452.615	43384.51
452.821	41971.41
453.027	41303.78
453.233	43337.41
453.44	41258.72
453.646	42208.98
453.852	42430.16
454.058	42837.7
454.264	41148.13
454.47	42716.87
454.676	41484
454.882	42264.27
455.088	38897.41
455.294	39657.21
455.5	39737.08
455.705	40371.95
455.911	38477.58
456.117	37914.39
456.323	37279.52
456.529	34973.5
456.735	36642.6
456.941	36071.21
457.147	35172.16
457.352	34293.58
457.558	33800.02
457.764	33935.18
457.97	32964.45
458.176	32661.35
458.381	32431.97
458.587	30728.06
458.793	30904.19
458.999	29353.88
459.204	31436.66
459.41	30773.12
459.616	28409.76
459.821	28506.02
460.027	28393.38
460.233	27668.4
460.438	26421.19
460.644	26703.81
460.85	25632.72
461.055	24817.63
461.261	24897.5
461.466	23123.96
461.672	22542.33
461.878	24307.68
462.083	22685.69
462.289	22159.36
462.494	21899.27
462.7	21063.7
462.905	20596.76
463.111	21096.47
463.316	21418
463.522	20768.79
463.727	21067.8
463.932	20875.29
464.138	20670.49
464.343	20881.43
464.549	19974.18
464.754	21131.28
464.959	20834.33
465.165	20480.03
465.37	19681.32
465.575	19269.68
465.781	19998.76
465.986	20221.98
466.191	19501.1
466.397	19040.31
466.602	18186.3
466.807	18896.95
467.012	18907.19
467.218	19042.35
467.423	18499.64
467.628	18675.77
