Data from USB4F104151__35__10-22-11-784.txt Node

Date: Wed Mar 12 10:22:11 EDT 2025
User: louis
Spectrometer: USB4F10415
Trigger mode: 4
Integration Time (sec): 3.000000E-2
Scans to average: 1
Electric dark correction enabled: true
Nonlinearity correction enabled: false
Boxcar width: 0
XAxis mode: Wavelengths
Number of Pixels in Spectrum: 3648
>>>>>Begin Spectral Data<<<<<
178.204	-95.57
178.424	-95.57
178.644	-95.57
178.864	-181.59
179.084	-120.15
179.304	-13.65
179.524	-46.42
179.744	33.45
179.964	33.45
180.184	0.68
180.404	31.4
180.624	-32.08
180.844	84.65
181.064	-71
181.283	-46.42
181.503	15.02
181.723	10.92
181.943	-42.32
182.163	49.83
182.383	12.97
182.602	8.87
182.822	25.26
183.042	72.36
183.262	60.07
183.482	-30.04
183.701	33.45
183.921	19.11
184.141	94.89
184.361	-13.65
184.58	47.79
184.8	2.73
185.02	6.83
185.239	64.17
185.459	53.93
185.679	-9.56
185.898	12.97
186.118	76.46
186.338	43.69
186.557	39.59
186.777	-64.85
186.997	43.69
187.216	-7.51
187.436	78.51
187.655	25.26
187.875	15.02
188.095	84.65
188.314	47.79
188.534	27.31
188.753	-40.28
188.973	27.31
189.192	60.07
189.412	-13.65
189.631	33.45
189.851	21.16
190.07	84.65
190.29	80.55
190.509	8.87
190.729	35.5
190.948	70.31
191.168	72.36
191.387	88.75
191.607	10.92
191.826	-15.7
192.045	8.87
192.265	23.21
192.484	10.92
192.704	31.4
192.923	4.78
193.142	80.55
193.362	39.59
193.581	105.13
193.8	-30.04
194.02	64.17
194.239	51.88
194.458	23.21
194.678	33.45
194.897	19.11
195.116	76.46
195.335	43.69
195.555	-44.37
195.774	-40.28
195.993	47.79
196.212	2.73
196.432	15.02
196.651	33.45
196.87	-17.75
197.089	58.03
197.308	72.36
197.528	15.02
197.747	25.26
197.966	45.74
198.185	17.07
198.404	-21.84
198.623	39.59
198.842	43.69
199.062	68.27
199.281	39.59
199.5	-21.84
199.719	-9.56
199.938	78.51
200.157	88.75
200.376	-23.89
200.595	92.84
200.814	53.93
201.033	-32.08
201.252	74.41
201.471	10.92
201.69	35.5
201.909	51.88
202.128	23.21
202.347	-42.32
202.566	58.03
202.785	17.07
203.004	0.68
203.223	66.22
203.442	76.46
203.661	60.07
203.879	-9.56
204.098	-9.56
204.317	15.02
204.536	21.16
204.755	45.74
204.974	109.23
205.193	23.21
205.411	68.27
205.63	64.17
205.849	62.12
206.068	-5.46
206.287	35.5
206.505	27.31
206.724	35.5
206.943	27.31
207.162	-23.89
207.381	-38.23
207.599	-30.04
207.818	74.41
208.037	0.68
208.255	0.68
208.474	41.64
208.693	80.55
208.911	35.5
209.13	-7.51
209.349	76.46
209.567	2.73
209.786	39.59
210.005	21.16
210.223	29.35
210.442	4.78
210.661	45.74
210.879	-21.84
211.098	82.6
211.316	27.31
211.535	15.02
211.753	51.88
211.972	45.74
212.191	-9.56
212.409	23.21
212.628	8.87
212.846	12.97
213.065	31.4
213.283	66.22
213.502	2.73
213.72	35.5
213.938	2.73
214.157	-19.8
214.375	-23.89
214.594	41.64
214.812	8.87
215.031	2.73
215.249	29.35
215.467	84.65
215.686	-5.46
215.904	19.11
216.122	51.88
216.341	62.12
216.559	33.45
216.778	29.35
216.996	74.41
217.214	-3.41
217.432	74.41
217.651	8.87
217.869	66.22
218.087	101.03
218.306	0.68
218.524	64.17
218.742	6.83
218.96	33.45
219.179	47.79
219.397	55.98
219.615	49.83
219.833	29.35
220.051	55.98
220.27	76.46
220.488	29.35
220.706	15.02
220.924	-27.99
221.142	-15.7
221.36	-23.89
221.578	47.79
221.796	62.12
222.015	31.4
222.233	-3.41
222.451	58.03
222.669	58.03
222.887	101.03
223.105	15.02
223.323	41.64
223.541	17.07
223.759	31.4
223.977	64.17
224.195	6.83
224.413	-1.37
224.631	43.69
224.849	-40.28
225.067	94.89
225.285	-36.18
225.503	-9.56
225.721	-81.24
225.939	41.64
226.157	74.41
226.375	135.85
226.592	-9.56
226.81	-34.13
227.028	21.16
227.246	82.6
227.464	53.93
227.682	78.51
227.9	43.69
228.117	2.73
228.335	55.98
228.553	47.79
228.771	-13.65
228.989	17.07
229.206	23.21
229.424	-97.62
229.642	-17.75
229.86	4.78
230.077	-58.71
230.295	-9.56
230.513	141.99
230.731	33.45
230.948	72.36
231.166	12.97
231.384	-15.7
231.601	35.5
231.819	-13.65
232.037	-64.85
232.254	10.92
232.472	43.69
232.689	-38.23
232.907	55.98
233.125	-3.41
233.342	35.5
233.56	-1.37
233.777	103.08
233.995	21.16
234.213	76.46
234.43	8.87
234.648	41.64
234.865	43.69
235.083	78.51
235.3	21.16
235.518	8.87
235.735	49.83
235.953	-9.56
236.17	-9.56
236.388	68.27
236.605	70.31
236.822	-15.7
237.04	49.83
237.257	51.88
237.475	-54.61
237.692	-9.56
237.909	21.16
238.127	53.93
238.344	8.87
238.562	6.83
238.779	78.51
238.996	-25.94
239.214	86.7
239.431	39.59
239.648	8.87
239.865	-1.37
240.083	0.68
240.3	17.07
240.517	-17.75
240.735	88.75
240.952	35.5
241.169	82.6
241.386	-13.65
241.603	-21.84
241.821	-11.61
242.038	98.99
242.255	23.21
242.472	23.21
242.689	51.88
242.907	94.89
243.124	84.65
243.341	62.12
243.558	8.87
243.775	-1.37
243.992	-48.47
244.209	6.83
244.426	47.79
244.643	33.45
244.86	10.92
245.078	-7.51
245.295	17.07
245.512	64.17
245.729	-7.51
245.946	35.5
246.163	23.21
246.38	92.84
246.597	41.64
246.814	47.79
247.031	39.59
247.248	55.98
247.464	37.55
247.681	-15.7
247.898	-52.56
248.115	80.55
248.332	-87.38
248.549	4.78
248.766	103.08
248.983	23.21
249.2	35.5
249.417	41.64
249.633	-21.84
249.85	84.65
250.067	23.21
250.284	55.98
250.501	60.07
250.717	27.31
250.934	-9.56
251.151	62.12
251.368	21.16
251.585	98.99
251.801	68.27
252.018	10.92
252.235	41.64
252.451	37.55
252.668	15.02
252.885	109.23
253.102	35.5
253.318	-30.04
253.535	35.5
253.752	35.5
253.968	-3.41
254.185	12.97
254.401	-5.46
254.618	8.87
254.835	64.17
255.051	31.4
255.268	88.75
255.484	58.03
255.701	-23.89
255.917	62.12
256.134	35.5
256.351	19.11
256.567	-15.7
256.784	-25.94
257	55.98
257.217	35.5
257.433	35.5
257.65	35.5
257.866	43.69
258.082	37.55
258.299	17.07
258.515	-9.56
258.732	29.35
258.948	43.69
259.165	35.5
259.381	-46.42
259.597	-21.84
259.814	31.4
260.03	70.31
260.246	86.7
260.463	74.41
260.679	53.93
260.895	15.02
261.112	84.65
261.328	84.65
261.544	6.83
261.761	107.18
261.977	37.55
262.193	4.78
262.409	-46.42
262.626	15.02
262.842	53.93
263.058	-124.24
263.274	64.17
263.49	8.87
263.707	141.99
263.923	66.22
264.139	68.27
264.355	47.79
264.571	31.4
264.787	51.88
265.004	33.45
265.22	-30.04
265.436	6.83
265.652	-23.89
265.868	109.23
266.084	4.78
266.3	66.22
266.516	19.11
266.732	19.11
266.948	25.26
267.164	-36.18
267.38	41.64
267.596	72.36
267.812	68.27
268.028	66.22
268.244	-9.56
268.46	86.7
268.676	31.4
268.892	29.35
269.108	-9.56
269.324	6.83
269.54	-34.13
269.756	64.17
269.972	15.02
270.188	-3.41
270.403	6.83
270.619	60.07
270.835	27.31
271.051	8.87
271.267	29.35
271.483	25.26
271.698	58.03
271.914	23.21
272.13	-7.51
272.346	84.65
272.562	19.11
272.777	21.16
272.993	19.11
273.209	41.64
273.425	-7.51
273.64	2.73
273.856	66.22
274.072	41.64
274.287	2.73
274.503	2.73
274.719	62.12
274.934	88.75
275.15	-25.94
275.366	23.21
275.581	-25.94
275.797	4.78
276.012	88.75
276.228	70.31
276.444	68.27
276.659	141.99
276.875	-32.08
277.09	12.97
277.306	58.03
277.521	31.4
277.737	-38.23
277.952	25.26
278.168	27.31
278.383	8.87
278.599	27.31
278.814	2.73
279.03	0.68
279.245	23.21
279.461	41.64
279.676	94.89
279.892	8.87
280.107	-44.37
280.322	-46.42
280.538	62.12
280.753	-9.56
280.969	17.07
281.184	21.16
281.399	53.93
281.615	0.68
281.83	35.5
282.045	23.21
282.26	-42.32
282.476	64.17
282.691	19.11
282.906	43.69
283.122	49.83
283.337	-5.46
283.552	88.75
283.767	-30.04
283.983	82.6
284.198	17.07
284.413	74.41
284.628	4.78
284.843	80.55
285.058	-9.56
285.274	88.75
285.489	21.16
285.704	76.46
285.919	49.83
286.134	19.11
286.349	-1.37
286.564	23.21
286.779	27.31
286.995	25.26
287.21	-30.04
287.425	6.83
287.64	-7.51
287.855	45.74
288.07	2.73
288.285	12.97
288.5	37.55
288.715	31.4
288.93	78.51
289.145	-54.61
289.36	98.99
289.575	37.55
289.79	66.22
290.004	53.93
290.219	-13.65
290.434	72.36
290.649	33.45
290.864	35.5
291.079	39.59
291.294	74.41
291.509	29.35
291.724	39.59
291.938	0.68
292.153	117.42
292.368	6.83
292.583	29.35
292.798	10.92
293.012	31.4
293.227	62.12
293.442	-46.42
293.657	31.4
293.871	103.08
294.086	33.45
294.301	117.42
294.516	53.93
294.73	76.46
294.945	6.83
295.16	8.87
295.374	31.4
295.589	35.5
295.804	10.92
296.018	45.74
296.233	53.93
296.447	43.69
296.662	-32.08
296.877	86.7
297.091	133.8
297.306	-38.23
297.52	111.27
297.735	-79.19
297.949	-5.46
298.164	92.84
298.378	-15.7
298.593	105.13
298.807	49.83
299.022	68.27
299.236	76.46
299.451	-32.08
299.665	35.5
299.88	47.79
300.094	76.46
300.309	53.93
300.523	80.55
300.737	72.36
300.952	-9.56
301.166	6.83
301.381	10.92
301.595	0.68
301.809	41.64
302.024	25.26
302.238	-21.84
302.452	33.45
302.667	23.21
302.881	-25.94
303.095	15.02
303.309	55.98
303.524	-9.56
303.738	35.5
303.952	-32.08
304.166	25.26
304.381	51.88
304.595	43.69
304.809	0.68
305.023	-1.37
305.237	58.03
305.452	80.55
305.666	119.46
305.88	94.89
306.094	49.83
306.308	27.31
306.522	72.36
306.736	49.83
306.95	98.99
307.164	64.17
307.379	-5.46
307.593	27.31
307.807	15.02
308.021	-27.99
308.235	-32.08
308.449	-50.52
308.663	43.69
308.877	66.22
309.091	31.4
309.305	62.12
309.519	10.92
309.733	55.98
309.947	-52.56
310.161	53.93
310.374	111.27
310.588	62.12
310.802	15.02
311.016	53.93
311.23	92.84
311.444	72.36
311.658	47.79
311.872	62.12
312.085	-15.7
312.299	62.12
312.513	23.21
312.727	25.26
312.941	-9.56
313.154	62.12
313.368	43.69
313.582	82.6
313.796	-27.99
314.009	-30.04
314.223	-3.41
314.437	76.46
314.651	98.99
314.864	25.26
315.078	-30.04
315.292	-25.94
315.505	27.31
315.719	105.13
315.933	88.75
316.146	19.11
316.36	27.31
316.573	10.92
316.787	37.55
317.001	29.35
317.214	-44.37
317.428	51.88
317.641	84.65
317.855	35.5
318.068	19.11
318.282	25.26
318.495	39.59
318.709	115.37
318.922	80.55
319.136	-5.46
319.349	82.6
319.563	49.83
319.776	6.83
319.99	-5.46
320.203	58.03
320.417	-54.61
320.63	43.69
320.843	68.27
321.057	19.11
321.27	19.11
321.483	72.36
321.697	117.42
321.91	135.85
322.124	70.31
322.337	78.51
322.55	19.11
322.763	-7.51
322.977	60.07
323.19	43.69
323.403	31.4
323.617	43.69
323.83	53.93
324.043	6.83
324.256	35.5
324.469	-5.46
324.683	76.46
324.896	74.41
325.109	101.03
325.322	-23.89
325.535	45.74
325.748	-7.51
325.962	17.07
326.175	45.74
326.388	41.64
326.601	101.03
326.814	-1.37
327.027	74.41
327.24	60.07
327.453	41.64
327.666	-1.37
327.879	49.83
328.092	37.55
328.305	51.88
328.518	55.98
328.731	8.87
328.944	-25.94
329.157	17.07
329.37	-23.89
329.583	47.79
329.796	96.94
330.009	29.35
330.222	51.88
330.435	51.88
330.648	35.5
330.861	35.5
331.073	84.65
331.286	76.46
331.499	74.41
331.712	12.97
331.925	55.98
332.138	8.87
332.35	70.31
332.563	68.27
332.776	105.13
332.989	0.68
333.202	68.27
333.414	72.36
333.627	-13.65
333.84	0.68
334.053	-1.37
334.265	31.4
334.478	15.02
334.691	49.83
334.903	31.4
335.116	39.59
335.329	92.84
335.541	-9.56
335.754	12.97
335.966	25.26
336.179	-40.28
336.392	43.69
336.604	-1.37
336.817	64.17
337.029	29.35
337.242	80.55
337.454	60.07
337.667	84.65
337.88	84.65
338.092	113.32
338.305	90.79
338.517	72.36
338.729	66.22
338.942	90.79
339.154	-15.7
339.367	66.22
339.579	-13.65
339.792	41.64
340.004	154.28
340.217	25.26
340.429	19.11
340.641	88.75
340.854	35.5
341.066	88.75
341.278	39.59
341.491	19.11
341.703	19.11
341.915	35.5
342.128	39.59
342.34	123.56
342.552	2.73
342.764	19.11
342.977	19.11
343.189	72.36
343.401	21.16
343.613	-44.37
343.826	27.31
344.038	35.5
344.25	39.59
344.462	10.92
344.674	47.79
344.886	84.65
345.099	43.69
345.311	-3.41
345.523	47.79
345.735	27.31
345.947	43.69
346.159	-32.08
346.371	10.92
346.583	60.07
346.795	31.4
347.007	53.93
347.219	21.16
347.431	-23.89
347.643	49.83
347.855	12.97
348.067	23.21
348.279	23.21
348.491	35.5
348.703	-13.65
348.915	45.74
349.127	-5.46
349.339	90.79
349.551	60.07
349.763	53.93
349.975	-9.56
350.187	23.21
350.399	119.46
350.61	68.27
350.822	60.07
351.034	107.18
351.246	0.68
351.458	101.03
351.669	68.27
351.881	62.12
352.093	15.02
352.305	-3.41
352.517	43.69
352.728	121.51
352.94	-13.65
353.152	6.83
353.363	19.11
353.575	94.89
353.787	6.83
353.999	90.79
354.21	76.46
354.422	-17.75
354.633	23.21
354.845	47.79
355.057	33.45
355.268	43.69
355.48	41.64
355.692	45.74
355.903	23.21
356.115	98.99
356.326	31.4
356.538	119.46
356.749	10.92
356.961	37.55
357.172	27.31
357.384	94.89
357.595	133.8
357.807	-44.37
358.018	-34.13
358.23	-5.46
358.441	74.41
358.653	31.4
358.864	41.64
359.075	74.41
359.287	-19.8
359.498	144.04
359.709	2.73
359.921	84.65
360.132	47.79
360.344	90.79
360.555	-13.65
360.766	101.03
360.977	117.42
361.189	123.56
361.4	74.41
361.611	49.83
361.823	39.59
362.034	74.41
362.245	-32.08
362.456	33.45
362.667	4.78
362.879	23.21
363.09	74.41
363.301	90.79
363.512	12.97
363.723	-32.08
363.935	60.07
364.146	49.83
364.357	86.7
364.568	70.31
364.779	19.11
364.99	41.64
365.201	-7.51
365.412	76.46
365.623	70.31
365.834	90.79
366.045	17.07
366.256	25.26
366.467	51.88
366.678	43.69
366.889	78.51
367.1	76.46
367.311	92.84
367.522	39.59
367.733	74.41
367.944	123.56
368.155	60.07
368.366	58.03
368.577	39.59
368.788	43.69
368.999	27.31
369.209	17.07
369.42	53.93
369.631	70.31
369.842	29.35
370.053	29.35
370.264	107.18
370.474	103.08
370.685	43.69
370.896	76.46
371.107	117.42
371.317	60.07
371.528	29.35
371.739	80.55
371.95	-5.46
372.16	115.37
372.371	15.02
372.582	113.32
372.792	62.12
373.003	88.75
373.214	60.07
373.424	141.99
373.635	33.45
373.846	68.27
374.056	60.07
374.267	101.03
374.477	105.13
374.688	86.7
374.898	68.27
375.109	154.28
375.319	98.99
375.53	109.23
375.74	68.27
375.951	101.03
376.161	76.46
376.372	12.97
376.582	15.02
376.793	76.46
377.003	-38.23
377.214	58.03
377.424	90.79
377.635	111.27
377.845	10.92
378.055	45.74
378.266	6.83
378.476	78.51
378.686	43.69
378.897	-21.84
379.107	98.99
379.317	12.97
379.528	68.27
379.738	60.07
379.948	41.64
380.158	133.8
380.369	107.18
380.579	-19.8
380.789	35.5
380.999	49.83
381.21	115.37
381.42	123.56
381.63	43.69
381.84	76.46
382.05	53.93
382.261	68.27
382.471	109.23
382.681	60.07
382.891	133.8
383.101	90.79
383.311	111.27
383.521	80.55
383.731	131.75
383.941	125.61
384.151	148.14
384.361	94.89
384.571	98.99
384.781	109.23
384.991	88.75
385.201	111.27
385.411	19.11
385.621	68.27
385.831	31.4
386.041	55.98
386.251	41.64
386.461	60.07
386.671	74.41
386.881	66.22
387.091	23.21
387.301	139.94
387.511	17.07
387.72	19.11
387.93	49.83
388.14	60.07
388.35	109.23
388.56	139.94
388.769	107.18
388.979	43.69
389.189	82.6
389.399	25.26
389.609	-3.41
389.818	94.89
390.028	66.22
390.238	101.03
390.447	94.89
390.657	25.26
390.867	141.99
391.076	-9.56
391.286	33.45
391.496	82.6
391.705	101.03
391.915	109.23
392.125	170.66
392.334	51.88
392.544	111.27
392.753	109.23
392.963	88.75
393.172	141.99
393.382	45.74
393.591	182.95
393.801	103.08
394.01	103.08
394.22	109.23
394.429	111.27
394.639	84.65
394.848	146.09
395.058	33.45
395.267	139.94
395.477	117.42
395.686	162.47
395.895	121.51
396.105	174.76
396.314	88.75
396.524	96.94
396.733	139.94
396.942	111.27
397.152	78.51
397.361	96.94
397.57	84.65
397.78	84.65
397.989	105.13
398.198	166.57
398.407	174.76
398.617	154.28
398.826	35.5
399.035	146.09
399.244	180.9
399.453	109.23
399.663	141.99
399.872	137.9
400.081	68.27
400.29	207.53
400.499	96.94
400.708	96.94
400.917	119.46
401.127	133.8
401.336	78.51
401.545	197.29
401.754	182.95
401.963	180.9
402.172	80.55
402.381	146.09
402.59	219.82
402.799	152.23
403.008	201.38
403.217	117.42
403.426	178.86
403.635	156.33
403.844	158.38
404.053	109.23
404.262	76.46
404.471	180.9
404.68	133.8
404.888	240.3
405.097	113.32
405.306	178.86
405.515	185
405.724	160.42
405.933	213.67
406.142	205.48
406.35	283.3
406.559	193.19
406.768	330.41
406.977	295.59
407.185	279.21
407.394	264.87
407.603	264.87
407.812	299.69
408.02	281.25
408.229	320.17
408.438	275.11
408.646	301.73
408.855	352.93
409.064	326.31
409.272	400.04
409.481	387.75
409.69	346.79
409.898	309.93
410.107	322.21
410.315	400.04
410.524	438.95
410.733	473.76
410.941	361.13
411.15	484
411.358	453.28
411.567	477.86
411.775	484
411.984	520.87
412.192	645.79
412.401	518.82
412.609	555.68
412.818	576.16
413.026	565.92
413.234	631.46
413.443	680.61
413.651	719.52
413.86	658.08
414.068	701.09
414.276	793.25
414.485	729.76
414.693	852.64
414.901	875.17
415.11	858.78
415.318	809.63
415.526	895.65
415.734	920.22
415.943	967.32
416.151	1034.91
416.359	1129.11
416.567	1055.39
416.776	1104.54
416.984	1254.04
417.192	1297.05
417.4	1190.55
417.608	1276.57
417.817	1299.09
418.025	1333.91
418.233	1452.69
418.441	1534.61
418.649	1501.84
418.857	1682.07
419.065	1759.89
419.273	1540.76
419.481	1735.31
419.689	1792.66
419.897	1878.67
420.105	1962.64
420.313	2009.74
420.521	2056.84
420.729	2128.52
420.937	2230.92
421.145	2138.76
421.353	2304.65
421.561	2349.7
421.769	2536.07
421.977	2581.12
422.185	2679.43
422.393	2673.28
422.601	2947.71
422.809	2960
423.017	2910.85
423.224	3074.68
423.432	3209.85
423.64	3168.89
423.848	3498.61
424.056	3480.18
424.263	3674.74
424.471	3578.48
424.679	3721.84
424.887	3875.44
425.094	4057.71
425.302	3959.41
425.51	4287.08
425.718	4244.07
425.925	4342.38
426.133	4549.22
426.341	4860.51
426.548	5053.02
426.756	5061.21
426.964	5096.03
427.171	5163.61
427.379	5548.63
427.586	5532.25
427.794	5657.17
428.001	6115.92
428.209	6138.44
428.417	6117.97
428.624	6636.1
428.832	6558.28
429.039	6715.97
429.247	6609.48
429.454	7387.71
429.662	7502.39
429.869	7242.3
430.076	7699
430.284	7500.34
430.491	7803.44
430.699	8172.08
430.906	8198.7
431.114	8290.86
431.321	8673.83
431.528	8675.88
431.736	9361.95
431.943	9789.97
432.15	9515.55
432.358	9675.29
432.565	10144.27
432.772	10256.91
432.979	10983.94
433.187	10867.2
433.394	10813.96
433.601	11590.14
433.808	11618.81
434.016	11524.6
434.223	12263.92
434.43	12763.62
434.637	12485.1
434.844	13578.72
435.052	13588.96
435.259	13445.6
435.466	13685.21
435.673	13519.32
435.88	14594.51
436.087	15010.25
436.294	15235.52
436.501	14735.82
436.708	14891.46
436.915	15634.88
437.122	16271.79
437.329	16259.51
437.537	16658.86
437.743	17025.45
437.95	16949.67
438.157	17858.97
438.364	18657.68
438.571	18364.82
438.778	18626.96
438.985	20117.88
439.192	19382.66
439.399	20203.89
439.606	19384.71
439.813	20625.78
440.02	21956.96
440.227	21500.26
440.433	21123.43
440.64	22126.94
440.847	21883.23
441.054	22247.77
441.261	23963.97
441.467	23509.32
441.674	23951.68
441.881	24914.22
442.088	24920.37
442.294	24949.04
442.501	25366.82
442.708	25778.47
442.914	27046.16
443.121	27744.52
443.328	27599.11
443.534	29028.59
443.741	28528.89
443.948	27781.38
444.154	30044.38
444.361	29552.87
444.568	29616.36
444.774	30103.78
444.981	30437.59
445.187	31043.79
445.394	32522.43
445.6	32053.44
445.807	35043.48
446.013	33708.2
446.22	34447.52
446.426	35631.24
446.633	35932.29
446.839	36946.04
447.046	35365.01
447.252	37179.51
447.459	37402.74
447.665	37019.77
447.871	38959.19
448.078	39950.41
448.284	38275.17
448.491	39872.59
448.697	41156.66
448.903	41898.03
449.11	41930.79
449.316	40687.68
449.522	41816.11
449.728	43018.27
449.935	42901.53
450.141	43102.23
450.347	44206.09
450.553	42866.72
450.76	43098.14
450.966	44441.6
451.172	43974.67
451.378	44683.26
451.584	44158.98
451.791	45176.83
451.997	44953.6
452.203	45498.36
452.409	45117.43
452.615	45137.91
452.821	43552.79
453.027	43581.46
453.233	45019.13
453.44	43454.48
453.646	43915.28
453.852	44009.48
454.058	45232.12
454.264	43008.03
454.47	44277.77
454.676	43114.52
454.882	44587.01
455.088	40542.27
455.294	41304.12
455.5	42012.71
455.705	42258.47
455.911	40722.49
456.117	39903.31
456.323	39108.69
456.529	37562.48
456.735	38645.85
456.941	37361.78
457.147	37462.13
457.352	36049.03
457.558	35580.04
457.764	35575.95
457.97	34992.28
458.176	34492.57
458.381	34347.17
458.587	32536.76
458.793	32362.68
458.999	30834.9
459.204	33056.95
459.41	31891.65
459.616	30171.36
459.821	30136.54
460.027	29995.23
460.233	29702.37
460.438	27863.3
460.644	28371.19
460.85	27199.76
461.055	26681.62
461.261	26409.24
461.466	24830.26
461.672	23906.62
461.878	25391.4
462.083	23494.98
462.289	23615.81
462.494	23408.97
462.7	22395.22
462.905	21467.49
463.111	22614.35
463.316	22085.98
463.522	22425.94
463.727	21885.28
463.932	21948.76
464.138	21825.89
464.343	21709.15
464.549	21082.47
464.754	22192.47
464.959	21862.75
465.165	21481.83
465.37	20748.65
465.575	20427.12
465.781	20937.07
465.986	21195.11
466.191	20142.46
466.397	20044.15
466.602	19065.22
466.807	19745.15
467.012	19827.07
