Data from USB4F104151__41__10-22-40-491.txt Node

Date: Wed Mar 12 10:22:40 EDT 2025
User: louis
Spectrometer: USB4F10415
Trigger mode: 4
Integration Time (sec): 3.000000E-2
Scans to average: 1
Electric dark correction enabled: true
Nonlinearity correction enabled: false
Boxcar width: 0
XAxis mode: Wavelengths
Number of Pixels in Spectrum: 3648
>>>>>Begin Spectral Data<<<<<
178.204	-184.15
178.424	-184.15
178.644	-184.15
178.864	-112.47
179.084	-149.33
179.304	20.65
179.524	-16.21
179.744	4.27
179.964	28.84
180.184	6.31
180.404	41.13
180.624	20.65
180.844	-8.02
181.064	-48.98
181.283	-8.02
181.503	14.51
181.723	-55.12
181.943	-53.08
182.163	43.18
182.383	12.46
182.602	6.31
182.822	69.8
183.042	2.22
183.262	-57.17
183.482	61.61
183.701	-55.12
183.921	51.37
184.141	-3.93
184.361	55.47
184.58	30.89
184.8	-30.55
185.02	8.36
185.239	98.47
185.459	-36.69
185.679	22.7
185.898	-32.6
186.118	84.14
186.338	22.7
186.557	118.95
186.777	45.23
186.997	-32.6
187.216	10.41
187.436	53.42
187.655	24.75
187.875	20.65
188.095	8.36
188.314	-20.31
188.534	24.75
188.753	116.9
188.973	12.46
189.192	14.51
189.412	-20.31
189.631	-10.07
189.851	20.65
190.07	73.9
190.29	41.13
190.509	8.36
190.729	34.99
190.948	-32.6
191.168	94.38
191.387	57.51
191.607	-51.03
191.826	57.51
192.045	32.94
192.265	-26.45
192.484	8.36
192.704	59.56
192.923	28.84
193.142	67.75
193.362	73.9
193.581	-57.17
193.8	92.33
194.02	14.51
194.239	2.22
194.458	-24.4
194.678	-22.36
194.897	80.04
195.116	-28.5
195.335	71.85
195.555	-32.6
195.774	32.94
195.993	47.27
196.212	32.94
196.432	-42.84
196.651	16.55
196.87	37.03
197.089	86.19
197.308	67.75
197.528	-5.97
197.747	-12.12
197.966	16.55
198.185	41.13
198.404	-34.64
198.623	34.99
198.842	86.19
199.062	28.84
199.281	24.75
199.5	-28.5
199.719	20.65
199.938	94.38
200.157	-16.21
200.376	43.18
200.595	121
200.814	-24.4
201.033	-12.12
201.252	22.7
201.471	4.27
201.69	39.08
201.909	18.6
202.128	14.51
202.347	110.76
202.566	-55.12
202.785	43.18
203.004	-34.64
203.223	28.84
203.442	73.9
203.661	-69.46
203.879	-3.93
204.098	26.79
204.317	-20.31
204.536	41.13
204.755	10.41
204.974	135.34
205.193	-3.93
205.411	98.47
205.63	-8.02
205.849	10.41
206.068	-8.02
206.287	-51.03
206.505	92.33
206.724	14.51
206.943	41.13
207.162	41.13
207.381	-53.08
207.599	77.99
207.818	20.65
208.037	20.65
208.255	4.27
208.474	55.47
208.693	-26.45
208.911	12.46
209.13	57.51
209.349	45.23
209.567	67.75
209.786	32.94
210.005	-12.12
210.223	2.22
210.442	-44.88
210.661	-44.88
210.879	-5.97
211.098	-24.4
211.316	32.94
211.535	18.6
211.753	-40.79
211.972	4.27
212.191	6.31
212.409	20.65
212.628	28.84
212.846	39.08
213.065	37.03
213.283	-16.21
213.502	-46.93
213.72	61.61
213.938	-20.31
214.157	-63.32
214.375	-30.55
214.594	41.13
214.812	4.27
215.031	-46.93
215.249	49.32
215.467	39.08
215.686	28.84
215.904	82.09
216.122	-3.93
216.341	77.99
216.559	34.99
216.778	18.6
216.996	10.41
217.214	-18.26
217.432	0.17
217.651	28.84
217.869	20.65
218.087	51.37
218.306	-8.02
218.524	116.9
218.742	-20.31
218.96	-20.31
219.179	-14.17
219.397	37.03
219.615	145.58
219.833	84.14
220.051	16.55
220.27	84.14
220.488	53.42
220.706	45.23
220.924	26.79
221.142	-12.12
221.36	10.41
221.578	6.31
221.796	108.71
222.015	-10.07
222.233	12.46
222.451	77.99
222.669	28.84
222.887	32.94
223.105	-48.98
223.323	16.55
223.541	-48.98
223.759	96.43
223.977	26.79
224.195	82.09
224.413	90.28
224.631	-16.21
224.849	-28.5
225.067	90.28
225.285	-3.93
225.503	28.84
225.721	-38.74
225.939	-24.4
226.157	30.89
226.375	94.38
226.592	24.75
226.81	71.85
227.028	47.27
227.246	10.41
227.464	37.03
227.682	73.9
227.9	-24.4
228.117	67.75
228.335	77.99
228.553	2.22
228.771	51.37
228.989	39.08
229.206	86.19
229.424	43.18
229.642	-30.55
229.86	57.51
230.077	45.23
230.295	10.41
230.513	32.94
230.731	86.19
230.948	-8.02
231.166	28.84
231.384	34.99
231.601	20.65
231.819	84.14
232.037	4.27
232.254	8.36
232.472	4.27
232.689	-36.69
232.907	61.61
233.125	45.23
233.342	-46.93
233.56	75.95
233.777	26.79
233.995	49.32
234.213	34.99
234.43	12.46
234.648	24.75
234.865	28.84
235.083	63.66
235.3	90.28
235.518	18.6
235.735	67.75
235.953	59.56
236.17	90.28
236.388	18.6
236.605	2.22
236.822	59.56
237.04	-10.07
237.257	77.99
237.475	-20.31
237.692	53.42
237.909	2.22
238.127	45.23
238.344	77.99
238.562	51.37
238.779	-69.46
238.996	12.46
239.214	-18.26
239.431	47.27
239.648	20.65
239.865	-20.31
240.083	18.6
240.3	32.94
240.517	41.13
240.735	86.19
240.952	26.79
241.169	30.89
241.386	-30.55
241.603	30.89
241.821	86.19
242.038	67.75
242.255	53.42
242.472	-38.74
242.689	4.27
242.907	55.47
243.124	-8.02
243.341	63.66
243.558	-40.79
243.775	63.66
243.992	16.55
244.209	69.8
244.426	-44.88
244.643	-14.17
244.86	18.6
245.078	75.95
245.295	24.75
245.512	41.13
245.729	-8.02
245.946	43.18
246.163	-16.21
246.38	43.18
246.597	-18.26
246.814	20.65
247.031	57.51
247.248	53.42
247.464	37.03
247.681	37.03
247.898	-28.5
248.115	45.23
248.332	-14.17
248.549	8.36
248.766	86.19
248.983	116.9
249.2	-8.02
249.417	77.99
249.633	94.38
249.85	-14.17
250.067	-1.88
250.284	34.99
250.501	12.46
250.717	32.94
250.934	20.65
251.151	12.46
251.368	37.03
251.585	73.9
251.801	-28.5
252.018	-12.12
252.235	-28.5
252.451	-36.69
252.668	-20.31
252.885	43.18
253.102	63.66
253.318	-18.26
253.535	14.51
253.752	8.36
253.968	43.18
254.185	41.13
254.401	4.27
254.618	65.71
254.835	-24.4
255.051	57.51
255.268	-10.07
255.484	51.37
255.701	16.55
255.917	16.55
256.134	-22.36
256.351	10.41
256.567	4.27
256.784	-20.31
257	-10.07
257.217	49.32
257.433	14.51
257.65	22.7
257.866	65.71
258.082	24.75
258.299	-8.02
258.515	53.42
258.732	6.31
258.948	-32.6
259.165	-12.12
259.381	10.41
259.597	32.94
259.814	67.75
260.03	-5.97
260.246	-3.93
260.463	-22.36
260.679	20.65
260.895	57.51
261.112	114.86
261.328	30.89
261.544	-40.79
261.761	67.75
261.977	-26.45
262.193	10.41
262.409	69.8
262.626	28.84
262.842	104.62
263.058	-32.6
263.274	30.89
263.49	67.75
263.707	20.65
263.923	30.89
264.139	-30.55
264.355	-14.17
264.571	63.66
264.787	12.46
265.004	88.23
265.22	-5.97
265.436	28.84
265.652	37.03
265.868	-10.07
266.084	-59.22
266.3	12.46
266.516	-12.12
266.732	53.42
266.948	14.51
267.164	45.23
267.38	114.86
267.596	2.22
267.812	51.37
268.028	53.42
268.244	26.79
268.46	0.17
268.676	6.31
268.892	0.17
269.108	-14.17
269.324	14.51
269.54	-40.79
269.756	49.32
269.972	16.55
270.188	53.42
270.403	90.28
270.619	45.23
270.835	147.62
271.051	84.14
271.267	-46.93
271.483	45.23
271.698	-20.31
271.914	-10.07
272.13	-34.64
272.346	18.6
272.562	59.56
272.777	22.7
272.993	-1.88
273.209	39.08
273.425	43.18
273.64	-36.69
273.856	71.85
274.072	20.65
274.287	8.36
274.503	92.33
274.719	32.94
274.934	47.27
275.15	-24.4
275.366	32.94
275.581	2.22
275.797	28.84
276.012	-1.88
276.228	2.22
276.444	10.41
276.659	110.76
276.875	-30.55
277.09	20.65
277.306	12.46
277.521	-8.02
277.737	-51.03
277.952	104.62
278.168	77.99
278.383	-53.08
278.599	30.89
278.814	30.89
279.03	8.36
279.245	88.23
279.461	71.85
279.676	67.75
279.892	41.13
280.107	-32.6
280.322	53.42
280.538	24.75
280.753	12.46
280.969	-3.93
281.184	20.65
281.399	28.84
281.615	26.79
281.83	18.6
282.045	37.03
282.26	-55.12
282.476	-12.12
282.691	61.61
282.906	82.09
283.122	65.71
283.337	2.22
283.552	12.46
283.767	-10.07
283.983	59.56
284.198	0.17
284.413	-18.26
284.628	-30.55
284.843	41.13
285.058	24.75
285.274	-24.4
285.489	86.19
285.704	39.08
285.919	41.13
286.134	10.41
286.349	-40.79
286.564	-10.07
286.779	-28.5
286.995	14.51
287.21	18.6
287.425	82.09
287.64	-22.36
287.855	24.75
288.07	-8.02
288.285	59.56
288.5	10.41
288.715	4.27
288.93	4.27
289.145	69.8
289.36	37.03
289.575	34.99
289.79	4.27
290.004	34.99
290.219	4.27
290.434	94.38
290.649	55.47
290.864	26.79
291.079	30.89
291.294	10.41
291.509	4.27
291.724	10.41
291.938	20.65
292.153	-8.02
292.368	28.84
292.583	0.17
292.798	108.71
293.012	20.65
293.227	20.65
293.442	6.31
293.657	-30.55
293.871	77.99
294.086	-12.12
294.301	94.38
294.516	98.47
294.73	96.43
294.945	63.66
295.16	61.61
295.374	59.56
295.589	53.42
295.804	26.79
296.018	86.19
296.233	77.99
296.447	75.95
296.662	-42.84
296.877	131.24
297.091	45.23
297.306	59.56
297.52	-32.6
297.735	55.47
297.949	8.36
298.164	69.8
298.378	59.56
298.593	4.27
298.807	-89.94
299.022	108.71
299.236	30.89
299.451	26.79
299.665	-14.17
299.88	2.22
300.094	73.9
300.309	-5.97
300.523	2.22
300.737	12.46
300.952	49.32
301.166	55.47
301.381	28.84
301.595	49.32
301.809	37.03
302.024	26.79
302.238	84.14
302.452	104.62
302.667	8.36
302.881	106.67
303.095	32.94
303.309	45.23
303.524	-46.93
303.738	82.09
303.952	43.18
304.166	98.47
304.381	-57.17
304.595	43.18
304.809	73.9
305.023	77.99
305.237	-65.36
305.452	4.27
305.666	-16.21
305.88	28.84
306.094	-22.36
306.308	-28.5
306.522	0.17
306.736	57.51
306.95	69.8
307.164	18.6
307.379	49.32
307.593	77.99
307.807	75.95
308.021	53.42
308.235	6.31
308.449	34.99
308.663	86.19
308.877	86.19
309.091	63.66
309.305	77.99
309.519	28.84
309.733	102.57
309.947	24.75
310.161	73.9
310.374	16.55
310.588	116.9
310.802	59.56
311.016	86.19
311.23	14.51
311.444	-20.31
311.658	-34.64
311.872	67.75
312.085	69.8
312.299	77.99
312.513	20.65
312.727	39.08
312.941	45.23
313.154	84.14
313.368	12.46
313.582	121
313.796	55.47
314.009	28.84
314.223	90.28
314.437	51.37
314.651	18.6
314.864	-55.12
315.078	-38.74
315.292	24.75
315.505	-12.12
315.719	43.18
315.933	12.46
316.146	123.05
316.36	-8.02
316.573	116.9
316.787	34.99
317.001	127.14
317.214	0.17
317.428	77.99
317.641	20.65
317.855	16.55
318.068	12.46
318.282	65.71
318.495	28.84
318.709	24.75
318.922	20.65
319.136	37.03
319.349	86.19
319.563	55.47
319.776	135.34
319.99	37.03
320.203	88.23
320.417	-8.02
320.63	-28.5
320.843	53.42
321.057	41.13
321.27	-20.31
321.483	118.95
321.697	57.51
321.91	80.04
322.124	8.36
322.337	53.42
322.55	-14.17
322.763	6.31
322.977	69.8
323.19	10.41
323.403	65.71
323.617	61.61
323.83	28.84
324.043	63.66
324.256	43.18
324.469	39.08
324.683	18.6
324.896	20.65
325.109	2.22
325.322	-18.26
325.535	57.51
325.748	-1.88
325.962	39.08
326.175	12.46
326.388	98.47
326.601	24.75
326.814	65.71
327.027	32.94
327.24	90.28
327.453	-14.17
327.666	-1.88
327.879	20.65
328.092	12.46
328.305	86.19
328.518	20.65
328.731	90.28
328.944	24.75
329.157	84.14
329.37	-5.97
329.583	-12.12
329.796	96.43
330.009	-18.26
330.222	57.51
330.435	41.13
330.648	12.46
330.861	24.75
331.073	73.9
331.286	135.34
331.499	8.36
331.712	8.36
331.925	127.14
332.138	0.17
332.35	77.99
332.563	18.6
332.776	73.9
332.989	32.94
333.202	104.62
333.414	86.19
333.627	51.37
333.84	2.22
334.053	0.17
334.265	-3.93
334.478	-36.69
334.691	127.14
334.903	116.9
335.116	53.42
335.329	-10.07
335.541	-61.27
335.754	53.42
335.966	6.31
336.179	45.23
336.392	49.32
336.604	6.31
336.817	47.27
337.029	-5.97
337.242	28.84
337.454	57.51
337.667	43.18
337.88	4.27
338.092	14.51
338.305	28.84
338.517	43.18
338.729	94.38
338.942	55.47
339.154	2.22
339.367	-8.02
339.579	73.9
339.792	43.18
340.004	133.29
340.217	4.27
340.429	51.37
340.641	53.42
340.854	24.75
341.066	-3.93
341.278	94.38
341.491	26.79
341.703	63.66
341.915	-55.12
342.128	10.41
342.34	20.65
342.552	-18.26
342.764	45.23
342.977	-5.97
343.189	32.94
343.401	39.08
343.613	30.89
343.826	18.6
344.038	94.38
344.25	47.27
344.462	2.22
344.674	20.65
344.886	47.27
345.099	133.29
345.311	73.9
345.523	147.62
345.735	-5.97
345.947	90.28
346.159	-73.56
346.371	43.18
346.583	65.71
346.795	61.61
347.007	16.55
347.219	53.42
347.431	30.89
347.643	69.8
347.855	22.7
348.067	61.61
348.279	-22.36
348.491	-69.46
348.703	12.46
348.915	-48.98
349.127	2.22
349.339	112.81
349.551	37.03
349.763	-36.69
349.975	-8.02
350.187	127.14
350.399	-55.12
350.61	43.18
350.822	51.37
351.034	100.52
351.246	51.37
351.458	32.94
351.669	10.41
351.881	55.47
352.093	65.71
352.305	59.56
352.517	49.32
352.728	26.79
352.94	-16.21
353.152	37.03
353.363	-8.02
353.575	43.18
353.787	145.58
353.999	63.66
354.21	61.61
354.422	53.42
354.633	22.7
354.845	49.32
355.057	16.55
355.268	123.05
355.48	110.76
355.692	53.42
355.903	92.33
356.115	69.8
356.326	8.36
356.538	51.37
356.749	57.51
356.961	102.57
357.172	106.67
357.384	4.27
357.595	73.9
357.807	34.99
358.018	102.57
358.23	61.61
358.441	30.89
358.653	32.94
358.864	-30.55
359.075	8.36
359.287	47.27
359.498	73.9
359.709	0.17
359.921	24.75
360.132	53.42
360.344	37.03
360.555	14.51
360.766	-10.07
360.977	37.03
361.189	32.94
361.4	-12.12
361.611	22.7
361.823	45.23
362.034	80.04
362.245	26.79
362.456	116.9
362.667	2.22
362.879	24.75
363.09	57.51
363.301	106.67
363.512	4.27
363.723	84.14
363.935	2.22
364.146	20.65
364.357	100.52
364.568	22.7
364.779	53.42
364.99	77.99
365.201	10.41
365.412	84.14
365.623	2.22
365.834	24.75
366.045	45.23
366.256	37.03
366.467	37.03
366.678	57.51
366.889	12.46
367.1	51.37
367.311	22.7
367.522	-1.88
367.733	67.75
367.944	28.84
368.155	24.75
368.366	116.9
368.577	47.27
368.788	18.6
368.999	-67.41
369.209	24.75
369.42	106.67
369.631	131.24
369.842	-1.88
370.053	41.13
370.264	61.61
370.474	49.32
370.685	30.89
370.896	-12.12
371.107	73.9
371.317	4.27
371.528	-46.93
371.739	26.79
371.95	14.51
372.16	-1.88
372.371	20.65
372.582	28.84
372.792	47.27
373.003	-5.97
373.214	75.95
373.424	94.38
373.635	37.03
373.846	94.38
374.056	26.79
374.267	14.51
374.477	39.08
374.688	-28.5
374.898	45.23
375.109	57.51
375.319	88.23
375.53	61.61
375.74	110.76
375.951	69.8
376.161	65.71
376.372	73.9
376.582	-46.93
376.793	59.56
377.003	49.32
377.214	84.14
377.424	45.23
377.635	80.04
377.845	-14.17
378.055	10.41
378.266	-42.84
378.476	123.05
378.686	73.9
378.897	20.65
379.107	37.03
379.317	2.22
379.528	75.95
379.738	55.47
379.948	86.19
380.158	57.51
380.369	57.51
380.579	96.43
380.789	45.23
380.999	49.32
381.21	67.75
381.42	82.09
381.63	20.65
381.84	24.75
382.05	82.09
382.261	110.76
382.471	73.9
382.681	14.51
382.891	47.27
383.101	4.27
383.311	-12.12
383.521	47.27
383.731	102.57
383.941	84.14
384.151	0.17
384.361	51.37
384.571	34.99
384.781	45.23
384.991	96.43
385.201	96.43
385.411	-8.02
385.621	116.9
385.831	69.8
386.041	59.56
386.251	43.18
386.461	108.71
386.671	82.09
386.881	32.94
387.091	12.46
387.301	71.85
387.511	43.18
387.72	75.95
387.93	86.19
388.14	131.24
388.35	96.43
388.56	108.71
388.769	45.23
388.979	26.79
389.189	2.22
389.399	61.61
389.609	88.23
389.818	100.52
390.028	75.95
390.238	47.27
390.447	82.09
390.657	125.1
390.867	30.89
391.076	94.38
391.286	10.41
391.496	67.75
391.705	41.13
391.915	94.38
392.125	159.91
392.334	20.65
392.544	69.8
392.753	90.28
392.963	98.47
393.172	77.99
393.382	90.28
393.591	92.33
393.801	94.38
394.01	98.47
394.22	118.95
394.429	69.8
394.639	30.89
394.848	151.72
395.058	98.47
395.267	24.75
395.477	123.05
395.686	100.52
395.895	129.19
396.105	141.48
396.314	82.09
396.524	121
396.733	53.42
396.942	43.18
397.152	84.14
397.361	166.06
397.57	92.33
397.78	37.03
397.989	164.01
398.198	153.77
398.407	174.25
398.617	92.33
398.826	86.19
399.035	139.43
399.244	121
399.453	90.28
399.663	80.04
399.872	123.05
400.081	22.7
400.29	133.29
400.499	121
400.708	129.19
400.917	82.09
401.127	149.67
401.336	86.19
401.545	172.2
401.754	139.43
401.963	116.9
402.172	65.71
402.381	118.95
402.59	104.62
402.799	125.1
403.008	65.71
403.217	145.58
403.426	178.34
403.635	94.38
403.844	153.77
404.053	143.53
404.262	100.52
404.471	207.02
404.68	166.06
404.888	131.24
405.097	178.34
405.306	73.9
405.515	227.5
405.724	170.15
405.933	215.21
406.142	270.5
406.35	190.63
406.559	129.19
406.768	215.21
406.977	293.03
407.185	213.16
407.394	204.97
407.603	256.17
407.812	250.02
408.02	270.5
408.229	221.35
408.438	225.45
408.646	172.2
408.855	237.74
409.064	321.7
409.272	260.26
409.481	262.31
409.69	323.75
409.898	299.17
410.107	348.33
410.315	342.18
410.524	331.94
410.733	276.65
410.941	323.75
411.15	356.52
411.358	403.62
411.567	426.15
411.775	409.76
411.984	409.76
412.192	454.82
412.401	385.19
412.609	473.25
412.818	532.64
413.026	536.74
413.234	491.68
413.443	567.46
413.651	553.12
413.86	544.93
414.068	682.14
414.276	651.42
414.485	604.32
414.693	739.49
414.901	786.59
415.11	755.87
415.318	764.06
415.526	733.34
415.734	807.07
415.943	864.41
416.151	903.32
416.359	917.66
416.567	958.62
416.776	1009.82
416.984	1046.68
417.192	1089.69
417.4	1032.35
417.608	1003.68
417.817	1050.78
418.025	1247.38
418.233	1245.34
418.441	1251.48
418.649	1282.2
418.857	1415.32
419.065	1419.41
419.273	1347.73
419.481	1411.22
419.689	1579.15
419.897	1642.64
420.105	1646.74
420.313	1659.03
420.521	1710.22
420.729	1867.92
420.937	1958.03
421.145	1867.92
421.353	2107.53
421.561	2197.64
421.769	2054.28
421.977	2300.04
422.185	2166.92
422.393	2351.24
422.601	2508.93
422.809	2443.4
423.017	2580.61
423.224	2592.9
423.432	2568.32
423.64	2672.77
423.848	3035.26
424.056	2816.13
424.263	3078.27
424.471	3188.86
424.679	3242.11
424.887	3293.3
425.094	3432.57
425.302	3473.53
425.51	3600.5
425.718	3657.84
425.925	3803.25
426.133	3885.17
426.341	3987.57
426.548	4231.27
426.756	4395.11
426.964	4311.14
427.171	4450.41
427.379	4698.21
427.586	4753.51
427.794	4773.99
428.001	5091.42
428.209	5255.26
428.417	5271.64
428.624	5662.8
428.832	5507.16
429.039	5578.84
429.247	5531.73
429.454	6191.18
429.662	6615.11
429.869	6226
430.076	6500.42
430.284	6332.49
430.491	6533.19
430.699	6881.35
430.906	6770.76
431.114	7034.94
431.321	7450.68
431.528	7364.67
431.736	7761.97
431.943	8304.68
432.15	7938.1
432.358	8230.96
432.565	8638.5
432.772	8484.91
432.979	9013.28
433.187	9150.5
433.394	9183.26
433.601	9676.82
433.808	9869.33
434.016	9693.21
434.223	10246.16
434.43	10870.79
434.637	10608.65
434.844	11239.42
435.052	11509.76
435.259	11519.99
435.466	11538.43
435.673	11366.4
435.88	12273.65
436.087	12816.36
436.294	12885.99
436.501	12675.05
436.708	12679.15
436.915	13115.36
437.122	13719.51
437.329	13789.14
437.537	14133.2
437.743	14467.02
437.95	14368.72
438.157	14833.61
438.364	15286.21
438.571	15429.57
438.778	15767.48
438.985	16873.39
439.192	16371.63
439.399	16906.15
439.606	16480.18
439.813	17590.17
440.02	18419.6
440.227	18179.99
440.433	17870.75
440.64	18374.55
440.847	18333.59
441.054	18749.32
441.261	19953.53
441.467	19781.5
441.674	20037.5
441.881	20918.12
442.088	20770.67
442.294	20789.1
442.501	21114.73
442.708	21933.92
442.914	22507.35
443.121	23330.63
443.328	22810.45
443.534	24442.68
443.741	23609.15
443.948	23279.43
444.154	25237.29
444.361	24807.22
444.568	25059.12
444.774	24897.33
444.981	25151.27
445.187	26195.74
445.394	27524.87
445.6	26603.28
445.807	29249.26
446.013	27942.66
446.22	28598.01
446.426	29611.75
446.633	29964
446.839	30758.61
447.046	29259.5
447.252	31340.24
447.459	31336.14
447.665	31239.89
447.871	32351.93
448.078	33703.59
448.284	31934.15
448.491	33334.96
448.697	34485.92
448.903	34764.44
449.11	35151.51
449.316	34242.21
449.522	34952.85
449.728	35882.63
449.935	36071.04
450.141	35733.13
450.347	36966.01
450.553	35716.75
450.76	36411.01
450.966	37451.38
451.172	36806.27
451.378	37373.55
451.584	37248.63
451.791	37942.89
451.997	37852.78
452.203	37899.88
452.409	38413.92
452.615	37660.27
452.821	36830.84
453.027	36023.94
453.233	37967.46
453.44	36583.04
453.646	36851.32
453.852	37045.88
454.058	37453.42
454.264	36505.21
454.47	36826.74
454.676	36427.39
454.882	37213.81
455.088	33947.3
455.294	34432.67
455.5	35219.09
455.705	35638.92
455.911	33748.65
456.117	33525.42
456.323	32919.22
456.529	31190.73
456.735	32388.8
456.941	31340.24
457.147	31022.8
457.352	30414.55
457.558	29980.39
457.764	29746.92
457.97	29335.28
458.176	28581.62
458.381	28677.88
458.587	27152.14
458.793	27401.99
458.999	25575.2
459.204	27631.37
459.41	26806.03
459.616	25126.7
459.821	25380.65
460.027	25145.13
460.233	24465.21
460.438	23174.99
460.644	23662.4
460.85	22404.95
461.055	22169.43
461.261	22196.06
461.466	20758.38
461.672	19793.79
461.878	21147.5
462.083	19804.03
462.289	19582.85
462.494	19216.26
462.7	18515.86
462.905	17928.09
463.111	18730.89
463.316	18821
463.522	18012.06
463.727	18337.68
463.932	18114.45
464.138	18124.69
464.343	18143.13
464.549	17592.22
464.754	18583.44
464.959	18423.7
465.165	17782.68
465.37	17446.82
465.575	16824.23
465.781	17602.46
465.986	17598.37
466.191	17061.8
466.397	16644.01
466.602	15843.26
466.807	16480.18
467.012	16369.58
467.218	16236.47
467.423	16179.12
