Data from USB4F104151__142__10-26-26-967.txt Node

Date: Wed Mar 12 10:26:26 EDT 2025
User: louis
Spectrometer: USB4F10415
Trigger mode: 4
Integration Time (sec): 3.000000E-2
Scans to average: 1
Electric dark correction enabled: true
Nonlinearity correction enabled: false
Boxcar width: 0
XAxis mode: Wavelengths
Number of Pixels in Spectrum: 3648
>>>>>Begin Spectral Data<<<<<
178.204	-159.74
178.424	-159.74
178.644	-159.74
178.864	-120.83
179.084	-71.68
179.304	49.15
179.524	-67.58
179.744	-36.86
179.964	65.54
180.184	38.91
180.404	-43.01
180.624	18.43
180.844	32.77
181.064	0
181.283	-16.38
181.503	-57.34
181.723	16.38
181.943	-98.3
182.163	90.11
182.383	34.82
182.602	79.87
182.822	-40.96
183.042	49.15
183.262	14.34
183.482	47.1
183.701	51.2
183.921	81.92
184.141	77.82
184.361	81.92
184.58	-30.72
184.8	-2.05
185.02	51.2
185.239	112.64
185.459	32.77
185.679	73.73
185.898	-8.19
186.118	36.86
186.338	32.77
186.557	57.34
186.777	-16.38
186.997	61.44
187.216	73.73
187.436	83.97
187.655	81.92
187.875	49.15
188.095	49.15
188.314	-8.19
188.534	77.82
188.753	67.58
188.973	40.96
189.192	112.64
189.412	55.3
189.631	55.3
189.851	32.77
190.07	161.79
190.29	86.01
190.509	40.96
190.729	28.67
190.948	10.24
191.168	178.17
191.387	53.25
191.607	34.82
191.826	26.62
192.045	26.62
192.265	57.34
192.484	65.54
192.704	-2.05
192.923	12.29
193.142	40.96
193.362	59.39
193.581	20.48
193.8	81.92
194.02	92.16
194.239	4.1
194.458	53.25
194.678	32.77
194.897	96.25
195.116	34.82
195.335	59.39
195.555	100.35
195.774	18.43
195.993	81.92
196.212	92.16
196.432	90.11
196.651	36.86
196.87	43.01
197.089	100.35
197.308	83.97
197.528	57.34
197.747	-57.34
197.966	20.48
198.185	114.69
198.404	104.45
198.623	18.43
198.842	20.48
199.062	106.49
199.281	114.69
199.5	-8.19
199.719	104.45
199.938	98.3
200.157	77.82
200.376	90.11
200.595	61.44
200.814	49.15
201.033	28.67
201.252	100.35
201.471	30.72
201.69	77.82
201.909	98.3
202.128	40.96
202.347	8.19
202.566	20.48
202.785	55.3
203.004	32.77
203.223	65.54
203.442	-4.1
203.661	-75.77
203.879	67.58
204.098	24.58
204.317	-2.05
204.536	63.49
204.755	20.48
204.974	38.91
205.193	73.73
205.411	16.38
205.63	55.3
205.849	36.86
206.068	36.86
206.287	0
206.505	106.49
206.724	53.25
206.943	28.67
207.162	45.06
207.381	81.92
207.599	81.92
207.818	34.82
208.037	14.34
208.255	-36.86
208.474	73.73
208.693	20.48
208.911	45.06
209.13	67.58
209.349	-16.38
209.567	-8.19
209.786	63.49
210.005	40.96
210.223	20.48
210.442	-77.82
210.661	126.97
210.879	59.39
211.098	145.41
211.316	36.86
211.535	143.36
211.753	-22.53
211.972	63.49
212.191	32.77
212.409	92.16
212.628	45.06
212.846	-22.53
213.065	40.96
213.283	131.07
213.502	24.58
213.72	4.1
213.938	73.73
214.157	-16.38
214.375	55.3
214.594	47.1
214.812	71.68
215.031	102.4
215.249	-18.43
215.467	106.49
215.686	24.58
215.904	83.97
216.122	86.01
216.341	102.4
216.559	40.96
216.778	118.78
216.996	73.73
217.214	59.39
217.432	61.44
217.651	-6.14
217.869	-24.58
218.087	61.44
218.306	139.26
218.524	63.49
218.742	28.67
218.96	75.77
219.179	14.34
219.397	79.87
219.615	90.11
219.833	24.58
220.051	12.29
220.27	102.4
220.488	49.15
220.706	47.1
220.924	12.29
221.142	14.34
221.36	55.3
221.578	86.01
221.796	57.34
222.015	77.82
222.233	-6.14
222.451	112.64
222.669	22.53
222.887	131.07
223.105	-18.43
223.323	57.34
223.541	-14.34
223.759	131.07
223.977	18.43
224.195	75.77
224.413	73.73
224.631	4.1
224.849	55.3
225.067	63.49
225.285	71.68
225.503	28.67
225.721	-59.39
225.939	22.53
226.157	30.72
226.375	163.84
226.592	45.06
226.81	73.73
227.028	63.49
227.246	137.21
227.464	43.01
227.682	22.53
227.9	8.19
228.117	-10.24
228.335	28.67
228.553	47.1
228.771	-6.14
228.989	18.43
229.206	55.3
229.424	49.15
229.642	59.39
229.86	129.02
230.077	40.96
230.295	106.49
230.513	-6.14
230.731	6.14
230.948	83.97
231.166	114.69
231.384	28.67
231.601	45.06
231.819	118.78
232.037	43.01
232.254	-51.2
232.472	12.29
232.689	96.25
232.907	71.68
233.125	61.44
233.342	45.06
233.56	38.91
233.777	6.14
233.995	47.1
234.213	86.01
234.43	10.24
234.648	36.86
234.865	-4.1
235.083	40.96
235.3	98.3
235.518	73.73
235.735	120.83
235.953	73.73
236.17	24.58
236.388	-16.38
236.605	77.82
236.822	81.92
237.04	-20.48
237.257	8.19
237.475	67.58
237.692	45.06
237.909	98.3
238.127	61.44
238.344	40.96
238.562	2.05
238.779	12.29
238.996	-18.43
239.214	43.01
239.431	38.91
239.648	-6.14
239.865	10.24
240.083	90.11
240.3	20.48
240.517	24.58
240.735	32.77
240.952	69.63
241.169	0
241.386	53.25
241.603	63.49
241.821	69.63
242.038	-4.1
242.255	110.59
242.472	79.87
242.689	73.73
242.907	55.3
243.124	24.58
243.341	12.29
243.558	-12.29
243.775	-10.24
243.992	36.86
244.209	51.2
244.426	100.35
244.643	81.92
244.86	22.53
245.078	86.01
245.295	75.77
245.512	92.16
245.729	16.38
245.946	98.3
246.163	28.67
246.38	-8.19
246.597	24.58
246.814	104.45
247.031	90.11
247.248	43.01
247.464	63.49
247.681	4.1
247.898	73.73
248.115	88.06
248.332	-12.29
248.549	55.3
248.766	92.16
248.983	61.44
249.2	77.82
249.417	38.91
249.633	28.67
249.85	18.43
250.067	83.97
250.284	112.64
250.501	40.96
250.717	49.15
250.934	20.48
251.151	-53.25
251.368	36.86
251.585	55.3
251.801	-22.53
252.018	49.15
252.235	73.73
252.451	24.58
252.668	-32.77
252.885	143.36
253.102	71.68
253.318	14.34
253.535	4.1
253.752	75.77
253.968	49.15
254.185	8.19
254.401	22.53
254.618	153.6
254.835	73.73
255.051	112.64
255.268	65.54
255.484	90.11
255.701	2.05
255.917	71.68
256.134	65.54
256.351	63.49
256.567	8.19
256.784	40.96
257	61.44
257.217	108.54
257.433	26.62
257.65	6.14
257.866	81.92
258.082	6.14
258.299	73.73
258.515	59.39
258.732	65.54
258.948	16.38
259.165	98.3
259.381	45.06
259.597	49.15
259.814	53.25
260.03	40.96
260.246	143.36
260.463	106.49
260.679	100.35
260.895	81.92
261.112	38.91
261.328	47.1
261.544	-8.19
261.761	75.77
261.977	20.48
262.193	30.72
262.409	38.91
262.626	-24.58
262.842	57.34
263.058	75.77
263.274	139.26
263.49	79.87
263.707	55.3
263.923	26.62
264.139	-12.29
264.355	73.73
264.571	28.67
264.787	53.25
265.004	73.73
265.22	30.72
265.436	-4.1
265.652	61.44
265.868	43.01
266.084	65.54
266.3	86.01
266.516	34.82
266.732	71.68
266.948	-16.38
267.164	71.68
267.38	49.15
267.596	30.72
267.812	141.31
268.028	61.44
268.244	49.15
268.46	102.4
268.676	40.96
268.892	24.58
269.108	49.15
269.324	-20.48
269.54	-34.82
269.756	96.25
269.972	-20.48
270.188	32.77
270.403	-49.15
270.619	65.54
270.835	38.91
271.051	36.86
271.267	51.2
271.483	22.53
271.698	81.92
271.914	36.86
272.13	36.86
272.346	59.39
272.562	36.86
272.777	43.01
272.993	22.53
273.209	-26.62
273.425	98.3
273.64	0
273.856	-6.14
274.072	69.63
274.287	2.05
274.503	71.68
274.719	49.15
274.934	55.3
275.15	40.96
275.366	45.06
275.581	-30.72
275.797	67.58
276.012	-40.96
276.228	26.62
276.444	67.58
276.659	79.87
276.875	-2.05
277.09	55.3
277.306	88.06
277.521	47.1
277.737	24.58
277.952	45.06
278.168	57.34
278.383	45.06
278.599	47.1
278.814	51.2
279.03	55.3
279.245	49.15
279.461	40.96
279.676	28.67
279.892	36.86
280.107	-8.19
280.322	69.63
280.538	63.49
280.753	51.2
280.969	65.54
281.184	34.82
281.399	79.87
281.615	-20.48
281.83	10.24
282.045	38.91
282.26	59.39
282.476	47.1
282.691	114.69
282.906	135.17
283.122	49.15
283.337	-8.19
283.552	102.4
283.767	61.44
283.983	81.92
284.198	112.64
284.413	18.43
284.628	71.68
284.843	65.54
285.058	57.34
285.274	16.38
285.489	-43.01
285.704	73.73
285.919	32.77
286.134	38.91
286.349	6.14
286.564	61.44
286.779	53.25
286.995	61.44
287.21	110.59
287.425	57.34
287.64	59.39
287.855	26.62
288.07	98.3
288.285	38.91
288.5	43.01
288.715	53.25
288.93	0
289.145	43.01
289.36	16.38
289.575	69.63
289.79	94.21
290.004	4.1
290.219	32.77
290.434	22.53
290.649	96.25
290.864	83.97
291.079	-12.29
291.294	53.25
291.509	12.29
291.724	12.29
291.938	22.53
292.153	129.02
292.368	57.34
292.583	47.1
292.798	75.77
293.012	63.49
293.227	6.14
293.442	6.14
293.657	-32.77
293.871	106.49
294.086	20.48
294.301	81.92
294.516	24.58
294.73	137.21
294.945	71.68
295.16	55.3
295.374	71.68
295.589	18.43
295.804	61.44
296.018	53.25
296.233	18.43
296.447	49.15
296.662	14.34
296.877	94.21
297.091	12.29
297.306	161.79
297.52	83.97
297.735	147.45
297.949	28.67
298.164	16.38
298.378	96.25
298.593	30.72
298.807	92.16
299.022	106.49
299.236	79.87
299.451	75.77
299.665	40.96
299.88	86.01
300.094	43.01
300.309	61.44
300.523	100.35
300.737	98.3
300.952	45.06
301.166	81.92
301.381	61.44
301.595	16.38
301.809	59.39
302.024	36.86
302.238	73.73
302.452	196.61
302.667	63.49
302.881	131.07
303.095	18.43
303.309	57.34
303.524	28.67
303.738	49.15
303.952	43.01
304.166	61.44
304.381	40.96
304.595	126.97
304.809	32.77
305.023	22.53
305.237	34.82
305.452	32.77
305.666	38.91
305.88	86.01
306.094	49.15
306.308	71.68
306.522	98.3
306.736	16.38
306.95	53.25
307.164	45.06
307.379	-4.1
307.593	45.06
307.807	73.73
308.021	172.03
308.235	49.15
308.449	-16.38
308.663	53.25
308.877	83.97
309.091	163.84
309.305	8.19
309.519	40.96
309.733	32.77
309.947	-12.29
310.161	16.38
310.374	22.53
310.588	4.1
310.802	32.77
311.016	20.48
311.23	36.86
311.444	36.86
311.658	-24.58
311.872	118.78
312.085	6.14
312.299	147.45
312.513	126.97
312.727	86.01
312.941	59.39
313.154	20.48
313.368	65.54
313.582	69.63
313.796	129.02
314.009	104.45
314.223	98.3
314.437	38.91
314.651	73.73
314.864	104.45
315.078	45.06
315.292	-32.77
315.505	24.58
315.719	-2.05
315.933	8.19
316.146	118.78
316.36	83.97
316.573	100.35
316.787	59.39
317.001	90.11
317.214	22.53
317.428	106.49
317.641	110.59
317.855	92.16
318.068	65.54
318.282	-4.1
318.495	139.26
318.709	86.01
318.922	90.11
319.136	118.78
319.349	34.82
319.563	71.68
319.776	24.58
319.99	4.1
320.203	-2.05
320.417	86.01
320.63	55.3
320.843	63.49
321.057	47.1
321.27	73.73
321.483	81.92
321.697	90.11
321.91	73.73
322.124	83.97
322.337	51.2
322.55	122.88
322.763	47.1
322.977	118.78
323.19	30.72
323.403	22.53
323.617	61.44
323.83	94.21
324.043	-22.53
324.256	43.01
324.469	0
324.683	49.15
324.896	20.48
325.109	94.21
325.322	38.91
325.535	122.88
325.748	-12.29
325.962	61.44
326.175	71.68
326.388	28.67
326.601	-16.38
326.814	49.15
327.027	24.58
327.24	86.01
327.453	-10.24
327.666	77.82
327.879	61.44
328.092	63.49
328.305	71.68
328.518	81.92
328.731	40.96
328.944	57.34
329.157	104.45
329.37	26.62
329.583	36.86
329.796	43.01
330.009	8.19
330.222	32.77
330.435	73.73
330.648	16.38
330.861	77.82
331.073	53.25
331.286	43.01
331.499	124.93
331.712	47.1
331.925	49.15
332.138	0
332.35	98.3
332.563	59.39
332.776	77.82
332.989	28.67
333.202	49.15
333.414	40.96
333.627	90.11
333.84	14.34
334.053	77.82
334.265	55.3
334.478	43.01
334.691	47.1
334.903	118.78
335.116	49.15
335.329	69.63
335.541	38.91
335.754	73.73
335.966	92.16
336.179	98.3
336.392	16.38
336.604	90.11
336.817	75.77
337.029	114.69
337.242	73.73
337.454	69.63
337.667	122.88
337.88	57.34
338.092	24.58
338.305	114.69
338.517	16.38
338.729	32.77
338.942	122.88
339.154	-20.48
339.367	61.44
339.579	149.5
339.792	-6.14
340.004	67.58
340.217	36.86
340.429	55.3
340.641	28.67
340.854	16.38
341.066	69.63
341.278	49.15
341.491	49.15
341.703	16.38
341.915	71.68
342.128	53.25
342.34	81.92
342.552	110.59
342.764	77.82
342.977	81.92
343.189	36.86
343.401	28.67
343.613	79.87
343.826	49.15
344.038	-24.58
344.25	59.39
344.462	63.49
344.674	57.34
344.886	18.43
345.099	94.21
345.311	61.44
345.523	65.54
345.735	40.96
345.947	122.88
346.159	45.06
346.371	77.82
346.583	53.25
346.795	65.54
347.007	49.15
347.219	34.82
347.431	86.01
347.643	40.96
347.855	47.1
348.067	98.3
348.279	16.38
348.491	20.48
348.703	0
348.915	-51.2
349.127	92.16
349.339	73.73
349.551	73.73
349.763	98.3
349.975	-2.05
350.187	114.69
350.399	47.1
350.61	81.92
350.822	2.05
351.034	22.53
351.246	38.91
351.458	69.63
351.669	98.3
351.881	126.97
352.093	102.4
352.305	73.73
352.517	65.54
352.728	151.55
352.94	49.15
353.152	86.01
353.363	40.96
353.575	98.3
353.787	110.59
353.999	77.82
354.21	90.11
354.422	65.54
354.633	26.62
354.845	40.96
355.057	67.58
355.268	51.2
355.48	102.4
355.692	75.77
355.903	73.73
356.115	4.1
356.326	12.29
356.538	36.86
356.749	88.06
356.961	98.3
357.172	106.49
357.384	24.58
357.595	49.15
357.807	86.01
358.018	53.25
358.23	75.77
358.441	169.98
358.653	94.21
358.864	55.3
359.075	32.77
359.287	149.5
359.498	53.25
359.709	96.25
359.921	53.25
360.132	114.69
360.344	96.25
360.555	16.38
360.766	57.34
360.977	102.4
361.189	141.31
361.4	57.34
361.611	24.58
361.823	28.67
362.034	98.3
362.245	51.2
362.456	69.63
362.667	110.59
362.879	98.3
363.09	116.73
363.301	32.77
363.512	114.69
363.723	34.82
363.935	86.01
364.146	122.88
364.357	-4.1
364.568	71.68
364.779	2.05
364.99	143.36
365.201	30.72
365.412	141.31
365.623	65.54
365.834	49.15
366.045	81.92
366.256	59.39
366.467	120.83
366.678	26.62
366.889	40.96
367.1	102.4
367.311	43.01
367.522	0
367.733	2.05
367.944	131.07
368.155	131.07
368.366	38.91
368.577	4.1
368.788	57.34
368.999	16.38
369.209	4.1
369.42	165.89
369.631	79.87
369.842	40.96
370.053	16.38
370.264	88.06
370.474	108.54
370.685	90.11
370.896	110.59
371.107	98.3
371.317	106.49
371.528	71.68
371.739	108.54
371.95	102.4
372.16	57.34
372.371	106.49
372.582	114.69
372.792	122.88
373.003	135.17
373.214	116.73
373.424	57.34
373.635	28.67
373.846	102.4
374.056	49.15
374.267	139.26
374.477	100.35
374.688	83.97
374.898	49.15
375.109	61.44
375.319	51.2
375.53	59.39
375.74	61.44
375.951	51.2
376.161	69.63
376.372	69.63
376.582	12.29
376.793	106.49
377.003	65.54
377.214	88.06
377.424	34.82
377.635	94.21
377.845	24.58
378.055	43.01
378.266	32.77
378.476	67.58
378.686	83.97
378.897	98.3
379.107	112.64
379.317	38.91
379.528	104.45
379.738	73.73
379.948	28.67
380.158	124.93
380.369	18.43
380.579	83.97
380.789	75.77
380.999	77.82
381.21	153.6
381.42	36.86
381.63	90.11
381.84	34.82
382.05	92.16
382.261	114.69
382.471	90.11
382.681	59.39
382.891	6.14
383.101	110.59
383.311	90.11
383.521	112.64
383.731	36.86
383.941	86.01
384.151	63.49
384.361	79.87
384.571	106.49
384.781	51.2
384.991	69.63
385.201	92.16
385.411	73.73
385.621	77.82
385.831	65.54
386.041	28.67
386.251	79.87
386.461	118.78
386.671	65.54
386.881	14.34
387.091	75.77
387.301	86.01
387.511	86.01
387.72	137.21
387.93	200.7
388.14	26.62
388.35	53.25
388.56	172.03
388.769	129.02
388.979	153.6
389.189	83.97
389.399	53.25
389.609	114.69
389.818	139.26
390.028	106.49
390.238	40.96
390.447	114.69
390.657	131.07
390.867	118.78
391.076	8.19
391.286	110.59
391.496	145.41
391.705	90.11
391.915	184.32
392.125	159.74
392.334	122.88
392.544	114.69
392.753	59.39
392.963	90.11
393.172	53.25
393.382	143.36
393.591	174.08
393.801	67.58
394.01	114.69
394.22	143.36
394.429	145.41
394.639	137.21
394.848	198.65
395.058	92.16
395.267	73.73
395.477	120.83
395.686	151.55
395.895	172.03
396.105	169.98
396.314	83.97
396.524	110.59
396.733	178.17
396.942	188.41
397.152	122.88
397.361	96.25
397.57	38.91
397.78	167.93
397.989	83.97
398.198	276.48
398.407	178.17
398.617	81.92
398.826	176.13
399.035	188.41
399.244	188.41
399.453	63.49
399.663	98.3
399.872	137.21
400.081	165.89
400.29	253.95
400.499	190.46
400.708	151.55
400.917	133.12
401.127	165.89
401.336	159.74
401.545	235.52
401.754	163.84
401.963	114.69
402.172	176.13
402.381	149.5
402.59	176.13
402.799	114.69
403.008	159.74
403.217	172.03
403.426	159.74
403.635	186.37
403.844	159.74
404.053	202.75
404.262	163.84
404.471	180.22
404.68	143.36
404.888	223.23
405.097	155.65
405.306	137.21
405.515	305.15
405.724	165.89
405.933	227.32
406.142	180.22
406.35	243.71
406.559	292.86
406.768	212.99
406.977	276.48
407.185	247.8
407.394	327.67
407.603	188.41
407.812	292.86
408.02	305.15
408.229	305.15
408.438	311.29
408.646	229.37
408.855	327.67
409.064	280.57
409.272	337.91
409.481	346.11
409.69	311.29
409.898	360.44
410.107	374.78
410.315	401.4
410.524	419.83
410.733	413.69
410.941	372.73
411.15	354.3
411.358	450.55
411.567	491.51
411.775	507.9
411.984	489.46
412.192	591.86
412.401	446.46
412.609	618.49
412.818	598.01
413.026	618.49
413.234	651.25
413.443	579.58
413.651	610.29
413.86	694.26
414.068	724.98
414.276	698.36
414.485	716.79
414.693	763.89
414.901	741.36
415.11	808.95
415.318	804.85
415.526	868.34
415.734	903.15
415.943	864.24
416.151	978.93
416.359	933.87
416.567	940.02
416.776	1038.32
416.984	1105.9
417.192	1159.15
417.4	1124.33
417.608	1132.53
417.817	1153.01
418.025	1228.78
418.233	1419.24
418.441	1347.56
418.649	1306.6
418.857	1423.34
419.065	1429.48
419.273	1519.59
419.481	1527.78
419.689	1695.72
419.897	1789.92
420.105	1683.43
420.313	1865.7
420.521	1802.21
420.729	1863.65
420.937	2064.35
421.145	2052.06
421.353	2109.41
421.561	2248.67
421.769	2271.2
421.977	2422.75
422.185	2250.72
422.393	2473.95
422.601	2668.5
422.809	2707.41
423.017	2731.99
423.224	2705.37
423.432	2930.64
423.64	2799.57
423.848	3002.32
424.056	3047.38
424.263	3071.95
424.471	3309.52
424.679	3309.52
424.887	3629
425.094	3645.38
425.302	3651.53
425.51	3772.36
425.718	3932.1
425.925	3993.54
426.133	4186.05
426.341	4417.47
426.548	4407.23
426.756	4532.15
426.964	4505.53
427.171	4702.14
427.379	4878.26
427.586	4933.56
427.794	5136.31
428.001	5324.72
428.209	5492.65
428.417	5453.74
428.624	5951.4
428.832	5922.73
429.039	5881.77
429.247	6148
429.454	6305.7
429.662	6920.09
429.869	6315.94
430.076	6770.58
430.284	6629.27
430.491	6893.46
430.699	7255.95
430.906	7368.59
431.114	7499.66
431.321	7862.15
431.528	7767.95
431.736	8281.99
431.943	8662.91
432.15	8476.54
432.358	8679.29
432.565	8974.2
432.772	9049.97
432.979	9451.38
433.187	9494.38
433.394	9727.85
433.601	10303.33
433.808	10178.4
434.016	10319.71
434.223	10788.7
434.43	11403.09
434.637	11259.73
434.844	11870.03
435.052	12136.26
435.259	11927.37
435.466	12146.5
435.673	11933.51
435.88	12889.92
436.087	13541.17
436.294	13457.2
436.501	12998.46
436.708	13508.4
436.915	13995.82
437.122	14272.29
437.329	14685.98
437.537	14810.91
437.743	14855.97
437.95	15001.37
438.157	15773.46
438.364	16226.06
438.571	16389.89
438.778	16121.61
438.985	17766.13
439.192	17227.51
439.399	17932.01
439.606	17336.06
439.813	18394.86
440.02	19429.08
440.227	19302.11
440.433	18910.94
440.64	19597.01
440.847	19543.77
441.054	19701.46
441.261	21186.24
441.467	20989.63
441.674	21350.07
441.881	22136.49
442.088	21948.08
442.294	21896.88
442.501	22797.99
442.708	22867.62
442.914	23893.65
443.121	24581.77
443.328	23967.38
443.534	25892.47
443.741	24852.1
443.948	24635.02
444.154	26584.68
444.361	26150.51
444.568	26439.28
444.774	26531.44
444.981	26818.15
445.187	27815.51
445.394	28888.65
445.6	28540.49
445.807	31088.17
446.013	29630.01
446.22	30297.65
446.426	31266.34
446.633	31798.81
446.839	32546.32
447.046	31499.81
447.252	32912.91
447.459	33289.73
447.665	33058.31
447.871	34162.17
448.078	35710.43
448.284	33973.75
448.491	35153.38
448.697	36140.5
448.903	36881.87
449.11	37150.15
449.316	36443.6
449.522	37178.82
449.728	37500.36
449.935	38084.03
450.141	38190.52
450.347	38974.89
450.553	37862.85
450.76	38389.17
450.966	39386.54
451.172	38991.28
451.378	39716.26
451.584	39220.65
451.791	40035.74
451.997	39945.63
452.203	40314.26
452.409	40125.85
452.615	40150.43
452.821	38921.65
453.027	38188.47
453.233	40615.32
453.44	38383.03
453.646	39224.75
453.852	39413.16
454.058	40035.74
454.264	37995.96
454.47	39437.73
454.676	38315.45
454.882	40187.29
455.088	36138.46
455.294	36646.35
455.5	36965.84
455.705	37541.32
455.911	35786.21
456.117	35341.8
456.323	34967.02
456.529	32810.51
456.735	34115.06
456.941	33433.09
457.147	33312.26
457.352	31966.74
457.558	31378.98
457.764	31651.36
457.97	30844.46
458.176	30195.25
458.381	30301.75
458.587	28769.86
458.793	28565.07
458.999	27711.07
459.204	29068.87
459.41	28614.22
459.616	26588.78
459.821	26848.87
460.027	26525.29
460.233	25861.75
460.438	24723.08
460.644	25126.53
460.85	24010.39
461.055	23488.15
461.261	23375.52
461.466	21892.79
461.672	21106.37
461.878	22263.47
462.083	20876.99
462.289	20692.68
462.494	20506.31
462.7	19695.32
462.905	19291.87
463.111	19857.1
463.316	19865.3
463.522	19513.05
463.727	19535.57
463.932	19373.78
464.138	19205.85
464.343	19179.23
464.549	18892.51
464.754	19386.07
464.959	19367.64
465.165	19177.18
465.37	18409.19
465.575	17884.91
465.781	18607.84
465.986	18487.01
466.191	17882.86
466.397	17669.87
466.602	16862.97
466.807	17643.25
467.012	17710.83
