Data from USB4F104151__250__10-31-04-826.txt Node

Date: Wed Mar 12 10:31:04 EDT 2025
User: louis
Spectrometer: USB4F10415
Trigger mode: 4
Integration Time (sec): 3.000000E-2
Scans to average: 1
Electric dark correction enabled: true
Nonlinearity correction enabled: false
Boxcar width: 0
XAxis mode: Wavelengths
Number of Pixels in Spectrum: 3648
>>>>>Begin Spectral Data<<<<<
178.204	-92.16
178.424	-92.16
178.644	-92.16
178.864	-73.73
179.084	-110.59
179.304	-61.44
179.524	22.53
179.744	26.62
179.964	20.48
180.184	12.29
180.404	-81.92
180.624	22.53
180.844	24.58
181.064	-38.91
181.283	-8.19
181.503	22.53
181.723	38.91
181.943	-55.3
182.163	102.4
182.383	59.39
182.602	59.39
182.822	16.38
183.042	65.53
183.262	34.82
183.482	51.2
183.701	-32.77
183.921	59.39
184.141	6.14
184.361	47.1
184.58	-88.06
184.8	26.62
185.02	6.14
185.239	14.34
185.459	6.14
185.679	24.58
185.898	0
186.118	32.77
186.338	-6.14
186.557	-12.29
186.777	67.58
186.997	0
187.216	96.25
187.436	26.62
187.655	51.2
187.875	51.2
188.095	28.67
188.314	18.43
188.534	-18.43
188.753	34.82
188.973	14.34
189.192	81.92
189.412	98.3
189.631	34.82
189.851	18.43
190.07	53.25
190.29	67.58
190.509	59.39
190.729	10.24
190.948	22.53
191.168	90.11
191.387	51.2
191.607	49.15
191.826	-43.01
192.045	10.24
192.265	-12.29
192.484	38.91
192.704	45.06
192.923	-55.3
193.142	141.31
193.362	38.91
193.581	-14.34
193.8	67.58
194.02	26.62
194.239	22.53
194.458	26.62
194.678	4.1
194.897	-10.24
195.116	45.06
195.335	63.49
195.555	83.97
195.774	-6.14
195.993	63.49
196.212	34.82
196.432	65.53
196.651	47.1
196.87	2.05
197.089	-2.05
197.308	92.16
197.528	8.19
197.747	-65.54
197.966	43.01
198.185	10.24
198.404	-26.62
198.623	10.24
198.842	83.97
199.062	51.2
199.281	49.15
199.5	51.2
199.719	-34.82
199.938	14.34
200.157	83.97
200.376	-55.3
200.595	116.73
200.814	2.05
201.033	-26.62
201.252	32.77
201.471	-16.38
201.69	108.54
201.909	8.19
202.128	-49.15
202.347	71.68
202.566	55.3
202.785	-2.05
203.004	-12.29
203.223	88.06
203.442	2.05
203.661	49.15
203.879	49.15
204.098	-8.19
204.317	20.48
204.536	88.06
204.755	-40.96
204.974	22.53
205.193	83.97
205.411	92.16
205.63	65.53
205.849	8.19
206.068	-32.77
206.287	55.3
206.505	53.25
206.724	0
206.943	-14.34
207.162	34.82
207.381	-22.53
207.599	-2.05
207.818	2.05
208.037	12.29
208.255	10.24
208.474	20.48
208.693	73.73
208.911	-24.58
209.13	65.53
209.349	18.43
209.567	-22.53
209.786	16.38
210.005	61.44
210.223	-2.05
210.442	34.82
210.661	-2.05
210.879	14.34
211.098	-20.48
211.316	34.82
211.535	55.3
211.753	-51.2
211.972	67.58
212.191	2.05
212.409	20.48
212.628	71.68
212.846	-67.58
213.065	116.73
213.283	59.39
213.502	49.15
213.72	86.01
213.938	6.14
214.157	22.53
214.375	-26.62
214.594	67.58
214.812	100.35
215.031	63.49
215.249	47.1
215.467	-8.19
215.686	8.19
215.904	0
216.122	73.73
216.341	20.48
216.559	79.87
216.778	40.96
216.996	73.73
217.214	20.48
217.432	-2.05
217.651	55.3
217.869	-14.34
218.087	26.62
218.306	43.01
218.524	126.97
218.742	22.53
218.96	8.19
219.179	-34.82
219.397	69.63
219.615	88.06
219.833	43.01
220.051	28.67
220.27	77.82
220.488	14.34
220.706	40.96
220.924	30.72
221.142	16.38
221.36	63.49
221.578	38.91
221.796	57.34
222.015	-8.19
222.233	36.86
222.451	131.07
222.669	-14.34
222.887	114.69
223.105	30.72
223.323	61.44
223.541	-8.19
223.759	55.3
223.977	-26.62
224.195	110.59
224.413	55.3
224.631	53.25
224.849	34.82
225.067	83.97
225.285	-28.67
225.503	8.19
225.721	-24.58
225.939	45.06
226.157	14.34
226.375	100.35
226.592	-40.96
226.81	4.1
227.028	-18.43
227.246	71.68
227.464	67.58
227.682	141.31
227.9	38.91
228.117	67.58
228.335	18.43
228.553	38.91
228.771	-32.77
228.989	63.49
229.206	30.72
229.424	-24.58
229.642	106.49
229.86	30.72
230.077	16.38
230.295	-14.34
230.513	100.35
230.731	28.67
230.948	61.44
231.166	43.01
231.384	38.91
231.601	26.62
231.819	43.01
232.037	71.68
232.254	-63.49
232.472	6.14
232.689	-6.14
232.907	-8.19
233.125	32.77
233.342	57.34
233.56	-8.19
233.777	-24.58
233.995	4.1
234.213	88.06
234.43	57.34
234.648	-20.48
234.865	-32.77
235.083	16.38
235.3	45.06
235.518	2.05
235.735	51.2
235.953	86.01
236.17	0
236.388	59.39
236.605	40.96
236.822	81.92
237.04	49.15
237.257	57.34
237.475	18.43
237.692	63.49
237.909	55.3
238.127	-26.62
238.344	10.24
238.562	-2.05
238.779	22.53
238.996	2.05
239.214	22.53
239.431	-6.14
239.648	65.53
239.865	49.15
240.083	18.43
240.3	59.39
240.517	-32.77
240.735	6.14
240.952	18.43
241.169	20.48
241.386	8.19
241.603	-10.24
241.821	-102.4
242.038	65.53
242.255	26.62
242.472	-8.19
242.689	55.3
242.907	75.77
243.124	45.06
243.341	45.06
243.558	59.39
243.775	96.25
243.992	-32.77
244.209	57.34
244.426	28.67
244.643	38.91
244.86	-2.05
245.078	28.67
245.295	77.82
245.512	43.01
245.729	59.39
245.946	69.63
246.163	79.87
246.38	47.1
246.597	10.24
246.814	22.53
247.031	-32.77
247.248	18.43
247.464	18.43
247.681	2.05
247.898	53.25
248.115	90.11
248.332	71.68
248.549	-8.19
248.766	90.11
248.983	-38.91
249.2	57.34
249.417	32.77
249.633	32.77
249.85	2.05
250.067	30.72
250.284	108.54
250.501	30.72
250.717	75.77
250.934	14.34
251.151	51.2
251.368	-2.05
251.585	81.92
251.801	83.97
252.018	-24.58
252.235	28.67
252.451	-10.24
252.668	20.48
252.885	14.34
253.102	57.34
253.318	34.82
253.535	-36.86
253.752	43.01
253.968	32.77
254.185	6.14
254.401	22.53
254.618	71.68
254.835	10.24
255.051	116.73
255.268	26.62
255.484	-14.34
255.701	-38.91
255.917	-28.67
256.134	100.35
256.351	8.19
256.567	4.1
256.784	26.62
257	20.48
257.217	126.97
257.433	47.1
257.65	-2.05
257.866	47.1
258.082	-22.53
258.299	8.19
258.515	53.25
258.732	-8.19
258.948	53.25
259.165	88.06
259.381	26.62
259.597	38.91
259.814	116.73
260.03	83.97
260.246	28.67
260.463	-34.82
260.679	28.67
260.895	26.62
261.112	-6.14
261.328	0
261.544	47.1
261.761	120.83
261.977	32.77
262.193	-30.72
262.409	18.43
262.626	30.72
262.842	63.49
263.058	28.67
263.274	6.14
263.49	57.34
263.707	79.87
263.923	22.53
264.139	100.35
264.355	-18.43
264.571	61.44
264.787	69.63
265.004	26.62
265.22	6.14
265.436	86.01
265.652	49.15
265.868	73.73
266.084	-22.53
266.3	34.82
266.516	-14.34
266.732	55.3
266.948	36.86
267.164	83.97
267.38	69.63
267.596	-8.19
267.812	86.01
268.028	18.43
268.244	2.05
268.46	79.87
268.676	106.49
268.892	20.48
269.108	8.19
269.324	43.01
269.54	55.3
269.756	40.96
269.972	16.38
270.188	94.21
270.403	-49.15
270.619	-14.34
270.835	10.24
271.051	67.58
271.267	63.49
271.483	6.14
271.698	-4.1
271.914	34.82
272.13	51.2
272.346	14.34
272.562	47.1
272.777	63.49
272.993	18.43
273.209	16.38
273.425	114.69
273.64	34.82
273.856	40.96
274.072	2.05
274.287	-34.82
274.503	24.58
274.719	4.1
274.934	12.29
275.15	12.29
275.366	65.53
275.581	38.91
275.797	28.67
276.012	96.25
276.228	26.62
276.444	0
276.659	51.2
276.875	40.96
277.09	-4.1
277.306	28.67
277.521	92.16
277.737	67.58
277.952	114.69
278.168	-10.24
278.383	6.14
278.599	51.2
278.814	63.49
279.03	-12.29
279.245	26.62
279.461	79.87
279.676	114.69
279.892	28.67
280.107	53.25
280.322	18.43
280.538	22.53
280.753	-47.1
280.969	-2.05
281.184	43.01
281.399	131.07
281.615	-6.14
281.83	40.96
282.045	-20.48
282.26	28.67
282.476	-18.43
282.691	81.92
282.906	65.53
283.122	73.73
283.337	-22.53
283.552	106.49
283.767	32.77
283.983	57.34
284.198	38.91
284.413	57.34
284.628	2.05
284.843	38.91
285.058	79.87
285.274	67.58
285.489	49.15
285.704	57.34
285.919	26.62
286.134	98.3
286.349	6.14
286.564	6.14
286.779	32.77
286.995	-18.43
287.21	49.15
287.425	73.73
287.64	67.58
287.855	81.92
288.07	-20.48
288.285	98.3
288.5	88.06
288.715	63.49
288.93	-6.14
289.145	94.21
289.36	59.39
289.575	51.2
289.79	26.62
290.004	2.05
290.219	88.06
290.434	131.07
290.649	-4.1
290.864	-18.43
291.079	-2.05
291.294	75.77
291.509	6.14
291.724	10.24
291.938	59.39
292.153	79.87
292.368	47.1
292.583	61.44
292.798	0
293.012	-26.62
293.227	57.34
293.442	51.2
293.657	18.43
293.871	83.97
294.086	28.67
294.301	90.11
294.516	24.58
294.73	-32.77
294.945	43.01
295.16	30.72
295.374	61.44
295.589	-45.06
295.804	-55.3
296.018	36.86
296.233	71.68
296.447	83.97
296.662	43.01
296.877	32.77
297.091	81.92
297.306	40.96
297.52	-26.62
297.735	81.92
297.949	-88.06
298.164	104.45
298.378	-77.82
298.593	30.72
298.807	51.2
299.022	79.87
299.236	67.58
299.451	-65.54
299.665	43.01
299.88	22.53
300.094	92.16
300.309	38.91
300.523	53.25
300.737	-8.19
300.952	92.16
301.166	79.87
301.381	-14.34
301.595	0
301.809	43.01
302.024	-26.62
302.238	18.43
302.452	12.29
302.667	38.91
302.881	55.3
303.095	53.25
303.309	26.62
303.524	-69.63
303.738	43.01
303.952	26.62
304.166	55.3
304.381	10.24
304.595	43.01
304.809	-61.44
305.023	83.97
305.237	65.53
305.452	22.53
305.666	32.77
305.88	34.82
306.094	22.53
306.308	71.68
306.522	18.43
306.736	49.15
306.95	10.24
307.164	28.67
307.379	-10.24
307.593	43.01
307.807	100.35
308.021	43.01
308.235	38.91
308.449	-40.96
308.663	59.39
308.877	81.92
309.091	-26.62
309.305	57.34
309.519	-2.05
309.733	59.39
309.947	-51.2
310.161	-22.53
310.374	65.53
310.588	137.21
310.802	-2.05
311.016	55.3
311.23	38.91
311.444	40.96
311.658	16.38
311.872	98.3
312.085	26.62
312.299	55.3
312.513	71.68
312.727	59.39
312.941	22.53
313.154	32.77
313.368	69.63
313.582	-14.34
313.796	8.19
314.009	10.24
314.223	-6.14
314.437	49.15
314.651	79.87
314.864	26.62
315.078	57.34
315.292	-43.01
315.505	-18.43
315.719	77.82
315.933	-14.34
316.146	28.67
316.36	16.38
316.573	38.91
316.787	73.73
317.001	100.35
317.214	22.53
317.428	30.72
317.641	-16.38
317.855	104.45
318.068	55.3
318.282	26.62
318.495	38.91
318.709	90.11
318.922	47.1
319.136	59.39
319.349	67.58
319.563	0
319.776	47.1
319.99	-55.3
320.203	83.97
320.417	16.38
320.63	79.87
320.843	73.73
321.057	-4.1
321.27	0
321.483	26.62
321.697	75.77
321.91	63.49
322.124	40.96
322.337	34.82
322.55	-14.34
322.763	-24.58
322.977	12.29
323.19	49.15
323.403	22.53
323.617	26.62
323.83	43.01
324.043	10.24
324.256	98.3
324.469	26.62
324.683	92.16
324.896	6.14
325.109	38.91
325.322	63.49
325.535	102.4
325.748	30.72
325.962	61.44
326.175	-77.82
326.388	71.68
326.601	34.82
326.814	65.53
327.027	0
327.24	110.59
327.453	0
327.666	4.1
327.879	75.77
328.092	65.53
328.305	67.58
328.518	49.15
328.731	34.82
328.944	14.34
329.157	45.06
329.37	2.05
329.583	83.97
329.796	114.69
330.009	-18.43
330.222	43.01
330.435	133.12
330.648	182.27
330.861	49.15
331.073	4.1
331.286	55.3
331.499	0
331.712	6.14
331.925	-12.29
332.138	69.63
332.35	120.83
332.563	0
332.776	55.3
332.989	-55.3
333.202	10.24
333.414	108.54
333.627	57.34
333.84	67.58
334.053	81.92
334.265	75.77
334.478	40.96
334.691	59.39
334.903	16.38
335.116	0
335.329	83.97
335.541	36.86
335.754	112.64
335.966	51.2
336.179	12.29
336.392	49.15
336.604	45.06
336.817	-24.58
337.029	57.34
337.242	38.91
337.454	116.73
337.667	77.82
337.88	-40.96
338.092	-10.24
338.305	-6.14
338.517	40.96
338.729	6.14
338.942	49.15
339.154	-30.72
339.367	-6.14
339.579	81.92
339.792	2.05
340.004	49.15
340.217	-6.14
340.429	38.91
340.641	10.24
340.854	-6.14
341.066	34.82
341.278	106.49
341.491	92.16
341.703	16.38
341.915	69.63
342.128	38.91
342.34	131.07
342.552	10.24
342.764	36.86
342.977	-10.24
343.189	2.05
343.401	49.15
343.613	18.43
343.826	47.1
344.038	0
344.25	36.86
344.462	-53.25
344.674	57.34
344.886	-10.24
345.099	22.53
345.311	65.53
345.523	38.91
345.735	-18.43
345.947	96.25
346.159	79.87
346.371	49.15
346.583	4.1
346.795	55.3
347.007	-43.01
347.219	24.58
347.431	-2.05
347.643	81.92
347.855	38.91
348.067	69.63
348.279	43.01
348.491	57.34
348.703	51.2
348.915	-24.58
349.127	69.63
349.339	55.3
349.551	55.3
349.763	75.77
349.975	47.1
350.187	20.48
350.399	55.3
350.61	59.39
350.822	77.82
351.034	57.34
351.246	2.05
351.458	22.53
351.669	22.53
351.881	57.34
352.093	141.31
352.305	-18.43
352.517	83.97
352.728	32.77
352.94	30.72
353.152	96.25
353.363	36.86
353.575	49.15
353.787	59.39
353.999	-4.1
354.21	8.19
354.422	47.1
354.633	61.44
354.845	51.2
355.057	81.92
355.268	92.16
355.48	40.96
355.692	26.62
355.903	2.05
356.115	43.01
356.326	-2.05
356.538	79.87
356.749	51.2
356.961	8.19
357.172	-34.82
357.384	28.67
357.595	135.17
357.807	81.92
358.018	79.87
358.23	45.06
358.441	81.92
358.653	55.3
358.864	38.91
359.075	45.06
359.287	-49.15
359.498	98.3
359.709	18.43
359.921	40.96
360.132	61.44
360.344	100.35
360.555	0
360.766	63.49
360.977	43.01
361.189	40.96
361.4	57.34
361.611	110.59
361.823	141.31
362.034	-4.1
362.245	59.39
362.456	69.63
362.667	71.68
362.879	59.39
363.09	18.43
363.301	120.83
363.512	4.1
363.723	-26.62
363.935	8.19
364.146	57.34
364.357	67.58
364.568	30.72
364.779	0
364.99	108.54
365.201	49.15
365.412	114.69
365.623	-6.14
365.834	59.39
366.045	36.86
366.256	81.92
366.467	-2.05
366.678	40.96
366.889	57.34
367.1	59.39
367.311	73.73
367.522	40.96
367.733	98.3
367.944	57.34
368.155	83.97
368.366	51.2
368.577	86.01
368.788	22.53
368.999	-34.82
369.209	61.44
369.42	96.25
369.631	90.11
369.842	94.21
370.053	10.24
370.264	22.53
370.474	69.63
370.685	45.06
370.896	47.1
371.107	112.64
371.317	51.2
371.528	83.97
371.739	61.44
371.95	-40.96
372.16	-14.34
372.371	26.62
372.582	71.68
372.792	12.29
373.003	43.01
373.214	53.25
373.424	96.25
373.635	51.2
373.846	51.2
374.056	75.77
374.267	8.19
374.477	45.06
374.688	69.63
374.898	30.72
375.109	149.5
375.319	83.97
375.53	18.43
375.74	38.91
375.951	45.06
376.161	81.92
376.372	92.16
376.582	-10.24
376.793	57.34
377.003	83.97
377.214	10.24
377.424	45.06
377.635	43.01
377.845	-40.96
378.055	96.25
378.266	8.19
378.476	-16.38
378.686	0
378.897	67.58
379.107	147.45
379.317	67.58
379.528	88.06
379.738	75.77
379.948	40.96
380.158	26.62
380.369	69.63
380.579	61.44
380.789	83.97
380.999	96.25
381.21	112.64
381.42	20.48
381.63	112.64
381.84	40.96
382.05	63.49
382.261	81.92
382.471	129.02
382.681	24.58
382.891	79.87
383.101	90.11
383.311	26.62
383.521	38.91
383.731	126.97
383.941	34.82
384.151	51.2
384.361	86.01
384.571	65.53
384.781	71.68
384.991	83.97
385.201	114.69
385.411	26.62
385.621	75.77
385.831	47.1
386.041	118.78
386.251	59.39
386.461	102.4
386.671	67.58
386.881	116.73
387.091	51.2
387.301	77.82
387.511	137.21
387.72	137.21
387.93	-6.14
388.14	-2.05
388.35	14.34
388.56	122.88
388.769	124.93
388.979	104.45
389.189	57.34
389.399	120.83
389.609	12.29
389.818	73.73
390.028	57.34
390.238	51.2
390.447	4.1
390.657	22.53
390.867	10.24
391.076	75.77
391.286	67.58
391.496	14.34
391.705	83.97
391.915	43.01
392.125	100.35
392.334	24.58
392.544	104.45
392.753	36.86
392.963	38.91
393.172	137.21
393.382	2.05
393.591	63.49
393.801	55.3
394.01	98.3
394.22	83.97
394.429	135.17
394.639	112.64
394.848	69.63
395.058	24.58
395.267	129.02
395.477	116.73
395.686	83.97
395.895	81.92
396.105	143.36
396.314	79.87
396.524	120.83
396.733	129.02
396.942	118.78
397.152	116.73
397.361	147.45
397.57	137.21
397.78	129.02
397.989	98.3
398.198	172.03
398.407	137.21
398.617	141.31
398.826	112.64
399.035	92.16
399.244	212.99
399.453	75.77
399.663	157.69
399.872	165.89
400.081	4.1
400.29	145.41
400.499	122.88
400.708	159.74
400.917	94.21
401.127	169.98
401.336	75.77
401.545	231.42
401.754	178.17
401.963	174.08
402.172	182.27
402.381	145.41
402.59	141.31
402.799	49.15
403.008	141.31
403.217	186.37
403.426	219.13
403.635	79.87
403.844	118.78
404.053	96.25
404.262	149.5
404.471	196.61
404.68	153.6
404.888	129.02
405.097	174.08
405.306	145.41
405.515	190.46
405.724	135.17
405.933	120.83
406.142	323.58
406.35	245.76
406.559	149.5
406.768	182.27
406.977	282.62
407.185	176.13
407.394	268.28
407.603	231.42
407.812	235.52
408.02	194.56
408.229	260.09
408.438	288.76
408.646	272.38
408.855	188.41
409.064	354.3
409.272	280.57
409.481	286.72
409.69	278.52
409.898	313.34
410.107	313.34
410.315	288.76
410.524	329.72
410.733	380.92
410.941	378.87
411.15	401.4
411.358	372.73
411.567	419.83
411.775	411.64
411.984	397.31
412.192	520.18
412.401	497.66
412.609	466.94
412.818	479.22
413.026	555
413.234	602.1
413.443	548.86
413.651	575.48
413.86	534.52
414.068	636.92
414.276	673.78
414.485	651.25
414.693	655.35
414.901	845.81
415.11	751.6
415.318	681.97
415.526	788.47
415.734	796.66
415.943	833.52
416.151	862.19
416.359	911.35
416.567	880.63
416.776	913.39
416.984	987.12
417.192	1021.94
417.4	958.45
417.608	1038.32
417.817	1114.09
418.025	1011.7
418.233	1185.77
418.441	1169.39
418.649	1273.84
418.857	1327.08
419.065	1304.56
419.273	1341.42
419.481	1423.34
419.689	1425.39
419.897	1574.89
420.105	1538.02
420.313	1515.5
420.521	1773.54
420.729	1738.73
420.937	1845.22
421.145	1791.97
421.353	1986.53
421.561	2035.68
421.769	2144.22
421.977	2172.89
422.185	2062.3
422.393	2346.97
422.601	2336.73
422.809	2320.35
423.017	2443.23
423.224	2457.56
423.432	2648.02
423.64	2682.84
423.848	2867.16
424.056	2709.46
424.263	2922.45
424.471	2953.17
424.679	3020.75
424.887	3217.36
425.094	3360.72
425.302	3286.99
425.51	3395.53
425.718	3583.95
425.925	3506.12
426.133	3684.3
426.341	3893.19
426.548	4016.07
426.756	4057.03
426.964	4095.94
427.171	4304.83
427.379	4388.8
427.586	4642.75
427.794	4579.26
428.001	4933.56
428.209	5064.63
428.417	4995
428.624	5390.25
428.832	5359.53
429.039	5359.53
429.247	5369.77
429.454	5906.34
429.662	6203.3
429.869	5926.82
430.076	6268.83
430.284	6309.79
430.491	6244.26
430.699	6858.65
430.906	6686.62
431.114	6856.6
431.321	7108.5
431.528	7155.6
431.736	7772.04
431.943	7919.5
432.15	7892.87
432.358	7769.99
432.565	8411.01
432.772	8241.03
432.979	8597.37
433.187	8896.38
433.394	8806.27
433.601	9439.09
433.808	9387.89
434.016	9197.43
434.223	9824.11
434.43	10600.29
434.637	10168.16
434.844	10899.29
435.052	11044.7
435.259	10807.13
435.466	11104.09
435.673	11018.07
435.88	11849.55
436.087	12502.85
436.294	12406.59
436.501	12154.69
436.708	12279.62
436.915	12779.33
437.122	13360.95
437.329	13080.38
437.537	13635.38
437.743	13842.22
437.95	13817.65
438.157	14429.99
438.364	14995.23
438.571	14886.68
438.778	14974.75
438.985	16473.86
439.192	15857.42
439.399	16291.59
439.606	15951.63
439.813	16793.34
440.02	17782.51
440.227	17342.2
440.433	17370.87
440.64	17782.51
440.847	17778.42
441.054	18235.11
441.261	19402.46
441.467	19406.55
441.674	19605.2
441.881	20197.07
442.088	20176.59
442.294	20012.75
442.501	20553.41
442.708	20870.85
442.914	21884.59
443.121	22841
443.328	22085.29
443.534	23658.13
443.741	22814.37
443.948	22720.17
444.154	24563.34
444.361	24196.75
444.568	24245.9
444.774	24522.38
444.981	24675.98
445.187	25286.27
445.394	26377.84
445.6	26046.07
445.807	28513.87
446.013	27100.77
446.22	27784.79
446.426	28685.9
446.633	29042.24
446.839	29933.11
447.046	28757.58
447.252	30197.3
447.459	30570.03
447.665	30459.44
447.871	31510.05
448.078	32890.38
448.284	31237.67
448.491	32202.26
448.697	33533.44
448.903	34033.14
449.11	33969.66
449.316	33678.85
449.522	34049.53
449.728	34999.79
449.935	35141.1
450.141	35040.75
450.347	35939.8
450.553	34645.49
450.76	35249.64
450.966	36339.16
451.172	35818.97
451.378	36781.52
451.584	36052.44
451.791	37146.06
451.997	36677.07
452.203	37432.77
452.409	37027.27
452.615	37187.02
452.821	35853.79
453.027	35454.43
453.233	37285.32
453.44	35898.84
453.646	35921.37
453.852	35993.05
454.058	36799.95
454.264	35433.96
454.47	36406.74
454.676	35419.62
454.882	36507.09
455.088	33271.3
455.294	33668.61
455.5	34438.64
455.705	34838
455.911	33185.29
456.117	32880.14
456.323	32001.56
456.529	30869.03
456.735	31829.53
456.941	31188.52
457.147	29947.45
457.352	29670.97
457.558	29154.88
457.764	29642.3
457.97	29075.01
458.176	28014.16
458.381	27915.86
458.587	26525.29
458.793	26629.74
458.999	25167.49
459.204	26961.51
459.41	26285.68
459.616	24651.4
459.821	24696.46
460.027	24649.35
460.233	24030.87
460.438	22714.02
460.644	23148.19
460.85	21925.55
461.055	21604.02
461.261	21583.54
461.466	20010.7
461.672	19603.16
461.878	20739.78
462.083	19531.48
462.289	19373.78
462.494	18898.66
462.7	18429.67
462.905	17811.18
463.111	18292.46
463.316	18431.72
463.522	17897.2
463.727	18188.01
463.932	17889.01
464.138	17694.45
464.343	17762.03
464.549	17235.7
464.754	17889.01
464.959	17704.69
465.165	17544.95
465.37	16881.41
465.575	16582.4
465.781	17096.44
465.986	17190.65
466.191	16422.66
466.397	16234.25
466.602	15468.31
466.807	15902.48
467.012	15828.75
467.218	16000.78
467.423	15865.61
467.628	15804.17
467.833	16283.4
468.038	15707.92
468.244	15499.03
468.449	16105.23
