Data from USB4F104151__217__10-30-08-312.txt Node

Date: Wed Mar 12 10:30:08 EDT 2025
User: louis
Spectrometer: USB4F10415
Trigger mode: 4
Integration Time (sec): 3.000000E-2
Scans to average: 1
Electric dark correction enabled: true
Nonlinearity correction enabled: false
Boxcar width: 0
XAxis mode: Wavelengths
Number of Pixels in Spectrum: 3648
>>>>>Begin Spectral Data<<<<<
178.204	-160.59
178.424	-160.59
178.644	-160.59
178.864	-93.01
179.084	-142.16
179.304	-21.33
179.524	23.72
179.744	-19.29
179.964	-21.33
180.184	7.34
180.404	-15.19
180.624	-19.29
180.844	52.39
181.064	-76.63
181.283	-4.95
181.503	50.35
181.723	44.2
181.943	-56.15
182.163	54.44
182.383	70.83
182.602	11.43
182.822	27.82
183.042	23.72
183.262	15.53
183.482	-47.96
183.701	19.63
183.921	-17.24
184.141	56.49
184.361	36.01
184.58	25.77
184.8	15.53
185.02	-19.29
185.239	58.54
185.459	3.24
185.679	60.59
185.898	-66.39
186.118	33.96
186.338	27.82
186.557	52.39
186.777	1.19
186.997	-29.52
187.216	60.59
187.436	72.87
187.655	54.44
187.875	113.83
188.095	56.49
188.314	17.58
188.534	-2.9
188.753	-4.95
188.973	-2.9
189.192	85.16
189.412	27.82
189.631	60.59
189.851	25.77
190.07	15.53
190.29	-41.81
190.509	-25.43
190.729	44.2
190.948	38.06
191.168	93.35
191.387	60.59
191.607	-56.15
191.826	60.59
192.045	7.34
192.265	17.58
192.484	3.24
192.704	68.78
192.923	-15.19
193.142	91.31
193.362	99.5
193.581	128.17
193.8	31.91
194.02	107.69
194.239	52.39
194.458	5.29
194.678	44.2
194.897	9.39
195.116	44.2
195.335	56.49
195.555	3.24
195.774	13.48
195.993	33.96
196.212	38.06
196.432	3.24
196.651	48.3
196.87	76.97
197.089	81.07
197.308	3.24
197.528	15.53
197.747	33.96
197.966	19.63
198.185	54.44
198.404	15.53
198.623	40.11
198.842	101.55
199.062	-23.38
199.281	99.5
199.5	9.39
199.719	95.4
199.938	130.22
200.157	81.07
200.376	-7
200.595	60.59
200.814	-7
201.033	-56.15
201.252	-25.43
201.471	101.55
201.69	68.78
201.909	38.06
202.128	54.44
202.347	31.91
202.566	-60.24
202.785	23.72
203.004	44.2
203.223	48.3
203.442	-103.25
203.661	-33.62
203.879	3.24
204.098	29.87
204.317	-21.33
204.536	38.06
204.755	-7
204.974	52.39
205.193	44.2
205.411	115.88
205.63	-17.24
205.849	-35.67
206.068	-4.95
206.287	-31.57
206.505	19.63
206.724	-17.24
206.943	85.16
207.162	36.01
207.381	40.11
207.599	29.87
207.818	-17.24
208.037	23.72
208.255	91.31
208.474	27.82
208.693	93.35
208.911	21.67
209.13	46.25
209.349	33.96
209.567	29.87
209.786	56.49
210.005	-21.33
210.223	62.63
210.442	-19.29
210.661	-9.05
210.879	-17.24
211.098	66.73
211.316	27.82
211.535	-23.38
211.753	-11.09
211.972	13.48
212.191	-25.43
212.409	119.98
212.628	66.73
212.846	15.53
213.065	9.39
213.283	70.83
213.502	60.59
213.72	-25.43
213.938	58.54
214.157	36.01
214.375	56.49
214.594	60.59
214.812	52.39
215.031	44.2
215.249	60.59
215.467	36.01
215.686	-23.38
215.904	-2.9
216.122	97.45
216.341	-0.85
216.559	-4.95
216.778	3.24
216.996	44.2
217.214	60.59
217.432	-4.95
217.651	48.3
217.869	-4.95
218.087	81.07
218.306	15.53
218.524	113.83
218.742	-23.38
218.96	101.55
219.179	-13.14
219.397	58.54
219.615	48.3
219.833	7.34
220.051	36.01
220.27	44.2
220.488	33.96
220.706	-4.95
220.924	58.54
221.142	17.58
221.36	-19.29
221.578	36.01
221.796	7.34
222.015	15.53
222.233	56.49
222.451	-4.95
222.669	-4.95
222.887	29.87
223.105	-13.14
223.323	76.97
223.541	11.43
223.759	3.24
223.977	79.02
224.195	50.35
224.413	58.54
224.631	81.07
224.849	74.92
225.067	87.21
225.285	-21.33
225.503	-7
225.721	33.96
225.939	40.11
226.157	-21.33
226.375	134.31
226.592	13.48
226.81	56.49
227.028	7.34
227.246	64.68
227.464	17.58
227.682	89.26
227.9	50.35
228.117	36.01
228.335	36.01
228.553	52.39
228.771	15.53
228.989	15.53
229.206	-45.91
229.424	54.44
229.642	-41.81
229.86	36.01
230.077	99.5
230.295	48.3
230.513	11.43
230.731	-25.43
230.948	101.55
231.166	52.39
231.384	76.97
231.601	11.43
231.819	83.11
232.037	-15.19
232.254	-9.05
232.472	40.11
232.689	76.97
232.907	58.54
233.125	76.97
233.342	11.43
233.56	13.48
233.777	29.87
233.995	25.77
234.213	19.63
234.43	50.35
234.648	50.35
234.865	-23.38
235.083	15.53
235.3	-72.53
235.518	15.53
235.735	66.73
235.953	11.43
236.17	54.44
236.388	48.3
236.605	68.78
236.822	97.45
237.04	29.87
237.257	52.39
237.475	74.92
237.692	27.82
237.909	64.68
238.127	11.43
238.344	25.77
238.562	1.19
238.779	-60.24
238.996	13.48
239.214	44.2
239.431	74.92
239.648	23.72
239.865	50.35
240.083	97.45
240.3	13.48
240.517	21.67
240.735	-39.76
240.952	-17.24
241.169	68.78
241.386	58.54
241.603	-0.85
241.821	31.91
242.038	138.41
242.255	27.82
242.472	31.91
242.689	27.82
242.907	48.3
243.124	27.82
243.341	60.59
243.558	-66.39
243.775	11.43
243.992	50.35
244.209	7.34
244.426	64.68
244.643	21.67
244.86	-39.76
245.078	62.63
245.295	29.87
245.512	46.25
245.729	5.29
245.946	31.91
246.163	46.25
246.38	11.43
246.597	31.91
246.814	-25.43
247.031	62.63
247.248	-43.86
247.464	76.97
247.681	-23.38
247.898	7.34
248.115	89.26
248.332	-0.85
248.549	56.49
248.766	23.72
248.983	87.21
249.2	-7
249.417	76.97
249.633	-29.52
249.85	48.3
250.067	25.77
250.284	19.63
250.501	11.43
250.717	56.49
250.934	-13.14
251.151	21.67
251.368	54.44
251.585	7.34
251.801	-0.85
252.018	42.15
252.235	21.67
252.451	13.48
252.668	11.43
252.885	44.2
253.102	46.25
253.318	13.48
253.535	-29.52
253.752	17.58
253.968	-82.77
254.185	5.29
254.401	3.24
254.618	52.39
254.835	-21.33
255.051	42.15
255.268	42.15
255.484	58.54
255.701	72.87
255.917	42.15
256.134	13.48
256.351	5.29
256.567	-19.29
256.784	74.92
257	27.82
257.217	36.01
257.433	66.73
257.65	91.31
257.866	79.02
258.082	11.43
258.299	7.34
258.515	93.35
258.732	29.87
258.948	-4.95
259.165	93.35
259.381	-37.72
259.597	76.97
259.814	38.06
260.03	17.58
260.246	-4.95
260.463	-0.85
260.679	19.63
260.895	-21.33
261.112	56.49
261.328	-33.62
261.544	36.01
261.761	85.16
261.977	15.53
262.193	56.49
262.409	-13.14
262.626	-0.85
262.842	60.59
263.058	9.39
263.274	46.25
263.49	115.88
263.707	1.19
263.923	36.01
264.139	-15.19
264.355	17.58
264.571	95.4
264.787	-4.95
265.004	-9.05
265.22	-21.33
265.436	3.24
265.652	36.01
265.868	1.19
266.084	38.06
266.3	19.63
266.516	21.67
266.732	58.54
266.948	64.68
267.164	48.3
267.38	68.78
267.596	85.16
267.812	52.39
268.028	87.21
268.244	19.63
268.46	-9.05
268.676	31.91
268.892	50.35
269.108	5.29
269.324	23.72
269.54	44.2
269.756	68.78
269.972	-33.62
270.188	40.11
270.403	-21.33
270.619	3.24
270.835	111.78
271.051	-19.29
271.267	1.19
271.483	44.2
271.698	5.29
271.914	44.2
272.13	48.3
272.346	52.39
272.562	27.82
272.777	21.67
272.993	99.5
273.209	-45.91
273.425	72.87
273.64	21.67
273.856	5.29
274.072	7.34
274.287	33.96
274.503	83.11
274.719	23.72
274.934	11.43
275.15	1.19
275.366	27.82
275.581	-21.33
275.797	72.87
276.012	48.3
276.228	29.87
276.444	85.16
276.659	11.43
276.875	-7
277.09	17.58
277.306	17.58
277.521	50.35
277.737	85.16
277.952	11.43
278.168	81.07
278.383	31.91
278.599	29.87
278.814	31.91
279.03	76.97
279.245	128.17
279.461	-43.86
279.676	38.06
279.892	3.24
280.107	15.53
280.322	-23.38
280.538	27.82
280.753	-7
280.969	-41.81
281.184	11.43
281.399	25.77
281.615	29.87
281.83	21.67
282.045	-21.33
282.26	31.91
282.476	60.59
282.691	19.63
282.906	23.72
283.122	19.63
283.337	42.15
283.552	36.01
283.767	29.87
283.983	62.63
284.198	40.11
284.413	70.83
284.628	-56.15
284.843	-27.48
285.058	21.67
285.274	50.35
285.489	-4.95
285.704	42.15
285.919	9.39
286.134	27.82
286.349	7.34
286.564	-21.33
286.779	117.93
286.995	33.96
287.21	64.68
287.425	44.2
287.64	44.2
287.855	29.87
288.07	-4.95
288.285	5.29
288.5	58.54
288.715	5.29
288.93	66.73
289.145	23.72
289.36	134.31
289.575	81.07
289.79	38.06
290.004	68.78
290.219	-11.09
290.434	19.63
290.649	19.63
290.864	72.87
291.079	25.77
291.294	17.58
291.509	48.3
291.724	-86.87
291.938	7.34
292.153	31.91
292.368	25.77
292.583	48.3
292.798	31.91
293.012	52.39
293.227	44.2
293.442	3.24
293.657	7.34
293.871	91.31
294.086	66.73
294.301	74.92
294.516	17.58
294.73	15.53
294.945	17.58
295.16	29.87
295.374	54.44
295.589	76.97
295.804	109.74
296.018	-27.48
296.233	25.77
296.447	27.82
296.662	1.19
296.877	85.16
297.091	99.5
297.306	19.63
297.52	7.34
297.735	19.63
297.949	27.82
298.164	87.21
298.378	13.48
298.593	21.67
298.807	60.59
299.022	17.58
299.236	74.92
299.451	9.39
299.665	29.87
299.88	36.01
300.094	19.63
300.309	58.54
300.523	13.48
300.737	64.68
300.952	11.43
301.166	54.44
301.381	50.35
301.595	-13.14
301.809	25.77
302.024	-43.86
302.238	7.34
302.452	25.77
302.667	-11.09
302.881	130.22
303.095	76.97
303.309	-21.33
303.524	17.58
303.738	50.35
303.952	9.39
304.166	31.91
304.381	-56.15
304.595	13.48
304.809	5.29
305.023	-0.85
305.237	27.82
305.452	58.54
305.666	-33.62
305.88	68.78
306.094	44.2
306.308	58.54
306.522	19.63
306.736	50.35
306.95	-7
307.164	60.59
307.379	15.53
307.593	132.26
307.807	13.48
308.021	27.82
308.235	107.69
308.449	23.72
308.663	31.91
308.877	156.84
309.091	48.3
309.305	89.26
309.519	3.24
309.733	44.2
309.947	-64.34
310.161	74.92
310.374	11.43
310.588	81.07
310.802	54.44
311.016	58.54
311.23	44.2
311.444	-21.33
311.658	54.44
311.872	50.35
312.085	3.24
312.299	66.73
312.513	117.93
312.727	33.96
312.941	-45.91
313.154	42.15
313.368	93.35
313.582	56.49
313.796	11.43
314.009	66.73
314.223	111.78
314.437	40.11
314.651	48.3
314.864	27.82
315.078	62.63
315.292	62.63
315.505	3.24
315.719	81.07
315.933	11.43
316.146	31.91
316.36	21.67
316.573	-15.19
316.787	91.31
317.001	83.11
317.214	-35.67
317.428	31.91
317.641	-29.52
317.855	85.16
318.068	58.54
318.282	-7
318.495	126.12
318.709	50.35
318.922	68.78
319.136	62.63
319.349	-17.24
319.563	93.35
319.776	85.16
319.99	40.11
320.203	52.39
320.417	46.25
320.63	40.11
320.843	76.97
321.057	19.63
321.27	-21.33
321.483	52.39
321.697	107.69
321.91	25.77
322.124	150.7
322.337	25.77
322.55	-25.43
322.763	23.72
322.977	11.43
323.19	-33.62
323.403	52.39
323.617	23.72
323.83	23.72
324.043	21.67
324.256	23.72
324.469	56.49
324.683	83.11
324.896	70.83
325.109	42.15
325.322	23.72
325.535	83.11
325.748	44.2
325.962	19.63
326.175	44.2
326.388	48.3
326.601	66.73
326.814	85.16
327.027	85.16
327.24	81.07
327.453	7.34
327.666	74.92
327.879	68.78
328.092	58.54
328.305	38.06
328.518	-19.29
328.731	33.96
328.944	-0.85
329.157	27.82
329.37	46.25
329.583	13.48
329.796	58.54
330.009	7.34
330.222	60.59
330.435	31.91
330.648	72.87
330.861	19.63
331.073	-15.19
331.286	46.25
331.499	13.48
331.712	7.34
331.925	15.53
332.138	27.82
332.35	68.78
332.563	42.15
332.776	-4.95
332.989	79.02
333.202	-41.81
333.414	27.82
333.627	3.24
333.84	-21.33
334.053	66.73
334.265	42.15
334.478	-27.48
334.691	27.82
334.903	56.49
335.116	-0.85
335.329	50.35
335.541	40.11
335.754	91.31
335.966	-31.57
336.179	-21.33
336.392	36.01
336.604	70.83
336.817	50.35
337.029	42.15
337.242	36.01
337.454	36.01
337.667	7.34
337.88	103.59
338.092	64.68
338.305	74.92
338.517	64.68
338.729	60.59
338.942	68.78
339.154	-13.14
339.367	-17.24
339.579	83.11
339.792	40.11
340.004	40.11
340.217	29.87
340.429	66.73
340.641	91.31
340.854	52.39
341.066	42.15
341.278	42.15
341.491	54.44
341.703	25.77
341.915	44.2
342.128	15.53
342.34	60.59
342.552	3.24
342.764	79.02
342.977	111.78
343.189	27.82
343.401	97.45
343.613	-39.76
343.826	72.87
344.038	56.49
344.25	52.39
344.462	-17.24
344.674	132.26
344.886	48.3
345.099	101.55
345.311	21.67
345.523	-4.95
345.735	-25.43
345.947	3.24
346.159	56.49
346.371	60.59
346.583	23.72
346.795	111.78
347.007	117.93
347.219	56.49
347.431	-2.9
347.643	85.16
347.855	13.48
348.067	91.31
348.279	-29.52
348.491	107.69
348.703	105.64
348.915	23.72
349.127	11.43
349.339	101.55
349.551	-35.67
349.763	23.72
349.975	42.15
350.187	19.63
350.399	29.87
350.61	46.25
350.822	36.01
351.034	64.68
351.246	-13.14
351.458	-2.9
351.669	36.01
351.881	158.89
352.093	54.44
352.305	79.02
352.517	5.29
352.728	142.5
352.94	-13.14
353.152	76.97
353.363	33.96
353.575	-4.95
353.787	79.02
353.999	76.97
354.21	40.11
354.422	31.91
354.633	21.67
354.845	95.4
355.057	38.06
355.268	7.34
355.48	7.34
355.692	-56.15
355.903	68.78
356.115	33.96
356.326	42.15
356.538	136.36
356.749	74.92
356.961	99.5
357.172	-4.95
357.384	119.98
357.595	19.63
357.807	52.39
358.018	17.58
358.23	9.39
358.441	119.98
358.653	95.4
358.864	-9.05
359.075	42.15
359.287	62.63
359.498	91.31
359.709	9.39
359.921	1.19
360.132	31.91
360.344	70.83
360.555	11.43
360.766	42.15
360.977	70.83
361.189	27.82
361.4	19.63
361.611	3.24
361.823	107.69
362.034	11.43
362.245	9.39
362.456	31.91
362.667	56.49
362.879	-41.81
363.09	44.2
363.301	60.59
363.512	107.69
363.723	-31.57
363.935	58.54
364.146	5.29
364.357	64.68
364.568	21.67
364.779	9.39
364.99	95.4
365.201	-15.19
365.412	42.15
365.623	5.29
365.834	56.49
366.045	19.63
366.256	99.5
366.467	46.25
366.678	21.67
366.889	33.96
367.1	1.19
367.311	70.83
367.522	-72.53
367.733	85.16
367.944	122.02
368.155	48.3
368.366	72.87
368.577	50.35
368.788	54.44
368.999	17.58
369.209	48.3
369.42	76.97
369.631	126.12
369.842	76.97
370.053	99.5
370.264	21.67
370.474	50.35
370.685	11.43
370.896	29.87
371.107	109.74
371.317	74.92
371.528	56.49
371.739	31.91
371.95	42.15
372.16	64.68
372.371	44.2
372.582	-25.43
372.792	62.63
373.003	66.73
373.214	36.01
373.424	48.3
373.635	-21.33
373.846	89.26
374.056	36.01
374.267	107.69
374.477	11.43
374.688	-4.95
374.898	85.16
375.109	50.35
375.319	99.5
375.53	38.06
375.74	93.35
375.951	1.19
376.161	25.77
376.372	103.59
376.582	38.06
376.793	62.63
377.003	31.91
377.214	76.97
377.424	68.78
377.635	1.19
377.845	17.58
378.055	48.3
378.266	-84.82
378.476	-4.95
378.686	97.45
378.897	89.26
379.107	11.43
379.317	-13.14
379.528	40.11
379.738	66.73
379.948	27.82
380.158	68.78
380.369	40.11
380.579	42.15
380.789	44.2
380.999	52.39
381.21	29.87
381.42	117.93
381.63	85.16
381.84	50.35
382.05	113.83
382.261	68.78
382.471	52.39
382.681	-33.62
382.891	107.69
383.101	74.92
383.311	17.58
383.521	-27.48
383.731	56.49
383.941	87.21
384.151	60.59
384.361	70.83
384.571	48.3
384.781	85.16
384.991	146.6
385.201	81.07
385.411	60.59
385.621	62.63
385.831	117.93
386.041	15.53
386.251	44.2
386.461	74.92
386.671	74.92
386.881	115.88
387.091	21.67
387.301	117.93
387.511	76.97
387.72	93.35
387.93	36.01
388.14	68.78
388.35	58.54
388.56	109.74
388.769	54.44
388.979	21.67
389.189	-58.2
389.399	113.83
389.609	140.46
389.818	169.13
390.028	44.2
390.238	79.02
390.447	3.24
390.657	113.83
390.867	56.49
391.076	44.2
391.286	62.63
391.496	115.88
391.705	60.59
391.915	117.93
392.125	103.59
392.334	64.68
392.544	91.31
392.753	148.65
392.963	42.15
393.172	91.31
393.382	89.26
393.591	144.55
393.801	117.93
394.01	158.89
394.22	19.63
394.429	167.08
394.639	142.5
394.848	60.59
395.058	68.78
395.267	64.68
395.477	122.02
395.686	134.31
395.895	115.88
396.105	83.11
396.314	58.54
396.524	115.88
396.733	85.16
396.942	111.78
397.152	64.68
397.361	119.98
397.57	85.16
397.78	60.59
397.989	99.5
398.198	91.31
398.407	95.4
398.617	132.26
398.826	56.49
399.035	21.67
399.244	138.41
399.453	36.01
399.663	70.83
399.872	91.31
400.081	130.22
400.29	60.59
400.499	154.79
400.708	122.02
400.917	138.41
401.127	171.18
401.336	48.3
401.545	224.42
401.754	177.32
401.963	148.65
402.172	142.5
402.381	60.59
402.59	187.56
402.799	199.85
403.008	101.55
403.217	165.03
403.426	119.98
403.635	105.64
403.844	60.59
404.053	130.22
404.262	162.98
404.471	244.9
404.68	109.74
404.888	134.31
405.097	195.75
405.306	167.08
405.515	197.8
405.724	130.22
405.933	208.04
406.142	152.74
406.35	232.62
406.559	140.46
406.768	203.94
406.977	257.19
407.185	283.81
407.394	269.48
407.603	187.56
407.812	230.57
408.02	367.78
408.229	216.23
408.438	265.38
408.646	375.97
408.855	365.73
409.064	261.29
409.272	244.9
409.481	369.83
409.69	314.53
409.898	203.94
410.107	343.21
410.315	427.17
410.524	263.33
410.733	375.97
410.941	398.5
411.15	330.92
411.358	380.07
411.567	461.99
411.775	435.36
411.984	425.12
412.192	431.27
412.401	380.07
412.609	507.04
412.818	586.91
413.026	539.81
413.234	425.12
413.443	476.32
413.651	629.92
413.86	609.44
414.068	607.39
414.276	597.15
414.485	677.02
414.693	644.26
414.901	746.66
415.11	799.9
415.318	820.38
415.526	707.74
415.734	871.58
415.943	806.05
416.151	867.49
416.359	806.05
416.567	890.01
416.776	980.12
416.984	988.32
417.192	1016.99
417.4	1057.95
417.608	1074.33
417.817	1191.06
418.025	1213.59
418.233	1260.7
418.441	1160.34
418.649	1225.88
418.857	1402.01
419.065	1320.09
419.273	1291.41
419.481	1500.31
419.689	1633.43
419.897	1580.18
420.105	1696.91
420.313	1705.1
420.521	1588.37
420.729	1639.57
420.937	1862.8
421.145	1895.57
421.353	1909.9
421.561	2100.36
421.769	1977.48
421.977	2217.1
422.185	2067.6
422.393	2219.14
422.601	2509.96
422.809	2487.43
423.017	2309.26
423.224	2530.44
423.432	2624.64
423.64	2643.07
423.848	2858.11
424.056	2813.06
424.263	2980.99
424.471	3024
424.679	3159.16
424.887	3243.13
425.094	3398.77
425.302	3343.48
425.51	3576.95
425.718	3533.94
425.925	3560.56
426.133	3849.33
426.341	4105.32
426.548	4033.65
426.756	4101.23
426.964	4197.48
427.171	4461.67
427.379	4656.23
427.586	4602.98
427.794	4834.4
428.001	4985.95
428.209	5321.82
428.417	5184.6
428.624	5510.23
428.832	5676.12
429.039	5469.27
429.247	5491.8
429.454	6028.37
429.662	6347.85
429.869	6042.7
430.076	6399.05
430.284	6081.61
430.491	6556.74
430.699	6820.93
430.906	6743.11
431.114	7074.88
431.321	7248.96
431.528	7484.47
431.736	7703.61
431.943	8137.77
432.15	7932.98
432.358	8035.38
432.565	8580.14
432.772	8401.96
432.979	8887.33
433.187	8944.67
433.394	9102.37
433.601	9595.93
433.808	9647.13
434.016	9665.56
434.223	9974.8
434.43	10720.26
434.637	10447.88
434.844	10970.12
435.052	11353.09
435.259	11172.86
435.466	11414.52
435.673	11150.34
435.88	11881.46
436.087	12919.78
436.294	12393.45
436.501	12321.77
436.708	12518.38
436.915	12839.91
437.122	13439.97
437.329	13499.36
437.537	13800.41
437.743	14195.67
437.95	14042.07
438.157	14627.79
438.364	15211.46
438.571	15109.06
438.778	15147.97
438.985	16894.89
439.192	16077.75
439.399	16522.16
439.606	16171.96
439.813	16993.19
440.02	18314.13
440.227	17666.97
440.433	17697.69
440.64	18391.95
440.847	18193.3
441.054	18287.51
441.261	19848.06
441.467	19614.59
441.674	19745.66
441.881	20190.07
442.088	20587.38
442.294	20329.33
442.501	21029.74
442.708	21048.17
442.914	22219.61
443.121	23391.05
443.328	22467.41
443.534	24101.69
443.741	23276.36
443.948	23116.62
444.154	24738.61
444.361	24445.75
444.568	24728.37
444.774	24490.8
444.981	25103.15
445.187	25701.15
445.394	26557.21
445.6	26301.21
445.807	28900.08
446.013	27886.34
446.22	28062.46
446.426	29506.28
446.633	29741.8
446.839	30522.07
447.046	29160.17
447.252	31224.53
447.459	30696.15
447.665	30835.41
447.871	31822.53
448.078	33600.17
448.284	31662.79
448.491	32682.68
448.697	33882.79
448.903	34550.43
449.11	34228.9
449.316	33925.8
449.522	34597.53
449.728	35410.57
449.935	35631.75
450.141	35216.02
450.347	36651.64
450.553	35320.46
450.76	35420.81
450.966	36467.33
451.172	36141.7
451.378	37003.89
451.584	36481.66
451.791	37157.49
451.997	37053.05
452.203	38048.36
452.409	37374.58
452.615	37679.72
452.821	36311.68
453.027	36022.92
453.233	37671.53
453.44	36237.95
453.646	36539.01
453.852	36340.35
454.058	37063.29
454.264	36100.74
454.47	36686.46
454.676	35508.88
454.882	36860.54
455.088	33383.09
455.294	34378.4
455.5	34472.6
455.705	35211.92
455.911	33684.14
456.117	33329.84
456.323	32252.61
456.529	30690.01
456.735	31730.37
456.941	31304.4
457.147	30700.25
457.352	29985.51
457.558	29586.15
457.764	29737.7
457.97	28984.05
458.176	28404.47
458.381	28355.32
458.587	27003.66
458.793	26768.15
458.999	25543.46
459.204	27278.09
459.41	26749.71
459.616	24945.45
459.821	24828.72
460.027	24554.29
460.233	24466.23
460.438	23180.1
460.644	23155.53
460.85	22434.64
461.055	21781.34
461.261	21787.49
461.466	20245.37
461.672	19819.39
461.878	21298.02
462.083	19772.28
462.289	19307.4
462.494	19086.22
462.7	18389.91
462.905	17990.55
463.111	18467.73
463.316	18553.74
463.522	18279.32
463.727	18181.01
463.932	18119.57
464.138	17738.65
464.343	17814.43
464.549	17521.57
464.754	18166.68
464.959	17984.41
465.165	17695.64
465.37	16892.84
465.575	16589.74
465.781	16966.57
465.986	17378.21
466.191	16585.65
466.397	16343.99
466.602	15526.85
466.807	16292.79
467.012	15985.59
467.218	16184.24
467.423	15784.89
467.628	16100.28
