Data from USB4F104151__241__10-30-36-809.txt Node

Date: Wed Mar 12 10:30:36 EDT 2025
User: louis
Spectrometer: USB4F10415
Trigger mode: 4
Integration Time (sec): 3.000000E-2
Scans to average: 1
Electric dark correction enabled: true
Nonlinearity correction enabled: false
Boxcar width: 0
XAxis mode: Wavelengths
Number of Pixels in Spectrum: 3648
>>>>>Begin Spectral Data<<<<<
178.204	-93.35
178.424	-93.35
178.644	-93.35
178.864	-177.32
179.084	-154.79
179.304	-38.06
179.524	31.57
179.744	-21.67
179.964	-13.48
180.184	37.72
180.404	13.14
180.624	9.05
180.844	-3.24
181.064	-52.39
181.283	45.91
181.503	-9.39
181.723	0.85
181.943	-23.72
182.163	17.24
182.383	23.38
182.602	35.67
182.822	4.95
183.042	2.9
183.262	29.52
183.482	109.4
183.701	-62.63
183.921	-9.39
184.141	-72.87
184.361	88.92
184.58	-17.58
184.8	7
185.02	23.38
185.239	50
185.459	13.14
185.679	-44.2
185.898	-27.82
186.118	0.85
186.338	56.15
186.557	-1.19
186.777	60.24
186.997	-5.29
187.216	50
187.436	88.92
187.655	23.38
187.875	76.63
188.095	21.33
188.314	19.29
188.534	21.33
188.753	4.95
188.973	29.52
189.192	70.48
189.412	-17.58
189.631	78.68
189.851	25.43
190.07	70.48
190.29	-9.39
190.509	15.19
190.729	-11.43
190.948	78.68
191.168	129.88
191.387	17.24
191.607	23.38
191.826	52.05
192.045	-3.24
192.265	-15.53
192.484	50
192.704	-79.02
192.923	7
193.142	93.01
193.362	113.49
193.581	35.67
193.8	101.2
194.02	35.67
194.239	-33.96
194.458	47.96
194.678	37.72
194.897	11.09
195.116	9.05
195.335	-21.67
195.555	-17.58
195.774	56.15
195.993	-7.34
196.212	11.09
196.432	-1.19
196.651	2.9
196.87	0.85
197.089	45.91
197.308	68.44
197.528	37.72
197.747	29.52
197.966	-25.77
198.185	-5.29
198.404	-15.53
198.623	29.52
198.842	11.09
199.062	11.09
199.281	66.39
199.5	-31.91
199.719	56.15
199.938	21.33
200.157	72.53
200.376	25.43
200.595	11.09
200.814	115.54
201.033	39.76
201.252	47.96
201.471	-17.58
201.69	56.15
201.909	9.05
202.128	2.9
202.347	35.67
202.566	7
202.785	-17.58
203.004	-46.25
203.223	43.86
203.442	-19.63
203.661	41.81
203.879	-25.77
204.098	113.49
204.317	37.72
204.536	54.1
204.755	-74.92
204.974	56.15
205.193	68.44
205.411	111.44
205.63	7
205.849	43.86
206.068	-1.19
206.287	76.63
206.505	2.9
206.724	43.86
206.943	-58.54
207.162	11.09
207.381	7
207.599	-38.06
207.818	21.33
208.037	60.24
208.255	37.72
208.474	-25.77
208.693	2.9
208.911	0.85
209.13	21.33
209.349	37.72
209.567	101.2
209.786	15.19
210.005	17.24
210.223	-5.29
210.442	-58.54
210.661	29.52
210.879	31.57
211.098	62.29
211.316	-38.06
211.535	2.9
211.753	54.1
211.972	-31.91
212.191	-58.54
212.409	-13.48
212.628	47.96
212.846	-29.87
213.065	-11.43
213.283	66.39
213.502	-25.77
213.72	-42.15
213.938	29.52
214.157	29.52
214.375	25.43
214.594	25.43
214.812	0.85
215.031	-1.19
215.249	27.48
215.467	2.9
215.686	11.09
215.904	60.24
216.122	13.14
216.341	37.72
216.559	9.05
216.778	68.44
216.996	52.05
217.214	-36.01
217.432	109.4
217.651	25.43
217.869	43.86
218.087	15.19
218.306	2.9
218.524	-9.39
218.742	62.29
218.96	17.24
219.179	56.15
219.397	113.49
219.615	37.72
219.833	-19.63
220.051	4.95
220.27	60.24
220.488	7
220.706	21.33
220.924	15.19
221.142	88.92
221.36	0.85
221.578	43.86
221.796	9.05
222.015	7
222.233	68.44
222.451	39.76
222.669	7
222.887	19.29
223.105	31.57
223.323	7
223.541	-7.34
223.759	-3.24
223.977	-13.48
224.195	78.68
224.413	0.85
224.631	-33.96
224.849	-36.01
225.067	72.53
225.285	47.96
225.503	19.29
225.721	-25.77
225.939	97.11
226.157	56.15
226.375	68.44
226.592	-27.82
226.81	15.19
227.028	31.57
227.246	93.01
227.464	35.67
227.682	29.52
227.9	54.1
228.117	33.62
228.335	-27.82
228.553	52.05
228.771	33.62
228.989	76.63
229.206	19.29
229.424	-36.01
229.642	-52.39
229.86	7
230.077	-9.39
230.295	33.62
230.513	35.67
230.731	37.72
230.948	54.1
231.166	-42.15
231.384	15.19
231.601	11.09
231.819	47.96
232.037	21.33
232.254	-11.43
232.472	27.48
232.689	7
232.907	23.38
233.125	7
233.342	43.86
233.56	47.96
233.777	-17.58
233.995	43.86
234.213	35.67
234.43	-5.29
234.648	15.19
234.865	9.05
235.083	-5.29
235.3	-23.72
235.518	60.24
235.735	56.15
235.953	90.96
236.17	-31.91
236.388	-9.39
236.605	2.9
236.822	19.29
237.04	7
237.257	27.48
237.475	-72.87
237.692	-3.24
237.909	54.1
238.127	-11.43
238.344	23.38
238.562	-36.01
238.779	-60.59
238.996	9.05
239.214	25.43
239.431	4.95
239.648	-1.19
239.865	86.87
240.083	27.48
240.3	-5.29
240.517	62.29
240.735	39.76
240.952	50
241.169	111.44
241.386	15.19
241.603	-60.59
241.821	58.2
242.038	107.35
242.255	88.92
242.472	31.57
242.689	39.76
242.907	95.06
243.124	31.57
243.341	-3.24
243.558	-27.82
243.775	-5.29
243.992	-60.59
244.209	35.67
244.426	50
244.643	80.72
244.86	23.38
245.078	60.24
245.295	-50.35
245.512	-58.54
245.729	-7.34
245.946	54.1
246.163	72.53
246.38	45.91
246.597	-3.24
246.814	80.72
247.031	-44.2
247.248	9.05
247.464	11.09
247.681	11.09
247.898	88.92
248.115	-3.24
248.332	-15.53
248.549	45.91
248.766	50
248.983	64.34
249.2	76.63
249.417	62.29
249.633	-3.24
249.85	23.38
250.067	50
250.284	-17.58
250.501	-25.77
250.717	9.05
250.934	23.38
251.151	17.24
251.368	-5.29
251.585	15.19
251.801	33.62
252.018	13.14
252.235	60.24
252.451	-11.43
252.668	-29.87
252.885	54.1
253.102	0.85
253.318	-42.15
253.535	-15.53
253.752	17.24
253.968	17.24
254.185	45.91
254.401	43.86
254.618	50
254.835	70.48
255.051	56.15
255.268	-3.24
255.484	0.85
255.701	-9.39
255.917	23.38
256.134	21.33
256.351	99.16
256.567	-27.82
256.784	27.48
257	25.43
257.217	86.87
257.433	60.24
257.65	21.33
257.866	127.83
258.082	-66.73
258.299	-9.39
258.515	-9.39
258.732	103.25
258.948	4.95
259.165	4.95
259.381	15.19
259.597	52.05
259.814	21.33
260.03	76.63
260.246	68.44
260.463	27.48
260.679	50
260.895	54.1
261.112	86.87
261.328	27.48
261.544	-25.77
261.761	88.92
261.977	-46.25
262.193	-44.2
262.409	11.09
262.626	56.15
262.842	25.43
263.058	-5.29
263.274	-5.29
263.49	-1.19
263.707	45.91
263.923	47.96
264.139	33.62
264.355	64.34
264.571	4.95
264.787	76.63
265.004	-15.53
265.22	27.48
265.436	-15.53
265.652	-66.73
265.868	-40.11
266.084	-1.19
266.3	-15.53
266.516	4.95
266.732	127.83
266.948	76.63
267.164	13.14
267.38	7
267.596	11.09
267.812	88.92
268.028	19.29
268.244	11.09
268.46	72.53
268.676	43.86
268.892	-1.19
269.108	17.24
269.324	-19.63
269.54	-1.19
269.756	19.29
269.972	25.43
270.188	45.91
270.403	56.15
270.619	27.48
270.835	43.86
271.051	17.24
271.267	-52.39
271.483	2.9
271.698	60.24
271.914	105.3
272.13	7
272.346	95.06
272.562	80.72
272.777	72.53
272.993	-3.24
273.209	52.05
273.425	-19.63
273.64	-13.48
273.856	27.48
274.072	23.38
274.287	2.9
274.503	86.87
274.719	54.1
274.934	21.33
275.15	-1.19
275.366	-13.48
275.581	-27.82
275.797	0.85
276.012	33.62
276.228	43.86
276.444	-5.29
276.659	13.14
276.875	2.9
277.09	97.11
277.306	29.52
277.521	21.33
277.737	33.62
277.952	-50.35
278.168	25.43
278.383	27.48
278.599	84.82
278.814	84.82
279.03	43.86
279.245	109.4
279.461	29.52
279.676	84.82
279.892	-11.43
280.107	-17.58
280.322	-42.15
280.538	19.29
280.753	-9.39
280.969	58.2
281.184	27.48
281.399	37.72
281.615	47.96
281.83	78.68
282.045	-42.15
282.26	11.09
282.476	7
282.691	58.2
282.906	23.38
283.122	35.67
283.337	31.57
283.552	27.48
283.767	25.43
283.983	47.96
284.198	33.62
284.413	41.81
284.628	15.19
284.843	37.72
285.058	123.73
285.274	29.52
285.489	-3.24
285.704	25.43
285.919	-13.48
286.134	60.24
286.349	7
286.564	45.91
286.779	76.63
286.995	0.85
287.21	-15.53
287.425	52.05
287.64	39.76
287.855	37.72
288.07	-66.73
288.285	39.76
288.5	58.2
288.715	64.34
288.93	9.05
289.145	-13.48
289.36	2.9
289.575	74.58
289.79	47.96
290.004	107.35
290.219	31.57
290.434	-21.67
290.649	15.19
290.864	117.59
291.079	21.33
291.294	35.67
291.509	27.48
291.724	39.76
291.938	17.24
292.153	33.62
292.368	58.2
292.583	-9.39
292.798	47.96
293.012	56.15
293.227	4.95
293.442	27.48
293.657	29.52
293.871	45.91
294.086	31.57
294.301	64.34
294.516	-9.39
294.73	2.9
294.945	2.9
295.16	15.19
295.374	60.24
295.589	88.92
295.804	4.95
296.018	25.43
296.233	78.68
296.447	107.35
296.662	76.63
296.877	27.48
297.091	0.85
297.306	82.77
297.52	29.52
297.735	39.76
297.949	35.67
298.164	84.82
298.378	-64.68
298.593	-5.29
298.807	56.15
299.022	13.14
299.236	58.2
299.451	7
299.665	29.52
299.88	29.52
300.094	2.9
300.309	-48.3
300.523	2.9
300.737	68.44
300.952	52.05
301.166	35.67
301.381	13.14
301.595	0.85
301.809	-46.25
302.024	-60.59
302.238	7
302.452	-23.72
302.667	43.86
302.881	111.44
303.095	72.53
303.309	41.81
303.524	17.24
303.738	-64.68
303.952	-54.44
304.166	13.14
304.381	-50.35
304.595	70.48
304.809	23.38
305.023	74.58
305.237	9.05
305.452	50
305.666	64.34
305.88	95.06
306.094	7
306.308	54.1
306.522	31.57
306.736	66.39
306.95	64.34
307.164	-3.24
307.379	13.14
307.593	52.05
307.807	13.14
308.021	35.67
308.235	21.33
308.449	50
308.663	64.34
308.877	54.1
309.091	11.09
309.305	0.85
309.519	-15.53
309.733	113.49
309.947	-13.48
310.161	21.33
310.374	25.43
310.588	72.53
310.802	60.24
311.016	4.95
311.23	66.39
311.444	45.91
311.658	43.86
311.872	47.96
312.085	17.24
312.299	74.58
312.513	95.06
312.727	64.34
312.941	-23.72
313.154	84.82
313.368	58.2
313.582	60.24
313.796	39.76
314.009	4.95
314.223	2.9
314.437	47.96
314.651	109.4
314.864	9.05
315.078	31.57
315.292	50
315.505	-3.24
315.719	54.1
315.933	0.85
316.146	93.01
316.36	52.05
316.573	2.9
316.787	33.62
317.001	58.2
317.214	7
317.428	-33.96
317.641	-13.48
317.855	-25.77
318.068	-36.01
318.282	13.14
318.495	121.68
318.709	80.72
318.922	62.29
319.136	93.01
319.349	33.62
319.563	-1.19
319.776	80.72
319.99	25.43
320.203	78.68
320.417	80.72
320.63	23.38
320.843	50
321.057	7
321.27	60.24
321.483	84.82
321.697	13.14
321.91	33.62
322.124	17.24
322.337	66.39
322.55	-36.01
322.763	23.38
322.977	52.05
323.19	-9.39
323.403	-42.15
323.617	-23.72
323.83	37.72
324.043	109.4
324.256	-5.29
324.469	11.09
324.683	11.09
324.896	70.48
325.109	125.78
325.322	-33.96
325.535	31.57
325.748	0.85
325.962	54.1
326.175	39.76
326.388	84.82
326.601	84.82
326.814	60.24
327.027	19.29
327.24	60.24
327.453	-1.19
327.666	129.88
327.879	45.91
328.092	64.34
328.305	60.24
328.518	-38.06
328.731	-3.24
328.944	19.29
329.157	123.73
329.37	47.96
329.583	86.87
329.796	72.53
330.009	-36.01
330.222	60.24
330.435	47.96
330.648	52.05
330.861	62.29
331.073	68.44
331.286	-38.06
331.499	2.9
331.712	15.19
331.925	35.67
332.138	66.39
332.35	-3.24
332.563	45.91
332.776	60.24
332.989	-40.11
333.202	33.62
333.414	-50.35
333.627	68.44
333.84	47.96
334.053	56.15
334.265	-21.67
334.478	43.86
334.691	97.11
334.903	43.86
335.116	-23.72
335.329	-33.96
335.541	84.82
335.754	45.91
335.966	4.95
336.179	2.9
336.392	-7.34
336.604	9.05
336.817	41.81
337.029	47.96
337.242	125.78
337.454	39.76
337.667	31.57
337.88	31.57
338.092	119.64
338.305	45.91
338.517	2.9
338.729	105.3
338.942	35.67
339.154	47.96
339.367	-33.96
339.579	47.96
339.792	50
340.004	52.05
340.217	39.76
340.429	47.96
340.641	72.53
340.854	66.39
341.066	21.33
341.278	23.38
341.491	78.68
341.703	47.96
341.915	-44.2
342.128	72.53
342.34	35.67
342.552	52.05
342.764	-11.43
342.977	-25.77
343.189	56.15
343.401	-17.58
343.613	7
343.826	37.72
344.038	86.87
344.25	117.59
344.462	-11.43
344.674	62.29
344.886	39.76
345.099	74.58
345.311	-13.48
345.523	-1.19
345.735	-40.11
345.947	82.77
346.159	-31.91
346.371	-5.29
346.583	23.38
346.795	43.86
347.007	17.24
347.219	95.06
347.431	-44.2
347.643	33.62
347.855	-11.43
348.067	17.24
348.279	41.81
348.491	45.91
348.703	15.19
348.915	41.81
349.127	62.29
349.339	31.57
349.551	70.48
349.763	27.48
349.975	52.05
350.187	39.76
350.399	7
350.61	4.95
350.822	105.3
351.034	7
351.246	90.96
351.458	45.91
351.669	64.34
351.881	68.44
352.093	74.58
352.305	90.96
352.517	88.92
352.728	64.34
352.94	35.67
353.152	25.43
353.363	33.62
353.575	47.96
353.787	74.58
353.999	11.09
354.21	82.77
354.422	17.24
354.633	88.92
354.845	142.16
355.057	47.96
355.268	11.09
355.48	56.15
355.692	33.62
355.903	-5.29
356.115	33.62
356.326	95.06
356.538	41.81
356.749	15.19
356.961	101.2
357.172	88.92
357.384	27.48
357.595	103.25
357.807	62.29
358.018	11.09
358.23	-15.53
358.441	9.05
358.653	95.06
358.864	21.33
359.075	13.14
359.287	107.35
359.498	60.24
359.709	105.3
359.921	25.43
360.132	27.48
360.344	64.34
360.555	-9.39
360.766	60.24
360.977	80.72
361.189	23.38
361.4	99.16
361.611	54.1
361.823	17.24
362.034	-1.19
362.245	19.29
362.456	64.34
362.667	60.24
362.879	33.62
363.09	76.63
363.301	86.87
363.512	25.43
363.723	56.15
363.935	27.48
364.146	52.05
364.357	47.96
364.568	80.72
364.779	39.76
364.99	93.01
365.201	-19.63
365.412	37.72
365.623	-3.24
365.834	50
366.045	-1.19
366.256	72.53
366.467	95.06
366.678	-25.77
366.889	21.33
367.1	54.1
367.311	64.34
367.522	-15.53
367.733	13.14
367.944	-25.77
368.155	-17.58
368.366	101.2
368.577	35.67
368.788	62.29
368.999	76.63
369.209	37.72
369.42	76.63
369.631	70.48
369.842	50
370.053	60.24
370.264	97.11
370.474	7
370.685	50
370.896	74.58
371.107	19.29
371.317	39.76
371.528	15.19
371.739	7
371.95	41.81
372.16	99.16
372.371	-31.91
372.582	23.38
372.792	27.48
373.003	0.85
373.214	13.14
373.424	31.57
373.635	-3.24
373.846	43.86
374.056	95.06
374.267	113.49
374.477	23.38
374.688	60.24
374.898	56.15
375.109	33.62
375.319	19.29
375.53	78.68
375.74	80.72
375.951	84.82
376.161	13.14
376.372	76.63
376.582	72.53
376.793	111.44
377.003	-3.24
377.214	33.62
377.424	66.39
377.635	121.68
377.845	-9.39
378.055	103.25
378.266	54.1
378.476	70.48
378.686	47.96
378.897	23.38
379.107	140.12
379.317	80.72
379.528	80.72
379.738	27.48
379.948	64.34
380.158	11.09
380.369	144.21
380.579	88.92
380.789	19.29
380.999	29.52
381.21	13.14
381.42	107.35
381.63	-1.19
381.84	86.87
382.05	23.38
382.261	13.14
382.471	78.68
382.681	0.85
382.891	78.68
383.101	29.52
383.311	-9.39
383.521	25.43
383.731	52.05
383.941	95.06
384.151	111.44
384.361	21.33
384.571	62.29
384.781	76.63
384.991	158.55
385.201	86.87
385.411	93.01
385.621	43.86
385.831	72.53
386.041	4.95
386.251	93.01
386.461	41.81
386.671	50
386.881	58.2
387.091	76.63
387.301	101.2
387.511	7
387.72	52.05
387.93	64.34
388.14	15.19
388.35	47.96
388.56	19.29
388.769	86.87
388.979	29.52
389.189	15.19
389.399	9.05
389.609	60.24
389.818	133.97
390.028	39.76
390.238	101.2
390.447	80.72
390.657	45.91
390.867	-21.67
391.076	52.05
391.286	136.02
391.496	88.92
391.705	88.92
391.915	66.39
392.125	47.96
392.334	19.29
392.544	97.11
392.753	39.76
392.963	88.92
393.172	90.96
393.382	-23.72
393.591	52.05
393.801	72.53
394.01	113.49
394.22	121.68
394.429	138.07
394.639	144.21
394.848	90.96
395.058	60.24
395.267	133.97
395.477	154.45
395.686	86.87
395.895	164.69
396.105	93.01
396.314	119.64
396.524	111.44
396.733	54.1
396.942	105.3
397.152	160.59
397.361	144.21
397.57	97.11
397.78	162.64
397.989	179.03
398.198	90.96
398.407	105.3
398.617	72.53
398.826	131.92
399.035	170.83
399.244	125.78
399.453	125.78
399.663	123.73
399.872	101.2
400.081	47.96
400.29	142.16
400.499	109.4
400.708	109.4
400.917	117.59
401.127	50
401.336	117.59
401.545	115.54
401.754	117.59
401.963	119.64
402.172	41.81
402.381	90.96
402.59	125.78
402.799	136.02
403.008	127.83
403.217	138.07
403.426	146.26
403.635	109.4
403.844	160.59
404.053	117.59
404.262	60.24
404.471	174.93
404.68	136.02
404.888	109.4
405.097	183.12
405.306	183.12
405.515	211.79
405.724	109.4
405.933	197.46
406.142	205.65
406.35	189.27
406.559	168.79
406.768	203.6
406.977	254.8
407.185	252.75
407.394	242.51
407.603	224.08
407.812	213.84
408.02	232.27
408.229	273.23
408.438	293.71
408.646	236.37
408.855	287.57
409.064	359.25
409.272	240.47
409.481	269.14
409.69	324.43
409.898	297.81
410.107	365.39
410.315	318.29
410.524	392.02
410.733	318.29
410.941	295.76
411.15	361.3
411.358	355.15
411.567	387.92
411.775	457.55
411.984	480.08
412.192	371.54
412.401	484.17
412.609	619.34
412.818	547.66
413.026	502.61
413.234	480.08
413.443	635.72
413.651	654.16
413.86	635.72
414.068	662.35
414.276	682.83
414.485	709.45
414.693	711.5
414.901	754.51
415.11	699.21
415.318	701.26
415.526	809.8
415.734	758.6
415.943	805.71
416.151	895.82
416.359	944.97
416.567	916.3
416.776	953.16
416.984	1024.84
417.192	1121.09
417.4	1051.46
417.608	1045.32
417.817	1157.96
418.025	1170.24
418.233	1301.31
418.441	1178.44
418.649	1254.21
418.857	1399.62
419.065	1461.06
419.273	1397.57
419.481	1524.54
419.689	1631.04
419.897	1649.47
420.105	1717.05
420.313	1909.56
420.521	1735.48
420.729	1801.02
420.937	1913.66
421.145	1962.81
421.353	2001.72
421.561	2083.64
421.769	2136.88
421.977	2294.58
422.185	2216.76
422.393	2456.37
422.601	2442.03
422.809	2538.29
423.017	2448.18
423.224	2650.92
423.432	2624.3
423.64	2595.63
423.848	3101.48
424.056	2886.44
424.263	3042.09
424.471	3068.71
424.679	3234.6
424.887	3394.34
425.094	3474.21
425.302	3572.51
425.51	3676.96
425.718	3781.4
425.925	3687.2
426.133	3844.89
426.341	4115.22
426.548	4303.64
426.756	4264.72
426.964	4395.79
427.171	4668.17
427.379	4670.22
427.586	4819.72
427.794	4895.5
428.001	5126.92
428.209	5290.76
428.417	5348.1
428.624	5757.69
428.832	5806.84
429.039	5591.81
429.247	5577.47
429.454	6202.1
429.662	6560.5
429.869	6150.9
430.076	6712.05
430.284	6443.76
430.491	6828.78
430.699	7160.55
430.906	7201.51
431.114	7291.62
431.321	7451.36
431.528	7703.26
431.736	8016.6
431.943	8432.34
432.15	8233.69
432.358	8288.98
432.565	8837.84
432.772	8727.25
432.979	9335.49
433.187	9468.61
433.394	9247.43
433.601	10015.42
433.808	10017.47
434.016	9984.7
434.223	10418.87
434.43	11010.73
434.637	11043.5
434.844	11618.98
435.052	11676.32
435.259	11530.92
435.466	11969.18
435.673	11342.5
435.88	12569.24
436.087	13095.57
436.294	13157
436.501	12728.98
436.708	13171.34
436.915	13415.05
437.122	14381.69
437.329	13820.55
437.537	14422.65
437.743	14701.17
437.95	14750.32
438.157	15286.89
438.364	15878.76
438.571	15747.69
438.778	15977.06
438.985	17359.44
439.192	16622.17
439.399	17302.09
439.606	16667.22
439.813	17779.27
440.02	18940.47
440.227	18229.82
440.433	18207.3
440.64	18780.73
440.847	18653.75
441.054	19296.81
441.261	20406.81
441.467	20331.04
441.674	20539.93
441.881	21275.15
442.088	21395.98
442.294	21043.73
442.501	21709.32
442.708	22340.1
442.914	23376.37
443.121	24199.65
443.328	23431.66
443.534	25006.55
443.741	24209.89
443.948	24072.68
444.154	25733.58
444.361	25412.05
444.568	25858.51
444.774	25706.96
444.981	25862.6
445.187	26606.02
445.394	27748.78
445.6	27376.05
445.807	29995.4
446.013	28862.88
446.22	29319.57
446.426	30474.63
446.633	30673.28
446.839	31519.09
447.046	30308.74
447.252	31877.49
447.459	32244.07
447.665	31770.99
447.871	33304.92
448.078	34599.24
448.284	32917.86
448.491	33655.12
448.697	35045.69
448.903	35631.41
449.11	35539.26
449.316	35113.28
449.522	36067.63
449.728	36737.32
449.935	37038.37
450.141	36751.65
450.347	37669.14
450.553	36258.09
450.76	37114.14
450.966	37964.05
451.172	37839.12
451.378	38770.95
451.584	37822.74
451.791	38838.53
451.997	38816.01
452.203	38961.41
452.409	39385.34
452.615	39072
452.821	37646.61
453.027	37234.97
453.233	39028.99
453.44	37538.07
453.646	37923.09
453.852	38351.12
454.058	38572.3
454.264	37411.1
454.47	38039.82
454.676	37284.12
454.882	38277.39
455.088	34890.05
455.294	35610.93
455.5	35981.62
455.705	36499.75
455.911	34828.61
456.117	34156.88
456.323	33763.67
456.529	31848.82
456.735	33255.77
456.941	32604.52
457.147	31949.17
457.352	31017.34
457.558	30271.88
457.764	30464.39
457.97	30329.22
458.176	29274.52
458.381	29622.67
458.587	27638.19
458.793	28074.41
458.999	26708.41
459.204	28424.61
459.41	27597.23
459.616	25741.77
459.821	25991.62
460.027	25790.92
460.233	25188.82
460.438	23957.99
460.644	24238.56
460.85	23187.96
461.055	23081.46
461.261	22776.31
461.466	21199.38
461.672	20382.24
461.878	22188.55
462.083	20591.13
462.289	20236.83
462.494	20046.37
462.7	19049.01
462.905	18545.21
463.111	18940.47
463.316	19003.96
463.522	18780.73
463.727	19173.94
463.932	18942.52
464.138	18657.85
464.343	18752.06
464.549	18373.18
464.754	18895.41
464.959	18993.72
465.165	18588.22
465.37	17605.19
465.575	17359.44
465.781	17973.83
465.986	18240.06
466.191	17611.34
466.397	17080.91
466.602	16091.74
466.807	16769.62
467.012	16777.81
467.218	16806.48
467.423	16839.25
467.628	16806.48
467.833	17349.2
468.038	16855.64
468.244	16349.79
468.449	16773.72
468.654	16196.19
468.859	16247.39
469.064	15909.47
