Data from USB4F104151__263__10-40-19-345.txt Node

Date: Wed Mar 12 10:40:19 EDT 2025
User: louis
Spectrometer: USB4F10415
Trigger mode: 4
Integration Time (sec): 3.000000E-2
Scans to average: 1
Electric dark correction enabled: true
Nonlinearity correction enabled: false
Boxcar width: 0
XAxis mode: Wavelengths
Number of Pixels in Spectrum: 3648
>>>>>Begin Spectral Data<<<<<
178.204	-107.69
178.424	-107.69
178.644	-107.69
178.864	-99.5
179.084	-113.83
179.304	-15.53
179.524	-64.68
179.744	-3.24
179.964	4.95
180.184	-48.3
180.404	64.34
180.624	41.81
180.844	-5.29
181.064	-52.39
181.283	13.14
181.503	0.85
181.723	64.34
181.943	-29.87
182.163	23.38
182.383	27.48
182.602	58.2
182.822	4.95
183.042	23.38
183.262	21.33
183.482	4.95
183.701	50
183.921	103.25
184.141	62.29
184.361	95.06
184.58	68.44
184.8	33.62
185.02	0.85
185.239	45.91
185.459	-27.82
185.679	35.67
185.898	-60.59
186.118	21.33
186.338	-25.77
186.557	80.72
186.777	-11.43
186.997	72.53
187.216	56.15
187.436	66.39
187.655	0.85
187.875	56.15
188.095	-5.29
188.314	45.91
188.534	95.06
188.753	31.57
188.973	17.24
189.192	-5.29
189.412	35.67
189.631	88.92
189.851	21.33
190.07	78.68
190.29	31.57
190.509	-27.82
190.729	-3.24
190.948	21.33
191.168	174.93
191.387	13.14
191.607	7
191.826	70.48
192.045	47.96
192.265	47.96
192.484	-19.63
192.704	-33.96
192.923	-11.43
193.142	101.2
193.362	74.58
193.581	113.49
193.8	99.16
194.02	-15.53
194.239	31.57
194.458	39.76
194.678	68.44
194.897	-25.77
195.116	33.62
195.335	66.39
195.555	66.39
195.774	25.43
195.993	-27.82
196.212	2.9
196.432	37.72
196.651	37.72
196.87	-1.19
197.089	172.88
197.308	56.15
197.528	129.88
197.747	-5.29
197.966	54.1
198.185	17.24
198.404	9.05
198.623	54.1
198.842	52.05
199.062	25.43
199.281	97.11
199.5	-19.63
199.719	80.72
199.938	58.2
200.157	21.33
200.376	45.91
200.595	99.16
200.814	13.14
201.033	66.39
201.252	60.24
201.471	78.68
201.69	54.1
201.909	86.87
202.128	43.86
202.347	11.09
202.566	17.24
202.785	56.15
203.004	41.81
203.223	105.3
203.442	-3.24
203.661	74.58
203.879	-7.34
204.098	72.53
204.317	39.76
204.536	21.33
204.755	21.33
204.974	93.01
205.193	58.2
205.411	72.53
205.63	84.82
205.849	95.06
206.068	25.43
206.287	0.85
206.505	62.29
206.724	70.48
206.943	-21.67
207.162	21.33
207.381	58.2
207.599	17.24
207.818	37.72
208.037	-3.24
208.255	17.24
208.474	35.67
208.693	43.86
208.911	56.15
209.13	41.81
209.349	37.72
209.567	2.9
209.786	76.63
210.005	74.58
210.223	-11.43
210.442	-11.43
210.661	25.43
210.879	9.05
211.098	29.52
211.316	-1.19
211.535	123.73
211.753	11.09
211.972	37.72
212.191	-11.43
212.409	15.19
212.628	43.86
212.846	37.72
213.065	97.11
213.283	11.09
213.502	0.85
213.72	86.87
213.938	29.52
214.157	58.2
214.375	45.91
214.594	74.58
214.812	74.58
215.031	66.39
215.249	-7.34
215.467	72.53
215.686	13.14
215.904	72.53
216.122	-87.21
216.341	54.1
216.559	72.53
216.778	-1.19
216.996	35.67
217.214	-29.87
217.432	64.34
217.651	33.62
217.869	17.24
218.087	70.48
218.306	41.81
218.524	127.83
218.742	35.67
218.96	95.06
219.179	37.72
219.397	58.2
219.615	4.95
219.833	84.82
220.051	2.9
220.27	99.16
220.488	43.86
220.706	11.09
220.924	9.05
221.142	50
221.36	37.72
221.578	-1.19
221.796	62.29
222.015	-17.58
222.233	72.53
222.451	37.72
222.669	66.39
222.887	80.72
223.105	41.81
223.323	56.15
223.541	4.95
223.759	37.72
223.977	35.67
224.195	58.2
224.413	23.38
224.631	33.62
224.849	29.52
225.067	54.1
225.285	82.77
225.503	-19.63
225.721	17.24
225.939	60.24
226.157	43.86
226.375	109.4
226.592	25.43
226.81	9.05
227.028	56.15
227.246	115.54
227.464	45.91
227.682	45.91
227.9	160.59
228.117	35.67
228.335	-7.34
228.553	29.52
228.771	-23.72
228.989	70.48
229.206	60.24
229.424	52.05
229.642	93.01
229.86	-58.54
230.077	37.72
230.295	99.16
230.513	-3.24
230.731	4.95
230.948	62.29
231.166	39.76
231.384	-21.67
231.601	-7.34
231.819	66.39
232.037	47.96
232.254	-9.39
232.472	50
232.689	93.01
232.907	70.48
233.125	-36.01
233.342	-50.35
233.56	29.52
233.777	47.96
233.995	19.29
234.213	95.06
234.43	86.87
234.648	74.58
234.865	21.33
235.083	70.48
235.3	41.81
235.518	33.62
235.735	17.24
235.953	64.34
236.17	-19.63
236.388	39.76
236.605	68.44
236.822	43.86
237.04	39.76
237.257	-19.63
237.475	21.33
237.692	21.33
237.909	37.72
238.127	11.09
238.344	99.16
238.562	2.9
238.779	-19.63
238.996	-70.83
239.214	33.62
239.431	60.24
239.648	90.96
239.865	78.68
240.083	17.24
240.3	29.52
240.517	13.14
240.735	-50.35
240.952	74.58
241.169	95.06
241.386	4.95
241.603	19.29
241.821	7
242.038	64.34
242.255	25.43
242.472	17.24
242.689	121.68
242.907	70.48
243.124	-5.29
243.341	60.24
243.558	29.52
243.775	13.14
243.992	-7.34
244.209	66.39
244.426	45.91
244.643	123.73
244.86	-19.63
245.078	13.14
245.295	23.38
245.512	50
245.729	-9.39
245.946	37.72
246.163	84.82
246.38	50
246.597	4.95
246.814	82.77
247.031	84.82
247.248	11.09
247.464	60.24
247.681	70.48
247.898	25.43
248.115	101.2
248.332	-68.78
248.549	66.39
248.766	138.07
248.983	74.58
249.2	21.33
249.417	99.16
249.633	-60.59
249.85	62.29
250.067	-5.29
250.284	41.81
250.501	58.2
250.717	72.53
250.934	-9.39
251.151	80.72
251.368	13.14
251.585	84.82
251.801	19.29
252.018	19.29
252.235	62.29
252.451	72.53
252.668	2.9
252.885	50
253.102	52.05
253.318	66.39
253.535	0.85
253.752	31.57
253.968	74.58
254.185	15.19
254.401	95.06
254.618	50
254.835	2.9
255.051	62.29
255.268	82.77
255.484	131.92
255.701	41.81
255.917	115.54
256.134	78.68
256.351	72.53
256.567	0.85
256.784	13.14
257	35.67
257.217	99.16
257.433	60.24
257.65	70.48
257.866	58.2
258.082	-31.91
258.299	-48.3
258.515	99.16
258.732	29.52
258.948	-50.35
259.165	39.76
259.381	76.63
259.597	37.72
259.814	95.06
260.03	72.53
260.246	74.58
260.463	4.95
260.679	45.91
260.895	58.2
261.112	111.44
261.328	74.58
261.544	-33.96
261.761	86.87
261.977	78.68
262.193	-36.01
262.409	93.01
262.626	-3.24
262.842	47.96
263.058	27.48
263.274	45.91
263.49	41.81
263.707	41.81
263.923	76.63
264.139	56.15
264.355	58.2
264.571	84.82
264.787	25.43
265.004	39.76
265.22	13.14
265.436	-33.96
265.652	95.06
265.868	88.92
266.084	43.86
266.3	103.25
266.516	43.86
266.732	45.91
266.948	33.62
267.164	82.77
267.38	58.2
267.596	113.49
267.812	88.92
268.028	-40.11
268.244	27.48
268.46	72.53
268.676	45.91
268.892	68.44
269.108	41.81
269.324	95.06
269.54	13.14
269.756	-21.67
269.972	-42.15
270.188	35.67
270.403	-38.06
270.619	84.82
270.835	41.81
271.051	35.67
271.267	4.95
271.483	29.52
271.698	-5.29
271.914	129.88
272.13	88.92
272.346	15.19
272.562	84.82
272.777	27.48
272.993	86.87
273.209	-15.53
273.425	41.81
273.64	54.1
273.856	35.67
274.072	-11.43
274.287	93.01
274.503	80.72
274.719	68.44
274.934	17.24
275.15	-3.24
275.366	0.85
275.581	29.52
275.797	54.1
276.012	62.29
276.228	15.19
276.444	11.09
276.659	52.05
276.875	50
277.09	2.9
277.306	-1.19
277.521	99.16
277.737	4.95
277.952	109.4
278.168	29.52
278.383	133.97
278.599	50
278.814	25.43
279.03	23.38
279.245	54.1
279.461	29.52
279.676	52.05
279.892	35.67
280.107	15.19
280.322	-3.24
280.538	45.91
280.753	0.85
280.969	45.91
281.184	29.52
281.399	-3.24
281.615	97.11
281.83	70.48
282.045	43.86
282.26	-15.53
282.476	62.29
282.691	21.33
282.906	70.48
283.122	-38.06
283.337	64.34
283.552	25.43
283.767	35.67
283.983	78.68
284.198	66.39
284.413	37.72
284.628	70.48
284.843	62.29
285.058	76.63
285.274	35.67
285.489	29.52
285.704	127.83
285.919	50
286.134	50
286.349	-11.43
286.564	60.24
286.779	82.77
286.995	4.95
287.21	-7.34
287.425	50
287.64	-44.2
287.855	39.76
288.07	-19.63
288.285	62.29
288.5	60.24
288.715	33.62
288.93	13.14
289.145	-27.82
289.36	47.96
289.575	52.05
289.79	72.53
290.004	17.24
290.219	84.82
290.434	13.14
290.649	29.52
290.864	68.44
291.079	27.48
291.294	2.9
291.509	103.25
291.724	37.72
291.938	68.44
292.153	101.2
292.368	-19.63
292.583	105.3
292.798	86.87
293.012	93.01
293.227	33.62
293.442	-3.24
293.657	80.72
293.871	21.33
294.086	86.87
294.301	50
294.516	127.83
294.73	113.49
294.945	-9.39
295.16	47.96
295.374	27.48
295.589	58.2
295.804	4.95
296.018	11.09
296.233	62.29
296.447	95.06
296.662	0.85
296.877	78.68
297.091	109.4
297.306	39.76
297.52	88.92
297.735	80.72
297.949	4.95
298.164	99.16
298.378	62.29
298.593	-1.19
298.807	35.67
299.022	-3.24
299.236	140.12
299.451	86.87
299.665	76.63
299.88	41.81
300.094	82.77
300.309	25.43
300.523	0.85
300.737	4.95
300.952	146.26
301.166	54.1
301.381	47.96
301.595	76.63
301.809	-19.63
302.024	27.48
302.238	-81.07
302.452	45.91
302.667	19.29
302.881	60.24
303.095	7
303.309	58.2
303.524	47.96
303.738	86.87
303.952	35.67
304.166	9.05
304.381	-62.63
304.595	76.63
304.809	2.9
305.023	19.29
305.237	115.54
305.452	35.67
305.666	52.05
305.88	52.05
306.094	39.76
306.308	95.06
306.522	68.44
306.736	58.2
306.95	13.14
307.164	39.76
307.379	103.25
307.593	54.1
307.807	78.68
308.021	45.91
308.235	43.86
308.449	97.11
308.663	56.15
308.877	168.79
309.091	86.87
309.305	23.38
309.519	-3.24
309.733	86.87
309.947	-5.29
310.161	101.2
310.374	54.1
310.588	15.19
310.802	33.62
311.016	99.16
311.23	50
311.444	62.29
311.658	78.68
311.872	45.91
312.085	66.39
312.299	70.48
312.513	37.72
312.727	-11.43
312.941	74.58
313.154	52.05
313.368	70.48
313.582	41.81
313.796	74.58
314.009	93.01
314.223	68.44
314.437	123.73
314.651	72.53
314.864	80.72
315.078	52.05
315.292	-31.91
315.505	39.76
315.719	74.58
315.933	97.11
316.146	17.24
316.36	84.82
316.573	90.96
316.787	29.52
317.001	84.82
317.214	21.33
317.428	21.33
317.641	-44.2
317.855	95.06
318.068	35.67
318.282	33.62
318.495	76.63
318.709	31.57
318.922	109.4
319.136	41.81
319.349	90.96
319.563	56.15
319.776	88.92
319.99	97.11
320.203	78.68
320.417	-7.34
320.63	50
320.843	76.63
321.057	86.87
321.27	74.58
321.483	47.96
321.697	50
321.91	58.2
322.124	66.39
322.337	66.39
322.55	39.76
322.763	64.34
322.977	37.72
323.19	-1.19
323.403	58.2
323.617	21.33
323.83	90.96
324.043	62.29
324.256	84.82
324.469	50
324.683	93.01
324.896	4.95
325.109	62.29
325.322	-29.87
325.535	99.16
325.748	0.85
325.962	54.1
326.175	54.1
326.388	70.48
326.601	84.82
326.814	62.29
327.027	11.09
327.24	138.07
327.453	-38.06
327.666	13.14
327.879	33.62
328.092	101.2
328.305	9.05
328.518	13.14
328.731	107.35
328.944	25.43
329.157	84.82
329.37	72.53
329.583	78.68
329.796	62.29
330.009	-5.29
330.222	72.53
330.435	64.34
330.648	47.96
330.861	50
331.073	76.63
331.286	11.09
331.499	109.4
331.712	-44.2
331.925	19.29
332.138	58.2
332.35	31.57
332.563	-9.39
332.776	54.1
332.989	60.24
333.202	64.34
333.414	-17.58
333.627	41.81
333.84	68.44
334.053	90.96
334.265	23.38
334.478	117.59
334.691	47.96
334.903	119.64
335.116	-21.67
335.329	129.88
335.541	90.96
335.754	-11.43
335.966	9.05
336.179	7
336.392	76.63
336.604	35.67
336.817	80.72
337.029	123.73
337.242	4.95
337.454	66.39
337.667	45.91
337.88	95.06
338.092	47.96
338.305	107.35
338.517	72.53
338.729	56.15
338.942	54.1
339.154	56.15
339.367	50
339.579	86.87
339.792	45.91
340.004	90.96
340.217	29.52
340.429	27.48
340.641	29.52
340.854	33.62
341.066	72.53
341.278	82.77
341.491	62.29
341.703	97.11
341.915	50
342.128	37.72
342.34	86.87
342.552	119.64
342.764	74.58
342.977	76.63
343.189	84.82
343.401	43.86
343.613	25.43
343.826	62.29
344.038	37.72
344.25	39.76
344.462	4.95
344.674	29.52
344.886	21.33
345.099	74.58
345.311	21.33
345.523	31.57
345.735	37.72
345.947	82.77
346.159	17.24
346.371	64.34
346.583	37.72
346.795	62.29
347.007	31.57
347.219	37.72
347.431	-11.43
347.643	90.96
347.855	84.82
348.067	88.92
348.279	50
348.491	74.58
348.703	68.44
348.915	52.05
349.127	31.57
349.339	41.81
349.551	76.63
349.763	150.36
349.975	-1.19
350.187	72.53
350.399	103.25
350.61	103.25
350.822	41.81
351.034	54.1
351.246	168.79
351.458	37.72
351.669	68.44
351.881	80.72
352.093	68.44
352.305	58.2
352.517	-21.67
352.728	60.24
352.94	119.64
353.152	144.21
353.363	-3.24
353.575	119.64
353.787	121.68
353.999	66.39
354.21	33.62
354.422	93.01
354.633	13.14
354.845	9.05
355.057	29.52
355.268	140.12
355.48	17.24
355.692	37.72
355.903	-1.19
356.115	56.15
356.326	52.05
356.538	93.01
356.749	37.72
356.961	64.34
357.172	25.43
357.384	21.33
357.595	170.83
357.807	33.62
358.018	58.2
358.23	62.29
358.441	103.25
358.653	95.06
358.864	74.58
359.075	66.39
359.287	45.91
359.498	76.63
359.709	70.48
359.921	25.43
360.132	74.58
360.344	39.76
360.555	78.68
360.766	78.68
360.977	21.33
361.189	64.34
361.4	37.72
361.611	90.96
361.823	70.48
362.034	47.96
362.245	-1.19
362.456	52.05
362.667	54.1
362.879	101.2
363.09	160.59
363.301	70.48
363.512	78.68
363.723	-42.15
363.935	41.81
364.146	45.91
364.357	13.14
364.568	115.54
364.779	-15.53
364.99	45.91
365.201	90.96
365.412	148.31
365.623	25.43
365.834	64.34
366.045	17.24
366.256	66.39
366.467	103.25
366.678	78.68
366.889	45.91
367.1	33.62
367.311	70.48
367.522	19.29
367.733	78.68
367.944	74.58
368.155	-7.34
368.366	66.39
368.577	103.25
368.788	58.2
368.999	62.29
369.209	19.29
369.42	84.82
369.631	103.25
369.842	127.83
370.053	119.64
370.264	121.68
370.474	29.52
370.685	115.54
370.896	58.2
371.107	62.29
371.317	41.81
371.528	15.19
371.739	90.96
371.95	74.58
372.16	183.12
372.371	-3.24
372.582	66.39
372.792	58.2
373.003	21.33
373.214	52.05
373.424	97.11
373.635	9.05
373.846	154.45
374.056	-23.72
374.267	76.63
374.477	123.73
374.688	52.05
374.898	54.1
375.109	9.05
375.319	72.53
375.53	64.34
375.74	66.39
375.951	-9.39
376.161	-9.39
376.372	133.97
376.582	80.72
376.793	31.57
377.003	43.86
377.214	58.2
377.424	62.29
377.635	70.48
377.845	86.87
378.055	82.77
378.266	25.43
378.476	95.06
378.686	31.57
378.897	72.53
379.107	123.73
379.317	136.02
379.528	21.33
379.738	82.77
379.948	62.29
380.158	119.64
380.369	66.39
380.579	115.54
380.789	54.1
380.999	84.82
381.21	113.49
381.42	123.73
381.63	86.87
381.84	66.39
382.05	131.92
382.261	41.81
382.471	121.68
382.681	105.3
382.891	78.68
383.101	7
383.311	39.76
383.521	78.68
383.731	41.81
383.941	123.73
384.151	74.58
384.361	76.63
384.571	86.87
384.781	115.54
384.991	125.78
385.201	129.88
385.411	60.24
385.621	115.54
385.831	121.68
386.041	90.96
386.251	125.78
386.461	101.2
386.671	181.07
386.881	107.35
387.091	43.86
387.301	133.97
387.511	43.86
387.72	113.49
387.93	123.73
388.14	54.1
388.35	66.39
388.56	144.21
388.769	76.63
388.979	-23.72
389.189	45.91
389.399	-1.19
389.609	90.96
389.818	181.07
390.028	115.54
390.238	123.73
390.447	86.87
390.657	127.83
390.867	80.72
391.076	125.78
391.286	80.72
391.496	56.15
391.705	125.78
391.915	37.72
392.125	68.44
392.334	150.36
392.544	121.68
392.753	4.95
392.963	84.82
393.172	107.35
393.382	119.64
393.591	140.12
393.801	66.39
394.01	109.4
394.22	86.87
394.429	152.4
394.639	74.58
394.848	115.54
395.058	125.78
395.267	131.92
395.477	95.06
395.686	197.46
395.895	185.17
396.105	95.06
396.314	74.58
396.524	101.2
396.733	86.87
396.942	158.55
397.152	113.49
397.361	176.98
397.57	226.13
397.78	103.25
397.989	168.79
398.198	160.59
398.407	185.17
398.617	166.74
398.826	72.53
399.035	84.82
399.244	103.25
399.453	103.25
399.663	152.4
399.872	154.45
400.081	158.55
400.29	152.4
400.499	113.49
400.708	136.02
400.917	76.63
401.127	164.69
401.336	189.27
401.545	219.99
401.754	152.4
401.963	213.84
402.172	125.78
402.381	189.27
402.59	189.27
402.799	115.54
403.008	213.84
403.217	168.79
403.426	144.21
403.635	183.12
403.844	160.59
404.053	131.92
404.262	185.17
404.471	209.75
404.68	168.79
404.888	191.31
405.097	162.64
405.306	183.12
405.515	222.03
405.724	293.71
405.933	201.55
406.142	240.47
406.35	254.8
406.559	201.55
406.768	275.28
406.977	265.04
407.185	226.13
407.394	205.65
407.603	156.5
407.812	222.03
408.02	252.75
408.229	269.14
408.438	303.95
408.646	207.7
408.855	324.43
409.064	320.34
409.272	308.05
409.481	275.28
409.69	344.91
409.898	328.53
410.107	353.1
410.315	346.96
410.524	389.97
410.733	420.69
410.941	383.82
411.15	445.26
411.358	447.31
411.567	547.66
411.775	432.97
411.984	422.73
412.192	473.93
412.401	510.8
412.609	600.91
412.818	602.96
413.026	566.09
413.234	629.58
413.443	668.49
413.651	596.81
413.86	615.24
414.068	721.74
414.276	768.84
414.485	701.26
414.693	783.18
414.901	828.23
415.11	963.4
415.318	885.58
415.526	910.15
415.734	961.35
415.943	926.54
416.151	1028.93
416.359	1045.32
416.567	994.12
416.776	1037.13
416.984	1147.72
417.192	1215.3
417.4	1252.16
417.608	1182.53
417.817	1276.74
418.025	1237.83
418.233	1383.23
418.441	1483.58
418.649	1436.48
418.857	1483.58
419.065	1467.2
419.273	1557.31
419.481	1518.4
419.689	1715
419.897	1815.35
420.105	1827.64
420.313	1868.6
420.521	1903.42
420.729	1975.1
420.937	2024.25
421.145	2026.29
421.353	2216.76
421.561	2329.39
421.769	2323.25
421.977	2493.23
422.185	2380.59
422.393	2685.74
422.601	2677.55
422.809	2736.94
423.017	2781.99
423.224	2900.78
423.432	2917.16
423.64	2904.87
423.848	3361.57
424.056	3093.29
424.263	3566.37
424.471	3336.99
424.679	3328.8
424.887	3590.94
425.094	3715.87
425.302	3889.95
425.51	3930.91
425.718	4186.9
425.925	4166.42
426.133	4283.16
426.341	4645.65
426.548	4743.95
426.756	4784.91
426.964	4789
427.171	5026.57
427.379	5298.95
427.586	5331.72
427.794	5579.52
428.001	5554.94
428.209	5647.1
428.417	5796.6
428.624	6378.23
428.832	6419.19
429.039	6202.1
429.247	6142.71
429.454	6873.84
429.662	7408.36
429.869	6875.88
430.076	7365.35
430.284	7049.96
430.491	7471.84
430.699	7869.15
430.906	7994.08
431.114	8024.79
431.321	8155.86
431.528	8403.67
431.736	8999.63
431.943	9370.31
432.15	9005.77
432.358	9327.3
432.565	9681.6
432.772	9652.93
432.979	10152.63
433.187	10324.66
433.394	10597.04
433.601	11152.04
433.808	11188.91
434.016	11080.36
434.223	11625.12
434.43	11940.51
434.637	12059.29
434.844	12984.98
435.052	13146.76
435.259	13015.69
435.466	13095.57
435.673	12692.12
435.88	13976.19
436.087	14498.42
436.294	14629.49
436.501	14373.5
436.708	14578.29
436.915	15020.66
437.122	15731.3
437.329	15589.99
437.537	15979.11
437.743	16378.46
437.95	16366.17
438.157	17427.02
438.364	17447.5
438.571	17646.15
438.778	17869.38
438.985	19493.42
439.192	18750.01
439.399	19274.29
439.606	18756.15
439.813	20005.41
440.02	21285.39
440.227	20791.83
440.433	20494.88
440.64	21277.2
440.847	21152.27
441.054	21537.29
441.261	23196.15
441.467	22852.09
441.674	23271.92
441.881	23779.82
442.088	24132.07
442.294	23921.13
442.501	24576.48
442.708	24836.57
442.914	25934.28
443.121	27007.42
443.328	26583.49
443.534	28123.56
443.741	27310.52
443.948	27089.34
444.154	29092.25
444.361	28957.08
444.568	29153.69
444.774	29106.59
444.981	29333.91
445.187	30241.16
445.394	31678.83
445.6	31009.15
445.807	34036.05
446.013	32498.02
446.22	33462.61
446.426	34490.7
446.633	34795.84
446.839	35871.03
447.046	34638.15
447.252	36219.18
447.459	36327.72
447.665	35834.16
447.871	37988.63
448.078	39166.21
448.284	37464.35
448.491	38560.01
448.697	39747.83
448.903	40517.87
449.11	40567.02
449.316	39586.04
449.522	40442.09
449.728	41480.41
449.935	42029.27
450.141	41910.49
450.347	43133.12
450.553	41453.79
450.76	41773.27
450.966	42975.43
451.172	42717.39
451.378	43854.01
451.584	42516.68
451.791	43665.6
451.997	43507.9
452.203	43940.02
452.409	43929.78
452.615	43569.34
452.821	42229.97
453.027	42006.74
453.233	43604.16
453.44	42189.01
453.646	42713.29
453.852	42580.17
454.058	43370.69
454.264	42205.39
454.47	42600.65
454.676	41861.33
454.882	43229.38
455.088	39403.77
455.294	39467.26
455.5	40343.79
455.705	40966.37
455.911	39067.91
456.117	38697.22
456.323	37730.58
456.529	35686.71
456.735	37179.68
456.941	36454.7
457.147	35494.2
457.352	34574.66
457.558	33749.33
457.764	34353.48
457.97	33528.15
458.176	32880.99
458.381	33018.21
458.587	31220.09
458.793	30994.81
458.999	29489.56
459.204	31662.45
459.41	30792.06
459.616	28850.59
459.821	28561.83
460.027	28760.48
460.233	27955.63
460.438	26608.06
460.644	26771.9
460.85	25614.8
461.055	25303.51
461.261	25162.2
461.466	23282.16
461.672	22555.13
461.878	24275.43
462.083	22632.96
462.289	22241.79
462.494	22131.2
462.7	21398.03
462.905	20810.26
463.111	21434.89
463.316	21297.68
463.522	20812.31
463.727	20826.65
463.932	20804.12
464.138	20826.65
464.343	20781.59
464.549	20048.42
464.754	20914.71
464.959	20486.68
465.165	20421.15
465.37	19730.98
465.575	19044.91
465.781	19659.31
465.986	19966.5
466.191	19067.44
466.397	18891.32
466.602	18137.66
466.807	18760.25
467.012	18733.62
467.218	18551.35
467.423	18485.82
467.628	18793.01
467.833	19366.45
