Data from USB4F104151__96__10-24-39-188.txt Node

Date: Wed Mar 12 10:24:39 EDT 2025
User: louis
Spectrometer: USB4F10415
Trigger mode: 4
Integration Time (sec): 3.000000E-2
Scans to average: 1
Electric dark correction enabled: true
Nonlinearity correction enabled: false
Boxcar width: 0
XAxis mode: Wavelengths
Number of Pixels in Spectrum: 3648
>>>>>Begin Spectral Data<<<<<
178.204	-82.77
178.424	-82.77
178.644	-82.77
178.864	-68.44
179.084	-76.63
179.304	1.19
179.524	-76.63
179.744	33.96
179.964	42.15
180.184	48.3
180.404	13.48
180.624	-2.9
180.844	-2.9
181.064	-13.14
181.283	-4.95
181.503	-31.57
181.723	-7
181.943	-33.62
182.163	91.31
182.383	-4.95
182.602	50.35
182.822	23.72
183.042	-2.9
183.262	50.35
183.482	-47.96
183.701	-31.57
183.921	25.77
184.141	-27.48
184.361	-31.57
184.58	74.92
184.8	-23.38
185.02	27.82
185.239	62.63
185.459	17.58
185.679	42.15
185.898	46.25
186.118	74.92
186.338	64.68
186.557	54.44
186.777	54.44
186.997	42.15
187.216	17.58
187.436	144.55
187.655	17.58
187.875	107.69
188.095	52.39
188.314	99.5
188.534	99.5
188.753	46.25
188.973	23.72
189.192	31.91
189.412	70.83
189.631	5.29
189.851	13.48
190.07	33.96
190.29	-39.76
190.509	74.92
190.729	19.63
190.948	7.34
191.168	144.55
191.387	27.82
191.607	85.16
191.826	105.64
192.045	17.58
192.265	3.24
192.484	83.11
192.704	42.15
192.923	46.25
193.142	76.97
193.362	3.24
193.581	48.3
193.8	62.63
194.02	103.59
194.239	27.82
194.458	64.68
194.678	-29.52
194.897	38.06
195.116	70.83
195.335	38.06
195.555	9.39
195.774	21.67
195.993	15.53
196.212	21.67
196.432	-29.52
196.651	-64.34
196.87	-25.43
197.089	111.78
197.308	38.06
197.528	13.48
197.747	3.24
197.966	64.68
198.185	68.78
198.404	-43.86
198.623	46.25
198.842	152.74
199.062	19.63
199.281	76.97
199.5	83.11
199.719	42.15
199.938	42.15
200.157	115.88
200.376	68.78
200.595	36.01
200.814	115.88
201.033	31.91
201.252	66.73
201.471	48.3
201.69	31.91
201.909	68.78
202.128	79.02
202.347	-17.24
202.566	21.67
202.785	68.78
203.004	13.48
203.223	115.88
203.442	83.11
203.661	36.01
203.879	52.39
204.098	122.02
204.317	9.39
204.536	11.43
204.755	17.58
204.974	74.92
205.193	29.87
205.411	156.84
205.63	70.83
205.849	7.34
206.068	25.77
206.287	-0.85
206.505	38.06
206.724	64.68
206.943	83.11
207.162	-2.9
207.381	15.53
207.599	-15.19
207.818	52.39
208.037	13.48
208.255	85.16
208.474	-7
208.693	52.39
208.911	-31.57
209.13	42.15
209.349	25.77
209.567	50.35
209.786	62.63
210.005	-4.95
210.223	93.35
210.442	-0.85
210.661	40.11
210.879	52.39
211.098	68.78
211.316	54.44
211.535	138.41
211.753	7.34
211.972	89.26
212.191	23.72
212.409	-0.85
212.628	74.92
212.846	-39.76
213.065	72.87
213.283	85.16
213.502	46.25
213.72	27.82
213.938	70.83
214.157	46.25
214.375	70.83
214.594	9.39
214.812	40.11
215.031	46.25
215.249	-33.62
215.467	5.29
215.686	-17.24
215.904	95.4
216.122	25.77
216.341	21.67
216.559	23.72
216.778	-29.52
216.996	9.39
217.214	40.11
217.432	89.26
217.651	58.54
217.869	3.24
218.087	66.73
218.306	-15.19
218.524	113.83
218.742	-0.85
218.96	42.15
219.179	15.53
219.397	-19.29
219.615	58.54
219.833	62.63
220.051	15.53
220.27	27.82
220.488	15.53
220.706	-13.14
220.924	21.67
221.142	31.91
221.36	66.73
221.578	58.54
221.796	21.67
222.015	42.15
222.233	89.26
222.451	46.25
222.669	70.83
222.887	91.31
223.105	-9.05
223.323	23.72
223.541	1.19
223.759	-13.14
223.977	-7
224.195	50.35
224.413	29.87
224.631	74.92
224.849	38.06
225.067	99.5
225.285	-31.57
225.503	-2.9
225.721	15.53
225.939	40.11
226.157	58.54
226.375	70.83
226.592	-11.09
226.81	29.87
227.028	33.96
227.246	89.26
227.464	42.15
227.682	42.15
227.9	109.74
228.117	-9.05
228.335	31.91
228.553	76.97
228.771	81.07
228.989	79.02
229.206	-47.96
229.424	105.64
229.642	-11.09
229.86	36.01
230.077	64.68
230.295	70.83
230.513	42.15
230.731	83.11
230.948	40.11
231.166	46.25
231.384	99.5
231.601	-37.72
231.819	13.48
232.037	79.02
232.254	19.63
232.472	103.59
232.689	70.83
232.907	103.59
233.125	23.72
233.342	74.92
233.56	-0.85
233.777	-7
233.995	62.63
234.213	50.35
234.43	-17.24
234.648	17.58
234.865	-50
235.083	74.92
235.3	-2.9
235.518	101.55
235.735	81.07
235.953	76.97
236.17	42.15
236.388	1.19
236.605	42.15
236.822	68.78
237.04	38.06
237.257	19.63
237.475	17.58
237.692	25.77
237.909	5.29
238.127	-11.09
238.344	-86.87
238.562	50.35
238.779	13.48
238.996	11.43
239.214	38.06
239.431	29.87
239.648	76.97
239.865	13.48
240.083	124.07
240.3	27.82
240.517	103.59
240.735	76.97
240.952	27.82
241.169	109.74
241.386	36.01
241.603	36.01
241.821	9.39
242.038	54.44
242.255	-39.76
242.472	99.5
242.689	33.96
242.907	58.54
243.124	70.83
243.341	66.73
243.558	17.58
243.775	95.4
243.992	-31.57
244.209	95.4
244.426	58.54
244.643	66.73
244.86	-2.9
245.078	56.49
245.295	101.55
245.512	58.54
245.729	-29.52
245.946	38.06
246.163	46.25
246.38	23.72
246.597	29.87
246.814	-15.19
247.031	68.78
247.248	54.44
247.464	74.92
247.681	87.21
247.898	105.64
248.115	17.58
248.332	29.87
248.549	33.96
248.766	17.58
248.983	74.92
249.2	48.3
249.417	132.26
249.633	107.69
249.85	115.88
250.067	-13.14
250.284	-17.24
250.501	132.26
250.717	66.73
250.934	-4.95
251.151	13.48
251.368	-17.24
251.585	113.83
251.801	62.63
252.018	-35.67
252.235	60.59
252.451	-0.85
252.668	7.34
252.885	87.21
253.102	50.35
253.318	17.58
253.535	23.72
253.752	1.19
253.968	42.15
254.185	101.55
254.401	89.26
254.618	44.2
254.835	50.35
255.051	74.92
255.268	23.72
255.484	7.34
255.701	62.63
255.917	-7
256.134	-37.72
256.351	132.26
256.567	42.15
256.784	-0.85
257	-41.81
257.217	60.59
257.433	83.11
257.65	21.67
257.866	62.63
258.082	62.63
258.299	-47.96
258.515	42.15
258.732	66.73
258.948	25.77
259.165	29.87
259.381	25.77
259.597	42.15
259.814	68.78
260.03	62.63
260.246	42.15
260.463	33.96
260.679	54.44
260.895	95.4
261.112	60.59
261.328	21.67
261.544	40.11
261.761	87.21
261.977	79.02
262.193	-19.29
262.409	74.92
262.626	-17.24
262.842	-23.38
263.058	25.77
263.274	33.96
263.49	76.97
263.707	38.06
263.923	91.31
264.139	-31.57
264.355	17.58
264.571	46.25
264.787	93.35
265.004	72.87
265.22	50.35
265.436	42.15
265.652	38.06
265.868	66.73
266.084	58.54
266.3	48.3
266.516	56.49
266.732	50.35
266.948	9.39
267.164	62.63
267.38	50.35
267.596	33.96
267.812	89.26
268.028	72.87
268.244	91.31
268.46	74.92
268.676	52.39
268.892	64.68
269.108	-29.52
269.324	33.96
269.54	-27.48
269.756	72.87
269.972	-0.85
270.188	40.11
270.403	36.01
270.619	44.2
270.835	50.35
271.051	74.92
271.267	-9.05
271.483	115.88
271.698	81.07
271.914	50.35
272.13	31.91
272.346	-11.09
272.562	25.77
272.777	54.44
272.993	38.06
273.209	62.63
273.425	48.3
273.64	7.34
273.856	29.87
274.072	50.35
274.287	70.83
274.503	3.24
274.719	89.26
274.934	72.87
275.15	5.29
275.366	17.58
275.581	33.96
275.797	5.29
276.012	54.44
276.228	50.35
276.444	29.87
276.659	70.83
276.875	29.87
277.09	42.15
277.306	-23.38
277.521	87.21
277.737	17.58
277.952	85.16
278.168	38.06
278.383	56.49
278.599	115.88
278.814	-27.48
279.03	-7
279.245	83.11
279.461	83.11
279.676	38.06
279.892	9.39
280.107	25.77
280.322	42.15
280.538	36.01
280.753	-23.38
280.969	58.54
281.184	66.73
281.399	99.5
281.615	5.29
281.83	42.15
282.045	72.87
282.26	1.19
282.476	62.63
282.691	103.59
282.906	40.11
283.122	15.53
283.337	-2.9
283.552	64.68
283.767	50.35
283.983	87.21
284.198	124.07
284.413	5.29
284.628	44.2
284.843	62.63
285.058	25.77
285.274	-23.38
285.489	-47.96
285.704	87.21
285.919	79.02
286.134	38.06
286.349	21.67
286.564	21.67
286.779	38.06
286.995	66.73
287.21	33.96
287.425	25.77
287.64	-43.86
287.855	62.63
288.07	-0.85
288.285	72.87
288.5	152.74
288.715	60.59
288.93	79.02
289.145	81.07
289.36	46.25
289.575	81.07
289.79	95.4
290.004	36.01
290.219	23.72
290.434	79.02
290.649	52.39
290.864	87.21
291.079	40.11
291.294	56.49
291.509	27.82
291.724	-0.85
291.938	27.82
292.153	27.82
292.368	-4.95
292.583	33.96
292.798	91.31
293.012	79.02
293.227	79.02
293.442	56.49
293.657	50.35
293.871	21.67
294.086	74.92
294.301	81.07
294.516	58.54
294.73	60.59
294.945	74.92
295.16	148.65
295.374	72.87
295.589	83.11
295.804	11.43
296.018	89.26
296.233	38.06
296.447	124.07
296.662	56.49
296.877	40.11
297.091	42.15
297.306	72.87
297.52	5.29
297.735	83.11
297.949	72.87
298.164	68.78
298.378	62.63
298.593	109.74
298.807	1.19
299.022	-4.95
299.236	15.53
299.451	48.3
299.665	99.5
299.88	5.29
300.094	17.58
300.309	79.02
300.523	17.58
300.737	-11.09
300.952	-33.62
301.166	117.93
301.381	-33.62
301.595	66.73
301.809	29.87
302.024	13.48
302.238	58.54
302.452	52.39
302.667	48.3
302.881	142.5
303.095	72.87
303.309	60.59
303.524	46.25
303.738	68.78
303.952	-7
304.166	68.78
304.381	3.24
304.595	103.59
304.809	-9.05
305.023	38.06
305.237	33.96
305.452	-17.24
305.666	1.19
305.88	40.11
306.094	72.87
306.308	81.07
306.522	48.3
306.736	-15.19
306.95	46.25
307.164	60.59
307.379	44.2
307.593	83.11
307.807	119.98
308.021	79.02
308.235	76.97
308.449	11.43
308.663	56.49
308.877	152.74
309.091	29.87
309.305	99.5
309.519	29.87
309.733	15.53
309.947	-41.81
310.161	29.87
310.374	87.21
310.588	50.35
310.802	-58.2
311.016	60.59
311.23	58.54
311.444	19.63
311.658	85.16
311.872	87.21
312.085	105.64
312.299	60.59
312.513	29.87
312.727	79.02
312.941	25.77
313.154	50.35
313.368	-0.85
313.582	91.31
313.796	101.55
314.009	48.3
314.223	33.96
314.437	91.31
314.651	74.92
314.864	-25.43
315.078	70.83
315.292	19.63
315.505	140.46
315.719	46.25
315.933	62.63
316.146	76.97
316.36	3.24
316.573	93.35
316.787	124.07
317.001	42.15
317.214	74.92
317.428	38.06
317.641	-31.57
317.855	7.34
318.068	-7
318.282	-0.85
318.495	95.4
318.709	21.67
318.922	74.92
319.136	40.11
319.349	83.11
319.563	21.67
319.776	23.72
319.99	1.19
320.203	128.17
320.417	101.55
320.63	70.83
320.843	136.36
321.057	7.34
321.27	89.26
321.483	83.11
321.697	101.55
321.91	19.63
322.124	38.06
322.337	89.26
322.55	50.35
322.763	36.01
322.977	25.77
323.19	42.15
323.403	-11.09
323.617	54.44
323.83	44.2
324.043	33.96
324.256	74.92
324.469	31.91
324.683	152.74
324.896	7.34
325.109	74.92
325.322	-29.52
325.535	54.44
325.748	50.35
325.962	7.34
326.175	38.06
326.388	115.88
326.601	140.46
326.814	103.59
327.027	-2.9
327.24	66.73
327.453	58.54
327.666	60.59
327.879	52.39
328.092	9.39
328.305	56.49
328.518	66.73
328.731	19.63
328.944	122.02
329.157	33.96
329.37	68.78
329.583	74.92
329.796	72.87
330.009	31.91
330.222	40.11
330.435	64.68
330.648	54.44
330.861	33.96
331.073	54.44
331.286	107.69
331.499	58.54
331.712	-4.95
331.925	119.98
332.138	29.87
332.35	87.21
332.563	11.43
332.776	44.2
332.989	46.25
333.202	-21.33
333.414	64.68
333.627	99.5
333.84	103.59
334.053	17.58
334.265	7.34
334.478	9.39
334.691	54.44
334.903	74.92
335.116	-54.1
335.329	62.63
335.541	38.06
335.754	54.44
335.966	-27.48
336.179	33.96
336.392	48.3
336.604	89.26
336.817	62.63
337.029	15.53
337.242	13.48
337.454	148.65
337.667	44.2
337.88	29.87
338.092	91.31
338.305	81.07
338.517	15.53
338.729	115.88
338.942	132.26
339.154	70.83
339.367	-0.85
339.579	89.26
339.792	-2.9
340.004	72.87
340.217	46.25
340.429	79.02
340.641	40.11
340.854	-2.9
341.066	62.63
341.278	-11.09
341.491	124.07
341.703	5.29
341.915	44.2
342.128	19.63
342.34	27.82
342.552	105.64
342.764	50.35
342.977	54.44
343.189	42.15
343.401	70.83
343.613	31.91
343.826	101.55
344.038	9.39
344.25	79.02
344.462	66.73
344.674	62.63
344.886	5.29
345.099	113.83
345.311	3.24
345.523	5.29
345.735	-47.96
345.947	62.63
346.159	87.21
346.371	36.01
346.583	11.43
346.795	113.83
347.007	70.83
347.219	81.07
347.431	25.77
347.643	79.02
347.855	29.87
348.067	23.72
348.279	70.83
348.491	25.77
348.703	27.82
348.915	87.21
349.127	33.96
349.339	72.87
349.551	17.58
349.763	54.44
349.975	115.88
350.187	58.54
350.399	58.54
350.61	93.35
350.822	31.91
351.034	68.78
351.246	68.78
351.458	13.48
351.669	115.88
351.881	76.97
352.093	103.59
352.305	50.35
352.517	83.11
352.728	95.4
352.94	74.92
353.152	156.84
353.363	97.45
353.575	40.11
353.787	138.41
353.999	81.07
354.21	109.74
354.422	23.72
354.633	13.48
354.845	103.59
355.057	64.68
355.268	99.5
355.48	66.73
355.692	29.87
355.903	42.15
356.115	9.39
356.326	31.91
356.538	148.65
356.749	74.92
356.961	93.35
357.172	48.3
357.384	21.67
357.595	74.92
357.807	25.77
358.018	101.55
358.23	23.72
358.441	62.63
358.653	-4.95
358.864	38.06
359.075	25.77
359.287	46.25
359.498	48.3
359.709	111.78
359.921	56.49
360.132	54.44
360.344	95.4
360.555	31.91
360.766	111.78
360.977	-15.19
361.189	25.77
361.4	44.2
361.611	103.59
361.823	62.63
362.034	83.11
362.245	29.87
362.456	85.16
362.667	89.26
362.879	138.41
363.09	70.83
363.301	48.3
363.512	38.06
363.723	36.01
363.935	113.83
364.146	91.31
364.357	107.69
364.568	72.87
364.779	9.39
364.99	89.26
365.201	17.58
365.412	101.55
365.623	62.63
365.834	117.93
366.045	42.15
366.256	56.49
366.467	33.96
366.678	46.25
366.889	66.73
367.1	62.63
367.311	17.58
367.522	17.58
367.733	91.31
367.944	42.15
368.155	50.35
368.366	25.77
368.577	74.92
368.788	126.12
368.999	17.58
369.209	38.06
369.42	50.35
369.631	97.45
369.842	46.25
370.053	23.72
370.264	181.42
370.474	76.97
370.685	54.44
370.896	64.68
371.107	74.92
371.317	74.92
371.528	5.29
371.739	42.15
371.95	95.4
372.16	66.73
372.371	31.91
372.582	72.87
372.792	79.02
373.003	17.58
373.214	17.58
373.424	42.15
373.635	-23.38
373.846	81.07
374.056	15.53
374.267	50.35
374.477	132.26
374.688	7.34
374.898	87.21
375.109	-0.85
375.319	-37.72
375.53	87.21
375.74	58.54
375.951	44.2
376.161	62.63
376.372	52.39
376.582	50.35
376.793	70.83
377.003	124.07
377.214	56.49
377.424	-39.76
377.635	36.01
377.845	46.25
378.055	1.19
378.266	23.72
378.476	124.07
378.686	56.49
378.897	70.83
379.107	107.69
379.317	70.83
379.528	72.87
379.738	91.31
379.948	17.58
380.158	70.83
380.369	76.97
380.579	93.35
380.789	1.19
380.999	130.22
381.21	46.25
381.42	70.83
381.63	42.15
381.84	89.26
382.05	62.63
382.261	113.83
382.471	76.97
382.681	85.16
382.891	31.91
383.101	103.59
383.311	70.83
383.521	119.98
383.731	95.4
383.941	66.73
384.151	36.01
384.361	79.02
384.571	60.59
384.781	52.39
384.991	42.15
385.201	134.31
385.411	93.35
385.621	64.68
385.831	1.19
386.041	74.92
386.251	79.02
386.461	66.73
386.671	50.35
386.881	79.02
387.091	58.54
387.301	113.83
387.511	21.67
387.72	101.55
387.93	58.54
388.14	-7
388.35	72.87
388.56	66.73
388.769	99.5
388.979	74.92
389.189	81.07
389.399	85.16
389.609	83.11
389.818	48.3
390.028	115.88
390.238	19.63
390.447	91.31
390.657	93.35
390.867	97.45
391.076	62.63
391.286	38.06
391.496	29.87
391.705	23.72
391.915	99.5
392.125	148.65
392.334	42.15
392.544	130.22
392.753	99.5
392.963	66.73
393.172	175.27
393.382	103.59
393.591	175.27
393.801	105.64
394.01	154.79
394.22	124.07
394.429	101.55
394.639	74.92
394.848	132.26
395.058	25.77
395.267	103.59
395.477	144.55
395.686	91.31
395.895	58.54
396.105	107.69
396.314	181.42
396.524	66.73
396.733	62.63
396.942	54.44
397.152	99.5
397.361	134.31
397.57	79.02
397.78	162.98
397.989	91.31
398.198	103.59
398.407	66.73
398.617	70.83
398.826	87.21
399.035	132.26
399.244	140.46
399.453	134.31
399.663	152.74
399.872	128.17
400.081	74.92
400.29	124.07
400.499	54.44
400.708	150.7
400.917	83.11
401.127	132.26
401.336	70.83
401.545	171.18
401.754	181.42
401.963	140.46
402.172	144.55
402.381	97.45
402.59	140.46
402.799	150.7
403.008	171.18
403.217	212.14
403.426	185.51
403.635	79.02
403.844	181.42
404.053	144.55
404.262	177.32
404.471	199.85
404.68	160.94
404.888	142.5
405.097	165.03
405.306	136.36
405.515	208.04
405.724	105.64
405.933	197.8
406.142	203.94
406.35	279.72
406.559	257.19
406.768	173.22
406.977	275.62
407.185	244.9
407.394	189.61
407.603	222.38
407.812	261.29
408.02	222.38
408.229	271.53
408.438	242.85
408.646	257.19
408.855	304.29
409.064	275.62
409.272	251.05
409.481	304.29
409.69	326.82
409.898	351.4
410.107	337.06
410.315	357.54
410.524	351.4
410.733	353.45
410.941	355.49
411.15	367.78
411.358	437.41
411.567	449.7
411.775	410.79
411.984	496.8
412.192	511.14
412.401	421.03
412.609	543.91
412.818	611.49
413.026	459.94
413.234	504.99
413.443	537.76
413.651	550.05
413.86	545.95
414.068	658.59
414.276	642.21
414.485	588.96
414.693	695.46
414.901	740.51
415.11	744.61
415.318	709.79
415.526	742.56
415.734	830.62
415.943	783.52
416.151	758.94
416.359	861.34
416.567	801.95
416.776	978.08
416.984	945.31
417.192	1049.75
417.4	1053.85
417.608	1072.28
417.817	969.88
418.025	1121.43
418.233	1211.54
418.441	1279.13
418.649	1223.83
418.857	1279.13
419.065	1375.38
419.273	1399.96
419.481	1455.25
419.689	1442.96
419.897	1539.22
420.105	1569.94
420.313	1602.71
420.521	1635.47
420.729	1793.17
420.937	1766.54
421.145	1729.68
421.353	1825.93
421.561	2032.78
421.769	1950.86
421.977	2213
422.185	2040.97
422.393	2210.95
422.601	2315.4
422.809	2323.59
423.017	2407.56
423.224	2446.47
423.432	2483.33
423.64	2569.35
423.848	2845.82
424.056	2743.42
424.263	2862.21
424.471	2876.54
424.679	3040.38
424.887	3179.64
425.094	3187.83
425.302	3218.55
425.51	3318.9
425.718	3441.78
425.925	3568.76
426.133	3589.24
426.341	3818.61
426.548	4095.08
426.756	4039.79
426.964	4093.04
427.171	4240.49
427.379	4426.86
427.586	4533.35
427.794	4590.69
428.001	4693.09
428.209	5071.97
428.417	4858.98
428.624	5266.52
428.832	5225.56
429.039	5192.8
429.247	5313.63
429.454	5635.16
429.662	6095.95
429.869	5676.12
430.076	6216.78
430.284	5928.02
430.491	6165.58
430.699	6587.46
430.906	6605.89
431.114	6673.48
431.321	6753.35
431.528	7146.56
431.736	7265.34
431.943	7836.72
432.15	7631.93
432.358	7756.85
432.565	8082.48
432.772	8164.4
432.979	8502.31
433.187	8696.87
433.394	8528.94
433.601	9284.64
433.808	9266.21
434.016	9255.97
434.223	9751.57
434.43	10112.02
434.637	9968.66
434.844	10566.67
435.052	11004.93
435.259	10771.46
435.466	10990.59
435.673	10611.72
435.88	11201.54
436.087	11885.56
436.294	11891.7
436.501	11899.89
436.708	12116.98
436.915	12395.5
437.122	12741.61
437.329	12897.25
437.537	13245.41
437.743	13364.19
437.95	13343.71
438.157	13949.91
438.364	14560.2
438.571	14244.82
438.778	14558.16
438.985	16122.8
439.192	15356.86
439.399	15659.96
439.606	15539.13
439.813	16339.89
440.02	17435.55
440.227	16950.18
440.433	16483.25
440.64	17453.98
440.847	17241
441.054	17845.15
441.261	18494.35
441.467	18791.31
441.674	19217.29
441.881	19667.84
442.088	19590.02
442.294	19383.17
442.501	19952.51
442.708	20263.8
442.914	21334.89
443.121	22279
443.328	21365.6
443.534	23022.41
443.741	22496.08
443.948	22055.77
444.154	23851.84
444.361	23454.53
444.568	23362.37
444.774	23632.71
444.981	23798.59
445.187	24437.56
445.394	25940.77
445.6	25168.68
445.807	27974.4
446.013	26395.42
446.22	26966.8
446.426	27828.99
446.633	27945.73
446.839	29338.35
447.046	27693.83
447.252	29217.52
447.459	29354.73
447.665	28871.41
447.871	30866.13
448.078	31982.27
448.284	30481.11
448.491	31156.94
448.697	32285.37
448.903	33000.12
449.11	32955.06
449.316	32336.57
449.522	32842.42
449.728	33479.34
449.935	34005.67
450.141	33751.72
450.347	34876.05
450.553	33295.02
450.76	33995.43
450.966	35072.66
451.172	34914.97
451.378	35576.46
451.584	35064.47
451.791	35705.48
451.997	35306.13
452.203	36057.73
452.409	35998.34
452.615	35961.48
452.821	34456.22
453.027	33919.65
453.233	35646.09
453.44	34411.17
453.646	34642.59
453.852	34892.44
454.058	35539.6
454.264	34118.31
454.47	34710.17
454.676	33864.36
454.882	35314.32
455.088	32037.57
455.294	32584.38
455.5	33155.76
455.705	33290.93
455.911	31767.24
456.117	31290.06
456.323	30913.23
456.529	29561.58
456.735	30579.42
456.941	29813.48
457.147	29002.48
457.352	28347.13
457.558	27843.33
457.764	27857.67
457.97	27380.49
458.176	26817.3
458.381	26985.23
458.587	25609
458.793	25512.74
458.999	24380.21
459.204	25912.1
459.41	24863.54
459.616	24054.59
459.821	23532.36
460.027	23462.72
460.233	23044.94
460.438	21844.83
460.644	22272.85
460.85	21128.04
461.055	20921.2
461.261	20718.45
461.466	19270.53
461.672	18650
461.878	20046.71
462.083	18740.11
462.289	18334.61
462.494	18123.67
462.7	17255.33
462.905	16911.27
463.111	17824.67
463.316	17296.29
463.522	17238.95
463.727	17171.36
463.932	17249.19
464.138	17009.58
464.343	16946.09
464.549	16599.98
464.754	17077.16
464.959	16976.81
465.165	16872.36
465.37	16434.1
465.575	15856.57
465.781	16303.03
465.986	16581.55
466.191	15748.03
466.397	15461.31
466.602	14838.73
466.807	15602.62
467.012	15401.92
467.218	15266.75
467.423	15193.03
