Data from USB4F104151__159__10-27-09-861.txt Node

Date: Wed Mar 12 10:27:09 EDT 2025
User: louis
Spectrometer: USB4F10415
Trigger mode: 4
Integration Time (sec): 3.000000E-2
Scans to average: 1
Electric dark correction enabled: true
Nonlinearity correction enabled: false
Boxcar width: 0
XAxis mode: Wavelengths
Number of Pixels in Spectrum: 3648
>>>>>Begin Spectral Data<<<<<
178.204	-187.9
178.424	-187.9
178.644	-187.9
178.864	-114.17
179.084	-99.84
179.304	-5.63
179.524	31.23
179.744	0.51
179.964	25.09
180.184	-69.12
180.404	-15.87
180.624	8.7
180.844	33.28
181.064	-42.5
181.283	0.51
181.503	20.99
181.723	12.8
181.943	-5.63
182.163	-26.11
182.383	12.8
182.602	-65.02
182.822	82.43
183.042	20.99
183.262	-26.11
183.482	-95.74
183.701	-48.64
183.921	4.61
184.141	-17.92
184.361	57.86
184.58	-11.78
184.8	2.56
185.02	-34.3
185.239	70.14
185.459	37.38
185.679	14.85
185.898	-48.64
186.118	-40.45
186.338	39.42
186.557	-9.73
186.777	35.33
186.997	-3.58
187.216	-28.16
187.436	4.61
187.655	33.28
187.875	68.09
188.095	4.61
188.314	-38.4
188.534	27.14
188.753	57.86
188.973	104.96
189.192	74.24
189.412	61.95
189.631	18.94
189.851	23.04
190.07	78.33
190.29	-13.82
190.509	-7.68
190.729	-36.35
190.948	6.66
191.168	84.48
191.387	-3.58
191.607	2.56
191.826	-17.92
192.045	-81.41
192.265	49.66
192.484	-65.02
192.704	49.66
192.923	-13.82
193.142	8.7
193.362	27.14
193.581	70.14
193.8	-15.87
194.02	20.99
194.239	12.8
194.458	-3.58
194.678	-11.78
194.897	-42.5
195.116	-3.58
195.335	49.66
195.555	57.86
195.774	-3.58
195.993	-56.83
196.212	14.85
196.432	29.18
196.651	-5.63
196.87	14.85
197.089	78.33
197.308	25.09
197.528	25.09
197.747	-65.02
197.966	39.42
198.185	113.15
198.404	4.61
198.623	14.85
198.842	111.1
199.062	43.52
199.281	45.57
199.5	27.14
199.719	45.57
199.938	47.62
200.157	33.28
200.376	-26.11
200.595	-34.3
200.814	100.86
201.033	-40.45
201.252	4.61
201.471	64
201.69	72.19
201.909	-1.54
202.128	107.01
202.347	66.05
202.566	-46.59
202.785	-17.92
203.004	-3.58
203.223	74.24
203.442	-28.16
203.661	-13.82
203.879	-75.26
204.098	29.18
204.317	0.51
204.536	121.34
204.755	25.09
204.974	35.33
205.193	47.62
205.411	10.75
205.63	53.76
205.849	-9.73
206.068	-7.68
206.287	18.94
206.505	37.38
206.724	14.85
206.943	-44.54
207.162	31.23
207.381	-13.82
207.599	49.66
207.818	53.76
208.037	-3.58
208.255	-28.16
208.474	74.24
208.693	25.09
208.911	-9.73
209.13	-44.54
209.349	-15.87
209.567	8.7
209.786	20.99
210.005	2.56
210.223	39.42
210.442	-46.59
210.661	41.47
210.879	16.9
211.098	16.9
211.316	-1.54
211.535	47.62
211.753	100.86
211.972	-30.21
212.191	18.94
212.409	49.66
212.628	-24.06
212.846	18.94
213.065	35.33
213.283	70.14
213.502	-24.06
213.72	92.67
213.938	68.09
214.157	68.09
214.375	2.56
214.594	-40.45
214.812	4.61
215.031	23.04
215.249	-54.78
215.467	-13.82
215.686	-9.73
215.904	66.05
216.122	27.14
216.341	55.81
216.559	-28.16
216.778	-13.82
216.996	70.14
217.214	25.09
217.432	-3.58
217.651	-46.59
217.869	-15.87
218.087	-19.97
218.306	-32.26
218.524	-22.02
218.742	-65.02
218.96	8.7
219.179	10.75
219.397	37.38
219.615	72.19
219.833	90.62
220.051	20.99
220.27	-5.63
220.488	47.62
220.706	45.57
220.924	16.9
221.142	-11.78
221.36	2.56
221.578	104.96
221.796	-28.16
222.015	-26.11
222.233	53.76
222.451	-19.97
222.669	0.51
222.887	33.28
223.105	-28.16
223.323	31.23
223.541	-15.87
223.759	-5.63
223.977	10.75
224.195	61.95
224.413	31.23
224.631	10.75
224.849	10.75
225.067	107.01
225.285	-5.63
225.503	39.42
225.721	-38.4
225.939	-26.11
226.157	70.14
226.375	35.33
226.592	-34.3
226.81	-46.59
227.028	61.95
227.246	64
227.464	20.99
227.682	94.72
227.9	86.53
228.117	2.56
228.335	-22.02
228.553	78.33
228.771	6.66
228.989	45.57
229.206	18.94
229.424	-24.06
229.642	78.33
229.86	-28.16
230.077	12.8
230.295	18.94
230.513	10.75
230.731	14.85
230.948	0.51
231.166	49.66
231.384	-22.02
231.601	-77.31
231.819	57.86
232.037	4.61
232.254	-15.87
232.472	-15.87
232.689	-26.11
232.907	53.76
233.125	18.94
233.342	-36.35
233.56	14.85
233.777	-17.92
233.995	-3.58
234.213	25.09
234.43	0.51
234.648	8.7
234.865	29.18
235.083	-1.54
235.3	-30.21
235.518	43.52
235.735	72.19
235.953	39.42
236.17	18.94
236.388	16.9
236.605	-62.98
236.822	12.8
237.04	31.23
237.257	-11.78
237.475	43.52
237.692	-9.73
237.909	8.7
238.127	-60.93
238.344	70.14
238.562	-28.16
238.779	10.75
238.996	-40.45
239.214	47.62
239.431	64
239.648	-17.92
239.865	31.23
240.083	18.94
240.3	31.23
240.517	-7.68
240.735	0.51
240.952	16.9
241.169	45.57
241.386	-15.87
241.603	-17.92
241.821	-36.35
242.038	51.71
242.255	39.42
242.472	-65.02
242.689	66.05
242.907	10.75
243.124	-26.11
243.341	20.99
243.558	8.7
243.775	33.28
243.992	18.94
244.209	74.24
244.426	51.71
244.643	45.57
244.86	-13.82
245.078	68.09
245.295	80.38
245.512	47.62
245.729	14.85
245.946	66.05
246.163	61.95
246.38	-28.16
246.597	20.99
246.814	35.33
247.031	12.8
247.248	-3.58
247.464	-32.26
247.681	37.38
247.898	-7.68
248.115	92.67
248.332	-13.82
248.549	41.47
248.766	43.52
248.983	47.62
249.2	43.52
249.417	82.43
249.633	72.19
249.85	53.76
250.067	-46.59
250.284	10.75
250.501	45.57
250.717	37.38
250.934	53.76
251.151	29.18
251.368	88.57
251.585	-15.87
251.801	16.9
252.018	-56.83
252.235	0.51
252.451	-3.58
252.668	-13.82
252.885	10.75
253.102	-34.3
253.318	-3.58
253.535	-73.21
253.752	27.14
253.968	-1.54
254.185	16.9
254.401	0.51
254.618	25.09
254.835	-44.54
255.051	119.29
255.268	18.94
255.484	45.57
255.701	0.51
255.917	70.14
256.134	8.7
256.351	-19.97
256.567	43.52
256.784	70.14
257	-60.93
257.217	49.66
257.433	-3.58
257.65	41.47
257.866	8.7
258.082	-1.54
258.299	20.99
258.515	-34.3
258.732	-36.35
258.948	35.33
259.165	68.09
259.381	4.61
259.597	43.52
259.814	-42.5
260.03	20.99
260.246	-19.97
260.463	66.05
260.679	-5.63
260.895	29.18
261.112	82.43
261.328	51.71
261.544	-11.78
261.761	35.33
261.977	33.28
262.193	10.75
262.409	55.81
262.626	-17.92
262.842	39.42
263.058	-17.92
263.274	53.76
263.49	-40.45
263.707	102.91
263.923	86.53
264.139	25.09
264.355	10.75
264.571	23.04
264.787	33.28
265.004	78.33
265.22	8.7
265.436	47.62
265.652	6.66
265.868	23.04
266.084	-19.97
266.3	37.38
266.516	-28.16
266.732	-11.78
266.948	33.28
267.164	39.42
267.38	-44.54
267.596	59.9
267.812	45.57
268.028	-13.82
268.244	-67.07
268.46	-30.21
268.676	27.14
268.892	20.99
269.108	18.94
269.324	33.28
269.54	-9.73
269.756	-44.54
269.972	-56.83
270.188	-40.45
270.403	-3.58
270.619	49.66
270.835	49.66
271.051	-3.58
271.267	-69.12
271.483	2.56
271.698	57.86
271.914	59.9
272.13	-46.59
272.346	-13.82
272.562	27.14
272.777	-11.78
272.993	37.38
273.209	61.95
273.425	16.9
273.64	39.42
273.856	33.28
274.072	20.99
274.287	-28.16
274.503	-5.63
274.719	6.66
274.934	61.95
275.15	-3.58
275.366	41.47
275.581	-15.87
275.797	20.99
276.012	0.51
276.228	43.52
276.444	2.56
276.659	49.66
276.875	-22.02
277.09	0.51
277.306	16.9
277.521	35.33
277.737	0.51
277.952	0.51
278.168	51.71
278.383	72.19
278.599	4.61
278.814	43.52
279.03	-50.69
279.245	90.62
279.461	-7.68
279.676	59.9
279.892	-7.68
280.107	8.7
280.322	-60.93
280.538	-48.64
280.753	-24.06
280.969	82.43
281.184	4.61
281.399	2.56
281.615	0.51
281.83	70.14
282.045	-19.97
282.26	61.95
282.476	35.33
282.691	0.51
282.906	23.04
283.122	31.23
283.337	-7.68
283.552	25.09
283.767	-30.21
283.983	-13.82
284.198	-3.58
284.413	18.94
284.628	-50.69
284.843	80.38
285.058	33.28
285.274	29.18
285.489	4.61
285.704	51.71
285.919	4.61
286.134	84.48
286.349	6.66
286.564	-13.82
286.779	-32.26
286.995	10.75
287.21	-36.35
287.425	23.04
287.64	-40.45
287.855	29.18
288.07	23.04
288.285	-3.58
288.5	-52.74
288.715	45.57
288.93	-15.87
289.145	2.56
289.36	41.47
289.575	88.57
289.79	92.67
290.004	4.61
290.219	43.52
290.434	-48.64
290.649	4.61
290.864	-15.87
291.079	55.81
291.294	57.86
291.509	14.85
291.724	70.14
291.938	8.7
292.153	12.8
292.368	-60.93
292.583	53.76
292.798	25.09
293.012	10.75
293.227	-46.59
293.442	37.38
293.657	25.09
293.871	-1.54
294.086	-3.58
294.301	25.09
294.516	64
294.73	43.52
294.945	-79.36
295.16	25.09
295.374	18.94
295.589	49.66
295.804	31.23
296.018	4.61
296.233	45.57
296.447	27.14
296.662	-13.82
296.877	-7.68
297.091	-60.93
297.306	61.95
297.52	20.99
297.735	18.94
297.949	25.09
298.164	-9.73
298.378	45.57
298.593	14.85
298.807	-26.11
299.022	39.42
299.236	80.38
299.451	27.14
299.665	-26.11
299.88	8.7
300.094	0.51
300.309	66.05
300.523	6.66
300.737	-5.63
300.952	-28.16
301.166	16.9
301.381	-65.02
301.595	0.51
301.809	74.24
302.024	0.51
302.238	-22.02
302.452	109.05
302.667	23.04
302.881	49.66
303.095	-19.97
303.309	-1.54
303.524	-19.97
303.738	-9.73
303.952	6.66
304.166	84.48
304.381	4.61
304.595	47.62
304.809	0.51
305.023	-17.92
305.237	4.61
305.452	57.86
305.666	86.53
305.88	-26.11
306.094	-73.21
306.308	53.76
306.522	-11.78
306.736	49.66
306.95	-7.68
307.164	57.86
307.379	-7.68
307.593	86.53
307.807	76.29
308.021	31.23
308.235	12.8
308.449	-15.87
308.663	53.76
308.877	53.76
309.091	18.94
309.305	45.57
309.519	-22.02
309.733	84.48
309.947	-32.26
310.161	12.8
310.374	23.04
310.588	98.81
310.802	-22.02
311.016	-28.16
311.23	74.24
311.444	6.66
311.658	61.95
311.872	-17.92
312.085	-11.78
312.299	10.75
312.513	35.33
312.727	94.72
312.941	-44.54
313.154	74.24
313.368	10.75
313.582	102.91
313.796	76.29
314.009	-56.83
314.223	49.66
314.437	45.57
314.651	2.56
314.864	4.61
315.078	25.09
315.292	37.38
315.505	-34.3
315.719	31.23
315.933	100.86
316.146	33.28
316.36	-73.21
316.573	64
316.787	33.28
317.001	61.95
317.214	-22.02
317.428	6.66
317.641	23.04
317.855	-19.97
318.068	74.24
318.282	29.18
318.495	57.86
318.709	8.7
318.922	25.09
319.136	61.95
319.349	78.33
319.563	102.91
319.776	20.99
319.99	-40.45
320.203	74.24
320.417	61.95
320.63	45.57
320.843	70.14
321.057	18.94
321.27	-26.11
321.483	33.28
321.697	49.66
321.91	61.95
322.124	-13.82
322.337	51.71
322.55	35.33
322.763	-1.54
322.977	33.28
323.19	-28.16
323.403	-13.82
323.617	14.85
323.83	-15.87
324.043	-54.78
324.256	82.43
324.469	-30.21
324.683	-34.3
324.896	-17.92
325.109	23.04
325.322	0.51
325.535	20.99
325.748	0.51
325.962	2.56
326.175	59.9
326.388	78.33
326.601	10.75
326.814	41.47
327.027	45.57
327.24	33.28
327.453	-54.78
327.666	49.66
327.879	127.49
328.092	80.38
328.305	29.18
328.518	-81.41
328.731	16.9
328.944	35.33
329.157	55.81
329.37	2.56
329.583	14.85
329.796	86.53
330.009	-42.5
330.222	12.8
330.435	66.05
330.648	43.52
330.861	8.7
331.073	16.9
331.286	51.71
331.499	37.38
331.712	12.8
331.925	18.94
332.138	35.33
332.35	-13.82
332.563	-48.64
332.776	-5.63
332.989	37.38
333.202	-1.54
333.414	8.7
333.627	53.76
333.84	8.7
334.053	-1.54
334.265	2.56
334.478	10.75
334.691	41.47
334.903	27.14
335.116	-48.64
335.329	31.23
335.541	20.99
335.754	53.76
335.966	-17.92
336.179	86.53
336.392	-38.4
336.604	-11.78
336.817	76.29
337.029	-30.21
337.242	6.66
337.454	35.33
337.667	57.86
337.88	53.76
338.092	20.99
338.305	0.51
338.517	57.86
338.729	57.86
338.942	-3.58
339.154	-11.78
339.367	18.94
339.579	25.09
339.792	29.18
340.004	84.48
340.217	-71.17
340.429	39.42
340.641	-15.87
340.854	23.04
341.066	39.42
341.278	80.38
341.491	2.56
341.703	61.95
341.915	12.8
342.128	37.38
342.34	109.05
342.552	41.47
342.764	0.51
342.977	84.48
343.189	20.99
343.401	45.57
343.613	74.24
343.826	86.53
344.038	-69.12
344.25	90.62
344.462	31.23
344.674	61.95
344.886	4.61
345.099	57.86
345.311	70.14
345.523	-42.5
345.735	29.18
345.947	4.61
346.159	29.18
346.371	-9.73
346.583	76.29
346.795	53.76
347.007	-67.07
347.219	84.48
347.431	64
347.643	12.8
347.855	-22.02
348.067	147.97
348.279	-67.07
348.491	39.42
348.703	-34.3
348.915	12.8
349.127	35.33
349.339	25.09
349.551	51.71
349.763	66.05
349.975	-9.73
350.187	43.52
350.399	61.95
350.61	-11.78
350.822	-22.02
351.034	37.38
351.246	35.33
351.458	61.95
351.669	8.7
351.881	2.56
352.093	33.28
352.305	51.71
352.517	29.18
352.728	37.38
352.94	27.14
353.152	-19.97
353.363	4.61
353.575	88.57
353.787	74.24
353.999	14.85
354.21	55.81
354.422	-1.54
354.633	-3.58
354.845	64
355.057	76.29
355.268	16.9
355.48	29.18
355.692	41.47
355.903	10.75
356.115	-5.63
356.326	27.14
356.538	107.01
356.749	-17.92
356.961	68.09
357.172	37.38
357.384	33.28
357.595	94.72
357.807	55.81
358.018	64
358.23	-19.97
358.441	88.57
358.653	55.81
358.864	39.42
359.075	-17.92
359.287	16.9
359.498	94.72
359.709	41.47
359.921	8.7
360.132	-15.87
360.344	57.86
360.555	78.33
360.766	123.39
360.977	-46.59
361.189	61.95
361.4	20.99
361.611	8.7
361.823	12.8
362.034	45.57
362.245	8.7
362.456	70.14
362.667	16.9
362.879	10.75
363.09	20.99
363.301	4.61
363.512	20.99
363.723	12.8
363.935	59.9
364.146	139.77
364.357	76.29
364.568	18.94
364.779	0.51
364.99	92.67
365.201	88.57
365.412	20.99
365.623	-22.02
365.834	64
366.045	14.85
366.256	47.62
366.467	74.24
366.678	-13.82
366.889	35.33
367.1	115.2
367.311	43.52
367.522	25.09
367.733	0.51
367.944	74.24
368.155	84.48
368.366	86.53
368.577	102.91
368.788	72.19
368.999	29.18
369.209	41.47
369.42	129.53
369.631	16.9
369.842	20.99
370.053	66.05
370.264	45.57
370.474	-26.11
370.685	78.33
370.896	55.81
371.107	131.58
371.317	4.61
371.528	-40.45
371.739	29.18
371.95	8.7
372.16	-3.58
372.371	-3.58
372.582	35.33
372.792	74.24
373.003	82.43
373.214	66.05
373.424	16.9
373.635	45.57
373.846	23.04
374.056	51.71
374.267	47.62
374.477	-32.26
374.688	27.14
374.898	12.8
375.109	12.8
375.319	-79.36
375.53	51.71
375.74	59.9
375.951	14.85
376.161	41.47
376.372	74.24
376.582	-40.45
376.793	0.51
377.003	14.85
377.214	-38.4
377.424	10.75
377.635	61.95
377.845	27.14
378.055	94.72
378.266	31.23
378.476	86.53
378.686	-9.73
378.897	57.86
379.107	31.23
379.317	29.18
379.528	74.24
379.738	29.18
379.948	4.61
380.158	41.47
380.369	12.8
380.579	90.62
380.789	33.28
380.999	80.38
381.21	49.66
381.42	109.05
381.63	8.7
381.84	-36.35
382.05	-15.87
382.261	102.91
382.471	53.76
382.681	6.66
382.891	59.9
383.101	53.76
383.311	25.09
383.521	64
383.731	115.2
383.941	96.77
384.151	74.24
384.361	-28.16
384.571	8.7
384.781	92.67
384.991	51.71
385.201	72.19
385.411	66.05
385.621	25.09
385.831	-30.21
386.041	41.47
386.251	45.57
386.461	57.86
386.671	20.99
386.881	68.09
387.091	33.28
387.301	88.57
387.511	51.71
387.72	98.81
387.93	53.76
388.14	61.95
388.35	33.28
388.56	100.86
388.769	90.62
388.979	-28.16
389.189	10.75
389.399	98.81
389.609	82.43
389.818	57.86
390.028	70.14
390.238	119.29
390.447	59.9
390.657	27.14
390.867	37.38
391.076	92.67
391.286	20.99
391.496	39.42
391.705	29.18
391.915	76.29
392.125	141.82
392.334	107.01
392.544	135.68
392.753	86.53
392.963	29.18
393.172	66.05
393.382	14.85
393.591	20.99
393.801	37.38
394.01	150.01
394.22	53.76
394.429	27.14
394.639	12.8
394.848	121.34
395.058	123.39
395.267	35.33
395.477	74.24
395.686	98.81
395.895	115.2
396.105	111.1
396.314	59.9
396.524	121.34
396.733	43.52
396.942	82.43
397.152	156.16
397.361	104.96
397.57	123.39
397.78	156.16
397.989	78.33
398.198	107.01
398.407	53.76
398.617	135.68
398.826	49.66
399.035	90.62
399.244	88.57
399.453	72.19
399.663	61.95
399.872	143.87
400.081	53.76
400.29	139.77
400.499	100.86
400.708	119.29
400.917	64
401.127	45.57
401.336	98.81
401.545	135.68
401.754	180.73
401.963	195.07
402.172	35.33
402.381	70.14
402.59	98.81
402.799	90.62
403.008	121.34
403.217	100.86
403.426	184.83
403.635	74.24
403.844	98.81
404.053	125.44
404.262	64
404.471	78.33
404.68	176.64
404.888	129.53
405.097	156.16
405.306	184.83
405.515	129.53
405.724	127.49
405.933	184.83
406.142	166.4
406.35	236.03
406.559	178.69
406.768	162.3
406.977	279.04
407.185	152.06
407.394	238.08
407.603	170.49
407.812	182.78
408.02	244.22
408.229	168.45
408.438	276.99
408.646	207.36
408.855	176.64
409.064	168.45
409.272	236.03
409.481	258.56
409.69	274.94
409.898	291.32
410.107	336.38
410.315	328.19
410.524	262.65
410.733	322.04
410.941	365.05
411.15	424.44
411.358	373.24
411.567	465.4
411.775	369.15
411.984	358.91
412.192	432.63
412.401	414.2
412.609	440.83
412.818	549.37
413.026	479.74
413.234	455.16
413.443	481.78
413.651	584.18
413.86	459.26
414.068	619
414.276	657.91
414.485	741.88
414.693	616.95
414.901	721.4
415.11	760.31
415.318	698.87
415.526	754.16
415.734	811.51
415.943	848.37
416.151	868.85
416.359	799.22
416.567	938.48
416.776	938.48
416.984	948.72
417.192	1024.5
417.4	952.82
417.608	1053.17
417.817	1141.23
418.025	1157.61
418.233	1266.16
418.441	1159.66
418.649	1354.22
418.857	1288.68
419.065	1343.98
419.273	1315.31
419.481	1483.24
419.689	1511.91
419.897	1509.86
420.105	1581.54
420.313	1597.93
420.521	1642.98
420.729	1708.52
420.937	1749.48
421.145	1946.08
421.353	1976.8
421.561	2060.77
421.769	2130.4
421.977	2173.41
422.185	2134.5
422.393	2228.7
422.601	2425.31
422.809	2382.3
423.017	2472.41
423.224	2367.96
423.432	2640.34
423.64	2783.7
423.848	2765.27
424.056	2691.54
424.263	3027.41
424.471	3004.88
424.679	2980.31
424.887	3279.31
425.094	3420.62
425.302	3312.08
425.51	3541.45
425.718	3584.46
425.925	3582.41
426.133	3740.1
426.341	4018.63
426.548	4114.88
426.756	4071.87
426.964	4125.12
427.171	4301.25
427.379	4538.81
427.586	4493.76
427.794	4686.26
428.001	4854.2
428.209	5061.04
428.417	5020.08
428.624	5513.64
428.832	5421.49
429.039	5464.49
429.247	5310.89
429.454	5999.01
429.662	6408.61
429.869	5773.74
430.076	6328.74
430.284	6119.84
430.491	6502.81
430.699	6791.58
430.906	6834.58
431.114	6775.19
431.321	7006.61
431.528	7244.18
431.736	7811.46
431.943	8003.97
432.15	7862.66
432.358	7954.82
432.565	8268.16
432.772	8255.87
432.979	8831.35
433.187	8788.35
433.394	9030.01
433.601	9539.95
433.808	9464.18
434.016	9572.72
434.223	9849.19
434.43	10412.39
434.637	10189.16
434.844	10756.44
435.052	11088.21
435.259	11184.47
435.466	11145.56
435.673	10912.09
435.88	11762
436.087	12390.72
436.294	12372.29
436.501	12110.15
436.708	12341.57
436.915	12958.01
437.122	13138.23
437.329	13437.23
437.537	13746.48
437.743	14008.62
437.95	14016.81
438.157	14395.68
438.364	14874.91
438.571	15042.84
438.778	14962.97
438.985	16427.27
439.192	15896.85
439.399	16333.06
439.606	16097.55
439.813	16941.31
440.02	17772.78
440.227	17553.65
440.433	17410.29
440.64	18094.32
440.847	17926.38
441.054	18241.77
441.261	19499.22
441.467	19169.5
441.674	19769.55
441.881	20328.65
442.088	20220.11
442.294	20074.7
442.501	20265.16
442.708	20994.24
442.914	21872.82
443.121	22911.14
443.328	21895.35
443.534	23726.23
443.741	22923.43
443.948	22737.06
444.154	24404.11
444.361	23984.27
444.568	24574.09
444.774	24244.37
444.981	24465.55
445.187	25247.87
445.394	26273.9
445.6	26163.31
445.807	28481.61
446.013	27506.78
446.22	27797.59
446.426	28751.95
446.633	29161.54
446.839	29792.31
447.046	28780.62
447.252	29954.1
447.459	30273.59
447.665	29939.77
447.871	31459.36
448.078	32636.94
448.284	31229.99
448.491	32274.45
448.697	33396.74
448.903	33921.02
449.11	33789.95
449.316	33529.86
449.522	33544.19
449.728	34717.68
449.935	34629.62
450.141	34951.15
450.347	35833.82
450.553	34494.45
450.76	34889.71
450.966	35618.78
451.172	35487.71
451.378	36169.69
451.584	36372.44
451.791	36466.64
451.997	36415.44
452.203	36984.78
452.409	36736.98
452.615	36947.92
452.821	35524.58
453.027	34883.56
453.233	36732.88
453.44	35297.25
453.646	35461.09
453.852	35942.36
454.058	36247.51
454.264	35317.73
454.47	35991.51
454.676	34822.12
454.882	36532.18
455.088	33153.03
455.294	33468.42
455.5	33900.54
455.705	34205.69
455.911	32604.17
456.117	32538.64
456.323	31733.79
456.529	29900.86
456.735	31268.9
456.941	30384.18
457.147	29661.24
457.352	28764.23
457.558	28524.62
457.764	28715.08
457.97	28092.5
458.176	27510.88
458.381	27666.52
458.587	25962.61
458.793	26288.24
458.999	24905.86
459.204	26458.22
459.41	26191.98
459.616	24135.82
459.821	24285.33
460.027	24209.55
460.233	23632.02
460.438	22309.04
460.644	22702.25
460.85	21749.94
461.055	21270.72
461.261	21129.41
461.466	19732.69
461.672	19212.51
461.878	20691.14
462.083	19284.19
462.289	19050.72
462.494	18657.51
462.7	18165.99
462.905	17346.81
463.111	17944.81
463.316	18039.02
463.522	17502.45
463.727	17453.3
463.932	17666.29
464.138	17299.7
464.343	17508.6
464.549	16965.89
464.754	17664.24
464.959	17412.34
465.165	17328.38
465.37	16791.81
465.575	16122.12
465.781	16855.29
465.986	16957.69
466.191	16269.58
466.397	16027.92
466.602	15118.62
466.807	15700.24
467.012	15802.64
467.218	15665.42
467.423	15667.47
