Data from USB4F104151__17__12-41-03-416.txt Node

Date: Fri Mar 14 12:41:03 EDT 2025
User: louis
Spectrometer: USB4F10415
Trigger mode: 4
Integration Time (sec): 3.000000E-2
Scans to average: 1
Electric dark correction enabled: true
Nonlinearity correction enabled: false
Boxcar width: 0
XAxis mode: Wavelengths
Number of Pixels in Spectrum: 3648
>>>>>Begin Spectral Data<<<<<
178.204	-86.01
178.424	-86.01
178.644	-86.01
178.864	-149.5
179.084	-143.36
179.304	-24.58
179.524	-18.43
179.744	8.19
179.964	12.29
180.184	-4.1
180.404	32.77
180.624	18.43
180.844	10.24
181.064	6.14
181.283	2.05
181.503	-28.67
181.723	-14.34
181.943	-20.48
182.163	12.29
182.383	110.59
182.602	36.86
182.822	63.49
183.042	18.43
183.262	12.29
183.482	45.06
183.701	26.62
183.921	53.25
184.141	-53.25
184.361	18.43
184.58	45.06
184.8	-16.38
185.02	12.29
185.239	102.4
185.459	43.01
185.679	65.54
185.898	65.54
186.118	38.91
186.338	26.62
186.557	-30.72
186.777	-14.34
186.997	32.77
187.216	12.29
187.436	133.12
187.655	77.82
187.875	124.93
188.095	32.77
188.314	-6.14
188.534	28.67
188.753	14.34
188.973	73.73
189.192	86.01
189.412	88.06
189.631	2.05
189.851	51.2
190.07	14.34
190.29	2.05
190.509	26.62
190.729	8.19
190.948	67.58
191.168	186.37
191.387	86.01
191.607	-28.67
191.826	61.44
192.045	51.2
192.265	-51.2
192.484	90.11
192.704	-2.05
192.923	63.49
193.142	100.35
193.362	14.34
193.581	34.82
193.8	14.34
194.02	100.35
194.239	12.29
194.458	77.82
194.678	57.34
194.897	43.01
195.116	61.44
195.335	18.43
195.555	-4.1
195.774	20.48
195.993	32.77
196.212	34.82
196.432	-10.24
196.651	2.05
196.87	36.86
197.089	14.34
197.308	38.91
197.528	63.49
197.747	-6.14
197.966	-6.14
198.185	79.87
198.404	55.3
198.623	28.67
198.842	24.58
199.062	45.06
199.281	75.77
199.5	26.62
199.719	28.67
199.938	-8.19
200.157	137.21
200.376	12.29
200.595	40.96
200.814	34.82
201.033	71.68
201.252	32.77
201.471	28.67
201.69	90.11
201.909	47.1
202.128	98.3
202.347	71.68
202.566	-45.06
202.785	32.77
203.004	6.14
203.223	126.97
203.442	63.49
203.661	12.29
203.879	53.25
204.098	106.49
204.317	40.96
204.536	110.59
204.755	16.38
204.974	73.73
205.193	18.43
205.411	108.54
205.63	67.58
205.849	6.14
206.068	55.3
206.287	45.06
206.505	51.2
206.724	10.24
206.943	61.44
207.162	-6.14
207.381	120.83
207.599	53.25
207.818	22.53
208.037	26.62
208.255	24.58
208.474	36.86
208.693	112.64
208.911	53.25
209.13	12.29
209.349	75.77
209.567	20.48
209.786	102.4
210.005	83.97
210.223	40.96
210.442	-61.44
210.661	8.19
210.879	24.58
211.098	16.38
211.316	18.43
211.535	4.1
211.753	120.83
211.972	92.16
212.191	36.86
212.409	-38.91
212.628	63.49
212.846	18.43
213.065	36.86
213.283	83.97
213.502	83.97
213.72	-38.91
213.938	57.34
214.157	4.1
214.375	12.29
214.594	26.62
214.812	73.73
215.031	8.19
215.249	-6.14
215.467	79.87
215.686	104.45
215.904	79.87
216.122	104.45
216.341	61.44
216.559	49.15
216.778	131.07
216.996	49.15
217.214	55.3
217.432	30.72
217.651	38.91
217.869	61.44
218.087	53.25
218.306	100.35
218.524	38.91
218.742	49.15
218.96	63.49
219.179	22.53
219.397	53.25
219.615	75.77
219.833	32.77
220.051	4.1
220.27	94.21
220.488	73.73
220.706	104.45
220.924	12.29
221.142	-14.34
221.36	-4.1
221.578	73.73
221.796	40.96
222.015	102.4
222.233	30.72
222.451	65.54
222.669	-12.29
222.887	26.62
223.105	67.58
223.323	20.48
223.541	22.53
223.759	28.67
223.977	24.58
224.195	28.67
224.413	45.06
224.631	38.91
224.849	53.25
225.067	102.4
225.285	43.01
225.503	86.01
225.721	-18.43
225.939	94.21
226.157	55.3
226.375	143.36
226.592	36.86
226.81	-18.43
227.028	69.63
227.246	73.73
227.464	24.58
227.682	12.29
227.9	36.86
228.117	69.63
228.335	40.96
228.553	18.43
228.771	53.25
228.989	124.93
229.206	2.05
229.424	-18.43
229.642	24.58
229.86	10.24
230.077	53.25
230.295	10.24
230.513	65.54
230.731	59.39
230.948	100.35
231.166	55.3
231.384	0
231.601	59.39
231.819	47.1
232.037	26.62
232.254	53.25
232.472	86.01
232.689	10.24
232.907	124.93
233.125	18.43
233.342	20.48
233.56	73.73
233.777	36.86
233.995	-26.62
234.213	16.38
234.43	-26.62
234.648	45.06
234.865	12.29
235.083	-2.05
235.3	30.72
235.518	2.05
235.735	131.07
235.953	143.36
236.17	51.2
236.388	47.1
236.605	2.05
236.822	106.49
237.04	2.05
237.257	45.06
237.475	-49.15
237.692	38.91
237.909	45.06
238.127	-18.43
238.344	59.39
238.562	47.1
238.779	10.24
238.996	-20.48
239.214	6.14
239.431	100.35
239.648	40.96
239.865	83.97
240.083	38.91
240.3	16.38
240.517	-16.38
240.735	47.1
240.952	77.82
241.169	90.11
241.386	145.41
241.603	28.67
241.821	12.29
242.038	77.82
242.255	96.25
242.472	69.63
242.689	38.91
242.907	0
243.124	67.58
243.341	32.77
243.558	106.49
243.775	28.67
243.992	-36.86
244.209	36.86
244.426	178.17
244.643	98.3
244.86	-8.19
245.078	108.54
245.295	71.68
245.512	63.49
245.729	30.72
245.946	75.77
246.163	-18.43
246.38	-6.14
246.597	40.96
246.814	38.91
247.031	43.01
247.248	67.58
247.464	55.3
247.681	-10.24
247.898	57.34
248.115	40.96
248.332	75.77
248.549	53.25
248.766	77.82
248.983	18.43
249.2	4.1
249.417	-14.34
249.633	4.1
249.85	22.53
250.067	34.82
250.284	2.05
250.501	86.01
250.717	88.06
250.934	-49.15
251.151	8.19
251.368	43.01
251.585	88.06
251.801	61.44
252.018	79.87
252.235	63.49
252.451	12.29
252.668	106.49
252.885	94.21
253.102	28.67
253.318	45.06
253.535	36.86
253.752	75.77
253.968	122.88
254.185	45.06
254.401	30.72
254.618	73.73
254.835	88.06
255.051	65.54
255.268	18.43
255.484	10.24
255.701	22.53
255.917	73.73
256.134	-24.58
256.351	104.45
256.567	-10.24
256.784	63.49
257	34.82
257.217	122.88
257.433	45.06
257.65	77.82
257.866	38.91
258.082	47.1
258.299	34.82
258.515	98.3
258.732	-4.1
258.948	30.72
259.165	83.97
259.381	-6.14
259.597	79.87
259.814	88.06
260.03	-34.82
260.246	10.24
260.463	45.06
260.679	28.67
260.895	12.29
261.112	43.01
261.328	-24.58
261.544	-36.86
261.761	71.68
261.977	22.53
262.193	-12.29
262.409	100.35
262.626	83.97
262.842	2.05
263.058	4.1
263.274	51.2
263.49	22.53
263.707	59.39
263.923	-14.34
264.139	34.82
264.355	65.54
264.571	94.21
264.787	43.01
265.004	67.58
265.22	-16.38
265.436	96.25
265.652	-12.29
265.868	75.77
266.084	10.24
266.3	73.73
266.516	38.91
266.732	16.38
266.948	16.38
267.164	49.15
267.38	40.96
267.596	-18.43
267.812	145.41
268.028	43.01
268.244	8.19
268.46	57.34
268.676	8.19
268.892	-6.14
269.108	106.49
269.324	-26.62
269.54	24.58
269.756	18.43
269.972	10.24
270.188	106.49
270.403	36.86
270.619	0
270.835	59.39
271.051	6.14
271.267	12.29
271.483	55.3
271.698	36.86
271.914	90.11
272.13	2.05
272.346	57.34
272.562	30.72
272.777	16.38
272.993	45.06
273.209	47.1
273.425	83.97
273.64	6.14
273.856	75.77
274.072	71.68
274.287	-14.34
274.503	61.44
274.719	53.25
274.934	-40.96
275.15	2.05
275.366	49.15
275.581	26.62
275.797	28.67
276.012	92.16
276.228	18.43
276.444	73.73
276.659	22.53
276.875	-90.11
277.09	110.59
277.306	-6.14
277.521	88.06
277.737	30.72
277.952	38.91
278.168	77.82
278.383	79.87
278.599	53.25
278.814	112.64
279.03	22.53
279.245	49.15
279.461	100.35
279.676	36.86
279.892	-53.25
280.107	-28.67
280.322	47.1
280.538	53.25
280.753	24.58
280.969	-2.05
281.184	8.19
281.399	43.01
281.615	133.12
281.83	81.92
282.045	16.38
282.26	77.82
282.476	4.1
282.691	40.96
282.906	83.97
283.122	16.38
283.337	-8.19
283.552	38.91
283.767	14.34
283.983	65.54
284.198	86.01
284.413	34.82
284.628	4.1
284.843	20.48
285.058	36.86
285.274	61.44
285.489	-6.14
285.704	71.68
285.919	65.54
286.134	20.48
286.349	16.38
286.564	38.91
286.779	120.83
286.995	59.39
287.21	14.34
287.425	45.06
287.64	18.43
287.855	4.1
288.07	-28.67
288.285	108.54
288.5	59.39
288.715	20.48
288.93	14.34
289.145	73.73
289.36	77.82
289.575	63.49
289.79	36.86
290.004	-14.34
290.219	51.2
290.434	-26.62
290.649	43.01
290.864	40.96
291.079	28.67
291.294	34.82
291.509	-14.34
291.724	51.2
291.938	79.87
292.153	26.62
292.368	51.2
292.583	59.39
292.798	32.77
293.012	104.45
293.227	-18.43
293.442	10.24
293.657	55.3
293.871	18.43
294.086	30.72
294.301	65.54
294.516	28.67
294.73	57.34
294.945	4.1
295.16	51.2
295.374	69.63
295.589	22.53
295.804	-45.06
296.018	10.24
296.233	86.01
296.447	53.25
296.662	-18.43
296.877	120.83
297.091	30.72
297.306	28.67
297.52	88.06
297.735	83.97
297.949	-4.1
298.164	129.02
298.378	90.11
298.593	51.2
298.807	30.72
299.022	120.83
299.236	53.25
299.451	4.1
299.665	-30.72
299.88	2.05
300.094	55.3
300.309	63.49
300.523	86.01
300.737	43.01
300.952	61.44
301.166	6.14
301.381	57.34
301.595	2.05
301.809	12.29
302.024	79.87
302.238	79.87
302.452	94.21
302.667	2.05
302.881	104.45
303.095	69.63
303.309	22.53
303.524	40.96
303.738	63.49
303.952	28.67
304.166	57.34
304.381	-6.14
304.595	122.88
304.809	45.06
305.023	43.01
305.237	77.82
305.452	-22.53
305.666	73.73
305.88	102.4
306.094	18.43
306.308	75.77
306.522	2.05
306.736	24.58
306.95	92.16
307.164	32.77
307.379	18.43
307.593	69.63
307.807	28.67
308.021	12.29
308.235	-30.72
308.449	-28.67
308.663	16.38
308.877	147.45
309.091	59.39
309.305	77.82
309.519	-14.34
309.733	2.05
309.947	22.53
310.161	98.3
310.374	108.54
310.588	178.17
310.802	-49.15
311.016	65.54
311.23	-8.19
311.444	-34.82
311.658	-43.01
311.872	-8.19
312.085	47.1
312.299	-16.38
312.513	43.01
312.727	51.2
312.941	-38.91
313.154	36.86
313.368	83.97
313.582	71.68
313.796	34.82
314.009	43.01
314.223	71.68
314.437	122.88
314.651	118.78
314.864	-51.2
315.078	30.72
315.292	-2.05
315.505	63.49
315.719	61.44
315.933	45.06
316.146	36.86
316.36	49.15
316.573	153.6
316.787	67.58
317.001	0
317.214	34.82
317.428	59.39
317.641	61.44
317.855	116.73
318.068	92.16
318.282	32.77
318.495	96.25
318.709	79.87
318.922	67.58
319.136	43.01
319.349	4.1
319.563	55.3
319.776	20.48
319.99	2.05
320.203	79.87
320.417	-20.48
320.63	30.72
320.843	57.34
321.057	43.01
321.27	-6.14
321.483	8.19
321.697	40.96
321.91	18.43
322.124	98.3
322.337	20.48
322.55	6.14
322.763	18.43
322.977	75.77
323.19	38.91
323.403	32.77
323.617	28.67
323.83	51.2
324.043	2.05
324.256	63.49
324.469	-14.34
324.683	34.82
324.896	61.44
325.109	40.96
325.322	45.06
325.535	124.93
325.748	122.88
325.962	51.2
326.175	92.16
326.388	14.34
326.601	22.53
326.814	-28.67
327.027	57.34
327.24	71.68
327.453	30.72
327.666	81.92
327.879	24.58
328.092	51.2
328.305	0
328.518	38.91
328.731	61.44
328.944	67.58
329.157	-22.53
329.37	20.48
329.583	96.25
329.796	28.67
330.009	-47.1
330.222	43.01
330.435	38.91
330.648	63.49
330.861	20.48
331.073	-24.58
331.286	53.25
331.499	0
331.712	12.29
331.925	-12.29
332.138	47.1
332.35	71.68
332.563	20.48
332.776	22.53
332.989	12.29
333.202	51.2
333.414	57.34
333.627	-28.67
333.84	22.53
334.053	61.44
334.265	83.97
334.478	36.86
334.691	79.87
334.903	53.25
335.116	100.35
335.329	0
335.541	24.58
335.754	38.91
335.966	-4.1
336.179	6.14
336.392	36.86
336.604	-2.05
336.817	30.72
337.029	-22.53
337.242	141.31
337.454	26.62
337.667	61.44
337.88	49.15
338.092	47.1
338.305	77.82
338.517	22.53
338.729	67.58
338.942	102.4
339.154	55.3
339.367	14.34
339.579	16.38
339.792	45.06
340.004	51.2
340.217	-45.06
340.429	20.48
340.641	65.54
340.854	81.92
341.066	-51.2
341.278	47.1
341.491	129.02
341.703	53.25
341.915	16.38
342.128	-4.1
342.34	110.59
342.552	40.96
342.764	-18.43
342.977	38.91
343.189	45.06
343.401	47.1
343.613	55.3
343.826	32.77
344.038	57.34
344.25	71.68
344.462	-2.05
344.674	75.77
344.886	6.14
345.099	8.19
345.311	73.73
345.523	30.72
345.735	10.24
345.947	43.01
346.159	88.06
346.371	34.82
346.583	59.39
346.795	98.3
347.007	6.14
347.219	43.01
347.431	22.53
347.643	135.17
347.855	47.1
348.067	92.16
348.279	110.59
348.491	32.77
348.703	45.06
348.915	47.1
349.127	32.77
349.339	69.63
349.551	16.38
349.763	116.73
349.975	77.82
350.187	75.77
350.399	86.01
350.61	106.49
350.822	53.25
351.034	124.93
351.246	49.15
351.458	22.53
351.669	81.92
351.881	38.91
352.093	69.63
352.305	34.82
352.517	71.68
352.728	104.45
352.94	79.87
353.152	18.43
353.363	-22.53
353.575	16.38
353.787	94.21
353.999	96.25
354.21	98.3
354.422	51.2
354.633	51.2
354.845	67.58
355.057	137.21
355.268	116.73
355.48	120.83
355.692	118.78
355.903	73.73
356.115	16.38
356.326	26.62
356.538	67.58
356.749	61.44
356.961	106.49
357.172	38.91
357.384	100.35
357.595	145.41
357.807	34.82
358.018	55.3
358.23	65.54
358.441	94.21
358.653	18.43
358.864	43.01
359.075	32.77
359.287	77.82
359.498	100.35
359.709	43.01
359.921	114.69
360.132	73.73
360.344	4.1
360.555	24.58
360.766	73.73
360.977	8.19
361.189	96.25
361.4	49.15
361.611	86.01
361.823	104.45
362.034	40.96
362.245	-49.15
362.456	75.77
362.667	149.5
362.879	79.87
363.09	47.1
363.301	67.58
363.512	40.96
363.723	55.3
363.935	40.96
364.146	12.29
364.357	47.1
364.568	108.54
364.779	18.43
364.99	131.07
365.201	34.82
365.412	22.53
365.623	47.1
365.834	88.06
366.045	38.91
366.256	69.63
366.467	124.93
366.678	83.97
366.889	22.53
367.1	75.77
367.311	81.92
367.522	59.39
367.733	34.82
367.944	126.97
368.155	49.15
368.366	49.15
368.577	159.74
368.788	79.87
368.999	-2.05
369.209	83.97
369.42	131.07
369.631	51.2
369.842	86.01
370.053	43.01
370.264	20.48
370.474	90.11
370.685	43.01
370.896	12.29
371.107	81.92
371.317	77.82
371.528	104.45
371.739	63.49
371.95	38.91
372.16	30.72
372.371	-32.77
372.582	83.97
372.792	81.92
373.003	55.3
373.214	92.16
373.424	-26.62
373.635	40.96
373.846	67.58
374.056	36.86
374.267	69.63
374.477	22.53
374.688	24.58
374.898	16.38
375.109	116.73
375.319	104.45
375.53	139.26
375.74	96.25
375.951	26.62
376.161	38.91
376.372	71.68
376.582	53.25
376.793	83.97
377.003	-20.48
377.214	40.96
377.424	83.97
377.635	104.45
377.845	28.67
378.055	71.68
378.266	14.34
378.476	135.17
378.686	96.25
378.897	30.72
379.107	2.05
379.317	94.21
379.528	55.3
379.738	77.82
379.948	-30.72
380.158	22.53
380.369	63.49
380.579	57.34
380.789	51.2
380.999	112.64
381.21	86.01
381.42	94.21
381.63	126.97
381.84	83.97
382.05	73.73
382.261	61.44
382.471	59.39
382.681	6.14
382.891	110.59
383.101	67.58
383.311	18.43
383.521	-30.72
383.731	40.96
383.941	53.25
384.151	98.3
384.361	73.73
384.571	100.35
384.781	81.92
384.991	24.58
385.201	110.59
385.411	-10.24
385.621	51.2
385.831	86.01
386.041	16.38
386.251	51.2
386.461	61.44
386.671	53.25
386.881	139.26
387.091	18.43
387.301	65.54
387.511	0
387.72	149.5
387.93	100.35
388.14	73.73
388.35	32.77
388.56	92.16
388.769	77.82
388.979	79.87
389.189	135.17
389.399	108.54
389.609	79.87
389.818	112.64
390.028	106.49
390.238	110.59
390.447	83.97
390.657	53.25
390.867	55.3
391.076	83.97
391.286	75.77
391.496	-32.77
391.705	28.67
391.915	92.16
392.125	32.77
392.334	122.88
392.544	145.41
392.753	92.16
392.963	32.77
393.172	53.25
393.382	114.69
393.591	122.88
393.801	53.25
394.01	94.21
394.22	137.21
394.429	94.21
394.639	-2.05
394.848	96.25
395.058	77.82
395.267	149.5
395.477	106.49
395.686	96.25
395.895	159.74
396.105	165.89
396.314	139.26
396.524	77.82
396.733	75.77
396.942	104.45
397.152	116.73
397.361	90.11
397.57	4.1
397.78	69.63
397.989	71.68
398.198	129.02
398.407	129.02
398.617	108.54
398.826	90.11
399.035	26.62
399.244	118.78
399.453	51.2
399.663	120.83
399.872	141.31
400.081	67.58
400.29	161.79
400.499	124.93
400.708	112.64
400.917	38.91
401.127	108.54
401.336	118.78
401.545	96.25
401.754	147.45
401.963	94.21
402.172	165.89
402.381	22.53
402.59	165.89
402.799	40.96
403.008	198.65
403.217	100.35
403.426	157.69
403.635	131.07
403.844	176.13
404.053	106.49
404.262	131.07
404.471	196.61
404.68	40.96
404.888	176.13
405.097	172.03
405.306	65.54
405.515	149.5
405.724	198.65
405.933	200.7
406.142	219.13
406.35	155.65
406.559	182.27
406.768	153.6
406.977	161.79
407.185	147.45
407.394	202.75
407.603	165.89
407.812	167.93
408.02	311.29
408.229	202.75
408.438	217.08
408.646	282.62
408.855	208.89
409.064	245.76
409.272	204.8
409.481	217.08
409.69	278.52
409.898	262.14
410.107	346.11
410.315	241.66
410.524	288.76
410.733	335.87
410.941	284.67
411.15	339.96
411.358	399.35
411.567	421.88
411.775	327.68
411.984	407.55
412.192	425.98
412.401	380.92
412.609	473.08
412.818	428.03
413.026	491.51
413.234	460.79
413.443	475.13
413.651	471.03
413.86	557.05
414.068	526.33
414.276	581.62
414.485	493.56
414.693	708.6
414.901	657.4
415.11	673.78
415.318	661.49
415.526	665.59
415.734	727.03
415.943	753.65
416.151	821.24
416.359	667.64
416.567	718.84
416.776	815.09
416.984	888.82
417.192	890.87
417.4	880.63
417.608	831.48
417.817	978.93
418.025	1079.28
418.233	1140.72
418.441	1019.89
418.649	1155.05
418.857	1236.97
419.065	1200.11
419.273	1179.63
419.481	1300.46
419.689	1314.8
419.897	1353.71
420.105	1415.15
420.313	1421.29
420.521	1529.83
420.729	1392.62
420.937	1566.7
421.145	1560.55
421.353	1712.1
421.561	1699.81
421.769	1859.56
421.977	1918.95
422.185	1849.32
422.393	2009.06
422.601	2095.07
422.809	2099.17
423.017	2043.87
423.224	2256.86
423.432	2156.51
423.64	2387.93
423.848	2537.43
424.056	2506.71
424.263	2674.65
424.471	2578.39
424.679	2672.6
424.887	2818.01
425.094	2869.2
425.302	2992.08
425.51	2965.46
425.718	3155.92
425.925	3178.45
426.133	3262.41
426.341	3401.68
426.548	3639.24
426.756	3604.43
426.964	3579.85
427.171	3903.43
427.379	3958.72
427.586	4059.07
427.794	4276.16
428.001	4345.79
428.209	4476.86
428.417	4454.33
428.624	4732.86
428.832	4728.76
429.039	4759.48
429.247	4489.15
429.454	5353.39
429.662	5511.08
429.869	5185.46
430.076	5570.48
430.284	5435.31
430.491	5642.15
430.699	5842.85
430.906	5975.97
431.114	6010.79
431.321	6188.96
431.528	6477.73
431.736	6864.79
431.943	7163.79
432.15	6733.72
432.358	6936.47
432.565	7241.62
432.772	7335.82
432.979	7602.06
433.187	7944.07
433.394	7923.59
433.601	8302.47
433.808	8351.62
434.016	8531.84
434.223	8689.53
434.43	9084.79
434.637	8906.62
434.844	9539.44
435.052	9901.93
435.259	9799.53
435.466	9842.54
435.673	9613.17
435.88	10325.86
436.087	10846.04
436.294	10864.47
436.501	10381.15
436.708	11005.78
436.915	11186.01
437.122	11499.34
437.329	11716.43
437.537	12132.17
437.743	12437.31
437.95	12152.65
438.157	12627.78
438.364	13373.24
438.571	13305.65
438.778	13303.6
438.985	14425.89
439.192	14235.43
439.399	14329.64
439.606	14214.95
439.813	14800.67
440.02	15496.98
440.227	15466.26
440.433	15394.58
440.64	15476.5
440.847	15599.38
441.054	16080.65
441.261	17106.68
441.467	16916.22
441.674	17454.84
441.881	18130.67
442.088	17819.38
442.294	17950.45
442.501	18472.68
442.708	18611.94
442.914	19357.4
443.121	20051.66
443.328	19656.4
443.534	21319.35
443.741	20428.49
443.948	20156.11
444.154	21677.75
444.361	21483.19
444.568	21731
444.774	21665.46
444.981	22009.52
445.187	22644.39
445.394	23291.55
445.6	23049.89
445.807	25157.25
446.013	24544.91
446.22	24934.02
446.426	25783.93
446.633	26021.49
446.839	26879.59
447.046	25591.42
447.252	27078.24
447.459	27174.5
447.665	27000.42
447.871	28243.54
448.078	29806.14
448.284	28159.57
448.491	28792.39
448.697	30088.76
448.903	30496.3
449.11	30711.34
449.316	30316.08
449.522	30946.86
449.728	31411.74
449.935	31438.37
450.141	31942.17
450.347	32302.61
450.553	31512.1
450.76	31868.44
450.966	33091.08
451.172	32484.88
451.378	33629.69
451.584	32708.11
451.791	33920.51
451.997	33185.29
452.203	33601.02
452.409	33895.93
452.615	33695.23
452.821	32740.88
453.027	32441.87
453.233	33900.03
453.44	32775.69
453.646	32980.49
453.852	33082.89
454.058	33416.71
454.264	32658.96
454.47	33287.68
454.676	32093.72
454.882	33846.78
455.088	30598.7
455.294	31155.75
455.5	31270.43
455.705	31606.3
455.911	30588.46
456.117	29990.45
456.323	29724.22
456.529	28407.37
456.735	29111.88
456.941	28831.3
457.147	27840.09
457.352	27219.55
457.558	26889.83
457.764	26492.52
457.97	26662.51
458.176	25515.64
458.381	25929.33
458.587	24481.42
458.793	24618.63
458.999	23080.61
459.204	25007.75
459.41	24319.63
459.616	22722.21
459.821	22361.77
460.027	22689.45
460.233	22212.27
460.438	21163.71
460.644	20920
460.85	20254.41
461.055	20068.05
461.261	20072.14
461.466	18444.01
461.672	17993.45
461.878	19042.01
462.083	17942.25
462.289	17594.1
462.494	17399.54
462.7	16647.94
462.905	16068.36
463.111	16733.95
463.316	16953.09
463.522	16230.15
463.727	16434.95
463.932	16520.96
464.138	16305.93
464.343	16316.17
464.549	15808.27
464.754	16437
464.959	16076.55
465.165	16084.75
465.37	15400.73
465.575	15216.41
465.781	15673.1
465.986	15669.01
466.191	15189.78
466.397	14894.88
466.602	14022.44
466.807	14675.74
467.012	14685.98
467.218	14843.68
467.423	14272.29
467.628	14751.52
467.833	14866.21
