Data from USB4F104151__60__12-42-01-129.txt Node

Date: Fri Mar 14 12:42:01 EDT 2025
User: louis
Spectrometer: USB4F10415
Trigger mode: 4
Integration Time (sec): 3.000000E-2
Scans to average: 1
Electric dark correction enabled: true
Nonlinearity correction enabled: false
Boxcar width: 0
XAxis mode: Wavelengths
Number of Pixels in Spectrum: 3648
>>>>>Begin Spectral Data<<<<<
178.204	-131.07
178.424	-131.07
178.644	-131.07
178.864	-147.45
179.084	-139.26
179.304	0
179.524	-8.19
179.744	2.05
179.964	67.58
180.184	4.1
180.404	16.38
180.624	12.29
180.844	34.82
181.064	-61.44
181.283	-32.77
181.503	-88.06
181.723	53.25
181.943	-61.44
182.163	49.15
182.383	2.05
182.602	-30.72
182.822	53.25
183.042	8.19
183.262	0
183.482	30.72
183.701	24.58
183.921	59.39
184.141	-14.34
184.361	83.97
184.58	122.88
184.8	-18.43
185.02	-24.58
185.239	69.63
185.459	4.1
185.679	20.48
185.898	-20.48
186.118	81.92
186.338	36.86
186.557	81.92
186.777	-53.25
186.997	51.2
187.216	26.62
187.436	59.39
187.655	4.1
187.875	61.44
188.095	-18.43
188.314	100.35
188.534	122.88
188.753	32.77
188.973	30.72
189.192	34.82
189.412	55.3
189.631	26.62
189.851	34.82
190.07	49.15
190.29	-4.1
190.509	43.01
190.729	4.1
190.948	75.77
191.168	200.7
191.387	108.54
191.607	34.82
191.826	10.24
192.045	34.82
192.265	53.25
192.484	69.63
192.704	24.58
192.923	20.48
193.142	28.67
193.362	24.58
193.581	43.01
193.8	8.19
194.02	40.96
194.239	-10.24
194.458	-2.05
194.678	81.92
194.897	26.62
195.116	40.96
195.335	-36.86
195.555	14.34
195.774	63.49
195.993	-36.86
196.212	-22.53
196.432	12.29
196.651	34.82
196.87	0
197.089	63.49
197.308	22.53
197.528	86.01
197.747	-34.82
197.966	67.58
198.185	59.39
198.404	-26.62
198.623	98.3
198.842	65.54
199.062	28.67
199.281	43.01
199.5	-40.96
199.719	30.72
199.938	88.06
200.157	18.43
200.376	38.91
200.595	53.25
200.814	47.1
201.033	61.44
201.252	63.49
201.471	12.29
201.69	-30.72
201.909	24.58
202.128	51.2
202.347	-34.82
202.566	6.14
202.785	-32.77
203.004	-4.1
203.223	36.86
203.442	-2.05
203.661	-45.06
203.879	51.2
204.098	83.97
204.317	-30.72
204.536	34.82
204.755	14.34
204.974	47.1
205.193	30.72
205.411	14.34
205.63	14.34
205.849	88.06
206.068	20.48
206.287	69.63
206.505	55.3
206.724	-18.43
206.943	-26.62
207.162	63.49
207.381	24.58
207.599	69.63
207.818	30.72
208.037	-16.38
208.255	-2.05
208.474	-63.49
208.693	-12.29
208.911	40.96
209.13	94.21
209.349	63.49
209.567	96.25
209.786	2.05
210.005	36.86
210.223	-79.87
210.442	-6.14
210.661	26.62
210.879	-2.05
211.098	2.05
211.316	43.01
211.535	-10.24
211.753	18.43
211.972	40.96
212.191	26.62
212.409	55.3
212.628	53.25
212.846	20.48
213.065	53.25
213.283	100.35
213.502	49.15
213.72	-4.1
213.938	-22.53
214.157	-22.53
214.375	59.39
214.594	0
214.812	88.06
215.031	59.39
215.249	57.34
215.467	-10.24
215.686	34.82
215.904	100.35
216.122	47.1
216.341	67.58
216.559	55.3
216.778	106.49
216.996	32.77
217.214	69.63
217.432	8.19
217.651	24.58
217.869	4.1
218.087	53.25
218.306	32.77
218.524	-36.86
218.742	-14.34
218.96	69.63
219.179	-28.67
219.397	49.15
219.615	100.35
219.833	55.3
220.051	-14.34
220.27	83.97
220.488	-12.29
220.706	43.01
220.924	0
221.142	34.82
221.36	51.2
221.578	92.16
221.796	116.73
222.015	38.91
222.233	24.58
222.451	77.82
222.669	47.1
222.887	43.01
223.105	-12.29
223.323	-28.67
223.541	-53.25
223.759	26.62
223.977	6.14
224.195	135.17
224.413	77.82
224.631	57.34
224.849	98.3
225.067	104.45
225.285	4.1
225.503	-51.2
225.721	-28.67
225.939	83.97
226.157	67.58
226.375	100.35
226.592	24.58
226.81	49.15
227.028	110.59
227.246	71.68
227.464	65.54
227.682	18.43
227.9	51.2
228.117	61.44
228.335	45.06
228.553	24.58
228.771	4.1
228.989	53.25
229.206	43.01
229.424	10.24
229.642	18.43
229.86	30.72
230.077	73.73
230.295	45.06
230.513	16.38
230.731	129.02
230.948	47.1
231.166	71.68
231.384	-61.44
231.601	-2.05
231.819	96.25
232.037	-32.77
232.254	-16.38
232.472	102.4
232.689	-16.38
232.907	-8.19
233.125	4.1
233.342	86.01
233.56	14.34
233.777	-12.29
233.995	65.54
234.213	108.54
234.43	20.48
234.648	59.39
234.865	53.25
235.083	108.54
235.3	-49.15
235.518	57.34
235.735	20.48
235.953	75.77
236.17	8.19
236.388	81.92
236.605	-79.87
236.822	59.39
237.04	40.96
237.257	28.67
237.475	69.63
237.692	102.4
237.909	26.62
238.127	-2.05
238.344	-38.91
238.562	-10.24
238.779	-6.14
238.996	30.72
239.214	51.2
239.431	18.43
239.648	26.62
239.865	14.34
240.083	36.86
240.3	69.63
240.517	12.29
240.735	61.44
240.952	20.48
241.169	59.39
241.386	26.62
241.603	88.06
241.821	30.72
242.038	34.82
242.255	20.48
242.472	2.05
242.689	38.91
242.907	30.72
243.124	53.25
243.341	24.58
243.558	-4.1
243.775	2.05
243.992	34.82
244.209	83.97
244.426	118.78
244.643	-8.19
244.86	12.29
245.078	55.3
245.295	63.49
245.512	8.19
245.729	22.53
245.946	45.06
246.163	24.58
246.38	106.49
246.597	28.67
246.814	34.82
247.031	59.39
247.248	45.06
247.464	49.15
247.681	14.34
247.898	81.92
248.115	47.1
248.332	24.58
248.549	63.49
248.766	108.54
248.983	8.19
249.2	26.62
249.417	90.11
249.633	61.44
249.85	-20.48
250.067	43.01
250.284	10.24
250.501	10.24
250.717	149.5
250.934	22.53
251.151	30.72
251.368	-6.14
251.585	36.86
251.801	32.77
252.018	14.34
252.235	-6.14
252.451	-6.14
252.668	-61.44
252.885	71.68
253.102	-12.29
253.318	-28.67
253.535	24.58
253.752	-10.24
253.968	32.77
254.185	-16.38
254.401	38.91
254.618	38.91
254.835	-10.24
255.051	2.05
255.268	88.06
255.484	20.48
255.701	12.29
255.917	10.24
256.134	14.34
256.351	-20.48
256.567	38.91
256.784	-8.19
257	-4.1
257.217	32.77
257.433	36.86
257.65	4.1
257.866	-67.58
258.082	8.19
258.299	32.77
258.515	83.97
258.732	43.01
258.948	51.2
259.165	55.3
259.381	32.77
259.597	67.58
259.814	49.15
260.03	-8.19
260.246	22.53
260.463	114.69
260.679	45.06
260.895	24.58
261.112	36.86
261.328	-12.29
261.544	57.34
261.761	24.58
261.977	53.25
262.193	32.77
262.409	38.91
262.626	6.14
262.842	16.38
263.058	-12.29
263.274	55.3
263.49	114.69
263.707	67.58
263.923	57.34
264.139	-30.72
264.355	-30.72
264.571	67.58
264.787	34.82
265.004	20.48
265.22	18.43
265.436	40.96
265.652	24.58
265.868	43.01
266.084	18.43
266.3	59.39
266.516	-53.25
266.732	65.54
266.948	-61.44
267.164	-57.34
267.38	73.73
267.596	86.01
267.812	114.69
268.028	0
268.244	63.49
268.46	-26.62
268.676	18.43
268.892	92.16
269.108	22.53
269.324	-18.43
269.54	-45.06
269.756	81.92
269.972	12.29
270.188	-38.91
270.403	24.58
270.619	118.78
270.835	-18.43
271.051	14.34
271.267	6.14
271.483	10.24
271.698	28.67
271.914	-38.91
272.13	59.39
272.346	8.19
272.562	94.21
272.777	20.48
272.993	102.4
273.209	114.69
273.425	53.25
273.64	-28.67
273.856	57.34
274.072	22.53
274.287	34.82
274.503	114.69
274.719	88.06
274.934	0
275.15	-10.24
275.366	79.87
275.581	-14.34
275.797	102.4
276.012	-28.67
276.228	-16.38
276.444	34.82
276.659	16.38
276.875	18.43
277.09	90.11
277.306	16.38
277.521	43.01
277.737	2.05
277.952	-57.34
278.168	36.86
278.383	55.3
278.599	-22.53
278.814	124.93
279.03	28.67
279.245	135.17
279.461	12.29
279.676	69.63
279.892	32.77
280.107	67.58
280.322	-30.72
280.538	63.49
280.753	30.72
280.969	20.48
281.184	45.06
281.399	34.82
281.615	36.86
281.83	-26.62
282.045	34.82
282.26	36.86
282.476	81.92
282.691	102.4
282.906	38.91
283.122	24.58
283.337	51.2
283.552	-10.24
283.767	-26.62
283.983	71.68
284.198	28.67
284.413	77.82
284.628	2.05
284.843	4.1
285.058	-8.19
285.274	69.63
285.489	-77.82
285.704	53.25
285.919	6.14
286.134	47.1
286.349	16.38
286.564	32.77
286.779	81.92
286.995	14.34
287.21	79.87
287.425	116.73
287.64	-34.82
287.855	-2.05
288.07	-2.05
288.285	49.15
288.5	18.43
288.715	51.2
288.93	-2.05
289.145	77.82
289.36	59.39
289.575	-18.43
289.79	38.91
290.004	-12.29
290.219	86.01
290.434	53.25
290.649	16.38
290.864	26.62
291.079	-4.1
291.294	2.05
291.509	-8.19
291.724	-38.91
291.938	69.63
292.153	75.77
292.368	18.43
292.583	30.72
292.798	73.73
293.012	10.24
293.227	43.01
293.442	86.01
293.657	83.97
293.871	47.1
294.086	40.96
294.301	106.49
294.516	86.01
294.73	65.54
294.945	8.19
295.16	-69.63
295.374	40.96
295.589	71.68
295.804	45.06
296.018	34.82
296.233	18.43
296.447	90.11
296.662	10.24
296.877	20.48
297.091	100.35
297.306	34.82
297.52	18.43
297.735	2.05
297.949	98.3
298.164	43.01
298.378	69.63
298.593	-10.24
298.807	96.25
299.022	28.67
299.236	120.83
299.451	28.67
299.665	6.14
299.88	-8.19
300.094	-4.1
300.309	40.96
300.523	129.02
300.737	12.29
300.952	57.34
301.166	32.77
301.381	14.34
301.595	-18.43
301.809	20.48
302.024	18.43
302.238	106.49
302.452	-4.1
302.667	-43.01
302.881	57.34
303.095	26.62
303.309	16.38
303.524	92.16
303.738	45.06
303.952	22.53
304.166	65.54
304.381	2.05
304.595	36.86
304.809	32.77
305.023	0
305.237	-12.29
305.452	124.93
305.666	53.25
305.88	2.05
306.094	47.1
306.308	86.01
306.522	63.49
306.736	100.35
306.95	67.58
307.164	67.58
307.379	71.68
307.593	43.01
307.807	16.38
308.021	36.86
308.235	0
308.449	49.15
308.663	-8.19
308.877	61.44
309.091	0
309.305	83.97
309.519	-55.3
309.733	45.06
309.947	22.53
310.161	57.34
310.374	120.83
310.588	30.72
310.802	32.77
311.016	45.06
311.23	26.62
311.444	10.24
311.658	79.87
311.872	28.67
312.085	94.21
312.299	65.54
312.513	86.01
312.727	86.01
312.941	-12.29
313.154	59.39
313.368	28.67
313.582	-6.14
313.796	-24.58
314.009	8.19
314.223	40.96
314.437	83.97
314.651	57.34
314.864	14.34
315.078	10.24
315.292	59.39
315.505	18.43
315.719	61.44
315.933	51.2
316.146	-28.67
316.36	65.54
316.573	14.34
316.787	59.39
317.001	73.73
317.214	14.34
317.428	67.58
317.641	-38.91
317.855	45.06
318.068	-18.43
318.282	57.34
318.495	49.15
318.709	92.16
318.922	0
319.136	81.92
319.349	94.21
319.563	-18.43
319.776	53.25
319.99	73.73
320.203	34.82
320.417	65.54
320.63	65.54
320.843	182.27
321.057	14.34
321.27	20.48
321.483	75.77
321.697	63.49
321.91	16.38
322.124	32.77
322.337	79.87
322.55	55.3
322.763	73.73
322.977	30.72
323.19	10.24
323.403	30.72
323.617	75.77
323.83	135.17
324.043	57.34
324.256	131.07
324.469	51.2
324.683	77.82
324.896	83.97
325.109	10.24
325.322	32.77
325.535	96.25
325.748	69.63
325.962	0
326.175	14.34
326.388	88.06
326.601	43.01
326.814	8.19
327.027	14.34
327.24	59.39
327.453	40.96
327.666	22.53
327.879	147.45
328.092	47.1
328.305	73.73
328.518	4.1
328.731	-28.67
328.944	-2.05
329.157	24.58
329.37	59.39
329.583	98.3
329.796	18.43
330.009	-16.38
330.222	73.73
330.435	47.1
330.648	38.91
330.861	28.67
331.073	51.2
331.286	40.96
331.499	36.86
331.712	-12.29
331.925	92.16
332.138	12.29
332.35	81.92
332.563	2.05
332.776	112.64
332.989	36.86
333.202	30.72
333.414	47.1
333.627	32.77
333.84	10.24
334.053	-2.05
334.265	16.38
334.478	0
334.691	122.88
334.903	4.1
335.116	20.48
335.329	-63.49
335.541	69.63
335.754	129.02
335.966	-63.49
336.179	34.82
336.392	73.73
336.604	108.54
336.817	36.86
337.029	55.3
337.242	53.25
337.454	92.16
337.667	81.92
337.88	106.49
338.092	131.07
338.305	81.92
338.517	-24.58
338.729	45.06
338.942	112.64
339.154	-34.82
339.367	-16.38
339.579	63.49
339.792	55.3
340.004	73.73
340.217	20.48
340.429	16.38
340.641	34.82
340.854	34.82
341.066	20.48
341.278	65.54
341.491	153.6
341.703	86.01
341.915	-2.05
342.128	0
342.34	-24.58
342.552	75.77
342.764	45.06
342.977	108.54
343.189	75.77
343.401	67.58
343.613	4.1
343.826	47.1
344.038	-20.48
344.25	67.58
344.462	71.68
344.674	75.77
344.886	-2.05
345.099	124.93
345.311	14.34
345.523	59.39
345.735	53.25
345.947	53.25
346.159	43.01
346.371	77.82
346.583	6.14
346.795	47.1
347.007	38.91
347.219	14.34
347.431	-10.24
347.643	94.21
347.855	0
348.067	51.2
348.279	2.05
348.491	16.38
348.703	47.1
348.915	112.64
349.127	38.91
349.339	24.58
349.551	69.63
349.763	86.01
349.975	88.06
350.187	47.1
350.399	131.07
350.61	67.58
350.822	88.06
351.034	61.44
351.246	34.82
351.458	51.2
351.669	69.63
351.881	86.01
352.093	63.49
352.305	86.01
352.517	57.34
352.728	28.67
352.94	51.2
353.152	34.82
353.363	40.96
353.575	59.39
353.787	45.06
353.999	77.82
354.21	18.43
354.422	-51.2
354.633	71.68
354.845	88.06
355.057	-12.29
355.268	63.49
355.48	79.87
355.692	49.15
355.903	69.63
356.115	45.06
356.326	-28.67
356.538	77.82
356.749	71.68
356.961	71.68
357.172	38.91
357.384	61.44
357.595	131.07
357.807	-4.1
358.018	-45.06
358.23	100.35
358.441	49.15
358.653	34.82
358.864	112.64
359.075	32.77
359.287	-6.14
359.498	112.64
359.709	75.77
359.921	79.87
360.132	12.29
360.344	92.16
360.555	8.19
360.766	98.3
360.977	-8.19
361.189	28.67
361.4	67.58
361.611	86.01
361.823	28.67
362.034	-14.34
362.245	53.25
362.456	8.19
362.667	51.2
362.879	43.01
363.09	65.54
363.301	49.15
363.512	22.53
363.723	28.67
363.935	10.24
364.146	34.82
364.357	86.01
364.568	61.44
364.779	26.62
364.99	104.45
365.201	57.34
365.412	88.06
365.623	28.67
365.834	36.86
366.045	61.44
366.256	65.54
366.467	77.82
366.678	92.16
366.889	-20.48
367.1	2.05
367.311	69.63
367.522	63.49
367.733	2.05
367.944	-14.34
368.155	36.86
368.366	106.49
368.577	55.3
368.788	69.63
368.999	75.77
369.209	-12.29
369.42	63.49
369.631	124.93
369.842	75.77
370.053	-12.29
370.264	22.53
370.474	153.6
370.685	32.77
370.896	-20.48
371.107	151.55
371.317	63.49
371.528	67.58
371.739	71.68
371.95	49.15
372.16	59.39
372.371	-16.38
372.582	116.73
372.792	92.16
373.003	57.34
373.214	57.34
373.424	14.34
373.635	6.14
373.846	65.54
374.056	26.62
374.267	-18.43
374.477	32.77
374.688	-4.1
374.898	36.86
375.109	28.67
375.319	77.82
375.53	45.06
375.74	-24.58
375.951	-36.86
376.161	47.1
376.372	59.39
376.582	75.77
376.793	96.25
377.003	4.1
377.214	28.67
377.424	114.69
377.635	36.86
377.845	40.96
378.055	176.13
378.266	20.48
378.476	43.01
378.686	98.3
378.897	67.58
379.107	86.01
379.317	57.34
379.528	34.82
379.738	-2.05
379.948	22.53
380.158	55.3
380.369	112.64
380.579	36.86
380.789	-34.82
380.999	92.16
381.21	53.25
381.42	126.97
381.63	32.77
381.84	114.69
382.05	110.59
382.261	63.49
382.471	133.12
382.681	34.82
382.891	122.88
383.101	102.4
383.311	32.77
383.521	12.29
383.731	40.96
383.941	69.63
384.151	65.54
384.361	94.21
384.571	51.2
384.781	77.82
384.991	92.16
385.201	110.59
385.411	40.96
385.621	77.82
385.831	69.63
386.041	192.51
386.251	83.97
386.461	73.73
386.671	63.49
386.881	32.77
387.091	43.01
387.301	110.59
387.511	8.19
387.72	28.67
387.93	63.49
388.14	81.92
388.35	-10.24
388.56	137.21
388.769	26.62
388.979	-4.1
389.189	49.15
389.399	94.21
389.609	92.16
389.818	55.3
390.028	133.12
390.238	34.82
390.447	-8.19
390.657	151.55
390.867	69.63
391.076	30.72
391.286	45.06
391.496	32.77
391.705	71.68
391.915	49.15
392.125	69.63
392.334	49.15
392.544	79.87
392.753	43.01
392.963	53.25
393.172	108.54
393.382	-28.67
393.591	81.92
393.801	22.53
394.01	88.06
394.22	120.83
394.429	98.3
394.639	4.1
394.848	14.34
395.058	61.44
395.267	53.25
395.477	22.53
395.686	75.77
395.895	129.02
396.105	49.15
396.314	61.44
396.524	129.02
396.733	65.54
396.942	131.07
397.152	96.25
397.361	155.65
397.57	102.4
397.78	98.3
397.989	112.64
398.198	139.26
398.407	88.06
398.617	159.74
398.826	114.69
399.035	133.12
399.244	137.21
399.453	118.78
399.663	131.07
399.872	194.56
400.081	16.38
400.29	102.4
400.499	102.4
400.708	98.3
400.917	157.69
401.127	126.97
401.336	161.79
401.545	112.64
401.754	225.28
401.963	90.11
402.172	112.64
402.381	59.39
402.59	83.97
402.799	163.84
403.008	169.98
403.217	104.45
403.426	96.25
403.635	75.77
403.844	200.7
404.053	172.03
404.262	124.93
404.471	178.17
404.68	165.89
404.888	104.45
405.097	159.74
405.306	143.36
405.515	198.65
405.724	174.08
405.933	118.78
406.142	194.56
406.35	178.17
406.559	178.17
406.768	139.26
406.977	215.04
407.185	225.28
407.394	268.28
407.603	200.7
407.812	186.37
408.02	294.91
408.229	245.76
408.438	299
408.646	241.66
408.855	243.71
409.064	253.95
409.272	208.89
409.481	385.02
409.69	317.44
409.898	266.24
410.107	327.68
410.315	272.38
410.524	301.05
410.733	370.68
410.941	356.35
411.15	395.26
411.358	387.07
411.567	458.75
411.775	337.91
411.984	440.31
412.192	387.07
412.401	389.11
412.609	538.62
412.818	425.98
413.026	544.76
413.234	518.14
413.443	514.04
413.651	567.29
413.86	561.14
414.068	634.87
414.276	661.49
414.485	653.3
414.693	618.49
414.901	696.31
415.11	657.4
415.318	669.69
415.526	698.36
415.734	751.6
415.943	798.71
416.151	843.76
416.359	831.48
416.567	919.54
416.776	882.67
416.984	989.17
417.192	976.88
417.4	968.69
417.608	978.93
417.817	1069.04
418.025	1087.47
418.233	1196.01
418.441	1058.8
418.649	1228.78
418.857	1292.27
419.065	1251.31
419.273	1257.45
419.481	1368.04
419.689	1423.34
419.897	1490.92
420.105	1478.63
420.313	1542.12
420.521	1630.18
420.729	1558.5
420.937	1710.05
421.145	1755.11
421.353	1863.65
421.561	1941.47
421.769	1978.34
421.977	2125.79
422.185	2070.5
422.393	2168.8
422.601	2183.13
422.809	2150.37
423.017	2332.64
423.224	2480.09
423.432	2451.42
423.64	2521.05
423.848	2582.49
424.056	2688.98
424.263	2822.1
424.471	2852.82
424.679	2842.58
424.887	3094.48
425.094	3237.84
425.302	3114.96
425.51	3164.11
425.718	3362.76
425.925	3444.68
426.133	3596.23
426.341	3835.85
426.548	3905.48
426.756	3966.92
426.964	3911.62
427.171	4001.73
427.379	4335.55
427.586	4263.87
427.794	4579.26
428.001	4677.56
428.209	4835.25
428.417	4816.82
428.624	5175.22
428.832	5242.8
429.039	5099.44
429.247	5085.11
429.454	5679.02
429.662	6160.29
429.869	5607.34
430.076	6027.17
430.284	5975.97
430.491	6104.99
430.699	6340.51
430.906	6541.21
431.114	6627.23
431.321	6815.64
431.528	6864.79
431.736	7440.27
431.943	7571.34
432.15	7520.14
432.358	7714.7
432.565	7810.95
432.772	7956.36
432.979	8335.23
433.187	8564.61
433.394	8595.32
433.601	9045.88
433.808	9127.8
434.016	9146.23
434.223	9717.61
434.43	10106.73
434.637	9764.72
434.844	10422.11
435.052	10903.39
435.259	10751.84
435.466	10907.48
435.673	10438.5
435.88	11446.1
436.087	11779.92
436.294	11921.23
436.501	11675.47
436.708	11816.78
436.915	12326.72
437.122	12814.14
437.329	12889.92
437.537	13293.37
437.743	13354.8
437.95	13137.72
438.157	13899.56
438.364	14569.25
438.571	14456.61
438.778	14618.4
438.985	15980.3
439.192	15189.78
439.399	15908.62
439.606	15357.72
439.813	16396.04
440.02	17387.25
440.227	16877.31
440.433	16971.52
440.64	17178.36
440.847	17448.69
441.054	17551.09
441.261	18882.27
441.467	18779.87
441.674	18796.26
441.881	19793.62
442.088	19797.71
442.294	19420.89
442.501	20014.8
442.708	20434.63
442.914	21165.76
443.121	22107.82
443.328	21255.87
443.534	23166.62
443.741	22341.29
443.948	22210.22
444.154	23746.2
444.361	23355.04
444.568	23895.7
444.774	23684.76
444.981	24166.03
445.187	24817.29
445.394	26068.59
445.6	25417.34
445.807	28022.36
446.013	26537.58
446.22	26975.84
446.426	28249.68
446.633	28221.01
446.839	29713.98
447.046	28253.78
447.252	29931.06
447.459	29664.83
447.665	29304.38
447.871	31192.61
448.078	32466.45
448.284	31024.68
448.491	31784.48
448.697	33142.28
448.903	33945.08
449.11	33375.75
449.316	33295.88
449.522	33826.3
449.728	34637.3
449.935	35022.31
450.141	34981.35
450.347	35648.99
450.553	34172.41
450.76	35010.03
450.966	36341.21
451.172	35780.06
451.378	36373.97
451.584	35476.96
451.791	36865.49
451.997	36746.7
452.203	37123.53
452.409	37512.64
452.615	37270.98
452.821	36064.73
453.027	35489.25
453.233	37320.13
453.44	35802.59
453.646	36144.6
453.852	36623.83
454.058	37463.49
454.264	35835.36
454.47	36611.54
454.676	35665.38
454.882	37152.2
455.088	33750.52
455.294	34463.22
455.5	34698.73
455.705	35024.36
455.911	33746.43
456.117	33246.72
456.323	32714.25
456.529	31180.32
456.735	32380.43
456.941	31542.81
457.147	31153.7
457.352	30107.19
457.558	30334.51
457.764	30197.3
457.97	29425.22
458.176	28741.19
458.381	28677.71
458.587	27264.61
458.793	27324
458.999	25822.84
459.204	27653.72
459.41	26861.16
459.616	25013.89
459.821	25136.77
460.027	24888.96
460.233	24534.67
460.438	23416.47
460.644	23645.85
460.85	22595.24
461.055	22027.95
461.261	22212.27
461.466	20631.24
461.672	19764.95
461.878	21384.89
462.083	19902.16
462.289	19543.77
462.494	19488.47
462.7	18722.53
462.905	17893.1
463.111	18495.21
463.316	18687.71
463.522	18216.68
463.727	18357.99
463.932	18331.37
464.138	18104.04
464.343	18310.89
464.549	17307.38
464.754	18220.78
464.959	17915.63
465.165	17979.12
465.37	17172.22
465.575	16908.03
465.781	17528.56
465.986	17438.45
466.191	16772.86
466.397	16365.32
466.602	15742.74
466.807	16355.08
467.012	16293.64
467.218	16240.39
467.423	16094.99
467.628	16195.34
467.833	16350.98
