Data from USB4F104151__7__12-40-57-237.txt Node

Date: Fri Mar 14 12:40:57 EDT 2025
User: louis
Spectrometer: USB4F10415
Trigger mode: 4
Integration Time (sec): 3.000000E-2
Scans to average: 1
Electric dark correction enabled: true
Nonlinearity correction enabled: false
Boxcar width: 0
XAxis mode: Wavelengths
Number of Pixels in Spectrum: 3648
>>>>>Begin Spectral Data<<<<<
178.204	-108.37
178.424	-108.37
178.644	-108.37
178.864	-157.52
179.084	-85.84
179.304	-40.79
179.524	-16.21
179.744	-14.17
179.964	-16.21
180.184	10.41
180.404	10.41
180.624	43.18
180.844	32.94
181.064	-59.22
181.283	-36.69
181.503	43.18
181.723	43.18
181.943	-10.07
182.163	110.76
182.383	37.03
182.602	37.03
182.822	32.94
183.042	34.99
183.262	-36.69
183.482	32.94
183.701	-40.79
183.921	-12.12
184.141	8.36
184.361	28.84
184.58	-5.97
184.8	28.84
185.02	4.27
185.239	32.94
185.459	37.03
185.679	-1.88
185.898	-18.26
186.118	-40.79
186.338	37.03
186.557	37.03
186.777	-12.12
186.997	10.41
187.216	45.23
187.436	28.84
187.655	22.7
187.875	22.7
188.095	37.03
188.314	16.55
188.534	49.32
188.753	55.47
188.973	-44.88
189.192	71.85
189.412	-28.5
189.631	10.41
189.851	55.47
190.07	12.46
190.29	-59.22
190.509	61.61
190.729	-44.88
190.948	41.13
191.168	143.53
191.387	20.65
191.607	43.18
191.826	82.09
192.045	34.99
192.265	-53.08
192.484	69.8
192.704	-3.93
192.923	0.17
193.142	96.43
193.362	63.66
193.581	30.89
193.8	69.8
194.02	82.09
194.239	-1.88
194.458	4.27
194.678	69.8
194.897	-14.17
195.116	88.23
195.335	-3.93
195.555	86.19
195.774	0.17
195.993	75.95
196.212	28.84
196.432	51.37
196.651	65.71
196.87	30.89
197.089	57.51
197.308	73.9
197.528	6.31
197.747	-18.26
197.966	37.03
198.185	80.04
198.404	2.22
198.623	45.23
198.842	75.95
199.062	65.71
199.281	4.27
199.5	-61.27
199.719	57.51
199.938	88.23
200.157	75.95
200.376	73.9
200.595	2.22
200.814	-5.97
201.033	-24.4
201.252	59.56
201.471	-1.88
201.69	37.03
201.909	12.46
202.128	61.61
202.347	14.51
202.566	47.27
202.785	18.6
203.004	41.13
203.223	106.67
203.442	18.6
203.661	-10.07
203.879	-8.02
204.098	12.46
204.317	10.41
204.536	37.03
204.755	45.23
204.974	12.46
205.193	26.79
205.411	-16.21
205.63	14.51
205.849	-18.26
206.068	-30.55
206.287	18.6
206.505	108.71
206.724	-5.97
206.943	61.61
207.162	-20.31
207.381	8.36
207.599	4.27
207.818	41.13
208.037	-10.07
208.255	28.84
208.474	-3.93
208.693	47.27
208.911	63.66
209.13	67.75
209.349	20.65
209.567	-8.02
209.786	53.42
210.005	-24.4
210.223	12.46
210.442	-24.4
210.661	49.32
210.879	22.7
211.098	-20.31
211.316	-12.12
211.535	92.33
211.753	51.37
211.972	63.66
212.191	71.85
212.409	45.23
212.628	41.13
212.846	-48.98
213.065	67.75
213.283	102.57
213.502	-26.45
213.72	65.71
213.938	67.75
214.157	10.41
214.375	-8.02
214.594	45.23
214.812	8.36
215.031	10.41
215.249	37.03
215.467	47.27
215.686	45.23
215.904	39.08
216.122	45.23
216.341	47.27
216.559	0.17
216.778	102.57
216.996	30.89
217.214	-1.88
217.432	37.03
217.651	63.66
217.869	37.03
218.087	-77.65
218.306	20.65
218.524	86.19
218.742	41.13
218.96	20.65
219.179	-1.88
219.397	-38.74
219.615	75.95
219.833	12.46
220.051	20.65
220.27	8.36
220.488	16.55
220.706	32.94
220.924	-30.55
221.142	2.22
221.36	32.94
221.578	2.22
221.796	67.75
222.015	47.27
222.233	57.51
222.451	67.75
222.669	-8.02
222.887	-12.12
223.105	49.32
223.323	-40.79
223.541	-46.93
223.759	69.8
223.977	37.03
224.195	20.65
224.413	16.55
224.631	53.42
224.849	71.85
225.067	84.14
225.285	45.23
225.503	45.23
225.721	-20.31
225.939	47.27
226.157	37.03
226.375	104.62
226.592	-28.5
226.81	34.99
227.028	133.29
227.246	41.13
227.464	22.7
227.682	69.8
227.9	75.95
228.117	-18.26
228.335	-32.6
228.553	16.55
228.771	-5.97
228.989	-3.93
229.206	6.31
229.424	28.84
229.642	4.27
229.86	59.56
230.077	116.9
230.295	12.46
230.513	43.18
230.731	49.32
230.948	4.27
231.166	47.27
231.384	2.22
231.601	20.65
231.819	80.04
232.037	41.13
232.254	53.42
232.472	30.89
232.689	14.51
232.907	82.09
233.125	2.22
233.342	-1.88
233.56	-14.17
233.777	-5.97
233.995	57.51
234.213	61.61
234.43	108.71
234.648	-24.4
234.865	30.89
235.083	49.32
235.3	51.37
235.518	12.46
235.735	49.32
235.953	110.76
236.17	-59.22
236.388	-28.5
236.605	77.99
236.822	32.94
237.04	88.23
237.257	39.08
237.475	-30.55
237.692	8.36
237.909	49.32
238.127	-79.7
238.344	4.27
238.562	55.47
238.779	28.84
238.996	45.23
239.214	34.99
239.431	41.13
239.648	16.55
239.865	-40.79
240.083	14.51
240.3	22.7
240.517	18.6
240.735	-32.6
240.952	47.27
241.169	-22.36
241.386	51.37
241.603	37.03
241.821	-44.88
242.038	-57.17
242.255	77.99
242.472	-34.64
242.689	57.51
242.907	28.84
243.124	49.32
243.341	-28.5
243.558	-83.8
243.775	69.8
243.992	-32.6
244.209	-12.12
244.426	82.09
244.643	73.9
244.86	-18.26
245.078	71.85
245.295	30.89
245.512	45.23
245.729	20.65
245.946	8.36
246.163	10.41
246.38	-18.26
246.597	71.85
246.814	53.42
247.031	24.75
247.248	24.75
247.464	77.99
247.681	32.94
247.898	65.71
248.115	65.71
248.332	53.42
248.549	-22.36
248.766	61.61
248.983	57.51
249.2	57.51
249.417	43.18
249.633	20.65
249.85	61.61
250.067	-18.26
250.284	53.42
250.501	8.36
250.717	77.99
250.934	8.36
251.151	53.42
251.368	8.36
251.585	47.27
251.801	55.47
252.018	-38.74
252.235	65.71
252.451	-16.21
252.668	43.18
252.885	59.56
253.102	65.71
253.318	43.18
253.535	-1.88
253.752	-61.27
253.968	49.32
254.185	-42.84
254.401	41.13
254.618	6.31
254.835	-30.55
255.051	57.51
255.268	30.89
255.484	-1.88
255.701	-12.12
255.917	125.1
256.134	-22.36
256.351	63.66
256.567	-5.97
256.784	108.71
257	-81.75
257.217	10.41
257.433	41.13
257.65	55.47
257.866	61.61
258.082	16.55
258.299	41.13
258.515	45.23
258.732	51.37
258.948	41.13
259.165	37.03
259.381	47.27
259.597	8.36
259.814	-36.69
260.03	-26.45
260.246	55.47
260.463	-5.97
260.679	-1.88
260.895	-8.02
261.112	22.7
261.328	-8.02
261.544	-34.64
261.761	14.51
261.977	-85.84
262.193	22.7
262.409	96.43
262.626	59.56
262.842	14.51
263.058	-12.12
263.274	86.19
263.49	90.28
263.707	16.55
263.923	55.47
264.139	-28.5
264.355	24.75
264.571	26.79
264.787	75.95
265.004	14.51
265.22	-46.93
265.436	12.46
265.652	12.46
265.868	39.08
266.084	-42.84
266.3	-18.26
266.516	-30.55
266.732	55.47
266.948	20.65
267.164	45.23
267.38	18.6
267.596	47.27
267.812	104.62
268.028	34.99
268.244	20.65
268.46	41.13
268.676	32.94
268.892	65.71
269.108	-1.88
269.324	18.6
269.54	20.65
269.756	55.47
269.972	86.19
270.188	-36.69
270.403	-12.12
270.619	-1.88
270.835	22.7
271.051	34.99
271.267	-91.99
271.483	41.13
271.698	-14.17
271.914	34.99
272.13	-46.93
272.346	4.27
272.562	14.51
272.777	55.47
272.993	45.23
273.209	0.17
273.425	-14.17
273.64	-69.46
273.856	-12.12
274.072	8.36
274.287	32.94
274.503	39.08
274.719	-18.26
274.934	-1.88
275.15	8.36
275.366	4.27
275.581	-12.12
275.797	39.08
276.012	20.65
276.228	37.03
276.444	77.99
276.659	47.27
276.875	-53.08
277.09	0.17
277.306	4.27
277.521	77.99
277.737	41.13
277.952	-28.5
278.168	8.36
278.383	-20.31
278.599	86.19
278.814	96.43
279.03	-26.45
279.245	121
279.461	45.23
279.676	47.27
279.892	-18.26
280.107	-12.12
280.322	8.36
280.538	6.31
280.753	2.22
280.969	82.09
281.184	-22.36
281.399	24.75
281.615	63.66
281.83	-16.21
282.045	-18.26
282.26	88.23
282.476	18.6
282.691	47.27
282.906	-16.21
283.122	22.7
283.337	-46.93
283.552	26.79
283.767	16.55
283.983	-8.02
284.198	6.31
284.413	47.27
284.628	69.8
284.843	114.86
285.058	39.08
285.274	-22.36
285.489	-8.02
285.704	53.42
285.919	28.84
286.134	-10.07
286.349	71.85
286.564	-46.93
286.779	18.6
286.995	102.57
287.21	-1.88
287.425	67.75
287.64	4.27
287.855	6.31
288.07	82.09
288.285	8.36
288.5	41.13
288.715	-22.36
288.93	39.08
289.145	43.18
289.36	14.51
289.575	98.47
289.79	20.65
290.004	-3.93
290.219	-1.88
290.434	43.18
290.649	-32.6
290.864	30.89
291.079	39.08
291.294	53.42
291.509	-16.21
291.724	30.89
291.938	71.85
292.153	41.13
292.368	98.47
292.583	63.66
292.798	-22.36
293.012	82.09
293.227	20.65
293.442	4.27
293.657	73.9
293.871	32.94
294.086	34.99
294.301	82.09
294.516	-10.07
294.73	14.51
294.945	2.22
295.16	28.84
295.374	90.28
295.589	41.13
295.804	-10.07
296.018	12.46
296.233	41.13
296.447	71.85
296.662	8.36
296.877	67.75
297.091	0.17
297.306	39.08
297.52	-34.64
297.735	-3.93
297.949	-32.6
298.164	47.27
298.378	-5.97
298.593	32.94
298.807	-30.55
299.022	61.61
299.236	14.51
299.451	-8.02
299.665	12.46
299.88	34.99
300.094	-10.07
300.309	100.52
300.523	8.36
300.737	12.46
300.952	98.47
301.166	32.94
301.381	71.85
301.595	51.37
301.809	16.55
302.024	55.47
302.238	16.55
302.452	63.66
302.667	-10.07
302.881	73.9
303.095	8.36
303.309	-8.02
303.524	-30.55
303.738	28.84
303.952	86.19
304.166	-14.17
304.381	-18.26
304.595	82.09
304.809	41.13
305.023	71.85
305.237	24.75
305.452	14.51
305.666	82.09
305.88	53.42
306.094	51.37
306.308	-18.26
306.522	24.75
306.736	-12.12
306.95	6.31
307.164	80.04
307.379	-3.93
307.593	98.47
307.807	57.51
308.021	6.31
308.235	-24.4
308.449	-8.02
308.663	49.32
308.877	86.19
309.091	49.32
309.305	20.65
309.519	-48.98
309.733	16.55
309.947	-71.51
310.161	39.08
310.374	100.52
310.588	-1.88
310.802	80.04
311.016	-34.64
311.23	-1.88
311.444	12.46
311.658	-38.74
311.872	100.52
312.085	69.8
312.299	28.84
312.513	8.36
312.727	-20.31
312.941	121
313.154	8.36
313.368	-16.21
313.582	67.75
313.796	-1.88
314.009	45.23
314.223	51.37
314.437	16.55
314.651	30.89
314.864	57.51
315.078	4.27
315.292	47.27
315.505	2.22
315.719	77.99
315.933	88.23
316.146	6.31
316.36	65.71
316.573	16.55
316.787	69.8
317.001	77.99
317.214	-12.12
317.428	47.27
317.641	90.28
317.855	71.85
318.068	86.19
318.282	0.17
318.495	100.52
318.709	39.08
318.922	10.41
319.136	2.22
319.349	24.75
319.563	-1.88
319.776	155.82
319.99	-8.02
320.203	18.6
320.417	-3.93
320.63	63.66
320.843	63.66
321.057	41.13
321.27	-14.17
321.483	-28.5
321.697	106.67
321.91	8.36
322.124	47.27
322.337	-12.12
322.55	34.99
322.763	-36.69
322.977	82.09
323.19	-5.97
323.403	-10.07
323.617	65.71
323.83	61.61
324.043	30.89
324.256	90.28
324.469	-20.31
324.683	45.23
324.896	30.89
325.109	0.17
325.322	14.51
325.535	20.65
325.748	39.08
325.962	-1.88
326.175	-36.69
326.388	43.18
326.601	28.84
326.814	73.9
327.027	63.66
327.24	67.75
327.453	-5.97
327.666	6.31
327.879	88.23
328.092	69.8
328.305	43.18
328.518	75.95
328.731	-46.93
328.944	51.37
329.157	22.7
329.37	45.23
329.583	57.51
329.796	110.76
330.009	26.79
330.222	-1.88
330.435	-24.4
330.648	34.99
330.861	18.6
331.073	86.19
331.286	135.34
331.499	67.75
331.712	18.6
331.925	-20.31
332.138	8.36
332.35	67.75
332.563	41.13
332.776	41.13
332.989	18.6
333.202	-3.93
333.414	39.08
333.627	112.81
333.84	14.51
334.053	86.19
334.265	63.66
334.478	39.08
334.691	-5.97
334.903	-5.97
335.116	10.41
335.329	43.18
335.541	45.23
335.754	41.13
335.966	-8.02
336.179	63.66
336.392	-18.26
336.604	-12.12
336.817	-5.97
337.029	32.94
337.242	-91.99
337.454	26.79
337.667	41.13
337.88	110.76
338.092	63.66
338.305	59.56
338.517	-1.88
338.729	53.42
338.942	73.9
339.154	24.75
339.367	-12.12
339.579	104.62
339.792	20.65
340.004	30.89
340.217	49.32
340.429	77.99
340.641	-12.12
340.854	22.7
341.066	34.99
341.278	84.14
341.491	108.71
341.703	8.36
341.915	-22.36
342.128	22.7
342.34	30.89
342.552	24.75
342.764	63.66
342.977	88.23
343.189	96.43
343.401	-26.45
343.613	-22.36
343.826	47.27
344.038	-38.74
344.25	-44.88
344.462	-57.17
344.674	24.75
344.886	8.36
345.099	8.36
345.311	16.55
345.523	2.22
345.735	24.75
345.947	88.23
346.159	53.42
346.371	22.7
346.583	-10.07
346.795	61.61
347.007	30.89
347.219	63.66
347.431	18.6
347.643	41.13
347.855	59.56
348.067	55.47
348.279	34.99
348.491	4.27
348.703	77.99
348.915	43.18
349.127	-5.97
349.339	55.47
349.551	-40.79
349.763	-12.12
349.975	55.47
350.187	118.95
350.399	55.47
350.61	57.51
350.822	30.89
351.034	14.51
351.246	98.47
351.458	49.32
351.669	102.57
351.881	71.85
352.093	55.47
352.305	32.94
352.517	26.79
352.728	45.23
352.94	-5.97
353.152	-8.02
353.363	-48.98
353.575	41.13
353.787	159.91
353.999	77.99
354.21	90.28
354.422	39.08
354.633	69.8
354.845	90.28
355.057	75.95
355.268	32.94
355.48	41.13
355.692	-22.36
355.903	-48.98
356.115	-51.03
356.326	-20.31
356.538	82.09
356.749	16.55
356.961	75.95
357.172	61.61
357.384	24.75
357.595	84.14
357.807	53.42
358.018	-10.07
358.23	37.03
358.441	55.47
358.653	73.9
358.864	43.18
359.075	8.36
359.287	80.04
359.498	86.19
359.709	8.36
359.921	16.55
360.132	47.27
360.344	63.66
360.555	73.9
360.766	43.18
360.977	100.52
361.189	55.47
361.4	26.79
361.611	10.41
361.823	47.27
362.034	14.51
362.245	22.7
362.456	2.22
362.667	90.28
362.879	0.17
363.09	65.71
363.301	102.57
363.512	57.51
363.723	4.27
363.935	16.55
364.146	43.18
364.357	59.56
364.568	-73.56
364.779	-28.5
364.99	59.56
365.201	30.89
365.412	0.17
365.623	45.23
365.834	2.22
366.045	6.31
366.256	37.03
366.467	-18.26
366.678	53.42
366.889	55.47
367.1	41.13
367.311	24.75
367.522	90.28
367.733	82.09
367.944	37.03
368.155	53.42
368.366	41.13
368.577	55.47
368.788	39.08
368.999	0.17
369.209	8.36
369.42	37.03
369.631	51.37
369.842	82.09
370.053	43.18
370.264	-18.26
370.474	20.65
370.685	4.27
370.896	-10.07
371.107	75.95
371.317	45.23
371.528	77.99
371.739	32.94
371.95	12.46
372.16	59.56
372.371	-34.64
372.582	-46.93
372.792	57.51
373.003	45.23
373.214	14.51
373.424	67.75
373.635	4.27
373.846	-8.02
374.056	8.36
374.267	69.8
374.477	37.03
374.688	-10.07
374.898	-10.07
375.109	59.56
375.319	28.84
375.53	-22.36
375.74	127.14
375.951	24.75
376.161	14.51
376.372	73.9
376.582	45.23
376.793	22.7
377.003	-10.07
377.214	-18.26
377.424	131.24
377.635	32.94
377.845	-5.97
378.055	131.24
378.266	20.65
378.476	92.33
378.686	92.33
378.897	43.18
379.107	39.08
379.317	37.03
379.528	18.6
379.738	71.85
379.948	12.46
380.158	-1.88
380.369	43.18
380.579	71.85
380.789	10.41
380.999	-12.12
381.21	4.27
381.42	84.14
381.63	16.55
381.84	-18.26
382.05	-32.6
382.261	143.53
382.471	28.84
382.681	22.7
382.891	71.85
383.101	112.81
383.311	104.62
383.521	59.56
383.731	84.14
383.941	22.7
384.151	22.7
384.361	-5.97
384.571	43.18
384.781	24.75
384.991	32.94
385.201	69.8
385.411	8.36
385.621	86.19
385.831	-12.12
386.041	57.51
386.251	102.57
386.461	55.47
386.671	16.55
386.881	55.47
387.091	14.51
387.301	37.03
387.511	112.81
387.72	73.9
387.93	26.79
388.14	37.03
388.35	92.33
388.56	55.47
388.769	94.38
388.979	2.22
389.189	20.65
389.399	32.94
389.609	55.47
389.818	73.9
390.028	22.7
390.238	100.52
390.447	22.7
390.657	-16.21
390.867	-26.45
391.076	0.17
391.286	94.38
391.496	4.27
391.705	51.37
391.915	155.82
392.125	32.94
392.334	53.42
392.544	82.09
392.753	55.47
392.963	20.65
393.172	86.19
393.382	37.03
393.591	65.71
393.801	6.31
394.01	92.33
394.22	24.75
394.429	86.19
394.639	4.27
394.848	102.57
395.058	18.6
395.267	67.75
395.477	82.09
395.686	108.71
395.895	75.95
396.105	139.43
396.314	86.19
396.524	110.76
396.733	0.17
396.942	127.14
397.152	80.04
397.361	71.85
397.57	77.99
397.78	20.65
397.989	45.23
398.198	161.96
398.407	100.52
398.617	20.65
398.826	96.43
399.035	121
399.244	110.76
399.453	143.53
399.663	8.36
399.872	161.96
400.081	67.75
400.29	88.23
400.499	39.08
400.708	98.47
400.917	71.85
401.127	125.1
401.336	14.51
401.545	94.38
401.754	137.38
401.963	88.23
402.172	51.37
402.381	102.57
402.59	67.75
402.799	137.38
403.008	131.24
403.217	133.29
403.426	67.75
403.635	77.99
403.844	125.1
404.053	12.46
404.262	32.94
404.471	221.35
404.68	174.25
404.888	135.34
405.097	159.91
405.306	141.48
405.515	168.1
405.724	174.25
405.933	211.11
406.142	80.04
406.35	90.28
406.559	141.48
406.768	215.21
406.977	262.31
407.185	96.43
407.394	153.77
407.603	188.58
407.812	211.11
408.02	164.01
408.229	204.97
408.438	270.5
408.646	143.53
408.855	235.69
409.064	252.07
409.272	176.3
409.481	284.84
409.69	256.17
409.898	161.96
410.107	270.5
410.315	323.75
410.524	211.11
410.733	315.56
410.941	178.34
411.15	395.43
411.358	225.45
411.567	368.81
411.775	264.36
411.984	356.52
412.192	397.48
412.401	348.33
412.609	450.72
412.818	352.42
413.026	430.24
413.234	409.76
413.443	434.34
413.651	424.1
413.86	497.83
414.068	514.21
414.276	569.51
414.485	440.48
414.693	555.17
414.901	618.66
415.11	549.03
415.318	602.27
415.526	620.71
415.734	602.27
415.943	608.42
416.151	663.71
416.359	680.1
416.567	661.66
416.776	749.73
416.984	862.37
417.192	796.83
417.4	831.65
417.608	790.69
417.817	764.06
418.025	868.51
418.233	979.1
418.441	856.22
418.649	966.81
418.857	1071.26
419.065	1093.79
419.273	1095.83
419.481	1050.78
419.689	1175.7
419.897	1114.27
420.105	1243.29
420.313	1192.09
420.521	1386.65
420.729	1353.88
420.937	1384.6
421.145	1493.14
421.353	1448.08
421.561	1599.63
421.769	1667.22
421.977	1685.65
422.185	1634.45
422.393	1712.27
422.601	1861.77
422.809	1763.47
423.017	1880.21
423.224	1886.35
423.432	2042
423.64	2021.52
423.848	2361.48
424.056	2179.21
424.263	2273.42
424.471	2398.34
424.679	2447.49
424.887	2513.03
425.094	2650.24
425.302	2564.23
425.51	2717.83
425.718	2678.91
425.925	2779.26
426.133	2893.95
426.341	3061.88
426.548	3178.62
426.756	3076.22
426.964	3231.87
427.171	3430.52
427.379	3481.72
427.586	3561.59
427.794	3848.3
428.001	3815.54
428.209	4042.86
428.417	3999.85
428.624	4206.7
428.832	4204.65
429.039	4153.45
429.247	4165.74
429.454	4653.16
429.662	4964.45
429.869	4589.67
430.076	4984.93
430.284	4796.51
430.491	4995.17
430.699	5224.54
430.906	5312.6
431.114	5296.22
431.321	5617.75
431.528	5619.8
431.736	5982.29
431.943	6111.31
432.15	6201.42
432.358	6133.84
432.565	6398.03
432.772	6559.81
432.979	6852.67
433.187	7039.04
433.394	6860.87
433.601	7606.33
433.808	7581.75
434.016	7450.68
434.223	7655.48
434.43	8353.84
434.637	8146.99
434.844	8566.82
435.052	8914.98
435.259	8622.12
435.466	8675.37
435.673	8867.88
435.88	9242.65
436.087	9893.91
436.294	9713.69
436.501	9732.12
436.708	9672.73
436.915	10176.53
437.122	10493.96
437.329	10397.71
437.537	10700.81
437.743	11096.07
437.95	10917.89
438.157	11499.52
438.364	11948.02
438.571	11755.51
438.778	11773.94
438.985	12929
439.192	12572.65
439.399	12750.82
439.606	12652.52
439.813	13479.9
440.02	14155.73
440.227	13905.88
440.433	13821.91
440.64	14112.72
440.847	14251.99
441.054	14440.4
441.261	15417.28
441.467	15292.35
441.674	15550.4
441.881	16162.74
442.088	16136.12
442.294	16037.81
442.501	16445.36
442.708	16945.06
442.914	17399.71
443.121	18225.04
443.328	17567.65
443.534	18675.6
443.741	18278.29
443.948	18116.5
444.154	19326.85
444.361	19163.01
444.568	19382.15
444.774	19406.72
444.981	19779.45
445.187	20189.05
445.394	21100.39
445.6	20905.84
445.807	22718.29
446.013	21901.15
446.22	22011.74
446.426	23062.35
446.633	23430.98
446.839	24184.63
447.046	23232.33
447.252	24178.49
447.459	24414.01
447.665	24495.92
447.871	25599.78
448.078	26726.16
448.284	25272.11
448.491	26177.31
448.697	26984.21
448.903	27459.34
449.11	27612.93
449.316	27141.9
449.522	27610.89
449.728	28634.87
449.935	28761.84
450.141	28495.61
450.347	29179.63
450.553	28303.1
450.76	28460.79
450.966	29779.68
451.172	29382.38
451.378	30043.87
451.584	29824.74
451.791	30176.99
451.997	29859.56
452.203	30574.3
452.409	30205.66
452.615	30617.3
452.821	29310.7
453.027	29085.42
453.233	30590.68
453.44	29241.07
453.646	30047.97
453.852	29574.89
454.058	30625.5
454.264	29482.73
454.47	30293.72
454.676	28937.97
454.882	30248.67
455.088	27485.96
455.294	28280.57
455.5	28284.67
455.705	28925.68
455.911	27393.8
456.117	27033.36
456.323	26748.69
456.529	25483.05
456.735	26527.51
456.941	25952.03
457.147	25321.26
457.352	24631.09
457.558	24039.23
457.764	24248.12
457.97	24119.1
458.176	23316.29
458.381	23570.24
458.587	22259.54
458.793	22077.27
458.999	21026.67
459.204	22421.33
459.41	21950.3
459.616	20727.66
459.821	20338.55
460.027	20502.39
460.233	20156.28
460.438	19070.86
460.644	19384.19
460.85	18171.8
461.055	18059.16
461.261	18235.28
461.466	16678.83
461.672	16064.44
461.878	17346.47
462.083	16412.59
462.289	15804.35
462.494	15751.1
462.7	15028.17
462.905	14446.54
463.111	14936.01
463.316	15087.56
463.522	14798.79
463.727	14944.2
463.932	14837.7
464.138	14571.47
464.343	15048.65
464.549	14217.17
464.754	14763.98
464.959	14481.36
465.165	14641.1
465.37	13963.22
465.575	13651.93
465.781	14000.09
465.986	14206.93
466.191	13920.21
466.397	13445.09
466.602	13058.02
466.807	13424.61
467.012	13350.88
467.218	13166.56
467.423	13121.51
467.628	13250.53
467.833	13459.42
