Data from USB4F104151__10__12-40-58-646.txt Node

Date: Fri Mar 14 12:40:58 EDT 2025
User: louis
Spectrometer: USB4F10415
Trigger mode: 4
Integration Time (sec): 3.000000E-2
Scans to average: 1
Electric dark correction enabled: true
Nonlinearity correction enabled: false
Boxcar width: 0
XAxis mode: Wavelengths
Number of Pixels in Spectrum: 3648
>>>>>Begin Spectral Data<<<<<
178.204	-100.52
178.424	-100.52
178.644	-100.52
178.864	-118.95
179.084	-84.14
179.304	-39.08
179.524	-20.65
179.744	3.93
179.964	61.27
180.184	-0.17
180.404	73.56
180.624	-39.08
180.844	-4.27
181.064	-28.84
181.283	53.08
181.503	-49.32
181.723	-10.41
181.943	-14.51
182.163	69.46
182.383	-32.94
182.602	3.93
182.822	61.27
183.042	36.69
183.262	5.97
183.482	18.26
183.701	94.04
183.921	61.27
184.141	-55.47
184.361	55.12
184.58	100.18
184.8	112.47
185.02	-28.84
185.239	63.32
185.459	12.12
185.679	96.08
185.898	-32.94
186.118	102.23
186.338	51.03
186.557	87.89
186.777	63.32
186.997	73.56
187.216	26.45
187.436	89.94
187.655	-20.65
187.875	24.4
188.095	26.45
188.314	61.27
188.534	63.32
188.753	30.55
188.973	104.28
189.192	96.08
189.412	-18.6
189.631	77.65
189.851	3.93
190.07	42.84
190.29	46.93
190.509	22.36
190.729	-34.99
190.948	20.31
191.168	124.76
191.387	153.43
191.607	91.99
191.826	57.17
192.045	63.32
192.265	-30.89
192.484	59.22
192.704	59.22
192.923	-18.6
193.142	94.04
193.362	-22.7
193.581	104.28
193.8	38.74
194.02	81.75
194.239	46.93
194.458	26.45
194.678	3.93
194.897	57.17
195.116	61.27
195.335	67.41
195.555	108.37
195.774	3.93
195.993	46.93
196.212	20.31
196.432	55.12
196.651	32.6
196.87	91.99
197.089	48.98
197.308	104.28
197.528	48.98
197.747	16.21
197.966	-43.18
198.185	65.36
198.404	-18.6
198.623	69.46
198.842	71.51
199.062	112.47
199.281	120.66
199.5	65.36
199.719	-18.6
199.938	89.94
200.157	53.08
200.376	38.74
200.595	24.4
200.814	102.23
201.033	-32.94
201.252	89.94
201.471	30.55
201.69	42.84
201.909	79.7
202.128	14.17
202.347	59.22
202.566	34.64
202.785	-34.99
203.004	22.36
203.223	67.41
203.442	-8.36
203.661	40.79
203.879	53.08
204.098	-0.17
204.317	38.74
204.536	38.74
204.755	8.02
204.974	22.36
205.193	83.8
205.411	112.47
205.63	-2.22
205.849	34.64
206.068	5.97
206.287	-12.46
206.505	71.51
206.724	51.03
206.943	-14.51
207.162	14.17
207.381	14.17
207.599	40.79
207.818	36.69
208.037	-43.18
208.255	40.79
208.474	65.36
208.693	69.46
208.911	5.97
209.13	40.79
209.349	30.55
209.567	28.5
209.786	71.51
210.005	-37.03
210.223	102.23
210.442	-34.99
210.661	61.27
210.879	77.65
211.098	-34.99
211.316	14.17
211.535	112.47
211.753	91.99
211.972	46.93
212.191	-10.41
212.409	38.74
212.628	87.89
212.846	14.17
213.065	3.93
213.283	22.36
213.502	61.27
213.72	44.88
213.938	44.88
214.157	77.65
214.375	12.12
214.594	14.17
214.812	79.7
215.031	73.56
215.249	59.22
215.467	44.88
215.686	8.02
215.904	3.93
216.122	108.37
216.341	79.7
216.559	-69.8
216.778	30.55
216.996	94.04
217.214	61.27
217.432	28.5
217.651	-30.89
217.869	46.93
218.087	-4.27
218.306	-6.31
218.524	12.12
218.742	48.98
218.96	32.6
219.179	94.04
219.397	-22.7
219.615	102.23
219.833	-12.46
220.051	-26.79
220.27	79.7
220.488	89.94
220.706	48.98
220.924	-18.6
221.142	20.31
221.36	53.08
221.578	-55.47
221.796	28.5
222.015	38.74
222.233	26.45
222.451	128.85
222.669	-10.41
222.887	122.71
223.105	16.21
223.323	3.93
223.541	53.08
223.759	79.7
223.977	16.21
224.195	175.95
224.413	102.23
224.631	38.74
224.849	46.93
225.067	79.7
225.285	-32.94
225.503	-20.65
225.721	-69.8
225.939	63.32
226.157	1.88
226.375	124.76
226.592	36.69
226.81	5.97
227.028	-0.17
227.246	96.08
227.464	96.08
227.682	118.61
227.9	-39.08
228.117	85.84
228.335	104.28
228.553	8.02
228.771	36.69
228.989	61.27
229.206	24.4
229.424	16.21
229.642	-24.75
229.86	1.88
230.077	69.46
230.295	85.84
230.513	67.41
230.731	32.6
230.948	79.7
231.166	63.32
231.384	40.79
231.601	12.12
231.819	87.89
232.037	-12.46
232.254	-39.08
232.472	-24.75
232.689	14.17
232.907	81.75
233.125	83.8
233.342	106.32
233.56	16.21
233.777	51.03
233.995	79.7
234.213	61.27
234.43	14.17
234.648	40.79
234.865	69.46
235.083	106.32
235.3	-16.55
235.518	26.45
235.735	81.75
235.953	40.79
236.17	34.64
236.388	3.93
236.605	44.88
236.822	155.47
237.04	16.21
237.257	71.51
237.475	12.12
237.692	8.02
237.909	36.69
238.127	63.32
238.344	-4.27
238.562	22.36
238.779	3.93
238.996	20.31
239.214	44.88
239.431	75.6
239.648	61.27
239.865	65.36
240.083	91.99
240.3	36.69
240.517	28.5
240.735	79.7
240.952	30.55
241.169	85.84
241.386	10.07
241.603	-26.79
241.821	46.93
242.038	51.03
242.255	69.46
242.472	5.97
242.689	30.55
242.907	28.5
243.124	34.64
243.341	112.47
243.558	5.97
243.775	10.07
243.992	-16.55
244.209	38.74
244.426	79.7
244.643	-28.84
244.86	-104.62
245.078	-37.03
245.295	57.17
245.512	53.08
245.729	-2.22
245.946	81.75
246.163	59.22
246.38	104.28
246.597	46.93
246.814	75.6
247.031	73.56
247.248	42.84
247.464	94.04
247.681	12.12
247.898	135
248.115	112.47
248.332	-12.46
248.549	18.26
248.766	100.18
248.983	38.74
249.2	106.32
249.417	-8.36
249.633	-10.41
249.85	46.93
250.067	83.8
250.284	28.5
250.501	18.26
250.717	-4.27
250.934	-18.6
251.151	10.07
251.368	-2.22
251.585	36.69
251.801	59.22
252.018	1.88
252.235	53.08
252.451	36.69
252.668	59.22
252.885	100.18
253.102	51.03
253.318	30.55
253.535	46.93
253.752	-4.27
253.968	38.74
254.185	3.93
254.401	91.99
254.618	67.41
254.835	-77.99
255.051	149.33
255.268	16.21
255.484	-24.75
255.701	3.93
255.917	22.36
256.134	44.88
256.351	36.69
256.567	-4.27
256.784	24.4
257	-8.36
257.217	46.93
257.433	42.84
257.65	67.41
257.866	42.84
258.082	22.36
258.299	108.37
258.515	22.36
258.732	22.36
258.948	-26.79
259.165	79.7
259.381	1.88
259.597	40.79
259.814	-0.17
260.03	-61.61
260.246	18.26
260.463	61.27
260.679	44.88
260.895	67.41
261.112	81.75
261.328	24.4
261.544	24.4
261.761	16.21
261.977	22.36
262.193	-18.6
262.409	75.6
262.626	5.97
262.842	-6.31
263.058	-22.7
263.274	-28.84
263.49	-10.41
263.707	-0.17
263.923	20.31
264.139	-41.13
264.355	32.6
264.571	79.7
264.787	20.31
265.004	77.65
265.22	14.17
265.436	-6.31
265.652	-49.32
265.868	51.03
266.084	-12.46
266.3	44.88
266.516	12.12
266.732	-8.36
266.948	57.17
267.164	-47.27
267.38	28.5
267.596	55.12
267.812	28.5
268.028	42.84
268.244	10.07
268.46	-51.37
268.676	14.17
268.892	46.93
269.108	-16.55
269.324	32.6
269.54	5.97
269.756	44.88
269.972	-0.17
270.188	14.17
270.403	55.12
270.619	42.84
270.835	102.23
271.051	16.21
271.267	65.36
271.483	22.36
271.698	85.84
271.914	20.31
272.13	32.6
272.346	8.02
272.562	36.69
272.777	94.04
272.993	-0.17
273.209	36.69
273.425	63.32
273.64	3.93
273.856	18.26
274.072	-30.89
274.287	59.22
274.503	32.6
274.719	-12.46
274.934	-10.41
275.15	-43.18
275.366	3.93
275.581	14.17
275.797	16.21
276.012	51.03
276.228	-10.41
276.444	28.5
276.659	89.94
276.875	77.65
277.09	20.31
277.306	73.56
277.521	-14.51
277.737	32.6
277.952	26.45
278.168	63.32
278.383	-4.27
278.599	73.56
278.814	94.04
279.03	61.27
279.245	32.6
279.461	-32.94
279.676	34.64
279.892	3.93
280.107	-30.89
280.322	53.08
280.538	40.79
280.753	-24.75
280.969	61.27
281.184	30.55
281.399	73.56
281.615	44.88
281.83	87.89
282.045	-34.99
282.26	-6.31
282.476	-41.13
282.691	40.79
282.906	24.4
283.122	-32.94
283.337	-4.27
283.552	24.4
283.767	94.04
283.983	22.36
284.198	12.12
284.413	44.88
284.628	55.12
284.843	40.79
285.058	55.12
285.274	91.99
285.489	24.4
285.704	-16.55
285.919	-32.94
286.134	53.08
286.349	32.6
286.564	55.12
286.779	63.32
286.995	46.93
287.21	-45.23
287.425	61.27
287.64	14.17
287.855	40.79
288.07	-18.6
288.285	94.04
288.5	36.69
288.715	87.89
288.93	83.8
289.145	104.28
289.36	85.84
289.575	63.32
289.79	61.27
290.004	32.6
290.219	100.18
290.434	-4.27
290.649	89.94
290.864	36.69
291.079	55.12
291.294	46.93
291.509	77.65
291.724	81.75
291.938	89.94
292.153	34.64
292.368	-28.84
292.583	20.31
292.798	-8.36
293.012	-0.17
293.227	22.36
293.442	89.94
293.657	-22.7
293.871	8.02
294.086	51.03
294.301	28.5
294.516	77.65
294.73	83.8
294.945	14.17
295.16	87.89
295.374	48.98
295.589	12.12
295.804	34.64
296.018	65.36
296.233	14.17
296.447	40.79
296.662	28.5
296.877	69.46
297.091	112.47
297.306	59.22
297.52	46.93
297.735	59.22
297.949	-6.31
298.164	22.36
298.378	10.07
298.593	28.5
298.807	26.45
299.022	89.94
299.236	118.61
299.451	40.79
299.665	-18.6
299.88	53.08
300.094	26.45
300.309	67.41
300.523	48.98
300.737	75.6
300.952	38.74
301.166	30.55
301.381	18.26
301.595	-26.79
301.809	8.02
302.024	-49.32
302.238	-26.79
302.452	71.51
302.667	32.6
302.881	55.12
303.095	94.04
303.309	32.6
303.524	24.4
303.738	36.69
303.952	40.79
304.166	65.36
304.381	30.55
304.595	91.99
304.809	-18.6
305.023	38.74
305.237	42.84
305.452	14.17
305.666	42.84
305.88	108.37
306.094	63.32
306.308	36.69
306.522	40.79
306.736	32.6
306.95	69.46
307.164	122.71
307.379	67.41
307.593	149.33
307.807	98.13
308.021	-39.08
308.235	116.56
308.449	-20.65
308.663	89.94
308.877	65.36
309.091	57.17
309.305	28.5
309.519	3.93
309.733	85.84
309.947	-24.75
310.161	69.46
310.374	-37.03
310.588	106.32
310.802	-8.36
311.016	85.84
311.23	10.07
311.444	-0.17
311.658	3.93
311.872	24.4
312.085	91.99
312.299	32.6
312.513	67.41
312.727	61.27
312.941	14.17
313.154	34.64
313.368	73.56
313.582	77.65
313.796	34.64
314.009	85.84
314.223	12.12
314.437	46.93
314.651	114.52
314.864	-8.36
315.078	63.32
315.292	57.17
315.505	71.51
315.719	57.17
315.933	55.12
316.146	26.45
316.36	-6.31
316.573	73.56
316.787	55.12
317.001	63.32
317.214	32.6
317.428	46.93
317.641	1.88
317.855	57.17
318.068	16.21
318.282	46.93
318.495	124.76
318.709	18.26
318.922	3.93
319.136	118.61
319.349	40.79
319.563	34.64
319.776	65.36
319.99	-24.75
320.203	63.32
320.417	85.84
320.63	61.27
320.843	135
321.057	67.41
321.27	10.07
321.483	53.08
321.697	116.56
321.91	-0.17
322.124	10.07
322.337	-34.99
322.55	83.8
322.763	16.21
322.977	-6.31
323.19	24.4
323.403	24.4
323.617	81.75
323.83	57.17
324.043	5.97
324.256	-24.75
324.469	-22.7
324.683	194.39
324.896	16.21
325.109	-14.51
325.322	3.93
325.535	57.17
325.748	42.84
325.962	132.95
326.175	57.17
326.388	-37.03
326.601	69.46
326.814	24.4
327.027	46.93
327.24	85.84
327.453	30.55
327.666	98.13
327.879	94.04
328.092	91.99
328.305	163.67
328.518	77.65
328.731	14.17
328.944	26.45
329.157	-32.94
329.37	-2.22
329.583	96.08
329.796	128.85
330.009	-30.89
330.222	124.76
330.435	30.55
330.648	73.56
330.861	1.88
331.073	22.36
331.286	135
331.499	20.31
331.712	32.6
331.925	40.79
332.138	-12.46
332.35	63.32
332.563	-22.7
332.776	46.93
332.989	46.93
333.202	-0.17
333.414	-28.84
333.627	83.8
333.84	-0.17
334.053	34.64
334.265	53.08
334.478	22.36
334.691	8.02
334.903	79.7
335.116	14.17
335.329	42.84
335.541	5.97
335.754	157.52
335.966	48.98
336.179	53.08
336.392	20.31
336.604	24.4
336.817	53.08
337.029	22.36
337.242	10.07
337.454	10.07
337.667	24.4
337.88	59.22
338.092	48.98
338.305	83.8
338.517	34.64
338.729	102.23
338.942	57.17
339.154	20.31
339.367	-26.79
339.579	44.88
339.792	3.93
340.004	94.04
340.217	67.41
340.429	34.64
340.641	69.46
340.854	-0.17
341.066	51.03
341.278	85.84
341.491	83.8
341.703	16.21
341.915	10.07
342.128	14.17
342.34	30.55
342.552	22.36
342.764	32.6
342.977	-14.51
343.189	73.56
343.401	40.79
343.613	-34.99
343.826	14.17
344.038	24.4
344.25	73.56
344.462	51.03
344.674	53.08
344.886	16.21
345.099	22.36
345.311	73.56
345.523	48.98
345.735	26.45
345.947	26.45
346.159	73.56
346.371	5.97
346.583	44.88
346.795	112.47
347.007	40.79
347.219	96.08
347.431	69.46
347.643	53.08
347.855	36.69
348.067	85.84
348.279	-59.56
348.491	40.79
348.703	36.69
348.915	59.22
349.127	73.56
349.339	38.74
349.551	14.17
349.763	118.61
349.975	51.03
350.187	124.76
350.399	30.55
350.61	91.99
350.822	-6.31
351.034	55.12
351.246	104.28
351.458	53.08
351.669	143.19
351.881	48.98
352.093	57.17
352.305	132.95
352.517	32.6
352.728	155.47
352.94	69.46
353.152	-14.51
353.363	-8.36
353.575	71.51
353.787	40.79
353.999	40.79
354.21	48.98
354.422	-0.17
354.633	-20.65
354.845	118.61
355.057	61.27
355.268	114.52
355.48	141.14
355.692	42.84
355.903	83.8
356.115	-14.51
356.326	-8.36
356.538	139.09
356.749	59.22
356.961	102.23
357.172	-2.22
357.384	36.69
357.595	143.19
357.807	135
358.018	53.08
358.23	40.79
358.441	57.17
358.653	22.36
358.864	42.84
359.075	-32.94
359.287	110.42
359.498	89.94
359.709	124.76
359.921	-0.17
360.132	67.41
360.344	16.21
360.555	96.08
360.766	71.51
360.977	28.5
361.189	51.03
361.4	24.4
361.611	114.52
361.823	71.51
362.034	51.03
362.245	57.17
362.456	67.41
362.667	77.65
362.879	57.17
363.09	75.6
363.301	26.45
363.512	26.45
363.723	-55.47
363.935	-14.51
364.146	40.79
364.357	59.22
364.568	46.93
364.779	-49.32
364.99	89.94
365.201	16.21
365.412	-14.51
365.623	36.69
365.834	53.08
366.045	89.94
366.256	128.85
366.467	42.84
366.678	51.03
366.889	-2.22
367.1	38.74
367.311	30.55
367.522	-47.27
367.733	85.84
367.944	42.84
368.155	53.08
368.366	55.12
368.577	38.74
368.788	89.94
368.999	5.97
369.209	-12.46
369.42	135
369.631	83.8
369.842	63.32
370.053	-14.51
370.264	96.08
370.474	1.88
370.685	81.75
370.896	46.93
371.107	128.85
371.317	85.84
371.528	98.13
371.739	46.93
371.95	79.7
372.16	53.08
372.371	63.32
372.582	-12.46
372.792	61.27
373.003	96.08
373.214	100.18
373.424	42.84
373.635	18.26
373.846	96.08
374.056	26.45
374.267	77.65
374.477	69.46
374.688	73.56
374.898	96.08
375.109	104.28
375.319	28.5
375.53	18.26
375.74	75.6
375.951	120.66
376.161	36.69
376.372	75.6
376.582	-2.22
376.793	75.6
377.003	77.65
377.214	22.36
377.424	149.33
377.635	36.69
377.845	-49.32
378.055	141.14
378.266	5.97
378.476	5.97
378.686	32.6
378.897	81.75
379.107	57.17
379.317	69.46
379.528	128.85
379.738	40.79
379.948	10.07
380.158	46.93
380.369	46.93
380.579	85.84
380.789	102.23
380.999	69.46
381.21	63.32
381.42	118.61
381.63	53.08
381.84	48.98
382.05	83.8
382.261	40.79
382.471	130.9
382.681	3.93
382.891	34.64
383.101	69.46
383.311	-2.22
383.521	16.21
383.731	102.23
383.941	24.4
384.151	48.98
384.361	63.32
384.571	85.84
384.781	83.8
384.991	85.84
385.201	132.95
385.411	71.51
385.621	67.41
385.831	38.74
386.041	67.41
386.251	67.41
386.461	57.17
386.671	36.69
386.881	149.33
387.091	44.88
387.301	32.6
387.511	24.4
387.72	69.46
387.93	73.56
388.14	24.4
388.35	46.93
388.56	128.85
388.769	167.76
388.979	48.98
389.189	20.31
389.399	73.56
389.609	89.94
389.818	12.12
390.028	40.79
390.238	110.42
390.447	57.17
390.657	65.36
390.867	-61.61
391.076	98.13
391.286	135
391.496	63.32
391.705	53.08
391.915	83.8
392.125	44.88
392.334	44.88
392.544	63.32
392.753	65.36
392.963	22.36
393.172	26.45
393.382	57.17
393.591	53.08
393.801	135
394.01	145.24
394.22	-2.22
394.429	147.28
394.639	159.57
394.848	36.69
395.058	126.8
395.267	132.95
395.477	91.99
395.686	85.84
395.895	96.08
396.105	165.71
396.314	28.5
396.524	69.46
396.733	42.84
396.942	112.47
397.152	75.6
397.361	175.95
397.57	91.99
397.78	96.08
397.989	89.94
398.198	98.13
398.407	85.84
398.617	61.27
398.826	102.23
399.035	81.75
399.244	122.71
399.453	102.23
399.663	83.8
399.872	186.19
400.081	53.08
400.29	229.2
400.499	38.74
400.708	126.8
400.917	102.23
401.127	59.22
401.336	149.33
401.545	145.24
401.754	85.84
401.963	190.29
402.172	81.75
402.381	55.12
402.59	94.04
402.799	94.04
403.008	75.6
403.217	114.52
403.426	91.99
403.635	44.88
403.844	157.52
404.053	83.8
404.262	44.88
404.471	128.85
404.68	180.05
404.888	178
405.097	126.8
405.306	137.04
405.515	165.71
405.724	143.19
405.933	143.19
406.142	151.38
406.35	167.76
406.559	132.95
406.768	145.24
406.977	243.54
407.185	157.52
407.394	194.39
407.603	208.72
407.812	159.57
408.02	208.72
408.229	180.05
408.438	151.38
408.646	169.81
408.855	229.2
409.064	276.31
409.272	235.35
409.481	239.44
409.69	204.63
409.898	249.68
410.107	300.88
410.315	223.06
410.524	204.63
410.733	296.78
410.941	259.92
411.15	304.98
411.358	264.02
411.567	393.04
411.775	327.5
411.984	356.18
412.192	331.6
412.401	345.94
412.609	440.14
412.818	378.7
413.026	423.76
413.234	341.84
413.443	376.66
413.651	425.81
413.86	390.99
414.068	466.77
414.276	517.97
414.485	421.71
414.693	524.11
414.901	675.66
415.11	560.97
415.318	554.83
415.526	667.47
415.734	681.8
415.943	581.45
416.151	716.62
416.359	735.05
416.567	698.19
416.776	780.11
416.984	753.48
417.192	804.68
417.4	874.31
417.608	747.34
417.817	819.02
418.025	939.85
418.233	952.13
418.441	888.65
418.649	1138.5
418.857	1048.39
419.065	1046.34
419.273	1046.34
419.481	1001.29
419.689	1175.36
419.897	1177.41
420.105	1208.13
420.313	1247.04
420.521	1308.48
420.729	1347.39
420.937	1308.48
421.145	1378.11
421.353	1533.76
421.561	1572.67
421.769	1546.05
421.977	1691.45
422.185	1646.4
422.393	1812.28
422.601	1836.86
422.809	1826.62
423.017	1849.15
423.224	1894.2
423.432	1922.87
423.64	2043.7
423.848	2129.72
424.056	1959.74
424.263	2150.2
424.471	2279.22
424.679	2285.36
424.887	2447.15
425.094	2506.54
425.302	2596.65
425.51	2576.17
425.718	2598.7
425.925	2756.4
426.133	2758.44
426.341	2936.62
426.548	2993.96
426.756	3086.12
426.964	3198.76
427.171	3258.15
427.379	3462.94
427.586	3335.97
427.794	3589.92
428.001	3737.37
428.209	3813.15
428.417	3841.82
428.624	4050.71
428.832	4083.48
429.039	4063
429.247	4042.52
429.454	4476.69
429.662	4607.76
429.869	4519.7
430.076	4669.2
430.284	4652.81
430.491	4861.71
430.699	5111.56
430.906	5009.16
431.114	5148.42
431.321	5291.78
431.528	5377.8
431.736	5764.86
431.943	6027
432.15	5719.81
432.358	6065.91
432.565	6123.26
432.772	6289.14
432.979	6536.95
433.187	6682.35
433.394	6874.86
433.601	7212.78
433.808	7280.36
434.016	7155.43
434.223	7530.21
434.43	7911.13
434.637	7839.45
434.844	8249.05
435.052	8617.68
435.259	8296.15
435.466	8326.87
435.673	8335.06
435.88	8939.21
436.087	9193.16
436.294	9412.29
436.501	9123.53
436.708	9400.01
436.915	9533.12
437.122	10055.36
437.329	10041.02
437.537	10440.37
437.743	10665.65
437.95	10598.07
438.157	11163.31
438.364	11550.37
438.571	11177.64
438.778	11507.37
438.985	12431
439.192	12031.65
439.399	12349.08
439.606	11937.44
439.813	12938.9
440.02	13678.21
440.227	13022.86
440.433	13317.77
440.64	13467.27
440.847	13475.46
441.054	13868.67
441.261	14843.51
441.467	14374.52
441.674	14696.05
441.881	15349.36
442.088	15171.18
442.294	15326.83
442.501	15568.49
442.708	16146.01
442.914	16635.48
443.121	17528.39
443.328	17045.07
443.534	18167.36
443.741	17452.62
443.948	17223.25
444.154	18671.16
444.361	18460.22
444.568	18669.11
444.774	18654.78
444.981	18814.52
445.187	19260.98
445.394	20184.61
445.6	20080.16
445.807	21511.69
446.013	20782.62
446.22	21028.37
446.426	22224.39
446.633	22386.18
446.839	23272.95
447.046	22267.39
447.252	23191.03
447.459	23594.48
447.665	23025.14
447.871	24425.95
448.078	25447.89
448.284	24471.01
448.491	24688.09
448.697	25863.63
448.903	26400.19
449.11	26316.23
449.316	25959.88
449.522	26129.86
449.728	27411.89
449.935	27463.09
450.141	27252.15
450.347	28233.13
450.553	26955.19
450.76	27311.54
450.966	28476.83
451.172	28083.62
451.378	28804.51
451.584	27989.42
451.791	28945.82
451.997	28708.26
452.203	29283.73
452.409	29357.46
452.615	29048.22
452.821	28263.85
453.027	27923.88
453.233	29085.08
453.44	28132.78
453.646	28241.32
453.852	28417.44
454.058	28796.32
454.264	28310.95
454.47	29023.64
454.676	28003.75
454.882	28876.19
455.088	26443.2
455.294	26635.71
455.5	27145.66
455.705	27854.25
455.911	26185.16
456.117	25970.12
456.323	25630.16
456.529	24108.52
456.735	25284.05
456.941	24702.43
457.147	24384.99
457.352	23334.39
457.558	23215.6
457.764	23545.33
457.97	22709.75
458.176	22504.96
458.381	22173.19
458.587	21093.91
458.793	21505.55
458.999	20020.77
459.204	21511.69
459.41	21059.09
459.616	19648.04
459.821	19738.15
460.027	19340.85
460.233	19082.8
460.438	18415.16
460.644	18384.44
460.85	17595.98
461.055	17266.25
461.261	17485.39
461.466	15781.48
461.672	15636.07
461.878	16481.88
462.083	15384.17
462.289	14982.77
462.494	14978.67
462.7	14315.13
462.905	14188.16
463.111	14646.9
463.316	14528.12
463.522	14323.32
463.727	14167.68
463.932	14057.09
464.138	14067.33
464.343	14055.04
464.549	13627.01
464.754	14052.99
464.959	13989.5
465.165	13958.78
465.37	13414.02
465.575	13117.07
465.781	13586.05
465.986	13715.08
466.191	13160.08
466.397	12967.57
466.602	12136.09
466.807	12742.29
467.012	12918.42
467.218	12734.1
467.423	12603.03
467.628	12549.78
