Data from USB4F104151__8__12-40-57-687.txt Node

Date: Fri Mar 14 12:40:57 EDT 2025
User: louis
Spectrometer: USB4F10415
Trigger mode: 4
Integration Time (sec): 3.000000E-2
Scans to average: 1
Electric dark correction enabled: true
Nonlinearity correction enabled: false
Boxcar width: 0
XAxis mode: Wavelengths
Number of Pixels in Spectrum: 3648
>>>>>Begin Spectral Data<<<<<
178.204	-119.12
178.424	-119.12
178.644	-119.12
178.864	-112.98
179.084	-117.08
179.304	-53.59
179.524	-39.25
179.744	-24.92
179.964	48.81
180.184	52.91
180.404	-47.44
180.624	-18.77
180.844	42.67
181.064	42.67
181.283	-39.25
181.503	-45.4
181.723	81.58
181.943	-69.97
182.163	46.76
182.383	9.9
182.602	3.75
182.822	83.63
183.042	-24.92
183.262	-63.83
183.482	26.28
183.701	-4.44
183.921	-0.34
184.141	-51.54
184.361	40.62
184.58	44.71
184.8	11.95
185.02	63.15
185.239	28.33
185.459	63.15
185.679	48.81
185.898	-67.92
186.118	102.06
186.338	48.81
186.557	40.62
186.777	20.14
186.997	73.39
187.216	-31.06
187.436	126.63
187.655	97.96
187.875	108.2
188.095	22.19
188.314	73.39
188.534	108.2
188.753	61.1
188.973	59.05
189.192	34.47
189.412	85.67
189.631	26.28
189.851	32.43
190.07	-33.11
190.29	11.95
190.509	-8.53
190.729	46.76
190.948	106.15
191.168	112.3
191.387	20.14
191.607	28.33
191.826	73.39
192.045	13.99
192.265	44.71
192.484	-14.68
192.704	11.95
192.923	-59.73
193.142	71.34
193.362	32.43
193.581	134.82
193.8	18.09
194.02	20.14
194.239	-16.73
194.458	95.91
194.678	18.09
194.897	73.39
195.116	42.67
195.335	-2.39
195.555	52.91
195.774	-12.63
195.993	65.19
196.212	-10.58
196.432	-20.82
196.651	57
196.87	63.15
197.089	161.45
197.308	85.67
197.528	30.38
197.747	-10.58
197.966	26.28
198.185	57
198.404	13.99
198.623	-0.34
198.842	22.19
199.062	140.97
199.281	75.43
199.5	11.95
199.719	57
199.938	32.43
200.157	83.63
200.376	24.23
200.595	48.81
200.814	95.91
201.033	-20.82
201.252	97.96
201.471	77.48
201.69	48.81
201.909	93.87
202.128	26.28
202.347	30.38
202.566	20.14
202.785	34.47
203.004	52.91
203.223	95.91
203.442	63.15
203.661	18.09
203.879	-2.39
204.098	65.19
204.317	30.38
204.536	-0.34
204.755	89.77
204.974	75.43
205.193	7.85
205.411	69.29
205.63	24.23
205.849	-12.63
206.068	1.71
206.287	32.43
206.505	91.82
206.724	16.04
206.943	36.52
207.162	16.04
207.381	26.28
207.599	32.43
207.818	63.15
208.037	28.33
208.255	89.77
208.474	100.01
208.693	63.15
208.911	73.39
209.13	34.47
209.349	65.19
209.567	145.06
209.786	30.38
210.005	22.19
210.223	20.14
210.442	-24.92
210.661	42.67
210.879	-29.01
211.098	48.81
211.316	44.71
211.535	91.82
211.753	34.47
211.972	77.48
212.191	36.52
212.409	-31.06
212.628	-2.39
212.846	46.76
213.065	16.04
213.283	71.34
213.502	1.71
213.72	-26.96
213.938	28.33
214.157	40.62
214.375	149.16
214.594	61.1
214.812	65.19
215.031	36.52
215.249	-24.92
215.467	28.33
215.686	32.43
215.904	59.05
216.122	30.38
216.341	106.15
216.559	3.75
216.778	24.23
216.996	102.06
217.214	65.19
217.432	22.19
217.651	3.75
217.869	59.05
218.087	-41.3
218.306	50.86
218.524	3.75
218.742	16.04
218.96	9.9
219.179	-53.59
219.397	77.48
219.615	79.53
219.833	13.99
220.051	69.29
220.27	42.67
220.488	16.04
220.706	61.1
220.924	9.9
221.142	52.91
221.36	-10.58
221.578	-29.01
221.796	63.15
222.015	110.25
222.233	87.72
222.451	36.52
222.669	67.24
222.887	69.29
223.105	-35.16
223.323	87.72
223.541	57
223.759	54.95
223.977	3.75
224.195	52.91
224.413	91.82
224.631	20.14
224.849	16.04
225.067	65.19
225.285	1.71
225.503	52.91
225.721	5.8
225.939	81.58
226.157	46.76
226.375	106.15
226.592	57
226.81	38.57
227.028	100.01
227.246	38.57
227.464	22.19
227.682	108.2
227.9	-14.68
228.117	61.1
228.335	34.47
228.553	16.04
228.771	65.19
228.989	134.82
229.206	11.95
229.424	28.33
229.642	1.71
229.86	18.09
230.077	26.28
230.295	40.62
230.513	5.8
230.731	104.11
230.948	93.87
231.166	79.53
231.384	93.87
231.601	-6.49
231.819	67.24
232.037	36.52
232.254	-0.34
232.472	7.85
232.689	50.86
232.907	104.11
233.125	28.33
233.342	-16.73
233.56	-63.83
233.777	-39.25
233.995	67.24
234.213	65.19
234.43	59.05
234.648	50.86
234.865	28.33
235.083	50.86
235.3	-53.59
235.518	61.1
235.735	145.06
235.953	145.06
236.17	46.76
236.388	-26.96
236.605	44.71
236.822	110.25
237.04	57
237.257	13.99
237.475	-2.39
237.692	34.47
237.909	38.57
238.127	11.95
238.344	24.23
238.562	7.85
238.779	32.43
238.996	7.85
239.214	36.52
239.431	-0.34
239.648	46.76
239.865	108.2
240.083	46.76
240.3	11.95
240.517	-2.39
240.735	26.28
240.952	59.05
241.169	83.63
241.386	104.11
241.603	7.85
241.821	-14.68
242.038	46.76
242.255	63.15
242.472	-20.82
242.689	46.76
242.907	16.04
243.124	-10.58
243.341	36.52
243.558	42.67
243.775	46.76
243.992	9.9
244.209	75.43
244.426	61.1
244.643	63.15
244.86	46.76
245.078	145.06
245.295	65.19
245.512	-57.68
245.729	32.43
245.946	63.15
246.163	57
246.38	16.04
246.597	-12.63
246.814	36.52
247.031	75.43
247.248	40.62
247.464	85.67
247.681	50.86
247.898	5.8
248.115	54.95
248.332	-24.92
248.549	63.15
248.766	147.11
248.983	46.76
249.2	85.67
249.417	79.53
249.633	-69.97
249.85	28.33
250.067	5.8
250.284	36.52
250.501	-14.68
250.717	128.68
250.934	16.04
251.151	9.9
251.368	-8.53
251.585	106.15
251.801	67.24
252.018	26.28
252.235	54.95
252.451	-16.73
252.668	7.85
252.885	34.47
253.102	65.19
253.318	28.33
253.535	40.62
253.752	87.72
253.968	30.38
254.185	-31.06
254.401	22.19
254.618	-47.44
254.835	30.38
255.051	104.11
255.268	36.52
255.484	73.39
255.701	85.67
255.917	116.39
256.134	-31.06
256.351	44.71
256.567	-16.73
256.784	81.58
257	9.9
257.217	155.3
257.433	65.19
257.65	83.63
257.866	87.72
258.082	32.43
258.299	-4.44
258.515	73.39
258.732	7.85
258.948	13.99
259.165	-33.11
259.381	32.43
259.597	59.05
259.814	-6.49
260.03	1.71
260.246	69.29
260.463	69.29
260.679	89.77
260.895	52.91
261.112	42.67
261.328	22.19
261.544	26.28
261.761	102.06
261.977	81.58
262.193	13.99
262.409	-10.58
262.626	67.24
262.842	100.01
263.058	-49.49
263.274	89.77
263.49	140.97
263.707	114.34
263.923	83.63
264.139	16.04
264.355	26.28
264.571	46.76
264.787	-35.16
265.004	155.3
265.22	38.57
265.436	16.04
265.652	7.85
265.868	11.95
266.084	-47.44
266.3	52.91
266.516	18.09
266.732	48.81
266.948	44.71
267.164	-12.63
267.38	-6.49
267.596	13.99
267.812	81.58
268.028	-20.82
268.244	34.47
268.46	28.33
268.676	38.57
268.892	75.43
269.108	-37.2
269.324	26.28
269.54	32.43
269.756	134.82
269.972	9.9
270.188	36.52
270.403	-37.2
270.619	7.85
270.835	34.47
271.051	110.25
271.267	38.57
271.483	48.81
271.698	26.28
271.914	63.15
272.13	-16.73
272.346	63.15
272.562	18.09
272.777	128.68
272.993	42.67
273.209	18.09
273.425	3.75
273.64	20.14
273.856	36.52
274.072	46.76
274.287	-29.01
274.503	81.58
274.719	116.39
274.934	5.8
275.15	7.85
275.366	13.99
275.581	-12.63
275.797	24.23
276.012	-8.53
276.228	44.71
276.444	77.48
276.659	61.1
276.875	77.48
277.09	-33.11
277.306	106.15
277.521	46.76
277.737	-8.53
277.952	32.43
278.168	-6.49
278.383	32.43
278.599	11.95
278.814	54.95
279.03	11.95
279.245	77.48
279.461	-18.77
279.676	40.62
279.892	36.52
280.107	30.38
280.322	-24.92
280.538	16.04
280.753	48.81
280.969	20.14
281.184	38.57
281.399	106.15
281.615	97.96
281.83	44.71
282.045	-8.53
282.26	30.38
282.476	-4.44
282.691	32.43
282.906	1.71
283.122	50.86
283.337	30.38
283.552	7.85
283.767	-55.64
283.983	13.99
284.198	54.95
284.413	61.1
284.628	22.19
284.843	32.43
285.058	24.23
285.274	46.76
285.489	102.06
285.704	26.28
285.919	48.81
286.134	5.8
286.349	7.85
286.564	32.43
286.779	67.24
286.995	1.71
287.21	11.95
287.425	32.43
287.64	-41.3
287.855	24.23
288.07	-26.96
288.285	22.19
288.5	36.52
288.715	67.24
288.93	73.39
289.145	46.76
289.36	65.19
289.575	40.62
289.79	57
290.004	-8.53
290.219	54.95
290.434	44.71
290.649	104.11
290.864	7.85
291.079	24.23
291.294	16.04
291.509	67.24
291.724	77.48
291.938	9.9
292.153	36.52
292.368	-24.92
292.583	52.91
292.798	44.71
293.012	34.47
293.227	11.95
293.442	-35.16
293.657	67.24
293.871	95.91
294.086	116.39
294.301	95.91
294.516	32.43
294.73	61.1
294.945	-35.16
295.16	46.76
295.374	149.16
295.589	100.01
295.804	20.14
296.018	38.57
296.233	54.95
296.447	112.3
296.662	16.04
296.877	134.82
297.091	48.81
297.306	18.09
297.52	-14.68
297.735	134.82
297.949	34.47
298.164	151.21
298.378	34.47
298.593	102.06
298.807	5.8
299.022	44.71
299.236	83.63
299.451	-29.01
299.665	-18.77
299.88	54.95
300.094	5.8
300.309	69.29
300.523	67.24
300.737	-24.92
300.952	7.85
301.166	28.33
301.381	22.19
301.595	38.57
301.809	54.95
302.024	-37.2
302.238	16.04
302.452	95.91
302.667	50.86
302.881	40.62
303.095	22.19
303.309	-8.53
303.524	38.57
303.738	-10.58
303.952	20.14
304.166	34.47
304.381	-29.01
304.595	36.52
304.809	3.75
305.023	26.28
305.237	32.43
305.452	24.23
305.666	69.29
305.88	77.48
306.094	57
306.308	16.04
306.522	95.91
306.736	79.53
306.95	83.63
307.164	85.67
307.379	9.9
307.593	102.06
307.807	126.63
308.021	38.57
308.235	83.63
308.449	22.19
308.663	46.76
308.877	16.04
309.091	-6.49
309.305	63.15
309.519	26.28
309.733	116.39
309.947	59.05
310.161	40.62
310.374	-12.63
310.588	118.44
310.802	13.99
311.016	42.67
311.23	71.34
311.444	73.39
311.658	22.19
311.872	67.24
312.085	81.58
312.299	114.34
312.513	71.34
312.727	52.91
312.941	50.86
313.154	63.15
313.368	48.81
313.582	34.47
313.796	89.77
314.009	50.86
314.223	155.3
314.437	28.33
314.651	65.19
314.864	13.99
315.078	-10.58
315.292	-43.35
315.505	3.75
315.719	97.96
315.933	36.52
316.146	22.19
316.36	36.52
316.573	63.15
316.787	30.38
317.001	87.72
317.214	20.14
317.428	20.14
317.641	48.81
317.855	-18.77
318.068	16.04
318.282	5.8
318.495	44.71
318.709	30.38
318.922	46.76
319.136	120.49
319.349	59.05
319.563	40.62
319.776	114.34
319.99	-63.83
320.203	87.72
320.417	44.71
320.63	36.52
320.843	52.91
321.057	112.3
321.27	22.19
321.483	63.15
321.697	52.91
321.91	57
322.124	69.29
322.337	-6.49
322.55	11.95
322.763	34.47
322.977	7.85
323.19	13.99
323.403	77.48
323.617	87.72
323.83	91.82
324.043	63.15
324.256	5.8
324.469	7.85
324.683	24.23
324.896	5.8
325.109	9.9
325.322	36.52
325.535	44.71
325.748	46.76
325.962	20.14
326.175	63.15
326.388	89.77
326.601	71.34
326.814	22.19
327.027	34.47
327.24	114.34
327.453	-12.63
327.666	83.63
327.879	59.05
328.092	120.49
328.305	79.53
328.518	5.8
328.731	-12.63
328.944	20.14
329.157	30.38
329.37	28.33
329.583	93.87
329.796	100.01
330.009	-37.2
330.222	104.11
330.435	-51.54
330.648	26.28
330.861	116.39
331.073	28.33
331.286	63.15
331.499	22.19
331.712	-35.16
331.925	13.99
332.138	71.34
332.35	11.95
332.563	-2.39
332.776	42.67
332.989	-4.44
333.202	122.54
333.414	-4.44
333.627	44.71
333.84	-16.73
334.053	-6.49
334.265	13.99
334.478	50.86
334.691	22.19
334.903	46.76
335.116	97.96
335.329	102.06
335.541	61.1
335.754	16.04
335.966	61.1
336.179	32.43
336.392	34.47
336.604	22.19
336.817	122.54
337.029	-8.53
337.242	95.91
337.454	30.38
337.667	-12.63
337.88	110.25
338.092	81.58
338.305	32.43
338.517	44.71
338.729	54.95
338.942	52.91
339.154	32.43
339.367	85.67
339.579	57
339.792	26.28
340.004	16.04
340.217	54.95
340.429	79.53
340.641	11.95
340.854	32.43
341.066	-16.73
341.278	112.3
341.491	67.24
341.703	18.09
341.915	-6.49
342.128	28.33
342.34	-6.49
342.552	13.99
342.764	13.99
342.977	18.09
343.189	83.63
343.401	77.48
343.613	-0.34
343.826	67.24
344.038	-14.68
344.25	28.33
344.462	-10.58
344.674	34.47
344.886	28.33
345.099	87.72
345.311	24.23
345.523	67.24
345.735	24.23
345.947	77.48
346.159	20.14
346.371	52.91
346.583	3.75
346.795	110.25
347.007	42.67
347.219	7.85
347.431	67.24
347.643	75.43
347.855	59.05
348.067	93.87
348.279	-8.53
348.491	44.71
348.703	91.82
348.915	-14.68
349.127	24.23
349.339	102.06
349.551	46.76
349.763	63.15
349.975	50.86
350.187	65.19
350.399	112.3
350.61	112.3
350.822	61.1
351.034	42.67
351.246	-18.77
351.458	7.85
351.669	73.39
351.881	79.53
352.093	130.73
352.305	85.67
352.517	-20.82
352.728	57
352.94	73.39
353.152	63.15
353.363	-47.44
353.575	106.15
353.787	16.04
353.999	93.87
354.21	57
354.422	69.29
354.633	34.47
354.845	138.92
355.057	81.58
355.268	102.06
355.48	44.71
355.692	81.58
355.903	20.14
356.115	69.29
356.326	26.28
356.538	122.54
356.749	183.98
356.961	40.62
357.172	26.28
357.384	-2.39
357.595	120.49
357.807	52.91
358.018	38.57
358.23	30.38
358.441	126.63
358.653	26.28
358.864	-4.44
359.075	79.53
359.287	36.52
359.498	128.68
359.709	89.77
359.921	32.43
360.132	52.91
360.344	-2.39
360.555	79.53
360.766	59.05
360.977	-22.87
361.189	67.24
361.4	32.43
361.611	71.34
361.823	40.62
362.034	26.28
362.245	-61.78
362.456	132.78
362.667	32.43
362.879	114.34
363.09	32.43
363.301	38.57
363.512	97.96
363.723	7.85
363.935	26.28
364.146	151.21
364.357	1.71
364.568	61.1
364.779	-0.34
364.99	71.34
365.201	69.29
365.412	155.3
365.623	57
365.834	13.99
366.045	34.47
366.256	91.82
366.467	22.19
366.678	79.53
366.889	110.25
367.1	52.91
367.311	83.63
367.522	44.71
367.733	73.39
367.944	71.34
368.155	75.43
368.366	50.86
368.577	57
368.788	102.06
368.999	65.19
369.209	-20.82
369.42	130.73
369.631	102.06
369.842	114.34
370.053	48.81
370.264	85.67
370.474	69.29
370.685	18.09
370.896	20.14
371.107	52.91
371.317	38.57
371.528	7.85
371.739	124.58
371.95	85.67
372.16	18.09
372.371	-2.39
372.582	73.39
372.792	112.3
373.003	79.53
373.214	77.48
373.424	63.15
373.635	26.28
373.846	110.25
374.056	77.48
374.267	67.24
374.477	46.76
374.688	50.86
374.898	85.67
375.109	30.38
375.319	59.05
375.53	75.43
375.74	102.06
375.951	59.05
376.161	46.76
376.372	104.11
376.582	30.38
376.793	120.49
377.003	7.85
377.214	34.47
377.424	59.05
377.635	42.67
377.845	54.95
378.055	95.91
378.266	-14.68
378.476	122.54
378.686	79.53
378.897	16.04
379.107	54.95
379.317	89.77
379.528	42.67
379.738	79.53
379.948	75.43
380.158	54.95
380.369	36.52
380.579	61.1
380.789	59.05
380.999	9.9
381.21	67.24
381.42	167.59
381.63	50.86
381.84	59.05
382.05	63.15
382.261	140.97
382.471	20.14
382.681	50.86
382.891	44.71
383.101	46.76
383.311	-43.35
383.521	95.91
383.731	106.15
383.941	50.86
384.151	114.34
384.361	22.19
384.571	32.43
384.781	30.38
384.991	108.2
385.201	71.34
385.411	85.67
385.621	120.49
385.831	87.72
386.041	-20.82
386.251	116.39
386.461	75.43
386.671	42.67
386.881	69.29
387.091	50.86
387.301	75.43
387.511	46.76
387.72	67.24
387.93	69.29
388.14	40.62
388.35	77.48
388.56	61.1
388.769	69.29
388.979	50.86
389.189	87.72
389.399	93.87
389.609	67.24
389.818	161.45
390.028	20.14
390.238	7.85
390.447	32.43
390.657	97.96
390.867	81.58
391.076	-2.39
391.286	63.15
391.496	46.76
391.705	59.05
391.915	42.67
392.125	93.87
392.334	106.15
392.544	77.48
392.753	87.72
392.963	52.91
393.172	54.95
393.382	34.47
393.591	136.87
393.801	75.43
394.01	159.4
394.22	42.67
394.429	28.33
394.639	114.34
394.848	61.1
395.058	106.15
395.267	114.34
395.477	104.11
395.686	100.01
395.895	85.67
396.105	106.15
396.314	67.24
396.524	65.19
396.733	75.43
396.942	188.07
397.152	38.57
397.361	136.87
397.57	36.52
397.78	116.39
397.989	102.06
398.198	198.31
398.407	34.47
398.617	32.43
398.826	-6.49
399.035	97.96
399.244	102.06
399.453	61.1
399.663	65.19
399.872	118.44
400.081	124.58
400.29	147.11
400.499	89.77
400.708	108.2
400.917	102.06
401.127	77.48
401.336	155.3
401.545	192.17
401.754	138.92
401.963	104.11
402.172	50.86
402.381	81.58
402.59	110.25
402.799	106.15
403.008	175.78
403.217	100.01
403.426	118.44
403.635	143.02
403.844	89.77
404.053	71.34
404.262	134.82
404.471	183.98
404.68	57
404.888	161.45
405.097	65.19
405.306	128.68
405.515	145.06
405.724	100.01
405.933	188.07
406.142	194.22
406.35	218.79
406.559	149.16
406.768	183.98
406.977	132.78
407.185	194.22
407.394	190.12
407.603	100.01
407.812	210.6
408.02	229.03
408.229	202.41
408.438	284.33
408.646	206.5
408.855	239.27
409.064	269.99
409.272	151.21
409.481	274.09
409.69	249.51
409.898	190.12
410.107	288.42
410.315	208.55
410.524	288.42
410.733	208.55
410.941	286.37
411.15	339.62
411.358	313
411.567	325.29
411.775	276.13
411.984	308.9
412.192	356.01
412.401	339.62
412.609	466.6
412.818	491.17
413.026	407.2
413.234	427.68
413.443	347.81
413.651	460.45
413.86	472.74
414.068	497.32
414.276	552.61
414.485	560.8
414.693	550.56
414.901	599.71
415.11	620.19
415.318	542.37
415.526	607.91
415.734	618.15
415.943	665.25
416.151	718.5
416.359	722.59
416.567	759.46
416.776	710.3
416.984	781.98
417.192	800.41
417.4	868
417.608	806.56
417.817	818.85
418.025	900.76
418.233	1005.21
418.441	915.1
418.649	954.01
418.857	1054.36
419.065	1099.42
419.273	1005.21
419.481	1101.47
419.689	1126.04
419.897	1216.15
420.105	1230.49
420.313	1394.33
420.521	1400.47
420.729	1298.07
420.937	1447.57
421.145	1449.62
421.353	1498.77
421.561	1648.27
421.769	1674.9
421.977	1638.03
422.185	1699.47
422.393	1728.14
422.601	1984.14
422.809	1791.63
423.017	1846.93
423.224	2025.1
423.432	2080.39
423.64	2025.1
423.848	2233.99
424.056	2143.88
424.263	2416.26
424.471	2379.4
424.679	2494.08
424.887	2561.67
425.094	2557.57
425.302	2522.76
425.51	2797.18
425.718	2723.46
425.925	2741.89
426.133	2977.41
426.341	3085.95
426.548	3266.17
426.756	3227.26
426.964	3257.98
427.171	3556.98
427.379	3614.32
427.586	3638.9
427.794	3688.05
428.001	3808.88
428.209	4034.16
428.417	3878.51
428.624	4290.15
428.832	4286.06
429.039	4331.11
429.247	4222.57
429.454	4632.16
429.662	4920.93
429.869	4509.29
430.076	4929.12
430.284	4941.41
430.491	5088.86
430.699	5287.51
430.906	5203.55
431.114	5328.47
431.321	5510.74
431.528	5717.59
431.736	5955.15
431.943	6282.83
432.15	6139.47
432.358	6135.37
432.565	6557.25
432.772	6624.84
432.979	6929.98
433.187	6958.66
433.394	7065.15
433.601	7511.61
433.808	7527.99
434.016	7534.14
434.223	7853.62
434.43	8121.9
434.637	8212.01
434.844	8625.7
435.052	8728.1
435.259	8889.89
435.466	8799.78
435.673	8902.18
435.88	9356.83
436.087	9866.77
436.294	9793.05
436.501	9604.63
436.708	9690.65
436.915	10137.1
437.122	10655.24
437.329	10470.92
437.537	10999.3
437.743	11052.55
437.95	10999.3
438.157	11638.27
438.364	11906.55
438.571	12047.86
438.778	12029.43
438.985	13131.23
439.192	12436.97
439.399	13073.89
439.606	12877.29
439.813	13331.94
440.02	13993.43
440.227	13970.9
440.433	13600.22
440.64	14079.44
440.847	13833.69
441.054	14603.72
441.261	15408.58
441.467	15203.78
441.674	15699.39
441.881	16358.83
442.088	16186.8
442.294	15943.1
442.501	16307.63
442.708	16684.46
442.914	17411.49
443.121	18326.93
443.328	17700.25
443.534	18900.36
443.741	18161.05
443.948	18148.76
444.154	19426.69
444.361	19305.86
444.568	19365.25
444.774	19551.62
444.981	19504.51
445.187	20510.07
445.394	21165.42
445.6	21005.67
445.807	22859.09
446.013	21939.55
446.22	22357.33
446.426	23123.27
446.633	23135.56
446.839	24227.13
447.046	23352.65
447.252	24827.18
447.459	24606
447.665	24505.65
447.871	25466.15
448.078	26617.11
448.284	25382.18
448.491	26010.91
448.697	26752.27
448.903	27620.61
449.11	27741.44
449.316	27342.09
449.522	27784.45
449.728	28523.77
449.935	28523.77
450.141	28652.79
450.347	29383.91
450.553	28306.68
450.76	28841.2
450.966	30037.22
451.172	29551.85
451.378	30305.5
451.584	29402.35
451.791	30354.65
451.997	30137.57
452.203	30663.89
452.409	30835.92
452.615	30764.25
452.821	29412.59
453.027	29246.7
453.233	30803.16
453.44	29590.76
453.646	29562.09
453.852	29715.69
454.058	30469.34
454.264	29598.95
454.47	30117.09
454.676	29121.77
454.882	30424.28
455.088	28140.8
455.294	28073.21
455.5	28540.15
455.705	28595.45
455.911	27639.04
456.117	27157.77
456.323	26641.68
456.529	25388.33
456.735	26637.59
456.941	25783.59
457.147	25546.02
457.352	24862
457.558	24382.77
457.764	24474.93
457.97	23973.18
458.176	23450.95
458.381	23539.01
458.587	22226.26
458.793	22367.57
458.999	20909.42
459.204	22426.96
459.41	21964.12
459.616	20665.71
459.821	20536.69
460.027	20508.02
460.233	19903.87
460.438	19004.81
460.644	19375.49
460.85	18253.2
461.055	18056.6
461.261	17864.09
461.466	16922.02
461.672	16176.56
461.878	17446.3
462.083	16154.04
462.289	15857.08
462.494	15824.31
462.7	15091.14
462.905	14679.5
463.111	15306.18
463.316	15424.96
463.522	15099.33
463.727	14962.12
463.932	14779.85
464.138	14753.23
464.343	14785.99
464.549	14253.52
464.754	14867.91
464.959	14853.58
465.165	14550.48
465.37	14032.34
465.575	13657.56
465.781	14185.94
465.986	14142.93
466.191	13731.29
466.397	13567.45
466.602	12842.47
466.807	13331.94
467.012	13530.59
467.218	13077.99
467.423	13149.67
467.628	13137.38
