Data from USB4F104151__54__12-41-53-900.txt Node

Date: Fri Mar 14 12:41:53 EDT 2025
User: louis
Spectrometer: USB4F10415
Trigger mode: 4
Integration Time (sec): 3.000000E-2
Scans to average: 1
Electric dark correction enabled: true
Nonlinearity correction enabled: false
Boxcar width: 0
XAxis mode: Wavelengths
Number of Pixels in Spectrum: 3648
>>>>>Begin Spectral Data<<<<<
178.204	-124.24
178.424	-124.24
178.644	-124.24
178.864	-95.57
179.084	-50.52
179.304	-32.08
179.524	31.4
179.744	17.07
179.964	53.93
180.184	45.74
180.404	45.74
180.624	-7.51
180.844	-5.46
181.064	-126.29
181.283	-21.84
181.503	-75.09
181.723	74.41
181.943	-40.28
182.163	70.31
182.383	-1.37
182.602	10.92
182.822	72.36
183.042	27.31
183.262	-7.51
183.482	53.93
183.701	-9.56
183.921	70.31
184.141	25.26
184.361	107.18
184.58	31.4
184.8	-15.7
185.02	2.73
185.239	33.45
185.459	0.68
185.679	39.59
185.898	12.97
186.118	66.22
186.338	51.88
186.557	43.69
186.777	29.35
186.997	82.6
187.216	6.83
187.436	101.03
187.655	90.79
187.875	86.7
188.095	0.68
188.314	62.12
188.534	37.55
188.753	62.12
188.973	31.4
189.192	133.8
189.412	-13.65
189.631	-25.94
189.851	2.73
190.07	33.45
190.29	2.73
190.509	17.07
190.729	-30.04
190.948	49.83
191.168	199.34
191.387	19.11
191.607	23.21
191.826	37.55
192.045	-1.37
192.265	15.02
192.484	55.98
192.704	-9.56
192.923	-13.65
193.142	64.17
193.362	10.92
193.581	58.03
193.8	10.92
194.02	-23.89
194.239	58.03
194.458	90.79
194.678	12.97
194.897	0.68
195.116	-23.89
195.335	94.89
195.555	60.07
195.774	96.94
195.993	41.64
196.212	45.74
196.432	29.35
196.651	23.21
196.87	-1.37
197.089	98.99
197.308	105.13
197.528	45.74
197.747	27.31
197.966	-36.18
198.185	72.36
198.404	62.12
198.623	84.65
198.842	49.83
199.062	47.79
199.281	103.08
199.5	47.79
199.719	49.83
199.938	-32.08
200.157	53.93
200.376	152.23
200.595	39.59
200.814	60.07
201.033	-54.61
201.252	53.93
201.471	10.92
201.69	62.12
201.909	37.55
202.128	66.22
202.347	25.26
202.566	17.07
202.785	33.45
203.004	-50.52
203.223	62.12
203.442	47.79
203.661	0.68
203.879	107.18
204.098	66.22
204.317	31.4
204.536	101.03
204.755	33.45
204.974	76.46
205.193	-17.75
205.411	139.94
205.63	45.74
205.849	25.26
206.068	4.78
206.287	80.55
206.505	70.31
206.724	105.13
206.943	17.07
207.162	33.45
207.381	25.26
207.599	84.65
207.818	66.22
208.037	-5.46
208.255	19.11
208.474	33.45
208.693	96.94
208.911	35.5
209.13	31.4
209.349	-9.56
209.567	-3.41
209.786	62.12
210.005	-11.61
210.223	84.65
210.442	19.11
210.661	45.74
210.879	74.41
211.098	-7.51
211.316	35.5
211.535	6.83
211.753	90.79
211.972	21.16
212.191	-25.94
212.409	58.03
212.628	76.46
212.846	41.64
213.065	146.09
213.283	119.46
213.502	66.22
213.72	90.79
213.938	109.23
214.157	103.08
214.375	31.4
214.594	2.73
214.812	12.97
215.031	37.55
215.249	37.55
215.467	29.35
215.686	53.93
215.904	92.84
216.122	107.18
216.341	51.88
216.559	-3.41
216.778	41.64
216.996	101.03
217.214	-11.61
217.432	15.02
217.651	2.73
217.869	19.11
218.087	29.35
218.306	70.31
218.524	66.22
218.742	-3.41
218.96	15.02
219.179	113.32
219.397	10.92
219.615	80.55
219.833	80.55
220.051	-42.32
220.27	53.93
220.488	-9.56
220.706	39.59
220.924	17.07
221.142	80.55
221.36	12.97
221.578	37.55
221.796	-11.61
222.015	43.69
222.233	19.11
222.451	21.16
222.669	17.07
222.887	121.51
223.105	45.74
223.323	0.68
223.541	45.74
223.759	39.59
223.977	45.74
224.195	76.46
224.413	66.22
224.631	53.93
224.849	80.55
225.067	60.07
225.285	19.11
225.503	6.83
225.721	53.93
225.939	15.02
226.157	70.31
226.375	156.33
226.592	-48.47
226.81	-1.37
227.028	72.36
227.246	119.46
227.464	33.45
227.682	-23.89
227.9	-21.84
228.117	33.45
228.335	84.65
228.553	33.45
228.771	66.22
228.989	19.11
229.206	55.98
229.424	-3.41
229.642	-9.56
229.86	62.12
230.077	33.45
230.295	74.41
230.513	23.21
230.731	17.07
230.948	-17.75
231.166	66.22
231.384	19.11
231.601	-34.13
231.819	90.79
232.037	41.64
232.254	-27.99
232.472	4.78
232.689	-60.76
232.907	8.87
233.125	39.59
233.342	62.12
233.56	60.07
233.777	-15.7
233.995	-3.41
234.213	117.42
234.43	23.21
234.648	10.92
234.865	25.26
235.083	84.65
235.3	121.51
235.518	66.22
235.735	62.12
235.953	78.51
236.17	84.65
236.388	25.26
236.605	-44.37
236.822	96.94
237.04	49.83
237.257	37.55
237.475	-52.56
237.692	127.66
237.909	66.22
238.127	17.07
238.344	6.83
238.562	6.83
238.779	23.21
238.996	-44.37
239.214	-11.61
239.431	19.11
239.648	8.87
239.865	86.7
240.083	94.89
240.3	60.07
240.517	-48.47
240.735	2.73
240.952	45.74
241.169	37.55
241.386	15.02
241.603	74.41
241.821	66.22
242.038	39.59
242.255	41.64
242.472	-36.18
242.689	144.04
242.907	45.74
243.124	33.45
243.341	78.51
243.558	-11.61
243.775	-9.56
243.992	49.83
244.209	37.55
244.426	119.46
244.643	76.46
244.86	39.59
245.078	19.11
245.295	105.13
245.512	55.98
245.729	-25.94
245.946	84.65
246.163	-23.89
246.38	92.84
246.597	-25.94
246.814	70.31
247.031	12.97
247.248	-23.89
247.464	2.73
247.681	-3.41
247.898	82.6
248.115	111.27
248.332	113.32
248.549	146.09
248.766	49.83
248.983	103.08
249.2	23.21
249.417	98.99
249.633	-15.7
249.85	88.75
250.067	60.07
250.284	105.13
250.501	39.59
250.717	-13.65
250.934	21.16
251.151	-9.56
251.368	-5.46
251.585	60.07
251.801	-27.99
252.018	8.87
252.235	-5.46
252.451	-11.61
252.668	33.45
252.885	51.88
253.102	8.87
253.318	125.61
253.535	-48.47
253.752	80.55
253.968	39.59
254.185	-9.56
254.401	82.6
254.618	-11.61
254.835	19.11
255.051	37.55
255.268	74.41
255.484	94.89
255.701	6.83
255.917	35.5
256.134	-25.94
256.351	37.55
256.567	21.16
256.784	31.4
257	62.12
257.217	10.92
257.433	43.69
257.65	23.21
257.866	101.03
258.082	4.78
258.299	-46.42
258.515	23.21
258.732	6.83
258.948	-21.84
259.165	53.93
259.381	-1.37
259.597	66.22
259.814	-5.46
260.03	-1.37
260.246	6.83
260.463	23.21
260.679	45.74
260.895	27.31
261.112	25.26
261.328	-11.61
261.544	53.93
261.761	58.03
261.977	-48.47
262.193	-7.51
262.409	98.99
262.626	70.31
262.842	127.66
263.058	-11.61
263.274	23.21
263.49	10.92
263.707	115.37
263.923	41.64
264.139	68.27
264.355	33.45
264.571	27.31
264.787	49.83
265.004	55.98
265.22	72.36
265.436	80.55
265.652	0.68
265.868	15.02
266.084	-32.08
266.3	43.69
266.516	-25.94
266.732	51.88
266.948	-25.94
267.164	55.98
267.38	43.69
267.596	29.35
267.812	62.12
268.028	17.07
268.244	33.45
268.46	88.75
268.676	17.07
268.892	-36.18
269.108	-32.08
269.324	35.5
269.54	105.13
269.756	129.7
269.972	19.11
270.188	90.79
270.403	-25.94
270.619	35.5
270.835	47.79
271.051	103.08
271.267	23.21
271.483	76.46
271.698	6.83
271.914	78.51
272.13	103.08
272.346	101.03
272.562	4.78
272.777	-3.41
272.993	4.78
273.209	-58.71
273.425	111.27
273.64	29.35
273.856	80.55
274.072	8.87
274.287	94.89
274.503	86.7
274.719	27.31
274.934	62.12
275.15	-7.51
275.366	76.46
275.581	55.98
275.797	55.98
276.012	60.07
276.228	6.83
276.444	35.5
276.659	51.88
276.875	58.03
277.09	-3.41
277.306	35.5
277.521	6.83
277.737	6.83
277.952	6.83
278.168	55.98
278.383	55.98
278.599	15.02
278.814	64.17
279.03	62.12
279.245	53.93
279.461	-25.94
279.676	84.65
279.892	-46.42
280.107	43.69
280.322	-15.7
280.538	76.46
280.753	19.11
280.969	2.73
281.184	53.93
281.399	55.98
281.615	23.21
281.83	47.79
282.045	-13.65
282.26	-25.94
282.476	45.74
282.691	53.93
282.906	0.68
283.122	29.35
283.337	74.41
283.552	4.78
283.767	62.12
283.983	4.78
284.198	49.83
284.413	58.03
284.628	27.31
284.843	78.51
285.058	51.88
285.274	62.12
285.489	33.45
285.704	141.99
285.919	43.69
286.134	15.02
286.349	-1.37
286.564	88.75
286.779	123.56
286.995	33.45
287.21	6.83
287.425	60.07
287.64	10.92
287.855	47.79
288.07	27.31
288.285	98.99
288.5	88.75
288.715	31.4
288.93	43.69
289.145	41.64
289.36	45.74
289.575	-15.7
289.79	92.84
290.004	82.6
290.219	51.88
290.434	60.07
290.649	74.41
290.864	-3.41
291.079	17.07
291.294	41.64
291.509	43.69
291.724	25.26
291.938	15.02
292.153	78.51
292.368	-36.18
292.583	60.07
292.798	74.41
293.012	68.27
293.227	101.03
293.442	0.68
293.657	62.12
293.871	66.22
294.086	0.68
294.301	64.17
294.516	113.32
294.73	98.99
294.945	2.73
295.16	121.51
295.374	105.13
295.589	-3.41
295.804	55.98
296.018	78.51
296.233	43.69
296.447	-27.99
296.662	-66.9
296.877	88.75
297.091	41.64
297.306	23.21
297.52	53.93
297.735	68.27
297.949	41.64
298.164	6.83
298.378	25.26
298.593	31.4
298.807	49.83
299.022	45.74
299.236	47.79
299.451	78.51
299.665	37.55
299.88	-21.84
300.094	37.55
300.309	53.93
300.523	60.07
300.737	23.21
300.952	-32.08
301.166	55.98
301.381	4.78
301.595	-13.65
301.809	43.69
302.024	12.97
302.238	-48.47
302.452	58.03
302.667	10.92
302.881	80.55
303.095	66.22
303.309	111.27
303.524	80.55
303.738	70.31
303.952	45.74
304.166	111.27
304.381	-46.42
304.595	86.7
304.809	76.46
305.023	68.27
305.237	37.55
305.452	-13.65
305.666	88.75
305.88	31.4
306.094	58.03
306.308	68.27
306.522	90.79
306.736	47.79
306.95	31.4
307.164	-13.65
307.379	31.4
307.593	96.94
307.807	160.42
308.021	33.45
308.235	96.94
308.449	41.64
308.663	-23.89
308.877	84.65
309.091	-7.51
309.305	70.31
309.519	-58.71
309.733	94.89
309.947	10.92
310.161	2.73
310.374	6.83
310.588	113.32
310.802	6.83
311.016	25.26
311.23	45.74
311.444	80.55
311.658	98.99
311.872	217.77
312.085	90.79
312.299	88.75
312.513	113.32
312.727	66.22
312.941	21.16
313.154	66.22
313.368	58.03
313.582	78.51
313.796	58.03
314.009	94.89
314.223	70.31
314.437	121.51
314.651	68.27
314.864	21.16
315.078	43.69
315.292	66.22
315.505	29.35
315.719	47.79
315.933	78.51
316.146	-9.56
316.36	-48.47
316.573	21.16
316.787	80.55
317.001	60.07
317.214	-68.95
317.428	72.36
317.641	12.97
317.855	-25.94
318.068	82.6
318.282	37.55
318.495	96.94
318.709	37.55
318.922	-5.46
319.136	55.98
319.349	60.07
319.563	76.46
319.776	19.11
319.99	-21.84
320.203	15.02
320.417	23.21
320.63	53.93
320.843	80.55
321.057	53.93
321.27	23.21
321.483	6.83
321.697	80.55
321.91	68.27
322.124	68.27
322.337	43.69
322.55	-3.41
322.763	25.26
322.977	8.87
323.19	-11.61
323.403	27.31
323.617	17.07
323.83	129.7
324.043	72.36
324.256	80.55
324.469	88.75
324.683	-21.84
324.896	70.31
325.109	37.55
325.322	-71
325.535	94.89
325.748	-36.18
325.962	2.73
326.175	-15.7
326.388	80.55
326.601	47.79
326.814	-3.41
327.027	25.26
327.24	92.84
327.453	10.92
327.666	107.18
327.879	103.08
328.092	96.94
328.305	74.41
328.518	29.35
328.731	31.4
328.944	117.42
329.157	80.55
329.37	15.02
329.583	82.6
329.796	74.41
330.009	45.74
330.222	31.4
330.435	68.27
330.648	53.93
330.861	43.69
331.073	117.42
331.286	49.83
331.499	117.42
331.712	29.35
331.925	39.59
332.138	19.11
332.35	45.74
332.563	10.92
332.776	80.55
332.989	2.73
333.202	55.98
333.414	-36.18
333.627	88.75
333.84	6.83
334.053	78.51
334.265	19.11
334.478	29.35
334.691	-1.37
334.903	41.64
335.116	60.07
335.329	115.37
335.541	101.03
335.754	41.64
335.966	33.45
336.179	31.4
336.392	92.84
336.604	31.4
336.817	82.6
337.029	45.74
337.242	-15.7
337.454	12.97
337.667	37.55
337.88	31.4
338.092	86.7
338.305	29.35
338.517	2.73
338.729	25.26
338.942	90.79
339.154	8.87
339.367	101.03
339.579	80.55
339.792	53.93
340.004	0.68
340.217	-58.71
340.429	-13.65
340.641	8.87
340.854	-40.28
341.066	84.65
341.278	-30.04
341.491	94.89
341.703	82.6
341.915	90.79
342.128	72.36
342.34	47.79
342.552	66.22
342.764	-9.56
342.977	6.83
343.189	27.31
343.401	-11.61
343.613	125.61
343.826	25.26
344.038	68.27
344.25	88.75
344.462	2.73
344.674	101.03
344.886	-23.89
345.099	53.93
345.311	74.41
345.523	45.74
345.735	-15.7
345.947	47.79
346.159	62.12
346.371	45.74
346.583	74.41
346.795	37.55
347.007	31.4
347.219	135.85
347.431	-38.23
347.643	37.55
347.855	-7.51
348.067	27.31
348.279	-21.84
348.491	68.27
348.703	29.35
348.915	-1.37
349.127	94.89
349.339	96.94
349.551	-1.37
349.763	43.69
349.975	49.83
350.187	41.64
350.399	-5.46
350.61	60.07
350.822	41.64
351.034	64.17
351.246	-21.84
351.458	121.51
351.669	33.45
351.881	131.75
352.093	49.83
352.305	86.7
352.517	31.4
352.728	117.42
352.94	80.55
353.152	62.12
353.363	12.97
353.575	105.13
353.787	117.42
353.999	23.21
354.21	49.83
354.422	39.59
354.633	51.88
354.845	19.11
355.057	70.31
355.268	113.32
355.48	62.12
355.692	10.92
355.903	78.51
356.115	35.5
356.326	35.5
356.538	107.18
356.749	94.89
356.961	60.07
357.172	2.73
357.384	12.97
357.595	133.8
357.807	78.51
358.018	37.55
358.23	41.64
358.441	125.61
358.653	123.56
358.864	90.79
359.075	0.68
359.287	121.51
359.498	62.12
359.709	51.88
359.921	19.11
360.132	10.92
360.344	2.73
360.555	12.97
360.766	43.69
360.977	64.17
361.189	19.11
361.4	-3.41
361.611	-11.61
361.823	103.08
362.034	84.65
362.245	17.07
362.456	-17.75
362.667	70.31
362.879	80.55
363.09	64.17
363.301	94.89
363.512	2.73
363.723	37.55
363.935	6.83
364.146	66.22
364.357	31.4
364.568	133.8
364.779	39.59
364.99	29.35
365.201	15.02
365.412	107.18
365.623	25.26
365.834	127.66
366.045	82.6
366.256	41.64
366.467	64.17
366.678	80.55
366.889	88.75
367.1	115.37
367.311	96.94
367.522	21.16
367.733	78.51
367.944	105.13
368.155	10.92
368.366	76.46
368.577	101.03
368.788	168.62
368.999	62.12
369.209	-9.56
369.42	127.66
369.631	41.64
369.842	74.41
370.053	66.22
370.264	55.98
370.474	80.55
370.685	31.4
370.896	109.23
371.107	72.36
371.317	4.78
371.528	35.5
371.739	-3.41
371.95	92.84
372.16	109.23
372.371	-3.41
372.582	92.84
372.792	105.13
373.003	35.5
373.214	129.7
373.424	12.97
373.635	33.45
373.846	43.69
374.056	41.64
374.267	80.55
374.477	27.31
374.688	55.98
374.898	70.31
375.109	43.69
375.319	98.99
375.53	113.32
375.74	37.55
375.951	25.26
376.161	25.26
376.372	137.9
376.582	35.5
376.793	82.6
377.003	10.92
377.214	-17.75
377.424	15.02
377.635	53.93
377.845	43.69
378.055	98.99
378.266	60.07
378.476	45.74
378.686	31.4
378.897	19.11
379.107	105.13
379.317	74.41
379.528	51.88
379.738	78.51
379.948	33.45
380.158	96.94
380.369	33.45
380.579	72.36
380.789	72.36
380.999	45.74
381.21	156.33
381.42	80.55
381.63	60.07
381.84	8.87
382.05	84.65
382.261	12.97
382.471	166.57
382.681	60.07
382.891	125.61
383.101	43.69
383.311	15.02
383.521	27.31
383.731	98.99
383.941	58.03
384.151	84.65
384.361	39.59
384.571	119.46
384.781	107.18
384.991	121.51
385.201	111.27
385.411	39.59
385.621	86.7
385.831	76.46
386.041	98.99
386.251	21.16
386.461	103.08
386.671	137.9
386.881	109.23
387.091	-9.56
387.301	29.35
387.511	72.36
387.72	144.04
387.93	101.03
388.14	84.65
388.35	119.46
388.56	76.46
388.769	101.03
388.979	88.75
389.189	15.02
389.399	78.51
389.609	58.03
389.818	68.27
390.028	6.83
390.238	92.84
390.447	82.6
390.657	86.7
390.867	21.16
391.076	33.45
391.286	66.22
391.496	84.65
391.705	51.88
391.915	86.7
392.125	121.51
392.334	62.12
392.544	174.76
392.753	51.88
392.963	-13.65
393.172	72.36
393.382	43.69
393.591	76.46
393.801	60.07
394.01	137.9
394.22	164.52
394.429	94.89
394.639	127.66
394.848	78.51
395.058	123.56
395.267	96.94
395.477	123.56
395.686	123.56
395.895	33.45
396.105	105.13
396.314	94.89
396.524	88.75
396.733	146.09
396.942	96.94
397.152	164.52
397.361	82.6
397.57	96.94
397.78	119.46
397.989	189.1
398.198	170.66
398.407	49.83
398.617	119.46
398.826	215.72
399.035	53.93
399.244	191.14
399.453	160.42
399.663	129.7
399.872	109.23
400.081	109.23
400.29	125.61
400.499	156.33
400.708	141.99
400.917	172.71
401.127	115.37
401.336	115.37
401.545	223.91
401.754	82.6
401.963	98.99
402.172	137.9
402.381	47.79
402.59	148.14
402.799	123.56
403.008	174.76
403.217	131.75
403.426	121.51
403.635	88.75
403.844	150.18
404.053	74.41
404.262	144.04
404.471	230.06
404.68	182.95
404.888	133.8
405.097	121.51
405.306	170.66
405.515	191.14
405.724	150.18
405.933	101.03
406.142	236.2
406.35	160.42
406.559	215.72
406.768	219.82
406.977	254.63
407.185	135.85
407.394	209.58
407.603	189.1
407.812	236.2
408.02	228.01
408.229	211.62
408.438	303.78
408.646	154.28
408.855	258.73
409.064	240.3
409.272	295.59
409.481	307.88
409.69	334.5
409.898	246.44
410.107	338.6
410.315	408.23
410.524	348.84
410.733	332.45
410.941	318.12
411.15	385.7
411.358	414.37
411.567	395.94
411.775	363.17
411.984	350.89
412.192	424.61
412.401	416.42
412.609	529.06
412.818	438.95
413.026	537.25
413.234	475.81
413.443	592.55
413.651	545.44
413.86	549.54
414.068	680.61
414.276	572.07
414.485	678.56
414.693	629.41
414.901	676.51
415.11	717.47
415.318	709.28
415.526	707.23
415.734	803.49
415.943	766.62
416.151	776.86
416.359	901.79
416.567	836.25
416.776	885.41
416.984	950.94
417.192	1088.15
417.4	1094.3
417.608	1075.87
417.817	1012.38
418.025	1168.02
418.233	1247.9
418.441	1155.74
418.649	1237.66
418.857	1284.76
419.065	1338.01
419.273	1264.28
419.481	1342.1
419.689	1495.7
419.897	1520.28
420.105	1454.74
420.313	1671.83
420.521	1649.3
420.729	1610.39
420.937	1737.36
421.145	1743.5
421.353	1811.09
421.561	2046.6
421.769	1936.01
421.977	2071.18
422.185	1985.16
422.393	2144.91
422.601	2499.2
422.809	2337.41
423.017	2398.85
423.224	2472.58
423.432	2552.45
423.64	2448.01
423.848	2830.98
424.056	2622.08
424.263	2896.51
424.471	2880.13
424.679	3009.15
424.887	3144.31
425.094	3259
425.302	3310.2
425.51	3312.25
425.718	3457.65
425.925	3609.2
426.133	3699.31
426.341	3875.44
426.548	4049.52
426.756	3986.03
426.964	3986.03
427.171	4330.09
427.379	4395.62
427.586	4506.21
427.794	4592.23
428.001	4878.94
428.209	4858.46
428.417	4794.98
428.624	5374.55
428.832	5261.91
429.039	5263.96
429.247	5249.63
429.454	5816.91
429.662	6187.6
429.869	5798.48
430.076	6122.06
430.284	5900.88
430.491	6367.82
430.699	6541.89
430.906	6537.8
431.114	6640.2
431.321	6877.76
431.528	7238.2
431.736	7512.63
431.943	7782.96
432.15	7823.92
432.358	7713.33
432.565	8196.65
432.772	8041.01
432.979	8774.18
433.187	8710.69
433.394	8753.7
433.601	9196.06
433.808	9615.9
434.016	9490.97
434.223	9796.12
434.43	10162.7
434.637	10148.37
434.844	10734.09
435.052	10996.23
435.259	10732.04
435.466	11014.66
435.673	10686.98
435.88	11667.96
436.087	11903.48
436.294	12378.61
436.501	12171.76
436.708	12055.03
436.915	12593.64
437.122	13234.66
437.329	12976.61
437.537	13355.49
437.743	13906.39
437.95	13779.42
438.157	14217.68
438.364	14754.25
438.571	14776.78
438.778	14696.91
438.985	16497.07
439.192	15614.4
439.399	16103.86
439.606	15985.08
439.813	16982.44
440.02	17670.56
440.227	17555.87
440.433	17213.86
440.64	17858.97
440.847	17697.18
441.054	18121.11
441.261	19370.37
441.467	19077.51
441.674	19335.56
441.881	20087.16
442.088	20212.09
442.294	20083.06
442.501	20724.08
442.708	20892.01
442.914	21797.21
443.121	22835.53
443.328	22116.7
443.534	23454.02
443.741	22860.11
443.948	22597.97
444.154	24086.84
444.361	24111.42
444.568	24449.33
444.774	24299.83
444.981	24654.13
445.187	25329.96
445.394	26491.16
445.6	26093.85
445.807	28561.65
446.013	27031.82
446.22	27961.6
446.426	28782.84
446.633	29151.47
446.839	30212.32
447.046	28905.71
447.252	30447.83
447.459	30492.89
447.665	30769.37
447.871	32051.39
448.078	32950.45
448.284	31727.81
448.491	32547
448.697	33904.81
448.903	34345.12
449.11	34547.87
449.316	33958.05
449.522	34381.98
449.728	35235.99
449.935	35713.16
450.141	35774.6
450.347	36739.19
450.553	35719.31
450.76	35758.22
450.966	37009.53
451.172	36538.49
451.378	37474.41
451.584	36726.91
451.791	37771.37
451.997	37546.09
452.203	38254.69
452.409	38527.07
452.615	37879.91
452.821	36649.08
453.027	36337.79
453.233	38097
453.44	36716.67
453.646	37038.2
453.852	37539.95
454.058	37800.04
454.264	36843.64
454.47	37781.61
454.676	36675.71
454.882	37933.16
455.088	34685.08
455.294	35149.97
455.5	35766.41
455.705	36032.64
455.911	34451.61
456.117	33951.91
456.323	33642.67
456.529	32065.73
456.735	32968.88
456.941	32190.66
457.147	31752.39
457.352	30933.2
457.558	30546.14
457.764	30705.88
457.97	30218.46
458.176	29815.01
458.381	29550.82
458.587	27771.14
458.793	28010.75
458.999	26095.9
459.204	28604.66
459.41	27801.86
459.616	25993.5
459.821	25813.28
460.027	25729.31
460.233	25006.38
460.438	23933.25
460.644	24015.16
460.85	23218.5
461.055	22929.74
461.261	22786.38
461.466	21111.14
461.672	20207.99
461.878	21936.48
462.083	20484.47
462.289	19853.69
462.494	19870.08
462.7	18772.36
462.905	18346.39
463.111	19034.5
463.316	19083.66
463.522	18811.28
463.727	18979.21
463.932	18735.5
464.138	18477.46
464.343	18731.4
464.549	17961.37
464.754	18524.56
464.959	18243.99
465.165	18344.34
465.37	17602.97
465.575	17021.35
465.781	17791.39
465.986	17967.51
466.191	17332.64
466.397	17045.93
466.602	16224.69
466.807	16648.62
467.012	16839.08
