Data from USB4F104151__1__12-40-51-031.txt Node

Date: Fri Mar 14 12:40:51 EDT 2025
User: louis
Spectrometer: USB4F10415
Trigger mode: 4
Integration Time (sec): 3.000000E-2
Scans to average: 1
Electric dark correction enabled: true
Nonlinearity correction enabled: false
Boxcar width: 0
XAxis mode: Wavelengths
Number of Pixels in Spectrum: 3648
>>>>>Begin Spectral Data<<<<<
178.204	-164.69
178.424	-164.69
178.644	-164.69
178.864	-160.59
179.084	-138.07
179.304	-25.43
179.524	-0.85
179.744	5.29
179.964	13.48
180.184	-58.2
180.404	-0.85
180.624	15.53
180.844	23.72
181.064	19.63
181.283	23.72
181.503	-27.48
181.723	11.43
181.943	-23.38
182.163	31.91
182.383	-72.53
182.602	54.44
182.822	46.25
183.042	27.82
183.262	-58.2
183.482	29.87
183.701	1.19
183.921	-4.95
184.141	-2.9
184.361	11.43
184.58	40.11
184.8	97.45
185.02	68.78
185.239	56.49
185.459	58.54
185.679	46.25
185.898	23.72
186.118	46.25
186.338	-17.24
186.557	79.02
186.777	36.01
186.997	15.53
187.216	-9.05
187.436	36.01
187.655	-11.09
187.875	-54.1
188.095	60.59
188.314	-4.95
188.534	42.15
188.753	-17.24
188.973	40.11
189.192	105.64
189.412	79.02
189.631	19.63
189.851	36.01
190.07	7.34
190.29	27.82
190.509	5.29
190.729	-52.05
190.948	31.91
191.168	126.12
191.387	42.15
191.607	85.16
191.826	-13.14
192.045	5.29
192.265	46.25
192.484	-11.09
192.704	79.02
192.923	-33.62
193.142	89.26
193.362	56.49
193.581	19.63
193.8	-35.67
194.02	21.67
194.239	15.53
194.458	44.2
194.678	25.77
194.897	-4.95
195.116	58.54
195.335	1.19
195.555	58.54
195.774	-2.9
195.993	38.06
196.212	7.34
196.432	-7
196.651	-0.85
196.87	9.39
197.089	23.72
197.308	79.02
197.528	74.92
197.747	3.24
197.966	13.48
198.185	29.87
198.404	38.06
198.623	23.72
198.842	83.11
199.062	79.02
199.281	44.2
199.5	89.26
199.719	31.91
199.938	-4.95
200.157	40.11
200.376	-4.95
200.595	130.22
200.814	85.16
201.033	23.72
201.252	76.97
201.471	62.63
201.69	50.35
201.909	62.63
202.128	52.39
202.347	1.19
202.566	17.58
202.785	21.67
203.004	-31.57
203.223	81.07
203.442	70.83
203.661	42.15
203.879	68.78
204.098	38.06
204.317	-2.9
204.536	7.34
204.755	9.39
204.974	128.17
205.193	70.83
205.411	83.11
205.63	48.3
205.849	58.54
206.068	-19.29
206.287	9.39
206.505	105.64
206.724	52.39
206.943	29.87
207.162	27.82
207.381	-47.96
207.599	11.43
207.818	1.19
208.037	-31.57
208.255	19.63
208.474	109.74
208.693	5.29
208.911	25.77
209.13	50.35
209.349	97.45
209.567	38.06
209.786	27.82
210.005	89.26
210.223	-50
210.442	-0.85
210.661	9.39
210.879	101.55
211.098	19.63
211.316	46.25
211.535	158.89
211.753	36.01
211.972	66.73
212.191	115.88
212.409	109.74
212.628	46.25
212.846	13.48
213.065	36.01
213.283	46.25
213.502	1.19
213.72	27.82
213.938	-0.85
214.157	19.63
214.375	-21.33
214.594	-33.62
214.812	27.82
215.031	46.25
215.249	17.58
215.467	-2.9
215.686	-9.05
215.904	113.83
216.122	-17.24
216.341	74.92
216.559	3.24
216.778	40.11
216.996	66.73
217.214	40.11
217.432	-11.09
217.651	13.48
217.869	52.39
218.087	36.01
218.306	54.44
218.524	46.25
218.742	38.06
218.96	50.35
219.179	11.43
219.397	21.67
219.615	48.3
219.833	9.39
220.051	-29.52
220.27	44.2
220.488	42.15
220.706	79.02
220.924	-7
221.142	7.34
221.36	107.69
221.578	36.01
221.796	33.96
222.015	29.87
222.233	17.58
222.451	105.64
222.669	-15.19
222.887	11.43
223.105	54.44
223.323	23.72
223.541	-9.05
223.759	33.96
223.977	74.92
224.195	113.83
224.413	52.39
224.631	1.19
224.849	62.63
225.067	115.88
225.285	64.68
225.503	19.63
225.721	-68.44
225.939	29.87
226.157	64.68
226.375	140.46
226.592	74.92
226.81	11.43
227.028	56.49
227.246	122.02
227.464	56.49
227.682	46.25
227.9	58.54
228.117	-23.38
228.335	81.07
228.553	-33.62
228.771	42.15
228.989	-35.67
229.206	74.92
229.424	83.11
229.642	68.78
229.86	1.19
230.077	109.74
230.295	111.78
230.513	138.41
230.731	19.63
230.948	124.07
231.166	58.54
231.384	9.39
231.601	9.39
231.819	93.35
232.037	-74.58
232.254	-9.05
232.472	25.77
232.689	46.25
232.907	74.92
233.125	-0.85
233.342	25.77
233.56	-2.9
233.777	52.39
233.995	25.77
234.213	29.87
234.43	62.63
234.648	44.2
234.865	3.24
235.083	50.35
235.3	-19.29
235.518	9.39
235.735	70.83
235.953	42.15
236.17	29.87
236.388	-66.39
236.605	-0.85
236.822	31.91
237.04	-27.48
237.257	46.25
237.475	56.49
237.692	21.67
237.909	42.15
238.127	11.43
238.344	40.11
238.562	81.07
238.779	-11.09
238.996	33.96
239.214	23.72
239.431	21.67
239.648	58.54
239.865	74.92
240.083	25.77
240.3	42.15
240.517	52.39
240.735	-15.19
240.952	9.39
241.169	81.07
241.386	40.11
241.603	15.53
241.821	1.19
242.038	97.45
242.255	23.72
242.472	-9.05
242.689	62.63
242.907	42.15
243.124	62.63
243.341	64.68
243.558	19.63
243.775	25.77
243.992	15.53
244.209	58.54
244.426	56.49
244.643	13.48
244.86	15.53
245.078	7.34
245.295	81.07
245.512	50.35
245.729	33.96
245.946	17.58
246.163	130.22
246.38	52.39
246.597	3.24
246.814	146.6
247.031	5.29
247.248	38.06
247.464	-13.14
247.681	52.39
247.898	40.11
248.115	62.63
248.332	15.53
248.549	76.97
248.766	115.88
248.983	107.69
249.2	11.43
249.417	25.77
249.633	68.78
249.85	60.59
250.067	-15.19
250.284	33.96
250.501	62.63
250.717	79.02
250.934	15.53
251.151	126.12
251.368	-4.95
251.585	52.39
251.801	52.39
252.018	17.58
252.235	36.01
252.451	-37.72
252.668	105.64
252.885	62.63
253.102	62.63
253.318	-41.81
253.535	-4.95
253.752	-7
253.968	3.24
254.185	33.96
254.401	11.43
254.618	66.73
254.835	-23.38
255.051	25.77
255.268	27.82
255.484	-41.81
255.701	38.06
255.917	66.73
256.134	-39.76
256.351	107.69
256.567	58.54
256.784	25.77
257	-4.95
257.217	40.11
257.433	119.98
257.65	52.39
257.866	126.12
258.082	-41.81
258.299	-15.19
258.515	81.07
258.732	13.48
258.948	-74.58
259.165	-2.9
259.381	-33.62
259.597	-11.09
259.814	27.82
260.03	-9.05
260.246	70.83
260.463	58.54
260.679	107.69
260.895	44.2
261.112	33.96
261.328	13.48
261.544	9.39
261.761	91.31
261.977	-9.05
262.193	46.25
262.409	66.73
262.626	-9.05
262.842	66.73
263.058	5.29
263.274	-17.24
263.49	52.39
263.707	29.87
263.923	7.34
264.139	9.39
264.355	-0.85
264.571	54.44
264.787	23.72
265.004	7.34
265.22	68.78
265.436	46.25
265.652	68.78
265.868	40.11
266.084	-17.24
266.3	7.34
266.516	-21.33
266.732	72.87
266.948	38.06
267.164	83.11
267.38	97.45
267.596	70.83
267.812	44.2
268.028	5.29
268.244	33.96
268.46	56.49
268.676	40.11
268.892	50.35
269.108	64.68
269.324	-60.24
269.54	40.11
269.756	68.78
269.972	27.82
270.188	17.58
270.403	1.19
270.619	-15.19
270.835	33.96
271.051	17.58
271.267	3.24
271.483	81.07
271.698	99.5
271.914	56.49
272.13	76.97
272.346	42.15
272.562	21.67
272.777	29.87
272.993	29.87
273.209	1.19
273.425	-13.14
273.64	-13.14
273.856	-23.38
274.072	74.92
274.287	-19.29
274.503	46.25
274.719	-2.9
274.934	27.82
275.15	-70.48
275.366	144.55
275.581	29.87
275.797	-88.92
276.012	3.24
276.228	-31.57
276.444	74.92
276.659	87.21
276.875	-50
277.09	40.11
277.306	-0.85
277.521	97.45
277.737	66.73
277.952	-19.29
278.168	13.48
278.383	23.72
278.599	-15.19
278.814	97.45
279.03	7.34
279.245	46.25
279.461	23.72
279.676	13.48
279.892	3.24
280.107	83.11
280.322	58.54
280.538	19.63
280.753	29.87
280.969	66.73
281.184	72.87
281.399	66.73
281.615	40.11
281.83	132.26
282.045	-25.43
282.26	13.48
282.476	150.7
282.691	101.55
282.906	99.5
283.122	3.24
283.337	17.58
283.552	-9.05
283.767	64.68
283.983	97.45
284.198	66.73
284.413	-27.48
284.628	58.54
284.843	99.5
285.058	17.58
285.274	62.63
285.489	33.96
285.704	15.53
285.919	-21.33
286.134	31.91
286.349	29.87
286.564	-7
286.779	87.21
286.995	66.73
287.21	-64.34
287.425	31.91
287.64	7.34
287.855	23.72
288.07	29.87
288.285	42.15
288.5	50.35
288.715	101.55
288.93	-33.62
289.145	68.78
289.36	50.35
289.575	99.5
289.79	68.78
290.004	87.21
290.219	124.07
290.434	29.87
290.649	25.77
290.864	52.39
291.079	56.49
291.294	-13.14
291.509	52.39
291.724	1.19
291.938	79.02
292.153	74.92
292.368	15.53
292.583	17.58
292.798	-0.85
293.012	-7
293.227	36.01
293.442	-19.29
293.657	-43.86
293.871	58.54
294.086	11.43
294.301	109.74
294.516	64.68
294.73	42.15
294.945	-41.81
295.16	52.39
295.374	25.77
295.589	62.63
295.804	29.87
296.018	-31.57
296.233	95.4
296.447	27.82
296.662	23.72
296.877	3.24
297.091	101.55
297.306	85.16
297.52	19.63
297.735	56.49
297.949	3.24
298.164	50.35
298.378	66.73
298.593	56.49
298.807	38.06
299.022	3.24
299.236	66.73
299.451	-15.19
299.665	46.25
299.88	29.87
300.094	13.48
300.309	74.92
300.523	101.55
300.737	17.58
300.952	33.96
301.166	31.91
301.381	-31.57
301.595	-2.9
301.809	60.59
302.024	-31.57
302.238	-4.95
302.452	21.67
302.667	21.67
302.881	134.31
303.095	52.39
303.309	23.72
303.524	-0.85
303.738	46.25
303.952	89.26
304.166	60.59
304.381	-68.44
304.595	134.31
304.809	19.63
305.023	17.58
305.237	38.06
305.452	58.54
305.666	31.91
305.88	68.78
306.094	-13.14
306.308	115.88
306.522	56.49
306.736	31.91
306.95	52.39
307.164	-2.9
307.379	-0.85
307.593	91.31
307.807	70.83
308.021	38.06
308.235	-7
308.449	19.63
308.663	66.73
308.877	83.11
309.091	70.83
309.305	50.35
309.519	-21.33
309.733	93.35
309.947	-9.05
310.161	95.4
310.374	130.22
310.588	81.07
310.802	31.91
311.016	19.63
311.23	91.31
311.444	19.63
311.658	31.91
311.872	36.01
312.085	105.64
312.299	101.55
312.513	72.87
312.727	91.31
312.941	64.68
313.154	52.39
313.368	60.59
313.582	50.35
313.796	42.15
314.009	76.97
314.223	11.43
314.437	70.83
314.651	52.39
314.864	-15.19
315.078	46.25
315.292	36.01
315.505	54.44
315.719	83.11
315.933	119.98
316.146	52.39
316.36	3.24
316.573	81.07
316.787	36.01
317.001	91.31
317.214	46.25
317.428	89.26
317.641	60.59
317.855	13.48
318.068	31.91
318.282	81.07
318.495	89.26
318.709	144.55
318.922	-2.9
319.136	27.82
319.349	62.63
319.563	44.2
319.776	15.53
319.99	-4.95
320.203	134.31
320.417	60.59
320.63	68.78
320.843	64.68
321.057	38.06
321.27	83.11
321.483	42.15
321.697	136.36
321.91	31.91
322.124	52.39
322.337	107.69
322.55	1.19
322.763	83.11
322.977	-17.24
323.19	-15.19
323.403	-33.62
323.617	-19.29
323.83	66.73
324.043	1.19
324.256	5.29
324.469	48.3
324.683	122.02
324.896	54.44
325.109	27.82
325.322	-35.67
325.535	79.02
325.748	126.12
325.962	68.78
326.175	25.77
326.388	40.11
326.601	-9.05
326.814	85.16
327.027	27.82
327.24	23.72
327.453	-37.72
327.666	87.21
327.879	128.17
328.092	42.15
328.305	-21.33
328.518	48.3
328.731	7.34
328.944	68.78
329.157	40.11
329.37	7.34
329.583	105.64
329.796	83.11
330.009	44.2
330.222	29.87
330.435	46.25
330.648	7.34
330.861	25.77
331.073	93.35
331.286	64.68
331.499	40.11
331.712	62.63
331.925	19.63
332.138	44.2
332.35	62.63
332.563	17.58
332.776	70.83
332.989	44.2
333.202	70.83
333.414	9.39
333.627	38.06
333.84	60.59
334.053	42.15
334.265	62.63
334.478	-19.29
334.691	36.01
334.903	40.11
335.116	36.01
335.329	44.2
335.541	31.91
335.754	38.06
335.966	-4.95
336.179	42.15
336.392	70.83
336.604	89.26
336.817	154.79
337.029	50.35
337.242	15.53
337.454	-21.33
337.667	33.96
337.88	74.92
338.092	23.72
338.305	62.63
338.517	101.55
338.729	7.34
338.942	56.49
339.154	17.58
339.367	21.67
339.579	142.5
339.792	7.34
340.004	144.55
340.217	13.48
340.429	83.11
340.641	44.2
340.854	3.24
341.066	54.44
341.278	60.59
341.491	9.39
341.703	60.59
341.915	5.29
342.128	117.93
342.34	76.97
342.552	-11.09
342.764	29.87
342.977	50.35
343.189	81.07
343.401	111.78
343.613	76.97
343.826	33.96
344.038	5.29
344.25	66.73
344.462	76.97
344.674	5.29
344.886	27.82
345.099	87.21
345.311	29.87
345.523	-56.15
345.735	44.2
345.947	66.73
346.159	31.91
346.371	50.35
346.583	44.2
346.795	83.11
347.007	40.11
347.219	52.39
347.431	38.06
347.643	85.16
347.855	134.31
348.067	42.15
348.279	-23.38
348.491	19.63
348.703	58.54
348.915	25.77
349.127	21.67
349.339	95.4
349.551	13.48
349.763	17.58
349.975	9.39
350.187	56.49
350.399	79.02
350.61	81.07
350.822	74.92
351.034	103.59
351.246	25.77
351.458	97.45
351.669	46.25
351.881	76.97
352.093	115.88
352.305	46.25
352.517	7.34
352.728	83.11
352.94	38.06
353.152	74.92
353.363	85.16
353.575	103.59
353.787	99.5
353.999	74.92
354.21	89.26
354.422	44.2
354.633	58.54
354.845	64.68
355.057	105.64
355.268	52.39
355.48	38.06
355.692	-27.48
355.903	44.2
356.115	42.15
356.326	19.63
356.538	40.11
356.749	5.29
356.961	152.74
357.172	109.74
357.384	119.98
357.595	85.16
357.807	38.06
358.018	48.3
358.23	29.87
358.441	93.35
358.653	48.3
358.864	87.21
359.075	58.54
359.287	42.15
359.498	95.4
359.709	48.3
359.921	-0.85
360.132	27.82
360.344	76.97
360.555	52.39
360.766	64.68
360.977	76.97
361.189	74.92
361.4	-37.72
361.611	50.35
361.823	81.07
362.034	52.39
362.245	-29.52
362.456	-9.05
362.667	136.36
362.879	97.45
363.09	66.73
363.301	56.49
363.512	105.64
363.723	-9.05
363.935	40.11
364.146	89.26
364.357	46.25
364.568	85.16
364.779	54.44
364.99	95.4
365.201	21.67
365.412	105.64
365.623	3.24
365.834	87.21
366.045	31.91
366.256	91.31
366.467	89.26
366.678	89.26
366.889	56.49
367.1	-7
367.311	25.77
367.522	44.2
367.733	48.3
367.944	60.59
368.155	-9.05
368.366	54.44
368.577	122.02
368.788	33.96
368.999	-17.24
369.209	87.21
369.42	126.12
369.631	167.08
369.842	74.92
370.053	-29.52
370.264	142.5
370.474	85.16
370.685	19.63
370.896	109.74
371.107	87.21
371.317	29.87
371.528	31.91
371.739	101.55
371.95	-7
372.16	66.73
372.371	11.43
372.582	9.39
372.792	74.92
373.003	76.97
373.214	7.34
373.424	81.07
373.635	3.24
373.846	95.4
374.056	36.01
374.267	85.16
374.477	79.02
374.688	68.78
374.898	29.87
375.109	29.87
375.319	31.91
375.53	17.58
375.74	105.64
375.951	107.69
376.161	136.36
376.372	62.63
376.582	15.53
376.793	11.43
377.003	33.96
377.214	25.77
377.424	25.77
377.635	36.01
377.845	68.78
378.055	115.88
378.266	44.2
378.476	99.5
378.686	111.78
378.897	79.02
379.107	81.07
379.317	27.82
379.528	58.54
379.738	99.5
379.948	48.3
380.158	189.61
380.369	58.54
380.579	134.31
380.789	113.83
380.999	126.12
381.21	60.59
381.42	128.17
381.63	107.69
381.84	107.69
382.05	115.88
382.261	95.4
382.471	76.97
382.681	74.92
382.891	107.69
383.101	113.83
383.311	19.63
383.521	46.25
383.731	124.07
383.941	130.22
384.151	95.4
384.361	54.44
384.571	70.83
384.781	13.48
384.991	36.01
385.201	175.27
385.411	83.11
385.621	85.16
385.831	119.98
386.041	87.21
386.251	64.68
386.461	48.3
386.671	105.64
386.881	56.49
387.091	87.21
387.301	136.36
387.511	160.94
387.72	97.45
387.93	113.83
388.14	74.92
388.35	64.68
388.56	29.87
388.769	81.07
388.979	31.91
389.189	56.49
389.399	29.87
389.609	79.02
389.818	91.31
390.028	95.4
390.238	25.77
390.447	46.25
390.657	150.7
390.867	74.92
391.076	62.63
391.286	160.94
391.496	58.54
391.705	119.98
391.915	42.15
392.125	74.92
392.334	130.22
392.544	181.42
392.753	76.97
392.963	107.69
393.172	160.94
393.382	107.69
393.591	83.11
393.801	62.63
394.01	203.94
394.22	56.49
394.429	66.73
394.639	76.97
394.848	132.26
395.058	111.78
395.267	93.35
395.477	113.83
395.686	144.55
395.895	109.74
396.105	115.88
396.314	169.13
396.524	81.07
396.733	85.16
396.942	181.42
397.152	130.22
397.361	177.32
397.57	101.55
397.78	115.88
397.989	134.31
398.198	175.27
398.407	152.74
398.617	115.88
398.826	79.02
399.035	124.07
399.244	132.26
399.453	169.13
399.663	183.46
399.872	130.22
400.081	117.93
400.29	144.55
400.499	62.63
400.708	134.31
400.917	83.11
401.127	101.55
401.336	195.75
401.545	167.08
401.754	111.78
401.963	150.7
402.172	156.84
402.381	117.93
402.59	165.03
402.799	203.94
403.008	175.27
403.217	160.94
403.426	162.98
403.635	187.56
403.844	181.42
404.053	93.35
404.262	146.6
404.471	185.51
404.68	162.98
404.888	179.37
405.097	222.38
405.306	205.99
405.515	150.7
405.724	183.46
405.933	222.38
406.142	214.18
406.35	269.48
406.559	138.41
406.768	263.33
406.977	269.48
407.185	185.51
407.394	246.95
407.603	222.38
407.812	263.33
408.02	312.49
408.229	292.01
408.438	281.77
408.646	373.92
408.855	373.92
409.064	351.4
409.272	308.39
409.481	384.16
409.69	447.65
409.898	285.86
410.107	410.79
410.315	394.4
410.524	388.26
410.733	457.89
410.941	433.32
411.15	543.91
411.358	502.95
411.567	558.24
411.775	478.37
411.984	527.52
412.192	509.09
412.401	441.51
412.609	652.45
412.818	730.27
413.026	713.89
413.234	613.54
413.443	670.88
413.651	640.16
413.86	746.66
414.068	814.24
414.276	746.66
414.485	728.22
414.693	881.82
414.901	900.25
415.11	955.55
415.318	941.21
415.526	922.78
415.734	910.49
415.943	1074.33
416.151	1098.91
416.359	1064.09
416.567	1125.53
416.776	1078.43
416.984	1262.74
417.192	1244.31
417.4	1373.33
417.608	1289.37
417.817	1471.64
418.025	1440.92
418.233	1680.53
418.441	1445.01
418.649	1524.88
418.857	1621.14
419.065	1643.67
419.273	1713.3
419.481	1860.75
419.689	1766.54
419.897	1991.82
420.105	1823.89
420.313	2227.34
420.521	2077.83
420.729	2077.83
420.937	2200.71
421.145	2311.3
421.353	2376.84
421.561	2466.95
421.769	2518.15
421.977	2698.37
422.185	2561.16
422.393	2788.48
422.601	2944.13
422.809	2905.21
423.017	2907.26
423.224	3114.11
423.432	3349.62
423.64	3202.17
423.848	3480.69
424.056	3515.51
424.263	3734.64
424.471	3646.58
424.679	3765.36
424.887	4029.55
425.094	3994.73
425.302	4158.57
425.51	4330.6
425.718	4410.47
425.925	4416.62
426.133	4645.99
426.341	4830.3
426.548	5215.32
426.756	5112.92
426.964	5219.42
427.171	5614.68
427.379	5592.15
427.586	5798.99
427.794	5850.19
428.001	6134.86
428.209	6390.86
428.417	6466.63
428.624	6853.7
428.832	6880.32
429.039	6896.71
429.247	6888.51
429.454	7177.28
429.662	7793.72
429.869	7328.83
430.076	7826.48
430.284	7740.47
430.491	8229.93
430.699	8467.5
430.906	8444.97
431.114	8533.03
431.321	8952.87
431.528	9149.47
431.736	9778.2
431.943	9966.61
432.15	9724.95
432.358	9948.18
432.565	10419.21
432.772	10488.84
432.979	11115.52
433.187	11176.96
433.394	11097.09
433.601	11807.73
433.808	12047.35
434.016	12022.77
434.223	12385.26
434.43	13231.07
434.637	13083.62
434.844	13765.59
435.052	14029.78
435.259	13943.77
435.466	14234.58
435.673	14042.07
435.88	14738.38
436.087	15494.08
436.294	15612.86
436.501	15500.22
436.708	15811.51
436.915	16212.92
437.122	16907.18
437.329	16790.44
437.537	17447.84
437.743	17781.66
437.95	17451.94
438.157	18629.52
438.364	19395.46
438.571	19041.16
438.778	19305.35
438.985	21011.31
439.192	20071.29
439.399	20716.4
439.606	20083.58
439.813	21621.6
440.02	22809.42
440.227	22446.93
440.433	22004.57
440.64	22602.58
440.847	22860.62
441.054	23356.23
441.261	24908.59
441.467	24734.51
441.674	25010.99
441.881	26010.4
442.088	25879.33
442.294	25625.38
442.501	26149.66
442.708	26923.79
442.914	27927.3
443.121	29178.61
443.328	28175.1
443.534	30317.28
443.741	29532.9
443.948	29170.41
444.154	31455.95
444.361	31025.87
444.568	31222.48
444.774	31318.73
444.981	31609.54
445.187	32633.53
445.394	34040.48
445.6	33508.01
445.807	36885.11
446.013	34996.88
446.22	35523.21
446.426	37175.92
446.633	37397.1
446.839	38765.15
447.046	37061.24
447.252	39477.84
447.459	38963.8
447.665	39170.64
447.871	40958.52
448.078	42107.43
448.284	40434.24
448.491	41566.77
448.697	43452.95
448.903	44149.26
449.11	44100.11
449.316	43385.36
449.522	44075.53
449.728	45257.21
449.935	45691.38
450.141	45640.18
450.347	47172.06
450.553	45318.65
450.76	45449.72
450.966	47196.63
451.172	46776.8
451.378	47704.53
451.584	46612.96
451.791	48138.7
451.997	47792.59
452.203	48619.97
452.409	49121.73
452.615	48511.43
452.821	46445.03
453.027	46264.81
453.233	48781.76
453.44	46813.66
453.646	47536.6
453.852	47954.38
454.058	48566.73
454.264	47004.13
454.47	47587.8
454.676	46682.59
454.882	48425.42
455.088	44110.35
455.294	45101.56
455.5	45527.54
455.705	45867.5
455.911	43962.89
456.117	43262.49
456.323	42699.3
456.529	40811.07
456.735	42437.16
456.941	41431.6
457.147	40544.83
457.352	39303.76
457.558	39240.28
457.764	39115.35
457.97	38283.87
458.176	37571.18
458.381	37538.41
458.587	35617.42
458.793	35943.05
458.999	34202.27
459.204	36416.13
459.41	35342.99
459.616	33061.55
459.821	33252.02
460.027	32854.71
460.233	32084.67
460.438	30708.44
460.644	30941.91
460.85	29838.05
461.055	29387.5
461.261	29049.58
461.466	26565.4
461.672	25994.01
461.878	28107.52
462.083	26043.17
462.289	25842.46
462.494	25518.89
462.7	24288.06
462.905	23380.81
463.111	24382.26
463.316	24548.15
463.522	24152.89
463.727	24374.07
463.932	24011.58
464.138	23679.81
464.343	23675.71
464.549	23264.07
464.754	24009.53
464.959	23866.17
465.165	23399.24
465.37	22860.62
465.575	21924.7
465.781	22913.87
465.986	23327.56
466.191	22221.66
466.397	21680.99
466.602	20867.95
466.807	21343.08
