Data from USB4F104151__96__12-42-57-553.txt Node

Date: Fri Mar 14 12:42:57 EDT 2025
User: louis
Spectrometer: USB4F10415
Trigger mode: 4
Integration Time (sec): 3.000000E-2
Scans to average: 1
Electric dark correction enabled: true
Nonlinearity correction enabled: false
Boxcar width: 0
XAxis mode: Wavelengths
Number of Pixels in Spectrum: 3648
>>>>>Begin Spectral Data<<<<<
178.204	-108.03
178.424	-108.03
178.644	-108.03
178.864	-161.28
179.084	-118.27
179.304	-15.87
179.524	-28.16
179.744	6.66
179.964	29.18
180.184	55.81
180.404	-17.92
180.624	-24.06
180.844	27.14
181.064	18.94
181.283	6.66
181.503	-48.64
181.723	-9.73
181.943	-9.73
182.163	86.53
182.383	66.05
182.602	39.42
182.822	47.62
183.042	98.81
183.262	-1.54
183.482	59.9
183.701	-22.02
183.921	6.66
184.141	23.04
184.361	45.57
184.58	25.09
184.8	37.38
185.02	4.61
185.239	70.14
185.459	-11.78
185.679	2.56
185.898	43.52
186.118	80.38
186.338	55.81
186.557	111.1
186.777	51.71
186.997	129.53
187.216	51.71
187.436	82.43
187.655	10.75
187.875	49.66
188.095	43.52
188.314	59.9
188.534	61.95
188.753	-5.63
188.973	59.9
189.192	39.42
189.412	2.56
189.631	-15.87
189.851	29.18
190.07	51.71
190.29	51.71
190.509	2.56
190.729	35.33
190.948	64
191.168	68.09
191.387	14.85
191.607	29.18
191.826	66.05
192.045	27.14
192.265	23.04
192.484	2.56
192.704	6.66
192.923	-46.59
193.142	78.33
193.362	0.51
193.581	90.62
193.8	88.57
194.02	64
194.239	8.7
194.458	68.09
194.678	33.28
194.897	104.96
195.116	-24.06
195.335	39.42
195.555	43.52
195.774	8.7
195.993	-1.54
196.212	25.09
196.432	-62.98
196.651	29.18
196.87	-1.54
197.089	68.09
197.308	12.8
197.528	68.09
197.747	0.51
197.966	8.7
198.185	96.77
198.404	-9.73
198.623	80.38
198.842	-52.74
199.062	-19.97
199.281	66.05
199.5	-9.73
199.719	16.9
199.938	33.28
200.157	25.09
200.376	-3.58
200.595	135.68
200.814	43.52
201.033	-9.73
201.252	45.57
201.471	4.61
201.69	70.14
201.909	27.14
202.128	76.29
202.347	-24.06
202.566	-32.26
202.785	98.81
203.004	74.24
203.223	98.81
203.442	102.91
203.661	25.09
203.879	8.7
204.098	51.71
204.317	57.86
204.536	14.85
204.755	45.57
204.974	51.71
205.193	33.28
205.411	86.53
205.63	33.28
205.849	35.33
206.068	25.09
206.287	53.76
206.505	68.09
206.724	100.86
206.943	20.99
207.162	-1.54
207.381	8.7
207.599	8.7
207.818	111.1
208.037	-9.73
208.255	-13.82
208.474	29.18
208.693	14.85
208.911	-17.92
209.13	43.52
209.349	18.94
209.567	14.85
209.786	0.51
210.005	102.91
210.223	27.14
210.442	49.66
210.661	92.67
210.879	57.86
211.098	37.38
211.316	10.75
211.535	10.75
211.753	23.04
211.972	41.47
212.191	33.28
212.409	113.15
212.628	25.09
212.846	-24.06
213.065	-1.54
213.283	59.9
213.502	16.9
213.72	-5.63
213.938	49.66
214.157	6.66
214.375	35.33
214.594	8.7
214.812	37.38
215.031	41.47
215.249	-1.54
215.467	59.9
215.686	14.85
215.904	88.57
216.122	16.9
216.341	64
216.559	72.19
216.778	94.72
216.996	8.7
217.214	20.99
217.432	-26.11
217.651	4.61
217.869	23.04
218.087	41.47
218.306	64
218.524	57.86
218.742	-58.88
218.96	23.04
219.179	-24.06
219.397	-7.68
219.615	123.39
219.833	96.77
220.051	-5.63
220.27	16.9
220.488	104.96
220.706	66.05
220.924	-32.26
221.142	-32.26
221.36	43.52
221.578	55.81
221.796	10.75
222.015	39.42
222.233	14.85
222.451	94.72
222.669	8.7
222.887	57.86
223.105	-26.11
223.323	-48.64
223.541	2.56
223.759	8.7
223.977	-19.97
224.195	-7.68
224.413	61.95
224.631	20.99
224.849	-32.26
225.067	57.86
225.285	23.04
225.503	-7.68
225.721	12.8
225.939	72.19
226.157	41.47
226.375	111.1
226.592	61.95
226.81	57.86
227.028	76.29
227.246	90.62
227.464	31.23
227.682	35.33
227.9	92.67
228.117	68.09
228.335	88.57
228.553	29.18
228.771	90.62
228.989	100.86
229.206	109.05
229.424	31.23
229.642	109.05
229.86	0.51
230.077	121.34
230.295	86.53
230.513	57.86
230.731	92.67
230.948	61.95
231.166	84.48
231.384	45.57
231.601	59.9
231.819	10.75
232.037	0.51
232.254	-26.11
232.472	123.39
232.689	0.51
232.907	74.24
233.125	-1.54
233.342	12.8
233.56	16.9
233.777	0.51
233.995	74.24
234.213	102.91
234.43	66.05
234.648	45.57
234.865	20.99
235.083	-26.11
235.3	33.28
235.518	33.28
235.735	72.19
235.953	123.39
236.17	61.95
236.388	68.09
236.605	131.58
236.822	64
237.04	35.33
237.257	68.09
237.475	55.81
237.692	27.14
237.909	55.81
238.127	55.81
238.344	51.71
238.562	2.56
238.779	10.75
238.996	12.8
239.214	80.38
239.431	78.33
239.648	-1.54
239.865	131.58
240.083	49.66
240.3	72.19
240.517	23.04
240.735	16.9
240.952	-1.54
241.169	53.76
241.386	74.24
241.603	37.38
241.821	39.42
242.038	61.95
242.255	96.77
242.472	-7.68
242.689	51.71
242.907	16.9
243.124	10.75
243.341	-3.58
243.558	68.09
243.775	-17.92
243.992	-5.63
244.209	10.75
244.426	-22.02
244.643	47.62
244.86	10.75
245.078	2.56
245.295	2.56
245.512	76.29
245.729	25.09
245.946	12.8
246.163	43.52
246.38	80.38
246.597	23.04
246.814	16.9
247.031	82.43
247.248	10.75
247.464	4.61
247.681	43.52
247.898	23.04
248.115	47.62
248.332	-30.21
248.549	68.09
248.766	147.97
248.983	18.94
249.2	10.75
249.417	100.86
249.633	55.81
249.85	80.38
250.067	64
250.284	33.28
250.501	55.81
250.717	88.57
250.934	39.42
251.151	51.71
251.368	-24.06
251.585	55.81
251.801	29.18
252.018	90.62
252.235	76.29
252.451	35.33
252.668	49.66
252.885	37.38
253.102	64
253.318	12.8
253.535	76.29
253.752	29.18
253.968	25.09
254.185	-22.02
254.401	68.09
254.618	45.57
254.835	-60.93
255.051	61.95
255.268	119.29
255.484	96.77
255.701	29.18
255.917	59.9
256.134	-15.87
256.351	25.09
256.567	-58.88
256.784	29.18
257	18.94
257.217	49.66
257.433	84.48
257.65	37.38
257.866	8.7
258.082	-48.64
258.299	39.42
258.515	-19.97
258.732	53.76
258.948	-17.92
259.165	78.33
259.381	55.81
259.597	92.67
259.814	51.71
260.03	-15.87
260.246	-13.82
260.463	76.29
260.679	27.14
260.895	102.91
261.112	102.91
261.328	18.94
261.544	57.86
261.761	119.29
261.977	57.86
262.193	-11.78
262.409	57.86
262.626	-42.5
262.842	70.14
263.058	-32.26
263.274	123.39
263.49	113.15
263.707	49.66
263.923	80.38
264.139	2.56
264.355	10.75
264.571	104.96
264.787	-7.68
265.004	76.29
265.22	-15.87
265.436	0.51
265.652	-24.06
265.868	137.73
266.084	41.47
266.3	119.29
266.516	-40.45
266.732	66.05
266.948	14.85
267.164	16.9
267.38	107.01
267.596	168.45
267.812	164.35
268.028	47.62
268.244	-1.54
268.46	43.52
268.676	33.28
268.892	47.62
269.108	10.75
269.324	-28.16
269.54	35.33
269.756	64
269.972	-28.16
270.188	-30.21
270.403	-32.26
270.619	-28.16
270.835	53.76
271.051	25.09
271.267	98.81
271.483	23.04
271.698	-7.68
271.914	18.94
272.13	43.52
272.346	39.42
272.562	94.72
272.777	27.14
272.993	31.23
273.209	20.99
273.425	66.05
273.64	33.28
273.856	20.99
274.072	41.47
274.287	-11.78
274.503	80.38
274.719	-3.58
274.934	66.05
275.15	59.9
275.366	4.61
275.581	-44.54
275.797	39.42
276.012	41.47
276.228	59.9
276.444	2.56
276.659	80.38
276.875	25.09
277.09	-9.73
277.306	-3.58
277.521	129.53
277.737	43.52
277.952	88.57
278.168	121.34
278.383	49.66
278.599	115.2
278.814	100.86
279.03	-15.87
279.245	14.85
279.461	76.29
279.676	68.09
279.892	29.18
280.107	16.9
280.322	35.33
280.538	31.23
280.753	16.9
280.969	76.29
281.184	4.61
281.399	35.33
281.615	-9.73
281.83	-24.06
282.045	-5.63
282.26	39.42
282.476	-19.97
282.691	53.76
282.906	47.62
283.122	107.01
283.337	-7.68
283.552	37.38
283.767	57.86
283.983	59.9
284.198	37.38
284.413	27.14
284.628	25.09
284.843	100.86
285.058	37.38
285.274	29.18
285.489	14.85
285.704	109.05
285.919	37.38
286.134	29.18
286.349	4.61
286.564	20.99
286.779	45.57
286.995	18.94
287.21	20.99
287.425	115.2
287.64	76.29
287.855	72.19
288.07	37.38
288.285	74.24
288.5	90.62
288.715	27.14
288.93	-34.3
289.145	121.34
289.36	90.62
289.575	20.99
289.79	72.19
290.004	4.61
290.219	102.91
290.434	29.18
290.649	57.86
290.864	2.56
291.079	-17.92
291.294	-13.82
291.509	-3.58
291.724	27.14
291.938	70.14
292.153	51.71
292.368	68.09
292.583	23.04
292.798	147.97
293.012	61.95
293.227	47.62
293.442	10.75
293.657	23.04
293.871	86.53
294.086	53.76
294.301	141.82
294.516	123.39
294.73	43.52
294.945	-1.54
295.16	49.66
295.374	12.8
295.589	64
295.804	47.62
296.018	57.86
296.233	111.1
296.447	41.47
296.662	-3.58
296.877	84.48
297.091	-9.73
297.306	-24.06
297.52	68.09
297.735	37.38
297.949	-30.21
298.164	61.95
298.378	55.81
298.593	-44.54
298.807	49.66
299.022	80.38
299.236	88.57
299.451	-24.06
299.665	72.19
299.88	72.19
300.094	18.94
300.309	14.85
300.523	51.71
300.737	8.7
300.952	2.56
301.166	-1.54
301.381	96.77
301.595	70.14
301.809	51.71
302.024	43.52
302.238	10.75
302.452	61.95
302.667	16.9
302.881	57.86
303.095	131.58
303.309	41.47
303.524	-17.92
303.738	37.38
303.952	-11.78
304.166	16.9
304.381	41.47
304.595	102.91
304.809	10.75
305.023	43.52
305.237	12.8
305.452	55.81
305.666	18.94
305.88	102.91
306.094	-19.97
306.308	61.95
306.522	104.96
306.736	31.23
306.95	55.81
307.164	55.81
307.379	0.51
307.593	14.85
307.807	70.14
308.021	61.95
308.235	107.01
308.449	27.14
308.663	49.66
308.877	92.67
309.091	16.9
309.305	92.67
309.519	0.51
309.733	92.67
309.947	29.18
310.161	94.72
310.374	55.81
310.588	137.73
310.802	53.76
311.016	25.09
311.23	61.95
311.444	29.18
311.658	23.04
311.872	137.73
312.085	49.66
312.299	88.57
312.513	84.48
312.727	4.61
312.941	2.56
313.154	27.14
313.368	96.77
313.582	178.69
313.796	45.57
314.009	37.38
314.223	96.77
314.437	94.72
314.651	82.43
314.864	27.14
315.078	43.52
315.292	-34.3
315.505	-9.73
315.719	104.96
315.933	94.72
316.146	80.38
316.36	98.81
316.573	147.97
316.787	109.05
317.001	49.66
317.214	35.33
317.428	43.52
317.641	39.42
317.855	8.7
318.068	86.53
318.282	-9.73
318.495	109.05
318.709	-1.54
318.922	0.51
319.136	51.71
319.349	104.96
319.563	70.14
319.776	49.66
319.99	-34.3
320.203	51.71
320.417	61.95
320.63	2.56
320.843	119.29
321.057	55.81
321.27	66.05
321.483	141.82
321.697	158.21
321.91	37.38
322.124	72.19
322.337	39.42
322.55	-9.73
322.763	66.05
322.977	84.48
323.19	-44.54
323.403	23.04
323.617	76.29
323.83	41.47
324.043	-30.21
324.256	51.71
324.469	0.51
324.683	74.24
324.896	109.05
325.109	78.33
325.322	-1.54
325.535	41.47
325.748	-5.63
325.962	-5.63
326.175	16.9
326.388	41.47
326.601	111.1
326.814	80.38
327.027	94.72
327.24	92.67
327.453	10.75
327.666	80.38
327.879	70.14
328.092	70.14
328.305	109.05
328.518	35.33
328.731	-13.82
328.944	41.47
329.157	51.71
329.37	92.67
329.583	129.53
329.796	33.28
330.009	0.51
330.222	16.9
330.435	158.21
330.648	84.48
330.861	-1.54
331.073	59.9
331.286	113.15
331.499	66.05
331.712	20.99
331.925	18.94
332.138	64
332.35	111.1
332.563	6.66
332.776	94.72
332.989	27.14
333.202	39.42
333.414	55.81
333.627	57.86
333.84	18.94
334.053	18.94
334.265	6.66
334.478	98.81
334.691	68.09
334.903	49.66
335.116	-3.58
335.329	-5.63
335.541	14.85
335.754	74.24
335.966	70.14
336.179	4.61
336.392	98.81
336.604	64
336.817	129.53
337.029	154.11
337.242	70.14
337.454	66.05
337.667	-5.63
337.88	8.7
338.092	109.05
338.305	70.14
338.517	70.14
338.729	90.62
338.942	104.96
339.154	111.1
339.367	84.48
339.579	98.81
339.792	2.56
340.004	117.25
340.217	-69.12
340.429	27.14
340.641	2.56
340.854	16.9
341.066	10.75
341.278	80.38
341.491	90.62
341.703	92.67
341.915	2.56
342.128	115.2
342.34	84.48
342.552	20.99
342.764	6.66
342.977	31.23
343.189	82.43
343.401	61.95
343.613	-11.78
343.826	23.04
344.038	51.71
344.25	39.42
344.462	-15.87
344.674	80.38
344.886	66.05
345.099	102.91
345.311	0.51
345.523	6.66
345.735	-11.78
345.947	86.53
346.159	20.99
346.371	4.61
346.583	47.62
346.795	104.96
347.007	57.86
347.219	147.97
347.431	35.33
347.643	47.62
347.855	10.75
348.067	125.44
348.279	43.52
348.491	-1.54
348.703	74.24
348.915	-22.02
349.127	57.86
349.339	96.77
349.551	66.05
349.763	2.56
349.975	8.7
350.187	109.05
350.399	119.29
350.61	156.16
350.822	10.75
351.034	55.81
351.246	51.71
351.458	74.24
351.669	70.14
351.881	111.1
352.093	59.9
352.305	131.58
352.517	61.95
352.728	150.01
352.94	107.01
353.152	64
353.363	92.67
353.575	33.28
353.787	39.42
353.999	39.42
354.21	68.09
354.422	27.14
354.633	51.71
354.845	33.28
355.057	57.86
355.268	70.14
355.48	107.01
355.692	4.61
355.903	-1.54
356.115	2.56
356.326	82.43
356.538	45.57
356.749	82.43
356.961	29.18
357.172	96.77
357.384	-15.87
357.595	72.19
357.807	14.85
358.018	-3.58
358.23	68.09
358.441	51.71
358.653	76.29
358.864	-9.73
359.075	43.52
359.287	59.9
359.498	111.1
359.709	127.49
359.921	59.9
360.132	78.33
360.344	111.1
360.555	-32.26
360.766	49.66
360.977	27.14
361.189	72.19
361.4	35.33
361.611	96.77
361.823	107.01
362.034	107.01
362.245	23.04
362.456	23.04
362.667	39.42
362.879	82.43
363.09	111.1
363.301	-7.68
363.512	90.62
363.723	125.44
363.935	145.92
364.146	84.48
364.357	78.33
364.568	168.45
364.779	23.04
364.99	107.01
365.201	68.09
365.412	68.09
365.623	55.81
365.834	100.86
366.045	45.57
366.256	-22.02
366.467	61.95
366.678	66.05
366.889	27.14
367.1	20.99
367.311	47.62
367.522	94.72
367.733	23.04
367.944	158.21
368.155	61.95
368.366	70.14
368.577	94.72
368.788	109.05
368.999	31.23
369.209	78.33
369.42	182.78
369.631	178.69
369.842	86.53
370.053	90.62
370.264	88.57
370.474	92.67
370.685	113.15
370.896	51.71
371.107	96.77
371.317	90.62
371.528	29.18
371.739	53.76
371.95	82.43
372.16	53.76
372.371	-17.92
372.582	25.09
372.792	82.43
373.003	86.53
373.214	29.18
373.424	8.7
373.635	-3.58
373.846	125.44
374.056	-15.87
374.267	72.19
374.477	68.09
374.688	18.94
374.898	39.42
375.109	137.73
375.319	49.66
375.53	92.67
375.74	47.62
375.951	43.52
376.161	51.71
376.372	72.19
376.582	47.62
376.793	49.66
377.003	86.53
377.214	16.9
377.424	88.57
377.635	102.91
377.845	125.44
378.055	64
378.266	47.62
378.476	72.19
378.686	57.86
378.897	20.99
379.107	98.81
379.317	104.96
379.528	-46.59
379.738	121.34
379.948	51.71
380.158	74.24
380.369	61.95
380.579	10.75
380.789	27.14
380.999	37.38
381.21	139.77
381.42	84.48
381.63	92.67
381.84	84.48
382.05	74.24
382.261	45.57
382.471	33.28
382.681	90.62
382.891	98.81
383.101	109.05
383.311	49.66
383.521	2.56
383.731	123.39
383.941	86.53
384.151	16.9
384.361	66.05
384.571	125.44
384.781	104.96
384.991	166.4
385.201	119.29
385.411	156.16
385.621	127.49
385.831	90.62
386.041	88.57
386.251	66.05
386.461	145.92
386.671	72.19
386.881	47.62
387.091	53.76
387.301	86.53
387.511	102.91
387.72	104.96
387.93	55.81
388.14	39.42
388.35	8.7
388.56	0.51
388.769	160.25
388.979	137.73
389.189	45.57
389.399	111.1
389.609	70.14
389.818	78.33
390.028	121.34
390.238	82.43
390.447	37.38
390.657	113.15
390.867	129.53
391.076	70.14
391.286	90.62
391.496	135.68
391.705	57.86
391.915	121.34
392.125	127.49
392.334	2.56
392.544	82.43
392.753	76.29
392.963	139.77
393.172	78.33
393.382	96.77
393.591	147.97
393.801	68.09
394.01	115.2
394.22	115.2
394.429	117.25
394.639	127.49
394.848	145.92
395.058	127.49
395.267	98.81
395.477	29.18
395.686	76.29
395.895	172.54
396.105	248.32
396.314	84.48
396.524	92.67
396.733	82.43
396.942	98.81
397.152	121.34
397.361	154.11
397.57	141.82
397.78	111.1
397.989	92.67
398.198	193.02
398.407	135.68
398.617	117.25
398.826	141.82
399.035	76.29
399.244	160.25
399.453	82.43
399.663	152.06
399.872	231.93
400.081	131.58
400.29	193.02
400.499	109.05
400.708	170.49
400.917	147.97
401.127	160.25
401.336	141.82
401.545	215.55
401.754	199.16
401.963	158.21
402.172	115.2
402.381	227.84
402.59	229.88
402.799	145.92
403.008	184.83
403.217	133.63
403.426	100.86
403.635	137.73
403.844	129.53
404.053	193.02
404.262	113.15
404.471	299.52
404.68	164.35
404.888	213.5
405.097	199.16
405.306	229.88
405.515	201.21
405.724	205.31
405.933	287.23
406.142	193.02
406.35	322.04
406.559	322.04
406.768	227.84
406.977	193.02
407.185	297.47
407.394	256.51
407.603	324.09
407.812	258.56
408.02	332.28
408.229	285.18
408.438	313.85
408.646	252.41
408.855	365.05
409.064	367.1
409.272	356.86
409.481	440.83
409.69	418.3
409.898	356.86
410.107	522.74
410.315	473.59
410.524	492.02
410.733	459.26
410.941	434.68
411.15	547.32
411.358	541.18
411.567	635.38
411.775	545.27
411.984	559.61
412.192	551.42
412.401	647.67
412.609	604.66
412.818	705.01
413.026	711.16
413.234	719.35
413.443	758.26
413.651	709.11
413.86	829.94
414.068	825.84
414.276	948.72
414.485	922.1
414.693	864.75
414.901	958.96
415.11	1055.22
415.318	989.68
415.526	1055.22
415.734	1059.31
415.943	1206.77
416.151	1194.48
416.359	1143.28
416.567	1229.29
416.776	1376.75
416.984	1391.08
417.192	1475.05
417.4	1432.04
417.608	1458.67
417.817	1409.51
418.025	1573.35
418.233	1638.89
418.441	1688.04
418.649	1677.8
418.857	1806.82
419.065	1954.27
419.273	1913.31
419.481	2052.58
419.689	2157.02
419.897	2275.81
420.105	2298.33
420.313	2310.62
420.521	2306.52
420.729	2314.72
420.937	2488.79
421.145	2566.62
421.353	2666.97
421.561	2699.73
421.769	2781.65
421.977	2865.62
422.185	2925.01
422.393	3111.38
422.601	3473.87
422.809	3316.17
423.017	3340.75
423.224	3441.1
423.432	3488.2
423.64	3713.48
423.848	3901.89
424.056	3994.05
424.263	4215.23
424.471	4188.61
424.679	4129.22
424.887	4549.05
425.094	4598.2
425.302	4514.24
425.51	4708.79
425.718	5054.9
425.925	4995.51
426.133	5257.65
426.341	5349.81
426.548	5788.07
426.756	5695.91
426.964	5783.98
427.171	6123.94
427.379	6302.11
427.586	6584.73
427.794	6705.56
428.001	6830.49
428.209	7055.76
428.417	7152.02
428.624	7575.95
428.832	7457.17
429.039	7709.07
429.247	7621
429.454	8276.35
429.662	8833.4
429.869	8157.57
430.076	8853.88
430.284	8655.23
430.491	8931.7
430.699	9533.81
430.906	9533.81
431.114	9750.89
431.321	10015.08
431.528	9941.35
431.736	10729.82
431.943	11278.68
432.15	11061.59
432.358	11127.13
432.565	11931.98
432.772	11759.95
432.979	12214.6
433.187	12417.35
433.394	12572.99
433.601	13480.24
433.808	13363.51
434.016	13275.45
434.223	13883.69
434.43	14844.19
434.637	14719.26
434.844	15460.63
435.052	15823.12
435.259	15554.83
435.466	15968.52
435.673	15829.26
435.88	16666.88
436.087	17445.11
436.294	17576.18
436.501	17168.63
436.708	17524.98
436.915	18153.71
437.122	18768.1
437.329	18864.35
437.537	19476.69
437.743	19699.92
437.95	19679.44
438.157	20488.39
438.364	21397.69
438.571	21215.42
438.778	21512.38
438.985	23265.44
439.192	22360.23
439.399	23345.31
439.606	22593.7
439.813	24193.17
440.02	25391.23
440.227	24825.99
440.433	24352.91
440.64	25598.07
440.847	25272.45
441.054	26022
441.261	27811.93
441.467	27058.28
441.674	28090.45
441.881	28665.93
442.088	29163.59
442.294	28670.03
442.501	29530.17
442.708	30085.17
442.914	31197.22
443.121	32575.5
443.328	31369.25
443.534	33918.97
443.741	33103.88
443.948	32481.3
444.154	34621.42
444.361	34584.56
444.568	34897.9
444.774	34938.86
444.981	35000.3
445.187	36061.15
445.394	38076.35
445.6	37267.4
445.807	40781.71
446.013	39102.38
446.22	39645.09
446.426	41498.5
446.633	41621.38
446.839	42704.76
447.046	41361.29
447.252	43415.4
447.459	43149.17
447.665	43173.74
447.871	45197.13
448.078	47017.78
448.284	44681.05
448.491	46278.46
448.697	47976.23
448.903	48486.17
449.11	48725.78
449.316	48361.25
449.522	49362.7
449.728	50435.84
449.935	50614.01
450.141	50358.02
450.347	51556.08
450.553	50304.77
450.76	50763.51
450.966	52395.74
451.172	51732.2
451.378	53212.88
451.584	51855.08
451.791	53225.17
451.997	52913.88
452.203	53683.92
452.409	54214.34
452.615	53589.71
452.821	51906.28
453.027	51076.85
453.233	54048.46
453.44	51797.74
453.646	52080.36
453.852	52793.05
454.058	53573.33
454.264	51803.88
454.47	53255.89
454.676	51201.78
454.882	53683.92
455.088	48676.63
455.294	49833.74
455.5	50431.74
455.705	50495.23
455.911	48977.68
456.117	48191.26
456.323	47073.07
456.529	44828.5
456.735	46702.39
456.941	45354.83
457.147	44861.27
457.352	43517.8
457.558	42680.18
457.764	43495.27
457.97	42268.54
458.176	41289.61
458.381	41478.02
458.587	39403.43
458.793	39305.13
458.999	37619.65
459.204	40269.72
459.41	38979.5
459.616	36468.69
459.821	36571.09
460.027	36212.7
460.233	35485.67
460.438	33638.4
460.644	34215.93
460.85	32770.06
461.055	32153.62
461.261	32170.01
461.466	29755.45
461.672	28862.54
461.878	30554.16
462.083	29036.61
462.289	28381.26
462.494	28072.02
462.7	26583.15
462.905	26116.21
463.111	27043.94
463.316	27623.51
463.522	26767.46
463.727	26728.55
463.932	26282.09
464.138	26015.86
464.343	26425.45
464.549	25477.24
464.754	26708.07
464.959	26083.44
465.165	25974.9
465.37	25104.51
465.575	24246.41
465.781	25321.6
465.986	25512.06
466.191	24539.27
466.397	24127.63
466.602	22849.7
466.807	23787.67
467.012	23832.72
