Data from USB4F104151__12__12-41-00-536.txt Node

Date: Fri Mar 14 12:41:00 EDT 2025
User: louis
Spectrometer: USB4F10415
Trigger mode: 4
Integration Time (sec): 3.000000E-2
Scans to average: 1
Electric dark correction enabled: true
Nonlinearity correction enabled: false
Boxcar width: 0
XAxis mode: Wavelengths
Number of Pixels in Spectrum: 3648
>>>>>Begin Spectral Data<<<<<
178.204	-111.1
178.424	-111.1
178.644	-111.1
178.864	-158.21
179.084	-131.58
179.304	3.58
179.524	-27.14
179.744	-43.52
179.964	101.89
180.184	3.58
180.404	44.54
180.624	-49.66
180.844	-20.99
181.064	9.73
181.283	-6.66
181.503	-16.9
181.723	1.54
181.943	-2.56
182.163	-14.85
182.383	30.21
182.602	52.74
182.822	81.41
183.042	3.58
183.262	-70.14
183.482	-59.9
183.701	13.82
183.921	-23.04
184.141	30.21
184.361	19.97
184.58	42.5
184.8	60.93
185.02	7.68
185.239	71.17
185.459	7.68
185.679	-20.99
185.898	-66.05
186.118	-33.28
186.338	15.87
186.557	95.74
186.777	-20.99
186.997	-33.28
187.216	-39.42
187.436	95.74
187.655	-57.86
187.875	-2.56
188.095	30.21
188.314	48.64
188.534	83.45
188.753	-35.33
188.973	46.59
189.192	56.83
189.412	120.32
189.631	60.93
189.851	30.21
190.07	7.68
190.29	-6.66
190.509	-2.56
190.729	5.63
190.948	44.54
191.168	128.51
191.387	34.3
191.607	24.06
191.826	9.73
192.045	3.58
192.265	44.54
192.484	46.59
192.704	60.93
192.923	-25.09
193.142	71.17
193.362	95.74
193.581	73.21
193.8	69.12
194.02	58.88
194.239	-41.47
194.458	56.83
194.678	15.87
194.897	-76.29
195.116	101.89
195.335	71.17
195.555	5.63
195.774	-25.09
195.993	30.21
196.212	7.68
196.432	7.68
196.651	46.59
196.87	83.45
197.089	93.69
197.308	48.64
197.528	69.12
197.747	-47.62
197.966	-68.09
198.185	15.87
198.404	-33.28
198.623	11.78
198.842	93.69
199.062	44.54
199.281	40.45
199.5	75.26
199.719	67.07
199.938	69.12
200.157	-33.28
200.376	3.58
200.595	69.12
200.814	83.45
201.033	28.16
201.252	38.4
201.471	17.92
201.69	46.59
201.909	26.11
202.128	36.35
202.347	56.83
202.566	62.98
202.785	-2.56
203.004	-2.56
203.223	93.69
203.442	9.73
203.661	-31.23
203.879	-18.94
204.098	79.36
204.317	15.87
204.536	11.78
204.755	-6.66
204.974	28.16
205.193	-20.99
205.411	32.26
205.63	36.35
205.849	13.82
206.068	50.69
206.287	60.93
206.505	-18.94
206.724	-59.9
206.943	-20.99
207.162	-70.14
207.381	54.78
207.599	32.26
207.818	46.59
208.037	87.55
208.255	54.78
208.474	-18.94
208.693	52.74
208.911	17.92
209.13	69.12
209.349	36.35
209.567	28.16
209.786	-8.7
210.005	83.45
210.223	60.93
210.442	-12.8
210.661	87.55
210.879	19.97
211.098	62.98
211.316	46.59
211.535	28.16
211.753	38.4
211.972	-29.18
212.191	17.92
212.409	22.02
212.628	83.45
212.846	-14.85
213.065	15.87
213.283	58.88
213.502	-14.85
213.72	89.6
213.938	46.59
214.157	24.06
214.375	30.21
214.594	17.92
214.812	108.03
215.031	91.65
215.249	-23.04
215.467	40.45
215.686	-6.66
215.904	62.98
216.122	-6.66
216.341	24.06
216.559	52.74
216.778	36.35
216.996	95.74
217.214	62.98
217.432	-12.8
217.651	28.16
217.869	-10.75
218.087	26.11
218.306	30.21
218.524	26.11
218.742	-29.18
218.96	77.31
219.179	17.92
219.397	11.78
219.615	50.69
219.833	140.8
220.051	48.64
220.27	-4.61
220.488	46.59
220.706	93.69
220.924	-10.75
221.142	3.58
221.36	75.26
221.578	71.17
221.796	40.45
222.015	56.83
222.233	26.11
222.451	36.35
222.669	-31.23
222.887	30.21
223.105	15.87
223.323	40.45
223.541	13.82
223.759	30.21
223.977	-4.61
224.195	-0.51
224.413	48.64
224.631	71.17
224.849	7.68
225.067	99.84
225.285	-55.81
225.503	-64
225.721	-47.62
225.939	-35.33
226.157	-8.7
226.375	97.79
226.592	7.68
226.81	11.78
227.028	79.36
227.246	34.3
227.464	-12.8
227.682	114.17
227.9	5.63
228.117	65.02
228.335	32.26
228.553	-18.94
228.771	42.5
228.989	32.26
229.206	46.59
229.424	71.17
229.642	15.87
229.86	7.68
230.077	48.64
230.295	-37.38
230.513	108.03
230.731	116.22
230.948	1.54
231.166	-29.18
231.384	58.88
231.601	30.21
231.819	48.64
232.037	34.3
232.254	44.54
232.472	79.36
232.689	15.87
232.907	83.45
233.125	-6.66
233.342	79.36
233.56	-23.04
233.777	17.92
233.995	54.78
234.213	-2.56
234.43	56.83
234.648	-59.9
234.865	-6.66
235.083	101.89
235.3	44.54
235.518	9.73
235.735	118.27
235.953	28.16
236.17	-80.38
236.388	30.21
236.605	42.5
236.822	124.41
237.04	44.54
237.257	65.02
237.475	-12.8
237.692	42.5
237.909	30.21
238.127	32.26
238.344	26.11
238.562	-10.75
238.779	22.02
238.996	44.54
239.214	17.92
239.431	93.69
239.648	54.78
239.865	62.98
240.083	-18.94
240.3	-16.9
240.517	13.82
240.735	13.82
240.952	-10.75
241.169	95.74
241.386	73.21
241.603	50.69
241.821	9.73
242.038	81.41
242.255	77.31
242.472	-18.94
242.689	44.54
242.907	134.65
243.124	44.54
243.341	-0.51
243.558	60.93
243.775	1.54
243.992	19.97
244.209	75.26
244.426	17.92
244.643	101.89
244.86	26.11
245.078	42.5
245.295	48.64
245.512	44.54
245.729	52.74
245.946	60.93
246.163	-23.04
246.38	22.02
246.597	56.83
246.814	1.54
247.031	3.58
247.248	-39.42
247.464	60.93
247.681	26.11
247.898	60.93
248.115	95.74
248.332	-31.23
248.549	69.12
248.766	148.99
248.983	91.65
249.2	46.59
249.417	11.78
249.633	65.02
249.85	36.35
250.067	46.59
250.284	-41.47
250.501	71.17
250.717	99.84
250.934	-2.56
251.151	3.58
251.368	36.35
251.585	116.22
251.801	3.58
252.018	44.54
252.235	58.88
252.451	44.54
252.668	28.16
252.885	28.16
253.102	-27.14
253.318	-18.94
253.535	3.58
253.752	-2.56
253.968	30.21
254.185	-64
254.401	34.3
254.618	44.54
254.835	-27.14
255.051	62.98
255.268	58.88
255.484	-0.51
255.701	-12.8
255.917	79.36
256.134	5.63
256.351	-2.56
256.567	22.02
256.784	5.63
257	17.92
257.217	26.11
257.433	11.78
257.65	-2.56
257.866	-6.66
258.082	-47.62
258.299	24.06
258.515	85.5
258.732	54.78
258.948	54.78
259.165	-2.56
259.381	-29.18
259.597	-29.18
259.814	-35.33
260.03	-25.09
260.246	56.83
260.463	34.3
260.679	67.07
260.895	60.93
261.112	69.12
261.328	60.93
261.544	-20.99
261.761	85.5
261.977	7.68
262.193	-37.38
262.409	69.12
262.626	17.92
262.842	36.35
263.058	44.54
263.274	93.69
263.49	71.17
263.707	103.93
263.923	13.82
264.139	69.12
264.355	-18.94
264.571	132.61
264.787	-47.62
265.004	67.07
265.22	46.59
265.436	-51.71
265.652	-35.33
265.868	52.74
266.084	-59.9
266.3	36.35
266.516	-51.71
266.732	56.83
266.948	52.74
267.164	-0.51
267.38	3.58
267.596	105.98
267.812	97.79
268.028	56.83
268.244	44.54
268.46	42.5
268.676	79.36
268.892	108.03
269.108	-10.75
269.324	24.06
269.54	34.3
269.756	97.79
269.972	60.93
270.188	58.88
270.403	-6.66
270.619	13.82
270.835	97.79
271.051	30.21
271.267	50.69
271.483	54.78
271.698	5.63
271.914	11.78
272.13	-0.51
272.346	28.16
272.562	1.54
272.777	69.12
272.993	-41.47
273.209	1.54
273.425	138.75
273.64	11.78
273.856	67.07
274.072	17.92
274.287	15.87
274.503	32.26
274.719	95.74
274.934	87.55
275.15	46.59
275.366	71.17
275.581	-23.04
275.797	-14.85
276.012	67.07
276.228	24.06
276.444	15.87
276.659	65.02
276.875	-14.85
277.09	-0.51
277.306	-74.24
277.521	-27.14
277.737	9.73
277.952	50.69
278.168	24.06
278.383	-10.75
278.599	71.17
278.814	11.78
279.03	17.92
279.245	110.08
279.461	13.82
279.676	79.36
279.892	-45.57
280.107	1.54
280.322	42.5
280.538	65.02
280.753	36.35
280.969	22.02
281.184	-29.18
281.399	32.26
281.615	22.02
281.83	44.54
282.045	-33.28
282.26	40.45
282.476	11.78
282.691	165.37
282.906	124.41
283.122	-4.61
283.337	-8.7
283.552	128.51
283.767	-25.09
283.983	79.36
284.198	93.69
284.413	17.92
284.628	42.5
284.843	52.74
285.058	54.78
285.274	44.54
285.489	-41.47
285.704	101.89
285.919	-10.75
286.134	40.45
286.349	-12.8
286.564	77.31
286.779	24.06
286.995	5.63
287.21	40.45
287.425	60.93
287.64	60.93
287.855	-31.23
288.07	65.02
288.285	116.22
288.5	83.45
288.715	67.07
288.93	13.82
289.145	-16.9
289.36	56.83
289.575	28.16
289.79	75.26
290.004	15.87
290.219	-39.42
290.434	-18.94
290.649	-43.52
290.864	62.98
291.079	77.31
291.294	15.87
291.509	101.89
291.724	40.45
291.938	38.4
292.153	-10.75
292.368	42.5
292.583	28.16
292.798	67.07
293.012	28.16
293.227	75.26
293.442	-35.33
293.657	75.26
293.871	30.21
294.086	-64
294.301	69.12
294.516	89.6
294.73	46.59
294.945	-23.04
295.16	15.87
295.374	89.6
295.589	48.64
295.804	26.11
296.018	-12.8
296.233	89.6
296.447	52.74
296.662	87.55
296.877	136.7
297.091	50.69
297.306	81.41
297.52	-39.42
297.735	40.45
297.949	44.54
298.164	26.11
298.378	7.68
298.593	50.69
298.807	17.92
299.022	89.6
299.236	42.5
299.451	19.97
299.665	-12.8
299.88	71.17
300.094	-25.09
300.309	-14.85
300.523	11.78
300.737	38.4
300.952	17.92
301.166	36.35
301.381	-43.52
301.595	42.5
301.809	-6.66
302.024	17.92
302.238	-49.66
302.452	81.41
302.667	62.98
302.881	132.61
303.095	77.31
303.309	79.36
303.524	-14.85
303.738	54.78
303.952	75.26
304.166	60.93
304.381	-10.75
304.595	93.69
304.809	73.21
305.023	-25.09
305.237	-29.18
305.452	3.58
305.666	26.11
305.88	58.88
306.094	69.12
306.308	52.74
306.522	-16.9
306.736	28.16
306.95	1.54
307.164	-4.61
307.379	11.78
307.593	28.16
307.807	56.83
308.021	50.69
308.235	9.73
308.449	17.92
308.663	-29.18
308.877	89.6
309.091	32.26
309.305	85.5
309.519	-59.9
309.733	85.5
309.947	22.02
310.161	85.5
310.374	54.78
310.588	77.31
310.802	11.78
311.016	-51.71
311.23	69.12
311.444	95.74
311.658	-2.56
311.872	118.27
312.085	19.97
312.299	52.74
312.513	58.88
312.727	67.07
312.941	17.92
313.154	13.82
313.368	46.59
313.582	19.97
313.796	87.55
314.009	36.35
314.223	126.46
314.437	-4.61
314.651	32.26
314.864	-35.33
315.078	-6.66
315.292	69.12
315.505	24.06
315.719	54.78
315.933	26.11
316.146	28.16
316.36	-39.42
316.573	65.02
316.787	24.06
317.001	-18.94
317.214	77.31
317.428	42.5
317.641	67.07
317.855	75.26
318.068	44.54
318.282	44.54
318.495	30.21
318.709	103.93
318.922	-49.66
319.136	15.87
319.349	112.13
319.563	101.89
319.776	11.78
319.99	-27.14
320.203	54.78
320.417	120.32
320.63	-4.61
320.843	24.06
321.057	-10.75
321.27	-12.8
321.483	36.35
321.697	69.12
321.91	-14.85
322.124	13.82
322.337	42.5
322.55	28.16
322.763	58.88
322.977	42.5
323.19	34.3
323.403	52.74
323.617	-23.04
323.83	36.35
324.043	62.98
324.256	42.5
324.469	-39.42
324.683	85.5
324.896	22.02
325.109	62.98
325.322	87.55
325.535	30.21
325.748	69.12
325.962	5.63
326.175	34.3
326.388	60.93
326.601	24.06
326.814	30.21
327.027	77.31
327.24	95.74
327.453	-25.09
327.666	91.65
327.879	67.07
328.092	-47.62
328.305	19.97
328.518	15.87
328.731	-49.66
328.944	11.78
329.157	11.78
329.37	15.87
329.583	48.64
329.796	85.5
330.009	-78.33
330.222	1.54
330.435	-16.9
330.648	24.06
330.861	52.74
331.073	99.84
331.286	52.74
331.499	34.3
331.712	-55.81
331.925	89.6
332.138	-31.23
332.35	5.63
332.563	15.87
332.776	69.12
332.989	15.87
333.202	1.54
333.414	36.35
333.627	30.21
333.84	28.16
334.053	81.41
334.265	-55.81
334.478	52.74
334.691	-37.38
334.903	62.98
335.116	15.87
335.329	-53.76
335.541	50.69
335.754	73.21
335.966	-16.9
336.179	-16.9
336.392	-59.9
336.604	3.58
336.817	42.5
337.029	87.55
337.242	118.27
337.454	46.59
337.667	15.87
337.88	22.02
338.092	36.35
338.305	77.31
338.517	42.5
338.729	-0.51
338.942	120.32
339.154	52.74
339.367	-20.99
339.579	34.3
339.792	22.02
340.004	65.02
340.217	-25.09
340.429	52.74
340.641	7.68
340.854	26.11
341.066	56.83
341.278	110.08
341.491	42.5
341.703	108.03
341.915	-74.24
342.128	83.45
342.34	62.98
342.552	28.16
342.764	44.54
342.977	42.5
343.189	67.07
343.401	85.5
343.613	-80.38
343.826	69.12
344.038	99.84
344.25	56.83
344.462	-37.38
344.674	5.63
344.886	24.06
345.099	75.26
345.311	91.65
345.523	-12.8
345.735	-2.56
345.947	65.02
346.159	50.69
346.371	-18.94
346.583	-2.56
346.795	73.21
347.007	40.45
347.219	71.17
347.431	58.88
347.643	105.98
347.855	73.21
348.067	36.35
348.279	28.16
348.491	46.59
348.703	73.21
348.915	26.11
349.127	7.68
349.339	85.5
349.551	26.11
349.763	99.84
349.975	34.3
350.187	65.02
350.399	36.35
350.61	99.84
350.822	15.87
351.034	105.98
351.246	87.55
351.458	-49.66
351.669	54.78
351.881	32.26
352.093	60.93
352.305	93.69
352.517	54.78
352.728	60.93
352.94	54.78
353.152	65.02
353.363	-27.14
353.575	56.83
353.787	103.93
353.999	30.21
354.21	114.17
354.422	36.35
354.633	-12.8
354.845	48.64
355.057	40.45
355.268	65.02
355.48	112.13
355.692	-10.75
355.903	46.59
356.115	67.07
356.326	40.45
356.538	101.89
356.749	71.17
356.961	75.26
357.172	-68.09
357.384	13.82
357.595	91.65
357.807	32.26
358.018	28.16
358.23	19.97
358.441	128.51
358.653	99.84
358.864	28.16
359.075	89.6
359.287	-25.09
359.498	81.41
359.709	97.79
359.921	79.36
360.132	58.88
360.344	-8.7
360.555	71.17
360.766	101.89
360.977	-31.23
361.189	69.12
361.4	30.21
361.611	69.12
361.823	112.13
362.034	69.12
362.245	67.07
362.456	26.11
362.667	108.03
362.879	3.58
363.09	30.21
363.301	24.06
363.512	7.68
363.723	15.87
363.935	-27.14
364.146	126.46
364.357	19.97
364.568	1.54
364.779	48.64
364.99	85.5
365.201	22.02
365.412	77.31
365.623	-53.76
365.834	54.78
366.045	32.26
366.256	44.54
366.467	42.5
366.678	60.93
366.889	-29.18
367.1	62.98
367.311	116.22
367.522	22.02
367.733	32.26
367.944	34.3
368.155	65.02
368.366	122.37
368.577	163.33
368.788	79.36
368.999	44.54
369.209	38.4
369.42	44.54
369.631	138.75
369.842	118.27
370.053	26.11
370.264	30.21
370.474	50.69
370.685	69.12
370.896	62.98
371.107	62.98
371.317	26.11
371.528	40.45
371.739	15.87
371.95	128.51
372.16	65.02
372.371	-72.19
372.582	52.74
372.792	26.11
373.003	40.45
373.214	-6.66
373.424	58.88
373.635	62.98
373.846	93.69
374.056	130.56
374.267	81.41
374.477	28.16
374.688	73.21
374.898	-6.66
375.109	58.88
375.319	89.6
375.53	58.88
375.74	126.46
375.951	40.45
376.161	24.06
376.372	126.46
376.582	1.54
376.793	48.64
377.003	83.45
377.214	114.17
377.424	112.13
377.635	44.54
377.845	110.08
378.055	110.08
378.266	38.4
378.476	46.59
378.686	69.12
378.897	75.26
379.107	69.12
379.317	50.69
379.528	62.98
379.738	126.46
379.948	22.02
380.158	22.02
380.369	36.35
380.579	38.4
380.789	19.97
380.999	56.83
381.21	132.61
381.42	118.27
381.63	34.3
381.84	87.55
382.05	130.56
382.261	71.17
382.471	65.02
382.681	65.02
382.891	108.03
383.101	62.98
383.311	99.84
383.521	56.83
383.731	56.83
383.941	118.27
384.151	36.35
384.361	103.93
384.571	97.79
384.781	73.21
384.991	128.51
385.201	97.79
385.411	148.99
385.621	56.83
385.831	-14.85
386.041	52.74
386.251	95.74
386.461	110.08
386.671	69.12
386.881	30.21
387.091	132.61
387.301	17.92
387.511	93.69
387.72	46.59
387.93	165.37
388.14	48.64
388.35	81.41
388.56	30.21
388.769	32.26
388.979	132.61
389.189	85.5
389.399	89.6
389.609	105.98
389.818	95.74
390.028	-4.61
390.238	58.88
390.447	36.35
390.657	116.22
390.867	50.69
391.076	105.98
391.286	65.02
391.496	62.98
391.705	54.78
391.915	140.8
392.125	144.89
392.334	44.54
392.544	60.93
392.753	136.7
392.963	58.88
393.172	97.79
393.382	67.07
393.591	91.65
393.801	24.06
394.01	69.12
394.22	50.69
394.429	91.65
394.639	77.31
394.848	161.28
395.058	15.87
395.267	40.45
395.477	146.94
395.686	140.8
395.895	112.13
396.105	105.98
396.314	91.65
396.524	99.84
396.733	69.12
396.942	167.42
397.152	58.88
397.361	159.23
397.57	122.37
397.78	110.08
397.989	118.27
398.198	216.57
398.407	144.89
398.617	97.79
398.826	108.03
399.035	95.74
399.244	120.32
399.453	130.56
399.663	73.21
399.872	173.57
400.081	132.61
400.29	142.85
400.499	136.7
400.708	134.65
400.917	142.85
401.127	159.23
401.336	144.89
401.545	179.71
401.754	230.91
401.963	116.22
402.172	110.08
402.381	124.41
402.59	163.33
402.799	79.36
403.008	171.52
403.217	110.08
403.426	183.81
403.635	144.89
403.844	192
404.053	101.89
404.262	189.95
404.471	257.53
404.68	95.74
404.888	165.37
405.097	173.57
405.306	202.24
405.515	187.9
405.724	173.57
405.933	206.33
406.142	206.33
406.35	347.64
406.559	226.81
406.768	251.39
406.977	214.52
407.185	216.57
407.394	243.2
407.603	241.15
407.812	235
408.02	318.97
408.229	167.42
408.438	280.06
408.646	337.4
408.855	306.68
409.064	341.5
409.272	316.92
409.481	421.37
409.69	325.12
409.898	351.74
410.107	321.02
410.315	468.47
410.524	366.07
410.733	400.89
410.941	427.51
411.15	447.99
411.358	445.95
411.567	478.71
411.775	493.05
411.984	568.82
412.192	558.58
412.401	476.66
412.609	531.96
412.818	646.65
413.026	650.74
413.234	660.98
413.443	722.42
413.651	609.78
413.86	689.65
414.068	761.33
414.276	787.96
414.485	816.63
414.693	912.88
414.901	919.03
415.11	865.78
415.318	943.6
415.526	880.11
415.734	902.64
415.943	1021.42
416.151	1023.47
416.359	1078.77
416.567	1025.52
416.776	1226.22
416.984	1273.32
417.192	1193.45
417.4	1324.52
417.608	1166.83
417.817	1330.67
418.025	1471.98
418.233	1494.51
418.441	1531.37
418.649	1508.84
418.857	1666.53
419.065	1644.01
419.273	1572.33
419.481	1789.41
419.689	1746.41
419.897	1955.3
420.105	1924.58
420.313	1930.72
420.521	1975.78
420.729	2158.05
420.937	2168.29
421.145	2184.67
421.353	2452.95
421.561	2436.57
421.769	2506.2
421.977	2749.91
422.185	2647.51
422.393	2827.73
422.601	2915.8
422.809	2825.68
423.017	2995.67
423.224	2975.19
423.432	3202.51
423.64	3114.45
423.848	3626.44
424.056	3243.47
424.263	3669.45
424.471	3689.93
424.679	3739.08
424.887	3902.92
425.094	4005.31
425.302	4150.72
425.51	4285.89
425.718	4304.32
425.925	4359.61
426.133	4568.51
426.341	4742.58
426.548	5084.59
426.756	4992.44
426.964	5062.07
427.171	5465.52
427.379	5529
427.586	5662.12
427.794	5862.82
428.001	5993.89
428.209	6321.57
428.417	6253.98
428.624	6729.11
428.832	6612.38
429.039	6593.95
429.247	6626.71
429.454	7085.46
429.662	7761.29
429.869	7091.6
430.076	7757.19
430.284	7515.53
430.491	7841.16
430.699	8306.05
430.906	8320.39
431.114	8502.65
431.321	8779.13
431.528	8949.11
431.736	9377.14
431.943	10036.58
432.15	9467.25
432.358	9860.46
432.565	10446.18
432.772	10521.95
432.979	10802.52
433.187	11005.27
433.394	10900.83
433.601	11685.2
433.808	11738.44
434.016	11586.9
434.223	12309.83
434.43	12916.03
434.637	12672.32
434.844	13477.17
435.052	13948.2
435.259	13704.49
435.466	13647.15
435.673	13737.26
435.88	14456.1
436.087	15170.84
436.294	15430.93
436.501	15002.91
436.708	15224.09
436.915	15650.07
437.122	16723.2
437.329	16391.43
437.537	17095.93
437.743	17530.1
437.95	17083.64
438.157	18058.48
438.364	18742.5
438.571	18531.56
438.778	18695.39
438.985	20395.21
439.192	19721.43
439.399	20368.59
439.606	19895.5
439.813	21302.46
440.02	22297.77
440.227	22138.03
440.433	21961.9
440.64	22803.62
440.847	22293.68
441.054	22795.43
441.261	24018.07
441.467	23760.02
441.674	24456.33
441.881	25472.12
442.088	25508.99
442.294	25226.37
442.501	25506.94
442.708	26254.45
442.914	27329.63
443.121	28220.5
443.328	28218.45
443.534	29832.25
443.741	28945.48
443.948	28601.42
444.154	30592.05
444.361	30483.5
444.568	30651.44
444.774	30383.15
444.981	30907.43
445.187	31732.76
445.394	33137.67
445.6	32574.48
445.807	35949.53
446.013	34511.86
446.22	35079.14
446.426	36232.15
446.633	36674.51
446.839	37723.07
447.046	36391.89
447.252	38323.13
447.459	38693.81
447.665	38124.47
447.871	39916.45
448.078	41632.64
448.284	39449.51
448.491	40799.12
448.697	42300.28
448.903	42881.91
449.11	43010.93
449.316	42527.61
449.522	43207.53
449.728	44374.87
449.935	44620.63
450.141	44571.48
450.347	46293.82
450.553	44211.04
450.76	44895.06
450.966	46246.72
451.172	45882.18
451.378	47000.37
451.584	46277.44
451.791	47045.43
451.997	46809.91
452.203	48225.06
452.409	47590.19
452.615	47538.99
452.821	46093.12
453.027	45353.8
453.233	47571.75
453.44	45970.24
453.646	46490.43
453.852	46717.75
454.058	47350.57
454.264	45937.48
454.47	47192.88
454.676	45159.25
454.882	46889.78
455.088	43213.68
455.294	43750.24
455.5	45001.55
455.705	44985.17
455.911	43520.87
456.117	42328.95
456.323	42240.89
456.529	39492.52
456.735	41565.06
456.941	40522.65
457.147	39654.31
457.352	38462.39
457.558	38349.75
457.764	38011.84
457.97	37364.68
458.176	36705.23
458.381	36969.42
458.587	34810.86
458.793	34812.91
458.999	33143.81
459.204	35515.36
459.41	34675.69
459.616	32418.83
459.821	32351.25
460.027	32314.39
460.233	31431.71
460.438	29727.8
460.644	30381.1
460.85	29045.83
461.055	28423.25
461.261	28525.64
461.466	26283.12
461.672	25379.96
461.878	27368.54
462.083	25384.06
462.289	24933.51
462.494	24360.08
462.7	23633.05
462.905	23186.59
463.111	23659.67
463.316	24120.46
463.522	23264.41
463.727	23839.89
463.932	23428.25
464.138	23217.31
464.343	23547.03
464.549	22598.82
464.754	23467.16
464.959	23291.04
465.165	22998.18
465.37	22076.59
465.575	21388.47
465.781	22398.12
465.986	22486.18
466.191	21574.84
466.397	21232.83
