Data from USB4F104151__70__12-42-14-628.txt Node

Date: Fri Mar 14 12:42:14 EDT 2025
User: louis
Spectrometer: USB4F10415
Trigger mode: 4
Integration Time (sec): 3.000000E-2
Scans to average: 1
Electric dark correction enabled: true
Nonlinearity correction enabled: false
Boxcar width: 0
XAxis mode: Wavelengths
Number of Pixels in Spectrum: 3648
>>>>>Begin Spectral Data<<<<<
178.204	-115.03
178.424	-115.03
178.644	-115.03
178.864	-151.89
179.084	-166.23
179.304	59.05
179.524	-16.73
179.744	-24.92
179.964	97.96
180.184	-33.11
180.404	-33.11
180.624	3.75
180.844	5.8
181.064	34.47
181.283	-35.16
181.503	-102.74
181.723	44.71
181.943	-67.92
182.163	61.1
182.383	24.23
182.602	-45.4
182.822	89.77
183.042	24.23
183.262	3.75
183.482	-45.4
183.701	3.75
183.921	26.28
184.141	-69.97
184.361	71.34
184.58	-2.39
184.8	7.85
185.02	-2.39
185.239	85.67
185.459	52.91
185.679	59.05
185.898	38.57
186.118	81.58
186.338	-74.07
186.557	67.24
186.777	36.52
186.997	-4.44
187.216	-10.58
187.436	38.57
187.655	-45.4
187.875	59.05
188.095	-14.68
188.314	34.47
188.534	57
188.753	-2.39
188.973	-90.45
189.192	24.23
189.412	3.75
189.631	16.04
189.851	-8.53
190.07	54.95
190.29	-39.25
190.509	20.14
190.729	18.09
190.948	42.67
191.168	210.6
191.387	57
191.607	38.57
191.826	5.8
192.045	-55.64
192.265	50.86
192.484	42.67
192.704	40.62
192.923	-51.54
193.142	26.28
193.362	-2.39
193.581	65.19
193.8	40.62
194.02	63.15
194.239	73.39
194.458	81.58
194.678	-26.96
194.897	11.95
195.116	57
195.335	59.05
195.555	22.19
195.774	5.8
195.993	46.76
196.212	16.04
196.432	-39.25
196.651	52.91
196.87	50.86
197.089	38.57
197.308	20.14
197.528	26.28
197.747	24.23
197.966	24.23
198.185	5.8
198.404	-22.87
198.623	75.43
198.842	44.71
199.062	24.23
199.281	26.28
199.5	128.68
199.719	-20.82
199.938	18.09
200.157	40.62
200.376	38.57
200.595	-0.34
200.814	1.71
201.033	11.95
201.252	48.81
201.471	65.19
201.69	36.52
201.909	16.04
202.128	3.75
202.347	-8.53
202.566	-41.3
202.785	18.09
203.004	44.71
203.223	93.87
203.442	24.23
203.661	-18.77
203.879	46.76
204.098	-24.92
204.317	32.43
204.536	81.58
204.755	11.95
204.974	40.62
205.193	136.87
205.411	71.34
205.63	136.87
205.849	28.33
206.068	-61.78
206.287	20.14
206.505	57
206.724	16.04
206.943	11.95
207.162	46.76
207.381	-26.96
207.599	-0.34
207.818	-39.25
208.037	26.28
208.255	-59.73
208.474	9.9
208.693	24.23
208.911	30.38
209.13	-0.34
209.349	42.67
209.567	16.04
209.786	54.95
210.005	-2.39
210.223	-0.34
210.442	-39.25
210.661	79.53
210.879	108.2
211.098	85.67
211.316	71.34
211.535	-0.34
211.753	-51.54
211.972	22.19
212.191	-20.82
212.409	59.05
212.628	22.19
212.846	1.71
213.065	22.19
213.283	40.62
213.502	11.95
213.72	59.05
213.938	36.52
214.157	28.33
214.375	20.14
214.594	22.19
214.812	7.85
215.031	132.78
215.249	3.75
215.467	18.09
215.686	20.14
215.904	54.95
216.122	77.48
216.341	-22.87
216.559	59.05
216.778	57
216.996	73.39
217.214	48.81
217.432	-61.78
217.651	22.19
217.869	16.04
218.087	-8.53
218.306	13.99
218.524	52.91
218.742	-22.87
218.96	114.34
219.179	-57.68
219.397	-6.49
219.615	59.05
219.833	69.29
220.051	-4.44
220.27	46.76
220.488	63.15
220.706	44.71
220.924	-82.26
221.142	26.28
221.36	77.48
221.578	-22.87
221.796	18.09
222.015	61.1
222.233	85.67
222.451	63.15
222.669	5.8
222.887	-31.06
223.105	-31.06
223.323	38.57
223.541	5.8
223.759	-10.58
223.977	48.81
224.195	61.1
224.413	65.19
224.631	46.76
224.849	24.23
225.067	71.34
225.285	-4.44
225.503	-53.59
225.721	-22.87
225.939	16.04
226.157	50.86
226.375	143.02
226.592	54.95
226.81	59.05
227.028	63.15
227.246	36.52
227.464	-59.73
227.682	34.47
227.9	63.15
228.117	52.91
228.335	16.04
228.553	-31.06
228.771	44.71
228.989	61.1
229.206	34.47
229.424	-0.34
229.642	38.57
229.86	16.04
230.077	42.67
230.295	59.05
230.513	42.67
230.731	54.95
230.948	42.67
231.166	18.09
231.384	24.23
231.601	71.34
231.819	-16.73
232.037	-24.92
232.254	24.23
232.472	-35.16
232.689	22.19
232.907	13.99
233.125	3.75
233.342	-53.59
233.56	-18.77
233.777	77.48
233.995	36.52
234.213	46.76
234.43	93.87
234.648	-24.92
234.865	40.62
235.083	83.63
235.3	-12.63
235.518	18.09
235.735	-33.11
235.953	52.91
236.17	-53.59
236.388	-41.3
236.605	28.33
236.822	61.1
237.04	-16.73
237.257	-2.39
237.475	54.95
237.692	34.47
237.909	9.9
238.127	-0.34
238.344	67.24
238.562	104.11
238.779	7.85
238.996	32.43
239.214	-16.73
239.431	52.91
239.648	-8.53
239.865	67.24
240.083	40.62
240.3	28.33
240.517	42.67
240.735	48.81
240.952	71.34
241.169	34.47
241.386	-26.96
241.603	-22.87
241.821	5.8
242.038	-14.68
242.255	77.48
242.472	24.23
242.689	-8.53
242.907	46.76
243.124	54.95
243.341	-6.49
243.558	-16.73
243.775	-8.53
243.992	28.33
244.209	-33.11
244.426	122.54
244.643	104.11
244.86	-20.82
245.078	9.9
245.295	102.06
245.512	54.95
245.729	-12.63
245.946	24.23
246.163	63.15
246.38	-8.53
246.597	110.25
246.814	34.47
247.031	38.57
247.248	50.86
247.464	54.95
247.681	3.75
247.898	7.85
248.115	24.23
248.332	50.86
248.549	48.81
248.766	73.39
248.983	28.33
249.2	114.34
249.417	7.85
249.633	-59.73
249.85	-37.2
250.067	-33.11
250.284	40.62
250.501	-18.77
250.717	75.43
250.934	-0.34
251.151	85.67
251.368	16.04
251.585	13.99
251.801	-8.53
252.018	-65.88
252.235	-45.4
252.451	-43.35
252.668	-29.01
252.885	16.04
253.102	36.52
253.318	91.82
253.535	-12.63
253.752	28.33
253.968	54.95
254.185	-31.06
254.401	-6.49
254.618	16.04
254.835	-16.73
255.051	91.82
255.268	48.81
255.484	9.9
255.701	50.86
255.917	63.15
256.134	-20.82
256.351	5.8
256.567	-29.01
256.784	-12.63
257	28.33
257.217	16.04
257.433	42.67
257.65	81.58
257.866	128.68
258.082	69.29
258.299	-39.25
258.515	-16.73
258.732	26.28
258.948	22.19
259.165	18.09
259.381	-78.16
259.597	-57.68
259.814	5.8
260.03	5.8
260.246	52.91
260.463	-31.06
260.679	46.76
260.895	-24.92
261.112	65.19
261.328	36.52
261.544	30.38
261.761	100.01
261.977	1.71
262.193	-29.01
262.409	89.77
262.626	-22.87
262.842	5.8
263.058	5.8
263.274	42.67
263.49	91.82
263.707	38.57
263.923	26.28
264.139	-57.68
264.355	87.72
264.571	46.76
264.787	-35.16
265.004	46.76
265.22	24.23
265.436	100.01
265.652	5.8
265.868	120.49
266.084	24.23
266.3	9.9
266.516	-12.63
266.732	85.67
266.948	11.95
267.164	-10.58
267.38	32.43
267.596	59.05
267.812	61.1
268.028	-39.25
268.244	30.38
268.46	71.34
268.676	40.62
268.892	18.09
269.108	38.57
269.324	22.19
269.54	-26.96
269.756	5.8
269.972	-6.49
270.188	-33.11
270.403	54.95
270.619	36.52
270.835	26.28
271.051	50.86
271.267	1.71
271.483	-16.73
271.698	-43.35
271.914	16.04
272.13	3.75
272.346	16.04
272.562	75.43
272.777	79.53
272.993	7.85
273.209	-0.34
273.425	91.82
273.64	44.71
273.856	36.52
274.072	93.87
274.287	13.99
274.503	5.8
274.719	71.34
274.934	50.86
275.15	-0.34
275.366	-53.59
275.581	-2.39
275.797	-4.44
276.012	-33.11
276.228	59.05
276.444	13.99
276.659	50.86
276.875	18.09
277.09	5.8
277.306	22.19
277.521	63.15
277.737	30.38
277.952	50.86
278.168	32.43
278.383	38.57
278.599	75.43
278.814	40.62
279.03	18.09
279.245	48.81
279.461	-6.49
279.676	79.53
279.892	44.71
280.107	52.91
280.322	28.33
280.538	44.71
280.753	-37.2
280.969	61.1
281.184	32.43
281.399	57
281.615	11.95
281.83	93.87
282.045	3.75
282.26	26.28
282.476	-26.96
282.691	95.91
282.906	11.95
283.122	79.53
283.337	-26.96
283.552	26.28
283.767	-57.68
283.983	38.57
284.198	-2.39
284.413	61.1
284.628	-53.59
284.843	-14.68
285.058	44.71
285.274	112.3
285.489	50.86
285.704	65.19
285.919	9.9
286.134	26.28
286.349	-14.68
286.564	-18.77
286.779	18.09
286.995	3.75
287.21	-29.01
287.425	-2.39
287.64	87.72
287.855	34.47
288.07	-61.78
288.285	97.96
288.5	54.95
288.715	3.75
288.93	9.9
289.145	30.38
289.36	63.15
289.575	65.19
289.79	91.82
290.004	3.75
290.219	32.43
290.434	13.99
290.649	65.19
290.864	-0.34
291.079	-26.96
291.294	30.38
291.509	67.24
291.724	13.99
291.938	50.86
292.153	59.05
292.368	26.28
292.583	9.9
292.798	71.34
293.012	-49.49
293.227	75.43
293.442	11.95
293.657	50.86
293.871	48.81
294.086	26.28
294.301	83.63
294.516	83.63
294.73	48.81
294.945	-22.87
295.16	38.57
295.374	34.47
295.589	28.33
295.804	16.04
296.018	69.29
296.233	5.8
296.447	77.48
296.662	32.43
296.877	-16.73
297.091	140.97
297.306	-0.34
297.52	57
297.735	9.9
297.949	38.57
298.164	11.95
298.378	16.04
298.593	79.53
298.807	-35.16
299.022	-14.68
299.236	54.95
299.451	34.47
299.665	-8.53
299.88	52.91
300.094	-69.97
300.309	38.57
300.523	-29.01
300.737	46.76
300.952	79.53
301.166	42.67
301.381	-22.87
301.595	3.75
301.809	44.71
302.024	-24.92
302.238	16.04
302.452	46.76
302.667	-55.64
302.881	36.52
303.095	1.71
303.309	11.95
303.524	-24.92
303.738	48.81
303.952	-43.35
304.166	22.19
304.381	-0.34
304.595	81.58
304.809	22.19
305.023	22.19
305.237	26.28
305.452	24.23
305.666	93.87
305.88	-16.73
306.094	100.01
306.308	112.3
306.522	-16.73
306.736	67.24
306.95	85.67
307.164	-14.68
307.379	20.14
307.593	46.76
307.807	75.43
308.021	7.85
308.235	83.63
308.449	-51.54
308.663	42.67
308.877	112.3
309.091	24.23
309.305	42.67
309.519	13.99
309.733	30.38
309.947	-6.49
310.161	57
310.374	91.82
310.588	44.71
310.802	48.81
311.016	-47.44
311.23	11.95
311.444	24.23
311.658	-10.58
311.872	69.29
312.085	102.06
312.299	-10.58
312.513	30.38
312.727	34.47
312.941	54.95
313.154	13.99
313.368	16.04
313.582	16.04
313.796	16.04
314.009	-22.87
314.223	32.43
314.437	13.99
314.651	24.23
314.864	-31.06
315.078	44.71
315.292	20.14
315.505	73.39
315.719	69.29
315.933	48.81
316.146	30.38
316.36	52.91
316.573	104.11
316.787	30.38
317.001	13.99
317.214	63.15
317.428	22.19
317.641	-26.96
317.855	81.58
318.068	83.63
318.282	7.85
318.495	63.15
318.709	-14.68
318.922	-22.87
319.136	61.1
319.349	57
319.563	-26.96
319.776	85.67
319.99	40.62
320.203	20.14
320.417	46.76
320.63	42.67
320.843	93.87
321.057	114.34
321.27	77.48
321.483	-55.64
321.697	30.38
321.91	5.8
322.124	116.39
322.337	-29.01
322.55	-63.83
322.763	36.52
322.977	16.04
323.19	-10.58
323.403	28.33
323.617	20.14
323.83	65.19
324.043	48.81
324.256	40.62
324.469	-67.92
324.683	83.63
324.896	38.57
325.109	30.38
325.322	-18.77
325.535	9.9
325.748	-24.92
325.962	22.19
326.175	36.52
326.388	79.53
326.601	3.75
326.814	34.47
327.027	89.77
327.24	89.77
327.453	5.8
327.666	38.57
327.879	50.86
328.092	122.54
328.305	54.95
328.518	42.67
328.731	11.95
328.944	38.57
329.157	44.71
329.37	30.38
329.583	91.82
329.796	54.95
330.009	11.95
330.222	54.95
330.435	73.39
330.648	77.48
330.861	54.95
331.073	75.43
331.286	13.99
331.499	54.95
331.712	16.04
331.925	11.95
332.138	69.29
332.35	32.43
332.563	-0.34
332.776	118.44
332.989	-43.35
333.202	-0.34
333.414	65.19
333.627	61.1
333.84	-4.44
334.053	11.95
334.265	20.14
334.478	18.09
334.691	81.58
334.903	48.81
335.116	63.15
335.329	-6.49
335.541	59.05
335.754	54.95
335.966	-74.07
336.179	18.09
336.392	28.33
336.604	16.04
336.817	73.39
337.029	104.11
337.242	9.9
337.454	65.19
337.667	16.04
337.88	54.95
338.092	16.04
338.305	16.04
338.517	26.28
338.729	36.52
338.942	108.2
339.154	57
339.367	9.9
339.579	48.81
339.792	-14.68
340.004	-4.44
340.217	13.99
340.429	-4.44
340.641	28.33
340.854	-57.68
341.066	16.04
341.278	57
341.491	-4.44
341.703	44.71
341.915	48.81
342.128	22.19
342.34	44.71
342.552	13.99
342.764	59.05
342.977	67.24
343.189	36.52
343.401	13.99
343.613	67.24
343.826	13.99
344.038	-2.39
344.25	7.85
344.462	-31.06
344.674	57
344.886	26.28
345.099	79.53
345.311	73.39
345.523	28.33
345.735	-24.92
345.947	124.58
346.159	65.19
346.371	-43.35
346.583	20.14
346.795	140.97
347.007	110.25
347.219	-22.87
347.431	13.99
347.643	102.06
347.855	-10.58
348.067	112.3
348.279	54.95
348.491	30.38
348.703	48.81
348.915	40.62
349.127	20.14
349.339	71.34
349.551	-0.34
349.763	69.29
349.975	61.1
350.187	73.39
350.399	59.05
350.61	24.23
350.822	54.95
351.034	50.86
351.246	67.24
351.458	-10.58
351.669	69.29
351.881	40.62
352.093	59.05
352.305	67.24
352.517	36.52
352.728	65.19
352.94	85.67
353.152	63.15
353.363	32.43
353.575	108.2
353.787	75.43
353.999	65.19
354.21	165.54
354.422	-33.11
354.633	-14.68
354.845	65.19
355.057	28.33
355.268	24.23
355.48	104.11
355.692	-4.44
355.903	30.38
356.115	5.8
356.326	-65.88
356.538	104.11
356.749	69.29
356.961	104.11
357.172	36.52
357.384	5.8
357.595	122.54
357.807	85.67
358.018	-45.4
358.23	44.71
358.441	63.15
358.653	73.39
358.864	16.04
359.075	-53.59
359.287	-0.34
359.498	77.48
359.709	61.1
359.921	69.29
360.132	42.67
360.344	46.76
360.555	108.2
360.766	67.24
360.977	-41.3
361.189	-4.44
361.4	13.99
361.611	20.14
361.823	46.76
362.034	5.8
362.245	13.99
362.456	54.95
362.667	89.77
362.879	54.95
363.09	9.9
363.301	83.63
363.512	67.24
363.723	110.25
363.935	13.99
364.146	112.3
364.357	36.52
364.568	-65.88
364.779	-45.4
364.99	106.15
365.201	1.71
365.412	48.81
365.623	18.09
365.834	75.43
366.045	9.9
366.256	42.67
366.467	57
366.678	50.86
366.889	57
367.1	32.43
367.311	120.49
367.522	97.96
367.733	52.91
367.944	147.11
368.155	-0.34
368.366	48.81
368.577	50.86
368.788	50.86
368.999	48.81
369.209	69.29
369.42	81.58
369.631	130.73
369.842	5.8
370.053	54.95
370.264	61.1
370.474	-35.16
370.685	32.43
370.896	104.11
371.107	71.34
371.317	87.72
371.528	95.91
371.739	-2.39
371.95	71.34
372.16	22.19
372.371	-51.54
372.582	34.47
372.792	77.48
373.003	77.48
373.214	22.19
373.424	5.8
373.635	67.24
373.846	106.15
374.056	-16.73
374.267	73.39
374.477	61.1
374.688	28.33
374.898	-6.49
375.109	122.54
375.319	-8.53
375.53	46.76
375.74	57
375.951	-4.44
376.161	36.52
376.372	124.58
376.582	42.67
376.793	59.05
377.003	48.81
377.214	40.62
377.424	91.82
377.635	18.09
377.845	-8.53
378.055	169.64
378.266	32.43
378.476	13.99
378.686	83.63
378.897	9.9
379.107	61.1
379.317	30.38
379.528	128.68
379.738	24.23
379.948	32.43
380.158	93.87
380.369	57
380.579	118.44
380.789	77.48
380.999	104.11
381.21	69.29
381.42	85.67
381.63	149.16
381.84	40.62
382.05	95.91
382.261	32.43
382.471	102.06
382.681	118.44
382.891	18.09
383.101	63.15
383.311	-33.11
383.521	30.38
383.731	48.81
383.941	34.47
384.151	28.33
384.361	118.44
384.571	44.71
384.781	65.19
384.991	108.2
385.201	69.29
385.411	138.92
385.621	40.62
385.831	42.67
386.041	54.95
386.251	57
386.461	104.11
386.671	79.53
386.881	138.92
387.091	59.05
387.301	130.73
387.511	108.2
387.72	108.2
387.93	110.25
388.14	-8.53
388.35	54.95
388.56	81.58
388.769	87.72
388.979	73.39
389.189	9.9
389.399	40.62
389.609	36.52
389.818	75.43
390.028	3.75
390.238	151.21
390.447	3.75
390.657	59.05
390.867	40.62
391.076	-14.68
391.286	54.95
391.496	26.28
391.705	24.23
391.915	89.77
392.125	73.39
392.334	44.71
392.544	71.34
392.753	114.34
392.963	48.81
393.172	59.05
393.382	13.99
393.591	91.82
393.801	3.75
394.01	50.86
394.22	61.1
394.429	5.8
394.639	18.09
394.848	106.15
395.058	46.76
395.267	120.49
395.477	106.15
395.686	163.5
395.895	79.53
396.105	134.82
396.314	69.29
396.524	73.39
396.733	63.15
396.942	59.05
397.152	95.91
397.361	95.91
397.57	120.49
397.78	59.05
397.989	95.91
398.198	122.54
398.407	30.38
398.617	136.87
398.826	91.82
399.035	73.39
399.244	147.11
399.453	46.76
399.663	93.87
399.872	93.87
400.081	61.1
400.29	71.34
400.499	112.3
400.708	93.87
400.917	126.63
401.127	104.11
401.336	65.19
401.545	165.54
401.754	108.2
401.963	87.72
402.172	161.45
402.381	118.44
402.59	102.06
402.799	161.45
403.008	120.49
403.217	75.43
403.426	134.82
403.635	75.43
403.844	161.45
404.053	171.69
404.262	120.49
404.471	204.46
404.68	73.39
404.888	130.73
405.097	48.81
405.306	118.44
405.515	134.82
405.724	124.58
405.933	85.67
406.142	163.5
406.35	134.82
406.559	171.69
406.768	202.41
406.977	153.26
407.185	272.04
407.394	149.16
407.603	104.11
407.812	237.22
408.02	267.94
408.229	220.84
408.438	214.7
408.646	126.63
408.855	249.51
409.064	243.37
409.272	200.36
409.481	286.37
409.69	347.81
409.898	282.28
410.107	351.91
410.315	356.01
410.524	290.47
410.733	353.96
410.941	353.96
411.15	321.19
411.358	335.53
411.567	411.3
411.775	409.25
411.984	390.82
412.192	384.68
412.401	364.2
412.609	409.25
412.818	550.56
413.026	456.36
413.234	497.32
413.443	435.88
413.651	513.7
413.86	521.89
414.068	550.56
414.276	542.37
414.485	612
414.693	665.25
414.901	689.82
415.11	642.72
415.318	730.78
415.526	722.59
415.734	734.88
415.943	761.5
416.151	767.65
416.359	706.21
416.567	853.66
416.776	857.76
416.984	892.57
417.192	958.11
417.4	974.49
417.608	880.29
417.817	968.35
418.025	1029.79
418.233	1171.1
418.441	1093.27
418.649	1154.71
418.857	1142.43
419.065	1248.92
419.273	1173.14
419.481	1326.74
419.689	1339.03
419.897	1332.89
420.105	1367.7
420.313	1480.34
420.521	1377.94
420.729	1584.79
420.937	1609.36
421.145	1621.65
421.353	1742.48
421.561	1812.11
421.769	1867.41
421.977	1855.12
422.185	1961.61
422.393	1986.19
422.601	2205.32
422.809	2176.65
423.017	2188.94
423.224	2256.52
423.432	2309.77
423.64	2354.82
423.848	2530.95
424.056	2516.61
424.263	2709.12
424.471	2702.98
424.679	2619.01
424.887	2791.04
425.094	3018.36
425.302	3057.28
425.51	3069.56
425.718	3110.52
425.925	3217.02
426.133	3266.17
426.341	3554.93
426.548	3559.03
426.756	3645.04
426.964	3763.83
427.171	3855.98
427.379	4232.81
427.586	3989.1
427.794	4234.86
428.001	4390.5
428.209	4679.27
428.417	4458.09
428.624	4920.93
428.832	4986.46
429.039	4746.85
429.247	4937.31
429.454	5369.43
429.662	5736.02
429.869	5447.26
430.076	5725.78
430.284	5611.09
430.491	5736.02
430.699	6108.75
430.906	6184.52
431.114	6049.36
431.321	6526.54
431.528	6458.95
431.736	6833.73
431.943	7220.8
432.15	7122.49
432.358	7206.46
432.565	7595.57
432.772	7573.05
432.979	7956.02
433.187	8175.15
433.394	7800.37
433.601	8703.53
433.808	8820.26
434.016	8461.87
434.223	8984.1
434.43	9545.24
434.637	9496.09
434.844	9717.27
435.052	10182.16
435.259	9948.69
435.466	10020.37
435.673	9983.51
435.88	10839.56
436.087	11197.95
436.294	11271.68
436.501	11093.51
436.708	11447.8
436.915	11644.41
437.122	12252.66
437.329	12142.07
437.537	12393.97
437.743	12602.86
437.95	12385.77
438.157	13170.15
438.364	13446.62
438.571	13657.56
438.778	13825.5
438.985	15052.23
439.192	14323.15
439.399	15099.33
439.606	14609.87
439.813	15482.3
440.02	16188.85
440.227	16242.1
440.433	15807.93
440.64	16227.76
440.847	16387.5
441.054	16713.13
441.261	17665.44
441.467	17663.39
441.674	18089.37
441.881	18664.85
442.088	18449.81
442.294	18255.25
442.501	18853.26
442.708	19320.2
442.914	20266.36
443.121	20741.49
443.328	20182.39
443.534	21642.59
443.741	21218.66
443.948	20997.48
444.154	22662.48
444.361	22236.5
444.568	22324.57
444.774	22414.68
444.981	22857.04
445.187	23090.51
445.394	24182.07
445.6	23803.2
445.807	26328.34
446.013	25429.29
446.22	25658.66
446.426	26699.03
446.633	26914.06
446.839	28132.61
447.046	26438.94
447.252	28089.6
447.459	27915.52
447.665	28292.35
447.871	29414.63
448.078	30665.94
448.284	29099.25
448.491	29961.44
448.697	31397.07
448.903	31638.73
449.11	31968.45
449.316	31081.68
449.522	31970.5
449.728	32707.77
449.935	32994.48
450.141	32851.13
450.347	33797.29
450.553	32812.21
450.76	32871.61
450.966	34360.48
451.172	33983.65
451.378	34430.11
451.584	34190.5
451.791	34589.85
451.997	34768.02
452.203	35542.16
452.409	35427.47
452.615	35075.22
452.821	33909.93
453.027	33768.62
453.233	35433.61
453.44	34329.76
453.646	34223.26
453.852	34624.67
454.058	35062.93
454.264	34231.46
454.47	34632.86
454.676	33811.62
454.882	34964.63
455.088	31919.3
455.294	32521.4
455.5	32732.34
455.705	33184.94
455.911	32216.26
456.117	31397.07
456.323	30870.74
456.529	29406.44
456.735	30627.03
456.941	29936.87
457.147	29373.67
457.352	28912.88
457.558	28327.16
457.764	28304.63
457.97	27675.91
458.176	27155.72
458.381	27094.29
458.587	25855.26
458.793	25593.12
458.999	24436.02
459.204	26041.63
459.41	25423.14
459.616	23921.98
459.821	24212.79
460.027	23672.13
460.233	23336.26
460.438	21884.25
460.644	22476.12
460.85	21386.6
461.055	21001.58
461.261	20960.62
461.466	19457.41
461.672	18537.87
461.878	20209.01
462.083	18900.36
462.289	18630.03
462.494	18234.77
462.7	17477.02
462.905	17116.58
463.111	17714.59
463.316	17841.56
463.522	17208.74
463.727	17540.51
463.932	17139.11
464.138	17204.64
464.343	17241.51
464.549	16518.57
464.754	17272.23
464.959	17001.9
465.165	17251.75
465.37	16405.94
465.575	15857.08
465.781	16559.53
465.986	16532.91
466.191	16027.06
466.397	15574.46
466.602	14925.25
466.807	15437.25
467.012	15502.78
467.218	15408.58
467.423	15144.39
467.628	15168.96
