Data from USB4F104151__6__12-40-56-726.txt Node

Date: Fri Mar 14 12:40:56 EDT 2025
User: louis
Spectrometer: USB4F10415
Trigger mode: 4
Integration Time (sec): 3.000000E-2
Scans to average: 1
Electric dark correction enabled: true
Nonlinearity correction enabled: false
Boxcar width: 0
XAxis mode: Wavelengths
Number of Pixels in Spectrum: 3648
>>>>>Begin Spectral Data<<<<<
178.204	-133.29
178.424	-133.29
178.644	-133.29
178.864	-69.8
179.084	-104.62
179.304	36.69
179.524	5.97
179.744	-65.71
179.964	85.84
180.184	16.21
180.404	26.45
180.624	-18.6
180.844	87.89
181.064	-65.71
181.283	-41.13
181.503	-24.75
181.723	-43.18
181.943	-63.66
182.163	102.23
182.383	16.21
182.602	106.32
182.822	40.79
183.042	98.13
183.262	36.69
183.482	42.84
183.701	-16.55
183.921	22.36
184.141	28.5
184.361	51.03
184.58	110.42
184.8	81.75
185.02	-43.18
185.239	53.08
185.459	30.55
185.679	-49.32
185.898	14.17
186.118	81.75
186.338	32.6
186.557	14.17
186.777	65.36
186.997	32.6
187.216	38.74
187.436	48.98
187.655	75.6
187.875	108.37
188.095	-20.65
188.314	34.64
188.534	-4.27
188.753	20.31
188.973	55.12
189.192	22.36
189.412	42.84
189.631	18.26
189.851	36.69
190.07	12.12
190.29	18.26
190.509	12.12
190.729	48.98
190.948	44.88
191.168	126.8
191.387	102.23
191.607	34.64
191.826	57.17
192.045	59.22
192.265	65.36
192.484	40.79
192.704	-16.55
192.923	-32.94
193.142	98.13
193.362	20.31
193.581	63.32
193.8	16.21
194.02	77.65
194.239	85.84
194.458	51.03
194.678	12.12
194.897	126.8
195.116	28.5
195.335	10.07
195.555	65.36
195.774	51.03
195.993	77.65
196.212	63.32
196.432	8.02
196.651	67.41
196.87	73.56
197.089	169.81
197.308	30.55
197.528	75.6
197.747	-77.99
197.966	28.5
198.185	94.04
198.404	75.6
198.623	40.79
198.842	42.84
199.062	34.64
199.281	28.5
199.5	59.22
199.719	24.4
199.938	34.64
200.157	75.6
200.376	-0.17
200.595	73.56
200.814	81.75
201.033	-14.51
201.252	106.32
201.471	114.52
201.69	55.12
201.909	-51.37
202.128	1.88
202.347	85.84
202.566	1.88
202.785	51.03
203.004	38.74
203.223	135
203.442	53.08
203.661	8.02
203.879	124.76
204.098	14.17
204.317	-20.65
204.536	75.6
204.755	30.55
204.974	104.28
205.193	36.69
205.411	120.66
205.63	63.32
205.849	55.12
206.068	-37.03
206.287	24.4
206.505	36.69
206.724	14.17
206.943	81.75
207.162	-4.27
207.381	59.22
207.599	10.07
207.818	-10.41
208.037	44.88
208.255	63.32
208.474	87.89
208.693	30.55
208.911	12.12
209.13	24.4
209.349	55.12
209.567	83.8
209.786	22.36
210.005	55.12
210.223	110.42
210.442	-51.37
210.661	55.12
210.879	55.12
211.098	81.75
211.316	69.46
211.535	26.45
211.753	-18.6
211.972	-2.22
212.191	55.12
212.409	-18.6
212.628	-6.31
212.846	30.55
213.065	10.07
213.283	108.37
213.502	114.52
213.72	59.22
213.938	57.17
214.157	24.4
214.375	14.17
214.594	59.22
214.812	34.64
215.031	57.17
215.249	38.74
215.467	59.22
215.686	44.88
215.904	57.17
216.122	30.55
216.341	89.94
216.559	-0.17
216.778	30.55
216.996	71.51
217.214	36.69
217.432	16.21
217.651	57.17
217.869	-47.27
218.087	34.64
218.306	57.17
218.524	5.97
218.742	106.32
218.96	-30.89
219.179	46.93
219.397	16.21
219.615	87.89
219.833	63.32
220.051	53.08
220.27	130.9
220.488	75.6
220.706	96.08
220.924	32.6
221.142	-22.7
221.36	65.36
221.578	69.46
221.796	42.84
222.015	32.6
222.233	38.74
222.451	122.71
222.669	24.4
222.887	77.65
223.105	14.17
223.323	-2.22
223.541	-0.17
223.759	59.22
223.977	14.17
224.195	89.94
224.413	48.98
224.631	30.55
224.849	55.12
225.067	118.61
225.285	-12.46
225.503	8.02
225.721	-26.79
225.939	91.99
226.157	51.03
226.375	65.36
226.592	48.98
226.81	102.23
227.028	67.41
227.246	173.91
227.464	14.17
227.682	28.5
227.9	46.93
228.117	59.22
228.335	36.69
228.553	16.21
228.771	112.47
228.989	98.13
229.206	145.24
229.424	-34.99
229.642	-32.94
229.86	61.27
230.077	5.97
230.295	51.03
230.513	71.51
230.731	77.65
230.948	36.69
231.166	165.71
231.384	8.02
231.601	30.55
231.819	114.52
232.037	-4.27
232.254	8.02
232.472	34.64
232.689	55.12
232.907	63.32
233.125	24.4
233.342	42.84
233.56	-20.65
233.777	8.02
233.995	91.99
234.213	157.52
234.43	-4.27
234.648	81.75
234.865	34.64
235.083	1.88
235.3	112.47
235.518	-2.22
235.735	106.32
235.953	51.03
236.17	-45.23
236.388	79.7
236.605	-22.7
236.822	-0.17
237.04	89.94
237.257	3.93
237.475	3.93
237.692	28.5
237.909	75.6
238.127	44.88
238.344	26.45
238.562	114.52
238.779	20.31
238.996	69.46
239.214	44.88
239.431	116.56
239.648	61.27
239.865	-30.89
240.083	77.65
240.3	85.84
240.517	-12.46
240.735	38.74
240.952	53.08
241.169	116.56
241.386	12.12
241.603	-4.27
241.821	8.02
242.038	67.41
242.255	75.6
242.472	65.36
242.689	53.08
242.907	118.61
243.124	79.7
243.341	5.97
243.558	-10.41
243.775	38.74
243.992	-82.09
244.209	69.46
244.426	114.52
244.643	46.93
244.86	48.98
245.078	87.89
245.295	81.75
245.512	20.31
245.729	63.32
245.946	30.55
246.163	55.12
246.38	53.08
246.597	46.93
246.814	98.13
247.031	44.88
247.248	-0.17
247.464	132.95
247.681	36.69
247.898	-6.31
248.115	67.41
248.332	44.88
248.549	26.45
248.766	1.88
248.983	67.41
249.2	114.52
249.417	77.65
249.633	48.98
249.85	36.69
250.067	36.69
250.284	-6.31
250.501	75.6
250.717	12.12
250.934	-8.36
251.151	40.79
251.368	26.45
251.585	14.17
251.801	20.31
252.018	59.22
252.235	26.45
252.451	-37.03
252.668	-2.22
252.885	5.97
253.102	8.02
253.318	81.75
253.535	67.41
253.752	51.03
253.968	10.07
254.185	12.12
254.401	18.26
254.618	73.56
254.835	40.79
255.051	44.88
255.268	149.33
255.484	26.45
255.701	18.26
255.917	53.08
256.134	-18.6
256.351	53.08
256.567	16.21
256.784	104.28
257	-65.71
257.217	106.32
257.433	44.88
257.65	98.13
257.866	85.84
258.082	32.6
258.299	-12.46
258.515	87.89
258.732	-86.19
258.948	38.74
259.165	124.76
259.381	-4.27
259.597	42.84
259.814	53.08
260.03	44.88
260.246	108.37
260.463	75.6
260.679	59.22
260.895	18.26
261.112	63.32
261.328	40.79
261.544	-24.75
261.761	42.84
261.977	22.36
262.193	44.88
262.409	30.55
262.626	24.4
262.842	42.84
263.058	20.31
263.274	106.32
263.49	42.84
263.707	61.27
263.923	118.61
264.139	10.07
264.355	36.69
264.571	67.41
264.787	-0.17
265.004	20.31
265.22	-30.89
265.436	42.84
265.652	12.12
265.868	126.8
266.084	34.64
266.3	12.12
266.516	24.4
266.732	87.89
266.948	48.98
267.164	44.88
267.38	26.45
267.596	44.88
267.812	81.75
268.028	61.27
268.244	34.64
268.46	89.94
268.676	30.55
268.892	110.42
269.108	30.55
269.324	30.55
269.54	34.64
269.756	36.69
269.972	28.5
270.188	67.41
270.403	-10.41
270.619	42.84
270.835	24.4
271.051	-67.75
271.267	38.74
271.483	71.51
271.698	98.13
271.914	81.75
272.13	65.36
272.346	71.51
272.562	-18.6
272.777	126.8
272.993	18.26
273.209	100.18
273.425	36.69
273.64	22.36
273.856	20.31
274.072	-2.22
274.287	75.6
274.503	32.6
274.719	114.52
274.934	14.17
275.15	14.17
275.366	100.18
275.581	3.93
275.797	71.51
276.012	24.4
276.228	-14.51
276.444	83.8
276.659	89.94
276.875	55.12
277.09	59.22
277.306	59.22
277.521	71.51
277.737	81.75
277.952	24.4
278.168	-8.36
278.383	18.26
278.599	96.08
278.814	18.26
279.03	73.56
279.245	57.17
279.461	57.17
279.676	96.08
279.892	-20.65
280.107	83.8
280.322	96.08
280.538	67.41
280.753	69.46
280.969	42.84
281.184	30.55
281.399	81.75
281.615	46.93
281.83	87.89
282.045	-47.27
282.26	44.88
282.476	38.74
282.691	40.79
282.906	100.18
283.122	8.02
283.337	-34.99
283.552	-18.6
283.767	-2.22
283.983	26.45
284.198	20.31
284.413	-10.41
284.628	-37.03
284.843	83.8
285.058	71.51
285.274	-10.41
285.489	-22.7
285.704	67.41
285.919	77.65
286.134	42.84
286.349	26.45
286.564	30.55
286.779	44.88
286.995	26.45
287.21	-90.28
287.425	63.32
287.64	85.84
287.855	-41.13
288.07	-6.31
288.285	132.95
288.5	48.98
288.715	1.88
288.93	42.84
289.145	28.5
289.36	59.22
289.575	48.98
289.79	69.46
290.004	85.84
290.219	20.31
290.434	16.21
290.649	48.98
290.864	-49.32
291.079	-20.65
291.294	22.36
291.509	48.98
291.724	-92.33
291.938	1.88
292.153	-47.27
292.368	79.7
292.583	110.42
292.798	147.28
293.012	75.6
293.227	106.32
293.442	30.55
293.657	53.08
293.871	42.84
294.086	128.85
294.301	40.79
294.516	55.12
294.73	28.5
294.945	-22.7
295.16	48.98
295.374	71.51
295.589	122.71
295.804	18.26
296.018	12.12
296.233	79.7
296.447	34.64
296.662	98.13
296.877	108.37
297.091	145.24
297.306	5.97
297.52	65.36
297.735	40.79
297.949	38.74
298.164	51.03
298.378	57.17
298.593	26.45
298.807	-10.41
299.022	94.04
299.236	16.21
299.451	106.32
299.665	3.93
299.88	26.45
300.094	44.88
300.309	116.56
300.523	89.94
300.737	40.79
300.952	-8.36
301.166	30.55
301.381	53.08
301.595	81.75
301.809	89.94
302.024	3.93
302.238	83.8
302.452	63.32
302.667	51.03
302.881	3.93
303.095	59.22
303.309	26.45
303.524	40.79
303.738	46.93
303.952	16.21
304.166	61.27
304.381	8.02
304.595	114.52
304.809	48.98
305.023	73.56
305.237	26.45
305.452	36.69
305.666	59.22
305.88	34.64
306.094	89.94
306.308	30.55
306.522	-20.65
306.736	5.97
306.95	73.56
307.164	-32.94
307.379	14.17
307.593	132.95
307.807	118.61
308.021	75.6
308.235	30.55
308.449	-61.61
308.663	59.22
308.877	100.18
309.091	51.03
309.305	61.27
309.519	-18.6
309.733	106.32
309.947	-30.89
310.161	53.08
310.374	20.31
310.588	14.17
310.802	100.18
311.016	73.56
311.23	59.22
311.444	55.12
311.658	53.08
311.872	40.79
312.085	14.17
312.299	106.32
312.513	14.17
312.727	-20.65
312.941	44.88
313.154	34.64
313.368	87.89
313.582	12.12
313.796	10.07
314.009	53.08
314.223	44.88
314.437	65.36
314.651	51.03
314.864	28.5
315.078	48.98
315.292	34.64
315.505	81.75
315.719	24.4
315.933	-6.31
316.146	44.88
316.36	-39.08
316.573	135
316.787	81.75
317.001	26.45
317.214	-10.41
317.428	26.45
317.641	40.79
317.855	22.36
318.068	91.99
318.282	3.93
318.495	42.84
318.709	34.64
318.922	102.23
319.136	91.99
319.349	102.23
319.563	-22.7
319.776	81.75
319.99	61.27
320.203	104.28
320.417	36.69
320.63	98.13
320.843	91.99
321.057	28.5
321.27	-71.85
321.483	1.88
321.697	118.61
321.91	28.5
322.124	69.46
322.337	85.84
322.55	3.93
322.763	145.24
322.977	26.45
323.19	94.04
323.403	110.42
323.617	-8.36
323.83	102.23
324.043	3.93
324.256	83.8
324.469	38.74
324.683	34.64
324.896	12.12
325.109	14.17
325.322	46.93
325.535	75.6
325.748	3.93
325.962	53.08
326.175	59.22
326.388	94.04
326.601	122.71
326.814	46.93
327.027	89.94
327.24	124.76
327.453	42.84
327.666	30.55
327.879	73.56
328.092	104.28
328.305	51.03
328.518	46.93
328.731	61.27
328.944	38.74
329.157	79.7
329.37	20.31
329.583	130.9
329.796	61.27
330.009	8.02
330.222	71.51
330.435	32.6
330.648	59.22
330.861	-4.27
331.073	36.69
331.286	71.51
331.499	143.19
331.712	73.56
331.925	-10.41
332.138	32.6
332.35	81.75
332.563	48.98
332.776	79.7
332.989	-30.89
333.202	73.56
333.414	36.69
333.627	30.55
333.84	53.08
334.053	65.36
334.265	22.36
334.478	63.32
334.691	63.32
334.903	120.66
335.116	71.51
335.329	24.4
335.541	106.32
335.754	120.66
335.966	42.84
336.179	20.31
336.392	-12.46
336.604	28.5
336.817	16.21
337.029	18.26
337.242	42.84
337.454	42.84
337.667	57.17
337.88	130.9
338.092	8.02
338.305	89.94
338.517	53.08
338.729	96.08
338.942	40.79
339.154	-24.75
339.367	-0.17
339.579	40.79
339.792	-8.36
340.004	102.23
340.217	18.26
340.429	30.55
340.641	8.02
340.854	16.21
341.066	63.32
341.278	73.56
341.491	14.17
341.703	69.46
341.915	1.88
342.128	94.04
342.34	-0.17
342.552	108.37
342.764	-10.41
342.977	67.41
343.189	137.04
343.401	57.17
343.613	38.74
343.826	94.04
344.038	-16.55
344.25	-24.75
344.462	75.6
344.674	112.47
344.886	34.64
345.099	-37.03
345.311	51.03
345.523	44.88
345.735	10.07
345.947	108.37
346.159	81.75
346.371	-10.41
346.583	26.45
346.795	87.89
347.007	-0.17
347.219	44.88
347.431	44.88
347.643	51.03
347.855	-8.36
348.067	77.65
348.279	20.31
348.491	44.88
348.703	110.42
348.915	53.08
349.127	8.02
349.339	1.88
349.551	46.93
349.763	63.32
349.975	85.84
350.187	112.47
350.399	98.13
350.61	34.64
350.822	61.27
351.034	69.46
351.246	36.69
351.458	-2.22
351.669	89.94
351.881	30.55
352.093	112.47
352.305	132.95
352.517	77.65
352.728	71.51
352.94	61.27
353.152	106.32
353.363	42.84
353.575	94.04
353.787	126.8
353.999	114.52
354.21	71.51
354.422	-39.08
354.633	100.18
354.845	73.56
355.057	83.8
355.268	26.45
355.48	46.93
355.692	65.36
355.903	81.75
356.115	-4.27
356.326	46.93
356.538	151.38
356.749	51.03
356.961	98.13
357.172	69.46
357.384	32.6
357.595	106.32
357.807	57.17
358.018	100.18
358.23	36.69
358.441	104.28
358.653	102.23
358.864	38.74
359.075	73.56
359.287	61.27
359.498	73.56
359.709	-34.99
359.921	12.12
360.132	16.21
360.344	69.46
360.555	20.31
360.766	83.8
360.977	30.55
361.189	104.28
361.4	44.88
361.611	20.31
361.823	143.19
362.034	38.74
362.245	-26.79
362.456	53.08
362.667	149.33
362.879	57.17
363.09	44.88
363.301	48.98
363.512	16.21
363.723	114.52
363.935	-18.6
364.146	159.57
364.357	65.36
364.568	46.93
364.779	3.93
364.99	71.51
365.201	28.5
365.412	14.17
365.623	-53.42
365.834	81.75
366.045	24.4
366.256	79.7
366.467	5.97
366.678	48.98
366.889	38.74
367.1	14.17
367.311	91.99
367.522	57.17
367.733	48.98
367.944	57.17
368.155	-2.22
368.366	59.22
368.577	89.94
368.788	83.8
368.999	5.97
369.209	89.94
369.42	65.36
369.631	161.62
369.842	63.32
370.053	44.88
370.264	55.12
370.474	32.6
370.685	77.65
370.896	130.9
371.107	83.8
371.317	114.52
371.528	40.79
371.739	55.12
371.95	71.51
372.16	71.51
372.371	22.36
372.582	89.94
372.792	-12.46
373.003	91.99
373.214	87.89
373.424	89.94
373.635	18.26
373.846	147.28
374.056	118.61
374.267	120.66
374.477	120.66
374.688	53.08
374.898	126.8
375.109	96.08
375.319	69.46
375.53	67.41
375.74	28.5
375.951	8.02
376.161	42.84
376.372	75.6
376.582	85.84
376.793	83.8
377.003	44.88
377.214	46.93
377.424	51.03
377.635	14.17
377.845	44.88
378.055	73.56
378.266	51.03
378.476	-30.89
378.686	48.98
378.897	77.65
379.107	10.07
379.317	40.79
379.528	44.88
379.738	48.98
379.948	75.6
380.158	71.51
380.369	18.26
380.579	38.74
380.789	46.93
380.999	79.7
381.21	130.9
381.42	89.94
381.63	116.56
381.84	87.89
382.05	48.98
382.261	110.42
382.471	34.64
382.681	30.55
382.891	96.08
383.101	94.04
383.311	-10.41
383.521	24.4
383.731	118.61
383.941	44.88
384.151	30.55
384.361	53.08
384.571	57.17
384.781	26.45
384.991	132.95
385.201	184.15
385.411	135
385.621	42.84
385.831	100.18
386.041	61.27
386.251	71.51
386.461	118.61
386.671	126.8
386.881	128.85
387.091	81.75
387.301	51.03
387.511	85.84
387.72	38.74
387.93	120.66
388.14	30.55
388.35	44.88
388.56	114.52
388.769	98.13
388.979	87.89
389.189	8.02
389.399	69.46
389.609	98.13
389.818	112.47
390.028	89.94
390.238	75.6
390.447	18.26
390.657	61.27
390.867	71.51
391.076	16.21
391.286	73.56
391.496	89.94
391.705	34.64
391.915	118.61
392.125	173.91
392.334	79.7
392.544	61.27
392.753	36.69
392.963	48.98
393.172	77.65
393.382	65.36
393.591	126.8
393.801	36.69
394.01	116.56
394.22	126.8
394.429	65.36
394.639	108.37
394.848	161.62
395.058	8.02
395.267	65.36
395.477	102.23
395.686	149.33
395.895	137.04
396.105	190.29
396.314	124.76
396.524	55.12
396.733	137.04
396.942	116.56
397.152	30.55
397.361	102.23
397.57	122.71
397.78	155.47
397.989	73.56
398.198	194.39
398.407	57.17
398.617	65.36
398.826	114.52
399.035	77.65
399.244	104.28
399.453	124.76
399.663	38.74
399.872	100.18
400.081	71.51
400.29	126.8
400.499	59.22
400.708	192.34
400.917	102.23
401.127	171.86
401.336	83.8
401.545	167.76
401.754	114.52
401.963	141.14
402.172	65.36
402.381	65.36
402.59	91.99
402.799	75.6
403.008	89.94
403.217	118.61
403.426	108.37
403.635	143.19
403.844	130.9
404.053	89.94
404.262	69.46
404.471	192.34
404.68	190.29
404.888	157.52
405.097	126.8
405.306	114.52
405.515	139.09
405.724	124.76
405.933	132.95
406.142	157.52
406.35	118.61
406.559	188.24
406.768	182.1
406.977	266.07
407.185	157.52
407.394	167.76
407.603	171.86
407.812	155.47
408.02	182.1
408.229	261.97
408.438	198.48
408.646	124.76
408.855	175.95
409.064	210.77
409.272	190.29
409.481	202.58
409.69	264.02
409.898	227.15
410.107	300.88
410.315	325.46
410.524	323.41
410.733	259.92
410.941	374.61
411.15	341.84
411.358	296.78
411.567	413.52
411.775	333.65
411.984	350.03
412.192	417.61
412.401	368.46
412.609	436.05
412.818	417.61
413.026	470.86
413.234	436.05
413.443	376.66
413.651	472.91
413.86	456.53
414.068	481.1
414.276	560.97
414.485	450.38
414.693	542.54
414.901	603.98
415.11	556.88
415.318	511.82
415.526	591.69
415.734	642.89
415.943	745.29
416.151	632.65
416.359	710.47
416.567	761.67
416.776	747.34
416.984	810.82
417.192	792.39
417.4	755.53
417.608	769.87
417.817	841.54
418.025	874.31
418.233	935.75
418.441	1001.29
418.649	948.04
418.857	1044.29
419.065	1054.53
419.273	1077.06
419.481	1029.96
419.689	1075.01
419.897	1302.34
420.105	1288
420.313	1261.38
420.521	1310.53
420.729	1427.26
420.937	1472.32
421.145	1326.91
421.353	1488.7
421.561	1605.44
421.769	1658.68
421.977	1705.79
422.185	1646.4
422.393	1808.19
422.601	1984.31
422.809	1871.67
423.017	1820.47
423.224	2002.74
423.432	2027.32
423.64	1988.41
423.848	2311.99
424.056	2154.29
424.263	2350.9
424.471	2295.6
424.679	2527.02
424.887	2465.58
425.094	2654
425.302	2590.51
425.51	2793.26
425.718	2662.19
425.925	2813.74
426.133	2889.51
426.341	3073.83
426.548	3202.85
426.756	3272.48
426.964	3194.66
427.171	3456.8
427.379	3561.25
427.586	3675.93
427.794	3542.82
428.001	3919.64
428.209	3979.03
428.417	3954.46
428.624	4306.71
428.832	4155.16
429.039	4337.43
429.247	4083.48
429.454	4562.7
429.662	4943.63
429.869	4646.67
430.076	5011.21
430.284	4857.61
430.491	5103.37
430.699	5361.41
430.906	5271.3
431.114	5410.56
431.321	5594.88
431.528	5590.78
431.736	5936.89
431.943	6272.76
432.15	6283
432.358	6283
432.565	6612.72
432.772	6412.02
432.979	6893.29
433.187	7163.62
433.394	7167.72
433.601	7448.29
433.808	7618.27
434.016	7532.26
434.223	7786.21
434.43	8136.41
434.637	8173.27
434.844	8416.98
435.052	8822.48
435.259	8793.81
435.466	8683.22
435.673	8744.66
435.88	9139.91
436.087	9944.77
436.294	9735.87
436.501	9574.08
436.708	9748.16
436.915	10196.67
437.122	10641.07
437.329	10563.25
437.537	10886.83
437.743	11011.76
437.95	10895.02
438.157	11591.33
438.364	11871.9
438.571	11982.49
438.778	11982.49
438.985	13158.03
439.192	12564.12
439.399	13131.4
439.606	12535.45
439.813	13291.15
440.02	13999.74
440.227	14083.71
440.433	13553.29
440.64	14409.34
440.847	14212.73
441.054	14585.46
441.261	15586.92
441.467	15160.94
441.674	15627.88
441.881	15832.68
442.088	15926.88
442.294	15959.65
442.501	16285.28
442.708	16891.48
442.914	17417.8
443.121	18165.31
443.328	17600.07
443.534	18998.84
443.741	18474.56
443.948	18069.06
444.154	19668.52
444.361	19246.64
444.568	19525.16
444.774	19525.16
444.981	19811.88
445.187	20207.14
445.394	21087.76
445.6	21218.83
445.807	22816.25
446.013	22027.78
446.22	22208
446.426	22935.03
446.633	23279.09
446.839	24593.89
447.046	22980.09
447.252	24507.87
447.459	24376.8
447.665	24411.62
447.871	25447.89
448.078	26645.95
448.284	25443.79
448.491	25976.26
448.697	26971.58
448.903	27491.76
449.11	27397.56
449.316	27211.19
449.522	27669.94
449.728	28315.05
449.935	29021.59
450.141	28259.75
450.347	29367.7
450.553	28384.68
450.76	28603.81
450.966	29728.14
451.172	29234.58
451.378	30072.2
451.584	29490.58
451.791	30139.79
451.997	29928.84
452.203	30846.33
452.409	30735.74
452.615	30582.15
452.821	29336.98
453.027	29023.64
453.233	30526.85
453.44	29320.6
453.646	29539.73
453.852	29836.69
454.058	30158.22
454.264	29212.06
454.47	30250.38
454.676	29224.34
454.882	30139.79
455.088	27878.83
455.294	28390.82
455.5	28681.63
455.705	28925.34
455.911	28036.52
456.117	27104.7
456.323	27127.22
456.529	25501.14
456.735	26430.91
456.941	25849.29
457.147	25239
457.352	24557.02
457.558	24411.62
457.764	24286.69
457.97	23868.91
458.176	23313.91
458.381	23465.46
458.587	22289.92
458.793	22461.95
458.999	21034.52
459.204	22607.36
459.41	22007.3
459.616	20231.71
459.821	20495.9
460.027	20706.84
460.233	19867.17
460.438	19353.13
460.644	19174.96
460.85	18230.85
461.055	17913.41
461.261	18046.53
461.466	16838.23
461.672	16033.38
461.878	17307.21
462.083	16039.52
462.289	15826.53
462.494	15720.04
462.7	14935.67
462.905	14507.64
463.111	15093.36
463.316	15189.61
463.522	14761.59
463.727	15038.06
463.932	14714.48
464.138	14730.87
464.343	14648.95
464.549	14263.93
464.754	14898.8
464.959	14784.12
465.165	14610.04
465.37	14067.33
465.575	13432.46
465.781	14112.38
465.986	14102.14
466.191	13719.17
466.397	13600.39
466.602	12930.7
466.807	13162.12
467.012	13225.61
467.218	13119.12
467.423	13137.55
