Data from USB4F104151__67__12-42-11-298.txt Node

Date: Fri Mar 14 12:42:11 EDT 2025
User: louis
Spectrometer: USB4F10415
Trigger mode: 4
Integration Time (sec): 3.000000E-2
Scans to average: 1
Electric dark correction enabled: true
Nonlinearity correction enabled: false
Boxcar width: 0
XAxis mode: Wavelengths
Number of Pixels in Spectrum: 3648
>>>>>Begin Spectral Data<<<<<
178.204	-101.55
178.424	-101.55
178.644	-101.55
178.864	-122.02
179.084	-140.46
179.304	7
179.524	7
179.744	-50.35
179.964	-33.96
180.184	0.85
180.404	-38.06
180.624	13.14
180.844	45.91
181.064	-27.82
181.283	13.14
181.503	-29.87
181.723	93.01
181.943	-44.2
182.163	39.76
182.383	35.67
182.602	140.12
182.822	45.91
183.042	-7.34
183.262	31.57
183.482	-9.39
183.701	-46.25
183.921	50
184.141	-15.53
184.361	43.86
184.58	13.14
184.8	-44.2
185.02	74.58
185.239	-56.49
185.459	19.29
185.679	68.44
185.898	2.9
186.118	25.43
186.338	-46.25
186.557	37.72
186.777	-7.34
186.997	-15.53
187.216	4.95
187.436	39.76
187.655	-11.43
187.875	15.19
188.095	-64.68
188.314	39.76
188.534	72.53
188.753	41.81
188.973	43.86
189.192	103.25
189.412	13.14
189.631	41.81
189.851	21.33
190.07	45.91
190.29	7
190.509	15.19
190.729	25.43
190.948	86.87
191.168	68.44
191.387	19.29
191.607	-9.39
191.826	13.14
192.045	-17.58
192.265	-31.91
192.484	29.52
192.704	50
192.923	-27.82
193.142	101.2
193.362	45.91
193.581	2.9
193.8	76.63
194.02	13.14
194.239	58.2
194.458	50
194.678	47.96
194.897	66.39
195.116	-13.48
195.335	70.48
195.555	31.57
195.774	-40.11
195.993	88.92
196.212	43.86
196.432	-5.29
196.651	7
196.87	33.62
197.089	76.63
197.308	13.14
197.528	-13.48
197.747	-25.77
197.966	76.63
198.185	72.53
198.404	15.19
198.623	-3.24
198.842	-11.43
199.062	39.76
199.281	45.91
199.5	54.1
199.719	60.24
199.938	7
200.157	84.82
200.376	35.67
200.595	7
200.814	45.91
201.033	-46.25
201.252	13.14
201.471	64.34
201.69	35.67
201.909	76.63
202.128	64.34
202.347	-15.53
202.566	-23.72
202.785	68.44
203.004	-40.11
203.223	76.63
203.442	11.09
203.661	-7.34
203.879	19.29
204.098	68.44
204.317	-74.92
204.536	2.9
204.755	33.62
204.974	21.33
205.193	47.96
205.411	70.48
205.63	68.44
205.849	-23.72
206.068	56.15
206.287	25.43
206.505	17.24
206.724	43.86
206.943	21.33
207.162	119.64
207.381	-15.53
207.599	15.19
207.818	0.85
208.037	-42.15
208.255	-3.24
208.474	17.24
208.693	-23.72
208.911	45.91
209.13	115.54
209.349	-13.48
209.567	35.67
209.786	111.44
210.005	2.9
210.223	-5.29
210.442	7
210.661	56.15
210.879	2.9
211.098	54.1
211.316	0.85
211.535	54.1
211.753	52.05
211.972	-9.39
212.191	-48.3
212.409	-38.06
212.628	99.16
212.846	13.14
213.065	-15.53
213.283	54.1
213.502	41.81
213.72	58.2
213.938	25.43
214.157	35.67
214.375	45.91
214.594	52.05
214.812	56.15
215.031	-48.3
215.249	43.86
215.467	13.14
215.686	23.38
215.904	-5.29
216.122	9.05
216.341	35.67
216.559	-7.34
216.778	74.58
216.996	13.14
217.214	21.33
217.432	43.86
217.651	-19.63
217.869	64.34
218.087	11.09
218.306	43.86
218.524	23.38
218.742	-7.34
218.96	84.82
219.179	41.81
219.397	-40.11
219.615	41.81
219.833	64.34
220.051	-7.34
220.27	58.2
220.488	31.57
220.706	33.62
220.924	25.43
221.142	37.72
221.36	27.48
221.578	39.76
221.796	43.86
222.015	-19.63
222.233	-15.53
222.451	97.11
222.669	-7.34
222.887	97.11
223.105	35.67
223.323	23.38
223.541	9.05
223.759	68.44
223.977	-15.53
224.195	74.58
224.413	54.1
224.631	54.1
224.849	47.96
225.067	80.72
225.285	37.72
225.503	-60.59
225.721	-33.96
225.939	13.14
226.157	56.15
226.375	60.24
226.592	13.14
226.81	37.72
227.028	60.24
227.246	166.74
227.464	37.72
227.682	15.19
227.9	82.77
228.117	21.33
228.335	56.15
228.553	27.48
228.771	70.48
228.989	4.95
229.206	70.48
229.424	0.85
229.642	-1.19
229.86	19.29
230.077	4.95
230.295	25.43
230.513	50
230.731	23.38
230.948	70.48
231.166	35.67
231.384	19.29
231.601	4.95
231.819	62.29
232.037	-19.63
232.254	0.85
232.472	23.38
232.689	50
232.907	103.25
233.125	33.62
233.342	37.72
233.56	109.4
233.777	35.67
233.995	33.62
234.213	131.92
234.43	58.2
234.648	-1.19
234.865	13.14
235.083	35.67
235.3	7
235.518	50
235.735	68.44
235.953	37.72
236.17	62.29
236.388	2.9
236.605	29.52
236.822	43.86
237.04	43.86
237.257	17.24
237.475	52.05
237.692	88.92
237.909	37.72
238.127	47.96
238.344	-13.48
238.562	-7.34
238.779	54.1
238.996	-1.19
239.214	39.76
239.431	27.48
239.648	11.09
239.865	60.24
240.083	72.53
240.3	31.57
240.517	-3.24
240.735	70.48
240.952	105.3
241.169	68.44
241.386	90.96
241.603	64.34
241.821	-48.3
242.038	68.44
242.255	-46.25
242.472	-29.87
242.689	101.2
242.907	60.24
243.124	41.81
243.341	-40.11
243.558	-58.54
243.775	-99.5
243.992	-66.73
244.209	17.24
244.426	60.24
244.643	111.44
244.86	2.9
245.078	11.09
245.295	0.85
245.512	-9.39
245.729	-11.43
245.946	74.58
246.163	4.95
246.38	66.39
246.597	25.43
246.814	21.33
247.031	11.09
247.248	72.53
247.464	88.92
247.681	45.91
247.898	21.33
248.115	-1.19
248.332	-29.87
248.549	21.33
248.766	25.43
248.983	56.15
249.2	21.33
249.417	37.72
249.633	-31.91
249.85	70.48
250.067	-52.39
250.284	31.57
250.501	31.57
250.717	74.58
250.934	-31.91
251.151	50
251.368	56.15
251.585	25.43
251.801	52.05
252.018	27.48
252.235	0.85
252.451	4.95
252.668	-38.06
252.885	41.81
253.102	19.29
253.318	29.52
253.535	19.29
253.752	82.77
253.968	7
254.185	-23.72
254.401	-31.91
254.618	15.19
254.835	-72.87
255.051	76.63
255.268	43.86
255.484	62.29
255.701	-33.96
255.917	-9.39
256.134	-42.15
256.351	19.29
256.567	64.34
256.784	99.16
257	25.43
257.217	66.39
257.433	68.44
257.65	56.15
257.866	39.76
258.082	-27.82
258.299	-13.48
258.515	-25.77
258.732	47.96
258.948	9.05
259.165	50
259.381	37.72
259.597	7
259.814	33.62
260.03	21.33
260.246	66.39
260.463	-5.29
260.679	95.06
260.895	15.19
261.112	121.68
261.328	23.38
261.544	-25.77
261.761	90.96
261.977	37.72
262.193	-15.53
262.409	4.95
262.626	62.29
262.842	58.2
263.058	31.57
263.274	146.26
263.49	-5.29
263.707	17.24
263.923	39.76
264.139	-66.73
264.355	21.33
264.571	25.43
264.787	4.95
265.004	35.67
265.22	41.81
265.436	-42.15
265.652	-21.67
265.868	37.72
266.084	31.57
266.3	-44.2
266.516	-60.59
266.732	58.2
266.948	41.81
267.164	21.33
267.38	66.39
267.596	-13.48
267.812	95.06
268.028	99.16
268.244	-1.19
268.46	27.48
268.676	-54.44
268.892	11.09
269.108	29.52
269.324	88.92
269.54	2.9
269.756	80.72
269.972	-1.19
270.188	88.92
270.403	27.48
270.619	35.67
270.835	41.81
271.051	72.53
271.267	-25.77
271.483	33.62
271.698	56.15
271.914	45.91
272.13	27.48
272.346	-27.82
272.562	39.76
272.777	37.72
272.993	23.38
273.209	23.38
273.425	86.87
273.64	82.77
273.856	103.25
274.072	-19.63
274.287	37.72
274.503	17.24
274.719	13.14
274.934	56.15
275.15	56.15
275.366	-15.53
275.581	19.29
275.797	-19.63
276.012	2.9
276.228	62.29
276.444	11.09
276.659	35.67
276.875	-23.72
277.09	56.15
277.306	-46.25
277.521	95.06
277.737	33.62
277.952	9.05
278.168	82.77
278.383	-68.78
278.599	37.72
278.814	60.24
279.03	66.39
279.245	72.53
279.461	50
279.676	-11.43
279.892	-27.82
280.107	-56.49
280.322	37.72
280.538	88.92
280.753	2.9
280.969	29.52
281.184	97.11
281.399	31.57
281.615	2.9
281.83	97.11
282.045	-1.19
282.26	50
282.476	33.62
282.691	35.67
282.906	25.43
283.122	47.96
283.337	-11.43
283.552	68.44
283.767	41.81
283.983	64.34
284.198	-48.3
284.413	25.43
284.628	-13.48
284.843	21.33
285.058	-1.19
285.274	23.38
285.489	0.85
285.704	111.44
285.919	35.67
286.134	43.86
286.349	21.33
286.564	54.1
286.779	39.76
286.995	31.57
287.21	47.96
287.425	45.91
287.64	-11.43
287.855	31.57
288.07	-29.87
288.285	54.1
288.5	76.63
288.715	35.67
288.93	60.24
289.145	-11.43
289.36	9.05
289.575	-11.43
289.79	7
290.004	41.81
290.219	78.68
290.434	23.38
290.649	17.24
290.864	13.14
291.079	11.09
291.294	4.95
291.509	70.48
291.724	-66.73
291.938	-9.39
292.153	21.33
292.368	27.48
292.583	50
292.798	125.78
293.012	47.96
293.227	-31.91
293.442	56.15
293.657	60.24
293.871	115.54
294.086	21.33
294.301	93.01
294.516	93.01
294.73	-50.35
294.945	-46.25
295.16	-1.19
295.374	11.09
295.589	111.44
295.804	-58.54
296.018	21.33
296.233	35.67
296.447	86.87
296.662	-1.19
296.877	90.96
297.091	84.82
297.306	-3.24
297.52	-21.67
297.735	27.48
297.949	-9.39
298.164	43.86
298.378	27.48
298.593	17.24
298.807	-25.77
299.022	70.48
299.236	60.24
299.451	-3.24
299.665	-23.72
299.88	-13.48
300.094	-23.72
300.309	23.38
300.523	-5.29
300.737	0.85
300.952	17.24
301.166	37.72
301.381	78.68
301.595	-19.63
301.809	-40.11
302.024	113.49
302.238	-70.83
302.452	45.91
302.667	19.29
302.881	56.15
303.095	-29.87
303.309	37.72
303.524	43.86
303.738	50
303.952	-11.43
304.166	62.29
304.381	-38.06
304.595	31.57
304.809	39.76
305.023	17.24
305.237	19.29
305.452	-68.78
305.666	136.02
305.88	37.72
306.094	74.58
306.308	11.09
306.522	99.16
306.736	62.29
306.95	35.67
307.164	99.16
307.379	105.3
307.593	107.35
307.807	140.12
308.021	70.48
308.235	109.4
308.449	25.43
308.663	17.24
308.877	45.91
309.091	25.43
309.305	41.81
309.519	-19.63
309.733	47.96
309.947	17.24
310.161	101.2
310.374	60.24
310.588	19.29
310.802	-29.87
311.016	58.2
311.23	-5.29
311.444	27.48
311.658	37.72
311.872	21.33
312.085	121.68
312.299	99.16
312.513	80.72
312.727	0.85
312.941	-5.29
313.154	29.52
313.368	90.96
313.582	43.86
313.796	-15.53
314.009	103.25
314.223	86.87
314.437	25.43
314.651	80.72
314.864	15.19
315.078	-3.24
315.292	74.58
315.505	-1.19
315.719	25.43
315.933	25.43
316.146	-7.34
316.36	-7.34
316.573	50
316.787	45.91
317.001	4.95
317.214	11.09
317.428	43.86
317.641	23.38
317.855	115.54
318.068	37.72
318.282	4.95
318.495	17.24
318.709	119.64
318.922	64.34
319.136	-7.34
319.349	35.67
319.563	35.67
319.776	-17.58
319.99	39.76
320.203	103.25
320.417	54.1
320.63	64.34
320.843	60.24
321.057	60.24
321.27	-13.48
321.483	99.16
321.697	78.68
321.91	37.72
322.124	56.15
322.337	68.44
322.55	72.53
322.763	60.24
322.977	-23.72
323.19	27.48
323.403	-15.53
323.617	56.15
323.83	70.48
324.043	-31.91
324.256	29.52
324.469	68.44
324.683	21.33
324.896	88.92
325.109	-17.58
325.322	9.05
325.535	39.76
325.748	58.2
325.962	17.24
326.175	31.57
326.388	7
326.601	68.44
326.814	50
327.027	35.67
327.24	50
327.453	-15.53
327.666	58.2
327.879	62.29
328.092	23.38
328.305	9.05
328.518	31.57
328.731	-33.96
328.944	113.49
329.157	58.2
329.37	90.96
329.583	140.12
329.796	19.29
330.009	-21.67
330.222	27.48
330.435	74.58
330.648	60.24
330.861	52.05
331.073	-70.83
331.286	109.4
331.499	78.68
331.712	23.38
331.925	62.29
332.138	27.48
332.35	136.02
332.563	7
332.776	52.05
332.989	29.52
333.202	56.15
333.414	15.19
333.627	101.2
333.84	41.81
334.053	146.26
334.265	50
334.478	7
334.691	115.54
334.903	33.62
335.116	-27.82
335.329	115.54
335.541	50
335.754	111.44
335.966	9.05
336.179	62.29
336.392	-25.77
336.604	90.96
336.817	21.33
337.029	76.63
337.242	70.48
337.454	129.88
337.667	39.76
337.88	93.01
338.092	70.48
338.305	45.91
338.517	-15.53
338.729	23.38
338.942	70.48
339.154	21.33
339.367	-7.34
339.579	144.21
339.792	58.2
340.004	54.1
340.217	50
340.429	25.43
340.641	19.29
340.854	13.14
341.066	52.05
341.278	33.62
341.491	78.68
341.703	60.24
341.915	37.72
342.128	52.05
342.34	-9.39
342.552	66.39
342.764	70.48
342.977	-21.67
343.189	37.72
343.401	52.05
343.613	17.24
343.826	90.96
344.038	-7.34
344.25	-25.77
344.462	25.43
344.674	47.96
344.886	0.85
345.099	54.1
345.311	-3.24
345.523	-17.58
345.735	-5.29
345.947	64.34
346.159	45.91
346.371	41.81
346.583	31.57
346.795	64.34
347.007	11.09
347.219	68.44
347.431	4.95
347.643	111.44
347.855	47.96
348.067	97.11
348.279	33.62
348.491	90.96
348.703	37.72
348.915	47.96
349.127	-15.53
349.339	101.2
349.551	25.43
349.763	60.24
349.975	47.96
350.187	62.29
350.399	103.25
350.61	39.76
350.822	4.95
351.034	43.86
351.246	-1.19
351.458	74.58
351.669	29.52
351.881	72.53
352.093	78.68
352.305	45.91
352.517	15.19
352.728	62.29
352.94	109.4
353.152	60.24
353.363	25.43
353.575	88.92
353.787	84.82
353.999	-3.24
354.21	84.82
354.422	39.76
354.633	7
354.845	88.92
355.057	13.14
355.268	15.19
355.48	11.09
355.692	47.96
355.903	-1.19
356.115	-19.63
356.326	-25.77
356.538	115.54
356.749	-29.87
356.961	103.25
357.172	109.4
357.384	4.95
357.595	88.92
357.807	13.14
358.018	117.59
358.23	13.14
358.441	52.05
358.653	64.34
358.864	45.91
359.075	21.33
359.287	54.1
359.498	129.88
359.709	-81.07
359.921	60.24
360.132	15.19
360.344	80.72
360.555	33.62
360.766	0.85
360.977	74.58
361.189	29.52
361.4	37.72
361.611	97.11
361.823	125.78
362.034	31.57
362.245	54.1
362.456	41.81
362.667	11.09
362.879	37.72
363.09	0.85
363.301	72.53
363.512	76.63
363.723	27.48
363.935	-25.77
364.146	93.01
364.357	66.39
364.568	23.38
364.779	4.95
364.99	80.72
365.201	39.76
365.412	37.72
365.623	25.43
365.834	86.87
366.045	47.96
366.256	95.06
366.467	86.87
366.678	62.29
366.889	115.54
367.1	-42.15
367.311	-13.48
367.522	35.67
367.733	58.2
367.944	17.24
368.155	-3.24
368.366	95.06
368.577	60.24
368.788	84.82
368.999	70.48
369.209	76.63
369.42	52.05
369.631	86.87
369.842	0.85
370.053	9.05
370.264	7
370.474	66.39
370.685	35.67
370.896	-17.58
371.107	41.81
371.317	131.92
371.528	15.19
371.739	17.24
371.95	86.87
372.16	76.63
372.371	50
372.582	58.2
372.792	52.05
373.003	21.33
373.214	78.68
373.424	121.68
373.635	82.77
373.846	-13.48
374.056	-31.91
374.267	68.44
374.477	111.44
374.688	47.96
374.898	39.76
375.109	109.4
375.319	52.05
375.53	84.82
375.74	41.81
375.951	4.95
376.161	23.38
376.372	82.77
376.582	29.52
376.793	33.62
377.003	41.81
377.214	15.19
377.424	33.62
377.635	52.05
377.845	-3.24
378.055	62.29
378.266	9.05
378.476	90.96
378.686	-29.87
378.897	64.34
379.107	-13.48
379.317	97.11
379.528	15.19
379.738	84.82
379.948	31.57
380.158	31.57
380.369	41.81
380.579	56.15
380.789	115.54
380.999	103.25
381.21	93.01
381.42	15.19
381.63	25.43
381.84	-7.34
382.05	39.76
382.261	33.62
382.471	58.2
382.681	27.48
382.891	62.29
383.101	119.64
383.311	15.19
383.521	-3.24
383.731	150.36
383.941	111.44
384.151	70.48
384.361	2.9
384.571	97.11
384.781	90.96
384.991	56.15
385.201	97.11
385.411	64.34
385.621	43.86
385.831	72.53
386.041	27.48
386.251	93.01
386.461	107.35
386.671	31.57
386.881	25.43
387.091	80.72
387.301	60.24
387.511	52.05
387.72	23.38
387.93	72.53
388.14	82.77
388.35	9.05
388.56	86.87
388.769	109.4
388.979	93.01
389.189	17.24
389.399	39.76
389.609	39.76
389.818	111.44
390.028	111.44
390.238	99.16
390.447	58.2
390.657	148.31
390.867	88.92
391.076	13.14
391.286	68.44
391.496	103.25
391.705	74.58
391.915	74.58
392.125	29.52
392.334	103.25
392.544	52.05
392.753	27.48
392.963	31.57
393.172	21.33
393.382	84.82
393.591	113.49
393.801	95.06
394.01	150.36
394.22	88.92
394.429	86.87
394.639	33.62
394.848	62.29
395.058	129.88
395.267	72.53
395.477	76.63
395.686	105.3
395.895	50
396.105	170.83
396.314	80.72
396.524	123.73
396.733	109.4
396.942	136.02
397.152	174.93
397.361	84.82
397.57	52.05
397.78	27.48
397.989	82.77
398.198	127.83
398.407	105.3
398.617	146.26
398.826	74.58
399.035	43.86
399.244	88.92
399.453	121.68
399.663	88.92
399.872	84.82
400.081	72.53
400.29	129.88
400.499	45.91
400.708	111.44
400.917	68.44
401.127	70.48
401.336	70.48
401.545	131.92
401.754	133.97
401.963	166.74
402.172	113.49
402.381	78.68
402.59	99.16
402.799	117.59
403.008	131.92
403.217	107.35
403.426	121.68
403.635	103.25
403.844	150.36
404.053	111.44
404.262	138.07
404.471	162.64
404.68	150.36
404.888	123.73
405.097	142.16
405.306	187.22
405.515	125.78
405.724	170.83
405.933	72.53
406.142	232.27
406.35	207.7
406.559	154.45
406.768	146.26
406.977	176.98
407.185	232.27
407.394	236.37
407.603	219.99
407.812	146.26
408.02	238.42
408.229	234.32
408.438	195.41
408.646	252.75
408.855	189.27
409.064	226.13
409.272	310.1
409.481	340.82
409.69	289.62
409.898	258.9
410.107	387.92
410.315	353.1
410.524	377.68
410.733	353.1
410.941	326.48
411.15	416.59
411.358	392.02
411.567	357.2
411.775	385.87
411.984	392.02
412.192	562
412.401	521.04
412.609	463.69
412.818	557.9
413.026	426.83
413.234	478.03
413.443	498.51
413.651	490.32
413.86	611.15
414.068	641.87
414.276	572.24
414.485	545.61
414.693	648.01
414.901	717.64
415.11	629.58
415.318	715.59
415.526	697.16
415.734	781.13
415.943	850.76
416.151	791.37
416.359	840.52
416.567	826.18
416.776	885.58
416.984	998.21
417.192	992.07
417.4	1004.36
417.608	1049.41
417.817	1004.36
418.025	1127.24
418.233	1231.68
418.441	1045.32
418.649	1231.68
418.857	1246.02
419.065	1346.37
419.273	1286.98
419.481	1338.18
419.689	1497.92
419.897	1354.56
420.105	1559.36
420.313	1530.69
420.521	1545.02
420.729	1749.82
420.937	1682.24
421.145	1854.27
421.353	1782.59
421.561	1993.53
421.769	1981.24
421.977	2018.1
422.185	1997.62
422.393	2222.9
422.601	2343.73
422.809	2259.76
423.017	2323.25
423.224	2390.83
423.432	2601.77
423.64	2538.29
423.848	2636.59
424.056	2544.43
424.263	2888.49
424.471	2820.91
424.679	2859.82
424.887	3025.7
425.094	3222.31
425.302	3259.17
425.51	3277.6
425.718	3365.67
425.925	3400.48
426.133	3492.64
426.341	3953.43
426.548	3982.1
426.756	3803.93
426.964	4080.41
427.171	4258.58
427.379	4346.64
427.586	4420.37
427.794	4619.02
428.001	4762.38
428.209	4946.7
428.417	4969.23
428.624	5161.73
428.832	5155.59
429.039	5307.14
429.247	5341.96
429.454	5829.37
429.662	6124.28
429.869	5600
430.076	6017.79
430.284	5849.85
430.491	6275.83
430.699	6546.16
430.906	6478.58
431.114	6623.98
431.321	6843.12
431.528	6982.38
431.736	7637.73
431.943	7895.77
432.15	7543.52
432.358	7744.22
432.565	8264.41
432.772	7959.26
432.979	8491.73
433.187	8749.78
433.394	8696.53
433.601	9282.25
433.808	9269.96
434.016	9190.09
434.223	9603.78
434.43	10250.94
434.637	10005.18
434.844	10595
435.052	10990.25
435.259	10945.2
435.466	10732.21
435.673	10748.59
435.88	11434.66
436.087	12305.05
436.294	12198.56
436.501	11768.48
436.708	12112.54
436.915	12303
437.122	13105.81
437.329	13070.99
437.537	13525.64
437.743	13884.03
437.95	13800.07
438.157	14424.7
438.364	14584.44
438.571	15045.23
438.778	14635.64
438.985	16274.01
439.192	15612.52
439.399	15895.14
439.606	15743.59
439.813	16573.02
440.02	17433.16
440.227	17349.2
440.433	17146.45
440.64	17664.58
440.847	17433.16
441.054	17947.2
441.261	19190.32
441.467	19030.58
441.674	19391.02
441.881	20017.7
442.088	20034.08
442.294	20017.7
442.501	20480.54
442.708	20595.23
442.914	21459.47
443.121	22606.33
443.328	21856.78
443.534	23497.2
443.741	22800.89
443.948	22544.89
444.154	24164.84
444.361	23900.65
444.568	24213.99
444.774	23939.56
444.981	24525.28
445.187	25391.57
445.394	26198.47
445.6	25932.23
445.807	28451.24
446.013	26925.5
446.22	27427.25
446.426	28686.75
446.633	28965.28
446.839	30214.54
447.046	28584.35
447.252	30298.5
447.459	30675.33
447.665	30007.69
447.871	31353.21
448.078	32919.9
448.284	31246.71
448.491	32252.27
448.697	33571.16
448.903	34189.64
449.11	34169.16
449.316	33804.63
449.522	34335.05
449.728	35281.21
449.935	35197.24
450.141	35205.44
450.347	36010.29
450.553	35262.78
450.76	35572.02
450.966	36817.19
451.172	36321.58
451.378	37105.95
451.584	36342.06
451.791	37280.03
451.997	37310.75
452.203	37835.03
452.409	37892.37
452.615	37830.93
452.821	36518.18
453.027	35938.61
453.233	37640.47
453.44	36483.37
453.646	36770.08
453.852	37044.51
454.058	37955.86
454.264	36389.16
454.47	37263.64
454.676	36639.01
454.882	37216.54
455.088	34312.52
455.294	34529.61
455.5	35275.07
455.705	35590.45
455.911	34353.48
456.117	33593.68
456.323	33542.49
456.529	31707.51
456.735	32831.84
456.941	31861.1
457.147	31781.23
457.352	30536.07
457.558	29966.73
457.764	30445.96
457.97	29444.5
458.176	29321.62
458.381	29129.11
458.587	27578.8
458.793	27832.75
458.999	26153.41
459.204	28017.07
459.41	27302.32
459.616	25557.46
459.821	25766.35
460.027	25438.67
460.233	24981.98
460.438	23708.14
460.644	24115.69
460.85	23009.78
461.055	22546.94
461.261	22665.72
461.466	20754.97
461.672	20169.25
461.878	21680.65
462.083	20124.19
462.289	19528.24
462.494	19741.22
462.7	18887.22
462.905	18252.35
463.111	19059.25
463.316	18788.92
463.522	18604.6
463.727	18768.44
463.932	18524.73
464.138	18510.39
464.343	18270.78
464.549	17816.13
464.754	18557.5
464.959	18250.3
465.165	18039.36
465.37	17420.88
465.575	16966.23
465.781	17615.43
465.986	17873.48
466.191	17244.75
466.397	16849.49
466.602	15991.39
466.807	16626.26
467.012	16767.57
467.218	16452.19
467.423	16224.86
467.628	16427.61
467.833	17398.35
468.038	16525.91
468.244	16106.08
