Data from USB4F104151__64__12-42-09-979.txt Node

Date: Fri Mar 14 12:42:09 EDT 2025
User: louis
Spectrometer: USB4F10415
Trigger mode: 4
Integration Time (sec): 3.000000E-2
Scans to average: 1
Electric dark correction enabled: true
Nonlinearity correction enabled: false
Boxcar width: 0
XAxis mode: Wavelengths
Number of Pixels in Spectrum: 3648
>>>>>Begin Spectral Data<<<<<
178.204	-177.66
178.424	-177.66
178.644	-177.66
178.864	-77.31
179.084	-91.65
179.304	23.04
179.524	-40.45
179.744	80.38
179.964	4.61
180.184	0.51
180.404	20.99
180.624	-50.69
180.844	31.23
181.064	-73.21
181.283	2.56
181.503	-5.63
181.723	6.66
181.943	-48.64
182.163	64
182.383	29.18
182.602	41.47
182.822	98.81
183.042	49.66
183.262	10.75
183.482	35.33
183.701	12.8
183.921	100.86
184.141	-13.82
184.361	76.29
184.58	88.57
184.8	25.09
185.02	37.38
185.239	51.71
185.459	-13.82
185.679	68.09
185.898	-56.83
186.118	145.92
186.338	-38.4
186.557	39.42
186.777	-19.97
186.997	41.47
187.216	0.51
187.436	49.66
187.655	20.99
187.875	2.56
188.095	23.04
188.314	16.9
188.534	84.48
188.753	33.28
188.973	39.42
189.192	61.95
189.412	-3.58
189.631	6.66
189.851	35.33
190.07	41.47
190.29	6.66
190.509	-5.63
190.729	55.81
190.948	111.1
191.168	195.07
191.387	80.38
191.607	37.38
191.826	94.72
192.045	43.52
192.265	-5.63
192.484	57.86
192.704	27.14
192.923	0.51
193.142	2.56
193.362	29.18
193.581	-56.83
193.8	117.25
194.02	-5.63
194.239	25.09
194.458	53.76
194.678	55.81
194.897	-34.3
195.116	74.24
195.335	31.23
195.555	31.23
195.774	20.99
195.993	104.96
196.212	37.38
196.432	-32.26
196.651	84.48
196.87	-1.54
197.089	127.49
197.308	-30.21
197.528	25.09
197.747	14.85
197.966	39.42
198.185	92.67
198.404	27.14
198.623	-9.73
198.842	14.85
199.062	18.94
199.281	-26.11
199.5	-13.82
199.719	41.47
199.938	8.7
200.157	86.53
200.376	59.9
200.595	2.56
200.814	20.99
201.033	10.75
201.252	61.95
201.471	2.56
201.69	84.48
201.909	25.09
202.128	45.57
202.347	82.43
202.566	47.62
202.785	4.61
203.004	-62.98
203.223	137.73
203.442	-28.16
203.661	-38.4
203.879	57.86
204.098	64
204.317	-56.83
204.536	51.71
204.755	12.8
204.974	43.52
205.193	100.86
205.411	76.29
205.63	16.9
205.849	64
206.068	45.57
206.287	6.66
206.505	2.56
206.724	-11.78
206.943	-7.68
207.162	16.9
207.381	76.29
207.599	98.81
207.818	35.33
208.037	57.86
208.255	20.99
208.474	47.62
208.693	25.09
208.911	45.57
209.13	68.09
209.349	16.9
209.567	66.05
209.786	55.81
210.005	51.71
210.223	76.29
210.442	72.19
210.661	59.9
210.879	33.28
211.098	-36.35
211.316	8.7
211.535	72.19
211.753	-5.63
211.972	33.28
212.191	-42.5
212.409	-9.73
212.628	-13.82
212.846	-7.68
213.065	80.38
213.283	96.77
213.502	29.18
213.72	23.04
213.938	84.48
214.157	20.99
214.375	-19.97
214.594	55.81
214.812	-19.97
215.031	68.09
215.249	35.33
215.467	35.33
215.686	4.61
215.904	61.95
216.122	8.7
216.341	68.09
216.559	-24.06
216.778	18.94
216.996	121.34
217.214	-40.45
217.432	20.99
217.651	-30.21
217.869	47.62
218.087	6.66
218.306	29.18
218.524	90.62
218.742	-15.87
218.96	27.14
219.179	64
219.397	39.42
219.615	72.19
219.833	41.47
220.051	-15.87
220.27	35.33
220.488	109.05
220.706	55.81
220.924	68.09
221.142	86.53
221.36	43.52
221.578	8.7
221.796	-17.92
222.015	96.77
222.233	64
222.451	100.86
222.669	8.7
222.887	57.86
223.105	-1.54
223.323	14.85
223.541	20.99
223.759	2.56
223.977	8.7
224.195	43.52
224.413	109.05
224.631	94.72
224.849	70.14
225.067	90.62
225.285	61.95
225.503	37.38
225.721	-22.02
225.939	-22.02
226.157	45.57
226.375	109.05
226.592	82.43
226.81	35.33
227.028	27.14
227.246	29.18
227.464	14.85
227.682	31.23
227.9	20.99
228.117	31.23
228.335	-42.5
228.553	0.51
228.771	72.19
228.989	45.57
229.206	70.14
229.424	18.94
229.642	14.85
229.86	59.9
230.077	-3.58
230.295	109.05
230.513	82.43
230.731	20.99
230.948	51.71
231.166	-5.63
231.384	-58.88
231.601	70.14
231.819	2.56
232.037	0.51
232.254	23.04
232.472	10.75
232.689	4.61
232.907	33.28
233.125	109.05
233.342	12.8
233.56	-36.35
233.777	45.57
233.995	16.9
234.213	37.38
234.43	111.1
234.648	35.33
234.865	16.9
235.083	37.38
235.3	41.47
235.518	-1.54
235.735	96.77
235.953	49.66
236.17	86.53
236.388	0.51
236.605	41.47
236.822	90.62
237.04	-1.54
237.257	-7.68
237.475	-17.92
237.692	74.24
237.909	14.85
238.127	55.81
238.344	94.72
238.562	-17.92
238.779	2.56
238.996	-9.73
239.214	-11.78
239.431	121.34
239.648	23.04
239.865	-60.93
240.083	16.9
240.3	33.28
240.517	14.85
240.735	53.76
240.952	78.33
241.169	72.19
241.386	64
241.603	-19.97
241.821	-3.58
242.038	92.67
242.255	115.2
242.472	25.09
242.689	27.14
242.907	12.8
243.124	-17.92
243.341	78.33
243.558	12.8
243.775	-26.11
243.992	-17.92
244.209	20.99
244.426	109.05
244.643	61.95
244.86	-3.58
245.078	55.81
245.295	117.25
245.512	-48.64
245.729	-34.3
245.946	-36.35
246.163	25.09
246.38	29.18
246.597	14.85
246.814	35.33
247.031	39.42
247.248	41.47
247.464	59.9
247.681	27.14
247.898	57.86
248.115	10.75
248.332	-7.68
248.549	31.23
248.766	61.95
248.983	29.18
249.2	2.56
249.417	59.9
249.633	49.66
249.85	41.47
250.067	6.66
250.284	111.1
250.501	2.56
250.717	31.23
250.934	-73.21
251.151	35.33
251.368	0.51
251.585	64
251.801	47.62
252.018	-48.64
252.235	78.33
252.451	49.66
252.668	-46.59
252.885	152.06
253.102	57.86
253.318	104.96
253.535	39.42
253.752	61.95
253.968	-58.88
254.185	25.09
254.401	29.18
254.618	66.05
254.835	-9.73
255.051	72.19
255.268	43.52
255.484	43.52
255.701	94.72
255.917	49.66
256.134	-7.68
256.351	-44.54
256.567	-40.45
256.784	41.47
257	4.61
257.217	72.19
257.433	33.28
257.65	47.62
257.866	72.19
258.082	0.51
258.299	6.66
258.515	49.66
258.732	55.81
258.948	47.62
259.165	8.7
259.381	-46.59
259.597	55.81
259.814	49.66
260.03	10.75
260.246	-15.87
260.463	86.53
260.679	111.1
260.895	35.33
261.112	29.18
261.328	-42.5
261.544	29.18
261.761	107.01
261.977	39.42
262.193	-52.74
262.409	88.57
262.626	29.18
262.842	-15.87
263.058	55.81
263.274	33.28
263.49	57.86
263.707	100.86
263.923	8.7
264.139	49.66
264.355	35.33
264.571	94.72
264.787	70.14
265.004	-15.87
265.22	82.43
265.436	41.47
265.652	4.61
265.868	18.94
266.084	-44.54
266.3	8.7
266.516	37.38
266.732	45.57
266.948	119.29
267.164	39.42
267.38	-44.54
267.596	-3.58
267.812	145.92
268.028	-44.54
268.244	51.71
268.46	20.99
268.676	29.18
268.892	-19.97
269.108	23.04
269.324	45.57
269.54	-5.63
269.756	61.95
269.972	8.7
270.188	10.75
270.403	-24.06
270.619	61.95
270.835	70.14
271.051	4.61
271.267	27.14
271.483	18.94
271.698	18.94
271.914	66.05
272.13	53.76
272.346	-5.63
272.562	41.47
272.777	31.23
272.993	0.51
273.209	39.42
273.425	-30.21
273.64	-24.06
273.856	6.66
274.072	-11.78
274.287	8.7
274.503	23.04
274.719	-15.87
274.934	29.18
275.15	29.18
275.366	86.53
275.581	16.9
275.797	74.24
276.012	-48.64
276.228	25.09
276.444	41.47
276.659	74.24
276.875	64
277.09	0.51
277.306	16.9
277.521	59.9
277.737	96.77
277.952	92.67
278.168	49.66
278.383	-17.92
278.599	-13.82
278.814	45.57
279.03	104.96
279.245	39.42
279.461	31.23
279.676	111.1
279.892	6.66
280.107	16.9
280.322	55.81
280.538	53.76
280.753	45.57
280.969	74.24
281.184	27.14
281.399	100.86
281.615	-11.78
281.83	27.14
282.045	59.9
282.26	0.51
282.476	72.19
282.691	33.28
282.906	4.61
283.122	8.7
283.337	57.86
283.552	49.66
283.767	29.18
283.983	82.43
284.198	82.43
284.413	121.34
284.628	-48.64
284.843	27.14
285.058	84.48
285.274	49.66
285.489	-48.64
285.704	41.47
285.919	-22.02
286.134	145.92
286.349	57.86
286.564	-11.78
286.779	84.48
286.995	25.09
287.21	-17.92
287.425	109.05
287.64	6.66
287.855	14.85
288.07	10.75
288.285	14.85
288.5	-52.74
288.715	51.71
288.93	92.67
289.145	29.18
289.36	92.67
289.575	16.9
289.79	-28.16
290.004	57.86
290.219	96.77
290.434	-32.26
290.649	6.66
290.864	41.47
291.079	6.66
291.294	37.38
291.509	27.14
291.724	8.7
291.938	-11.78
292.153	125.44
292.368	64
292.583	20.99
292.798	76.29
293.012	53.76
293.227	23.04
293.442	-3.58
293.657	14.85
293.871	49.66
294.086	27.14
294.301	43.52
294.516	-22.02
294.73	45.57
294.945	49.66
295.16	109.05
295.374	-22.02
295.589	121.34
295.804	10.75
296.018	4.61
296.233	68.09
296.447	-5.63
296.662	20.99
296.877	74.24
297.091	78.33
297.306	27.14
297.52	16.9
297.735	72.19
297.949	-38.4
298.164	96.77
298.378	82.43
298.593	74.24
298.807	23.04
299.022	61.95
299.236	43.52
299.451	31.23
299.665	8.7
299.88	35.33
300.094	-5.63
300.309	25.09
300.523	23.04
300.737	111.1
300.952	64
301.166	64
301.381	88.57
301.595	98.81
301.809	6.66
302.024	43.52
302.238	6.66
302.452	37.38
302.667	10.75
302.881	92.67
303.095	72.19
303.309	88.57
303.524	39.42
303.738	-11.78
303.952	16.9
304.166	23.04
304.381	-11.78
304.595	145.92
304.809	92.67
305.023	-9.73
305.237	18.94
305.452	16.9
305.666	98.81
305.88	76.29
306.094	51.71
306.308	51.71
306.522	41.47
306.736	23.04
306.95	27.14
307.164	-26.11
307.379	-3.58
307.593	31.23
307.807	88.57
308.021	41.47
308.235	72.19
308.449	25.09
308.663	-9.73
308.877	145.92
309.091	33.28
309.305	57.86
309.519	4.61
309.733	-3.58
309.947	0.51
310.161	92.67
310.374	16.9
310.588	0.51
310.802	41.47
311.016	-38.4
311.23	-7.68
311.444	-44.54
311.658	45.57
311.872	88.57
312.085	80.38
312.299	94.72
312.513	41.47
312.727	64
312.941	-48.64
313.154	31.23
313.368	72.19
313.582	33.28
313.796	102.91
314.009	80.38
314.223	86.53
314.437	84.48
314.651	33.28
314.864	14.85
315.078	4.61
315.292	-1.54
315.505	20.99
315.719	-17.92
315.933	41.47
316.146	16.9
316.36	-19.97
316.573	84.48
316.787	-40.45
317.001	35.33
317.214	-1.54
317.428	-22.02
317.641	10.75
317.855	47.62
318.068	51.71
318.282	37.38
318.495	47.62
318.709	49.66
318.922	49.66
319.136	92.67
319.349	82.43
319.563	-42.5
319.776	78.33
319.99	-3.58
320.203	27.14
320.417	-7.68
320.63	68.09
320.843	152.06
321.057	31.23
321.27	4.61
321.483	45.57
321.697	66.05
321.91	51.71
322.124	-7.68
322.337	20.99
322.55	-46.59
322.763	43.52
322.977	-11.78
323.19	-5.63
323.403	4.61
323.617	100.86
323.83	92.67
324.043	39.42
324.256	53.76
324.469	6.66
324.683	119.29
324.896	12.8
325.109	64
325.322	-22.02
325.535	39.42
325.748	86.53
325.962	29.18
326.175	20.99
326.388	51.71
326.601	33.28
326.814	96.77
327.027	92.67
327.24	70.14
327.453	12.8
327.666	33.28
327.879	92.67
328.092	102.91
328.305	37.38
328.518	-22.02
328.731	43.52
328.944	-40.45
329.157	51.71
329.37	41.47
329.583	53.76
329.796	45.57
330.009	16.9
330.222	31.23
330.435	78.33
330.648	133.63
330.861	31.23
331.073	8.7
331.286	37.38
331.499	29.18
331.712	4.61
331.925	39.42
332.138	43.52
332.35	80.38
332.563	20.99
332.776	51.71
332.989	29.18
333.202	66.05
333.414	76.29
333.627	-9.73
333.84	100.86
334.053	27.14
334.265	33.28
334.478	39.42
334.691	-40.45
334.903	78.33
335.116	-67.07
335.329	27.14
335.541	64
335.754	154.11
335.966	72.19
336.179	74.24
336.392	-5.63
336.604	66.05
336.817	96.77
337.029	72.19
337.242	45.57
337.454	12.8
337.667	10.75
337.88	51.71
338.092	70.14
338.305	35.33
338.517	-9.73
338.729	100.86
338.942	18.94
339.154	10.75
339.367	35.33
339.579	2.56
339.792	37.38
340.004	59.9
340.217	45.57
340.429	39.42
340.641	2.56
340.854	12.8
341.066	-11.78
341.278	125.44
341.491	82.43
341.703	-13.82
341.915	14.85
342.128	41.47
342.34	-1.54
342.552	74.24
342.764	59.9
342.977	16.9
343.189	107.01
343.401	76.29
343.613	-13.82
343.826	4.61
344.038	14.85
344.25	84.48
344.462	45.57
344.674	111.1
344.886	45.57
345.099	47.62
345.311	66.05
345.523	-7.68
345.735	0.51
345.947	49.66
346.159	20.99
346.371	84.48
346.583	64
346.795	156.16
347.007	14.85
347.219	94.72
347.431	43.52
347.643	88.57
347.855	57.86
348.067	61.95
348.279	-50.69
348.491	68.09
348.703	51.71
348.915	111.1
349.127	-15.87
349.339	14.85
349.551	23.04
349.763	96.77
349.975	59.9
350.187	66.05
350.399	154.11
350.61	82.43
350.822	6.66
351.034	25.09
351.246	64
351.458	31.23
351.669	-1.54
351.881	100.86
352.093	86.53
352.305	51.71
352.517	8.7
352.728	49.66
352.94	4.61
353.152	107.01
353.363	31.23
353.575	68.09
353.787	84.48
353.999	10.75
354.21	27.14
354.422	41.47
354.633	47.62
354.845	6.66
355.057	70.14
355.268	57.86
355.48	27.14
355.692	80.38
355.903	59.9
356.115	6.66
356.326	76.29
356.538	125.44
356.749	61.95
356.961	115.2
357.172	-38.4
357.384	20.99
357.595	68.09
357.807	41.47
358.018	154.11
358.23	92.67
358.441	92.67
358.653	86.53
358.864	0.51
359.075	59.9
359.287	45.57
359.498	61.95
359.709	59.9
359.921	68.09
360.132	123.39
360.344	96.77
360.555	86.53
360.766	33.28
360.977	53.76
361.189	133.63
361.4	41.47
361.611	74.24
361.823	96.77
362.034	53.76
362.245	55.81
362.456	27.14
362.667	90.62
362.879	-54.78
363.09	23.04
363.301	47.62
363.512	41.47
363.723	25.09
363.935	86.53
364.146	80.38
364.357	41.47
364.568	76.29
364.779	-1.54
364.99	111.1
365.201	72.19
365.412	57.86
365.623	-3.58
365.834	90.62
366.045	61.95
366.256	23.04
366.467	33.28
366.678	6.66
366.889	94.72
367.1	68.09
367.311	86.53
367.522	53.76
367.733	47.62
367.944	86.53
368.155	35.33
368.366	8.7
368.577	100.86
368.788	80.38
368.999	6.66
369.209	47.62
369.42	72.19
369.631	76.29
369.842	51.71
370.053	121.34
370.264	84.48
370.474	70.14
370.685	113.15
370.896	45.57
371.107	139.77
371.317	57.86
371.528	-52.74
371.739	127.49
371.95	53.76
372.16	53.76
372.371	6.66
372.582	57.86
372.792	39.42
373.003	55.81
373.214	82.43
373.424	104.96
373.635	27.14
373.846	90.62
374.056	35.33
374.267	59.9
374.477	66.05
374.688	119.29
374.898	68.09
375.109	37.38
375.319	90.62
375.53	68.09
375.74	78.33
375.951	55.81
376.161	70.14
376.372	8.7
376.582	-42.5
376.793	74.24
377.003	51.71
377.214	35.33
377.424	86.53
377.635	29.18
377.845	8.7
378.055	51.71
378.266	45.57
378.476	37.38
378.686	51.71
378.897	6.66
379.107	76.29
379.317	82.43
379.528	90.62
379.738	78.33
379.948	25.09
380.158	129.53
380.369	51.71
380.579	53.76
380.789	92.67
380.999	47.62
381.21	156.16
381.42	72.19
381.63	27.14
381.84	45.57
382.05	119.29
382.261	123.39
382.471	143.87
382.681	16.9
382.891	74.24
383.101	59.9
383.311	53.76
383.521	53.76
383.731	61.95
383.941	90.62
384.151	53.76
384.361	61.95
384.571	25.09
384.781	82.43
384.991	39.42
385.201	160.25
385.411	86.53
385.621	80.38
385.831	70.14
386.041	74.24
386.251	2.56
386.461	141.82
386.671	-11.78
386.881	74.24
387.091	27.14
387.301	37.38
387.511	8.7
387.72	154.11
387.93	53.76
388.14	4.61
388.35	61.95
388.56	92.67
388.769	102.91
388.979	14.85
389.189	53.76
389.399	109.05
389.609	141.82
389.818	57.86
390.028	76.29
390.238	125.44
390.447	113.15
390.657	117.25
390.867	31.23
391.076	104.96
391.286	131.58
391.496	18.94
391.705	35.33
391.915	86.53
392.125	119.29
392.334	51.71
392.544	96.77
392.753	68.09
392.963	78.33
393.172	29.18
393.382	55.81
393.591	74.24
393.801	82.43
394.01	137.73
394.22	61.95
394.429	51.71
394.639	86.53
394.848	195.07
395.058	43.52
395.267	74.24
395.477	25.09
395.686	141.82
395.895	139.77
396.105	125.44
396.314	102.91
396.524	47.62
396.733	115.2
396.942	74.24
397.152	51.71
397.361	111.1
397.57	96.77
397.78	107.01
397.989	61.95
398.198	152.06
398.407	113.15
398.617	98.81
398.826	86.53
399.035	143.87
399.244	107.01
399.453	90.62
399.663	74.24
399.872	72.19
400.081	74.24
400.29	168.45
400.499	86.53
400.708	86.53
400.917	113.15
401.127	139.77
401.336	180.73
401.545	193.02
401.754	133.63
401.963	104.96
402.172	135.68
402.381	76.29
402.59	154.11
402.799	145.92
403.008	113.15
403.217	121.34
403.426	162.3
403.635	76.29
403.844	125.44
404.053	12.8
404.262	80.38
404.471	178.69
404.68	172.54
404.888	195.07
405.097	117.25
405.306	219.64
405.515	125.44
405.724	137.73
405.933	221.69
406.142	201.21
406.35	150.01
406.559	209.4
406.768	188.93
406.977	164.35
407.185	236.03
407.394	246.27
407.603	150.01
407.812	215.55
408.02	281.08
408.229	242.17
408.438	287.23
408.646	229.88
408.855	264.7
409.064	266.75
409.272	334.33
409.481	287.23
409.69	270.84
409.898	227.84
410.107	397.82
410.315	289.28
410.524	342.52
410.733	373.24
410.941	399.87
411.15	414.2
411.358	303.61
411.567	381.43
411.775	469.5
411.984	363
412.192	477.69
412.401	461.3
412.609	444.92
412.818	545.27
413.026	483.83
413.234	492.02
413.443	541.18
413.651	623.09
413.86	567.8
414.068	733.68
414.276	623.09
414.485	606.71
414.693	666.1
414.901	729.59
415.11	694.77
415.318	702.97
415.526	801.27
415.734	715.25
415.943	737.78
416.151	770.55
416.359	819.7
416.567	768.5
416.776	825.84
416.984	885.23
417.192	1049.07
417.4	1022.45
417.608	985.58
417.817	973.3
418.025	1018.35
418.233	1184.24
418.441	1114.61
418.649	1075.7
418.857	1268.2
419.065	1296.88
419.273	1284.59
419.481	1362.41
419.689	1423.85
419.897	1425.9
420.105	1518.06
420.313	1591.78
420.521	1561.06
420.729	1669.61
420.937	1649.13
421.145	1722.85
421.353	1763.81
421.561	2005.47
421.769	1915.36
421.977	2060.77
422.185	2081.25
422.393	2179.55
422.601	2243.04
422.809	2298.33
423.017	2257.37
423.224	2476.51
423.432	2478.55
423.64	2568.66
423.848	2726.36
424.056	2652.63
424.263	2798.04
424.471	2994.64
424.679	2875.86
424.887	3070.42
425.094	3146.19
425.302	3174.86
425.51	3318.22
425.718	3459.53
425.925	3469.77
426.133	3668.42
426.341	3705.29
426.548	3850.69
426.756	3860.93
426.964	4039.11
427.171	4301.25
427.379	4241.86
427.586	4252.1
427.794	4538.81
428.001	4667.83
428.209	5036.47
428.417	5003.7
428.624	5136.82
428.832	5190.06
429.039	5257.65
429.247	5104.05
429.454	5595.56
429.662	6074.79
429.869	5673.39
430.076	6265.25
430.284	6031.78
430.491	6091.17
430.699	6566.3
430.906	6449.57
431.114	6689.18
431.321	6805.91
431.528	7111.06
431.736	7410.06
431.943	7887.24
432.15	7569.8
432.358	7653.77
432.565	8051.08
432.772	8161.67
432.979	8425.86
433.187	8518.01
433.394	8606.08
433.601	9199.99
433.808	9384.3
434.016	9159.03
434.223	9488.75
434.43	10174.82
434.637	9808.23
434.844	10670.43
435.052	10717.53
435.259	10742.11
435.466	10926.43
435.673	10848.6
435.88	11426.13
436.087	11882.83
436.294	12149.06
436.501	11774.28
436.708	11882.83
436.915	12419.39
437.122	13115.7
437.329	12855.61
437.537	13283.64
437.743	13556.02
437.95	13281.59
438.157	14151.98
438.364	14647.58
438.571	14502.18
438.778	14584.1
438.985	16245
439.192	15278.36
439.399	15884.56
439.606	15364.37
439.813	16460.04
440.02	17725.68
440.227	16865.53
440.433	17092.86
440.64	17492.21
440.847	17463.54
441.054	17729.78
441.261	19032.29
441.467	18651.36
441.674	19024.09
441.881	19874
442.088	19734.74
442.294	19712.21
442.501	20234.44
442.708	20504.78
442.914	21377.21
443.121	22341.8
443.328	21676.21
443.534	23255.2
443.741	22263.98
443.948	22268.08
444.154	23632.02
444.361	24051.86
444.568	23720.09
444.774	23777.43
444.981	24129.68
445.187	24696.97
445.394	25884.79
445.6	25548.92
445.807	27930.71
446.013	26992.74
446.22	27682.91
446.426	28457.04
446.633	28719.18
446.839	29941.82
447.046	28301.39
447.252	30044.21
447.459	30242.87
447.665	29681.72
447.871	31125.54
448.078	32561.17
448.284	31123.49
448.491	31795.23
448.697	33488.9
448.903	33986.55
449.11	33632.25
449.316	33110.02
449.522	33732.61
449.728	34850.8
449.935	34953.19
450.141	34926.57
450.347	36014.04
450.553	34629.62
450.76	35301.35
450.966	36042.71
451.172	36038.62
451.378	36585.43
451.584	36216.79
451.791	36929.48
451.997	37048.27
452.203	37418.95
452.409	37603.27
452.615	37318.6
452.821	36063.19
453.027	35676.13
453.233	37605.31
453.44	36014.04
453.646	36579.28
453.852	36270.04
454.058	37369.8
454.264	35968.99
454.47	36906.96
454.676	35981.27
454.882	37175.24
455.088	33882.11
455.294	34850.8
455.5	35004.39
455.705	35168.23
455.911	33935.35
456.117	33210.37
456.323	32747.53
456.529	31014.95
456.735	32935.95
456.941	31621.15
457.147	31158.31
457.352	30277.68
457.558	29978.68
457.764	30122.04
457.97	29495.36
458.176	28948.55
458.381	29040.71
458.587	27488.35
458.793	27480.16
458.999	26218.61
459.204	27861.08
459.41	27244.64
459.616	25124.99
459.821	25528.44
460.027	25024.64
460.233	24754.31
460.438	23654.55
460.644	23752.85
460.85	22782.12
461.055	22188.21
461.261	22014.13
461.466	20521.16
461.672	19826.9
461.878	21268.67
462.083	20115.66
462.289	19951.82
462.494	19564.76
462.7	18661.6
462.905	18079.98
463.111	18698.47
463.316	18753.76
463.522	18387.18
463.727	18471.14
463.932	18643.17
464.138	18272.49
464.343	18118.89
464.549	17602.8
464.754	18321.64
464.959	18131.18
465.165	18090.22
465.37	17158.39
465.575	16875.77
465.781	17330.42
465.986	17494.26
466.191	17056
466.397	16800
466.602	15800.59
466.807	16462.08
467.012	16285.96
467.218	16023.82
467.423	15972.62
467.628	16179.47
467.833	16679.17
468.038	16077.07
468.244	15704.34
