Data from USB4F104151__48__12-41-39-171.txt Node

Date: Fri Mar 14 12:41:39 EDT 2025
User: louis
Spectrometer: USB4F10415
Trigger mode: 4
Integration Time (sec): 3.000000E-2
Scans to average: 1
Electric dark correction enabled: true
Nonlinearity correction enabled: false
Boxcar width: 0
XAxis mode: Wavelengths
Number of Pixels in Spectrum: 3648
>>>>>Begin Spectral Data<<<<<
178.204	-147.8
178.424	-147.8
178.644	-147.8
178.864	-117.08
179.084	-100.69
179.304	42.67
179.524	-55.64
179.744	54.95
179.964	7.85
180.184	18.09
180.404	-24.92
180.624	20.14
180.844	-20.82
181.064	-43.35
181.283	-6.49
181.503	22.19
181.723	-14.68
181.943	36.52
182.163	110.25
182.383	22.19
182.602	18.09
182.822	83.63
183.042	132.78
183.262	9.9
183.482	106.15
183.701	-31.06
183.921	93.87
184.141	34.47
184.361	52.91
184.58	-22.87
184.8	-8.53
185.02	-2.39
185.239	95.91
185.459	38.57
185.679	85.67
185.898	38.57
186.118	73.39
186.338	-24.92
186.557	63.15
186.777	-16.73
186.997	-22.87
187.216	-24.92
187.436	157.35
187.655	93.87
187.875	11.95
188.095	26.28
188.314	97.96
188.534	40.62
188.753	-8.53
188.973	50.86
189.192	97.96
189.412	50.86
189.631	67.24
189.851	52.91
190.07	69.29
190.29	-12.63
190.509	13.99
190.729	-49.49
190.948	50.86
191.168	114.34
191.387	120.49
191.607	48.81
191.826	52.91
192.045	57
192.265	-6.49
192.484	104.11
192.704	95.91
192.923	1.71
193.142	71.34
193.362	42.67
193.581	44.71
193.8	-6.49
194.02	77.48
194.239	-0.34
194.458	22.19
194.678	87.72
194.897	69.29
195.116	-55.64
195.335	57
195.555	77.48
195.774	-16.73
195.993	13.99
196.212	67.24
196.432	-33.11
196.651	-31.06
196.87	24.23
197.089	77.48
197.308	42.67
197.528	32.43
197.747	11.95
197.966	38.57
198.185	116.39
198.404	-0.34
198.623	77.48
198.842	13.99
199.062	65.19
199.281	44.71
199.5	-8.53
199.719	30.38
199.938	75.43
200.157	83.63
200.376	11.95
200.595	13.99
200.814	124.58
201.033	32.43
201.252	93.87
201.471	59.05
201.69	7.85
201.909	52.91
202.128	65.19
202.347	26.28
202.566	-14.68
202.785	16.04
203.004	61.1
203.223	106.15
203.442	61.1
203.661	77.48
203.879	77.48
204.098	32.43
204.317	61.1
204.536	145.06
204.755	52.91
204.974	75.43
205.193	46.76
205.411	89.77
205.63	-2.39
205.849	73.39
206.068	30.38
206.287	40.62
206.505	130.73
206.724	59.05
206.943	46.76
207.162	24.23
207.381	54.95
207.599	34.47
207.818	36.52
208.037	-22.87
208.255	9.9
208.474	26.28
208.693	93.87
208.911	71.34
209.13	46.76
209.349	34.47
209.567	73.39
209.786	22.19
210.005	26.28
210.223	91.82
210.442	20.14
210.661	26.28
210.879	3.75
211.098	-10.58
211.316	42.67
211.535	93.87
211.753	11.95
211.972	63.15
212.191	52.91
212.409	24.23
212.628	-10.58
212.846	5.8
213.065	102.06
213.283	79.53
213.502	-16.73
213.72	11.95
213.938	102.06
214.157	-10.58
214.375	52.91
214.594	-16.73
214.812	24.23
215.031	59.05
215.249	95.91
215.467	20.14
215.686	-0.34
215.904	122.54
216.122	83.63
216.341	28.33
216.559	11.95
216.778	-4.44
216.996	18.09
217.214	79.53
217.432	40.62
217.651	34.47
217.869	93.87
218.087	28.33
218.306	61.1
218.524	57
218.742	40.62
218.96	52.91
219.179	116.39
219.397	59.05
219.615	87.72
219.833	97.96
220.051	20.14
220.27	52.91
220.488	3.75
220.706	73.39
220.924	32.43
221.142	30.38
221.36	91.82
221.578	5.8
221.796	24.23
222.015	52.91
222.233	71.34
222.451	57
222.669	46.76
222.887	50.86
223.105	-14.68
223.323	9.9
223.541	75.43
223.759	7.85
223.977	61.1
224.195	75.43
224.413	11.95
224.631	30.38
224.849	46.76
225.067	83.63
225.285	42.67
225.503	44.71
225.721	-8.53
225.939	71.34
226.157	-43.35
226.375	128.68
226.592	40.62
226.81	46.76
227.028	77.48
227.246	52.91
227.464	73.39
227.682	32.43
227.9	48.81
228.117	59.05
228.335	40.62
228.553	20.14
228.771	63.15
228.989	36.52
229.206	22.19
229.424	5.8
229.642	-29.01
229.86	63.15
230.077	124.58
230.295	-12.63
230.513	-45.4
230.731	48.81
230.948	63.15
231.166	87.72
231.384	-14.68
231.601	-14.68
231.819	95.91
232.037	50.86
232.254	-2.39
232.472	18.09
232.689	-2.39
232.907	83.63
233.125	46.76
233.342	-43.35
233.56	-2.39
233.777	46.76
233.995	118.44
234.213	81.58
234.43	42.67
234.648	-41.3
234.865	-2.39
235.083	71.34
235.3	18.09
235.518	73.39
235.735	100.01
235.953	-0.34
236.17	54.95
236.388	40.62
236.605	48.81
236.822	112.3
237.04	91.82
237.257	22.19
237.475	-37.2
237.692	38.57
237.909	-18.77
238.127	9.9
238.344	3.75
238.562	18.09
238.779	18.09
238.996	-12.63
239.214	7.85
239.431	79.53
239.648	44.71
239.865	22.19
240.083	50.86
240.3	48.81
240.517	44.71
240.735	73.39
240.952	-12.63
241.169	-4.44
241.386	20.14
241.603	20.14
241.821	34.47
242.038	28.33
242.255	57
242.472	-24.92
242.689	52.91
242.907	89.77
243.124	42.67
243.341	-0.34
243.558	-8.53
243.775	54.95
243.992	-76.12
244.209	28.33
244.426	95.91
244.643	32.43
244.86	38.57
245.078	-6.49
245.295	30.38
245.512	-4.44
245.729	-37.2
245.946	118.44
246.163	79.53
246.38	79.53
246.597	52.91
246.814	71.34
247.031	36.52
247.248	118.44
247.464	69.29
247.681	1.71
247.898	120.49
248.115	38.57
248.332	-10.58
248.549	32.43
248.766	59.05
248.983	83.63
249.2	102.06
249.417	67.24
249.633	46.76
249.85	5.8
250.067	32.43
250.284	7.85
250.501	108.2
250.717	18.09
250.934	-6.49
251.151	83.63
251.368	1.71
251.585	63.15
251.801	50.86
252.018	114.34
252.235	100.01
252.451	-80.21
252.668	57
252.885	79.53
253.102	-53.59
253.318	46.76
253.535	30.38
253.752	79.53
253.968	-8.53
254.185	-45.4
254.401	28.33
254.618	-16.73
254.835	-12.63
255.051	69.29
255.268	48.81
255.484	75.43
255.701	48.81
255.917	52.91
256.134	-4.44
256.351	93.87
256.567	77.48
256.784	22.19
257	40.62
257.217	85.67
257.433	87.72
257.65	38.57
257.866	16.04
258.082	-8.53
258.299	61.1
258.515	34.47
258.732	18.09
258.948	-31.06
259.165	104.11
259.381	-0.34
259.597	3.75
259.814	77.48
260.03	46.76
260.246	81.58
260.463	77.48
260.679	97.96
260.895	59.05
261.112	52.91
261.328	24.23
261.544	-26.96
261.761	75.43
261.977	95.91
262.193	34.47
262.409	32.43
262.626	7.85
262.842	16.04
263.058	28.33
263.274	52.91
263.49	102.06
263.707	9.9
263.923	48.81
264.139	34.47
264.355	54.95
264.571	87.72
264.787	57
265.004	95.91
265.22	48.81
265.436	59.05
265.652	52.91
265.868	42.67
266.084	11.95
266.3	42.67
266.516	-51.54
266.732	48.81
266.948	-4.44
267.164	13.99
267.38	7.85
267.596	22.19
267.812	75.43
268.028	-8.53
268.244	-61.78
268.46	71.34
268.676	73.39
268.892	50.86
269.108	77.48
269.324	85.67
269.54	-55.64
269.756	42.67
269.972	1.71
270.188	48.81
270.403	50.86
270.619	44.71
270.835	3.75
271.051	46.76
271.267	50.86
271.483	-2.39
271.698	36.52
271.914	18.09
272.13	89.77
272.346	34.47
272.562	116.39
272.777	32.43
272.993	1.71
273.209	-14.68
273.425	48.81
273.64	28.33
273.856	65.19
274.072	77.48
274.287	-41.3
274.503	34.47
274.719	20.14
274.934	18.09
275.15	20.14
275.366	46.76
275.581	75.43
275.797	18.09
276.012	57
276.228	-14.68
276.444	32.43
276.659	46.76
276.875	32.43
277.09	42.67
277.306	50.86
277.521	89.77
277.737	59.05
277.952	69.29
278.168	54.95
278.383	57
278.599	91.82
278.814	5.8
279.03	54.95
279.245	104.11
279.461	20.14
279.676	-10.58
279.892	-8.53
280.107	61.1
280.322	18.09
280.538	100.01
280.753	65.19
280.969	20.14
281.184	11.95
281.399	34.47
281.615	79.53
281.83	91.82
282.045	5.8
282.26	11.95
282.476	-24.92
282.691	75.43
282.906	-33.11
283.122	48.81
283.337	-6.49
283.552	28.33
283.767	-14.68
283.983	112.3
284.198	63.15
284.413	77.48
284.628	67.24
284.843	61.1
285.058	108.2
285.274	52.91
285.489	7.85
285.704	9.9
285.919	32.43
286.134	18.09
286.349	16.04
286.564	36.52
286.779	114.34
286.995	16.04
287.21	-57.68
287.425	73.39
287.64	5.8
287.855	13.99
288.07	-4.44
288.285	106.15
288.5	46.76
288.715	16.04
288.93	83.63
289.145	5.8
289.36	16.04
289.575	77.48
289.79	46.76
290.004	26.28
290.219	87.72
290.434	79.53
290.649	73.39
290.864	-10.58
291.079	50.86
291.294	34.47
291.509	30.38
291.724	24.23
291.938	-14.68
292.153	18.09
292.368	59.05
292.583	67.24
292.798	73.39
293.012	1.71
293.227	40.62
293.442	-14.68
293.657	18.09
293.871	46.76
294.086	85.67
294.301	28.33
294.516	85.67
294.73	40.62
294.945	20.14
295.16	87.72
295.374	63.15
295.589	48.81
295.804	71.34
296.018	20.14
296.233	87.72
296.447	5.8
296.662	-24.92
296.877	-0.34
297.091	24.23
297.306	-16.73
297.52	30.38
297.735	87.72
297.949	24.23
298.164	28.33
298.378	-35.16
298.593	26.28
298.807	-12.63
299.022	54.95
299.236	59.05
299.451	-16.73
299.665	36.52
299.88	77.48
300.094	73.39
300.309	71.34
300.523	69.29
300.737	-2.39
300.952	69.29
301.166	3.75
301.381	61.1
301.595	34.47
301.809	81.58
302.024	52.91
302.238	77.48
302.452	108.2
302.667	9.9
302.881	61.1
303.095	85.67
303.309	83.63
303.524	97.96
303.738	32.43
303.952	38.57
304.166	61.1
304.381	-26.96
304.595	79.53
304.809	48.81
305.023	-10.58
305.237	20.14
305.452	59.05
305.666	167.59
305.88	57
306.094	106.15
306.308	57
306.522	48.81
306.736	13.99
306.95	67.24
307.164	93.87
307.379	114.34
307.593	120.49
307.807	87.72
308.021	67.24
308.235	-6.49
308.449	7.85
308.663	40.62
308.877	97.96
309.091	-24.92
309.305	67.24
309.519	48.81
309.733	73.39
309.947	89.77
310.161	7.85
310.374	24.23
310.588	48.81
310.802	32.43
311.016	48.81
311.23	118.44
311.444	-2.39
311.658	26.28
311.872	59.05
312.085	50.86
312.299	97.96
312.513	79.53
312.727	106.15
312.941	52.91
313.154	54.95
313.368	30.38
313.582	20.14
313.796	52.91
314.009	13.99
314.223	95.91
314.437	-24.92
314.651	40.62
314.864	44.71
315.078	5.8
315.292	28.33
315.505	18.09
315.719	48.81
315.933	50.86
316.146	87.72
316.36	52.91
316.573	59.05
316.787	22.19
317.001	38.57
317.214	5.8
317.428	46.76
317.641	3.75
317.855	26.28
318.068	46.76
318.282	73.39
318.495	87.72
318.709	-2.39
318.922	7.85
319.136	13.99
319.349	38.57
319.563	73.39
319.776	59.05
319.99	-49.49
320.203	71.34
320.417	11.95
320.63	38.57
320.843	63.15
321.057	69.29
321.27	63.15
321.483	54.95
321.697	128.68
321.91	-26.96
322.124	63.15
322.337	20.14
322.55	40.62
322.763	54.95
322.977	97.96
323.19	-41.3
323.403	59.05
323.617	18.09
323.83	42.67
324.043	13.99
324.256	-2.39
324.469	26.28
324.683	130.73
324.896	65.19
325.109	26.28
325.322	32.43
325.535	32.43
325.748	112.3
325.962	5.8
326.175	26.28
326.388	7.85
326.601	34.47
326.814	63.15
327.027	77.48
327.24	147.11
327.453	1.71
327.666	63.15
327.879	93.87
328.092	40.62
328.305	59.05
328.518	-22.87
328.731	1.71
328.944	30.38
329.157	20.14
329.37	69.29
329.583	18.09
329.796	46.76
330.009	54.95
330.222	91.82
330.435	100.01
330.648	63.15
330.861	124.58
331.073	28.33
331.286	42.67
331.499	57
331.712	-2.39
331.925	83.63
332.138	52.91
332.35	65.19
332.563	52.91
332.776	3.75
332.989	73.39
333.202	40.62
333.414	108.2
333.627	124.58
333.84	46.76
334.053	46.76
334.265	83.63
334.478	-10.58
334.691	42.67
334.903	34.47
335.116	63.15
335.329	114.34
335.541	20.14
335.754	54.95
335.966	83.63
336.179	59.05
336.392	18.09
336.604	85.67
336.817	-18.77
337.029	50.86
337.242	71.34
337.454	138.92
337.667	71.34
337.88	93.87
338.092	69.29
338.305	91.82
338.517	5.8
338.729	52.91
338.942	30.38
339.154	3.75
339.367	61.1
339.579	54.95
339.792	42.67
340.004	57
340.217	48.81
340.429	38.57
340.641	38.57
340.854	155.3
341.066	18.09
341.278	85.67
341.491	116.39
341.703	50.86
341.915	24.23
342.128	52.91
342.34	104.11
342.552	46.76
342.764	46.76
342.977	26.28
343.189	40.62
343.401	50.86
343.613	1.71
343.826	54.95
344.038	46.76
344.25	57
344.462	13.99
344.674	73.39
344.886	28.33
345.099	13.99
345.311	87.72
345.523	59.05
345.735	-33.11
345.947	114.34
346.159	-24.92
346.371	65.19
346.583	57
346.795	106.15
347.007	-63.83
347.219	40.62
347.431	34.47
347.643	120.49
347.855	26.28
348.067	106.15
348.279	44.71
348.491	26.28
348.703	40.62
348.915	34.47
349.127	73.39
349.339	97.96
349.551	-18.77
349.763	85.67
349.975	-22.87
350.187	118.44
350.399	67.24
350.61	50.86
350.822	81.58
351.034	32.43
351.246	32.43
351.458	5.8
351.669	34.47
351.881	75.43
352.093	-4.44
352.305	91.82
352.517	79.53
352.728	108.2
352.94	-6.49
353.152	112.3
353.363	44.71
353.575	38.57
353.787	59.05
353.999	57
354.21	116.39
354.422	30.38
354.633	13.99
354.845	104.11
355.057	118.44
355.268	89.77
355.48	-24.92
355.692	-41.3
355.903	63.15
356.115	7.85
356.326	-2.39
356.538	153.26
356.749	102.06
356.961	42.67
357.172	1.71
357.384	26.28
357.595	97.96
357.807	106.15
358.018	24.23
358.23	134.82
358.441	63.15
358.653	95.91
358.864	40.62
359.075	40.62
359.287	87.72
359.498	120.49
359.709	71.34
359.921	57
360.132	38.57
360.344	65.19
360.555	79.53
360.766	24.23
360.977	13.99
361.189	81.58
361.4	16.04
361.611	22.19
361.823	61.1
362.034	75.43
362.245	32.43
362.456	36.52
362.667	69.29
362.879	40.62
363.09	61.1
363.301	44.71
363.512	85.67
363.723	79.53
363.935	5.8
364.146	42.67
364.357	30.38
364.568	130.73
364.779	5.8
364.99	67.24
365.201	-35.16
365.412	149.16
365.623	-4.44
365.834	89.77
366.045	34.47
366.256	34.47
366.467	24.23
366.678	28.33
366.889	-6.49
367.1	-10.58
367.311	42.67
367.522	18.09
367.733	77.48
367.944	28.33
368.155	-22.87
368.366	13.99
368.577	22.19
368.788	28.33
368.999	46.76
369.209	93.87
369.42	102.06
369.631	89.77
369.842	73.39
370.053	38.57
370.264	30.38
370.474	91.82
370.685	-35.16
370.896	71.34
371.107	54.95
371.317	65.19
371.528	22.19
371.739	132.78
371.95	87.72
372.16	38.57
372.371	7.85
372.582	75.43
372.792	93.87
373.003	57
373.214	26.28
373.424	71.34
373.635	-55.64
373.846	40.62
374.056	11.95
374.267	81.58
374.477	65.19
374.688	38.57
374.898	48.81
375.109	28.33
375.319	69.29
375.53	100.01
375.74	89.77
375.951	81.58
376.161	-26.96
376.372	147.11
376.582	93.87
376.793	54.95
377.003	-41.3
377.214	-2.39
377.424	126.63
377.635	16.04
377.845	89.77
378.055	106.15
378.266	61.1
378.476	54.95
378.686	79.53
378.897	112.3
379.107	44.71
379.317	22.19
379.528	11.95
379.738	63.15
379.948	-2.39
380.158	79.53
380.369	24.23
380.579	95.91
380.789	32.43
380.999	71.34
381.21	63.15
381.42	93.87
381.63	13.99
381.84	128.68
382.05	7.85
382.261	26.28
382.471	85.67
382.681	91.82
382.891	26.28
383.101	32.43
383.311	42.67
383.521	69.29
383.731	114.34
383.941	112.3
384.151	32.43
384.361	87.72
384.571	48.81
384.781	73.39
384.991	102.06
385.201	140.97
385.411	57
385.621	108.2
385.831	52.91
386.041	77.48
386.251	63.15
386.461	134.82
386.671	50.86
386.881	67.24
387.091	40.62
387.301	81.58
387.511	108.2
387.72	36.52
387.93	116.39
388.14	22.19
388.35	116.39
388.56	106.15
388.769	79.53
388.979	48.81
389.189	57
389.399	77.48
389.609	100.01
389.818	63.15
390.028	114.34
390.238	34.47
390.447	28.33
390.657	57
390.867	91.82
391.076	7.85
391.286	75.43
391.496	44.71
391.705	93.87
391.915	89.77
392.125	79.53
392.334	59.05
392.544	44.71
392.753	42.67
392.963	61.1
393.172	77.48
393.382	63.15
393.591	110.25
393.801	28.33
394.01	116.39
394.22	145.06
394.429	73.39
394.639	38.57
394.848	100.01
395.058	40.62
395.267	59.05
395.477	75.43
395.686	65.19
395.895	143.02
396.105	173.74
396.314	130.73
396.524	40.62
396.733	108.2
396.942	108.2
397.152	85.67
397.361	93.87
397.57	108.2
397.78	104.11
397.989	57
398.198	151.21
398.407	79.53
398.617	59.05
398.826	89.77
399.035	81.58
399.244	171.69
399.453	138.92
399.663	143.02
399.872	77.48
400.081	77.48
400.29	202.41
400.499	128.68
400.708	104.11
400.917	44.71
401.127	118.44
401.336	102.06
401.545	102.06
401.754	143.02
401.963	179.88
402.172	126.63
402.381	20.14
402.59	126.63
402.799	194.22
403.008	177.83
403.217	128.68
403.426	120.49
403.635	67.24
403.844	188.07
404.053	145.06
404.262	54.95
404.471	122.54
404.68	186.02
404.888	147.11
405.097	147.11
405.306	183.98
405.515	132.78
405.724	149.16
405.933	108.2
406.142	186.02
406.35	190.12
406.559	188.07
406.768	200.36
406.977	263.85
407.185	222.89
407.394	212.65
407.603	261.8
407.812	212.65
408.02	274.09
408.229	159.4
408.438	231.08
408.646	251.56
408.855	280.23
409.064	378.53
409.272	198.31
409.481	315.05
409.69	235.18
409.898	257.7
410.107	304.81
410.315	323.24
410.524	259.75
410.733	335.53
410.941	290.47
411.15	394.92
411.358	394.92
411.567	392.87
411.775	310.95
411.984	437.92
412.192	435.88
412.401	396.96
412.609	478.88
412.818	491.17
413.026	470.69
413.234	497.32
413.443	603.81
413.651	523.94
413.86	564.9
414.068	601.76
414.276	667.3
414.485	562.85
414.693	726.69
414.901	757.41
415.11	769.69
415.318	638.62
415.526	683.68
415.734	759.46
415.943	872.09
416.151	911
416.359	849.57
416.567	898.72
416.776	927.39
416.984	929.44
417.192	1011.36
417.4	1003.16
417.608	1005.21
417.817	1085.08
418.025	1140.38
418.233	1216.15
418.441	1244.82
418.649	1316.5
418.857	1289.88
419.065	1341.08
419.273	1373.85
419.481	1547.92
419.689	1549.97
419.897	1586.83
420.105	1580.69
420.313	1609.36
420.521	1742.48
420.729	1738.38
420.937	1810.06
421.145	1853.07
421.353	1904.27
421.561	2033.29
421.769	2164.36
421.977	2186.89
422.185	2041.48
422.393	2309.77
422.601	2279.05
422.809	2477.7
423.017	2397.83
423.224	2557.57
423.432	2686.59
423.64	2586.24
423.848	2958.97
424.056	2799.23
424.263	3047.04
424.471	3128.95
424.679	3184.25
424.887	3067.52
425.094	3307.13
425.302	3438.2
425.51	3348.09
425.718	3563.12
425.925	3538.55
426.133	3749.49
426.341	3972.72
426.548	4081.26
426.756	4177.51
426.964	4191.85
427.171	4327.02
427.379	4462.18
427.586	4540.01
427.794	4705.89
428.001	4849.25
428.209	5025.37
428.417	5115.48
428.624	5281.37
428.832	5381.72
429.039	5404.25
429.247	5324.38
429.454	5895.76
429.662	6420.04
429.869	5994.06
430.076	6325.83
430.284	6196.81
430.491	6510.15
430.699	6809.15
430.906	6764.1
431.114	6749.76
431.321	7272
431.528	7226.94
431.736	7724.6
431.943	7931.44
432.15	7849.52
432.358	7900.72
432.565	8367.66
432.772	8283.69
432.979	8848.93
433.187	9029.15
433.394	8951.33
433.601	9661.98
433.808	9614.87
434.016	9684.5
434.223	9917.97
434.43	10655.24
434.637	10618.38
434.844	11062.79
435.052	11048.45
435.259	11159.04
435.466	11193.86
435.673	10903.04
435.88	11724.28
436.087	12332.53
436.294	12426.73
436.501	12260.85
436.708	12609
436.915	12975.59
437.122	13512.16
437.329	13376.99
437.537	14015.96
437.743	14247.38
437.95	13983.19
438.157	14525.9
438.364	15123.91
438.571	15183.3
438.778	15218.11
438.985	16739.76
439.192	15939
439.399	16430.51
439.606	16248.24
439.813	17001.9
440.02	18159
440.227	17937.82
440.433	17798.56
440.64	18091.41
440.847	17989.02
441.054	18726.28
441.261	19889.53
441.467	19588.48
441.674	19903.87
441.881	20569.46
442.088	20612.46
442.294	20485.49
442.501	20784.49
442.708	21464.42
442.914	22596.95
443.121	23197
443.328	22482.26
443.534	24612.15
443.741	23565.64
443.948	23301.45
444.154	24892.72
444.361	24556.85
444.568	24784.18
444.774	24692.02
444.981	25355.56
445.187	26125.6
445.394	26791.19
445.6	26701.08
445.807	29320.43
446.013	28196.09
446.22	28331.26
446.426	30049.5
446.633	29863.14
446.839	30670.04
447.046	29269.23
447.252	31220.94
447.459	30999.76
447.665	31284.43
447.871	32955.57
448.078	34141.35
448.284	32380.09
448.491	33473.71
448.697	34657.43
448.903	34978.96
449.11	35435.66
449.316	34708.63
449.522	35282.06
449.728	36482.17
449.935	36615.29
450.141	36582.52
450.347	37717.1
450.553	36242.56
450.76	36373.63
450.966	37809.26
451.172	37364.85
451.378	38325.35
451.584	37653.61
451.791	38624.35
451.997	38296.67
452.203	39263.32
452.409	39545.94
452.615	39068.76
452.821	37563.5
453.027	37203.06
453.233	39089.24
453.44	37315.7
453.646	37844.07
453.852	38159.46
454.058	38720.6
454.264	38061.16
454.47	38263.91
454.676	37807.21
454.882	38560.86
455.088	35437.71
455.294	36007.05
455.5	36187.27
455.705	36519.04
455.911	35202.19
456.117	34403.49
456.323	34116.77
456.529	32478.4
456.735	33965.22
456.941	32857.27
457.147	32191.68
457.352	31253.71
457.558	31018.19
457.764	31376.59
457.97	30545.11
458.176	29940.96
458.381	29947.11
458.587	28161.28
458.793	28232.96
458.999	26756.37
459.204	28683.51
459.41	28103.93
459.616	26252.57
459.821	26592.53
460.027	26187.04
460.233	25380.14
460.438	24415.54
460.644	24376.63
460.85	23373.13
461.055	23061.83
461.261	23082.31
461.466	21288.29
461.672	20733.29
461.878	21941.6
462.083	20948.33
462.289	20317.56
462.494	20045.18
462.7	19182.98
462.905	18691.47
463.111	19297.67
463.316	19742.08
463.522	19004.81
463.727	18898.31
463.932	19025.29
464.138	19031.43
464.343	18965.9
464.549	18355.6
464.754	18697.61
464.959	18929.03
465.165	18800.01
465.37	18163.09
465.575	17597.85
465.781	18212.24
465.986	18189.72
466.191	17495.46
466.397	17092.01
466.602	16430.51
466.807	17022.37
467.012	16975.27
467.218	16981.42
467.423	16909.74
467.628	16827.82
467.833	17640.86
