Data from USB4F104151__3__12-40-52-168.txt Node

Date: Fri Mar 14 12:40:52 EDT 2025
User: louis
Spectrometer: USB4F10415
Trigger mode: 4
Integration Time (sec): 3.000000E-2
Scans to average: 1
Electric dark correction enabled: true
Nonlinearity correction enabled: false
Boxcar width: 0
XAxis mode: Wavelengths
Number of Pixels in Spectrum: 3648
>>>>>Begin Spectral Data<<<<<
178.204	-86.7
178.424	-86.7
178.644	-86.7
178.864	-58.03
179.084	-51.88
179.304	13.65
179.524	95.57
179.744	-33.45
179.964	-23.21
180.184	-10.92
180.404	17.75
180.624	-39.59
180.844	46.42
181.064	-58.03
181.283	52.56
181.503	-80.55
181.723	19.8
181.943	3.41
182.163	-6.83
182.383	30.04
182.602	120.15
182.822	95.57
183.042	-33.45
183.262	-15.02
183.482	60.76
183.701	1.37
183.921	27.99
184.141	81.24
184.361	99.67
184.58	23.89
184.8	56.66
185.02	54.61
185.239	48.47
185.459	64.85
185.679	50.52
185.898	-21.16
186.118	97.62
186.338	109.91
186.557	50.52
186.777	62.8
186.997	15.7
187.216	46.42
187.436	73.04
187.655	124.24
187.875	73.04
188.095	7.51
188.314	50.52
188.534	54.61
188.753	15.7
188.973	142.68
189.192	54.61
189.412	44.37
189.631	15.7
189.851	25.94
190.07	81.24
190.29	-0.68
190.509	32.08
190.729	-4.78
190.948	60.76
191.168	111.96
191.387	42.32
191.607	-51.88
191.826	11.61
192.045	95.57
192.265	99.67
192.484	-4.78
192.704	30.04
192.923	52.56
193.142	87.38
193.362	38.23
193.581	163.15
193.8	40.28
194.02	38.23
194.239	1.37
194.458	44.37
194.678	38.23
194.897	3.41
195.116	54.61
195.335	62.8
195.555	48.47
195.774	-88.75
195.993	60.76
196.212	13.65
196.432	25.94
196.651	-4.78
196.87	60.76
197.089	79.19
197.308	75.09
197.528	-4.78
197.747	17.75
197.966	3.41
198.185	83.28
198.404	44.37
198.623	46.42
198.842	48.47
199.062	32.08
199.281	103.76
199.5	48.47
199.719	64.85
199.938	66.9
200.157	48.47
200.376	87.38
200.595	44.37
200.814	11.61
201.033	-74.41
201.252	44.37
201.471	21.85
201.69	66.9
201.909	36.18
202.128	25.94
202.347	103.76
202.566	73.04
202.785	34.13
203.004	146.77
203.223	93.52
203.442	7.51
203.661	-15.02
203.879	-53.93
204.098	124.24
204.317	3.41
204.536	109.91
204.755	134.48
204.974	77.14
205.193	109.91
205.411	148.82
205.63	132.44
205.849	48.47
206.068	1.37
206.287	1.37
206.505	46.42
206.724	-2.73
206.943	27.99
207.162	46.42
207.381	23.89
207.599	124.24
207.818	34.13
208.037	93.52
208.255	60.76
208.474	52.56
208.693	19.8
208.911	1.37
209.13	75.09
209.349	34.13
209.567	56.66
209.786	77.14
210.005	73.04
210.223	50.52
210.442	52.56
210.661	-2.73
210.879	-12.97
211.098	30.04
211.316	42.32
211.535	32.08
211.753	75.09
211.972	83.28
212.191	34.13
212.409	64.85
212.628	52.56
212.846	-39.59
213.065	140.63
213.283	34.13
213.502	30.04
213.72	30.04
213.938	-17.07
214.157	50.52
214.375	-10.92
214.594	17.75
214.812	87.38
215.031	52.56
215.249	50.52
215.467	91.48
215.686	85.33
215.904	103.76
216.122	79.19
216.341	34.13
216.559	126.29
216.778	64.85
216.996	93.52
217.214	99.67
217.432	77.14
217.651	13.65
217.869	21.85
218.087	101.72
218.306	-31.4
218.524	50.52
218.742	109.91
218.96	66.9
219.179	-21.16
219.397	13.65
219.615	52.56
219.833	81.24
220.051	-4.78
220.27	99.67
220.488	21.85
220.706	68.95
220.924	38.23
221.142	66.9
221.36	81.24
221.578	64.85
221.796	48.47
222.015	73.04
222.233	54.61
222.451	36.18
222.669	3.41
222.887	52.56
223.105	116.05
223.323	32.08
223.541	-4.78
223.759	-74.41
223.977	58.71
224.195	111.96
224.413	58.71
224.631	32.08
224.849	7.51
225.067	126.29
225.285	36.18
225.503	44.37
225.721	-31.4
225.939	15.7
226.157	34.13
226.375	130.39
226.592	36.18
226.81	56.66
227.028	130.39
227.246	103.76
227.464	5.46
227.682	89.43
227.9	25.94
228.117	66.9
228.335	62.8
228.553	9.56
228.771	7.51
228.989	101.72
229.206	64.85
229.424	-21.16
229.642	9.56
229.86	36.18
230.077	36.18
230.295	83.28
230.513	77.14
230.731	111.96
230.948	-21.16
231.166	-43.69
231.384	15.7
231.601	1.37
231.819	136.53
232.037	21.85
232.254	-15.02
232.472	30.04
232.689	9.56
232.907	54.61
233.125	42.32
233.342	15.7
233.56	64.85
233.777	5.46
233.995	36.18
234.213	54.61
234.43	114
234.648	25.94
234.865	30.04
235.083	34.13
235.3	56.66
235.518	52.56
235.735	-4.78
235.953	44.37
236.17	54.61
236.388	44.37
236.605	64.85
236.822	27.99
237.04	34.13
237.257	11.61
237.475	-45.74
237.692	-43.69
237.909	75.09
238.127	52.56
238.344	30.04
238.562	60.76
238.779	30.04
238.996	77.14
239.214	56.66
239.431	62.8
239.648	-45.74
239.865	83.28
240.083	32.08
240.3	71
240.517	34.13
240.735	64.85
240.952	97.62
241.169	15.7
241.386	68.95
241.603	17.75
241.821	-12.97
242.038	77.14
242.255	3.41
242.472	109.91
242.689	107.86
242.907	81.24
243.124	44.37
243.341	66.9
243.558	54.61
243.775	11.61
243.992	48.47
244.209	23.89
244.426	81.24
244.643	83.28
244.86	87.38
245.078	1.37
245.295	36.18
245.512	15.7
245.729	-17.07
245.946	34.13
246.163	73.04
246.38	99.67
246.597	1.37
246.814	107.86
247.031	81.24
247.248	68.95
247.464	66.9
247.681	17.75
247.898	25.94
248.115	17.75
248.332	-6.83
248.549	111.96
248.766	109.91
248.983	118.1
249.2	68.95
249.417	68.95
249.633	17.75
249.85	73.04
250.067	60.76
250.284	58.71
250.501	118.1
250.717	34.13
250.934	-29.35
251.151	52.56
251.368	-12.97
251.585	21.85
251.801	101.72
252.018	44.37
252.235	60.76
252.451	44.37
252.668	-17.07
252.885	38.23
253.102	83.28
253.318	60.76
253.535	11.61
253.752	17.75
253.968	46.42
254.185	-80.55
254.401	-10.92
254.618	91.48
254.835	62.8
255.051	132.44
255.268	122.2
255.484	81.24
255.701	32.08
255.917	124.24
256.134	13.65
256.351	34.13
256.567	-4.78
256.784	7.51
257	-49.83
257.217	107.86
257.433	52.56
257.65	38.23
257.866	25.94
258.082	19.8
258.299	50.52
258.515	126.29
258.732	23.89
258.948	48.47
259.165	-4.78
259.381	38.23
259.597	83.28
259.814	56.66
260.03	87.38
260.246	77.14
260.463	58.71
260.679	36.18
260.895	103.76
261.112	99.67
261.328	-41.64
261.544	11.61
261.761	128.34
261.977	56.66
262.193	30.04
262.409	148.82
262.626	71
262.842	66.9
263.058	-27.31
263.274	1.37
263.49	89.43
263.707	140.63
263.923	91.48
264.139	44.37
264.355	15.7
264.571	52.56
264.787	-15.02
265.004	27.99
265.22	44.37
265.436	107.86
265.652	23.89
265.868	50.52
266.084	17.75
266.3	85.33
266.516	32.08
266.732	91.48
266.948	27.99
267.164	-4.78
267.38	-2.73
267.596	54.61
267.812	7.51
268.028	-0.68
268.244	54.61
268.46	-4.78
268.676	75.09
268.892	93.52
269.108	1.37
269.324	-2.73
269.54	44.37
269.756	50.52
269.972	-37.55
270.188	-2.73
270.403	15.7
270.619	25.94
270.835	134.48
271.051	77.14
271.267	23.89
271.483	60.76
271.698	25.94
271.914	11.61
272.13	107.86
272.346	-55.98
272.562	-31.4
272.777	60.76
272.993	-19.11
273.209	34.13
273.425	81.24
273.64	36.18
273.856	9.56
274.072	79.19
274.287	27.99
274.503	97.62
274.719	15.7
274.934	44.37
275.15	-35.5
275.366	62.8
275.581	9.56
275.797	11.61
276.012	27.99
276.228	66.9
276.444	48.47
276.659	34.13
276.875	95.57
277.09	-2.73
277.306	52.56
277.521	159.06
277.737	71
277.952	134.48
278.168	52.56
278.383	107.86
278.599	50.52
278.814	50.52
279.03	73.04
279.245	73.04
279.461	99.67
279.676	68.95
279.892	73.04
280.107	48.47
280.322	27.99
280.538	109.91
280.753	44.37
280.969	17.75
281.184	54.61
281.399	83.28
281.615	58.71
281.83	77.14
282.045	27.99
282.26	27.99
282.476	42.32
282.691	130.39
282.906	27.99
283.122	-2.73
283.337	19.8
283.552	34.13
283.767	54.61
283.983	48.47
284.198	1.37
284.413	79.19
284.628	-12.97
284.843	34.13
285.058	130.39
285.274	9.56
285.489	44.37
285.704	68.95
285.919	21.85
286.134	77.14
286.349	56.66
286.564	95.57
286.779	79.19
286.995	54.61
287.21	-66.22
287.425	118.1
287.64	58.71
287.855	38.23
288.07	-0.68
288.285	93.52
288.5	171.35
288.715	68.95
288.93	81.24
289.145	42.32
289.36	130.39
289.575	75.09
289.79	58.71
290.004	34.13
290.219	138.58
290.434	44.37
290.649	62.8
290.864	1.37
291.079	19.8
291.294	38.23
291.509	44.37
291.724	116.05
291.938	3.41
292.153	97.62
292.368	85.33
292.583	-0.68
292.798	66.9
293.012	13.65
293.227	42.32
293.442	130.39
293.657	111.96
293.871	58.71
294.086	75.09
294.301	15.7
294.516	103.76
294.73	79.19
294.945	-2.73
295.16	21.85
295.374	50.52
295.589	56.66
295.804	77.14
296.018	30.04
296.233	111.96
296.447	87.38
296.662	27.99
296.877	140.63
297.091	107.86
297.306	60.76
297.52	81.24
297.735	40.28
297.949	68.95
298.164	66.9
298.378	64.85
298.593	5.46
298.807	83.28
299.022	54.61
299.236	68.95
299.451	62.8
299.665	79.19
299.88	11.61
300.094	52.56
300.309	46.42
300.523	152.92
300.737	124.24
300.952	118.1
301.166	52.56
301.381	34.13
301.595	27.99
301.809	-4.78
302.024	9.56
302.238	23.89
302.452	58.71
302.667	38.23
302.881	62.8
303.095	144.72
303.309	36.18
303.524	-2.73
303.738	11.61
303.952	-17.07
304.166	103.76
304.381	38.23
304.595	83.28
304.809	23.89
305.023	93.52
305.237	79.19
305.452	105.81
305.666	32.08
305.88	83.28
306.094	46.42
306.308	103.76
306.522	81.24
306.736	42.32
306.95	81.24
307.164	142.68
307.379	17.75
307.593	-10.92
307.807	89.43
308.021	85.33
308.235	52.56
308.449	56.66
308.663	122.2
308.877	50.52
309.091	101.72
309.305	48.47
309.519	5.46
309.733	83.28
309.947	27.99
310.161	122.2
310.374	-4.78
310.588	81.24
310.802	-0.68
311.016	142.68
311.23	124.24
311.444	36.18
311.658	50.52
311.872	48.47
312.085	128.34
312.299	52.56
312.513	48.47
312.727	21.85
312.941	15.7
313.154	25.94
313.368	66.9
313.582	120.15
313.796	66.9
314.009	71
314.223	23.89
314.437	101.72
314.651	3.41
314.864	66.9
315.078	-15.02
315.292	25.94
315.505	11.61
315.719	25.94
315.933	109.91
316.146	68.95
316.36	38.23
316.573	159.06
316.787	9.56
317.001	34.13
317.214	-23.21
317.428	107.86
317.641	-15.02
317.855	58.71
318.068	87.38
318.282	130.39
318.495	40.28
318.709	42.32
318.922	32.08
319.136	77.14
319.349	71
319.563	9.56
319.776	-29.35
319.99	21.85
320.203	75.09
320.417	64.85
320.63	62.8
320.843	83.28
321.057	56.66
321.27	11.61
321.483	101.72
321.697	73.04
321.91	46.42
322.124	64.85
322.337	40.28
322.55	107.86
322.763	36.18
322.977	58.71
323.19	36.18
323.403	32.08
323.617	1.37
323.83	68.95
324.043	54.61
324.256	73.04
324.469	27.99
324.683	87.38
324.896	-29.35
325.109	23.89
325.322	9.56
325.535	107.86
325.748	17.75
325.962	107.86
326.175	56.66
326.388	68.95
326.601	-6.83
326.814	32.08
327.027	46.42
327.24	148.82
327.453	60.76
327.666	23.89
327.879	25.94
328.092	114
328.305	1.37
328.518	111.96
328.731	-0.68
328.944	56.66
329.157	38.23
329.37	91.48
329.583	154.96
329.796	17.75
330.009	38.23
330.222	-2.73
330.435	11.61
330.648	75.09
330.861	68.95
331.073	66.9
331.286	83.28
331.499	75.09
331.712	50.52
331.925	89.43
332.138	85.33
332.35	52.56
332.563	-6.83
332.776	77.14
332.989	38.23
333.202	13.65
333.414	83.28
333.627	-0.68
333.84	64.85
334.053	25.94
334.265	60.76
334.478	15.7
334.691	85.33
334.903	58.71
335.116	56.66
335.329	68.95
335.541	91.48
335.754	68.95
335.966	83.28
336.179	66.9
336.392	83.28
336.604	44.37
336.817	32.08
337.029	-6.83
337.242	124.24
337.454	52.56
337.667	77.14
337.88	97.62
338.092	36.18
338.305	93.52
338.517	27.99
338.729	15.7
338.942	56.66
339.154	19.8
339.367	97.62
339.579	75.09
339.792	60.76
340.004	73.04
340.217	25.94
340.429	58.71
340.641	-19.11
340.854	38.23
341.066	62.8
341.278	136.53
341.491	97.62
341.703	97.62
341.915	-23.21
342.128	71
342.34	-12.97
342.552	25.94
342.764	128.34
342.977	107.86
343.189	77.14
343.401	60.76
343.613	7.51
343.826	62.8
344.038	36.18
344.25	-0.68
344.462	34.13
344.674	107.86
344.886	109.91
345.099	42.32
345.311	71
345.523	91.48
345.735	87.38
345.947	99.67
346.159	44.37
346.371	54.61
346.583	109.91
346.795	54.61
347.007	60.76
347.219	87.38
347.431	-12.97
347.643	52.56
347.855	25.94
348.067	73.04
348.279	83.28
348.491	93.52
348.703	23.89
348.915	11.61
349.127	85.33
349.339	93.52
349.551	68.95
349.763	83.28
349.975	60.76
350.187	101.72
350.399	116.05
350.61	-4.78
350.822	38.23
351.034	73.04
351.246	99.67
351.458	46.42
351.669	93.52
351.881	97.62
352.093	107.86
352.305	101.72
352.517	7.51
352.728	130.39
352.94	105.81
353.152	73.04
353.363	95.57
353.575	40.28
353.787	120.15
353.999	101.72
354.21	99.67
354.422	25.94
354.633	126.29
354.845	60.76
355.057	7.51
355.268	48.47
355.48	89.43
355.692	107.86
355.903	189.78
356.115	87.38
356.326	44.37
356.538	122.2
356.749	42.32
356.961	120.15
357.172	5.46
357.384	7.51
357.595	134.48
357.807	42.32
358.018	120.15
358.23	75.09
358.441	95.57
358.653	42.32
358.864	97.62
359.075	116.05
359.287	34.13
359.498	124.24
359.709	66.9
359.921	23.89
360.132	75.09
360.344	46.42
360.555	32.08
360.766	-4.78
360.977	107.86
361.189	62.8
361.4	99.67
361.611	75.09
361.823	148.82
362.034	75.09
362.245	60.76
362.456	50.52
362.667	50.52
362.879	54.61
363.09	142.68
363.301	91.48
363.512	77.14
363.723	54.61
363.935	32.08
364.146	134.48
364.357	-2.73
364.568	97.62
364.779	91.48
364.99	81.24
365.201	89.43
365.412	48.47
365.623	75.09
365.834	89.43
366.045	146.77
366.256	54.61
366.467	73.04
366.678	56.66
366.889	85.33
367.1	66.9
367.311	97.62
367.522	77.14
367.733	157.01
367.944	97.62
368.155	30.04
368.366	58.71
368.577	140.63
368.788	30.04
368.999	44.37
369.209	101.72
369.42	54.61
369.631	136.53
369.842	56.66
370.053	132.44
370.264	122.2
370.474	5.46
370.685	167.25
370.896	54.61
371.107	54.61
371.317	107.86
371.528	64.85
371.739	93.52
371.95	111.96
372.16	103.76
372.371	81.24
372.582	91.48
372.792	95.57
373.003	89.43
373.214	97.62
373.424	116.05
373.635	56.66
373.846	38.23
374.056	75.09
374.267	-0.68
374.477	52.56
374.688	81.24
374.898	87.38
375.109	27.99
375.319	73.04
375.53	79.19
375.74	25.94
375.951	34.13
376.161	101.72
376.372	46.42
376.582	60.76
376.793	124.24
377.003	83.28
377.214	101.72
377.424	56.66
377.635	56.66
377.845	56.66
378.055	111.96
378.266	107.86
378.476	68.95
378.686	68.95
378.897	93.52
379.107	87.38
379.317	87.38
379.528	60.76
379.738	66.9
379.948	50.52
380.158	27.99
380.369	89.43
380.579	150.87
380.789	21.85
380.999	79.19
381.21	116.05
381.42	91.48
381.63	-19.11
381.84	3.41
382.05	87.38
382.261	140.63
382.471	107.86
382.681	103.76
382.891	66.9
383.101	109.91
383.311	-2.73
383.521	136.53
383.731	132.44
383.941	107.86
384.151	62.8
384.361	62.8
384.571	93.52
384.781	79.19
384.991	89.43
385.201	114
385.411	85.33
385.621	132.44
385.831	77.14
386.041	56.66
386.251	89.43
386.461	83.28
386.671	128.34
386.881	54.61
387.091	81.24
387.301	93.52
387.511	91.48
387.72	97.62
387.93	42.32
388.14	40.28
388.35	128.34
388.56	130.39
388.769	73.04
388.979	91.48
389.189	75.09
389.399	93.52
389.609	95.57
389.818	77.14
390.028	116.05
390.238	142.68
390.447	99.67
390.657	159.06
390.867	52.56
391.076	34.13
391.286	101.72
391.496	144.72
391.705	154.96
391.915	144.72
392.125	95.57
392.334	52.56
392.544	120.15
392.753	116.05
392.963	19.8
393.172	124.24
393.382	79.19
393.591	116.05
393.801	165.2
394.01	128.34
394.22	83.28
394.429	58.71
394.639	120.15
394.848	138.58
395.058	50.52
395.267	25.94
395.477	101.72
395.686	173.39
395.895	136.53
396.105	191.83
396.314	148.82
396.524	114
396.733	173.39
396.942	157.01
397.152	140.63
397.361	146.77
397.57	81.24
397.78	130.39
397.989	152.92
398.198	124.24
398.407	116.05
398.617	177.49
398.826	79.19
399.035	132.44
399.244	124.24
399.453	142.68
399.663	161.11
399.872	175.44
400.081	99.67
400.29	177.49
400.499	124.24
400.708	114
400.917	114
401.127	150.87
401.336	114
401.545	279.89
401.754	152.92
401.963	165.2
402.172	85.33
402.381	169.3
402.59	140.63
402.799	226.64
403.008	200.02
403.217	161.11
403.426	197.97
403.635	122.2
403.844	189.78
404.053	157.01
404.262	183.63
404.471	202.07
404.68	212.31
404.888	146.77
405.097	159.06
405.306	267.6
405.515	157.01
405.724	187.73
405.933	216.4
406.142	277.84
406.35	210.26
406.559	275.79
406.768	251.22
406.977	296.27
407.185	243.03
407.394	257.36
407.603	245.07
407.812	243.03
408.02	324.94
408.229	216.4
408.438	283.99
408.646	226.64
408.855	251.22
409.064	468.3
409.272	408.91
409.481	353.62
409.69	367.95
409.898	361.81
410.107	441.68
410.315	398.67
410.524	470.35
410.733	468.3
410.941	451.92
411.15	413.01
411.358	492.88
411.567	585.04
411.775	597.32
411.984	539.98
412.192	574.8
412.401	609.61
412.609	529.74
412.818	650.57
413.026	666.96
413.234	722.25
413.443	669
413.651	609.61
413.86	675.15
414.068	861.51
414.276	836.94
414.485	777.55
414.693	869.7
414.901	968.01
415.11	941.38
415.318	914.76
415.526	1021.25
415.734	1011.01
415.943	1099.08
416.151	1049.93
416.359	1142.08
416.567	1168.71
416.776	1244.48
416.984	1260.87
417.192	1328.45
417.4	1318.21
417.608	1391.94
417.817	1312.07
418.025	1400.13
418.233	1572.16
418.441	1447.23
418.649	1523.01
418.857	1727.8
419.065	1623.36
419.273	1678.65
419.481	1830.2
419.689	1840.44
419.897	2051.38
420.105	2043.19
420.313	2061.62
420.521	2161.97
420.729	2186.55
420.937	2217.27
421.145	2387.25
421.353	2448.69
421.561	2563.37
421.769	2542.89
421.977	2792.75
422.185	2549.04
422.393	2800.94
422.601	3065.13
422.809	3022.12
423.017	3069.22
423.224	3128.61
423.432	3335.46
423.64	3351.84
423.848	3446.05
424.056	3345.7
424.263	3687.71
424.471	3697.95
424.679	3814.68
424.887	3982.62
425.094	4158.74
425.302	4095.25
425.51	4222.23
425.718	4398.35
425.925	4537.62
426.133	4721.93
426.341	5027.08
426.548	5102.86
426.756	5205.25
426.964	5262.6
427.171	5604.61
427.379	5825.79
427.586	5762.3
427.794	6022.39
428.001	6366.45
428.209	6593.78
428.417	6425.84
428.624	6882.54
428.832	6862.06
429.039	6823.15
429.247	6814.96
429.454	7572.71
429.662	8107.23
429.869	7466.21
430.076	8211.67
430.284	7802.08
430.491	8277.21
430.699	8619.22
430.906	8641.75
431.114	8723.66
431.321	9094.35
431.528	9315.53
431.736	9987.26
431.943	10355.9
432.15	9954.49
432.358	10212.54
432.565	10482.87
432.772	10396.85
432.979	11125.93
433.187	11226.28
433.394	11205.8
433.601	12332.19
433.808	12160.16
434.016	11973.79
434.223	12579.99
434.43	13368.46
434.637	12797.07
434.844	13812.87
435.052	14374.01
435.259	14240.89
435.466	14255.23
435.673	13950.08
435.88	15150.19
436.087	15879.27
436.294	15973.47
436.501	15752.29
436.708	16143.45
436.915	16385.12
437.122	17128.53
437.329	16856.15
437.537	17546.31
437.743	17790.02
437.95	17632.33
438.157	18789.43
438.364	19389.49
438.571	19246.13
438.778	19364.91
438.985	21238.8
439.192	20290.59
439.399	20952.09
439.606	20415.52
439.813	21595.15
440.02	23090.16
440.227	22627.32
440.433	22260.74
440.64	23081.97
440.847	22973.43
441.054	23684.08
441.261	24855.51
441.467	24675.29
441.674	25140.18
441.881	26356.68
442.088	25879.5
442.294	25818.06
442.501	26497.98
442.708	27192.25
442.914	28140.46
443.121	29250.45
443.328	29027.23
443.534	30778.24
443.741	29854.61
443.948	29457.3
444.154	31490.93
444.361	31140.73
444.568	31572.85
444.774	31654.77
444.981	31869.81
445.187	32633.7
445.394	34169.68
445.6	33727.31
445.807	37143.33
446.013	35412.79
446.22	35943.22
446.426	37557.02
446.633	37442.33
446.839	39084.8
447.046	37274.4
447.252	39906.04
447.459	39764.73
447.665	39506.68
447.871	41394.91
448.078	43078.34
448.284	40915.68
448.491	41833.18
448.697	43530.94
448.903	44405.42
449.11	44516.01
449.316	43676.35
449.522	44399.28
449.728	45757.08
449.935	46025.37
450.141	45759.13
450.347	47067.78
450.553	45697.69
450.76	46312.08
450.966	47805.05
451.172	46949
451.378	48398.96
451.584	47352.45
451.791	48740.97
451.997	48294.52
452.203	49379.94
452.409	49369.7
452.615	49138.28
452.821	47665.79
453.027	46772.88
453.233	49267.3
453.44	47108.74
453.646	48093.82
453.852	47782.52
454.058	49261.16
454.264	47403.65
454.47	48429.68
454.676	47245.96
454.882	48900.72
455.088	44530.35
455.294	45279.91
455.5	45867.67
455.705	46416.53
455.911	44989.09
456.117	44161.72
456.323	43070.15
456.529	41319.13
456.735	42595.02
456.941	41867.99
457.147	41276.13
457.352	39940.85
457.558	39521.02
457.764	39445.24
457.97	38705.93
458.176	38044.43
458.381	37899.03
458.587	36451.11
458.793	36305.71
458.999	34411.34
459.204	36490.02
459.41	35345.21
459.616	33538.9
459.821	33407.83
460.027	33385.3
460.233	32648.04
460.438	30925.69
460.644	31361.91
460.85	29787.02
461.055	29459.35
461.261	29424.53
461.466	27374.52
461.672	26428.35
461.878	28091.3
462.083	26538.94
462.289	25777.1
462.494	25623.5
462.7	24462.3
462.905	24054.76
463.111	24656.86
463.316	24886.23
463.522	24083.43
463.727	24171.49
463.932	24288.23
464.138	23991.27
464.343	24241.12
464.549	23477.23
464.754	24245.22
464.959	23958.5
465.165	23745.51
465.37	22807.55
465.575	22178.82
465.781	23139.32
465.986	23393.26
466.191	22318.08
466.397	22027.27
466.602	20798.49
466.807	21976.07
