Data from USB4F104151__24__12-41-08-365.txt Node

Date: Fri Mar 14 12:41:08 EDT 2025
User: louis
Spectrometer: USB4F10415
Trigger mode: 4
Integration Time (sec): 3.000000E-2
Scans to average: 1
Electric dark correction enabled: true
Nonlinearity correction enabled: false
Boxcar width: 0
XAxis mode: Wavelengths
Number of Pixels in Spectrum: 3648
>>>>>Begin Spectral Data<<<<<
178.204	-188.75
178.424	-188.75
178.644	-188.75
178.864	-188.75
179.084	-119.12
179.304	-31.06
179.524	22.19
179.744	3.75
179.964	32.43
180.184	-24.92
180.404	32.43
180.624	-41.3
180.844	-22.87
181.064	48.81
181.283	-10.58
181.503	-80.21
181.723	71.34
181.943	-80.21
182.163	73.39
182.383	59.05
182.602	50.86
182.822	52.91
183.042	63.15
183.262	-10.58
183.482	-2.39
183.701	-26.96
183.921	-55.64
184.141	-53.59
184.361	22.19
184.58	-37.2
184.8	11.95
185.02	-22.87
185.239	-20.82
185.459	57
185.679	57
185.898	-37.2
186.118	28.33
186.338	-24.92
186.557	48.81
186.777	-59.73
186.997	-55.64
187.216	-53.59
187.436	91.82
187.655	-4.44
187.875	26.28
188.095	52.91
188.314	46.76
188.534	40.62
188.753	9.9
188.973	5.8
189.192	77.48
189.412	-26.96
189.631	22.19
189.851	-12.63
190.07	20.14
190.29	-45.4
190.509	-49.49
190.729	5.8
190.948	5.8
191.168	120.49
191.387	95.91
191.607	13.99
191.826	-6.49
192.045	59.05
192.265	9.9
192.484	3.75
192.704	-37.2
192.923	18.09
193.142	91.82
193.362	-12.63
193.581	67.24
193.8	-24.92
194.02	46.76
194.239	32.43
194.458	34.47
194.678	28.33
194.897	-26.96
195.116	7.85
195.335	11.95
195.555	-53.59
195.774	-16.73
195.993	-12.63
196.212	38.57
196.432	28.33
196.651	-10.58
196.87	-35.16
197.089	100.01
197.308	40.62
197.528	63.15
197.747	-55.64
197.966	-6.49
198.185	63.15
198.404	-24.92
198.623	-0.34
198.842	-43.35
199.062	67.24
199.281	42.67
199.5	34.47
199.719	50.86
199.938	-61.78
200.157	42.67
200.376	44.71
200.595	1.71
200.814	-24.92
201.033	-55.64
201.252	40.62
201.471	30.38
201.69	-12.63
201.909	44.71
202.128	-8.53
202.347	22.19
202.566	7.85
202.785	65.19
203.004	-6.49
203.223	46.76
203.442	-24.92
203.661	-47.44
203.879	-26.96
204.098	30.38
204.317	-57.68
204.536	50.86
204.755	28.33
204.974	149.16
205.193	-37.2
205.411	73.39
205.63	18.09
205.849	22.19
206.068	38.57
206.287	3.75
206.505	18.09
206.724	-22.87
206.943	-22.87
207.162	-24.92
207.381	83.63
207.599	130.73
207.818	26.28
208.037	32.43
208.255	-18.77
208.474	28.33
208.693	63.15
208.911	34.47
209.13	34.47
209.349	40.62
209.567	11.95
209.786	-0.34
210.005	28.33
210.223	-0.34
210.442	18.09
210.661	22.19
210.879	-6.49
211.098	-2.39
211.316	11.95
211.535	100.01
211.753	11.95
211.972	-67.92
212.191	1.71
212.409	42.67
212.628	9.9
212.846	-0.34
213.065	50.86
213.283	20.14
213.502	3.75
213.72	-14.68
213.938	46.76
214.157	28.33
214.375	32.43
214.594	-31.06
214.812	30.38
215.031	16.04
215.249	26.28
215.467	50.86
215.686	3.75
215.904	22.19
216.122	50.86
216.341	28.33
216.559	34.47
216.778	38.57
216.996	-22.87
217.214	-61.78
217.432	-4.44
217.651	30.38
217.869	-12.63
218.087	-20.82
218.306	1.71
218.524	34.47
218.742	40.62
218.96	63.15
219.179	-57.68
219.397	5.8
219.615	79.53
219.833	77.48
220.051	-20.82
220.27	147.11
220.488	5.8
220.706	-14.68
220.924	7.85
221.142	-14.68
221.36	46.76
221.578	-29.01
221.796	54.95
222.015	95.91
222.233	5.8
222.451	63.15
222.669	-35.16
222.887	81.58
223.105	38.57
223.323	-74.07
223.541	50.86
223.759	-12.63
223.977	3.75
224.195	28.33
224.413	24.23
224.631	13.99
224.849	93.87
225.067	79.53
225.285	-51.54
225.503	65.19
225.721	-26.96
225.939	85.67
226.157	57
226.375	140.97
226.592	65.19
226.81	67.24
227.028	1.71
227.246	7.85
227.464	30.38
227.682	26.28
227.9	85.67
228.117	42.67
228.335	69.29
228.553	-10.58
228.771	-29.01
228.989	87.72
229.206	34.47
229.424	-0.34
229.642	-35.16
229.86	-4.44
230.077	52.91
230.295	1.71
230.513	16.04
230.731	11.95
230.948	-37.2
231.166	95.91
231.384	22.19
231.601	-26.96
231.819	32.43
232.037	-55.64
232.254	59.05
232.472	-49.49
232.689	-24.92
232.907	44.71
233.125	38.57
233.342	-47.44
233.56	-16.73
233.777	-14.68
233.995	50.86
234.213	28.33
234.43	34.47
234.648	118.44
234.865	18.09
235.083	-0.34
235.3	-24.92
235.518	112.3
235.735	16.04
235.953	32.43
236.17	7.85
236.388	26.28
236.605	-4.44
236.822	40.62
237.04	38.57
237.257	48.81
237.475	-45.4
237.692	30.38
237.909	-4.44
238.127	-12.63
238.344	-31.06
238.562	30.38
238.779	1.71
238.996	26.28
239.214	-35.16
239.431	38.57
239.648	28.33
239.865	63.15
240.083	30.38
240.3	-10.58
240.517	20.14
240.735	-72.02
240.952	52.91
241.169	106.15
241.386	75.43
241.603	-24.92
241.821	-92.5
242.038	-14.68
242.255	73.39
242.472	81.58
242.689	48.81
242.907	52.91
243.124	-33.11
243.341	-4.44
243.558	-24.92
243.775	-35.16
243.992	-45.4
244.209	-67.92
244.426	9.9
244.643	40.62
244.86	42.67
245.078	85.67
245.295	50.86
245.512	77.48
245.729	81.58
245.946	16.04
246.163	-16.73
246.38	9.9
246.597	85.67
246.814	-6.49
247.031	-4.44
247.248	-10.58
247.464	1.71
247.681	24.23
247.898	36.52
248.115	52.91
248.332	-45.4
248.549	97.96
248.766	63.15
248.983	114.34
249.2	1.71
249.417	-12.63
249.633	-31.06
249.85	-10.58
250.067	-57.68
250.284	1.71
250.501	9.9
250.717	54.95
250.934	-26.96
251.151	-82.26
251.368	97.96
251.585	-33.11
251.801	-33.11
252.018	24.23
252.235	67.24
252.451	-22.87
252.668	-4.44
252.885	63.15
253.102	18.09
253.318	-33.11
253.535	-33.11
253.752	-22.87
253.968	18.09
254.185	-18.77
254.401	-82.26
254.618	30.38
254.835	13.99
255.051	52.91
255.268	48.81
255.484	48.81
255.701	5.8
255.917	87.72
256.134	-31.06
256.351	7.85
256.567	-53.59
256.784	13.99
257	-43.35
257.217	30.38
257.433	50.86
257.65	81.58
257.866	48.81
258.082	-0.34
258.299	-47.44
258.515	-0.34
258.732	52.91
258.948	28.33
259.165	59.05
259.381	-8.53
259.597	-24.92
259.814	-8.53
260.03	-4.44
260.246	-6.49
260.463	16.04
260.679	46.76
260.895	52.91
261.112	54.95
261.328	-10.58
261.544	-80.21
261.761	104.11
261.977	-67.92
262.193	-33.11
262.409	-10.58
262.626	59.05
262.842	1.71
263.058	24.23
263.274	34.47
263.49	7.85
263.707	75.43
263.923	24.23
264.139	-94.55
264.355	65.19
264.571	85.67
264.787	75.43
265.004	-4.44
265.22	81.58
265.436	20.14
265.652	-12.63
265.868	24.23
266.084	-43.35
266.3	9.9
266.516	24.23
266.732	50.86
266.948	26.28
267.164	42.67
267.38	63.15
267.596	13.99
267.812	44.71
268.028	40.62
268.244	3.75
268.46	67.24
268.676	-29.01
268.892	16.04
269.108	40.62
269.324	-20.82
269.54	-20.82
269.756	50.86
269.972	-33.11
270.188	32.43
270.403	-59.73
270.619	18.09
270.835	63.15
271.051	-24.92
271.267	-49.49
271.483	26.28
271.698	59.05
271.914	-12.63
272.13	1.71
272.346	38.57
272.562	-16.73
272.777	61.1
272.993	48.81
273.209	-35.16
273.425	-8.53
273.64	-12.63
273.856	93.87
274.072	65.19
274.287	18.09
274.503	61.1
274.719	34.47
274.934	22.19
275.15	-63.83
275.366	-39.25
275.581	-69.97
275.797	-10.58
276.012	-0.34
276.228	3.75
276.444	-2.39
276.659	30.38
276.875	-20.82
277.09	81.58
277.306	34.47
277.521	57
277.737	1.71
277.952	-31.06
278.168	59.05
278.383	50.86
278.599	9.9
278.814	75.43
279.03	20.14
279.245	93.87
279.461	24.23
279.676	61.1
279.892	9.9
280.107	-47.44
280.322	-72.02
280.538	-20.82
280.753	-20.82
280.969	-84.31
281.184	-6.49
281.399	44.71
281.615	-31.06
281.83	22.19
282.045	-26.96
282.26	9.9
282.476	-4.44
282.691	44.71
282.906	93.87
283.122	11.95
283.337	7.85
283.552	87.72
283.767	-18.77
283.983	83.63
284.198	52.91
284.413	100.01
284.628	-37.2
284.843	-4.44
285.058	5.8
285.274	28.33
285.489	20.14
285.704	-24.92
285.919	-29.01
286.134	30.38
286.349	13.99
286.564	69.29
286.779	73.39
286.995	34.47
287.21	-57.68
287.425	42.67
287.64	5.8
287.855	48.81
288.07	-24.92
288.285	3.75
288.5	38.57
288.715	145.06
288.93	-2.39
289.145	69.29
289.36	28.33
289.575	-37.2
289.79	-20.82
290.004	-53.59
290.219	40.62
290.434	3.75
290.649	5.8
290.864	-49.49
291.079	20.14
291.294	11.95
291.509	-6.49
291.724	42.67
291.938	-63.83
292.153	34.47
292.368	59.05
292.583	34.47
292.798	44.71
293.012	30.38
293.227	77.48
293.442	-35.16
293.657	46.76
293.871	38.57
294.086	20.14
294.301	22.19
294.516	114.34
294.73	42.67
294.945	63.15
295.16	-45.4
295.374	54.95
295.589	89.77
295.804	-12.63
296.018	3.75
296.233	75.43
296.447	46.76
296.662	-47.44
296.877	50.86
297.091	54.95
297.306	91.82
297.52	-55.64
297.735	-0.34
297.949	-47.44
298.164	16.04
298.378	59.05
298.593	-29.01
298.807	11.95
299.022	18.09
299.236	34.47
299.451	-18.77
299.665	-8.53
299.88	34.47
300.094	69.29
300.309	7.85
300.523	40.62
300.737	-33.11
300.952	18.09
301.166	-35.16
301.381	-0.34
301.595	-2.39
301.809	-22.87
302.024	38.57
302.238	-2.39
302.452	48.81
302.667	69.29
302.881	48.81
303.095	-39.25
303.309	65.19
303.524	57
303.738	9.9
303.952	-12.63
304.166	44.71
304.381	-29.01
304.595	85.67
304.809	-22.87
305.023	7.85
305.237	46.76
305.452	34.47
305.666	-33.11
305.88	61.1
306.094	48.81
306.308	52.91
306.522	73.39
306.736	38.57
306.95	28.33
307.164	7.85
307.379	-43.35
307.593	44.71
307.807	42.67
308.021	48.81
308.235	-26.96
308.449	-8.53
308.663	-22.87
308.877	63.15
309.091	46.76
309.305	42.67
309.519	1.71
309.733	13.99
309.947	16.04
310.161	9.9
310.374	93.87
310.588	7.85
310.802	-29.01
311.016	30.38
311.23	59.05
311.444	59.05
311.658	-24.92
311.872	71.34
312.085	54.95
312.299	5.8
312.513	22.19
312.727	3.75
312.941	-41.3
313.154	40.62
313.368	-2.39
313.582	3.75
313.796	32.43
314.009	22.19
314.223	22.19
314.437	36.52
314.651	50.86
314.864	-4.44
315.078	16.04
315.292	-2.39
315.505	11.95
315.719	52.91
315.933	20.14
316.146	-26.96
316.36	3.75
316.573	5.8
316.787	32.43
317.001	38.57
317.214	-12.63
317.428	16.04
317.641	50.86
317.855	57
318.068	67.24
318.282	122.54
318.495	40.62
318.709	-10.58
318.922	48.81
319.136	59.05
319.349	-22.87
319.563	-67.92
319.776	-18.77
319.99	-8.53
320.203	-8.53
320.417	20.14
320.63	-63.83
320.843	52.91
321.057	-8.53
321.27	40.62
321.483	22.19
321.697	104.11
321.91	34.47
322.124	42.67
322.337	13.99
322.55	-24.92
322.763	-4.44
322.977	61.1
323.19	-29.01
323.403	59.05
323.617	42.67
323.83	-35.16
324.043	22.19
324.256	-37.2
324.469	-8.53
324.683	24.23
324.896	-6.49
325.109	11.95
325.322	-20.82
325.535	26.28
325.748	40.62
325.962	93.87
326.175	42.67
326.388	7.85
326.601	-12.63
326.814	-41.3
327.027	3.75
327.24	108.2
327.453	-26.96
327.666	11.95
327.879	20.14
328.092	89.77
328.305	-12.63
328.518	22.19
328.731	-53.59
328.944	-20.82
329.157	52.91
329.37	32.43
329.583	20.14
329.796	67.24
330.009	-74.07
330.222	36.52
330.435	42.67
330.648	-18.77
330.861	-0.34
331.073	13.99
331.286	65.19
331.499	-59.73
331.712	-33.11
331.925	61.1
332.138	-53.59
332.35	61.1
332.563	22.19
332.776	104.11
332.989	-24.92
333.202	-29.01
333.414	-2.39
333.627	48.81
333.84	50.86
334.053	11.95
334.265	42.67
334.478	22.19
334.691	-76.12
334.903	-6.49
335.116	-29.01
335.329	34.47
335.541	54.95
335.754	81.58
335.966	9.9
336.179	59.05
336.392	-43.35
336.604	13.99
336.817	20.14
337.029	9.9
337.242	-16.73
337.454	13.99
337.667	9.9
337.88	40.62
338.092	42.67
338.305	-20.82
338.517	-39.25
338.729	54.95
338.942	36.52
339.154	65.19
339.367	-0.34
339.579	138.92
339.792	-61.78
340.004	48.81
340.217	44.71
340.429	100.01
340.641	32.43
340.854	13.99
341.066	13.99
341.278	67.24
341.491	63.15
341.703	32.43
341.915	20.14
342.128	77.48
342.34	5.8
342.552	-37.2
342.764	36.52
342.977	32.43
343.189	11.95
343.401	16.04
343.613	-82.26
343.826	-26.96
344.038	65.19
344.25	20.14
344.462	13.99
344.674	71.34
344.886	24.23
345.099	69.29
345.311	104.11
345.523	59.05
345.735	-35.16
345.947	-0.34
346.159	67.24
346.371	16.04
346.583	-8.53
346.795	83.63
347.007	-12.63
347.219	-2.39
347.431	-67.92
347.643	46.76
347.855	44.71
348.067	11.95
348.279	-51.54
348.491	-10.58
348.703	16.04
348.915	18.09
349.127	48.81
349.339	24.23
349.551	20.14
349.763	67.24
349.975	-37.2
350.187	61.1
350.399	46.76
350.61	116.39
350.822	3.75
351.034	24.23
351.246	3.75
351.458	-29.01
351.669	-16.73
351.881	-41.3
352.093	18.09
352.305	32.43
352.517	136.87
352.728	73.39
352.94	85.67
353.152	97.96
353.363	5.8
353.575	50.86
353.787	22.19
353.999	-24.92
354.21	83.63
354.422	13.99
354.633	11.95
354.845	13.99
355.057	-16.73
355.268	28.33
355.48	79.53
355.692	110.25
355.903	26.28
356.115	24.23
356.326	-0.34
356.538	114.34
356.749	83.63
356.961	108.2
357.172	57
357.384	5.8
357.595	100.01
357.807	-20.82
358.018	3.75
358.23	104.11
358.441	73.39
358.653	46.76
358.864	-26.96
359.075	1.71
359.287	40.62
359.498	44.71
359.709	-33.11
359.921	50.86
360.132	52.91
360.344	-8.53
360.555	-67.92
360.766	28.33
360.977	81.58
361.189	83.63
361.4	26.28
361.611	61.1
361.823	93.87
362.034	54.95
362.245	-24.92
362.456	24.23
362.667	13.99
362.879	5.8
363.09	38.57
363.301	61.1
363.512	61.1
363.723	-35.16
363.935	-41.3
364.146	71.34
364.357	-0.34
364.568	106.15
364.779	-4.44
364.99	16.04
365.201	-8.53
365.412	50.86
365.623	20.14
365.834	59.05
366.045	77.48
366.256	155.3
366.467	5.8
366.678	61.1
366.889	-2.39
367.1	32.43
367.311	46.76
367.522	24.23
367.733	28.33
367.944	34.47
368.155	44.71
368.366	-8.53
368.577	-4.44
368.788	1.71
368.999	9.9
369.209	9.9
369.42	97.96
369.631	71.34
369.842	18.09
370.053	5.8
370.264	-16.73
370.474	87.72
370.685	16.04
370.896	50.86
371.107	81.58
371.317	-33.11
371.528	79.53
371.739	95.91
371.95	36.52
372.16	40.62
372.371	-18.77
372.582	9.9
372.792	59.05
373.003	50.86
373.214	18.09
373.424	16.04
373.635	7.85
373.846	46.76
374.056	46.76
374.267	-26.96
374.477	26.28
374.688	7.85
374.898	36.52
375.109	36.52
375.319	-24.92
375.53	77.48
375.74	20.14
375.951	42.67
376.161	24.23
376.372	16.04
376.582	59.05
376.793	30.38
377.003	52.91
377.214	-29.01
377.424	65.19
377.635	81.58
377.845	44.71
378.055	116.39
378.266	11.95
378.476	63.15
378.686	50.86
378.897	22.19
379.107	134.82
379.317	77.48
379.528	63.15
379.738	-26.96
379.948	-18.77
380.158	112.3
380.369	18.09
380.579	114.34
380.789	22.19
380.999	-0.34
381.21	3.75
381.42	65.19
381.63	38.57
381.84	7.85
382.05	67.24
382.261	48.81
382.471	79.53
382.681	9.9
382.891	-16.73
383.101	59.05
383.311	-24.92
383.521	-29.01
383.731	11.95
383.941	61.1
384.151	26.28
384.361	75.43
384.571	32.43
384.781	52.91
384.991	13.99
385.201	71.34
385.411	97.96
385.621	22.19
385.831	16.04
386.041	71.34
386.251	5.8
386.461	-0.34
386.671	44.71
386.881	44.71
387.091	93.87
387.301	120.49
387.511	77.48
387.72	42.67
387.93	52.91
388.14	-22.87
388.35	67.24
388.56	46.76
388.769	38.57
388.979	48.81
389.189	114.34
389.399	50.86
389.609	46.76
389.818	132.78
390.028	20.14
390.238	42.67
390.447	59.05
390.657	65.19
390.867	71.34
391.076	97.96
391.286	36.52
391.496	67.24
391.705	73.39
391.915	34.47
392.125	73.39
392.334	54.95
392.544	114.34
392.753	22.19
392.963	48.81
393.172	85.67
393.382	104.11
393.591	128.68
393.801	67.24
394.01	140.97
394.22	-18.77
394.429	120.49
394.639	89.77
394.848	110.25
395.058	108.2
395.267	87.72
395.477	138.92
395.686	13.99
395.895	165.54
396.105	167.59
396.314	85.67
396.524	81.58
396.733	38.57
396.942	83.63
397.152	65.19
397.361	132.78
397.57	91.82
397.78	95.91
397.989	116.39
398.198	114.34
398.407	177.83
398.617	71.34
398.826	132.78
399.035	97.96
399.244	40.62
399.453	95.91
399.663	106.15
399.872	93.87
400.081	124.58
400.29	77.48
400.499	97.96
400.708	71.34
400.917	34.47
401.127	136.87
401.336	130.73
401.545	151.21
401.754	97.96
401.963	120.49
402.172	81.58
402.381	65.19
402.59	126.63
402.799	81.58
403.008	40.62
403.217	167.59
403.426	122.54
403.635	157.35
403.844	54.95
404.053	149.16
404.262	91.82
404.471	208.55
404.68	145.06
404.888	95.91
405.097	155.3
405.306	83.63
405.515	200.36
405.724	206.5
405.933	206.5
406.142	210.6
406.35	249.51
406.559	138.92
406.768	186.02
406.977	249.51
407.185	224.94
407.394	192.17
407.603	218.79
407.812	237.22
408.02	288.42
408.229	315.05
408.438	226.98
408.646	216.74
408.855	284.33
409.064	278.18
409.272	347.81
409.481	288.42
409.69	247.46
409.898	235.18
410.107	341.67
410.315	327.33
410.524	315.05
410.733	308.9
410.941	425.64
411.15	413.35
411.358	423.59
411.567	448.16
411.775	399.01
411.984	353.96
412.192	448.16
412.401	413.35
412.609	491.17
412.818	605.86
413.026	534.18
413.234	415.4
413.443	562.85
413.651	550.56
413.86	646.82
414.068	650.91
414.276	728.74
414.485	669.34
414.693	702.11
414.901	802.46
415.11	798.37
415.318	849.57
415.526	861.85
415.734	824.99
415.943	954.01
416.151	904.86
416.359	863.9
416.567	933.53
416.776	990.88
416.984	964.25
417.192	1091.23
417.4	1068.7
417.608	1005.21
417.817	1154.71
418.025	1123.99
418.233	1343.13
418.441	1253.02
418.649	1201.82
418.857	1486.48
419.065	1494.68
419.273	1468.05
419.481	1470.1
419.689	1668.75
419.897	1646.23
420.105	1617.55
420.313	1582.74
420.521	1848.97
420.729	1783.44
420.937	1853.07
421.145	1922.7
421.353	1941.13
421.561	2150.03
421.769	2168.46
421.977	2154.12
422.185	2266.76
422.393	2463.37
422.601	2440.84
422.809	2528.9
423.017	2473.6
423.224	2641.54
423.432	2729.6
423.64	2709.12
423.848	2891.39
424.056	3022.46
424.263	3122.81
424.471	3231.35
424.679	3274.36
424.887	3440.25
425.094	3501.69
425.302	3569.27
425.51	3550.84
425.718	3710.58
425.925	3708.53
426.133	4079.21
426.341	4208.23
426.548	4273.77
426.756	4345.45
426.964	4337.26
427.171	4572.77
427.379	4832.86
427.586	4845.15
427.794	4970.08
428.001	5295.71
428.209	5387.86
428.417	5336.67
428.624	5686.87
428.832	5719.64
429.039	5656.15
429.247	5670.48
429.454	6272.59
429.662	6614.6
429.869	6348.36
430.076	6604.36
430.284	6430.28
430.491	6905.41
430.699	7204.41
430.906	7147.07
431.114	7108.16
431.321	7538.23
431.528	7700.02
431.736	8001.07
431.943	8554.02
432.15	8334.89
432.358	8394.28
432.565	8781.35
432.772	8914.47
432.979	9299.48
433.187	9330.2
433.394	9487.9
433.601	9983.51
433.808	10098.19
434.016	10059.28
434.223	10323.47
434.43	11156.99
434.637	10964.48
434.844	11531.77
435.052	11798.01
435.259	11763.19
435.466	11847.16
435.673	11625.98
435.88	12498.41
436.087	13297.12
436.294	13096.42
436.501	12910.05
436.708	13188.58
436.915	13381.09
437.122	14310.86
437.329	13913.56
437.537	14663.11
437.743	15005.13
437.95	14726.6
438.157	15330.75
438.364	16006.58
438.571	15920.57
438.778	16074.17
438.985	17427.87
439.192	17014.18
439.399	17436.06
439.606	16969.13
439.813	18150.81
440.02	19283.33
440.227	19092.87
440.433	18447.76
440.64	19031.43
440.847	19076.49
441.054	19625.34
441.261	20823.4
441.467	20706.67
441.674	21054.83
441.881	21820.77
442.088	21962.08
442.294	21632.35
442.501	21955.93
442.708	22644.05
442.914	23512.39
443.121	24624.43
443.328	23700.8
443.534	25642.28
443.741	24474.93
443.948	24393.01
444.154	26344.73
444.361	26195.23
444.568	26139.93
444.774	26121.5
444.981	26653.97
445.187	27544.84
445.394	28685.56
445.6	28224.76
445.807	30356.7
446.013	29691.11
446.22	30264.54
446.426	31149.26
446.633	31386.83
446.839	32572.6
447.046	31112.4
447.252	32980.15
447.459	33234.1
447.665	32648.38
447.871	34294.94
448.078	35898.5
448.284	33983.65
448.491	34895
448.697	36426.88
448.903	37090.42
449.11	37325.94
449.316	36717.69
449.522	37295.22
449.728	38284.39
449.935	38483.04
450.141	38386.78
450.347	39144.53
450.553	37944.42
450.76	38859.87
450.966	39996.49
451.172	39418.96
451.378	40496.19
451.584	39634
451.791	40645.69
451.997	40672.32
452.203	41028.66
452.409	41065.53
452.615	40877.11
452.821	39601.23
453.027	39269.46
453.233	40987.71
453.44	39488.59
453.646	39973.96
453.852	39947.34
454.058	41268.28
454.264	39638.09
454.47	40504.38
454.676	39482.45
454.882	41040.95
455.088	37104.76
455.294	37954.66
455.5	38440.03
455.705	38941.78
455.911	37256.31
456.117	36263.04
456.323	35941.51
456.529	34368.67
456.735	35677.32
456.941	34798.74
457.147	34114.72
457.352	33225.9
457.558	32638.14
457.764	32922.8
457.97	32296.13
458.176	31780.04
458.381	31648.97
458.587	29981.92
458.793	30164.19
458.999	28423.42
459.204	30094.56
459.41	29578.47
459.616	27712.77
459.821	27821.31
460.027	27505.93
460.233	27008.27
460.438	25918.75
460.644	25955.61
460.85	24571.19
461.055	24401.21
461.261	24323.38
461.466	22695.25
461.672	21937.5
461.878	23381.32
462.083	21775.71
462.289	21505.38
462.494	21108.07
462.7	20391.28
462.905	19785.08
463.111	20200.82
463.316	20548.98
463.522	20147.58
463.727	20055.42
463.932	20180.34
464.138	19793.28
464.343	19934.59
464.549	19524.99
464.754	20053.37
464.959	19647.87
465.165	19783.04
465.37	18845.07
465.575	18255.25
465.781	19043.72
465.986	18980.23
466.191	18576.78
466.397	18220.44
466.602	17575.33
