Data from USB4F104151__38__12-41-22-794.txt Node

Date: Fri Mar 14 12:41:22 EDT 2025
User: louis
Spectrometer: USB4F10415
Trigger mode: 4
Integration Time (sec): 3.000000E-2
Scans to average: 1
Electric dark correction enabled: true
Nonlinearity correction enabled: false
Boxcar width: 0
XAxis mode: Wavelengths
Number of Pixels in Spectrum: 3648
>>>>>Begin Spectral Data<<<<<
178.204	-171.18
178.424	-171.18
178.644	-171.18
178.864	-128.17
179.084	-122.02
179.304	-15.53
179.524	-36.01
179.744	-38.06
179.964	-21.67
180.184	27.48
180.404	19.29
180.624	37.72
180.844	31.57
181.064	-79.02
181.283	-46.25
181.503	37.72
181.723	82.77
181.943	-9.39
182.163	13.14
182.383	27.48
182.602	25.43
182.822	2.9
183.042	19.29
183.262	-13.48
183.482	-38.06
183.701	-64.68
183.921	-7.34
184.141	19.29
184.361	43.86
184.58	4.95
184.8	47.96
185.02	-11.43
185.239	11.09
185.459	37.72
185.679	31.57
185.898	-58.54
186.118	47.96
186.338	45.91
186.557	-54.44
186.777	-13.48
186.997	-13.48
187.216	-31.91
187.436	123.73
187.655	15.19
187.875	29.52
188.095	33.62
188.314	-7.34
188.534	37.72
188.753	-36.01
188.973	25.43
189.192	80.72
189.412	-21.67
189.631	-25.77
189.851	-38.06
190.07	119.64
190.29	80.72
190.509	-3.24
190.729	41.81
190.948	31.57
191.168	95.06
191.387	62.29
191.607	17.24
191.826	-5.29
192.045	-25.77
192.265	-60.59
192.484	47.96
192.704	13.14
192.923	-17.58
193.142	66.39
193.362	54.1
193.581	2.9
193.8	21.33
194.02	45.91
194.239	50
194.458	54.1
194.678	-5.29
194.897	64.34
195.116	-48.3
195.335	11.09
195.555	-7.34
195.774	-44.2
195.993	93.01
196.212	11.09
196.432	0.85
196.651	0.85
196.87	-29.87
197.089	7
197.308	97.11
197.528	27.48
197.747	-68.78
197.966	-9.39
198.185	115.54
198.404	39.76
198.623	93.01
198.842	17.24
199.062	2.9
199.281	43.86
199.5	-66.73
199.719	-3.24
199.938	50
200.157	27.48
200.376	43.86
200.595	41.81
200.814	2.9
201.033	-7.34
201.252	119.64
201.471	11.09
201.69	154.45
201.909	45.91
202.128	58.2
202.347	17.24
202.566	58.2
202.785	39.76
203.004	-113.83
203.223	82.77
203.442	-1.19
203.661	-5.29
203.879	23.38
204.098	72.53
204.317	70.48
204.536	31.57
204.755	17.24
204.974	-27.82
205.193	31.57
205.411	90.96
205.63	78.68
205.849	-25.77
206.068	37.72
206.287	-33.96
206.505	25.43
206.724	25.43
206.943	15.19
207.162	41.81
207.381	17.24
207.599	39.76
207.818	76.63
208.037	-23.72
208.255	74.58
208.474	50
208.693	99.16
208.911	0.85
209.13	21.33
209.349	41.81
209.567	0.85
209.786	31.57
210.005	2.9
210.223	-33.96
210.442	-81.07
210.661	39.76
210.879	58.2
211.098	17.24
211.316	-1.19
211.535	-25.77
211.753	-13.48
211.972	27.48
212.191	4.95
212.409	13.14
212.628	15.19
212.846	47.96
213.065	7
213.283	35.67
213.502	-13.48
213.72	15.19
213.938	17.24
214.157	29.52
214.375	17.24
214.594	-23.72
214.812	-40.11
215.031	-17.58
215.249	-7.34
215.467	35.67
215.686	-58.54
215.904	37.72
216.122	29.52
216.341	133.97
216.559	52.05
216.778	21.33
216.996	64.34
217.214	7
217.432	35.67
217.651	37.72
217.869	78.68
218.087	11.09
218.306	17.24
218.524	54.1
218.742	11.09
218.96	-91.31
219.179	50
219.397	90.96
219.615	33.62
219.833	35.67
220.051	39.76
220.27	9.05
220.488	68.44
220.706	4.95
220.924	11.09
221.142	13.14
221.36	45.91
221.578	60.24
221.796	-17.58
222.015	-15.53
222.233	-27.82
222.451	56.15
222.669	-19.63
222.887	27.48
223.105	23.38
223.323	64.34
223.541	50
223.759	60.24
223.977	37.72
224.195	17.24
224.413	31.57
224.631	0.85
224.849	19.29
225.067	43.86
225.285	-36.01
225.503	66.39
225.721	-38.06
225.939	11.09
226.157	39.76
226.375	70.48
226.592	13.14
226.81	78.68
227.028	35.67
227.246	111.44
227.464	66.39
227.682	66.39
227.9	41.81
228.117	15.19
228.335	64.34
228.553	25.43
228.771	17.24
228.989	4.95
229.206	70.48
229.424	-15.53
229.642	-13.48
229.86	13.14
230.077	-38.06
230.295	25.43
230.513	21.33
230.731	50
230.948	64.34
231.166	50
231.384	0.85
231.601	50
231.819	117.59
232.037	-9.39
232.254	-23.72
232.472	37.72
232.689	41.81
232.907	-7.34
233.125	21.33
233.342	15.19
233.56	-5.29
233.777	47.96
233.995	62.29
234.213	-27.82
234.43	-21.67
234.648	-19.63
234.865	-13.48
235.083	43.86
235.3	-5.29
235.518	97.11
235.735	64.34
235.953	72.53
236.17	50
236.388	-58.54
236.605	-17.58
236.822	68.44
237.04	76.63
237.257	-15.53
237.475	-58.54
237.692	60.24
237.909	82.77
238.127	-33.96
238.344	13.14
238.562	-5.29
238.779	7
238.996	-9.39
239.214	33.62
239.431	31.57
239.648	13.14
239.865	27.48
240.083	39.76
240.3	54.1
240.517	2.9
240.735	-3.24
240.952	86.87
241.169	47.96
241.386	111.44
241.603	41.81
241.821	-46.25
242.038	105.3
242.255	25.43
242.472	37.72
242.689	23.38
242.907	154.45
243.124	4.95
243.341	56.15
243.558	-21.67
243.775	-42.15
243.992	-66.73
244.209	23.38
244.426	144.21
244.643	43.86
244.86	11.09
245.078	13.14
245.295	72.53
245.512	-3.24
245.729	41.81
245.946	17.24
246.163	-9.39
246.38	-3.24
246.597	-66.73
246.814	-33.96
247.031	-27.82
247.248	27.48
247.464	58.2
247.681	15.19
247.898	4.95
248.115	11.09
248.332	13.14
248.549	76.63
248.766	78.68
248.983	-15.53
249.2	-3.24
249.417	25.43
249.633	9.05
249.85	-9.39
250.067	25.43
250.284	33.62
250.501	-13.48
250.717	11.09
250.934	31.57
251.151	21.33
251.368	-15.53
251.585	-1.19
251.801	39.76
252.018	-33.96
252.235	95.06
252.451	-60.59
252.668	-85.16
252.885	29.52
253.102	45.91
253.318	0.85
253.535	33.62
253.752	-33.96
253.968	-3.24
254.185	-48.3
254.401	13.14
254.618	-38.06
254.835	101.2
255.051	25.43
255.268	31.57
255.484	25.43
255.701	23.38
255.917	15.19
256.134	-31.91
256.351	-1.19
256.567	86.87
256.784	68.44
257	27.48
257.217	-31.91
257.433	4.95
257.65	29.52
257.866	-5.29
258.082	9.05
258.299	31.57
258.515	58.2
258.732	-5.29
258.948	-60.59
259.165	62.29
259.381	41.81
259.597	-13.48
259.814	84.82
260.03	17.24
260.246	-11.43
260.463	0.85
260.679	7
260.895	47.96
261.112	-21.67
261.328	60.24
261.544	-54.44
261.761	109.4
261.977	43.86
262.193	9.05
262.409	86.87
262.626	15.19
262.842	9.05
263.058	60.24
263.274	33.62
263.49	13.14
263.707	56.15
263.923	-42.15
264.139	13.14
264.355	58.2
264.571	-15.53
264.787	21.33
265.004	56.15
265.22	62.29
265.436	17.24
265.652	29.52
265.868	107.35
266.084	-9.39
266.3	-11.43
266.516	-70.83
266.732	60.24
266.948	2.9
267.164	56.15
267.38	39.76
267.596	64.34
267.812	64.34
268.028	-3.24
268.244	-9.39
268.46	56.15
268.676	-1.19
268.892	60.24
269.108	-50.35
269.324	25.43
269.54	-50.35
269.756	52.05
269.972	19.29
270.188	-3.24
270.403	9.05
270.619	45.91
270.835	54.1
271.051	-54.44
271.267	21.33
271.483	27.48
271.698	23.38
271.914	78.68
272.13	-31.91
272.346	47.96
272.562	17.24
272.777	82.77
272.993	13.14
273.209	2.9
273.425	9.05
273.64	47.96
273.856	50
274.072	-7.34
274.287	33.62
274.503	-60.59
274.719	82.77
274.934	35.67
275.15	-13.48
275.366	0.85
275.581	-9.39
275.797	70.48
276.012	0.85
276.228	31.57
276.444	35.67
276.659	-11.43
276.875	17.24
277.09	47.96
277.306	15.19
277.521	27.48
277.737	62.29
277.952	2.9
278.168	35.67
278.383	-11.43
278.599	-46.25
278.814	45.91
279.03	115.54
279.245	56.15
279.461	93.01
279.676	93.01
279.892	21.33
280.107	-33.96
280.322	17.24
280.538	7
280.753	0.85
280.969	90.96
281.184	15.19
281.399	33.62
281.615	99.16
281.83	23.38
282.045	-13.48
282.26	72.53
282.476	9.05
282.691	25.43
282.906	93.01
283.122	21.33
283.337	-11.43
283.552	33.62
283.767	41.81
283.983	-5.29
284.198	11.09
284.413	76.63
284.628	-19.63
284.843	50
285.058	76.63
285.274	88.92
285.489	25.43
285.704	66.39
285.919	19.29
286.134	72.53
286.349	17.24
286.564	-29.87
286.779	66.39
286.995	66.39
287.21	0.85
287.425	29.52
287.64	43.86
287.855	93.01
288.07	-19.63
288.285	68.44
288.5	17.24
288.715	109.4
288.93	39.76
289.145	-5.29
289.36	70.48
289.575	47.96
289.79	31.57
290.004	17.24
290.219	72.53
290.434	-46.25
290.649	56.15
290.864	27.48
291.079	-5.29
291.294	21.33
291.509	86.87
291.724	-38.06
291.938	7
292.153	39.76
292.368	11.09
292.583	-50.35
292.798	56.15
293.012	76.63
293.227	80.72
293.442	15.19
293.657	17.24
293.871	70.48
294.086	7
294.301	90.96
294.516	11.09
294.73	-25.77
294.945	29.52
295.16	43.86
295.374	93.01
295.589	13.14
295.804	-7.34
296.018	60.24
296.233	138.07
296.447	-9.39
296.662	-50.35
296.877	41.81
297.091	-7.34
297.306	52.05
297.52	9.05
297.735	25.43
297.949	-46.25
298.164	68.44
298.378	76.63
298.593	-13.48
298.807	-5.29
299.022	33.62
299.236	4.95
299.451	-42.15
299.665	33.62
299.88	54.1
300.094	60.24
300.309	54.1
300.523	-9.39
300.737	35.67
300.952	-5.29
301.166	-11.43
301.381	19.29
301.595	27.48
301.809	25.43
302.024	-1.19
302.238	47.96
302.452	60.24
302.667	-27.82
302.881	58.2
303.095	90.96
303.309	39.76
303.524	9.05
303.738	64.34
303.952	-15.53
304.166	47.96
304.381	50
304.595	60.24
304.809	-25.77
305.023	70.48
305.237	29.52
305.452	-48.3
305.666	35.67
305.88	13.14
306.094	19.29
306.308	29.52
306.522	95.06
306.736	23.38
306.95	105.3
307.164	29.52
307.379	84.82
307.593	74.58
307.807	133.97
308.021	27.48
308.235	-19.63
308.449	-58.54
308.663	31.57
308.877	115.54
309.091	47.96
309.305	-7.34
309.519	-56.49
309.733	101.2
309.947	7
310.161	125.78
310.374	25.43
310.588	52.05
310.802	-9.39
311.016	62.29
311.23	-1.19
311.444	-1.19
311.658	41.81
311.872	43.86
312.085	11.09
312.299	66.39
312.513	95.06
312.727	99.16
312.941	7
313.154	25.43
313.368	68.44
313.582	58.2
313.796	39.76
314.009	72.53
314.223	-38.06
314.437	39.76
314.651	95.06
314.864	11.09
315.078	-29.87
315.292	27.48
315.505	17.24
315.719	-60.59
315.933	-21.67
316.146	11.09
316.36	29.52
316.573	82.77
316.787	66.39
317.001	23.38
317.214	33.62
317.428	35.67
317.641	47.96
317.855	27.48
318.068	29.52
318.282	33.62
318.495	101.2
318.709	74.58
318.922	13.14
319.136	29.52
319.349	62.29
319.563	17.24
319.776	39.76
319.99	2.9
320.203	107.35
320.417	-17.58
320.63	93.01
320.843	27.48
321.057	-3.24
321.27	-3.24
321.483	4.95
321.697	154.45
321.91	4.95
322.124	105.3
322.337	109.4
322.55	15.19
322.763	-1.19
322.977	62.29
323.19	54.1
323.403	82.77
323.617	129.88
323.83	39.76
324.043	41.81
324.256	50
324.469	-7.34
324.683	-23.72
324.896	17.24
325.109	-13.48
325.322	4.95
325.535	90.96
325.748	99.16
325.962	-52.39
326.175	109.4
326.388	58.2
326.601	88.92
326.814	45.91
327.027	19.29
327.24	70.48
327.453	4.95
327.666	80.72
327.879	58.2
328.092	23.38
328.305	99.16
328.518	37.72
328.731	27.48
328.944	45.91
329.157	25.43
329.37	72.53
329.583	66.39
329.796	154.45
330.009	21.33
330.222	78.68
330.435	117.59
330.648	62.29
330.861	-36.01
331.073	17.24
331.286	72.53
331.499	-3.24
331.712	27.48
331.925	50
332.138	17.24
332.35	54.1
332.563	111.44
332.776	47.96
332.989	-11.43
333.202	27.48
333.414	25.43
333.627	-9.39
333.84	4.95
334.053	111.44
334.265	25.43
334.478	66.39
334.691	33.62
334.903	13.14
335.116	-21.67
335.329	23.38
335.541	29.52
335.754	29.52
335.966	13.14
336.179	60.24
336.392	2.9
336.604	31.57
336.817	50
337.029	25.43
337.242	82.77
337.454	72.53
337.667	17.24
337.88	82.77
338.092	-7.34
338.305	-5.29
338.517	-31.91
338.729	50
338.942	35.67
339.154	-52.39
339.367	-17.58
339.579	-23.72
339.792	-13.48
340.004	15.19
340.217	7
340.429	113.49
340.641	-13.48
340.854	45.91
341.066	19.29
341.278	62.29
341.491	82.77
341.703	37.72
341.915	-48.3
342.128	35.67
342.34	21.33
342.552	113.49
342.764	-15.53
342.977	50
343.189	45.91
343.401	88.92
343.613	-15.53
343.826	-11.43
344.038	56.15
344.25	0.85
344.462	-29.87
344.674	76.63
344.886	64.34
345.099	50
345.311	-13.48
345.523	15.19
345.735	9.05
345.947	35.67
346.159	76.63
346.371	7
346.583	64.34
346.795	123.73
347.007	86.87
347.219	82.77
347.431	70.48
347.643	90.96
347.855	-31.91
348.067	82.77
348.279	-21.67
348.491	107.35
348.703	45.91
348.915	45.91
349.127	-44.2
349.339	-1.19
349.551	-48.3
349.763	52.05
349.975	31.57
350.187	68.44
350.399	101.2
350.61	47.96
350.822	9.05
351.034	72.53
351.246	-50.35
351.458	68.44
351.669	56.15
351.881	41.81
352.093	93.01
352.305	29.52
352.517	123.73
352.728	103.25
352.94	45.91
353.152	60.24
353.363	-5.29
353.575	66.39
353.787	21.33
353.999	111.44
354.21	97.11
354.422	17.24
354.633	23.38
354.845	11.09
355.057	60.24
355.268	37.72
355.48	33.62
355.692	9.05
355.903	-54.44
356.115	27.48
356.326	11.09
356.538	131.92
356.749	29.52
356.961	56.15
357.172	56.15
357.384	13.14
357.595	93.01
357.807	15.19
358.018	60.24
358.23	13.14
358.441	58.2
358.653	76.63
358.864	47.96
359.075	68.44
359.287	33.62
359.498	76.63
359.709	86.87
359.921	64.34
360.132	78.68
360.344	39.76
360.555	88.92
360.766	103.25
360.977	47.96
361.189	76.63
361.4	-21.67
361.611	23.38
361.823	50
362.034	93.01
362.245	11.09
362.456	103.25
362.667	172.88
362.879	15.19
363.09	78.68
363.301	86.87
363.512	123.73
363.723	74.58
363.935	52.05
364.146	109.4
364.357	111.44
364.568	119.64
364.779	62.29
364.99	88.92
365.201	29.52
365.412	97.11
365.623	43.86
365.834	37.72
366.045	80.72
366.256	58.2
366.467	15.19
366.678	0.85
366.889	47.96
367.1	17.24
367.311	19.29
367.522	56.15
367.733	129.88
367.944	39.76
368.155	76.63
368.366	56.15
368.577	142.16
368.788	56.15
368.999	23.38
369.209	97.11
369.42	140.12
369.631	58.2
369.842	127.83
370.053	50
370.264	105.3
370.474	23.38
370.685	43.86
370.896	86.87
371.107	101.2
371.317	90.96
371.528	13.14
371.739	99.16
371.95	54.1
372.16	140.12
372.371	19.29
372.582	-5.29
372.792	17.24
373.003	31.57
373.214	113.49
373.424	70.48
373.635	9.05
373.846	-11.43
374.056	60.24
374.267	33.62
374.477	74.58
374.688	0.85
374.898	39.76
375.109	23.38
375.319	50
375.53	97.11
375.74	45.91
375.951	33.62
376.161	78.68
376.372	41.81
376.582	68.44
376.793	9.05
377.003	7
377.214	109.4
377.424	37.72
377.635	97.11
377.845	62.29
378.055	107.35
378.266	62.29
378.476	-27.82
378.686	82.77
378.897	27.48
379.107	115.54
379.317	115.54
379.528	111.44
379.738	101.2
379.948	27.48
380.158	70.48
380.369	39.76
380.579	133.97
380.789	60.24
380.999	47.96
381.21	95.06
381.42	131.92
381.63	31.57
381.84	103.25
382.05	45.91
382.261	19.29
382.471	90.96
382.681	70.48
382.891	103.25
383.101	43.86
383.311	140.12
383.521	64.34
383.731	115.54
383.941	90.96
384.151	160.59
384.361	29.52
384.571	105.3
384.781	99.16
384.991	60.24
385.201	117.59
385.411	39.76
385.621	76.63
385.831	27.48
386.041	113.49
386.251	-5.29
386.461	117.59
386.671	41.81
386.881	115.54
387.091	29.52
387.301	99.16
387.511	133.97
387.72	90.96
387.93	113.49
388.14	35.67
388.35	76.63
388.56	80.72
388.769	138.07
388.979	138.07
389.189	86.87
389.399	95.06
389.609	66.39
389.818	93.01
390.028	72.53
390.238	136.02
390.447	82.77
390.657	90.96
390.867	43.86
391.076	-31.91
391.286	70.48
391.496	115.54
391.705	84.82
391.915	111.44
392.125	148.31
392.334	45.91
392.544	45.91
392.753	144.21
392.963	35.67
393.172	95.06
393.382	39.76
393.591	90.96
393.801	58.2
394.01	119.64
394.22	109.4
394.429	72.53
394.639	21.33
394.848	127.83
395.058	60.24
395.267	111.44
395.477	125.78
395.686	121.68
395.895	148.31
396.105	213.84
396.314	95.06
396.524	142.16
396.733	88.92
396.942	125.78
397.152	84.82
397.361	80.72
397.57	150.36
397.78	150.36
397.989	142.16
398.198	154.45
398.407	113.49
398.617	109.4
398.826	219.99
399.035	76.63
399.244	195.41
399.453	90.96
399.663	88.92
399.872	176.98
400.081	90.96
400.29	174.93
400.499	64.34
400.708	183.12
400.917	142.16
401.127	152.4
401.336	158.55
401.545	172.88
401.754	185.17
401.963	181.07
402.172	109.4
402.381	93.01
402.59	168.79
402.799	105.3
403.008	236.37
403.217	219.99
403.426	131.92
403.635	156.5
403.844	211.79
404.053	187.22
404.262	144.21
404.471	211.79
404.68	267.09
404.888	209.75
405.097	115.54
405.306	217.94
405.515	308.05
405.724	176.98
405.933	236.37
406.142	295.76
406.35	289.62
406.559	209.75
406.768	203.6
406.977	244.56
407.185	322.38
407.394	265.04
407.603	238.42
407.812	207.7
408.02	330.58
408.229	297.81
408.438	332.62
408.646	377.68
408.855	392.02
409.064	344.91
409.272	389.97
409.481	471.89
409.69	375.63
409.898	428.88
410.107	443.21
410.315	396.11
410.524	508.75
410.733	480.08
410.941	496.46
411.15	457.55
411.358	559.95
411.567	613.2
411.775	635.72
411.984	555.85
412.192	609.1
412.401	602.96
412.609	684.87
412.818	740.17
413.026	754.51
413.234	729.93
413.443	723.79
413.651	822.09
413.86	848.71
414.068	899.91
414.276	963.4
414.485	879.43
414.693	969.54
414.901	981.83
415.11	1078.08
415.318	1137.48
415.526	1135.43
415.734	1168.2
415.943	1174.34
416.151	1272.64
416.359	1186.63
416.567	1442.62
416.776	1370.94
416.984	1483.58
417.192	1577.79
417.4	1594.17
417.608	1514.3
417.817	1612.6
418.025	1798.97
418.233	1893.18
418.441	1721.15
418.649	1860.41
418.857	1948.47
419.065	1971
419.273	2042.68
419.481	2046.77
419.689	2233.14
419.897	2278.19
420.105	2345.78
420.313	2386.74
420.521	2542.38
420.729	2550.57
420.937	2693.93
421.145	2825
421.353	2747.18
421.561	2904.87
421.769	2990.89
421.977	3253.03
422.185	3224.36
422.393	3371.81
422.601	3597.09
422.809	3611.42
423.017	3576.61
423.224	3779.36
423.432	3902.23
423.64	3932.95
423.848	4123.41
424.056	3980.06
424.263	4453.14
424.471	4522.77
424.679	4557.58
424.887	4774.67
425.094	5128.97
425.302	4938.51
425.51	5264.13
425.718	5176.07
425.925	5260.04
426.133	5554.94
426.341	5864.19
426.548	6042.36
426.756	6103.8
426.964	6320.88
427.171	6529.78
427.379	6757.1
427.586	6789.87
427.794	7054.06
428.001	7508.71
428.209	7920.35
428.417	7633.63
428.624	8090.33
428.832	8143.58
429.039	8266.46
429.247	8028.89
429.454	8977.1
429.662	9491.14
429.869	8841.93
430.076	9589.44
430.284	9124.55
430.491	9652.93
430.699	10445.49
430.906	10070.72
431.114	10351.29
431.321	10764.98
431.528	10930.86
431.736	11485.86
431.943	12165.79
432.15	11803.3
432.358	12010.14
432.565	12681.88
432.772	12659.35
432.979	13273.74
433.187	13531.78
433.394	13804.16
433.601	14508.66
433.808	14721.65
434.016	14406.27
434.223	15153.77
434.43	15807.08
434.637	15692.39
434.844	16419.42
435.052	17050.19
435.259	16867.92
435.466	16814.68
435.673	16872.02
435.88	17750.6
436.087	18688.57
436.294	18573.88
436.501	18631.23
436.708	19018.29
436.915	19464.75
437.122	20417.05
437.329	20212.26
437.537	20845.08
437.743	21332.5
437.95	21025.3
438.157	22475.26
438.364	23093.75
438.571	22899.19
438.778	23241.2
438.985	25248.21
439.192	24291.81
439.399	24850.91
439.606	24496.61
439.813	25717.2
440.02	27689.39
440.227	26870.2
440.433	26474.95
440.64	27539.89
440.847	27273.65
441.054	27969.96
441.261	29657.49
441.467	29641.11
441.674	30075.27
441.881	31072.64
442.088	30765.44
442.294	30501.25
442.501	31719.79
442.708	32293.22
442.914	33321.3
443.121	34910.53
443.328	33866.06
443.534	36577.58
443.741	35273.02
443.948	34672.96
444.154	37017.89
444.361	37394.71
444.568	37263.64
444.774	37388.57
444.981	37673.24
445.187	39014.66
445.394	40671.46
445.6	39987.44
445.807	43903.16
446.013	41992.4
446.22	42635.47
446.426	44304.56
446.633	44912.81
446.839	46368.91
447.046	44355.76
447.252	46504.08
447.459	46561.42
447.665	46557.33
447.871	48580.72
448.078	50569.3
448.284	48164.98
448.491	49385.57
448.697	51613.76
448.903	52578.36
449.11	52357.17
449.316	51413.06
449.522	52500.53
449.728	53987.36
449.935	54202.39
450.141	54132.76
450.347	55269.39
450.553	53334.06
450.76	54302.74
450.966	56199.16
451.172	55418.89
451.378	57079.79
451.584	55859.2
451.791	56676.34
451.997	56860.66
452.203	58017.76
452.409	57710.56
452.615	57419.75
452.821	55576.58
453.027	55027.73
453.233	58126.3
453.44	55556.1
453.646	56731.64
453.852	56264.7
454.058	57485.29
454.264	55666.69
454.47	56795.12
454.676	55158.8
454.882	57300.97
455.088	52570.16
455.294	53559.33
455.5	54138.91
455.705	54568.98
455.911	52531.25
456.117	51464.26
456.323	50550.87
456.529	48654.45
456.735	50567.25
456.941	48953.45
457.147	48296.05
457.352	46798.99
457.558	46119.06
457.764	46348.43
457.97	45459.62
458.176	44996.77
458.381	44427.44
458.587	42397.9
458.793	42739.91
458.999	40188.14
459.204	43186.37
459.41	41967.83
459.616	39131.39
459.821	39141.63
460.027	39352.57
460.233	38271.25
460.438	36690.21
460.644	37194.01
460.85	34965.82
461.055	34662.72
461.261	34736.45
461.466	32364.9
461.672	31250.81
461.878	33261.91
462.083	31115.64
462.289	30484.87
462.494	30122.38
462.7	28762.53
462.905	27931.05
463.111	29419.92
463.316	29368.73
463.522	28451.24
463.727	28602.78
463.932	28445.09
464.138	28385.7
464.343	28633.5
464.549	27410.87
464.754	28449.19
464.959	28277.16
465.165	28129.7
465.37	26952.12
465.575	26356.16
465.781	27253.17
465.986	27720.11
466.191	26261.96
466.397	25889.23
466.602	24760.8
466.807	25510.35
467.012	25844.17
467.218	25534.93
