Data from USB4F104151__90__12-42-41-685.txt Node

Date: Fri Mar 14 12:42:41 EDT 2025
User: louis
Spectrometer: USB4F10415
Trigger mode: 4
Integration Time (sec): 3.000000E-2
Scans to average: 1
Electric dark correction enabled: true
Nonlinearity correction enabled: false
Boxcar width: 0
XAxis mode: Wavelengths
Number of Pixels in Spectrum: 3648
>>>>>Begin Spectral Data<<<<<
178.204	-119.64
178.424	-119.64
178.644	-119.64
178.864	-158.55
179.084	-162.64
179.304	-17.24
179.524	44.2
179.744	11.43
179.964	-52.05
180.184	7.34
180.404	36.01
180.624	-29.52
180.844	33.96
181.064	17.58
181.283	-9.05
181.503	-11.09
181.723	-31.57
181.943	-37.72
182.163	56.49
182.383	66.73
182.602	115.88
182.822	17.58
183.042	1.19
183.262	36.01
183.482	15.53
183.701	-7
183.921	-0.85
184.141	9.39
184.361	126.12
184.58	19.63
184.8	64.68
185.02	-17.24
185.239	54.44
185.459	52.39
185.679	74.92
185.898	-64.34
186.118	115.88
186.338	3.24
186.557	54.44
186.777	-25.43
186.997	95.4
187.216	-19.29
187.436	91.31
187.655	15.53
187.875	38.06
188.095	25.77
188.314	124.07
188.534	89.26
188.753	-29.52
188.973	13.48
189.192	60.59
189.412	3.24
189.631	3.24
189.851	-17.24
190.07	46.25
190.29	-21.33
190.509	70.83
190.729	5.29
190.948	40.11
191.168	134.31
191.387	40.11
191.607	9.39
191.826	56.49
192.045	-50
192.265	38.06
192.484	85.16
192.704	62.63
192.923	-19.29
193.142	117.93
193.362	-27.48
193.581	66.73
193.8	62.63
194.02	68.78
194.239	64.68
194.458	-7
194.678	31.91
194.897	17.58
195.116	-9.05
195.335	-11.09
195.555	-15.19
195.774	29.87
195.993	19.63
196.212	42.15
196.432	13.48
196.651	3.24
196.87	42.15
197.089	76.97
197.308	31.91
197.528	42.15
197.747	-7
197.966	-52.05
198.185	105.64
198.404	33.96
198.623	38.06
198.842	15.53
199.062	91.31
199.281	21.67
199.5	25.77
199.719	87.21
199.938	19.63
200.157	29.87
200.376	56.49
200.595	62.63
200.814	13.48
201.033	15.53
201.252	54.44
201.471	48.3
201.69	-7
201.909	58.54
202.128	7.34
202.347	46.25
202.566	76.97
202.785	52.39
203.004	13.48
203.223	99.5
203.442	-7
203.661	23.72
203.879	33.96
204.098	87.21
204.317	68.78
204.536	36.01
204.755	21.67
204.974	58.54
205.193	23.72
205.411	130.22
205.63	52.39
205.849	21.67
206.068	27.82
206.287	33.96
206.505	144.55
206.724	29.87
206.943	3.24
207.162	107.69
207.381	-4.95
207.599	76.97
207.818	1.19
208.037	-19.29
208.255	-23.38
208.474	7.34
208.693	74.92
208.911	7.34
209.13	17.58
209.349	5.29
209.567	5.29
209.786	33.96
210.005	70.83
210.223	11.43
210.442	29.87
210.661	52.39
210.879	1.19
211.098	54.44
211.316	23.72
211.535	27.82
211.753	1.19
211.972	9.39
212.191	52.39
212.409	36.01
212.628	9.39
212.846	64.68
213.065	29.87
213.283	83.11
213.502	54.44
213.72	-25.43
213.938	-31.57
214.157	101.55
214.375	40.11
214.594	17.58
214.812	-11.09
215.031	54.44
215.249	9.39
215.467	3.24
215.686	93.35
215.904	23.72
216.122	46.25
216.341	25.77
216.559	33.96
216.778	21.67
216.996	-7
217.214	27.82
217.432	-41.81
217.651	3.24
217.869	117.93
218.087	-15.19
218.306	9.39
218.524	89.26
218.742	64.68
218.96	38.06
219.179	23.72
219.397	27.82
219.615	95.4
219.833	48.3
220.051	-4.95
220.27	21.67
220.488	29.87
220.706	122.02
220.924	1.19
221.142	-19.29
221.36	5.29
221.578	74.92
221.796	17.58
222.015	46.25
222.233	40.11
222.451	62.63
222.669	3.24
222.887	25.77
223.105	-54.1
223.323	11.43
223.541	1.19
223.759	50.35
223.977	91.31
224.195	21.67
224.413	-2.9
224.631	31.91
224.849	-31.57
225.067	103.59
225.285	-2.9
225.503	19.63
225.721	23.72
225.939	64.68
226.157	25.77
226.375	87.21
226.592	13.48
226.81	91.31
227.028	50.35
227.246	144.55
227.464	48.3
227.682	46.25
227.9	54.44
228.117	1.19
228.335	1.19
228.553	-50
228.771	64.68
228.989	11.43
229.206	-17.24
229.424	-2.9
229.642	25.77
229.86	21.67
230.077	-47.96
230.295	91.31
230.513	52.39
230.731	68.78
230.948	25.77
231.166	66.73
231.384	-29.52
231.601	-4.95
231.819	9.39
232.037	91.31
232.254	-4.95
232.472	48.3
232.689	27.82
232.907	79.02
233.125	19.63
233.342	-31.57
233.56	93.35
233.777	15.53
233.995	29.87
234.213	62.63
234.43	-4.95
234.648	68.78
234.865	-76.63
235.083	38.06
235.3	36.01
235.518	42.15
235.735	91.31
235.953	25.77
236.17	5.29
236.388	3.24
236.605	33.96
236.822	40.11
237.04	27.82
237.257	62.63
237.475	-25.43
237.692	44.2
237.909	23.72
238.127	-0.85
238.344	60.59
238.562	38.06
238.779	33.96
238.996	36.01
239.214	50.35
239.431	76.97
239.648	25.77
239.865	-29.52
240.083	-11.09
240.3	38.06
240.517	-39.76
240.735	72.87
240.952	48.3
241.169	66.73
241.386	33.96
241.603	15.53
241.821	-4.95
242.038	-2.9
242.255	46.25
242.472	-11.09
242.689	44.2
242.907	19.63
243.124	-7
243.341	105.64
243.558	-7
243.775	-43.86
243.992	25.77
244.209	52.39
244.426	95.4
244.643	70.83
244.86	11.43
245.078	95.4
245.295	11.43
245.512	66.73
245.729	9.39
245.946	40.11
246.163	-9.05
246.38	70.83
246.597	54.44
246.814	38.06
247.031	83.11
247.248	38.06
247.464	72.87
247.681	23.72
247.898	40.11
248.115	68.78
248.332	-11.09
248.549	54.44
248.766	29.87
248.983	3.24
249.2	72.87
249.417	60.59
249.633	46.25
249.85	99.5
250.067	42.15
250.284	85.16
250.501	9.39
250.717	-39.76
250.934	-25.43
251.151	-25.43
251.368	115.88
251.585	74.92
251.801	46.25
252.018	13.48
252.235	-15.19
252.451	44.2
252.668	-45.91
252.885	36.01
253.102	17.58
253.318	15.53
253.535	11.43
253.752	-62.29
253.968	3.24
254.185	-47.96
254.401	7.34
254.618	62.63
254.835	74.92
255.051	62.63
255.268	52.39
255.484	87.21
255.701	5.29
255.917	-11.09
256.134	23.72
256.351	95.4
256.567	23.72
256.784	-19.29
257	-58.2
257.217	58.54
257.433	-50
257.65	60.59
257.866	162.98
258.082	52.39
258.299	-25.43
258.515	64.68
258.732	97.45
258.948	-39.76
259.165	5.29
259.381	-13.14
259.597	-33.62
259.814	60.59
260.03	11.43
260.246	27.82
260.463	9.39
260.679	93.35
260.895	44.2
261.112	46.25
261.328	9.39
261.544	11.43
261.761	64.68
261.977	11.43
262.193	-37.72
262.409	99.5
262.626	105.64
262.842	95.4
263.058	15.53
263.274	56.49
263.49	-2.9
263.707	79.02
263.923	62.63
264.139	-13.14
264.355	40.11
264.571	36.01
264.787	21.67
265.004	99.5
265.22	-66.39
265.436	3.24
265.652	-15.19
265.868	42.15
266.084	-9.05
266.3	132.26
266.516	7.34
266.732	85.16
266.948	-9.05
267.164	-23.38
267.38	109.74
267.596	76.97
267.812	81.07
268.028	93.35
268.244	-19.29
268.46	27.82
268.676	60.59
268.892	15.53
269.108	21.67
269.324	-9.05
269.54	3.24
269.756	76.97
269.972	-47.96
270.188	-2.9
270.403	-2.9
270.619	-15.19
270.835	-43.86
271.051	48.3
271.267	17.58
271.483	87.21
271.698	-29.52
271.914	50.35
272.13	5.29
272.346	13.48
272.562	36.01
272.777	58.54
272.993	52.39
273.209	9.39
273.425	11.43
273.64	7.34
273.856	54.44
274.072	23.72
274.287	64.68
274.503	36.01
274.719	93.35
274.934	50.35
275.15	7.34
275.366	74.92
275.581	-27.48
275.797	101.55
276.012	66.73
276.228	-15.19
276.444	19.63
276.659	9.39
276.875	46.25
277.09	3.24
277.306	3.24
277.521	23.72
277.737	-7
277.952	29.87
278.168	-9.05
278.383	99.5
278.599	31.91
278.814	70.83
279.03	-39.76
279.245	58.54
279.461	40.11
279.676	31.91
279.892	7.34
280.107	-7
280.322	-23.38
280.538	46.25
280.753	44.2
280.969	46.25
281.184	27.82
281.399	56.49
281.615	79.02
281.83	17.58
282.045	17.58
282.26	-45.91
282.476	113.83
282.691	68.78
282.906	21.67
283.122	-45.91
283.337	44.2
283.552	81.07
283.767	-0.85
283.983	50.35
284.198	25.77
284.413	70.83
284.628	-27.48
284.843	-0.85
285.058	19.63
285.274	-2.9
285.489	-47.96
285.704	7.34
285.919	60.59
286.134	36.01
286.349	-0.85
286.564	-35.67
286.779	128.17
286.995	19.63
287.21	19.63
287.425	101.55
287.64	-13.14
287.855	-27.48
288.07	62.63
288.285	-2.9
288.5	15.53
288.715	54.44
288.93	54.44
289.145	-19.29
289.36	74.92
289.575	42.15
289.79	97.45
290.004	7.34
290.219	25.77
290.434	15.53
290.649	52.39
290.864	-70.48
291.079	46.25
291.294	17.58
291.509	46.25
291.724	7.34
291.938	33.96
292.153	95.4
292.368	-9.05
292.583	23.72
292.798	81.07
293.012	48.3
293.227	44.2
293.442	119.98
293.657	79.02
293.871	56.49
294.086	-17.24
294.301	99.5
294.516	72.87
294.73	-21.33
294.945	74.92
295.16	152.74
295.374	156.84
295.589	27.82
295.804	42.15
296.018	3.24
296.233	15.53
296.447	66.73
296.662	-15.19
296.877	52.39
297.091	15.53
297.306	-11.09
297.52	99.5
297.735	21.67
297.949	85.16
298.164	64.68
298.378	58.54
298.593	11.43
298.807	17.58
299.022	29.87
299.236	58.54
299.451	58.54
299.665	21.67
299.88	-27.48
300.094	17.58
300.309	66.73
300.523	103.59
300.737	9.39
300.952	-13.14
301.166	74.92
301.381	-19.29
301.595	23.72
301.809	25.77
302.024	-2.9
302.238	-9.05
302.452	46.25
302.667	23.72
302.881	74.92
303.095	64.68
303.309	29.87
303.524	-7
303.738	85.16
303.952	-60.24
304.166	52.39
304.381	-17.24
304.595	66.73
304.809	-13.14
305.023	56.49
305.237	76.97
305.452	-29.52
305.666	70.83
305.88	68.78
306.094	56.49
306.308	-72.53
306.522	85.16
306.736	150.7
306.95	38.06
307.164	68.78
307.379	-17.24
307.593	13.48
307.807	68.78
308.021	81.07
308.235	58.54
308.449	85.16
308.663	-13.14
308.877	117.93
309.091	36.01
309.305	21.67
309.519	115.88
309.733	97.45
309.947	3.24
310.161	113.83
310.374	74.92
310.588	23.72
310.802	-19.29
311.016	-2.9
311.23	79.02
311.444	46.25
311.658	46.25
311.872	91.31
312.085	103.59
312.299	19.63
312.513	-7
312.727	7.34
312.941	42.15
313.154	50.35
313.368	91.31
313.582	54.44
313.796	1.19
314.009	103.59
314.223	44.2
314.437	89.26
314.651	40.11
314.864	29.87
315.078	-11.09
315.292	3.24
315.505	-17.24
315.719	40.11
315.933	1.19
316.146	31.91
316.36	33.96
316.573	27.82
316.787	64.68
317.001	79.02
317.214	62.63
317.428	9.39
317.641	54.44
317.855	9.39
318.068	50.35
318.282	70.83
318.495	81.07
318.709	23.72
318.922	58.54
319.136	48.3
319.349	64.68
319.563	-19.29
319.776	11.43
319.99	-17.24
320.203	72.87
320.417	27.82
320.63	42.15
320.843	38.06
321.057	117.93
321.27	31.91
321.483	130.22
321.697	97.45
321.91	111.78
322.124	44.2
322.337	44.2
322.55	44.2
322.763	140.46
322.977	23.72
323.19	-47.96
323.403	33.96
323.617	72.87
323.83	7.34
324.043	58.54
324.256	64.68
324.469	-54.1
324.683	136.36
324.896	33.96
325.109	54.44
325.322	1.19
325.535	103.59
325.748	44.2
325.962	42.15
326.175	-9.05
326.388	79.02
326.601	44.2
326.814	64.68
327.027	72.87
327.24	105.64
327.453	25.77
327.666	99.5
327.879	-35.67
328.092	50.35
328.305	60.59
328.518	13.48
328.731	-13.14
328.944	31.91
329.157	36.01
329.37	-56.15
329.583	52.39
329.796	91.31
330.009	9.39
330.222	60.59
330.435	31.91
330.648	68.78
330.861	52.39
331.073	15.53
331.286	36.01
331.499	136.36
331.712	-13.14
331.925	9.39
332.138	25.77
332.35	50.35
332.563	15.53
332.776	111.78
332.989	23.72
333.202	25.77
333.414	17.58
333.627	5.29
333.84	48.3
334.053	124.07
334.265	-15.19
334.478	-27.48
334.691	-7
334.903	21.67
335.116	7.34
335.329	21.67
335.541	60.59
335.754	17.58
335.966	60.59
336.179	48.3
336.392	-4.95
336.604	111.78
336.817	25.77
337.029	72.87
337.242	-7
337.454	25.77
337.667	60.59
337.88	89.26
338.092	19.63
338.305	42.15
338.517	3.24
338.729	99.5
338.942	89.26
339.154	31.91
339.367	25.77
339.579	83.11
339.792	-4.95
340.004	68.78
340.217	66.73
340.429	58.54
340.641	109.74
340.854	5.29
341.066	-21.33
341.278	105.64
341.491	74.92
341.703	21.67
341.915	-17.24
342.128	52.39
342.34	130.22
342.552	60.59
342.764	33.96
342.977	107.69
343.189	93.35
343.401	31.91
343.613	-41.81
343.826	-23.38
344.038	-66.39
344.25	107.69
344.462	21.67
344.674	33.96
344.886	5.29
345.099	38.06
345.311	68.78
345.523	42.15
345.735	-70.48
345.947	42.15
346.159	-0.85
346.371	17.58
346.583	-0.85
346.795	50.35
347.007	42.15
347.219	87.21
347.431	107.69
347.643	130.22
347.855	52.39
348.067	91.31
348.279	-2.9
348.491	19.63
348.703	33.96
348.915	95.4
349.127	-7
349.339	70.83
349.551	99.5
349.763	70.83
349.975	-9.05
350.187	124.07
350.399	50.35
350.61	70.83
350.822	81.07
351.034	7.34
351.246	46.25
351.458	38.06
351.669	74.92
351.881	72.87
352.093	48.3
352.305	74.92
352.517	130.22
352.728	70.83
352.94	19.63
353.152	42.15
353.363	36.01
353.575	60.59
353.787	42.15
353.999	119.98
354.21	171.18
354.422	44.2
354.633	68.78
354.845	87.21
355.057	66.73
355.268	23.72
355.48	132.26
355.692	-35.67
355.903	21.67
356.115	23.72
356.326	48.3
356.538	126.12
356.749	60.59
356.961	95.4
357.172	-23.38
357.384	46.25
357.595	31.91
357.807	38.06
358.018	44.2
358.23	64.68
358.441	126.12
358.653	146.6
358.864	87.21
359.075	44.2
359.287	40.11
359.498	62.63
359.709	33.96
359.921	117.93
360.132	52.39
360.344	1.19
360.555	60.59
360.766	76.97
360.977	31.91
361.189	56.49
361.4	27.82
361.611	105.64
361.823	87.21
362.034	38.06
362.245	-41.81
362.456	95.4
362.667	72.87
362.879	68.78
363.09	31.91
363.301	113.83
363.512	64.68
363.723	140.46
363.935	19.63
364.146	83.11
364.357	19.63
364.568	64.68
364.779	-21.33
364.99	95.4
365.201	44.2
365.412	33.96
365.623	-50
365.834	136.36
366.045	36.01
366.256	83.11
366.467	99.5
366.678	40.11
366.889	158.89
367.1	56.49
367.311	105.64
367.522	-39.76
367.733	101.55
367.944	117.93
368.155	62.63
368.366	31.91
368.577	64.68
368.788	128.17
368.999	89.26
369.209	64.68
369.42	54.44
369.631	144.55
369.842	124.07
370.053	23.72
370.264	111.78
370.474	101.55
370.685	46.25
370.896	134.31
371.107	-17.24
371.317	58.54
371.528	85.16
371.739	130.22
371.95	60.59
372.16	97.45
372.371	70.83
372.582	122.02
372.792	5.29
373.003	81.07
373.214	42.15
373.424	89.26
373.635	-13.14
373.846	76.97
374.056	52.39
374.267	101.55
374.477	68.78
374.688	46.25
374.898	31.91
375.109	81.07
375.319	42.15
375.53	76.97
375.74	7.34
375.951	85.16
376.161	44.2
376.372	115.88
376.582	13.48
376.793	81.07
377.003	-2.9
377.214	62.63
377.424	134.31
377.635	91.31
377.845	38.06
378.055	99.5
378.266	40.11
378.476	64.68
378.686	91.31
378.897	66.73
379.107	79.02
379.317	81.07
379.528	124.07
379.738	115.88
379.948	11.43
380.158	72.87
380.369	74.92
380.579	52.39
380.789	76.97
380.999	76.97
381.21	158.89
381.42	101.55
381.63	56.49
381.84	93.35
382.05	72.87
382.261	46.25
382.471	103.59
382.681	27.82
382.891	124.07
383.101	74.92
383.311	38.06
383.521	95.4
383.731	101.55
383.941	58.54
384.151	38.06
384.361	58.54
384.571	97.45
384.781	42.15
384.991	70.83
385.201	126.12
385.411	52.39
385.621	62.63
385.831	74.92
386.041	89.26
386.251	50.35
386.461	85.16
386.671	60.59
386.881	128.17
387.091	7.34
387.301	107.69
387.511	-97.11
387.72	23.72
387.93	74.92
388.14	124.07
388.35	72.87
388.56	138.41
388.769	107.69
388.979	83.11
389.189	74.92
389.399	99.5
389.609	70.83
389.818	103.59
390.028	70.83
390.238	117.93
390.447	11.43
390.657	76.97
390.867	93.35
391.076	-0.85
391.286	132.26
391.496	76.97
391.705	11.43
391.915	154.79
392.125	107.69
392.334	23.72
392.544	177.32
392.753	87.21
392.963	83.11
393.172	97.45
393.382	50.35
393.591	171.18
393.801	195.75
394.01	79.02
394.22	152.74
394.429	97.45
394.639	66.73
394.848	128.17
395.058	95.4
395.267	115.88
395.477	122.02
395.686	79.02
395.895	185.51
396.105	169.13
396.314	115.88
396.524	119.98
396.733	13.48
396.942	183.46
397.152	91.31
397.361	130.22
397.57	103.59
397.78	79.02
397.989	113.83
398.198	183.46
398.407	119.98
398.617	132.26
398.826	167.08
399.035	50.35
399.244	111.78
399.453	93.35
399.663	181.42
399.872	101.55
400.081	70.83
400.29	169.13
400.499	134.31
400.708	103.59
400.917	183.46
401.127	128.17
401.336	144.55
401.545	208.04
401.754	210.09
401.963	224.42
402.172	173.22
402.381	162.98
402.59	162.98
402.799	210.09
403.008	191.66
403.217	150.7
403.426	150.7
403.635	134.31
403.844	181.42
404.053	236.71
404.262	154.79
404.471	228.52
404.68	124.07
404.888	171.18
405.097	214.18
405.306	177.32
405.515	234.66
405.724	199.85
405.933	357.54
406.142	236.71
406.35	279.72
406.559	197.8
406.768	310.44
406.977	269.48
407.185	253.09
407.394	267.43
407.603	253.09
407.812	246.95
408.02	304.29
408.229	316.58
408.438	312.49
408.646	263.33
408.855	353.45
409.064	367.78
409.272	400.55
409.481	363.69
409.69	363.69
409.898	400.55
410.107	449.7
410.315	447.65
410.524	404.64
410.733	492.71
410.941	431.27
411.15	496.8
411.358	574.63
411.567	588.96
411.775	558.24
411.984	582.82
412.192	640.16
412.401	552.1
412.609	720.03
412.818	625.83
413.026	658.59
413.234	691.36
413.443	760.99
413.651	773.28
413.86	855.2
414.068	834.72
414.276	867.49
414.485	818.33
414.693	847.01
414.901	1051.8
415.11	976.03
415.318	963.74
415.526	1070.23
415.734	1019.04
415.943	1119.39
416.151	1080.47
416.359	1189.02
416.567	1260.7
416.776	1250.46
416.984	1359
417.192	1334.42
417.4	1424.53
417.608	1336.47
417.817	1485.97
418.025	1567.89
418.233	1631.38
418.441	1598.61
418.649	1741.97
418.857	1805.46
419.065	1832.08
419.273	1795.22
419.481	1891.47
419.689	2108.55
419.897	2167.95
420.105	2196.62
420.313	2202.76
420.521	2423.94
420.729	2339.97
420.937	2469
421.145	2616.45
421.353	2589.83
421.561	2872.45
421.769	2817.15
421.977	2946.17
422.185	2827.39
422.393	3089.53
422.601	3253.37
422.809	3298.42
423.017	3335.29
423.224	3429.49
423.432	3548.28
423.64	3544.18
423.848	3918.96
424.056	3834.99
424.263	4052.08
424.471	4105.32
424.679	4228.2
424.887	4455.53
425.094	4576.36
425.302	4535.4
425.51	4766.82
425.718	4998.24
425.925	5016.67
426.133	5037.15
426.341	5346.39
426.548	5479.51
426.756	5737.56
426.964	5790.8
427.171	5975.12
427.379	6276.17
427.586	6394.95
427.794	6497.35
428.001	6835.27
428.209	7216.19
428.417	7085.12
428.624	7394.36
428.832	7398.46
429.039	7328.83
429.247	7498.81
429.454	8121.39
429.662	8692.77
429.869	8035.38
430.076	8692.77
430.284	8643.62
430.491	8879.14
430.699	9421.85
430.906	9573.4
431.114	9647.13
431.321	9958.42
431.528	10050.58
431.736	10603.53
431.943	11205.63
432.15	10839.05
432.358	11131.9
432.565	11633.66
432.772	11678.71
432.979	12311.53
433.187	12405.74
433.394	12504.04
433.601	13259.74
433.808	13263.84
434.016	13454.3
434.223	13923.29
434.43	14711.75
434.637	14275.54
434.844	15211.46
435.052	15532.99
435.259	15698.88
435.466	15645.63
435.673	15582.14
435.88	16411.57
436.087	17234.85
436.294	17290.15
436.501	16890.79
436.708	17609.63
436.915	18088.85
437.122	18752.4
437.329	18561.94
437.537	19317.64
437.743	19567.49
437.95	19483.52
438.157	20353.91
438.364	21009.26
438.571	21285.73
438.778	20908.91
438.985	23323.46
439.192	22145.88
439.399	22903.63
439.606	22502.23
439.813	23612.23
440.02	25369.38
440.227	24642.35
440.433	24535.86
440.64	25623.33
440.847	25418.53
441.054	25672.48
441.261	27478.79
441.467	26987.28
441.674	27679.49
441.881	28480.25
442.088	28709.62
442.294	28472.06
442.501	29360.87
442.708	29862.63
442.914	30995.15
443.121	32330.43
443.328	30995.15
443.534	33655.47
443.741	32543.42
443.948	32312
444.154	34587.29
444.361	34106.02
444.568	34710.17
444.774	34452.12
444.981	34691.74
445.187	35756.68
445.394	37087.86
445.6	36637.31
445.807	40362.56
446.013	39062.1
446.22	39459.41
446.426	40565.31
446.633	40911.42
446.839	42893.85
447.046	41077.3
447.252	42967.58
447.459	43381.27
447.665	43266.58
447.871	44560.9
448.078	47016.41
448.284	44653.06
448.491	45713.91
448.697	47618.52
448.903	48445.9
449.11	48540.1
449.316	47712.72
449.522	48630.21
449.728	49588.66
449.935	49922.48
450.141	50221.48
450.347	51214.75
450.553	49559.99
450.76	50295.21
450.966	51902.87
451.172	51362.2
451.378	52779.4
451.584	51650.97
451.791	52986.24
451.997	53328.25
452.203	53819.77
452.409	54135.15
452.615	53098.88
452.821	51644.82
453.027	51136.93
453.233	53723.51
453.44	51487.13
453.646	52320.65
453.852	52773.25
454.058	53174.66
454.264	51878.29
454.47	52656.52
454.676	51278.24
454.882	52965.76
455.088	48693.7
455.294	49412.54
455.5	50332.07
455.705	50850.21
455.911	48884.16
456.117	47851.98
456.323	47288.79
456.529	44835.33
456.735	47114.72
456.941	45808.11
457.147	44966.4
457.352	43543.06
457.558	43233.81
457.764	42914.33
457.97	42168.87
458.176	41341.49
458.381	41632.3
458.587	39168.6
458.793	39512.66
458.999	37534.32
459.204	40112.71
459.41	38906.46
459.616	36493.95
459.821	36643.45
460.027	36442.75
460.233	35779.21
460.438	33624.75
460.644	34493.08
460.85	32891.57
461.055	32342.72
461.261	32176.83
461.466	29821.67
461.672	28949.23
461.878	30851.8
462.083	28715.76
462.289	28603.13
462.494	27992.83
462.7	26917.65
462.905	25926.43
463.111	26972.94
463.316	26927.89
463.522	26399.51
463.727	26712.85
463.932	26639.12
464.138	26446.62
464.343	26022.69
464.549	25459.49
464.754	26409.75
464.959	26077.98
465.165	26032.93
465.37	24824.62
465.575	24400.69
465.781	25254.7
465.986	25178.92
466.191	24589.11
466.397	24005.44
466.602	22872.91
466.807	23837.5
467.012	23728.96
467.218	23493.44
