Data from USB4F104151__34__12-41-18-744.txt Node

Date: Fri Mar 14 12:41:18 EDT 2025
User: louis
Spectrometer: USB4F10415
Trigger mode: 4
Integration Time (sec): 3.000000E-2
Scans to average: 1
Electric dark correction enabled: true
Nonlinearity correction enabled: false
Boxcar width: 0
XAxis mode: Wavelengths
Number of Pixels in Spectrum: 3648
>>>>>Begin Spectral Data<<<<<
178.204	-110.42
178.424	-110.42
178.644	-110.42
178.864	-190.29
179.084	-149.33
179.304	26.79
179.524	-8.02
179.744	32.94
179.964	49.32
180.184	39.08
180.404	39.08
180.624	-3.93
180.844	-36.69
181.064	-128.85
181.283	16.55
181.503	-30.55
181.723	4.27
181.943	-55.12
182.163	127.14
182.383	-12.12
182.602	37.03
182.822	41.13
183.042	22.7
183.262	6.31
183.482	14.51
183.701	16.55
183.921	55.47
184.141	18.6
184.361	63.66
184.58	-51.03
184.8	6.31
185.02	100.52
185.239	22.7
185.459	63.66
185.679	51.37
185.898	20.65
186.118	34.99
186.338	84.14
186.557	30.89
186.777	-36.69
186.997	39.08
187.216	-12.12
187.436	86.19
187.655	110.76
187.875	37.03
188.095	-26.45
188.314	55.47
188.534	61.61
188.753	-10.07
188.973	67.75
189.192	59.56
189.412	-14.17
189.631	-1.88
189.851	73.9
190.07	18.6
190.29	-8.02
190.509	2.22
190.729	-32.6
190.948	24.75
191.168	151.72
191.387	-24.4
191.607	47.27
191.826	51.37
192.045	8.36
192.265	16.55
192.484	18.6
192.704	-40.79
192.923	-48.98
193.142	92.33
193.362	45.23
193.581	45.23
193.8	28.84
194.02	-1.88
194.239	104.62
194.458	92.33
194.678	24.75
194.897	-22.36
195.116	-3.93
195.335	18.6
195.555	26.79
195.774	14.51
195.993	4.27
196.212	-8.02
196.432	-8.02
196.651	-40.79
196.87	61.61
197.089	88.23
197.308	-14.17
197.528	43.18
197.747	14.51
197.966	51.37
198.185	88.23
198.404	47.27
198.623	39.08
198.842	88.23
199.062	69.8
199.281	94.38
199.5	20.65
199.719	47.27
199.938	4.27
200.157	37.03
200.376	51.37
200.595	53.42
200.814	32.94
201.033	-14.17
201.252	47.27
201.471	30.89
201.69	73.9
201.909	65.71
202.128	8.36
202.347	32.94
202.566	-12.12
202.785	32.94
203.004	20.65
203.223	20.65
203.442	100.52
203.661	41.13
203.879	-48.98
204.098	73.9
204.317	39.08
204.536	65.71
204.755	65.71
204.974	39.08
205.193	43.18
205.411	16.55
205.63	14.51
205.849	-34.64
206.068	108.71
206.287	0.17
206.505	-44.88
206.724	-75.6
206.943	-18.26
207.162	24.75
207.381	45.23
207.599	4.27
207.818	14.51
208.037	26.79
208.255	47.27
208.474	94.38
208.693	20.65
208.911	2.22
209.13	-3.93
209.349	18.6
209.567	24.75
209.786	63.66
210.005	69.8
210.223	71.85
210.442	18.6
210.661	55.47
210.879	0.17
211.098	59.56
211.316	49.32
211.535	12.46
211.753	-40.79
211.972	14.51
212.191	47.27
212.409	57.51
212.628	45.23
212.846	28.84
213.065	30.89
213.283	67.75
213.502	102.57
213.72	24.75
213.938	30.89
214.157	6.31
214.375	57.51
214.594	4.27
214.812	14.51
215.031	63.66
215.249	53.42
215.467	59.56
215.686	41.13
215.904	57.51
216.122	47.27
216.341	94.38
216.559	8.36
216.778	0.17
216.996	80.04
217.214	-26.45
217.432	8.36
217.651	-32.6
217.869	61.61
218.087	-12.12
218.306	123.05
218.524	49.32
218.742	-8.02
218.96	84.14
219.179	80.04
219.397	59.56
219.615	39.08
219.833	51.37
220.051	24.75
220.27	69.8
220.488	59.56
220.706	34.99
220.924	2.22
221.142	0.17
221.36	0.17
221.578	75.95
221.796	41.13
222.015	77.99
222.233	92.33
222.451	2.22
222.669	18.6
222.887	22.7
223.105	49.32
223.323	10.41
223.541	28.84
223.759	6.31
223.977	61.61
224.195	41.13
224.413	92.33
224.631	98.47
224.849	69.8
225.067	71.85
225.285	104.62
225.503	94.38
225.721	12.46
225.939	82.09
226.157	88.23
226.375	123.05
226.592	-8.02
226.81	49.32
227.028	71.85
227.246	170.15
227.464	43.18
227.682	116.9
227.9	96.43
228.117	8.36
228.335	43.18
228.553	6.31
228.771	14.51
228.989	100.52
229.206	96.43
229.424	16.55
229.642	39.08
229.86	51.37
230.077	18.6
230.295	57.51
230.513	98.47
230.731	77.99
230.948	96.43
231.166	84.14
231.384	-14.17
231.601	2.22
231.819	59.56
232.037	-14.17
232.254	59.56
232.472	16.55
232.689	-20.31
232.907	-12.12
233.125	-24.4
233.342	-1.88
233.56	-5.97
233.777	47.27
233.995	65.71
234.213	51.37
234.43	-3.93
234.648	82.09
234.865	26.79
235.083	77.99
235.3	-30.55
235.518	-22.36
235.735	39.08
235.953	59.56
236.17	-20.31
236.388	59.56
236.605	8.36
236.822	71.85
237.04	61.61
237.257	88.23
237.475	26.79
237.692	61.61
237.909	96.43
238.127	67.75
238.344	82.09
238.562	-14.17
238.779	14.51
238.996	34.99
239.214	61.61
239.431	112.81
239.648	-24.4
239.865	43.18
240.083	59.56
240.3	59.56
240.517	14.51
240.735	-14.17
240.952	61.61
241.169	59.56
241.386	-12.12
241.603	12.46
241.821	20.65
242.038	84.14
242.255	69.8
242.472	26.79
242.689	-59.22
242.907	75.95
243.124	45.23
243.341	69.8
243.558	-34.64
243.775	10.41
243.992	-18.26
244.209	-30.55
244.426	37.03
244.643	61.61
244.86	20.65
245.078	110.76
245.295	-22.36
245.512	6.31
245.729	-5.97
245.946	-1.88
246.163	75.95
246.38	-20.31
246.597	45.23
246.814	84.14
247.031	49.32
247.248	102.57
247.464	6.31
247.681	24.75
247.898	84.14
248.115	34.99
248.332	69.8
248.549	47.27
248.766	92.33
248.983	168.1
249.2	69.8
249.417	108.71
249.633	-32.6
249.85	26.79
250.067	28.84
250.284	80.04
250.501	51.37
250.717	135.34
250.934	67.75
251.151	57.51
251.368	37.03
251.585	34.99
251.801	-3.93
252.018	-24.4
252.235	34.99
252.451	-3.93
252.668	-5.97
252.885	75.95
253.102	14.51
253.318	102.57
253.535	16.55
253.752	-16.21
253.968	4.27
254.185	-3.93
254.401	61.61
254.618	37.03
254.835	28.84
255.051	96.43
255.268	71.85
255.484	28.84
255.701	16.55
255.917	26.79
256.134	22.7
256.351	49.32
256.567	-83.8
256.784	4.27
257	-1.88
257.217	104.62
257.433	63.66
257.65	24.75
257.866	34.99
258.082	8.36
258.299	24.75
258.515	98.47
258.732	-1.88
258.948	-22.36
259.165	96.43
259.381	18.6
259.597	-24.4
259.814	30.89
260.03	57.51
260.246	43.18
260.463	4.27
260.679	63.66
260.895	10.41
261.112	24.75
261.328	43.18
261.544	30.89
261.761	110.76
261.977	2.22
262.193	22.7
262.409	145.58
262.626	8.36
262.842	55.47
263.058	-30.55
263.274	80.04
263.49	32.94
263.707	41.13
263.923	24.75
264.139	43.18
264.355	-46.93
264.571	106.67
264.787	88.23
265.004	41.13
265.22	32.94
265.436	14.51
265.652	53.42
265.868	-16.21
266.084	49.32
266.3	22.7
266.516	14.51
266.732	57.51
266.948	67.75
267.164	32.94
267.38	51.37
267.596	43.18
267.812	75.95
268.028	26.79
268.244	77.99
268.46	24.75
268.676	51.37
268.892	67.75
269.108	6.31
269.324	30.89
269.54	-30.55
269.756	86.19
269.972	-75.6
270.188	90.28
270.403	-12.12
270.619	0.17
270.835	32.94
271.051	98.47
271.267	30.89
271.483	49.32
271.698	114.86
271.914	32.94
272.13	34.99
272.346	86.19
272.562	41.13
272.777	57.51
272.993	65.71
273.209	67.75
273.425	41.13
273.64	-28.5
273.856	30.89
274.072	39.08
274.287	71.85
274.503	77.99
274.719	14.51
274.934	53.42
275.15	-36.69
275.366	-38.74
275.581	-38.74
275.797	39.08
276.012	0.17
276.228	49.32
276.444	67.75
276.659	22.7
276.875	8.36
277.09	24.75
277.306	39.08
277.521	114.86
277.737	32.94
277.952	114.86
278.168	-5.97
278.383	34.99
278.599	106.67
278.814	39.08
279.03	100.52
279.245	55.47
279.461	10.41
279.676	32.94
279.892	61.61
280.107	4.27
280.322	24.75
280.538	61.61
280.753	10.41
280.969	34.99
281.184	0.17
281.399	104.62
281.615	4.27
281.83	170.15
282.045	73.9
282.26	47.27
282.476	26.79
282.691	55.47
282.906	26.79
283.122	28.84
283.337	16.55
283.552	43.18
283.767	63.66
283.983	73.9
284.198	73.9
284.413	39.08
284.628	-10.07
284.843	63.66
285.058	0.17
285.274	73.9
285.489	59.56
285.704	94.38
285.919	14.51
286.134	-5.97
286.349	26.79
286.564	65.71
286.779	125.1
286.995	34.99
287.21	-24.4
287.425	100.52
287.64	-12.12
287.855	-61.27
288.07	-81.75
288.285	4.27
288.5	100.52
288.715	102.57
288.93	-20.31
289.145	16.55
289.36	8.36
289.575	53.42
289.79	6.31
290.004	49.32
290.219	90.28
290.434	-14.17
290.649	32.94
290.864	24.75
291.079	61.61
291.294	96.43
291.509	-1.88
291.724	57.51
291.938	51.37
292.153	-44.88
292.368	-8.02
292.583	-3.93
292.798	55.47
293.012	102.57
293.227	63.66
293.442	47.27
293.657	69.8
293.871	145.58
294.086	2.22
294.301	-1.88
294.516	53.42
294.73	98.47
294.945	37.03
295.16	37.03
295.374	88.23
295.589	-34.64
295.804	16.55
296.018	67.75
296.233	45.23
296.447	-30.55
296.662	34.99
296.877	73.9
297.091	32.94
297.306	-8.02
297.52	41.13
297.735	16.55
297.949	-5.97
298.164	55.47
298.378	51.37
298.593	16.55
298.807	53.42
299.022	100.52
299.236	8.36
299.451	71.85
299.665	20.65
299.88	94.38
300.094	57.51
300.309	6.31
300.523	37.03
300.737	45.23
300.952	18.6
301.166	139.43
301.381	18.6
301.595	-30.55
301.809	16.55
302.024	61.61
302.238	39.08
302.452	75.95
302.667	32.94
302.881	102.57
303.095	53.42
303.309	57.51
303.524	-10.07
303.738	28.84
303.952	14.51
304.166	32.94
304.381	-53.08
304.595	96.43
304.809	59.56
305.023	39.08
305.237	-1.88
305.452	32.94
305.666	47.27
305.88	80.04
306.094	53.42
306.308	-3.93
306.522	61.61
306.736	37.03
306.95	110.76
307.164	-10.07
307.379	100.52
307.593	16.55
307.807	14.51
308.021	55.47
308.235	84.14
308.449	-3.93
308.663	-5.97
308.877	45.23
309.091	106.67
309.305	110.76
309.519	-59.22
309.733	94.38
309.947	14.51
310.161	47.27
310.374	100.52
310.588	80.04
310.802	-53.08
311.016	-5.97
311.23	98.47
311.444	51.37
311.658	100.52
311.872	125.1
312.085	84.14
312.299	61.61
312.513	22.7
312.727	112.81
312.941	-3.93
313.154	47.27
313.368	-38.74
313.582	45.23
313.796	94.38
314.009	2.22
314.223	112.81
314.437	123.05
314.651	30.89
314.864	139.43
315.078	20.65
315.292	24.75
315.505	41.13
315.719	26.79
315.933	26.79
316.146	-5.97
316.36	26.79
316.573	137.38
316.787	34.99
317.001	-40.79
317.214	-42.84
317.428	30.89
317.641	2.22
317.855	-14.17
318.068	4.27
318.282	2.22
318.495	149.67
318.709	32.94
318.922	61.61
319.136	141.48
319.349	118.95
319.563	110.76
319.776	2.22
319.99	-40.79
320.203	57.51
320.417	6.31
320.63	71.85
320.843	75.95
321.057	24.75
321.27	37.03
321.483	63.66
321.697	80.04
321.91	73.9
322.124	47.27
322.337	49.32
322.55	55.47
322.763	43.18
322.977	-3.93
323.19	2.22
323.403	26.79
323.617	43.18
323.83	16.55
324.043	16.55
324.256	77.99
324.469	51.37
324.683	39.08
324.896	-22.36
325.109	55.47
325.322	45.23
325.535	112.81
325.748	39.08
325.962	71.85
326.175	30.89
326.388	112.81
326.601	59.56
326.814	34.99
327.027	28.84
327.24	80.04
327.453	-36.69
327.666	94.38
327.879	71.85
328.092	49.32
328.305	-3.93
328.518	39.08
328.731	59.56
328.944	61.61
329.157	65.71
329.37	22.7
329.583	102.57
329.796	28.84
330.009	63.66
330.222	100.52
330.435	59.56
330.648	77.99
330.861	80.04
331.073	80.04
331.286	106.67
331.499	86.19
331.712	10.41
331.925	24.75
332.138	12.46
332.35	14.51
332.563	22.7
332.776	20.65
332.989	-69.46
333.202	-22.36
333.414	84.14
333.627	49.32
333.84	26.79
334.053	37.03
334.265	30.89
334.478	67.75
334.691	32.94
334.903	30.89
335.116	34.99
335.329	20.65
335.541	123.05
335.754	55.47
335.966	22.7
336.179	47.27
336.392	88.23
336.604	-3.93
336.817	43.18
337.029	63.66
337.242	2.22
337.454	86.19
337.667	4.27
337.88	92.33
338.092	90.28
338.305	45.23
338.517	39.08
338.729	-18.26
338.942	49.32
339.154	32.94
339.367	-34.64
339.579	63.66
339.792	20.65
340.004	149.67
340.217	34.99
340.429	69.8
340.641	-42.84
340.854	69.8
341.066	-8.02
341.278	137.38
341.491	90.28
341.703	30.89
341.915	32.94
342.128	71.85
342.34	98.47
342.552	6.31
342.764	125.1
342.977	49.32
343.189	110.76
343.401	90.28
343.613	24.75
343.826	-10.07
344.038	-1.88
344.25	82.09
344.462	30.89
344.674	49.32
344.886	-14.17
345.099	39.08
345.311	67.75
345.523	63.66
345.735	-8.02
345.947	96.43
346.159	116.9
346.371	73.9
346.583	-14.17
346.795	67.75
347.007	59.56
347.219	80.04
347.431	94.38
347.643	77.99
347.855	49.32
348.067	53.42
348.279	-12.12
348.491	45.23
348.703	123.05
348.915	14.51
349.127	125.1
349.339	104.62
349.551	-12.12
349.763	51.37
349.975	41.13
350.187	6.31
350.399	67.75
350.61	65.71
350.822	39.08
351.034	4.27
351.246	32.94
351.458	88.23
351.669	14.51
351.881	114.86
352.093	55.47
352.305	90.28
352.517	22.7
352.728	12.46
352.94	77.99
353.152	108.71
353.363	100.52
353.575	45.23
353.787	53.42
353.999	67.75
354.21	69.8
354.422	-36.69
354.633	59.56
354.845	24.75
355.057	71.85
355.268	69.8
355.48	63.66
355.692	41.13
355.903	-8.02
356.115	10.41
356.326	-53.08
356.538	180.39
356.749	-1.88
356.961	-1.88
357.172	51.37
357.384	51.37
357.595	41.13
357.807	32.94
358.018	-14.17
358.23	32.94
358.441	94.38
358.653	65.71
358.864	26.79
359.075	88.23
359.287	37.03
359.498	55.47
359.709	112.81
359.921	16.55
360.132	65.71
360.344	88.23
360.555	-20.31
360.766	75.95
360.977	108.71
361.189	49.32
361.4	-8.02
361.611	41.13
361.823	45.23
362.034	45.23
362.245	39.08
362.456	80.04
362.667	73.9
362.879	59.56
363.09	41.13
363.301	6.31
363.512	55.47
363.723	41.13
363.935	26.79
364.146	55.47
364.357	125.1
364.568	61.61
364.779	71.85
364.99	102.57
365.201	16.55
365.412	157.86
365.623	26.79
365.834	71.85
366.045	34.99
366.256	98.47
366.467	22.7
366.678	22.7
366.889	-1.88
367.1	57.51
367.311	10.41
367.522	53.42
367.733	63.66
367.944	94.38
368.155	-5.97
368.366	32.94
368.577	75.95
368.788	121
368.999	14.51
369.209	84.14
369.42	71.85
369.631	133.29
369.842	112.81
370.053	26.79
370.264	121
370.474	61.61
370.685	104.62
370.896	153.77
371.107	127.14
371.317	49.32
371.528	-46.93
371.739	141.48
371.95	121
372.16	53.42
372.371	-24.4
372.582	37.03
372.792	41.13
373.003	75.95
373.214	32.94
373.424	0.17
373.635	34.99
373.846	51.37
374.056	53.42
374.267	88.23
374.477	51.37
374.688	55.47
374.898	26.79
375.109	77.99
375.319	151.72
375.53	61.61
375.74	88.23
375.951	32.94
376.161	98.47
376.372	69.8
376.582	41.13
376.793	116.9
377.003	63.66
377.214	45.23
377.424	110.76
377.635	61.61
377.845	18.6
378.055	155.82
378.266	18.6
378.476	55.47
378.686	75.95
378.897	65.71
379.107	73.9
379.317	63.66
379.528	8.36
379.738	53.42
379.948	-16.21
380.158	45.23
380.369	28.84
380.579	110.76
380.789	30.89
380.999	84.14
381.21	43.18
381.42	22.7
381.63	51.37
381.84	63.66
382.05	86.19
382.261	71.85
382.471	121
382.681	61.61
382.891	176.3
383.101	45.23
383.311	61.61
383.521	-51.03
383.731	123.05
383.941	145.58
384.151	12.46
384.361	67.75
384.571	77.99
384.781	55.47
384.991	75.95
385.201	77.99
385.411	100.52
385.621	82.09
385.831	6.31
386.041	88.23
386.251	34.99
386.461	63.66
386.671	88.23
386.881	110.76
387.091	112.81
387.301	75.95
387.511	53.42
387.72	22.7
387.93	37.03
388.14	20.65
388.35	43.18
388.56	114.86
388.769	98.47
388.979	63.66
389.189	73.9
389.399	45.23
389.609	77.99
389.818	77.99
390.028	92.33
390.238	37.03
390.447	26.79
390.657	86.19
390.867	51.37
391.076	24.75
391.286	118.95
391.496	53.42
391.705	102.57
391.915	94.38
392.125	80.04
392.334	47.27
392.544	80.04
392.753	96.43
392.963	102.57
393.172	47.27
393.382	53.42
393.591	22.7
393.801	110.76
394.01	51.37
394.22	51.37
394.429	94.38
394.639	127.14
394.848	190.63
395.058	84.14
395.267	41.13
395.477	143.53
395.686	153.77
395.895	143.53
396.105	143.53
396.314	86.19
396.524	86.19
396.733	67.75
396.942	188.58
397.152	71.85
397.361	127.14
397.57	73.9
397.78	45.23
397.989	80.04
398.198	123.05
398.407	61.61
398.617	63.66
398.826	108.71
399.035	110.76
399.244	153.77
399.453	88.23
399.663	82.09
399.872	102.57
400.081	82.09
400.29	114.86
400.499	92.33
400.708	75.95
400.917	186.54
401.127	149.67
401.336	61.61
401.545	155.82
401.754	129.19
401.963	108.71
402.172	51.37
402.381	86.19
402.59	116.9
402.799	118.95
403.008	77.99
403.217	114.86
403.426	98.47
403.635	125.1
403.844	125.1
404.053	166.06
404.262	114.86
404.471	151.72
404.68	139.43
404.888	110.76
405.097	184.49
405.306	186.54
405.515	202.92
405.724	180.39
405.933	98.47
406.142	186.54
406.35	213.16
406.559	184.49
406.768	143.53
406.977	333.99
407.185	192.68
407.394	194.73
407.603	139.43
407.812	241.83
408.02	301.22
408.229	290.98
408.438	278.69
408.646	204.97
408.855	262.31
409.064	284.84
409.272	276.65
409.481	295.08
409.69	245.93
409.898	241.83
410.107	368.81
410.315	403.62
410.524	325.8
410.733	329.89
410.941	362.66
411.15	362.66
411.358	403.62
411.567	422.05
411.775	350.37
411.984	358.57
412.192	460.96
412.401	485.54
412.609	594.08
412.818	598.18
413.026	510.11
413.234	555.17
413.443	440.48
413.651	624.8
413.86	567.46
414.068	630.95
414.276	657.57
414.485	592.03
414.693	676
414.901	741.54
415.11	688.29
415.318	716.96
415.526	776.35
415.734	839.84
415.943	835.74
416.151	940.19
416.359	802.97
416.567	942.24
416.776	899.23
416.984	1136.79
417.192	1003.68
417.4	927.9
417.608	983.2
417.817	1052.83
418.025	1075.35
418.233	1144.99
418.441	1190.04
418.649	1237.14
418.857	1294.49
419.065	1405.08
419.273	1398.93
419.481	1472.66
419.689	1495.19
419.897	1566.87
420.105	1521.81
420.313	1558.67
420.521	1749.14
420.729	1796.24
420.937	1818.77
421.145	1994.89
421.353	1869.97
421.561	2033.8
421.769	2070.67
421.977	2095.24
422.185	2218.12
422.393	2205.83
422.601	2390.15
422.809	2386.05
423.017	2371.72
423.224	2490.5
423.432	2566.28
423.64	2558.08
423.848	2787.46
424.056	2787.46
424.263	3088.51
424.471	3049.6
424.679	2979.97
424.887	3219.58
425.094	3410.04
425.302	3301.5
425.51	3494.01
425.718	3549.3
425.925	3471.48
426.133	3694.71
426.341	4001.9
426.548	4046.96
426.756	4040.81
426.964	4161.64
427.171	4364.39
427.379	4419.69
427.586	4665.44
427.794	4784.23
428.001	4937.82
428.209	4966.49
428.417	5093.47
428.624	5562.45
428.832	5451.86
429.039	5361.75
429.247	5312.6
429.454	5957.71
429.662	6238.28
429.869	6053.97
430.076	6371.4
430.284	6068.3
430.491	6416.46
430.699	6688.84
430.906	6789.19
431.114	6979.65
431.321	7268.41
431.528	7280.7
431.736	7700.53
431.943	8009.78
432.15	7714.87
432.358	7794.74
432.565	8245.29
432.772	8284.2
432.979	8581.16
433.187	8871.97
433.394	8982.56
433.601	9488.41
433.808	9580.57
434.016	9494.55
434.223	9639.96
434.43	10563.59
434.637	10313.74
434.844	10965
435.052	11229.18
435.259	11091.97
435.466	11075.59
435.673	11163.65
435.88	11767.8
436.087	12662.76
436.294	12361.71
436.501	12079.09
436.708	12115.95
436.915	12853.22
437.122	13383.65
437.329	13363.17
437.537	13948.89
437.743	13952.98
437.95	13864.92
438.157	14677.96
438.364	15128.52
438.571	15181.76
438.778	15040.45
438.985	16510.89
439.192	15980.47
439.399	16320.43
439.606	15890.36
439.813	16842.67
440.02	17909.66
440.227	17616.8
440.433	17459.1
440.64	18075.54
440.847	18081.69
441.054	18053.02
441.261	19703.68
441.467	19382.15
441.674	19748.73
441.881	20399.99
442.088	20178.81
442.294	20447.09
442.501	20764.53
442.708	21102.44
442.914	22122.33
443.121	23123.79
443.328	22032.22
443.534	23932.73
443.741	23295.82
443.948	22996.81
444.154	24962.86
444.361	24721.2
444.568	24678.19
444.774	24559.41
444.981	24809.26
445.187	25814.82
445.394	26896.14
445.6	26492.69
445.807	28989.17
446.013	27594.5
446.22	28108.54
446.426	29064.94
446.633	29349.61
446.839	30416.6
447.046	29126.38
447.252	30539.48
447.459	30746.33
447.665	30723.8
447.871	32110.27
448.078	33574.57
448.284	32181.95
448.491	32806.58
448.697	34145.95
448.903	34750.1
449.11	34817.69
449.316	34393.76
449.522	34811.54
449.728	36048.52
449.935	36253.31
450.141	35667.59
450.347	36931.19
450.553	35554.96
450.76	36062.85
450.966	37119.6
451.172	37090.93
451.378	37928.55
451.584	37154.42
451.791	38096.49
451.997	37981.8
452.203	38800.99
452.409	38415.97
452.615	38512.22
452.821	36918.9
453.027	36339.33
453.233	38772.32
453.44	37504.62
453.646	37547.63
453.852	37590.64
454.058	38022.76
454.264	37158.52
454.47	38180.45
454.676	36904.57
454.882	38176.36
455.088	34539.16
455.294	35745.42
455.5	35792.52
455.705	36404.86
455.911	34729.62
456.117	34283.17
456.323	33676.97
456.529	31870.66
456.735	33283.76
456.941	32460.48
457.147	32030.4
457.352	30940.88
457.558	30836.44
457.764	30815.96
457.97	29976.29
458.176	29538.02
458.381	29490.92
458.587	27883.27
458.793	28020.48
458.999	26408.73
459.204	28520.18
459.41	27670.28
459.616	25636.64
459.821	26033.95
460.027	25745.19
460.233	25382.7
460.438	24221.5
460.644	24295.22
460.85	23177.03
461.055	22871.89
461.261	22689.62
461.466	21217.13
461.672	20588.4
461.878	22339.41
462.083	20385.65
462.289	20012.92
462.494	19818.36
462.7	18990.98
462.905	18575.25
463.111	19445.63
463.316	19289.99
463.522	18608.01
463.727	19038.09
463.932	18816.91
464.138	18474.9
464.343	18810.76
464.549	18147.22
464.754	19056.52
464.959	18909.07
465.165	18528.14
465.37	17739.68
465.575	17135.53
465.781	17913.75
465.986	17729.44
466.191	17397.67
466.397	17016.74
466.602	16322.48
466.807	16981.93
467.012	16795.56
467.218	16848.81
