Data from USB4F104151__40__12-41-23-483.txt Node

Date: Fri Mar 14 12:41:23 EDT 2025
User: louis
Spectrometer: USB4F10415
Trigger mode: 4
Integration Time (sec): 3.000000E-2
Scans to average: 1
Electric dark correction enabled: true
Nonlinearity correction enabled: false
Boxcar width: 0
XAxis mode: Wavelengths
Number of Pixels in Spectrum: 3648
>>>>>Begin Spectral Data<<<<<
178.204	-120.83
178.424	-120.83
178.644	-120.83
178.864	-204.8
179.084	-108.54
179.304	6.14
179.524	26.62
179.744	-61.44
179.964	14.34
180.184	6.14
180.404	67.58
180.624	-28.67
180.844	22.53
181.064	-18.43
181.283	10.24
181.503	16.38
181.723	-61.44
181.943	-75.77
182.163	36.86
182.383	24.58
182.602	34.82
182.822	36.86
183.042	49.15
183.262	16.38
183.482	45.06
183.701	-14.34
183.921	-8.19
184.141	22.53
184.361	28.67
184.58	6.14
184.8	-22.53
185.02	24.58
185.239	47.1
185.459	20.48
185.679	98.3
185.898	8.19
186.118	57.34
186.338	38.91
186.557	57.34
186.777	-61.44
186.997	57.34
187.216	10.24
187.436	49.15
187.655	77.82
187.875	77.82
188.095	12.29
188.314	90.11
188.534	30.72
188.753	43.01
188.973	-8.19
189.192	8.19
189.412	-0
189.631	100.35
189.851	90.11
190.07	55.3
190.29	67.58
190.509	16.38
190.729	-45.06
190.948	51.2
191.168	180.22
191.387	49.15
191.607	8.19
191.826	26.62
192.045	55.3
192.265	100.35
192.484	49.15
192.704	40.96
192.923	45.06
193.142	36.86
193.362	-12.29
193.581	79.87
193.8	94.21
194.02	92.16
194.239	20.48
194.458	32.77
194.678	67.58
194.897	53.25
195.116	2.05
195.335	6.14
195.555	79.87
195.774	-14.34
195.993	24.58
196.212	34.82
196.432	-10.24
196.651	14.34
196.87	55.3
197.089	94.21
197.308	75.77
197.528	6.14
197.747	24.58
197.966	-4.1
198.185	61.44
198.404	10.24
198.623	26.62
198.842	90.11
199.062	30.72
199.281	75.77
199.5	20.48
199.719	-6.14
199.938	16.38
200.157	2.05
200.376	-0
200.595	49.15
200.814	6.14
201.033	55.3
201.252	-12.29
201.471	36.86
201.69	59.39
201.909	-22.53
202.128	73.73
202.347	71.68
202.566	40.96
202.785	45.06
203.004	24.58
203.223	75.77
203.442	32.77
203.661	2.05
203.879	-6.14
204.098	65.53
204.317	-65.54
204.536	43.01
204.755	8.19
204.974	108.54
205.193	43.01
205.411	88.06
205.63	69.63
205.849	71.68
206.068	75.77
206.287	45.06
206.505	81.92
206.724	-12.29
206.943	71.68
207.162	-14.34
207.381	92.16
207.599	-32.77
207.818	51.2
208.037	43.01
208.255	-16.38
208.474	55.3
208.693	94.21
208.911	-6.14
209.13	2.05
209.349	63.49
209.567	59.39
209.786	45.06
210.005	20.48
210.223	36.86
210.442	-30.72
210.661	26.62
210.879	30.72
211.098	43.01
211.316	-40.96
211.535	100.35
211.753	-6.14
211.972	30.72
212.191	59.39
212.409	12.29
212.628	124.93
212.846	22.53
213.065	14.34
213.283	81.92
213.502	94.21
213.72	38.91
213.938	59.39
214.157	40.96
214.375	71.68
214.594	10.24
214.812	24.58
215.031	-12.29
215.249	38.91
215.467	-2.05
215.686	6.14
215.904	38.91
216.122	-0
216.341	90.11
216.559	30.72
216.778	57.34
216.996	90.11
217.214	61.44
217.432	-0
217.651	36.86
217.869	26.62
218.087	32.77
218.306	47.1
218.524	61.44
218.742	-71.68
218.96	135.17
219.179	4.1
219.397	4.1
219.615	22.53
219.833	135.17
220.051	28.67
220.27	36.86
220.488	38.91
220.706	57.34
220.924	69.63
221.142	-6.14
221.36	34.82
221.578	34.82
221.796	51.2
222.015	43.01
222.233	28.67
222.451	86.01
222.669	-6.14
222.887	-34.82
223.105	-22.53
223.323	45.06
223.541	-4.1
223.759	43.01
223.977	88.06
224.195	104.45
224.413	65.53
224.631	36.86
224.849	26.62
225.067	88.06
225.285	57.34
225.503	-12.29
225.721	-34.82
225.939	16.38
226.157	65.53
226.375	96.25
226.592	6.14
226.81	61.44
227.028	77.82
227.246	135.17
227.464	-6.14
227.682	-8.19
227.9	57.34
228.117	73.73
228.335	30.72
228.553	-61.44
228.771	34.82
228.989	36.86
229.206	16.38
229.424	38.91
229.642	100.35
229.86	36.86
230.077	129.02
230.295	18.43
230.513	157.69
230.731	94.21
230.948	110.59
231.166	90.11
231.384	14.34
231.601	47.1
231.819	73.73
232.037	4.1
232.254	10.24
232.472	10.24
232.689	40.96
232.907	51.2
233.125	83.97
233.342	24.58
233.56	16.38
233.777	-0
233.995	47.1
234.213	55.3
234.43	102.4
234.648	10.24
234.865	114.69
235.083	2.05
235.3	-4.1
235.518	20.48
235.735	67.58
235.953	49.15
236.17	-10.24
236.388	-2.05
236.605	118.78
236.822	108.54
237.04	26.62
237.257	34.82
237.475	6.14
237.692	90.11
237.909	49.15
238.127	12.29
238.344	-63.49
238.562	112.64
238.779	-0
238.996	-16.38
239.214	-4.1
239.431	61.44
239.648	38.91
239.865	8.19
240.083	10.24
240.3	69.63
240.517	-30.72
240.735	32.77
240.952	36.86
241.169	16.38
241.386	83.97
241.603	59.39
241.821	2.05
242.038	53.25
242.255	51.2
242.472	24.58
242.689	-24.58
242.907	57.34
243.124	43.01
243.341	14.34
243.558	-8.19
243.775	20.48
243.992	-12.29
244.209	75.77
244.426	94.21
244.643	30.72
244.86	63.49
245.078	51.2
245.295	71.68
245.512	53.25
245.729	12.29
245.946	75.77
246.163	-2.05
246.38	69.63
246.597	-24.58
246.814	22.53
247.031	24.58
247.248	57.34
247.464	53.25
247.681	10.24
247.898	24.58
248.115	67.58
248.332	-45.06
248.549	18.43
248.766	71.68
248.983	81.92
249.2	65.53
249.417	57.34
249.633	-8.19
249.85	55.3
250.067	53.25
250.284	102.4
250.501	96.25
250.717	71.68
250.934	-22.53
251.151	61.44
251.368	59.39
251.585	86.01
251.801	-18.43
252.018	53.25
252.235	63.49
252.451	-75.77
252.668	6.14
252.885	71.68
253.102	83.97
253.318	-2.05
253.535	94.21
253.752	-28.67
253.968	22.53
254.185	57.34
254.401	-6.14
254.618	36.86
254.835	24.58
255.051	59.39
255.268	32.77
255.484	28.67
255.701	51.2
255.917	14.34
256.134	-30.72
256.351	49.15
256.567	-14.34
256.784	-61.44
257	-4.1
257.217	102.4
257.433	94.21
257.65	79.87
257.866	-8.19
258.082	20.48
258.299	20.48
258.515	92.16
258.732	32.77
258.948	47.1
259.165	-18.43
259.381	104.45
259.597	-32.77
259.814	-47.1
260.03	67.58
260.246	10.24
260.463	71.68
260.679	34.82
260.895	32.77
261.112	40.96
261.328	24.58
261.544	51.2
261.761	155.65
261.977	12.29
262.193	38.91
262.409	38.91
262.626	51.2
262.842	6.14
263.058	38.91
263.274	36.86
263.49	2.05
263.707	98.3
263.923	75.77
264.139	26.62
264.355	38.91
264.571	100.35
264.787	30.72
265.004	45.06
265.22	32.77
265.436	73.73
265.652	43.01
265.868	6.14
266.084	-55.3
266.3	45.06
266.516	36.86
266.732	116.73
266.948	51.2
267.164	34.82
267.38	18.43
267.596	43.01
267.812	51.2
268.028	92.16
268.244	-22.53
268.46	79.87
268.676	71.68
268.892	116.73
269.108	-98.3
269.324	59.39
269.54	-16.38
269.756	75.77
269.972	28.67
270.188	32.77
270.403	-4.1
270.619	55.3
270.835	34.82
271.051	57.34
271.267	61.44
271.483	10.24
271.698	61.44
271.914	45.06
272.13	98.3
272.346	-16.38
272.562	20.48
272.777	45.06
272.993	-10.24
273.209	47.1
273.425	49.15
273.64	-8.19
273.856	69.63
274.072	2.05
274.287	10.24
274.503	86.01
274.719	4.1
274.934	83.97
275.15	22.53
275.366	-20.48
275.581	40.96
275.797	30.72
276.012	22.53
276.228	43.01
276.444	-36.86
276.659	8.19
276.875	-22.53
277.09	-12.29
277.306	34.82
277.521	75.77
277.737	57.34
277.952	16.38
278.168	71.68
278.383	63.49
278.599	-43.01
278.814	8.19
279.03	-16.38
279.245	24.58
279.461	12.29
279.676	36.86
279.892	22.53
280.107	-6.14
280.322	-6.14
280.538	-4.1
280.753	57.34
280.969	75.77
281.184	45.06
281.399	71.68
281.615	36.86
281.83	100.35
282.045	47.1
282.26	-30.72
282.476	73.73
282.691	30.72
282.906	40.96
283.122	4.1
283.337	8.19
283.552	38.91
283.767	14.34
283.983	53.25
284.198	8.19
284.413	163.84
284.628	40.96
284.843	22.53
285.058	75.77
285.274	28.67
285.489	-51.2
285.704	61.44
285.919	88.06
286.134	22.53
286.349	65.53
286.564	10.24
286.779	43.01
286.995	38.91
287.21	-92.16
287.425	90.11
287.64	14.34
287.855	38.91
288.07	2.05
288.285	141.31
288.5	34.82
288.715	73.73
288.93	-8.19
289.145	90.11
289.36	81.92
289.575	-40.96
289.79	69.63
290.004	-4.1
290.219	69.63
290.434	8.19
290.649	98.3
290.864	49.15
291.079	59.39
291.294	22.53
291.509	38.91
291.724	81.92
291.938	96.25
292.153	75.77
292.368	71.68
292.583	38.91
292.798	43.01
293.012	96.25
293.227	104.45
293.442	14.34
293.657	-0
293.871	79.87
294.086	49.15
294.301	51.2
294.516	86.01
294.73	108.54
294.945	-10.24
295.16	-43.01
295.374	24.58
295.589	53.25
295.804	-4.1
296.018	-20.48
296.233	18.43
296.447	38.91
296.662	4.1
296.877	61.44
297.091	36.86
297.306	69.63
297.52	6.14
297.735	63.49
297.949	22.53
298.164	75.77
298.378	81.92
298.593	2.05
298.807	71.68
299.022	10.24
299.236	73.73
299.451	-75.77
299.665	-30.72
299.88	8.19
300.094	104.45
300.309	108.54
300.523	69.63
300.737	22.53
300.952	69.63
301.166	36.86
301.381	34.82
301.595	-18.43
301.809	18.43
302.024	96.25
302.238	4.1
302.452	49.15
302.667	-6.14
302.881	71.68
303.095	22.53
303.309	-22.53
303.524	26.62
303.738	-8.19
303.952	10.24
304.166	106.49
304.381	-20.48
304.595	90.11
304.809	34.82
305.023	24.58
305.237	61.44
305.452	2.05
305.666	49.15
305.88	49.15
306.094	-18.43
306.308	16.38
306.522	71.68
306.736	16.38
306.95	-22.53
307.164	43.01
307.379	-4.1
307.593	83.97
307.807	86.01
308.021	51.2
308.235	61.44
308.449	4.1
308.663	34.82
308.877	63.49
309.091	30.72
309.305	43.01
309.519	-8.19
309.733	38.91
309.947	-14.34
310.161	61.44
310.374	30.72
310.588	79.87
310.802	-73.73
311.016	59.39
311.23	40.96
311.444	22.53
311.658	34.82
311.872	34.82
312.085	112.64
312.299	104.45
312.513	120.83
312.727	22.53
312.941	43.01
313.154	10.24
313.368	-6.14
313.582	55.3
313.796	75.77
314.009	47.1
314.223	24.58
314.437	22.53
314.651	30.72
314.864	86.01
315.078	28.67
315.292	104.45
315.505	86.01
315.719	43.01
315.933	34.82
316.146	81.92
316.36	40.96
316.573	75.77
316.787	10.24
317.001	28.67
317.214	71.68
317.428	51.2
317.641	-22.53
317.855	-10.24
318.068	59.39
318.282	75.77
318.495	75.77
318.709	-2.05
318.922	-0
319.136	47.1
319.349	90.11
319.563	108.54
319.776	-4.1
319.99	43.01
320.203	96.25
320.417	22.53
320.63	79.87
320.843	90.11
321.057	53.25
321.27	-24.58
321.483	26.62
321.697	75.77
321.91	20.48
322.124	75.77
322.337	-28.67
322.55	112.64
322.763	65.53
322.977	79.87
323.19	51.2
323.403	90.11
323.617	-28.67
323.83	94.21
324.043	-6.14
324.256	83.97
324.469	-47.1
324.683	59.39
324.896	14.34
325.109	61.44
325.322	8.19
325.535	94.21
325.748	59.39
325.962	61.44
326.175	55.3
326.388	67.58
326.601	47.1
326.814	20.48
327.027	63.49
327.24	77.82
327.453	-8.19
327.666	8.19
327.879	112.64
328.092	96.25
328.305	61.44
328.518	-20.48
328.731	53.25
328.944	-45.06
329.157	71.68
329.37	53.25
329.583	38.91
329.796	47.1
330.009	-14.34
330.222	96.25
330.435	100.35
330.648	75.77
330.861	18.43
331.073	73.73
331.286	34.82
331.499	110.59
331.712	51.2
331.925	77.82
332.138	73.73
332.35	88.06
332.563	43.01
332.776	100.35
332.989	32.77
333.202	22.53
333.414	108.54
333.627	122.88
333.84	71.68
334.053	129.02
334.265	45.06
334.478	34.82
334.691	59.39
334.903	-8.19
335.116	28.67
335.329	2.05
335.541	10.24
335.754	57.34
335.966	-4.1
336.179	22.53
336.392	-57.34
336.604	73.73
336.817	36.86
337.029	98.3
337.242	106.49
337.454	106.49
337.667	133.12
337.88	-4.1
338.092	75.77
338.305	120.83
338.517	-4.1
338.729	34.82
338.942	43.01
339.154	24.58
339.367	77.82
339.579	92.16
339.792	18.43
340.004	24.58
340.217	61.44
340.429	36.86
340.641	6.14
340.854	73.73
341.066	30.72
341.278	65.53
341.491	92.16
341.703	81.92
341.915	-47.1
342.128	67.58
342.34	45.06
342.552	51.2
342.764	59.39
342.977	73.73
343.189	43.01
343.401	26.62
343.613	83.97
343.826	43.01
344.038	53.25
344.25	38.91
344.462	24.58
344.674	122.88
344.886	26.62
345.099	-0
345.311	83.97
345.523	83.97
345.735	63.49
345.947	45.06
346.159	53.25
346.371	110.59
346.583	38.91
346.795	-0
347.007	14.34
347.219	18.43
347.431	40.96
347.643	67.58
347.855	55.3
348.067	77.82
348.279	-2.05
348.491	2.05
348.703	112.64
348.915	24.58
349.127	-2.05
349.339	98.3
349.551	-40.96
349.763	65.53
349.975	38.91
350.187	75.77
350.399	131.07
350.61	65.53
350.822	8.19
351.034	20.48
351.246	36.86
351.458	124.93
351.669	92.16
351.881	65.53
352.093	90.11
352.305	-8.19
352.517	47.1
352.728	67.58
352.94	40.96
353.152	69.63
353.363	-12.29
353.575	-10.24
353.787	26.62
353.999	73.73
354.21	120.83
354.422	45.06
354.633	-0
354.845	-69.63
355.057	22.53
355.268	116.73
355.48	73.73
355.692	-28.67
355.903	73.73
356.115	71.68
356.326	-47.1
356.538	28.67
356.749	26.62
356.961	112.64
357.172	12.29
357.384	12.29
357.595	98.3
357.807	57.34
358.018	14.34
358.23	63.49
358.441	73.73
358.653	108.54
358.864	34.82
359.075	-34.82
359.287	51.2
359.498	81.92
359.709	24.58
359.921	77.82
360.132	34.82
360.344	98.3
360.555	38.91
360.766	49.15
360.977	-32.77
361.189	73.73
361.4	45.06
361.611	92.16
361.823	63.49
362.034	73.73
362.245	-43.01
362.456	77.82
362.667	65.53
362.879	69.63
363.09	55.3
363.301	34.82
363.512	69.63
363.723	45.06
363.935	86.01
364.146	47.1
364.357	32.77
364.568	45.06
364.779	14.34
364.99	112.64
365.201	-0
365.412	79.87
365.623	-6.14
365.834	43.01
366.045	100.35
366.256	71.68
366.467	24.58
366.678	45.06
366.889	43.01
367.1	81.92
367.311	116.73
367.522	43.01
367.733	49.15
367.944	28.67
368.155	40.96
368.366	75.77
368.577	104.45
368.788	77.82
368.999	55.3
369.209	69.63
369.42	67.58
369.631	88.06
369.842	106.49
370.053	98.3
370.264	71.68
370.474	22.53
370.685	92.16
370.896	79.87
371.107	61.44
371.317	139.26
371.528	102.4
371.739	30.72
371.95	98.3
372.16	81.92
372.371	90.11
372.582	-0
372.792	67.58
373.003	110.59
373.214	86.01
373.424	36.86
373.635	12.29
373.846	55.3
374.056	40.96
374.267	61.44
374.477	-6.14
374.688	30.72
374.898	73.73
375.109	36.86
375.319	90.11
375.53	81.92
375.74	81.92
375.951	108.54
376.161	94.21
376.372	116.73
376.582	45.06
376.793	83.97
377.003	55.3
377.214	18.43
377.424	22.53
377.635	45.06
377.845	32.77
378.055	81.92
378.266	59.39
378.476	36.86
378.686	86.01
378.897	102.4
379.107	30.72
379.317	81.92
379.528	77.82
379.738	129.02
379.948	-36.86
380.158	55.3
380.369	94.21
380.579	96.25
380.789	-0
380.999	120.83
381.21	53.25
381.42	178.17
381.63	-4.1
381.84	55.3
382.05	40.96
382.261	108.54
382.471	90.11
382.681	55.3
382.891	94.21
383.101	124.93
383.311	59.39
383.521	-12.29
383.731	92.16
383.941	67.58
384.151	67.58
384.361	104.45
384.571	126.97
384.781	71.68
384.991	122.88
385.201	112.64
385.411	90.11
385.621	143.36
385.831	45.06
386.041	61.44
386.251	43.01
386.461	141.31
386.671	124.93
386.881	86.01
387.091	67.58
387.301	51.2
387.511	114.69
387.72	106.49
387.93	63.49
388.14	102.4
388.35	61.44
388.56	145.41
388.769	133.12
388.979	34.82
389.189	81.92
389.399	149.5
389.609	143.36
389.818	104.45
390.028	92.16
390.238	124.93
390.447	106.49
390.657	83.97
390.867	57.34
391.076	116.73
391.286	145.41
391.496	59.39
391.705	69.63
391.915	124.93
392.125	165.89
392.334	94.21
392.544	133.12
392.753	114.69
392.963	100.35
393.172	88.06
393.382	59.39
393.591	75.77
393.801	63.49
394.01	112.64
394.22	26.62
394.429	75.77
394.639	124.93
394.848	75.77
395.058	108.54
395.267	47.1
395.477	75.77
395.686	83.97
395.895	153.6
396.105	194.56
396.314	71.68
396.524	88.06
396.733	145.41
396.942	106.49
397.152	112.64
397.361	116.73
397.57	159.74
397.78	143.36
397.989	122.88
398.198	192.51
398.407	108.54
398.617	202.75
398.826	157.69
399.035	106.49
399.244	239.61
399.453	122.88
399.663	157.69
399.872	139.26
400.081	210.94
400.29	200.7
400.499	212.99
400.708	157.69
400.917	151.55
401.127	147.45
401.336	126.97
401.545	192.51
401.754	200.7
401.963	204.8
402.172	206.84
402.381	110.59
402.59	169.98
402.799	256
403.008	208.89
403.217	153.6
403.426	131.07
403.635	133.12
403.844	198.65
404.053	192.51
404.262	102.4
404.471	241.66
404.68	206.84
404.888	253.95
405.097	245.76
405.306	243.71
405.515	241.66
405.724	229.37
405.933	301.05
406.142	321.53
406.35	305.15
406.559	264.19
406.768	274.43
406.977	333.82
407.185	303.1
407.394	292.86
407.603	362.49
407.812	329.72
408.02	423.93
408.229	350.2
408.438	350.2
408.646	387.07
408.855	307.2
409.064	399.35
409.272	440.31
409.481	399.35
409.69	387.07
409.898	499.7
410.107	505.85
410.315	438.27
410.524	471.03
410.733	495.61
410.941	532.47
411.15	622.58
411.358	559.1
411.567	675.83
411.775	573.43
411.984	641.01
412.192	745.46
412.401	585.72
412.609	765.94
412.818	763.89
413.026	763.89
413.234	727.03
413.443	706.55
413.651	815.09
413.86	827.38
414.068	888.82
414.276	1026.03
414.485	933.87
414.693	1034.22
414.901	1071.09
415.11	1058.8
415.318	1042.42
415.526	1161.2
415.734	1191.92
415.943	1189.87
416.151	1267.69
416.359	1277.93
416.567	1279.98
416.776	1427.43
416.984	1550.31
417.192	1558.5
417.4	1521.64
417.608	1413.1
417.817	1626.09
418.025	1716.2
418.233	1888.23
418.441	1775.59
418.649	1865.7
418.857	1986.53
419.065	1992.67
419.273	2054.11
419.481	2099.17
419.689	2174.94
419.897	2211.81
420.105	2328.54
420.313	2437.08
420.521	2531.29
420.729	2582.49
420.937	2629.59
421.145	2746.33
421.353	2813.91
421.561	3147.73
421.769	3006.42
421.977	3123.15
422.185	3166.16
422.393	3393.48
422.601	3557.32
422.809	3592.14
423.017	3590.09
423.224	3784.65
423.432	4124.61
423.64	3889.09
423.848	4229.06
424.056	4231.1
424.263	4435.9
424.471	4521.91
424.679	4589.5
424.887	4863.93
425.094	4851.64
425.302	4913.08
425.51	5302.19
425.718	5435.31
425.925	5416.88
426.133	5623.72
426.341	5916.58
426.548	6178.72
426.756	6162.34
426.964	6258.59
427.171	6647.71
427.379	6754.2
427.586	6911.89
427.794	7104.4
428.001	7604.11
428.209	7813
428.417	7608.2
428.624	8210.31
428.832	8314.75
429.039	8040.33
429.247	8351.62
429.454	8888.18
429.662	9527.15
429.869	9011.06
430.076	9502.58
430.284	9222
430.491	9670.51
430.699	10184.55
430.906	10110.82
431.114	10305.38
431.321	10608.48
431.528	10749.79
431.736	11523.92
431.943	12150.6
432.15	11771.72
432.358	11839.31
432.565	12590.91
432.772	12570.43
432.979	13557.55
433.187	13422.39
433.394	13616.94
433.601	14376.74
433.808	14456.61
434.016	14196.52
434.223	14849.82
434.43	16015.12
434.637	15697.68
434.844	16609.03
435.052	17176.31
435.259	16901.89
435.466	17192.7
435.673	17051.39
435.88	17813.23
436.087	18820.83
436.294	18956
436.501	18314.98
436.708	18841.31
436.915	19152.6
437.122	20420.3
437.329	20266.7
437.537	20893.38
437.743	21497.53
437.95	21151.42
438.157	22433.45
438.364	22982.31
438.571	22617.77
438.778	23154.33
438.985	25091.71
439.192	24250
439.399	25048.71
439.606	24319.63
439.813	25677.43
440.02	27580
440.227	26885.73
440.433	26799.72
440.64	27573.85
440.847	27348.57
441.054	27989.59
441.261	29720.12
441.467	29533.76
441.674	29793.85
441.881	30920.23
442.088	31233.57
442.294	30506.54
442.501	31958.55
442.708	32288.28
442.914	33465.86
443.121	34858.48
443.328	34076.15
443.534	36361.69
443.741	35212.77
443.948	34899.44
444.154	37125.58
444.361	37187.02
444.568	37451.2
444.774	37436.87
444.981	37901.76
445.187	39259.56
445.394	40643.99
445.6	40068.51
445.807	44338.52
446.013	41739.65
446.22	43103.6
446.426	44750.17
446.633	44756.31
446.839	46312.77
447.046	44438.87
447.252	46892.34
447.459	46773.56
447.665	46474.55
447.871	48672.03
448.078	50619.64
448.284	48244
448.491	49337.62
448.697	51643.63
448.903	52675.8
449.11	52640.99
449.316	51887.34
449.522	52710.62
449.728	54013.13
449.935	54340.8
450.141	54070.47
450.347	54928.57
450.553	54095.05
450.76	54424.77
450.966	56198.31
451.172	55585.97
451.378	57068.7
451.584	55735.47
451.791	57549.97
451.997	56949.92
452.203	57910.41
452.409	58145.93
452.615	57531.54
452.821	55755.95
453.027	55309.49
453.233	57728.14
453.44	55643.31
453.646	56284.33
453.852	56456.35
454.058	57169.05
454.264	55854.25
454.47	56769.69
454.676	55940.27
454.882	57410.71
455.088	52706.52
455.294	53494.99
455.5	54154.44
455.705	54951.1
455.911	52499.68
456.117	51930.34
456.323	50789.62
456.529	48669.98
456.735	50322.69
456.941	49204.5
457.147	48031.01
457.352	46732.6
457.558	46630.2
457.764	46239.04
457.97	45462.86
458.176	44901.71
458.381	44813.65
458.587	42382.71
458.793	42564.98
458.999	40625.56
459.204	43197.8
459.41	42020.22
459.616	39265.7
459.821	39632.29
460.027	39277.99
460.233	38446.52
460.438	36679.12
460.644	37244.36
460.85	35118.57
461.055	34792.94
461.261	35106.28
461.466	32566.8
461.672	31159.84
461.878	33525.25
462.083	31417.89
462.289	30488.11
462.494	30404.14
462.7	28952.13
462.905	28165.71
463.111	29218.37
463.316	28884.55
463.522	28792.39
463.727	28663.37
463.932	28925.51
464.138	28479.05
464.343	28399.18
464.549	27713.11
464.754	28673.61
464.959	28186.19
465.165	28429.9
465.37	27246.18
465.575	26392.17
465.781	27659.87
465.986	27522.65
466.191	26494.57
466.397	25753.21
466.602	24778.37
466.807	25675.38
467.012	25538.17
467.218	25597.56
467.423	25175.68
