Data from USB4F104151__37__12-41-22-403.txt Node

Date: Fri Mar 14 12:41:22 EDT 2025
User: louis
Spectrometer: USB4F10415
Trigger mode: 4
Integration Time (sec): 3.000000E-2
Scans to average: 1
Electric dark correction enabled: true
Nonlinearity correction enabled: false
Boxcar width: 0
XAxis mode: Wavelengths
Number of Pixels in Spectrum: 3648
>>>>>Begin Spectral Data<<<<<
178.204	-159.06
178.424	-159.06
178.644	-159.06
178.864	-85.33
179.084	-134.48
179.304	41.64
179.524	-36.18
179.744	-7.51
179.964	39.59
180.184	-36.18
180.404	19.11
180.624	74.41
180.844	19.11
181.064	-46.42
181.283	-7.51
181.503	-93.52
181.723	33.45
181.943	-44.37
182.163	113.32
182.383	-9.56
182.602	4.78
182.822	35.5
183.042	33.45
183.262	-7.51
183.482	-7.51
183.701	-21.85
183.921	33.45
184.141	4.78
184.361	27.31
184.58	12.97
184.8	23.21
185.02	29.35
185.239	60.07
185.459	47.79
185.679	78.51
185.898	-38.23
186.118	80.55
186.338	-19.8
186.557	-19.8
186.777	49.83
186.997	-13.65
187.216	-32.08
187.436	58.03
187.655	92.84
187.875	84.65
188.095	27.31
188.314	115.37
188.534	94.89
188.753	25.26
188.973	-34.13
189.192	27.31
189.412	-19.8
189.631	107.18
189.851	21.16
190.07	49.83
190.29	10.92
190.509	55.98
190.729	-17.75
190.948	35.5
191.168	123.56
191.387	101.03
191.607	17.07
191.826	84.65
192.045	-60.76
192.265	86.7
192.484	80.55
192.704	49.83
192.923	53.93
193.142	58.03
193.362	4.78
193.581	78.51
193.8	0.68
194.02	37.55
194.239	60.07
194.458	-15.7
194.678	76.46
194.897	8.87
195.116	19.11
195.335	0.68
195.555	27.31
195.774	-11.61
195.993	27.31
196.212	49.83
196.432	6.83
196.651	-25.94
196.87	58.03
197.089	117.42
197.308	86.7
197.528	78.51
197.747	15.02
197.966	0.68
198.185	60.07
198.404	72.36
198.623	37.55
198.842	58.03
199.062	111.27
199.281	53.93
199.5	10.92
199.719	2.73
199.938	103.08
200.157	78.51
200.376	-7.51
200.595	88.75
200.814	4.78
201.033	96.94
201.252	39.59
201.471	27.31
201.69	109.23
201.909	6.83
202.128	96.94
202.347	27.31
202.566	-36.18
202.785	-40.28
203.004	55.98
203.223	117.42
203.442	33.45
203.661	25.26
203.879	33.45
204.098	55.98
204.317	15.02
204.536	47.79
204.755	19.11
204.974	78.51
205.193	49.83
205.411	141.99
205.63	47.79
205.849	72.36
206.068	15.02
206.287	-60.76
206.505	76.46
206.724	15.02
206.943	-13.65
207.162	-42.32
207.381	8.87
207.599	17.07
207.818	60.07
208.037	19.11
208.255	-13.65
208.474	29.35
208.693	39.59
208.911	10.92
209.13	66.22
209.349	39.59
209.567	19.11
209.786	25.26
210.005	-5.46
210.223	37.55
210.442	17.07
210.661	33.45
210.879	43.69
211.098	35.5
211.316	47.79
211.535	-64.85
211.753	17.07
211.972	43.69
212.191	-40.28
212.409	137.9
212.628	21.16
212.846	74.41
213.065	25.26
213.283	84.65
213.502	62.12
213.72	35.5
213.938	-21.85
214.157	15.02
214.375	-15.7
214.594	117.42
214.812	-9.56
215.031	74.41
215.249	33.45
215.467	58.03
215.686	15.02
215.904	107.18
216.122	17.07
216.341	74.41
216.559	51.88
216.778	43.69
216.996	80.55
217.214	58.03
217.432	6.83
217.651	-5.46
217.869	-5.46
218.087	58.03
218.306	33.45
218.524	51.88
218.742	35.5
218.96	58.03
219.179	-13.65
219.397	-1.37
219.615	174.76
219.833	49.83
220.051	-38.23
220.27	105.13
220.488	92.84
220.706	-58.71
220.924	19.11
221.142	64.17
221.36	45.74
221.578	33.45
221.796	60.07
222.015	60.07
222.233	33.45
222.451	148.14
222.669	64.17
222.887	82.6
223.105	37.55
223.323	8.87
223.541	-66.9
223.759	82.6
223.977	31.4
224.195	21.16
224.413	78.51
224.631	76.46
224.849	88.75
225.067	105.13
225.285	29.35
225.503	19.11
225.721	-36.18
225.939	35.5
226.157	55.98
226.375	113.32
226.592	-3.41
226.81	68.27
227.028	94.89
227.246	80.55
227.464	-3.41
227.682	49.83
227.9	47.79
228.117	60.07
228.335	47.79
228.553	33.45
228.771	55.98
228.989	64.17
229.206	127.66
229.424	6.83
229.642	33.45
229.86	37.55
230.077	6.83
230.295	17.07
230.513	76.46
230.731	84.65
230.948	66.22
231.166	103.08
231.384	64.17
231.601	66.22
231.819	115.37
232.037	80.55
232.254	-1.37
232.472	101.03
232.689	2.73
232.907	82.6
233.125	8.87
233.342	47.79
233.56	-21.85
233.777	90.79
233.995	-77.14
234.213	82.6
234.43	47.79
234.648	53.93
234.865	27.31
235.083	6.83
235.3	-34.13
235.518	33.45
235.735	68.27
235.953	123.56
236.17	8.87
236.388	4.78
236.605	21.16
236.822	98.99
237.04	23.21
237.257	2.73
237.475	-27.99
237.692	117.42
237.909	29.35
238.127	80.55
238.344	-3.41
238.562	72.36
238.779	6.83
238.996	19.11
239.214	74.41
239.431	53.93
239.648	15.02
239.865	29.35
240.083	-5.46
240.3	39.59
240.517	25.26
240.735	29.35
240.952	74.41
241.169	82.6
241.386	27.31
241.603	55.98
241.821	64.17
242.038	68.27
242.255	53.93
242.472	-1.37
242.689	66.22
242.907	43.69
243.124	55.98
243.341	35.5
243.558	51.88
243.775	-7.51
243.992	41.64
244.209	35.5
244.426	47.79
244.643	51.88
244.86	88.75
245.078	19.11
245.295	33.45
245.512	19.11
245.729	72.36
245.946	121.51
246.163	21.16
246.38	45.74
246.597	21.16
246.814	35.5
247.031	-60.76
247.248	109.23
247.464	76.46
247.681	-1.37
247.898	27.31
248.115	-17.75
248.332	-34.13
248.549	27.31
248.766	90.79
248.983	80.55
249.2	62.12
249.417	21.16
249.633	39.59
249.85	60.07
250.067	66.22
250.284	21.16
250.501	53.93
250.717	86.7
250.934	0.68
251.151	21.16
251.368	92.84
251.585	41.64
251.801	37.55
252.018	-32.08
252.235	62.12
252.451	29.35
252.668	17.07
252.885	82.6
253.102	78.51
253.318	-5.46
253.535	90.79
253.752	-30.04
253.968	4.78
254.185	-11.61
254.401	6.83
254.618	84.65
254.835	19.11
255.051	70.31
255.268	0.68
255.484	47.79
255.701	23.21
255.917	33.45
256.134	33.45
256.351	45.74
256.567	6.83
256.784	55.98
257	-7.51
257.217	76.46
257.433	70.31
257.65	43.69
257.866	72.36
258.082	58.03
258.299	2.73
258.515	53.93
258.732	15.02
258.948	60.07
259.165	10.92
259.381	-5.46
259.597	19.11
259.814	39.59
260.03	74.41
260.246	68.27
260.463	43.69
260.679	121.51
260.895	98.99
261.112	133.8
261.328	51.88
261.544	33.45
261.761	170.66
261.977	88.75
262.193	4.78
262.409	6.83
262.626	33.45
262.842	19.11
263.058	-9.56
263.274	103.08
263.49	58.03
263.707	119.46
263.923	64.17
264.139	-9.56
264.355	37.55
264.571	29.35
264.787	6.83
265.004	68.27
265.22	19.11
265.436	82.6
265.652	6.83
265.868	17.07
266.084	-23.89
266.3	49.83
266.516	-34.13
266.732	111.27
266.948	17.07
267.164	-38.23
267.38	-11.61
267.596	21.16
267.812	70.31
268.028	17.07
268.244	23.21
268.46	45.74
268.676	-5.46
268.892	105.13
269.108	23.21
269.324	-7.51
269.54	8.87
269.756	189.1
269.972	2.73
270.188	25.26
270.403	29.35
270.619	64.17
270.835	62.12
271.051	27.31
271.267	-9.56
271.483	47.79
271.698	68.27
271.914	123.56
272.13	113.32
272.346	-5.46
272.562	17.07
272.777	117.42
272.993	55.98
273.209	27.31
273.425	55.98
273.64	74.41
273.856	92.84
274.072	-5.46
274.287	64.17
274.503	82.6
274.719	107.18
274.934	66.22
275.15	-5.46
275.366	58.03
275.581	27.31
275.797	-9.56
276.012	-3.41
276.228	-23.89
276.444	-46.42
276.659	23.21
276.875	58.03
277.09	53.93
277.306	-19.8
277.521	66.22
277.737	53.93
277.952	10.92
278.168	43.69
278.383	31.4
278.599	33.45
278.814	4.78
279.03	60.07
279.245	119.46
279.461	15.02
279.676	45.74
279.892	-23.89
280.107	55.98
280.322	84.65
280.538	45.74
280.753	31.4
280.969	35.5
281.184	47.79
281.399	117.42
281.615	43.69
281.83	107.18
282.045	23.21
282.26	0.68
282.476	47.79
282.691	25.26
282.906	76.46
283.122	62.12
283.337	45.74
283.552	39.59
283.767	-19.8
283.983	74.41
284.198	-5.46
284.413	49.83
284.628	-23.89
284.843	76.46
285.058	92.84
285.274	10.92
285.489	37.55
285.704	49.83
285.919	68.27
286.134	96.94
286.349	23.21
286.564	-48.47
286.779	51.88
286.995	51.88
287.21	35.5
287.425	43.69
287.64	25.26
287.855	58.03
288.07	4.78
288.285	-17.75
288.5	6.83
288.715	117.42
288.93	-40.28
289.145	98.99
289.36	51.88
289.575	6.83
289.79	62.12
290.004	8.87
290.219	90.79
290.434	19.11
290.649	33.45
290.864	55.98
291.079	15.02
291.294	92.84
291.509	55.98
291.724	66.22
291.938	31.4
292.153	76.46
292.368	76.46
292.583	19.11
292.798	-3.41
293.012	37.55
293.227	86.7
293.442	45.74
293.657	23.21
293.871	82.6
294.086	37.55
294.301	105.13
294.516	150.18
294.73	35.5
294.945	-58.71
295.16	25.26
295.374	125.61
295.589	60.07
295.804	19.11
296.018	64.17
296.233	117.42
296.447	-9.56
296.662	53.93
296.877	49.83
297.091	0.68
297.306	41.64
297.52	86.7
297.735	35.5
297.949	35.5
298.164	51.88
298.378	31.4
298.593	21.16
298.807	47.79
299.022	43.69
299.236	76.46
299.451	33.45
299.665	62.12
299.88	-5.46
300.094	101.03
300.309	64.17
300.523	74.41
300.737	47.79
300.952	-19.8
301.166	23.21
301.381	53.93
301.595	0.68
301.809	37.55
302.024	107.18
302.238	4.78
302.452	103.08
302.667	31.4
302.881	137.9
303.095	31.4
303.309	58.03
303.524	68.27
303.738	64.17
303.952	2.73
304.166	51.88
304.381	-87.38
304.595	47.79
304.809	33.45
305.023	84.65
305.237	2.73
305.452	68.27
305.666	8.87
305.88	47.79
306.094	125.61
306.308	27.31
306.522	70.31
306.736	-13.65
306.95	129.7
307.164	0.68
307.379	58.03
307.593	92.84
307.807	2.73
308.021	31.4
308.235	121.51
308.449	-5.46
308.663	39.59
308.877	154.28
309.091	45.74
309.305	33.45
309.519	-15.7
309.733	35.5
309.947	8.87
310.161	66.22
310.374	25.26
310.588	15.02
310.802	-7.51
311.016	19.11
311.23	51.88
311.444	-5.46
311.658	84.65
311.872	66.22
312.085	164.52
312.299	25.26
312.513	78.51
312.727	62.12
312.941	4.78
313.154	86.7
313.368	0.68
313.582	51.88
313.796	58.03
314.009	-36.18
314.223	51.88
314.437	121.51
314.651	62.12
314.864	19.11
315.078	-36.18
315.292	23.21
315.505	78.51
315.719	49.83
315.933	29.35
316.146	49.83
316.36	41.64
316.573	107.18
316.787	2.73
317.001	68.27
317.214	31.4
317.428	47.79
317.641	105.13
317.855	62.12
318.068	105.13
318.282	33.45
318.495	127.66
318.709	72.36
318.922	82.6
319.136	80.55
319.349	78.51
319.563	-1.37
319.776	86.7
319.99	41.64
320.203	103.08
320.417	62.12
320.63	58.03
320.843	-23.89
321.057	29.35
321.27	62.12
321.483	98.99
321.697	37.55
321.91	68.27
322.124	98.99
322.337	29.35
322.55	37.55
322.763	4.78
322.977	98.99
323.19	-9.56
323.403	74.41
323.617	-23.89
323.83	96.94
324.043	82.6
324.256	76.46
324.469	2.73
324.683	107.18
324.896	53.93
325.109	109.23
325.322	-17.75
325.535	33.45
325.748	148.14
325.962	6.83
326.175	101.03
326.388	90.79
326.601	4.78
326.814	45.74
327.027	62.12
327.24	64.17
327.453	-3.41
327.666	96.94
327.879	55.98
328.092	64.17
328.305	25.26
328.518	19.11
328.731	29.35
328.944	39.59
329.157	-1.37
329.37	74.41
329.583	94.89
329.796	113.32
330.009	29.35
330.222	131.75
330.435	43.69
330.648	60.07
330.861	86.7
331.073	58.03
331.286	82.6
331.499	17.07
331.712	78.51
331.925	88.75
332.138	47.79
332.35	41.64
332.563	58.03
332.776	43.69
332.989	19.11
333.202	4.78
333.414	-9.56
333.627	101.03
333.84	60.07
334.053	141.99
334.265	-68.95
334.478	25.26
334.691	92.84
334.903	37.55
335.116	107.18
335.329	37.55
335.541	39.59
335.754	-11.61
335.966	43.69
336.179	-5.46
336.392	92.84
336.604	39.59
336.817	62.12
337.029	19.11
337.242	86.7
337.454	76.46
337.667	35.5
337.88	76.46
338.092	15.02
338.305	-58.71
338.517	90.79
338.729	12.97
338.942	-48.47
339.154	-34.13
339.367	23.21
339.579	64.17
339.792	53.93
340.004	47.79
340.217	35.5
340.429	64.17
340.641	86.7
340.854	51.88
341.066	60.07
341.278	131.75
341.491	109.23
341.703	80.55
341.915	12.97
342.128	117.42
342.34	4.78
342.552	68.27
342.764	45.74
342.977	64.17
343.189	21.16
343.401	139.94
343.613	15.02
343.826	92.84
344.038	15.02
344.25	78.51
344.462	-50.52
344.674	180.9
344.886	105.13
345.099	84.65
345.311	86.7
345.523	25.26
345.735	8.87
345.947	60.07
346.159	25.26
346.371	21.16
346.583	109.23
346.795	127.66
347.007	68.27
347.219	76.46
347.431	82.6
347.643	72.36
347.855	64.17
348.067	68.27
348.279	45.74
348.491	66.22
348.703	33.45
348.915	49.83
349.127	-1.37
349.339	78.51
349.551	45.74
349.763	-7.51
349.975	39.59
350.187	78.51
350.399	133.8
350.61	45.74
350.822	129.7
351.034	66.22
351.246	129.7
351.458	58.03
351.669	90.79
351.881	41.64
352.093	64.17
352.305	37.55
352.517	31.4
352.728	117.42
352.94	109.23
353.152	72.36
353.363	45.74
353.575	66.22
353.787	74.41
353.999	96.94
354.21	55.98
354.422	80.55
354.633	49.83
354.845	-1.37
355.057	39.59
355.268	146.09
355.48	19.11
355.692	103.08
355.903	47.79
356.115	78.51
356.326	-30.04
356.538	53.93
356.749	96.94
356.961	154.28
357.172	84.65
357.384	78.51
357.595	141.99
357.807	51.88
358.018	29.35
358.23	78.51
358.441	25.26
358.653	45.74
358.864	68.27
359.075	-15.7
359.287	78.51
359.498	98.99
359.709	6.83
359.921	96.94
360.132	49.83
360.344	98.99
360.555	92.84
360.766	60.07
360.977	86.7
361.189	148.14
361.4	74.41
361.611	86.7
361.823	109.23
362.034	17.07
362.245	-23.89
362.456	-1.37
362.667	55.98
362.879	62.12
363.09	111.27
363.301	47.79
363.512	101.03
363.723	111.27
363.935	66.22
364.146	117.42
364.357	66.22
364.568	94.89
364.779	103.08
364.99	35.5
365.201	51.88
365.412	70.31
365.623	31.4
365.834	74.41
366.045	-7.51
366.256	107.18
366.467	94.89
366.678	117.42
366.889	25.26
367.1	39.59
367.311	62.12
367.522	96.94
367.733	27.31
367.944	62.12
368.155	55.98
368.366	74.41
368.577	105.13
368.788	96.94
368.999	-23.89
369.209	58.03
369.42	176.81
369.631	162.47
369.842	101.03
370.053	47.79
370.264	55.98
370.474	70.31
370.685	47.79
370.896	94.89
371.107	98.99
371.317	137.9
371.528	58.03
371.739	131.75
371.95	62.12
372.16	144.04
372.371	8.87
372.582	39.59
372.792	78.51
373.003	129.7
373.214	98.99
373.424	66.22
373.635	64.17
373.846	74.41
374.056	53.93
374.267	109.23
374.477	105.13
374.688	33.45
374.898	101.03
375.109	107.18
375.319	148.14
375.53	146.09
375.74	125.61
375.951	119.46
376.161	74.41
376.372	137.9
376.582	43.69
376.793	96.94
377.003	25.26
377.214	98.99
377.424	47.79
377.635	111.27
377.845	98.99
378.055	170.66
378.266	103.08
378.476	64.17
378.686	103.08
378.897	94.89
379.107	101.03
379.317	45.74
379.528	113.32
379.738	-5.46
379.948	80.55
380.158	53.93
380.369	80.55
380.579	62.12
380.789	64.17
380.999	111.27
381.21	139.94
381.42	74.41
381.63	121.51
381.84	90.79
382.05	148.14
382.261	96.94
382.471	144.04
382.681	19.11
382.891	92.84
383.101	33.45
383.311	60.07
383.521	62.12
383.731	135.85
383.941	80.55
384.151	76.46
384.361	68.27
384.571	72.36
384.781	162.47
384.991	146.09
385.201	160.42
385.411	191.14
385.621	86.7
385.831	31.4
386.041	129.7
386.251	29.35
386.461	105.13
386.671	12.97
386.881	164.52
387.091	131.75
387.301	82.6
387.511	123.56
387.72	23.21
387.93	53.93
388.14	78.51
388.35	88.75
388.56	113.32
388.769	101.03
388.979	121.51
389.189	62.12
389.399	117.42
389.609	148.14
389.818	103.08
390.028	78.51
390.238	29.35
390.447	92.84
390.657	131.75
390.867	66.22
391.076	66.22
391.286	105.13
391.496	39.59
391.705	195.24
391.915	105.13
392.125	84.65
392.334	58.03
392.544	254.63
392.753	39.59
392.963	88.75
393.172	94.89
393.382	60.07
393.591	146.09
393.801	135.85
394.01	133.8
394.22	141.99
394.429	111.27
394.639	33.45
394.848	152.23
395.058	96.94
395.267	55.98
395.477	174.76
395.686	111.27
395.895	246.44
396.105	197.29
396.314	185
396.524	94.89
396.733	80.55
396.942	121.51
397.152	123.56
397.361	148.14
397.57	60.07
397.78	146.09
397.989	139.94
398.198	197.29
398.407	131.75
398.617	205.48
398.826	111.27
399.035	127.66
399.244	158.38
399.453	127.66
399.663	135.85
399.872	141.99
400.081	221.86
400.29	148.14
400.499	109.23
400.708	182.95
400.917	162.47
401.127	150.18
401.336	228.01
401.545	178.86
401.754	168.62
401.963	223.91
402.172	141.99
402.381	187.05
402.59	123.56
402.799	213.67
403.008	240.3
403.217	248.49
403.426	223.91
403.635	152.23
403.844	225.96
404.053	242.34
404.262	209.58
404.471	234.15
404.68	230.06
404.888	133.8
405.097	283.3
405.306	285.35
405.515	246.44
405.724	195.24
405.933	215.72
406.142	307.88
406.35	273.06
406.559	238.25
406.768	256.68
406.977	338.6
407.185	305.83
407.394	225.96
407.603	363.17
407.812	301.73
408.02	387.75
408.229	334.5
408.438	451.24
408.646	336.55
408.855	381.6
409.064	400.04
409.272	402.08
409.481	422.56
409.69	451.24
409.898	318.12
410.107	486.05
410.315	455.33
410.524	457.38
410.733	484
410.941	553.63
411.15	463.52
411.358	557.73
411.567	604.83
411.775	582.31
411.984	610.98
412.192	707.23
412.401	621.22
412.609	789.15
412.818	783.01
413.026	832.16
413.234	742.05
413.443	727.71
413.651	791.2
413.86	940.7
414.068	996
414.276	1012.38
414.485	901.79
414.693	977.56
414.901	1073.82
415.11	1137.31
415.318	1108.63
415.526	1192.6
415.734	1141.4
415.943	1186.46
416.151	1301.14
416.359	1282.71
416.567	1417.88
416.776	1426.07
416.984	1413.78
417.192	1512.08
417.4	1467.03
417.608	1507.99
417.817	1657.49
418.025	1675.92
418.233	1802.9
418.441	1731.22
418.649	2073.23
418.857	1995.4
419.065	1876.62
419.273	2062.99
419.481	2185.87
419.689	2067.08
419.897	2400.9
420.105	2228.87
420.313	2570.88
420.521	2462.34
420.729	2648.71
420.937	2648.71
421.145	2812.54
421.353	2962.05
421.561	3017.34
421.769	3082.88
421.977	3203.71
422.185	3134.07
422.393	3381.88
422.601	3533.43
422.809	3539.57
423.017	3590.77
423.224	3781.23
423.432	3893.87
423.64	3857.01
423.848	4287.08
424.056	4237.93
424.263	4395.62
424.471	4450.92
424.679	4620.9
424.887	4883.04
425.094	5108.32
425.302	5134.94
425.51	5286.49
425.718	5372.5
425.925	5313.11
426.133	5673.56
426.341	5798.48
426.548	6158.92
426.756	6232.65
426.964	6183.5
427.171	6761.03
427.379	6447.69
427.586	6955.58
427.794	7060.03
428.001	7477.82
428.209	7887.41
428.417	7639.61
428.624	8133.17
428.832	8254
429.039	8135.21
429.247	8243.76
429.454	9044.51
429.662	9763.35
429.869	8929.83
430.076	9558.55
430.284	9290.27
430.491	9710.1
430.699	10424.84
430.906	10338.83
431.114	10437.13
431.321	10924.55
431.528	10988.03
431.736	11606.52
431.943	12249.58
432.15	11944.44
432.358	12134.9
432.565	12884.45
432.772	12685.8
432.979	13294.05
433.187	13543.9
433.394	13611.48
433.601	14725.58
433.808	14680.52
434.016	14582.22
434.223	15141.32
434.43	15899.06
434.637	15534.53
434.844	16378.29
435.052	17013.16
435.259	16658.86
435.466	17115.56
435.673	17021.35
435.88	17811.87
436.087	18874.76
436.294	18999.69
436.501	18737.55
436.708	18987.4
436.915	20031.87
437.122	20719.98
437.329	20484.47
437.537	21262.69
437.743	21262.69
437.95	21242.21
438.157	22315.35
438.364	23163.21
438.571	23099.72
438.778	23015.76
438.985	25227.56
439.192	24369.46
439.399	25022.76
439.606	24596.79
439.813	26204.44
440.02	27615.49
440.227	27113.74
440.433	26693.91
440.64	27816.19
440.847	27672.84
441.054	28006.66
441.261	29870.31
441.467	29356.27
441.674	30212.32
441.881	31471.82
442.088	31289.55
442.294	31011.03
442.501	31994.05
442.708	32848.05
442.914	33570.99
443.121	35094.68
443.328	33767.59
443.534	36731
443.741	35700.87
443.948	35199.12
444.154	37709.93
444.361	37286
444.568	37734.51
444.774	37644.4
444.981	38056.04
445.187	39395.41
445.394	40996.92
445.6	40296.52
445.807	44277.77
446.013	42565.67
446.22	43165.72
446.426	44501
446.633	44570.63
446.839	46632.93
447.046	45103.1
447.252	46997.47
447.459	47013.85
447.665	46860.26
447.871	49045.44
448.078	51306.4
448.284	48412.62
448.491	49942.45
448.697	51988.37
448.903	52357
449.11	52731.78
449.316	51496.86
449.522	52918.15
449.728	54048.63
449.935	54738.79
450.141	54593.39
450.347	55412.57
450.553	53946.23
450.76	54726.5
450.966	56874.82
451.172	56006.48
451.378	56997.7
451.584	56246.1
451.791	57343.81
451.997	57091.91
452.203	58093.36
452.409	57945.91
452.615	57851.7
452.821	55883.61
453.027	55193.44
453.233	58208.05
453.44	56217.42
453.646	56692.55
453.852	56682.31
454.058	57771.83
454.264	56045.4
454.47	56805.19
454.676	55773.02
454.882	57433.92
455.088	53116.8
455.294	53305.21
455.5	54351.73
455.705	54796.13
455.911	52938.63
456.117	52043.66
456.323	51384.22
456.529	48664.52
456.735	50931.62
456.941	49246.14
457.147	48359.37
457.352	47269.85
457.558	46999.52
457.764	46933.98
457.97	46073.84
458.176	45094.91
458.381	44939.26
458.587	42928.16
458.793	42842.14
458.999	40603.71
459.204	43966.48
459.41	42096.68
459.616	39651.41
459.821	39735.37
460.027	39419.99
460.233	38617.18
460.438	36761.72
460.644	37460.08
460.85	35070.1
461.055	34984.08
461.261	34797.72
461.466	32467.13
461.672	31533.26
461.878	33439.92
462.083	31103.18
462.289	30882
462.494	30294.24
462.7	29280.49
462.905	28307.71
463.111	29513.96
463.316	29442.28
463.522	28868.85
463.727	28780.79
463.932	28612.85
464.138	28803.32
464.343	28748.02
464.549	27625.73
464.754	29028.59
464.959	28107.01
465.165	28207.36
465.37	27306.25
465.575	26523.93
465.781	27480.33
465.986	27689.22
466.191	26431.77
466.397	26216.73
466.602	24881.46
