Data from USB4F104151__75__12-42-20-837.txt Node

Date: Fri Mar 14 12:42:20 EDT 2025
User: louis
Spectrometer: USB4F10415
Trigger mode: 4
Integration Time (sec): 3.000000E-2
Scans to average: 1
Electric dark correction enabled: true
Nonlinearity correction enabled: false
Boxcar width: 0
XAxis mode: Wavelengths
Number of Pixels in Spectrum: 3648
>>>>>Begin Spectral Data<<<<<
178.204	-144.89
178.424	-144.89
178.644	-144.89
178.864	-179.71
179.084	-128.51
179.304	-13.82
179.524	25.09
179.744	14.85
179.964	25.09
180.184	-58.88
180.404	10.75
180.624	-52.74
180.844	-26.11
181.064	-1.54
181.283	33.28
181.503	-9.73
181.723	53.76
181.943	-19.97
182.163	125.44
182.383	33.28
182.602	123.39
182.822	88.57
183.042	14.85
183.262	16.9
183.482	8.7
183.701	37.38
183.921	-5.63
184.141	2.56
184.361	-32.26
184.58	-24.06
184.8	4.61
185.02	6.66
185.239	43.52
185.459	-26.11
185.679	131.58
185.898	6.66
186.118	47.62
186.338	-34.3
186.557	43.52
186.777	25.09
186.997	12.8
187.216	31.23
187.436	66.05
187.655	59.9
187.875	51.71
188.095	-19.97
188.314	66.05
188.534	51.71
188.753	6.66
188.973	-24.06
189.192	70.14
189.412	92.67
189.631	55.81
189.851	39.42
190.07	57.86
190.29	8.7
190.509	6.66
190.729	-11.78
190.948	156.16
191.168	92.67
191.387	68.09
191.607	-30.21
191.826	8.7
192.045	51.71
192.265	6.66
192.484	-32.26
192.704	72.19
192.923	-1.54
193.142	16.9
193.362	98.81
193.581	143.87
193.8	33.28
194.02	41.47
194.239	-56.83
194.458	74.24
194.678	72.19
194.897	16.9
195.116	20.99
195.335	84.48
195.555	59.9
195.774	53.76
195.993	6.66
196.212	139.77
196.432	82.43
196.651	35.33
196.87	27.14
197.089	64
197.308	-30.21
197.528	-9.73
197.747	55.81
197.966	-13.82
198.185	135.68
198.404	35.33
198.623	31.23
198.842	33.28
199.062	25.09
199.281	92.67
199.5	49.66
199.719	6.66
199.938	131.58
200.157	64
200.376	39.42
200.595	80.38
200.814	25.09
201.033	-7.68
201.252	59.9
201.471	33.28
201.69	-11.78
201.909	-11.78
202.128	78.33
202.347	102.91
202.566	35.33
202.785	-15.87
203.004	37.38
203.223	90.62
203.442	14.85
203.661	31.23
203.879	139.77
204.098	96.77
204.317	33.28
204.536	23.04
204.755	18.94
204.974	113.15
205.193	29.18
205.411	92.67
205.63	6.66
205.849	25.09
206.068	72.19
206.287	72.19
206.505	80.38
206.724	-50.69
206.943	109.05
207.162	43.52
207.381	94.72
207.599	6.66
207.818	14.85
208.037	107.01
208.255	49.66
208.474	64
208.693	76.29
208.911	18.94
209.13	61.95
209.349	16.9
209.567	39.42
209.786	33.28
210.005	72.19
210.223	29.18
210.442	47.62
210.661	72.19
210.879	-24.06
211.098	117.25
211.316	37.38
211.535	100.86
211.753	43.52
211.972	107.01
212.191	-24.06
212.409	49.66
212.628	10.75
212.846	20.99
213.065	33.28
213.283	16.9
213.502	-22.02
213.72	29.18
213.938	49.66
214.157	-24.06
214.375	-46.59
214.594	27.14
214.812	45.57
215.031	76.29
215.249	37.38
215.467	25.09
215.686	45.57
215.904	123.39
216.122	-24.06
216.341	135.68
216.559	-5.63
216.778	16.9
216.996	53.76
217.214	41.47
217.432	33.28
217.651	18.94
217.869	-38.4
218.087	43.52
218.306	37.38
218.524	72.19
218.742	86.53
218.96	90.62
219.179	2.56
219.397	8.7
219.615	47.62
219.833	88.57
220.051	-44.54
220.27	90.62
220.488	57.86
220.706	23.04
220.924	70.14
221.142	72.19
221.36	43.52
221.578	0.51
221.796	-3.58
222.015	64
222.233	53.76
222.451	51.71
222.669	10.75
222.887	25.09
223.105	57.86
223.323	-34.3
223.541	20.99
223.759	100.86
223.977	27.14
224.195	184.83
224.413	84.48
224.631	49.66
224.849	55.81
225.067	68.09
225.285	25.09
225.503	86.53
225.721	35.33
225.939	25.09
226.157	-3.58
226.375	109.05
226.592	43.52
226.81	-11.78
227.028	37.38
227.246	104.96
227.464	70.14
227.682	47.62
227.9	121.34
228.117	39.42
228.335	35.33
228.553	41.47
228.771	82.43
228.989	78.33
229.206	78.33
229.424	-48.64
229.642	43.52
229.86	43.52
230.077	12.8
230.295	-5.63
230.513	27.14
230.731	98.81
230.948	51.71
231.166	53.76
231.384	20.99
231.601	90.62
231.819	84.48
232.037	41.47
232.254	2.56
232.472	90.62
232.689	51.71
232.907	131.58
233.125	25.09
233.342	47.62
233.56	49.66
233.777	6.66
233.995	14.85
234.213	18.94
234.43	0.51
234.648	98.81
234.865	-7.68
235.083	94.72
235.3	45.57
235.518	2.56
235.735	78.33
235.953	66.05
236.17	-7.68
236.388	72.19
236.605	2.56
236.822	121.34
237.04	70.14
237.257	76.29
237.475	-3.58
237.692	4.61
237.909	78.33
238.127	18.94
238.344	84.48
238.562	25.09
238.779	20.99
238.996	-34.3
239.214	57.86
239.431	70.14
239.648	29.18
239.865	-19.97
240.083	35.33
240.3	6.66
240.517	47.62
240.735	53.76
240.952	76.29
241.169	-9.73
241.386	86.53
241.603	70.14
241.821	31.23
242.038	80.38
242.255	33.28
242.472	90.62
242.689	72.19
242.907	-15.87
243.124	25.09
243.341	86.53
243.558	25.09
243.775	35.33
243.992	-91.65
244.209	29.18
244.426	68.09
244.643	16.9
244.86	14.85
245.078	78.33
245.295	49.66
245.512	109.05
245.729	6.66
245.946	33.28
246.163	4.61
246.38	55.81
246.597	-1.54
246.814	18.94
247.031	20.99
247.248	-32.26
247.464	-1.54
247.681	80.38
247.898	35.33
248.115	84.48
248.332	-5.63
248.549	68.09
248.766	45.57
248.983	61.95
249.2	74.24
249.417	72.19
249.633	51.71
249.85	125.44
250.067	64
250.284	16.9
250.501	59.9
250.717	111.1
250.934	49.66
251.151	8.7
251.368	41.47
251.585	72.19
251.801	78.33
252.018	33.28
252.235	61.95
252.451	-34.3
252.668	47.62
252.885	27.14
253.102	90.62
253.318	-42.5
253.535	10.75
253.752	-58.88
253.968	2.56
254.185	90.62
254.401	37.38
254.618	57.86
254.835	33.28
255.051	109.05
255.268	-1.54
255.484	59.9
255.701	39.42
255.917	51.71
256.134	-30.21
256.351	33.28
256.567	0.51
256.784	76.29
257	12.8
257.217	53.76
257.433	49.66
257.65	-7.68
257.866	25.09
258.082	94.72
258.299	10.75
258.515	23.04
258.732	20.99
258.948	-32.26
259.165	45.57
259.381	-11.78
259.597	-22.02
259.814	18.94
260.03	29.18
260.246	100.86
260.463	68.09
260.679	16.9
260.895	37.38
261.112	53.76
261.328	43.52
261.544	-34.3
261.761	143.87
261.977	23.04
262.193	41.47
262.409	80.38
262.626	8.7
262.842	94.72
263.058	-44.54
263.274	61.95
263.49	61.95
263.707	10.75
263.923	90.62
264.139	18.94
264.355	55.81
264.571	117.25
264.787	61.95
265.004	-7.68
265.22	27.14
265.436	2.56
265.652	-44.54
265.868	68.09
266.084	37.38
266.3	68.09
266.516	-44.54
266.732	41.47
266.948	-22.02
267.164	43.52
267.38	12.8
267.596	39.42
267.812	119.29
268.028	78.33
268.244	43.52
268.46	-13.82
268.676	-40.45
268.892	31.23
269.108	72.19
269.324	57.86
269.54	-30.21
269.756	88.57
269.972	14.85
270.188	-15.87
270.403	-22.02
270.619	59.9
270.835	20.99
271.051	131.58
271.267	37.38
271.483	8.7
271.698	51.71
271.914	37.38
272.13	37.38
272.346	14.85
272.562	-24.06
272.777	100.86
272.993	-13.82
273.209	94.72
273.425	98.81
273.64	18.94
273.856	53.76
274.072	-26.11
274.287	4.61
274.503	37.38
274.719	33.28
274.934	113.15
275.15	8.7
275.366	66.05
275.581	51.71
275.797	37.38
276.012	-56.83
276.228	6.66
276.444	2.56
276.659	66.05
276.875	51.71
277.09	23.04
277.306	96.77
277.521	102.91
277.737	43.52
277.952	139.77
278.168	39.42
278.383	12.8
278.599	84.48
278.814	0.51
279.03	8.7
279.245	59.9
279.461	-19.97
279.676	55.81
279.892	64
280.107	12.8
280.322	-38.4
280.538	27.14
280.753	37.38
280.969	51.71
281.184	78.33
281.399	150.01
281.615	27.14
281.83	72.19
282.045	8.7
282.26	-24.06
282.476	33.28
282.691	-7.68
282.906	-7.68
283.122	49.66
283.337	25.09
283.552	59.9
283.767	51.71
283.983	117.25
284.198	33.28
284.413	37.38
284.628	-42.5
284.843	14.85
285.058	37.38
285.274	55.81
285.489	35.33
285.704	55.81
285.919	-32.26
286.134	78.33
286.349	88.57
286.564	49.66
286.779	76.29
286.995	92.67
287.21	-52.74
287.425	61.95
287.64	23.04
287.855	57.86
288.07	12.8
288.285	-19.97
288.5	55.81
288.715	-28.16
288.93	51.71
289.145	41.47
289.36	39.42
289.575	51.71
289.79	59.9
290.004	84.48
290.219	33.28
290.434	33.28
290.649	-44.54
290.864	68.09
291.079	8.7
291.294	78.33
291.509	31.23
291.724	-7.68
291.938	49.66
292.153	8.7
292.368	-5.63
292.583	84.48
292.798	-26.11
293.012	6.66
293.227	47.62
293.442	-28.16
293.657	0.51
293.871	102.91
294.086	55.81
294.301	133.63
294.516	16.9
294.73	8.7
294.945	31.23
295.16	6.66
295.374	96.77
295.589	27.14
295.804	2.56
296.018	14.85
296.233	113.15
296.447	29.18
296.662	-22.02
296.877	74.24
297.091	68.09
297.306	4.61
297.52	39.42
297.735	23.04
297.949	55.81
298.164	31.23
298.378	51.71
298.593	-24.06
298.807	43.52
299.022	76.29
299.236	25.09
299.451	51.71
299.665	129.53
299.88	47.62
300.094	39.42
300.309	72.19
300.523	-7.68
300.737	57.86
300.952	35.33
301.166	68.09
301.381	18.94
301.595	20.99
301.809	84.48
302.024	37.38
302.238	41.47
302.452	76.29
302.667	80.38
302.881	-13.82
303.095	53.76
303.309	59.9
303.524	74.24
303.738	70.14
303.952	57.86
304.166	70.14
304.381	49.66
304.595	109.05
304.809	2.56
305.023	27.14
305.237	4.61
305.452	-15.87
305.666	-1.54
305.88	43.52
306.094	45.57
306.308	27.14
306.522	64
306.736	125.44
306.95	61.95
307.164	-7.68
307.379	27.14
307.593	76.29
307.807	33.28
308.021	-5.63
308.235	76.29
308.449	-3.58
308.663	74.24
308.877	68.09
309.091	25.09
309.305	-1.54
309.519	-56.83
309.733	49.66
309.947	-79.36
310.161	70.14
310.374	47.62
310.588	94.72
310.802	66.05
311.016	68.09
311.23	59.9
311.444	27.14
311.658	82.43
311.872	47.62
312.085	25.09
312.299	41.47
312.513	35.33
312.727	61.95
312.941	80.38
313.154	39.42
313.368	0.51
313.582	45.57
313.796	37.38
314.009	33.28
314.223	80.38
314.437	59.9
314.651	20.99
314.864	-44.54
315.078	4.61
315.292	61.95
315.505	-15.87
315.719	16.9
315.933	68.09
316.146	0.51
316.36	-3.58
316.573	92.67
316.787	121.34
317.001	57.86
317.214	31.23
317.428	53.76
317.641	-30.21
317.855	100.86
318.068	59.9
318.282	121.34
318.495	35.33
318.709	113.15
318.922	20.99
319.136	150.01
319.349	70.14
319.563	14.85
319.776	-32.26
319.99	18.94
320.203	90.62
320.417	51.71
320.63	55.81
320.843	119.29
321.057	68.09
321.27	6.66
321.483	35.33
321.697	72.19
321.91	41.47
322.124	47.62
322.337	84.48
322.55	96.77
322.763	55.81
322.977	41.47
323.19	-15.87
323.403	25.09
323.617	90.62
323.83	20.99
324.043	39.42
324.256	51.71
324.469	18.94
324.683	61.95
324.896	-9.73
325.109	31.23
325.322	23.04
325.535	12.8
325.748	121.34
325.962	74.24
326.175	29.18
326.388	86.53
326.601	119.29
326.814	86.53
327.027	72.19
327.24	96.77
327.453	-11.78
327.666	100.86
327.879	76.29
328.092	98.81
328.305	29.18
328.518	88.57
328.731	41.47
328.944	49.66
329.157	23.04
329.37	27.14
329.583	55.81
329.796	102.91
330.009	68.09
330.222	66.05
330.435	66.05
330.648	37.38
330.861	-13.82
331.073	31.23
331.286	117.25
331.499	57.86
331.712	0.51
331.925	29.18
332.138	51.71
332.35	41.47
332.563	66.05
332.776	107.01
332.989	59.9
333.202	41.47
333.414	70.14
333.627	33.28
333.84	20.99
334.053	-7.68
334.265	31.23
334.478	61.95
334.691	51.71
334.903	-24.06
335.116	27.14
335.329	39.42
335.541	84.48
335.754	59.9
335.966	23.04
336.179	12.8
336.392	35.33
336.604	57.86
336.817	43.52
337.029	14.85
337.242	78.33
337.454	6.66
337.667	-30.21
337.88	82.43
338.092	-15.87
338.305	-13.82
338.517	41.47
338.729	98.81
338.942	127.49
339.154	55.81
339.367	-19.97
339.579	107.01
339.792	68.09
340.004	96.77
340.217	10.75
340.429	35.33
340.641	20.99
340.854	37.38
341.066	94.72
341.278	37.38
341.491	174.59
341.703	64
341.915	-9.73
342.128	51.71
342.34	29.18
342.552	-9.73
342.764	109.05
342.977	20.99
343.189	70.14
343.401	10.75
343.613	10.75
343.826	47.62
344.038	20.99
344.25	2.56
344.462	45.57
344.674	86.53
344.886	23.04
345.099	66.05
345.311	64
345.523	6.66
345.735	35.33
345.947	-40.45
346.159	35.33
346.371	43.52
346.583	49.66
346.795	78.33
347.007	-19.97
347.219	72.19
347.431	12.8
347.643	45.57
347.855	-11.78
348.067	61.95
348.279	25.09
348.491	2.56
348.703	-40.45
348.915	66.05
349.127	-28.16
349.339	72.19
349.551	-30.21
349.763	82.43
349.975	98.81
350.187	92.67
350.399	111.1
350.61	117.25
350.822	55.81
351.034	82.43
351.246	64
351.458	47.62
351.669	-22.02
351.881	72.19
352.093	84.48
352.305	92.67
352.517	76.29
352.728	107.01
352.94	25.09
353.152	68.09
353.363	31.23
353.575	41.47
353.787	119.29
353.999	104.96
354.21	119.29
354.422	20.99
354.633	55.81
354.845	107.01
355.057	68.09
355.268	43.52
355.48	80.38
355.692	-32.26
355.903	59.9
356.115	88.57
356.326	6.66
356.538	68.09
356.749	84.48
356.961	66.05
357.172	20.99
357.384	-22.02
357.595	-1.54
357.807	72.19
358.018	39.42
358.23	18.94
358.441	90.62
358.653	96.77
358.864	31.23
359.075	59.9
359.287	27.14
359.498	100.86
359.709	14.85
359.921	47.62
360.132	31.23
360.344	47.62
360.555	55.81
360.766	86.53
360.977	74.24
361.189	72.19
361.4	55.81
361.611	68.09
361.823	2.56
362.034	88.57
362.245	-7.68
362.456	68.09
362.667	47.62
362.879	102.91
363.09	27.14
363.301	78.33
363.512	72.19
363.723	-44.54
363.935	66.05
364.146	27.14
364.357	39.42
364.568	70.14
364.779	25.09
364.99	4.61
365.201	27.14
365.412	109.05
365.623	92.67
365.834	27.14
366.045	51.71
366.256	2.56
366.467	66.05
366.678	-7.68
366.889	68.09
367.1	20.99
367.311	84.48
367.522	4.61
367.733	121.34
367.944	53.76
368.155	55.81
368.366	72.19
368.577	31.23
368.788	104.96
368.999	-13.82
369.209	84.48
369.42	76.29
369.631	57.86
369.842	10.75
370.053	41.47
370.264	61.95
370.474	31.23
370.685	53.76
370.896	37.38
371.107	68.09
371.317	4.61
371.528	59.9
371.739	145.92
371.95	76.29
372.16	49.66
372.371	-11.78
372.582	82.43
372.792	76.29
373.003	4.61
373.214	8.7
373.424	49.66
373.635	-3.58
373.846	164.35
374.056	31.23
374.267	14.85
374.477	-13.82
374.688	43.52
374.898	35.33
375.109	14.85
375.319	78.33
375.53	43.52
375.74	31.23
375.951	76.29
376.161	84.48
376.372	31.23
376.582	-9.73
376.793	51.71
377.003	35.33
377.214	76.29
377.424	70.14
377.635	23.04
377.845	74.24
378.055	51.71
378.266	43.52
378.476	16.9
378.686	35.33
378.897	78.33
379.107	147.97
379.317	55.81
379.528	31.23
379.738	84.48
379.948	147.97
380.158	18.94
380.369	39.42
380.579	57.86
380.789	125.44
380.999	72.19
381.21	74.24
381.42	92.67
381.63	-5.63
381.84	57.86
382.05	129.53
382.261	64
382.471	127.49
382.681	33.28
382.891	135.68
383.101	12.8
383.311	43.52
383.521	-15.87
383.731	55.81
383.941	133.63
384.151	29.18
384.361	39.42
384.571	55.81
384.781	86.53
384.991	104.96
385.201	29.18
385.411	55.81
385.621	82.43
385.831	82.43
386.041	102.91
386.251	80.38
386.461	109.05
386.671	47.62
386.881	57.86
387.091	76.29
387.301	74.24
387.511	64
387.72	27.14
387.93	117.25
388.14	18.94
388.35	27.14
388.56	90.62
388.769	74.24
388.979	-5.63
389.189	45.57
389.399	100.86
389.609	104.96
389.818	219.64
390.028	76.29
390.238	92.67
390.447	57.86
390.657	113.15
390.867	178.69
391.076	29.18
391.286	70.14
391.496	70.14
391.705	72.19
391.915	90.62
392.125	125.44
392.334	-1.54
392.544	125.44
392.753	117.25
392.963	12.8
393.172	86.53
393.382	35.33
393.591	53.76
393.801	66.05
394.01	70.14
394.22	121.34
394.429	27.14
394.639	37.38
394.848	102.91
395.058	49.66
395.267	55.81
395.477	180.73
395.686	143.87
395.895	121.34
396.105	139.77
396.314	66.05
396.524	119.29
396.733	49.66
396.942	61.95
397.152	174.59
397.361	123.39
397.57	80.38
397.78	100.86
397.989	74.24
398.198	168.45
398.407	66.05
398.617	92.67
398.826	154.11
399.035	135.68
399.244	123.39
399.453	174.59
399.663	166.4
399.872	107.01
400.081	96.77
400.29	152.06
400.499	139.77
400.708	154.11
400.917	104.96
401.127	51.71
401.336	123.39
401.545	190.97
401.754	137.73
401.963	119.29
402.172	125.44
402.381	133.63
402.59	125.44
402.799	178.69
403.008	152.06
403.217	150.01
403.426	145.92
403.635	82.43
403.844	92.67
404.053	152.06
404.262	176.64
404.471	223.74
404.68	98.81
404.888	98.81
405.097	115.2
405.306	158.21
405.515	141.82
405.724	100.86
405.933	252.41
406.142	131.58
406.35	141.82
406.559	236.03
406.768	98.81
406.977	313.85
407.185	115.2
407.394	254.46
407.603	156.16
407.812	223.74
408.02	260.6
408.229	203.26
408.438	176.64
408.646	182.78
408.855	291.32
409.064	270.84
409.272	293.37
409.481	346.62
409.69	229.88
409.898	311.8
410.107	322.04
410.315	322.04
410.524	369.15
410.733	363
410.941	401.91
411.15	408.06
411.358	463.35
411.567	479.74
411.775	422.39
411.984	422.39
412.192	506.36
412.401	477.69
412.609	481.78
412.818	553.46
413.026	592.37
413.234	547.32
413.443	479.74
413.651	621.05
413.86	643.57
414.068	702.97
414.276	768.5
414.485	680.44
414.693	805.36
414.901	805.36
415.11	856.56
415.318	797.17
415.526	860.66
415.734	868.85
415.943	942.58
416.151	956.91
416.359	1049.07
416.567	1147.37
416.776	997.87
416.984	1288.68
417.192	1196.53
417.4	1206.77
417.608	1241.58
417.817	1284.59
418.025	1268.2
418.233	1397.23
418.441	1436.14
418.649	1495.53
418.857	1436.14
419.065	1524.2
419.273	1589.74
419.481	1622.5
419.689	1755.62
419.897	1774.05
420.105	1851.88
420.313	2015.71
420.521	2077.15
420.729	2062.82
420.937	2001.38
421.145	2136.54
421.353	2329.05
421.561	2392.54
421.769	2370.01
421.977	2578.9
422.185	2449.88
422.393	2535.9
422.601	2724.31
422.809	2988.5
423.017	2816.47
423.224	2941.4
423.432	3105.23
423.64	3074.51
423.848	3369.42
424.056	3213.77
424.263	3664.33
424.471	3619.27
424.679	3594.7
424.887	3873.22
425.094	3889.6
425.302	4032.96
425.51	4172.22
425.718	4266.43
425.925	4381.12
426.133	4350.4
426.341	4659.64
426.548	4811.19
426.756	4907.45
426.964	5034.42
427.171	5243.31
427.379	5302.7
427.586	5554.6
427.794	5626.28
428.001	5867.94
428.209	6029.73
428.417	5857.7
428.624	6328.74
428.832	6388.13
429.039	6398.37
429.247	6474.14
429.454	6934.93
429.662	7557.52
429.869	7002.52
430.076	7526.8
430.284	7170.45
430.491	7704.97
430.699	7819.66
430.906	7920.01
431.114	8006.02
431.321	8606.08
431.528	8575.36
431.736	9132.4
431.943	9587.05
432.15	9273.71
432.358	9519.47
432.565	9748.84
432.772	9779.56
432.979	10473.82
433.187	10817.88
433.394	10668.38
433.601	11280.72
433.808	11450.71
434.016	11309.4
434.223	11876.68
434.43	12294.47
434.637	12140.87
434.844	12939.58
435.052	13179.19
435.259	13062.46
435.466	13214.01
435.673	13146.42
435.88	13961.51
436.087	14881.05
436.294	14967.07
436.501	14354.72
436.708	14491.94
436.915	15038.75
437.122	15698.19
437.329	15884.56
437.537	16453.89
437.743	16828.67
437.95	16470.28
438.157	17408.25
438.364	17969.39
438.571	17709.3
438.778	18053.36
438.985	19400.92
439.192	18907.36
439.399	19505.37
439.606	19140.83
439.813	19896.53
440.02	21506.23
440.227	20932.8
440.433	20863.17
440.64	21504.18
440.847	21235.9
441.054	22143.15
441.261	23154.85
441.467	22790.31
441.674	23328.92
441.881	24252.56
442.088	24410.25
442.294	23988.37
442.501	24985.73
442.708	25213.06
442.914	26198.13
443.121	27680.86
443.328	26710.12
443.534	28624.97
443.741	27641.95
443.948	27076.71
444.154	28938.31
444.361	29192.26
444.568	29024.33
444.774	29237.31
444.981	29759.55
445.187	30193.72
445.394	31918.1
445.6	31213.6
445.807	33959.93
446.013	32888.84
446.22	33097.73
446.426	34469.87
446.633	35002.35
446.839	36083.67
447.046	34721.77
447.252	36827.09
447.459	36736.98
447.665	36546.51
447.871	38154.17
448.078	39597.99
448.284	38102.97
448.491	39040.94
448.697	40257.43
448.903	40724.37
449.11	41285.51
449.316	40220.57
449.522	41299.85
449.728	42223.48
449.935	42704.76
450.141	42811.25
450.347	43663.21
450.553	42495.86
450.76	42958.7
450.966	43945.83
451.172	43839.33
451.378	45014.87
451.584	44179.29
451.791	45160.27
451.997	44885.84
452.203	45510.47
452.409	45432.65
452.615	45199.18
452.821	43978.59
453.027	43593.57
453.233	45580.1
453.44	44037.98
453.646	44760.92
453.852	44414.81
454.058	45377.36
454.264	43839.33
454.47	45199.18
454.676	43812.71
454.882	45213.52
455.088	41361.29
455.294	42321.79
455.5	42512.25
455.705	42751.86
455.911	41148.3
456.117	40669.08
456.323	40513.43
456.529	38297.53
456.735	39516.07
456.941	38684.59
457.147	38164.41
457.352	36919.24
457.558	36528.08
457.764	36292.57
457.97	36177.88
458.176	34953.19
458.381	35121.13
458.587	33533.95
458.793	33237
458.999	32090.13
459.204	33968.12
459.41	32735.24
459.616	30801.96
459.821	30679.08
460.027	30976.04
460.233	29863.99
460.438	28753.99
460.644	28934.21
460.85	27449.44
461.055	27156.58
461.261	27422.81
461.466	25153.66
461.672	24465.55
461.878	26083.44
462.083	24330.38
462.289	23931.03
462.494	23718.04
462.7	22579.37
462.905	22413.48
463.111	22841.51
463.316	22931.62
463.522	22345.9
463.727	22274.22
463.932	22245.55
464.138	22481.06
464.343	22352.04
464.549	21747.89
464.754	22411.43
464.959	21977.26
465.165	21844.15
465.37	21321.91
465.575	20543.69
465.781	21436.6
465.986	21446.84
466.191	20527.3
466.397	20101.33
466.602	19028.19
466.807	19904.72
467.012	20043.98
467.218	20058.32
