Data from USB4F104151__66__12-42-10-878.txt Node

Date: Fri Mar 14 12:42:10 EDT 2025
User: louis
Spectrometer: USB4F10415
Trigger mode: 4
Integration Time (sec): 3.000000E-2
Scans to average: 1
Electric dark correction enabled: true
Nonlinearity correction enabled: false
Boxcar width: 0
XAxis mode: Wavelengths
Number of Pixels in Spectrum: 3648
>>>>>Begin Spectral Data<<<<<
178.204	-128.68
178.424	-128.68
178.644	-128.68
178.864	-202.41
179.084	-116.39
179.304	-38.57
179.524	45.4
179.744	-85.67
179.964	53.59
180.184	-44.71
180.404	41.3
180.624	-48.81
180.844	72.02
181.064	-3.75
181.283	-50.86
181.503	8.53
181.723	51.54
181.943	-77.48
182.163	53.59
182.383	24.92
182.602	-32.43
182.822	0.34
183.042	39.25
183.262	-13.99
183.482	-32.43
183.701	4.44
183.921	55.64
184.141	-3.75
184.361	88.4
184.58	18.77
184.8	-16.04
185.02	-75.43
185.239	84.31
185.459	33.11
185.679	16.73
185.898	-40.62
186.118	67.92
186.338	-28.33
186.557	-48.81
186.777	-11.95
186.997	22.87
187.216	24.92
187.436	131.41
187.655	16.73
187.875	92.5
188.095	22.87
188.314	69.97
188.534	106.84
188.753	18.77
188.973	10.58
189.192	76.12
189.412	20.82
189.631	24.92
189.851	18.77
190.07	22.87
190.29	-5.8
190.509	26.96
190.729	4.44
190.948	110.93
191.168	76.12
191.387	-16.04
191.607	-73.39
191.826	31.06
192.045	-30.38
192.265	-46.76
192.484	51.54
192.704	-11.95
192.923	-85.67
193.142	108.88
193.362	18.77
193.581	102.74
193.8	-28.33
194.02	72.02
194.239	110.93
194.458	16.73
194.678	45.4
194.897	0.34
195.116	12.63
195.335	33.11
195.555	67.92
195.774	-61.1
195.993	-9.9
196.212	26.96
196.432	-24.23
196.651	16.73
196.87	26.96
197.089	106.84
197.308	45.4
197.528	-26.28
197.747	-59.05
197.966	20.82
198.185	31.06
198.404	12.63
198.623	22.87
198.842	49.49
199.062	47.44
199.281	74.07
199.5	-11.95
199.719	6.49
199.938	53.59
200.157	22.87
200.376	59.73
200.595	-3.75
200.814	-40.62
201.033	-36.52
201.252	90.45
201.471	24.92
201.69	35.16
201.909	69.97
202.128	80.21
202.347	6.49
202.566	4.44
202.785	-18.09
203.004	-5.8
203.223	67.92
203.442	41.3
203.661	47.44
203.879	53.59
204.098	72.02
204.317	-22.19
204.536	35.16
204.755	39.25
204.974	51.54
205.193	74.07
205.411	82.26
205.63	43.35
205.849	8.53
206.068	72.02
206.287	4.44
206.505	0.34
206.724	24.92
206.943	55.64
207.162	-16.04
207.381	86.36
207.599	16.73
207.818	59.73
208.037	-22.19
208.255	-7.85
208.474	-7.85
208.693	10.58
208.911	39.25
209.13	69.97
209.349	100.69
209.567	45.4
209.786	-9.9
210.005	55.64
210.223	14.68
210.442	-50.86
210.661	22.87
210.879	74.07
211.098	55.64
211.316	43.35
211.535	129.36
211.753	-40.62
211.972	14.68
212.191	-36.52
212.409	12.63
212.628	14.68
212.846	72.02
213.065	43.35
213.283	125.27
213.502	-13.99
213.72	16.73
213.938	51.54
214.157	18.77
214.375	127.32
214.594	69.97
214.812	72.02
215.031	18.77
215.249	4.44
215.467	35.16
215.686	-83.63
215.904	59.73
216.122	-1.71
216.341	61.78
216.559	78.16
216.778	8.53
216.996	92.5
217.214	45.4
217.432	0.34
217.651	14.68
217.869	41.3
218.087	31.06
218.306	4.44
218.524	35.16
218.742	-7.85
218.96	57.68
219.179	10.58
219.397	-36.52
219.615	67.92
219.833	104.79
220.051	-11.95
220.27	72.02
220.488	125.27
220.706	65.88
220.924	10.58
221.142	106.84
221.36	43.35
221.578	10.58
221.796	61.78
222.015	47.44
222.233	29.01
222.451	16.73
222.669	37.2
222.887	63.83
223.105	0.34
223.323	37.2
223.541	-1.71
223.759	55.64
223.977	49.49
224.195	72.02
224.413	35.16
224.631	18.77
224.849	72.02
225.067	106.84
225.285	-32.43
225.503	-69.29
225.721	-91.82
225.939	49.49
226.157	47.44
226.375	55.64
226.592	-9.9
226.81	86.36
227.028	76.12
227.246	88.4
227.464	16.73
227.682	22.87
227.9	24.92
228.117	47.44
228.335	0.34
228.553	8.53
228.771	84.31
228.989	-44.71
229.206	39.25
229.424	24.92
229.642	35.16
229.86	0.34
230.077	119.12
230.295	80.21
230.513	-1.71
230.731	57.68
230.948	100.69
231.166	45.4
231.384	59.73
231.601	14.68
231.819	139.6
232.037	55.64
232.254	110.93
232.472	-7.85
232.689	57.68
232.907	102.74
233.125	53.59
233.342	72.02
233.56	39.25
233.777	74.07
233.995	10.58
234.213	35.16
234.43	-24.23
234.648	80.21
234.865	39.25
235.083	0.34
235.3	-42.67
235.518	80.21
235.735	84.31
235.953	121.17
236.17	0.34
236.388	18.77
236.605	35.16
236.822	16.73
237.04	39.25
237.257	12.63
237.475	-24.23
237.692	39.25
237.909	84.31
238.127	-65.19
238.344	8.53
238.562	65.88
238.779	47.44
238.996	-1.71
239.214	33.11
239.431	35.16
239.648	45.4
239.865	31.06
240.083	-40.62
240.3	-48.81
240.517	24.92
240.735	14.68
240.952	39.25
241.169	82.26
241.386	74.07
241.603	-13.99
241.821	-1.71
242.038	6.49
242.255	59.73
242.472	4.44
242.689	-16.04
242.907	108.88
243.124	92.5
243.341	108.88
243.558	-30.38
243.775	-13.99
243.992	39.25
244.209	61.78
244.426	49.49
244.643	74.07
244.86	26.96
245.078	57.68
245.295	22.87
245.512	100.69
245.729	-46.76
245.946	14.68
246.163	65.88
246.38	76.12
246.597	80.21
246.814	29.01
247.031	76.12
247.248	-18.09
247.464	26.96
247.681	65.88
247.898	39.25
248.115	65.88
248.332	-38.57
248.549	26.96
248.766	61.78
248.983	33.11
249.2	74.07
249.417	55.64
249.633	57.68
249.85	16.73
250.067	-11.95
250.284	26.96
250.501	108.88
250.717	-16.04
250.934	8.53
251.151	51.54
251.368	22.87
251.585	80.21
251.801	74.07
252.018	-11.95
252.235	61.78
252.451	0.34
252.668	-13.99
252.885	63.83
253.102	-16.04
253.318	65.88
253.535	-20.14
253.752	-22.19
253.968	-26.28
254.185	6.49
254.401	33.11
254.618	37.2
254.835	61.78
255.051	106.84
255.268	67.92
255.484	-9.9
255.701	20.82
255.917	78.16
256.134	-71.34
256.351	49.49
256.567	14.68
256.784	47.44
257	-59.05
257.217	41.3
257.433	63.83
257.65	76.12
257.866	10.58
258.082	-26.28
258.299	49.49
258.515	33.11
258.732	82.26
258.948	90.45
259.165	47.44
259.381	-52.91
259.597	82.26
259.814	20.82
260.03	57.68
260.246	14.68
260.463	41.3
260.679	139.6
260.895	0.34
261.112	115.03
261.328	8.53
261.544	-28.33
261.761	41.3
261.977	33.11
262.193	-32.43
262.409	39.25
262.626	0.34
262.842	96.6
263.058	8.53
263.274	47.44
263.49	0.34
263.707	104.79
263.923	82.26
264.139	-13.99
264.355	76.12
264.571	104.79
264.787	29.01
265.004	49.49
265.22	65.88
265.436	-57
265.652	14.68
265.868	31.06
266.084	12.63
266.3	49.49
266.516	-54.95
266.732	74.07
266.948	24.92
267.164	35.16
267.38	96.6
267.596	53.59
267.812	39.25
268.028	33.11
268.244	94.55
268.46	61.78
268.676	49.49
268.892	33.11
269.108	102.74
269.324	33.11
269.54	-36.52
269.756	110.93
269.972	-5.8
270.188	76.12
270.403	24.92
270.619	10.58
270.835	57.68
271.051	117.08
271.267	43.35
271.483	-18.09
271.698	123.22
271.914	-24.23
272.13	57.68
272.346	94.55
272.562	-16.04
272.777	-1.71
272.993	-5.8
273.209	14.68
273.425	8.53
273.64	63.83
273.856	80.21
274.072	39.25
274.287	24.92
274.503	24.92
274.719	22.87
274.934	100.69
275.15	-3.75
275.366	76.12
275.581	-5.8
275.797	53.59
276.012	123.22
276.228	-26.28
276.444	26.96
276.659	69.97
276.875	39.25
277.09	-9.9
277.306	35.16
277.521	14.68
277.737	-75.43
277.952	88.4
278.168	41.3
278.383	72.02
278.599	18.77
278.814	-24.23
279.03	2.39
279.245	82.26
279.461	-44.71
279.676	49.49
279.892	-91.82
280.107	-54.95
280.322	8.53
280.538	-9.9
280.753	0.34
280.969	14.68
281.184	26.96
281.399	86.36
281.615	-42.67
281.83	20.82
282.045	16.73
282.26	10.58
282.476	53.59
282.691	61.78
282.906	63.83
283.122	63.83
283.337	31.06
283.552	80.21
283.767	-3.75
283.983	88.4
284.198	12.63
284.413	100.69
284.628	-9.9
284.843	53.59
285.058	8.53
285.274	47.44
285.489	14.68
285.704	74.07
285.919	35.16
286.134	14.68
286.349	51.54
286.564	43.35
286.779	16.73
286.995	-1.71
287.21	22.87
287.425	-34.47
287.64	0.34
287.855	61.78
288.07	-44.71
288.285	98.64
288.5	84.31
288.715	63.83
288.93	0.34
289.145	69.97
289.36	80.21
289.575	0.34
289.79	-13.99
290.004	69.97
290.219	63.83
290.434	-32.43
290.649	18.77
290.864	43.35
291.079	12.63
291.294	37.2
291.509	96.6
291.724	0.34
291.938	0.34
292.153	16.73
292.368	33.11
292.583	37.2
292.798	12.63
293.012	39.25
293.227	63.83
293.442	-1.71
293.657	-52.91
293.871	49.49
294.086	67.92
294.301	55.64
294.516	76.12
294.73	24.92
294.945	-42.67
295.16	45.4
295.374	39.25
295.589	31.06
295.804	8.53
296.018	55.64
296.233	72.02
296.447	16.73
296.662	-11.95
296.877	74.07
297.091	29.01
297.306	10.58
297.52	78.16
297.735	96.6
297.949	92.5
298.164	104.79
298.378	33.11
298.593	18.77
298.807	12.63
299.022	26.96
299.236	112.98
299.451	59.73
299.665	39.25
299.88	47.44
300.094	8.53
300.309	76.12
300.523	10.58
300.737	117.08
300.952	76.12
301.166	84.31
301.381	-22.19
301.595	4.44
301.809	-9.9
302.024	-54.95
302.238	0.34
302.452	6.49
302.667	-9.9
302.881	0.34
303.095	26.96
303.309	-36.52
303.524	0.34
303.738	22.87
303.952	-50.86
304.166	76.12
304.381	51.54
304.595	160.08
304.809	8.53
305.023	18.77
305.237	29.01
305.452	55.64
305.666	26.96
305.88	6.49
306.094	78.16
306.308	55.64
306.522	72.02
306.736	16.73
306.95	-3.75
307.164	20.82
307.379	43.35
307.593	133.46
307.807	8.53
308.021	37.2
308.235	31.06
308.449	-93.87
308.663	43.35
308.877	115.03
309.091	-11.95
309.305	41.3
309.519	-22.19
309.733	67.92
309.947	-7.85
310.161	18.77
310.374	92.5
310.588	106.84
310.802	84.31
311.016	76.12
311.23	65.88
311.444	72.02
311.658	49.49
311.872	67.92
312.085	92.5
312.299	106.84
312.513	108.88
312.727	106.84
312.941	61.78
313.154	26.96
313.368	53.59
313.582	26.96
313.796	6.49
314.009	57.68
314.223	74.07
314.437	96.6
314.651	-48.81
314.864	29.01
315.078	78.16
315.292	8.53
315.505	31.06
315.719	-3.75
315.933	29.01
316.146	31.06
316.36	49.49
316.573	29.01
316.787	90.45
317.001	67.92
317.214	-3.75
317.428	47.44
317.641	18.77
317.855	61.78
318.068	-50.86
318.282	24.92
318.495	145.75
318.709	6.49
318.922	82.26
319.136	-13.99
319.349	59.73
319.563	0.34
319.776	88.4
319.99	14.68
320.203	90.45
320.417	35.16
320.63	14.68
320.843	74.07
321.057	8.53
321.27	53.59
321.483	35.16
321.697	39.25
321.91	22.87
322.124	76.12
322.337	139.6
322.55	-32.43
322.763	-22.19
322.977	10.58
323.19	94.55
323.403	57.68
323.617	96.6
323.83	74.07
324.043	74.07
324.256	29.01
324.469	24.92
324.683	57.68
324.896	14.68
325.109	65.88
325.322	-9.9
325.535	67.92
325.748	22.87
325.962	65.88
326.175	55.64
326.388	35.16
326.601	6.49
326.814	14.68
327.027	47.44
327.24	16.73
327.453	-34.47
327.666	82.26
327.879	108.88
328.092	61.78
328.305	63.83
328.518	100.69
328.731	-20.14
328.944	-3.75
329.157	-11.95
329.37	26.96
329.583	94.55
329.796	94.55
330.009	39.25
330.222	61.78
330.435	22.87
330.648	59.73
330.861	-11.95
331.073	4.44
331.286	10.58
331.499	47.44
331.712	2.39
331.925	92.5
332.138	26.96
332.35	78.16
332.563	-9.9
332.776	94.55
332.989	-5.8
333.202	45.4
333.414	41.3
333.627	6.49
333.84	14.68
334.053	82.26
334.265	65.88
334.478	143.7
334.691	43.35
334.903	72.02
335.116	4.44
335.329	86.36
335.541	14.68
335.754	96.6
335.966	43.35
336.179	45.4
336.392	35.16
336.604	106.84
336.817	78.16
337.029	100.69
337.242	59.73
337.454	117.08
337.667	24.92
337.88	82.26
338.092	39.25
338.305	80.21
338.517	-3.75
338.729	72.02
338.942	80.21
339.154	45.4
339.367	65.88
339.579	104.79
339.792	22.87
340.004	74.07
340.217	-24.23
340.429	29.01
340.641	84.31
340.854	59.73
341.066	33.11
341.278	49.49
341.491	86.36
341.703	49.49
341.915	-3.75
342.128	90.45
342.34	35.16
342.552	-18.09
342.764	39.25
342.977	49.49
343.189	-42.67
343.401	10.58
343.613	-16.04
343.826	0.34
344.038	-18.09
344.25	51.54
344.462	41.3
344.674	39.25
344.886	-22.19
345.099	43.35
345.311	63.83
345.523	61.78
345.735	22.87
345.947	123.22
346.159	33.11
346.371	2.39
346.583	72.02
346.795	98.64
347.007	8.53
347.219	135.51
347.431	61.78
347.643	51.54
347.855	96.6
348.067	51.54
348.279	-11.95
348.491	47.44
348.703	6.49
348.915	98.64
349.127	26.96
349.339	22.87
349.551	-13.99
349.763	39.25
349.975	90.45
350.187	53.59
350.399	12.63
350.61	31.06
350.822	49.49
351.034	117.08
351.246	80.21
351.458	16.73
351.669	2.39
351.881	29.01
352.093	8.53
352.305	72.02
352.517	35.16
352.728	67.92
352.94	-13.99
353.152	-24.23
353.363	92.5
353.575	4.44
353.787	74.07
353.999	57.68
354.21	59.73
354.422	18.77
354.633	37.2
354.845	6.49
355.057	35.16
355.268	31.06
355.48	123.22
355.692	18.77
355.903	55.64
356.115	41.3
356.326	18.77
356.538	59.73
356.749	37.2
356.961	33.11
357.172	76.12
357.384	47.44
357.595	108.88
357.807	57.68
358.018	72.02
358.23	14.68
358.441	123.22
358.653	74.07
358.864	45.4
359.075	59.73
359.287	61.78
359.498	47.44
359.709	94.55
359.921	26.96
360.132	26.96
360.344	2.39
360.555	31.06
360.766	20.82
360.977	29.01
361.189	22.87
361.4	57.68
361.611	88.4
361.823	35.16
362.034	55.64
362.245	0.34
362.456	78.16
362.667	-38.57
362.879	49.49
363.09	35.16
363.301	69.97
363.512	16.73
363.723	22.87
363.935	96.6
364.146	98.64
364.357	69.97
364.568	47.44
364.779	-26.28
364.99	49.49
365.201	22.87
365.412	12.63
365.623	-81.58
365.834	108.88
366.045	-16.04
366.256	67.92
366.467	37.2
366.678	0.34
366.889	78.16
367.1	55.64
367.311	108.88
367.522	-11.95
367.733	59.73
367.944	-20.14
368.155	-3.75
368.366	59.73
368.577	-11.95
368.788	31.06
368.999	-20.14
369.209	14.68
369.42	8.53
369.631	37.2
369.842	39.25
370.053	22.87
370.264	82.26
370.474	41.3
370.685	53.59
370.896	76.12
371.107	94.55
371.317	59.73
371.528	-34.47
371.739	20.82
371.95	112.98
372.16	76.12
372.371	65.88
372.582	31.06
372.792	92.5
373.003	63.83
373.214	69.97
373.424	102.74
373.635	31.06
373.846	47.44
374.056	-5.8
374.267	-13.99
374.477	76.12
374.688	110.93
374.898	92.5
375.109	-18.09
375.319	123.22
375.53	72.02
375.74	-7.85
375.951	67.92
376.161	39.25
376.372	29.01
376.582	51.54
376.793	41.3
377.003	24.92
377.214	6.49
377.424	90.45
377.635	-7.85
377.845	78.16
378.055	92.5
378.266	24.92
378.476	39.25
378.686	55.64
378.897	110.93
379.107	117.08
379.317	94.55
379.528	4.44
379.738	41.3
379.948	47.44
380.158	155.99
380.369	12.63
380.579	80.21
380.789	16.73
380.999	125.27
381.21	63.83
381.42	110.93
381.63	12.63
381.84	82.26
382.05	67.92
382.261	-7.85
382.471	41.3
382.681	35.16
382.891	78.16
383.101	65.88
383.311	35.16
383.521	112.98
383.731	59.73
383.941	76.12
384.151	20.82
384.361	8.53
384.571	18.77
384.781	49.49
384.991	123.22
385.201	121.17
385.411	49.49
385.621	47.44
385.831	33.11
386.041	137.56
386.251	100.69
386.461	74.07
386.671	47.44
386.881	59.73
387.091	24.92
387.301	92.5
387.511	88.4
387.72	160.08
387.93	49.49
388.14	39.25
388.35	86.36
388.56	135.51
388.769	37.2
388.979	127.32
389.189	41.3
389.399	43.35
389.609	57.68
389.818	92.5
390.028	117.08
390.238	59.73
390.447	0.34
390.657	51.54
390.867	69.97
391.076	45.4
391.286	72.02
391.496	172.37
391.705	-18.09
391.915	31.06
392.125	74.07
392.334	69.97
392.544	178.51
392.753	69.97
392.963	67.92
393.172	-20.14
393.382	41.3
393.591	106.84
393.801	12.63
394.01	94.55
394.22	59.73
394.429	65.88
394.639	123.22
394.848	55.64
395.058	59.73
395.267	96.6
395.477	102.74
395.686	63.83
395.895	184.66
396.105	112.98
396.314	160.08
396.524	115.03
396.733	84.31
396.942	74.07
397.152	108.88
397.361	115.03
397.57	76.12
397.78	31.06
397.989	92.5
398.198	174.42
398.407	108.88
398.617	106.84
398.826	82.26
399.035	-24.23
399.244	80.21
399.453	80.21
399.663	129.36
399.872	76.12
400.081	45.4
400.29	188.75
400.499	72.02
400.708	168.27
400.917	94.55
401.127	186.71
401.336	115.03
401.545	151.89
401.754	133.46
401.963	115.03
402.172	82.26
402.381	119.12
402.59	125.27
402.799	145.75
403.008	88.4
403.217	180.56
403.426	131.41
403.635	125.27
403.844	102.74
404.053	151.89
404.262	186.71
404.471	162.13
404.68	88.4
404.888	141.65
405.097	115.03
405.306	178.51
405.515	178.51
405.724	121.17
405.933	233.81
406.142	203.09
406.35	207.19
406.559	205.14
406.768	215.38
406.977	344.4
407.185	305.49
407.394	153.94
407.603	153.94
407.812	170.32
408.02	264.53
408.229	225.62
408.438	293.2
408.646	178.51
408.855	229.71
409.064	266.58
409.272	272.72
409.481	229.71
409.69	287.06
409.898	248.15
410.107	383.31
410.315	328.02
410.524	325.97
410.733	309.58
410.941	325.97
411.15	381.26
411.358	334.16
411.567	457.04
411.775	325.97
411.984	313.68
412.192	465.23
412.401	424.27
412.609	461.13
412.818	452.94
413.026	514.38
413.234	422.22
413.443	477.52
413.651	524.62
413.86	565.58
414.068	694.6
414.276	627.02
414.485	618.83
414.693	612.68
414.901	690.51
415.11	778.57
415.318	747.85
415.526	731.47
415.734	780.62
415.943	706.89
416.151	852.3
416.359	872.78
416.567	903.5
416.776	909.64
416.984	915.78
417.192	1016.13
417.4	936.26
417.608	958.79
417.817	1007.94
418.025	1102.15
418.233	1157.44
418.441	1136.96
418.649	1139.01
418.857	1227.07
419.065	1384.77
419.273	1247.55
419.481	1384.77
419.689	1413.44
419.897	1499.45
420.105	1509.69
420.313	1476.93
420.521	1685.82
420.729	1599.8
420.937	1714.49
421.145	1765.69
421.353	1820.99
421.561	1988.92
421.769	1966.39
421.977	1990.97
422.185	1968.44
422.393	2191.67
422.601	2341.17
422.809	2318.64
423.017	2249.01
423.224	2517.29
423.432	2480.43
423.64	2572.59
423.848	2804.01
424.056	2765.1
424.263	2904.36
424.471	2904.36
424.679	2890.03
424.887	3164.45
425.094	3117.35
425.302	3090.73
425.51	3379.49
425.718	3469.6
425.925	3500.32
426.133	3672.35
426.341	3877.15
426.548	3881.24
426.756	3967.26
426.964	4036.89
427.171	4202.77
427.379	4403.47
427.586	4530.45
427.794	4559.12
428.001	4761.87
428.209	5087.5
428.417	4995.34
428.624	5273.86
428.832	5169.41
429.039	5189.89
429.247	5218.57
429.454	5699.84
429.662	6076.66
429.869	5652.74
430.076	6166.78
430.284	5994.75
430.491	6187.25
430.699	6578.42
430.906	6650.1
431.114	6717.68
431.321	6930.67
431.528	6856.94
431.736	7452.9
431.943	7823.58
432.15	7594.21
432.358	7680.22
432.565	7989.47
432.772	8083.67
432.979	8536.28
433.187	8573.14
433.394	8597.71
433.601	9339.08
433.808	9294.02
434.016	9320.65
434.223	9701.57
434.43	10305.72
434.637	9926.85
434.844	10625.2
435.052	10868.91
435.259	10830
435.466	10729.65
435.673	10768.56
435.88	11655.33
436.087	12155.04
436.294	12251.29
436.501	11872.42
436.708	12075.17
436.915	12570.77
437.122	13095.05
437.329	13054.09
437.537	13351.05
437.743	13744.26
437.95	13578.37
438.157	14459
438.364	14659.7
438.571	14715
438.778	14579.83
438.985	16302.17
439.192	15482.99
439.399	16220.25
439.606	15806.56
439.813	16582.74
440.02	17709.13
440.227	17299.53
440.433	17258.57
440.64	17832.01
440.847	17698.89
441.054	18030.66
441.261	19298.35
441.467	18925.62
441.674	19353.65
441.881	20062.24
442.088	20207.65
442.294	19677.23
442.501	20525.08
442.708	20924.44
442.914	21610.51
443.121	22536.19
443.328	21727.24
443.534	23357.42
443.741	22765.56
443.948	22697.98
444.154	24537.05
444.361	24223.72
444.568	24053.73
444.774	24510.43
444.981	24446.94
445.187	25456.59
445.394	26339.27
445.6	26130.37
445.807	28381.09
446.013	27406.26
446.22	27629.49
446.426	28829.6
446.633	29056.92
446.839	30199.69
447.046	28663.71
447.252	30680.96
447.459	30332.81
447.665	30367.62
447.871	31643.51
448.078	33159
448.284	31455.09
448.491	32204.65
448.697	33742.67
448.903	33949.52
449.11	34166.6
449.316	33849.17
449.522	34436.94
449.728	34897.73
449.935	35350.33
450.141	35383.1
450.347	36247.34
450.553	34879.3
450.76	35915.57
450.966	36611.88
451.172	36757.28
451.378	37021.47
451.584	36269.87
451.791	37500.7
451.997	37336.86
452.203	37703.45
452.409	38379.28
452.615	37748.5
452.821	36466.47
453.027	35833.65
453.233	37721.88
453.44	36511.53
453.646	36955.94
453.852	37211.93
454.058	37609.24
454.264	36605.73
454.47	37254.94
454.676	36427.56
454.882	37758.74
455.088	34230.09
455.294	34959.17
455.5	35561.27
455.705	35890.99
455.911	34549.57
456.117	33814.35
456.323	33310.55
456.529	31889.26
456.735	33347.42
456.941	31960.94
457.147	31717.23
457.352	31020.92
457.558	30095.24
457.764	30443.4
457.97	30070.67
458.176	29380.5
458.381	29190.04
458.587	27869.1
458.793	27709.36
458.999	26101.7
459.204	28434.34
459.41	27590.58
459.616	25522.13
459.821	25860.04
460.027	25352.15
460.233	24903.64
460.438	23898.09
460.644	24082.41
460.85	22532.09
461.055	22540.29
461.261	22476.8
461.466	20721.69
461.672	20166.69
461.878	21442.57
462.083	19929.13
462.289	20009
462.494	19763.24
462.7	18827.32
462.905	18128.96
463.111	18626.62
463.316	19157.04
463.522	18745.4
463.727	18589.75
463.932	18583.61
464.138	18247.74
464.343	18387
464.549	17829.96
464.754	18487.36
464.959	18274.37
465.165	17973.32
465.37	17504.33
465.575	17154.13
465.781	17516.62
465.986	17723.46
466.191	17002.58
466.397	16777.3
466.602	15775.84
466.807	16679
467.012	16693.33
467.218	16459.87
467.423	16265.31
