Data from USB4F104151__35__12-41-19-104.txt Node

Date: Fri Mar 14 12:41:19 EDT 2025
User: louis
Spectrometer: USB4F10415
Trigger mode: 4
Integration Time (sec): 3.000000E-2
Scans to average: 1
Electric dark correction enabled: true
Nonlinearity correction enabled: false
Boxcar width: 0
XAxis mode: Wavelengths
Number of Pixels in Spectrum: 3648
>>>>>Begin Spectral Data<<<<<
178.204	-183.29
178.424	-183.29
178.644	-183.29
178.864	-111.61
179.084	-156.67
179.304	-44.03
179.524	-7.17
179.744	-27.65
179.964	52.22
180.184	-1.02
180.404	56.32
180.624	15.36
180.844	-39.94
181.064	-39.94
181.283	19.46
181.503	56.32
181.723	-39.94
181.943	-66.56
182.163	72.7
182.383	19.46
182.602	11.26
182.822	7.17
183.042	-39.94
183.262	39.94
183.482	15.36
183.701	31.74
183.921	-46.08
184.141	17.41
184.361	9.22
184.58	31.74
184.8	37.89
185.02	-41.98
185.239	107.52
185.459	1.02
185.679	-11.26
185.898	-5.12
186.118	35.84
186.338	-11.26
186.557	46.08
186.777	9.22
186.997	101.37
187.216	11.26
187.436	97.28
187.655	72.7
187.875	46.08
188.095	44.03
188.314	72.7
188.534	103.42
188.753	21.5
188.973	50.18
189.192	58.37
189.412	15.36
189.631	41.98
189.851	64.51
190.07	15.36
190.29	-11.26
190.509	44.03
190.729	44.03
190.948	82.94
191.168	107.52
191.387	54.27
191.607	46.08
191.826	33.79
192.045	1.02
192.265	107.52
192.484	3.07
192.704	54.27
192.923	21.5
193.142	27.65
193.362	37.89
193.581	99.33
193.8	48.13
194.02	117.76
194.239	-7.17
194.458	-9.22
194.678	-37.89
194.897	19.46
195.116	33.79
195.335	103.42
195.555	31.74
195.774	50.18
195.993	84.99
196.212	3.07
196.432	-15.36
196.651	70.65
196.87	52.22
197.089	87.04
197.308	3.07
197.528	3.07
197.747	-15.36
197.966	17.41
198.185	97.28
198.404	54.27
198.623	35.84
198.842	103.42
199.062	103.42
199.281	52.22
199.5	52.22
199.719	-50.18
199.938	60.42
200.157	60.42
200.376	23.55
200.595	27.65
200.814	1.02
201.033	17.41
201.252	-21.5
201.471	107.52
201.69	78.85
201.909	70.65
202.128	54.27
202.347	33.79
202.566	68.61
202.785	9.22
203.004	7.17
203.223	29.7
203.442	27.65
203.661	21.5
203.879	1.02
204.098	95.23
204.317	7.17
204.536	25.6
204.755	39.94
204.974	99.33
205.193	39.94
205.411	113.66
205.63	87.04
205.849	-15.36
206.068	37.89
206.287	-1.02
206.505	52.22
206.724	-9.22
206.943	66.56
207.162	-11.26
207.381	9.22
207.599	78.85
207.818	33.79
208.037	25.6
208.255	9.22
208.474	23.55
208.693	95.23
208.911	29.7
209.13	-5.12
209.349	66.56
209.567	-11.26
209.786	128
210.005	58.37
210.223	1.02
210.442	27.65
210.661	46.08
210.879	-50.18
211.098	74.75
211.316	13.31
211.535	46.08
211.753	82.94
211.972	13.31
212.191	44.03
212.409	48.13
212.628	48.13
212.846	21.5
213.065	37.89
213.283	78.85
213.502	31.74
213.72	-7.17
213.938	46.08
214.157	48.13
214.375	1.02
214.594	62.46
214.812	82.94
215.031	-5.12
215.249	-5.12
215.467	37.89
215.686	41.98
215.904	154.62
216.122	21.5
216.341	103.42
216.559	91.13
216.778	46.08
216.996	62.46
217.214	29.7
217.432	62.46
217.651	-21.5
217.869	17.41
218.087	-25.6
218.306	-46.08
218.524	56.32
218.742	64.51
218.96	82.94
219.179	-17.41
219.397	21.5
219.615	58.37
219.833	64.51
220.051	-21.5
220.27	78.85
220.488	-37.89
220.706	64.51
220.924	19.46
221.142	-21.5
221.36	56.32
221.578	-7.17
221.796	21.5
222.015	23.55
222.233	11.26
222.451	54.27
222.669	21.5
222.887	15.36
223.105	-3.07
223.323	21.5
223.541	21.5
223.759	9.22
223.977	33.79
224.195	54.27
224.413	41.98
224.631	19.46
224.849	35.84
225.067	80.89
225.285	-1.02
225.503	-29.7
225.721	-29.7
225.939	48.13
226.157	-54.27
226.375	111.61
226.592	13.31
226.81	31.74
227.028	35.84
227.246	125.95
227.464	87.04
227.682	21.5
227.9	99.33
228.117	68.61
228.335	35.84
228.553	44.03
228.771	17.41
228.989	17.41
229.206	27.65
229.424	-46.08
229.642	-5.12
229.86	39.94
230.077	70.65
230.295	72.7
230.513	60.42
230.731	19.46
230.948	62.46
231.166	117.76
231.384	-5.12
231.601	35.84
231.819	15.36
232.037	52.22
232.254	21.5
232.472	-7.17
232.689	-13.31
232.907	31.74
233.125	68.61
233.342	-23.55
233.56	17.41
233.777	-35.84
233.995	19.46
234.213	39.94
234.43	7.17
234.648	15.36
234.865	-46.08
235.083	93.18
235.3	3.07
235.518	23.55
235.735	87.04
235.953	54.27
236.17	-33.79
236.388	11.26
236.605	-25.6
236.822	89.09
237.04	87.04
237.257	-11.26
237.475	39.94
237.692	105.47
237.909	3.07
238.127	60.42
238.344	11.26
238.562	46.08
238.779	-70.65
238.996	31.74
239.214	44.03
239.431	68.61
239.648	1.02
239.865	17.41
240.083	37.89
240.3	-25.6
240.517	-9.22
240.735	7.17
240.952	19.46
241.169	82.94
241.386	-3.07
241.603	15.36
241.821	29.7
242.038	74.75
242.255	21.5
242.472	1.02
242.689	68.61
242.907	33.79
243.124	-35.84
243.341	-37.89
243.558	-19.46
243.775	60.42
243.992	-7.17
244.209	48.13
244.426	115.71
244.643	130.05
244.86	-31.74
245.078	68.61
245.295	1.02
245.512	84.99
245.729	-60.42
245.946	56.32
246.163	9.22
246.38	82.94
246.597	-23.55
246.814	39.94
247.031	66.56
247.248	5.12
247.464	17.41
247.681	35.84
247.898	21.5
248.115	41.98
248.332	13.31
248.549	109.57
248.766	74.75
248.983	50.18
249.2	-5.12
249.417	70.65
249.633	21.5
249.85	15.36
250.067	13.31
250.284	95.23
250.501	9.22
250.717	80.89
250.934	1.02
251.151	23.55
251.368	-17.41
251.585	68.61
251.801	27.65
252.018	29.7
252.235	21.5
252.451	-33.79
252.668	46.08
252.885	33.79
253.102	70.65
253.318	87.04
253.535	-1.02
253.752	17.41
253.968	-23.55
254.185	5.12
254.401	-37.89
254.618	21.5
254.835	17.41
255.051	74.75
255.268	9.22
255.484	64.51
255.701	21.5
255.917	91.13
256.134	5.12
256.351	27.65
256.567	31.74
256.784	50.18
257	-74.75
257.217	87.04
257.433	-7.17
257.65	87.04
257.866	66.56
258.082	62.46
258.299	-54.27
258.515	15.36
258.732	52.22
258.948	31.74
259.165	33.79
259.381	132.09
259.597	39.94
259.814	5.12
260.03	7.17
260.246	29.7
260.463	-25.6
260.679	56.32
260.895	54.27
261.112	48.13
261.328	19.46
261.544	11.26
261.761	142.33
261.977	15.36
262.193	-56.32
262.409	7.17
262.626	46.08
262.842	7.17
263.058	-7.17
263.274	80.89
263.49	31.74
263.707	17.41
263.923	91.13
264.139	-19.46
264.355	35.84
264.571	64.51
264.787	-15.36
265.004	107.52
265.22	74.75
265.436	29.7
265.652	-62.46
265.868	-3.07
266.084	-35.84
266.3	54.27
266.516	-27.65
266.732	29.7
266.948	9.22
267.164	-21.5
267.38	5.12
267.596	35.84
267.812	91.13
268.028	46.08
268.244	-3.07
268.46	-29.7
268.676	13.31
268.892	119.81
269.108	-25.6
269.324	29.7
269.54	72.7
269.756	101.37
269.972	35.84
270.188	13.31
270.403	60.42
270.619	84.99
270.835	60.42
271.051	80.89
271.267	15.36
271.483	56.32
271.698	-7.17
271.914	-3.07
272.13	84.99
272.346	-27.65
272.562	70.65
272.777	-1.02
272.993	25.6
273.209	-95.23
273.425	72.7
273.64	-27.65
273.856	31.74
274.072	93.18
274.287	21.5
274.503	91.13
274.719	64.51
274.934	64.51
275.15	-31.74
275.366	27.65
275.581	-58.37
275.797	3.07
276.012	-44.03
276.228	78.85
276.444	25.6
276.659	54.27
276.875	-64.51
277.09	89.09
277.306	17.41
277.521	58.37
277.737	54.27
277.952	-3.07
278.168	15.36
278.383	48.13
278.599	7.17
278.814	82.94
279.03	48.13
279.245	39.94
279.461	-15.36
279.676	93.18
279.892	-13.31
280.107	-23.55
280.322	7.17
280.538	37.89
280.753	-64.51
280.969	99.33
281.184	33.79
281.399	62.46
281.615	-17.41
281.83	-31.74
282.045	-48.13
282.26	15.36
282.476	31.74
282.691	93.18
282.906	23.55
283.122	-1.02
283.337	25.6
283.552	70.65
283.767	37.89
283.983	-15.36
284.198	54.27
284.413	33.79
284.628	-41.98
284.843	33.79
285.058	21.5
285.274	44.03
285.489	-29.7
285.704	23.55
285.919	52.22
286.134	-1.02
286.349	9.22
286.564	23.55
286.779	82.94
286.995	44.03
287.21	-31.74
287.425	5.12
287.64	35.84
287.855	93.18
288.07	37.89
288.285	76.8
288.5	70.65
288.715	-37.89
288.93	-7.17
289.145	56.32
289.36	111.61
289.575	21.5
289.79	33.79
290.004	17.41
290.219	68.61
290.434	23.55
290.649	-3.07
290.864	7.17
291.079	-7.17
291.294	74.75
291.509	-15.36
291.724	46.08
291.938	68.61
292.153	-17.41
292.368	-21.5
292.583	107.52
292.798	-1.02
293.012	41.98
293.227	70.65
293.442	11.26
293.657	19.46
293.871	134.14
294.086	56.32
294.301	80.89
294.516	103.42
294.73	35.84
294.945	-1.02
295.16	5.12
295.374	121.85
295.589	54.27
295.804	-54.27
296.018	7.17
296.233	76.8
296.447	48.13
296.662	-3.07
296.877	68.61
297.091	48.13
297.306	13.31
297.52	101.37
297.735	-29.7
297.949	7.17
298.164	64.51
298.378	50.18
298.593	1.02
298.807	-5.12
299.022	-27.65
299.236	76.8
299.451	17.41
299.665	44.03
299.88	1.02
300.094	31.74
300.309	7.17
300.523	21.5
300.737	-39.94
300.952	101.37
301.166	15.36
301.381	25.6
301.595	-23.55
301.809	41.98
302.024	39.94
302.238	-52.22
302.452	70.65
302.667	-17.41
302.881	13.31
303.095	109.57
303.309	-54.27
303.524	-46.08
303.738	7.17
303.952	27.65
304.166	146.43
304.381	39.94
304.595	50.18
304.809	37.89
305.023	91.13
305.237	31.74
305.452	115.71
305.666	78.85
305.88	25.6
306.094	52.22
306.308	21.5
306.522	91.13
306.736	5.12
306.95	-7.17
307.164	-19.46
307.379	56.32
307.593	117.76
307.807	44.03
308.021	60.42
308.235	39.94
308.449	3.07
308.663	46.08
308.877	121.85
309.091	158.72
309.305	11.26
309.519	-1.02
309.733	9.22
309.947	-15.36
310.161	72.7
310.374	15.36
310.588	82.94
310.802	68.61
311.016	23.55
311.23	62.46
311.444	-25.6
311.658	-3.07
311.872	-5.12
312.085	41.98
312.299	87.04
312.513	54.27
312.727	33.79
312.941	29.7
313.154	-21.5
313.368	70.65
313.582	62.46
313.796	39.94
314.009	54.27
314.223	111.61
314.437	58.37
314.651	50.18
314.864	11.26
315.078	33.79
315.292	3.07
315.505	-39.94
315.719	29.7
315.933	21.5
316.146	41.98
316.36	-25.6
316.573	50.18
316.787	37.89
317.001	7.17
317.214	35.84
317.428	17.41
317.641	25.6
317.855	19.46
318.068	33.79
318.282	44.03
318.495	82.94
318.709	76.8
318.922	-11.26
319.136	50.18
319.349	50.18
319.563	39.94
319.776	17.41
319.99	-1.02
320.203	-27.65
320.417	76.8
320.63	41.98
320.843	115.71
321.057	37.89
321.27	17.41
321.483	48.13
321.697	56.32
321.91	35.84
322.124	68.61
322.337	78.85
322.55	-60.42
322.763	48.13
322.977	29.7
323.19	13.31
323.403	-66.56
323.617	117.76
323.83	107.52
324.043	-37.89
324.256	89.09
324.469	-41.98
324.683	148.48
324.896	27.65
325.109	5.12
325.322	3.07
325.535	48.13
325.748	121.85
325.962	72.7
326.175	41.98
326.388	74.75
326.601	48.13
326.814	37.89
327.027	17.41
327.24	46.08
327.453	-21.5
327.666	44.03
327.879	80.89
328.092	66.56
328.305	103.42
328.518	-35.84
328.731	-29.7
328.944	-50.18
329.157	7.17
329.37	31.74
329.583	70.65
329.796	25.6
330.009	19.46
330.222	62.46
330.435	5.12
330.648	17.41
330.861	11.26
331.073	11.26
331.286	76.8
331.499	-17.41
331.712	5.12
331.925	44.03
332.138	87.04
332.35	113.66
332.563	-7.17
332.776	89.09
332.989	-5.12
333.202	-39.94
333.414	37.89
333.627	41.98
333.84	33.79
334.053	60.42
334.265	31.74
334.478	44.03
334.691	11.26
334.903	11.26
335.116	-21.5
335.329	19.46
335.541	3.07
335.754	62.46
335.966	62.46
336.179	93.18
336.392	11.26
336.604	35.84
336.817	27.65
337.029	68.61
337.242	-1.02
337.454	89.09
337.667	154.62
337.88	33.79
338.092	19.46
338.305	72.7
338.517	-29.7
338.729	52.22
338.942	1.02
339.154	-15.36
339.367	-9.22
339.579	46.08
339.792	66.56
340.004	101.37
340.217	21.5
340.429	80.89
340.641	-1.02
340.854	-48.13
341.066	3.07
341.278	72.7
341.491	50.18
341.703	29.7
341.915	-19.46
342.128	19.46
342.34	113.66
342.552	76.8
342.764	91.13
342.977	111.61
343.189	-19.46
343.401	62.46
343.613	37.89
343.826	52.22
344.038	27.65
344.25	23.55
344.462	-5.12
344.674	76.8
344.886	17.41
345.099	21.5
345.311	123.9
345.523	27.65
345.735	-29.7
345.947	-9.22
346.159	146.43
346.371	31.74
346.583	50.18
346.795	44.03
347.007	48.13
347.219	21.5
347.431	29.7
347.643	70.65
347.855	107.52
348.067	70.65
348.279	11.26
348.491	29.7
348.703	136.19
348.915	-25.6
349.127	-15.36
349.339	29.7
349.551	-52.22
349.763	68.61
349.975	46.08
350.187	87.04
350.399	-7.17
350.61	29.7
350.822	60.42
351.034	54.27
351.246	-3.07
351.458	-7.17
351.669	84.99
351.881	93.18
352.093	58.37
352.305	76.8
352.517	-23.55
352.728	91.13
352.94	50.18
353.152	-23.55
353.363	44.03
353.575	54.27
353.787	62.46
353.999	78.85
354.21	78.85
354.422	72.7
354.633	-15.36
354.845	87.04
355.057	-13.31
355.268	41.98
355.48	62.46
355.692	7.17
355.903	60.42
356.115	-52.22
356.326	21.5
356.538	21.5
356.749	78.85
356.961	56.32
357.172	25.6
357.384	39.94
357.595	160.77
357.807	70.65
358.018	17.41
358.23	33.79
358.441	58.37
358.653	76.8
358.864	50.18
359.075	19.46
359.287	25.6
359.498	64.51
359.709	87.04
359.921	21.5
360.132	-3.07
360.344	19.46
360.555	-13.31
360.766	-35.84
360.977	95.23
361.189	76.8
361.4	125.95
361.611	41.98
361.823	15.36
362.034	17.41
362.245	3.07
362.456	93.18
362.667	80.89
362.879	60.42
363.09	54.27
363.301	113.66
363.512	-33.79
363.723	-17.41
363.935	64.51
364.146	11.26
364.357	66.56
364.568	58.37
364.779	78.85
364.99	56.32
365.201	9.22
365.412	70.65
365.623	23.55
365.834	76.8
366.045	46.08
366.256	44.03
366.467	7.17
366.678	29.7
366.889	21.5
367.1	9.22
367.311	15.36
367.522	31.74
367.733	56.32
367.944	21.5
368.155	-46.08
368.366	46.08
368.577	-11.26
368.788	158.72
368.999	52.22
369.209	87.04
369.42	93.18
369.631	138.24
369.842	50.18
370.053	27.65
370.264	31.74
370.474	-5.12
370.685	105.47
370.896	54.27
371.107	84.99
371.317	123.9
371.528	128
371.739	58.37
371.95	19.46
372.16	52.22
372.371	9.22
372.582	13.31
372.792	48.13
373.003	58.37
373.214	-37.89
373.424	37.89
373.635	35.84
373.846	130.05
374.056	56.32
374.267	44.03
374.477	60.42
374.688	7.17
374.898	48.13
375.109	132.09
375.319	93.18
375.53	107.52
375.74	9.22
375.951	21.5
376.161	91.13
376.372	60.42
376.582	39.94
376.793	39.94
377.003	35.84
377.214	72.7
377.424	84.99
377.635	107.52
377.845	80.89
378.055	39.94
378.266	11.26
378.476	54.27
378.686	72.7
378.897	76.8
379.107	91.13
379.317	-1.02
379.528	19.46
379.738	91.13
379.948	5.12
380.158	89.09
380.369	54.27
380.579	58.37
380.789	68.61
380.999	72.7
381.21	-5.12
381.42	82.94
381.63	64.51
381.84	44.03
382.05	76.8
382.261	80.89
382.471	58.37
382.681	46.08
382.891	105.47
383.101	50.18
383.311	1.02
383.521	62.46
383.731	31.74
383.941	103.42
384.151	101.37
384.361	101.37
384.571	48.13
384.781	103.42
384.991	105.47
385.201	103.42
385.411	31.74
385.621	74.75
385.831	52.22
386.041	29.7
386.251	56.32
386.461	82.94
386.671	9.22
386.881	158.72
387.091	35.84
387.301	82.94
387.511	115.71
387.72	87.04
387.93	31.74
388.14	-33.79
388.35	25.6
388.56	148.48
388.769	62.46
388.979	64.51
389.189	44.03
389.399	46.08
389.609	95.23
389.818	117.76
390.028	115.71
390.238	58.37
390.447	33.79
390.657	82.94
390.867	48.13
391.076	48.13
391.286	89.09
391.496	70.65
391.705	87.04
391.915	115.71
392.125	35.84
392.334	-5.12
392.544	35.84
392.753	123.9
392.963	7.17
393.172	70.65
393.382	78.85
393.591	146.43
393.801	48.13
394.01	105.47
394.22	33.79
394.429	121.85
394.639	39.94
394.848	62.46
395.058	87.04
395.267	52.22
395.477	80.89
395.686	115.71
395.895	80.89
396.105	74.75
396.314	60.42
396.524	142.33
396.733	48.13
396.942	132.09
397.152	56.32
397.361	130.05
397.57	97.28
397.78	93.18
397.989	101.37
398.198	150.53
398.407	91.13
398.617	84.99
398.826	97.28
399.035	107.52
399.244	166.91
399.453	152.57
399.663	107.52
399.872	115.71
400.081	105.47
400.29	156.67
400.499	136.19
400.708	136.19
400.917	95.23
401.127	121.85
401.336	99.33
401.545	119.81
401.754	91.13
401.963	261.12
402.172	111.61
402.381	66.56
402.59	119.81
402.799	123.9
403.008	146.43
403.217	99.33
403.426	132.09
403.635	140.29
403.844	154.62
404.053	111.61
404.262	76.8
404.471	230.4
404.68	162.81
404.888	168.96
405.097	152.57
405.306	183.29
405.515	189.44
405.724	138.24
405.933	205.82
406.142	240.64
406.35	254.97
406.559	228.35
406.768	156.67
406.977	130.05
407.185	209.92
407.394	189.44
407.603	220.16
407.812	193.53
408.02	267.26
408.229	187.39
408.438	220.16
408.646	183.29
408.855	275.45
409.064	216.06
409.272	203.77
409.481	273.4
409.69	330.75
409.898	283.64
410.107	254.97
410.315	240.64
410.524	312.32
410.733	334.84
410.941	355.32
411.15	398.33
411.358	369.66
411.567	404.47
411.775	437.24
411.984	394.23
412.192	449.53
412.401	418.81
412.609	527.35
412.818	553.98
413.026	510.97
413.234	525.3
413.443	525.3
413.651	533.5
413.86	668.66
414.068	658.42
414.276	619.51
414.485	607.22
414.693	685.05
414.901	695.29
415.11	754.68
415.318	734.2
415.526	750.58
415.734	783.35
415.943	762.87
416.151	818.16
416.359	932.85
416.567	883.7
416.776	883.7
416.984	984.05
417.192	1031.15
417.4	1006.58
417.608	1063.92
417.817	1012.72
418.025	1125.36
418.233	1145.84
418.441	1113.07
418.649	1227.76
418.857	1348.59
419.065	1233.9
419.273	1317.87
419.481	1537
419.689	1561.58
419.897	1682.41
420.105	1569.77
420.313	1682.41
420.521	1725.41
420.729	1596.39
420.937	1858.53
421.145	1862.63
421.353	1973.22
421.561	1909.73
421.769	2028.51
421.977	2225.12
422.185	2227.17
422.393	2208.73
422.601	2397.15
422.809	2397.15
423.017	2456.54
423.224	2505.69
423.432	2517.98
423.64	2634.71
423.848	2853.84
424.056	2892.76
424.263	3070.93
424.471	3032.02
424.679	3040.21
424.887	3322.83
425.094	3290.06
425.302	3433.42
425.51	3505.1
425.718	3529.67
425.925	3595.21
426.133	3707.85
426.341	3929.03
426.548	4160.45
426.756	4111.3
426.964	4209.6
427.171	4373.44
427.379	4441.02
427.586	4692.92
427.794	4764.6
428.001	4957.11
428.209	5061.55
428.417	5213.1
428.624	5450.67
428.832	5385.13
429.039	5393.33
429.247	5387.18
429.454	5919.65
429.662	6374.3
429.869	5819.3
430.076	6505.37
430.284	6038.44
430.491	6450.08
430.699	6851.48
430.906	6714.27
431.114	6986.65
431.321	7093.14
431.528	7183.25
431.736	7822.22
431.943	8139.65
432.15	7988.1
432.358	7816.07
432.565	8545.15
432.772	8420.22
432.979	8983.41
433.187	9012.09
433.394	8885.11
433.601	9583.47
433.808	9698.16
434.016	9614.19
434.223	9993.06
434.43	10494.82
434.637	10380.13
434.844	11062.1
435.052	11182.93
435.259	11137.88
435.466	11141.97
435.673	11346.77
435.88	12055.37
436.087	12686.14
436.294	12616.51
436.501	12254.02
436.708	12231.49
436.915	12845.88
437.122	13505.33
437.329	13351.73
437.537	13730.61
437.743	14144.3
437.95	14007.08
438.157	14674.72
438.364	14983.96
438.571	15201.05
438.778	15248.15
438.985	16675.59
439.192	15887.12
439.399	16397.06
439.606	16173.83
439.813	17117.95
440.02	18389.74
440.227	17937.13
440.433	17455.86
440.64	18297.58
440.847	18119.4
441.054	18717.41
441.261	19485.4
441.467	19485.4
441.674	19561.17
441.881	20540.1
442.088	20740.8
442.294	20368.07
442.501	21007.04
442.708	21117.63
442.914	22078.13
443.121	23198.37
443.328	22407.85
443.534	24085.14
443.741	23585.43
443.948	22995.62
444.154	24842.88
444.361	24447.63
444.568	24513.16
444.774	24896.13
444.981	25141.89
445.187	25602.68
445.394	26464.88
445.6	26554.99
445.807	29078.08
446.013	27826.78
446.22	28666.44
446.426	29243.97
446.633	29751.87
446.839	30482.99
447.046	29418.05
447.252	31248.93
447.459	31234.6
447.665	30808.62
447.871	32393.75
448.078	33624.57
448.284	31869.47
448.491	32981.51
448.697	34335.22
448.903	34673.13
449.11	34879.98
449.316	34466.29
449.522	35033.58
449.728	36075.99
449.935	36389.33
450.141	35987.93
450.347	36989.39
450.553	35989.98
450.76	36307.41
450.966	37802.43
451.172	37065.16
451.378	38238.65
451.584	37380.55
451.791	38261.18
451.997	37847.49
452.203	38918.57
452.409	38820.27
452.615	38506.93
452.821	37509.57
453.027	36846.03
453.233	38572.47
453.44	37181.9
453.646	38035.9
453.852	37974.46
454.058	38574.52
454.264	37206.47
454.47	37876.16
454.676	36936.14
454.882	38259.13
455.088	35230.18
455.294	35717.6
455.5	35963.36
455.705	36530.64
455.911	34722.29
456.117	34542.06
456.323	33921.53
456.529	32166.42
456.735	33495.55
456.941	32457.23
457.147	32207.38
457.352	31207.97
457.558	30833.19
457.764	31025.7
457.97	30134.84
458.176	29399.62
458.381	29626.94
458.587	28105.3
458.793	28289.62
458.999	26712.68
459.204	28553.8
459.41	27959.89
459.616	26028.66
459.821	26159.73
460.027	26163.82
460.233	25358.97
460.438	24265.36
460.644	24326.8
460.85	23351.96
461.055	22960.8
461.261	22973.09
461.466	21195.45
461.672	20624.07
461.878	21838.51
462.083	20597.45
462.289	20327.11
462.494	20447.94
462.7	19069.66
462.905	18559.72
463.111	19118.81
463.316	19561.17
463.522	19108.57
463.727	18895.58
463.932	18965.21
464.138	18897.63
464.343	18846.43
464.549	18207.47
464.754	18748.13
464.959	18803.43
465.165	18778.85
465.37	17660.66
465.575	17560.31
465.781	18129.64
465.986	18232.04
466.191	17642.23
466.397	16966.4
466.602	16505.6
466.807	16790.27
467.012	16995.07
467.218	16669.44
467.423	16685.83
467.628	16550.66
