Data from USB4F104151__18__12-41-03-836.txt Node

Date: Fri Mar 14 12:41:03 EDT 2025
User: louis
Spectrometer: USB4F10415
Trigger mode: 4
Integration Time (sec): 3.000000E-2
Scans to average: 1
Electric dark correction enabled: true
Nonlinearity correction enabled: false
Boxcar width: 0
XAxis mode: Wavelengths
Number of Pixels in Spectrum: 3648
>>>>>Begin Spectral Data<<<<<
178.204	-210.77
178.424	-210.77
178.644	-210.77
178.864	-124.76
179.084	-157.52
179.304	-5.97
179.524	26.79
179.744	-16.21
179.964	67.75
180.184	8.36
180.404	-1.88
180.624	-10.07
180.844	8.36
181.064	-34.64
181.283	37.03
181.503	-30.55
181.723	-48.98
181.943	-96.08
182.163	18.6
182.383	51.37
182.602	47.27
182.822	14.51
183.042	-42.84
183.262	-38.74
183.482	2.22
183.701	-53.08
183.921	-22.36
184.141	-12.12
184.361	34.99
184.58	18.6
184.8	22.7
185.02	-53.08
185.239	92.33
185.459	53.42
185.679	4.27
185.898	-8.02
186.118	-8.02
186.338	41.13
186.557	41.13
186.777	0.17
186.997	-28.5
187.216	-12.12
187.436	131.24
187.655	-16.21
187.875	49.32
188.095	10.41
188.314	28.84
188.534	51.37
188.753	-24.4
188.973	20.65
189.192	73.9
189.412	-12.12
189.631	32.94
189.851	30.89
190.07	151.72
190.29	-30.55
190.509	45.23
190.729	24.75
190.948	71.85
191.168	34.99
191.387	-42.84
191.607	-30.55
191.826	45.23
192.045	-44.88
192.265	-8.02
192.484	10.41
192.704	-3.93
192.923	-36.69
193.142	77.99
193.362	-26.45
193.581	-14.17
193.8	22.7
194.02	73.9
194.239	8.36
194.458	-38.74
194.678	45.23
194.897	28.84
195.116	2.22
195.335	-3.93
195.555	-57.17
195.774	14.51
195.993	-10.07
196.212	-5.97
196.432	-10.07
196.651	8.36
196.87	-63.32
197.089	73.9
197.308	-18.26
197.528	2.22
197.747	-20.31
197.966	4.27
198.185	98.47
198.404	61.61
198.623	51.37
198.842	51.37
199.062	71.85
199.281	51.37
199.5	-44.88
199.719	53.42
199.938	61.61
200.157	12.46
200.376	53.42
200.595	96.43
200.814	75.95
201.033	-12.12
201.252	26.79
201.471	71.85
201.69	34.99
201.909	6.31
202.128	14.51
202.347	-3.93
202.566	24.75
202.785	-48.98
203.004	47.27
203.223	121
203.442	26.79
203.661	-53.08
203.879	-16.21
204.098	26.79
204.317	18.6
204.536	41.13
204.755	88.23
204.974	14.51
205.193	26.79
205.411	145.58
205.63	-85.84
205.849	55.47
206.068	-10.07
206.287	4.27
206.505	47.27
206.724	84.14
206.943	-1.88
207.162	24.75
207.381	-40.79
207.599	45.23
207.818	8.36
208.037	-5.97
208.255	18.6
208.474	14.51
208.693	55.47
208.911	-30.55
209.13	80.04
209.349	4.27
209.567	121
209.786	92.33
210.005	96.43
210.223	-24.4
210.442	-36.69
210.661	-53.08
210.879	-18.26
211.098	63.66
211.316	-48.98
211.535	-1.88
211.753	16.55
211.972	-14.17
212.191	-44.88
212.409	53.42
212.628	10.41
212.846	0.17
213.065	24.75
213.283	108.71
213.502	14.51
213.72	24.75
213.938	28.84
214.157	96.43
214.375	8.36
214.594	-22.36
214.812	80.04
215.031	34.99
215.249	-26.45
215.467	-32.6
215.686	-20.31
215.904	57.51
216.122	-79.7
216.341	80.04
216.559	2.22
216.778	71.85
216.996	24.75
217.214	-8.02
217.432	-10.07
217.651	-14.17
217.869	6.31
218.087	82.09
218.306	-16.21
218.524	-20.31
218.742	28.84
218.96	-26.45
219.179	24.75
219.397	-5.97
219.615	141.48
219.833	8.36
220.051	-22.36
220.27	30.89
220.488	51.37
220.706	-5.97
220.924	12.46
221.142	-63.32
221.36	49.32
221.578	-53.08
221.796	-14.17
222.015	41.13
222.233	30.89
222.451	18.6
222.669	-91.99
222.887	45.23
223.105	-51.03
223.323	4.27
223.541	-18.26
223.759	61.61
223.977	10.41
224.195	-16.21
224.413	-44.88
224.631	59.56
224.849	63.66
225.067	71.85
225.285	0.17
225.503	14.51
225.721	-1.88
225.939	14.51
226.157	32.94
226.375	84.14
226.592	6.31
226.81	96.43
227.028	92.33
227.246	67.75
227.464	12.46
227.682	84.14
227.9	4.27
228.117	41.13
228.335	-22.36
228.553	-10.07
228.771	18.6
228.989	-14.17
229.206	-3.93
229.424	-14.17
229.642	16.55
229.86	12.46
230.077	75.95
230.295	-1.88
230.513	-24.4
230.731	6.31
230.948	32.94
231.166	6.31
231.384	-36.69
231.601	-1.88
231.819	63.66
232.037	32.94
232.254	-16.21
232.472	-1.88
232.689	-67.41
232.907	20.65
233.125	28.84
233.342	-8.02
233.56	-5.97
233.777	71.85
233.995	-22.36
234.213	45.23
234.43	28.84
234.648	2.22
234.865	-12.12
235.083	-5.97
235.3	-38.74
235.518	43.18
235.735	32.94
235.953	55.47
236.17	-14.17
236.388	12.46
236.605	-14.17
236.822	94.38
237.04	-40.79
237.257	32.94
237.475	-8.02
237.692	59.56
237.909	-44.88
238.127	-5.97
238.344	12.46
238.562	45.23
238.779	-61.27
238.996	-16.21
239.214	-10.07
239.431	24.75
239.648	-32.6
239.865	49.32
240.083	16.55
240.3	12.46
240.517	18.6
240.735	39.08
240.952	-42.84
241.169	22.7
241.386	-5.97
241.603	4.27
241.821	-79.7
242.038	28.84
242.255	34.99
242.472	-26.45
242.689	-34.64
242.907	80.04
243.124	24.75
243.341	-14.17
243.558	-30.55
243.775	-48.98
243.992	-85.84
244.209	-12.12
244.426	118.95
244.643	-81.75
244.86	37.03
245.078	-22.36
245.295	-18.26
245.512	-81.75
245.729	-16.21
245.946	55.47
246.163	26.79
246.38	-81.75
246.597	-1.88
246.814	65.71
247.031	-32.6
247.248	4.27
247.464	-28.5
247.681	-14.17
247.898	32.94
248.115	49.32
248.332	-22.36
248.549	8.36
248.766	71.85
248.983	49.32
249.2	55.47
249.417	0.17
249.633	-26.45
249.85	82.09
250.067	41.13
250.284	-18.26
250.501	-18.26
250.717	-5.97
250.934	-40.79
251.151	8.36
251.368	-30.55
251.585	-16.21
251.801	-3.93
252.018	14.51
252.235	39.08
252.451	-46.93
252.668	-5.97
252.885	65.71
253.102	41.13
253.318	55.47
253.535	0.17
253.752	-18.26
253.968	2.22
254.185	10.41
254.401	63.66
254.618	12.46
254.835	51.37
255.051	-5.97
255.268	16.55
255.484	63.66
255.701	12.46
255.917	14.51
256.134	30.89
256.351	10.41
256.567	-65.36
256.784	-32.6
257	2.22
257.217	-20.31
257.433	-34.64
257.65	20.65
257.866	37.03
258.082	4.27
258.299	-22.36
258.515	32.94
258.732	-91.99
258.948	-65.36
259.165	30.89
259.381	16.55
259.597	37.03
259.814	-12.12
260.03	16.55
260.246	-8.02
260.463	45.23
260.679	71.85
260.895	-32.6
261.112	86.19
261.328	30.89
261.544	10.41
261.761	51.37
261.977	8.36
262.193	-46.93
262.409	39.08
262.626	41.13
262.842	14.51
263.058	-14.17
263.274	16.55
263.49	30.89
263.707	102.57
263.923	28.84
264.139	-14.17
264.355	-73.56
264.571	104.62
264.787	2.22
265.004	69.8
265.22	4.27
265.436	-5.97
265.652	22.7
265.868	80.04
266.084	-18.26
266.3	51.37
266.516	12.46
266.732	-38.74
266.948	-16.21
267.164	-10.07
267.38	57.51
267.596	34.99
267.812	102.57
268.028	30.89
268.244	-36.69
268.46	-22.36
268.676	16.55
268.892	-5.97
269.108	-34.64
269.324	73.9
269.54	-51.03
269.756	-10.07
269.972	32.94
270.188	41.13
270.403	-14.17
270.619	-32.6
270.835	-10.07
271.051	-30.55
271.267	-18.26
271.483	-14.17
271.698	37.03
271.914	-22.36
272.13	45.23
272.346	20.65
272.562	55.47
272.777	-53.08
272.993	-65.36
273.209	8.36
273.425	6.31
273.64	-12.12
273.856	80.04
274.072	10.41
274.287	30.89
274.503	-14.17
274.719	63.66
274.934	14.51
275.15	26.79
275.366	-30.55
275.581	4.27
275.797	34.99
276.012	67.75
276.228	34.99
276.444	-14.17
276.659	18.6
276.875	-30.55
277.09	-3.93
277.306	10.41
277.521	-1.88
277.737	28.84
277.952	65.71
278.168	16.55
278.383	-10.07
278.599	82.09
278.814	0.17
279.03	0.17
279.245	98.47
279.461	-5.97
279.676	2.22
279.892	-12.12
280.107	22.7
280.322	-48.98
280.538	12.46
280.753	26.79
280.969	47.27
281.184	-14.17
281.399	65.71
281.615	37.03
281.83	84.14
282.045	-28.5
282.26	-36.69
282.476	53.42
282.691	32.94
282.906	0.17
283.122	67.75
283.337	-42.84
283.552	41.13
283.767	-77.65
283.983	92.33
284.198	2.22
284.413	14.51
284.628	-1.88
284.843	30.89
285.058	-8.02
285.274	12.46
285.489	-14.17
285.704	28.84
285.919	6.31
286.134	-14.17
286.349	-38.74
286.564	-53.08
286.779	73.9
286.995	45.23
287.21	-1.88
287.425	88.23
287.64	-26.45
287.855	-3.93
288.07	18.6
288.285	67.75
288.5	14.51
288.715	98.47
288.93	45.23
289.145	55.47
289.36	-20.31
289.575	65.71
289.79	37.03
290.004	32.94
290.219	57.51
290.434	43.18
290.649	-106.32
290.864	-8.02
291.079	32.94
291.294	-94.04
291.509	30.89
291.724	69.8
291.938	28.84
292.153	22.7
292.368	14.51
292.583	-1.88
292.798	-8.02
293.012	53.42
293.227	28.84
293.442	-34.64
293.657	-3.93
293.871	-8.02
294.086	-46.93
294.301	92.33
294.516	34.99
294.73	24.75
294.945	16.55
295.16	-51.03
295.374	22.7
295.589	26.79
295.804	-8.02
296.018	53.42
296.233	22.7
296.447	-44.88
296.662	-10.07
296.877	55.47
297.091	8.36
297.306	20.65
297.52	6.31
297.735	26.79
297.949	51.37
298.164	49.32
298.378	-46.93
298.593	-34.64
298.807	-10.07
299.022	63.66
299.236	39.08
299.451	110.76
299.665	49.32
299.88	61.61
300.094	-30.55
300.309	-34.64
300.523	-24.4
300.737	2.22
300.952	0.17
301.166	41.13
301.381	-73.56
301.595	2.22
301.809	57.51
302.024	41.13
302.238	12.46
302.452	63.66
302.667	-40.79
302.881	47.27
303.095	71.85
303.309	-20.31
303.524	-42.84
303.738	10.41
303.952	18.6
304.166	39.08
304.381	0.17
304.595	137.38
304.809	-16.21
305.023	94.38
305.237	-22.36
305.452	47.27
305.666	55.47
305.88	22.7
306.094	65.71
306.308	-1.88
306.522	51.37
306.736	-38.74
306.95	-14.17
307.164	4.27
307.379	-32.6
307.593	43.18
307.807	71.85
308.021	16.55
308.235	18.6
308.449	43.18
308.663	55.47
308.877	45.23
309.091	-10.07
309.305	80.04
309.519	-22.36
309.733	80.04
309.947	45.23
310.161	16.55
310.374	18.6
310.588	39.08
310.802	6.31
311.016	-83.8
311.23	22.7
311.444	-38.74
311.658	22.7
311.872	24.75
312.085	4.27
312.299	26.79
312.513	45.23
312.727	39.08
312.941	-30.55
313.154	-5.97
313.368	-51.03
313.582	67.75
313.796	53.42
314.009	32.94
314.223	12.46
314.437	8.36
314.651	49.32
314.864	-40.79
315.078	26.79
315.292	-32.6
315.505	63.66
315.719	14.51
315.933	24.75
316.146	-40.79
316.36	-24.4
316.573	55.47
316.787	73.9
317.001	-55.12
317.214	4.27
317.428	57.51
317.641	16.55
317.855	-12.12
318.068	55.47
318.282	37.03
318.495	71.85
318.709	18.6
318.922	-30.55
319.136	-3.93
319.349	8.36
319.563	-30.55
319.776	63.66
319.99	20.65
320.203	28.84
320.417	67.75
320.63	39.08
320.843	12.46
321.057	10.41
321.27	-10.07
321.483	-57.17
321.697	-18.26
321.91	-10.07
322.124	96.43
322.337	16.55
322.55	-14.17
322.763	-28.5
322.977	18.6
323.19	-59.22
323.403	61.61
323.617	14.51
323.83	41.13
324.043	34.99
324.256	2.22
324.469	-22.36
324.683	30.89
324.896	65.71
325.109	-55.12
325.322	2.22
325.535	53.42
325.748	53.42
325.962	18.6
326.175	16.55
326.388	-16.21
326.601	65.71
326.814	-71.51
327.027	4.27
327.24	63.66
327.453	-34.64
327.666	77.99
327.879	65.71
328.092	67.75
328.305	39.08
328.518	8.36
328.731	90.28
328.944	16.55
329.157	73.9
329.37	24.75
329.583	67.75
329.796	14.51
330.009	-40.79
330.222	49.32
330.435	18.6
330.648	32.94
330.861	-20.31
331.073	55.47
331.286	86.19
331.499	-12.12
331.712	-40.79
331.925	63.66
332.138	90.28
332.35	-12.12
332.563	-36.69
332.776	49.32
332.989	6.31
333.202	51.37
333.414	20.65
333.627	-59.22
333.84	6.31
334.053	84.14
334.265	0.17
334.478	-12.12
334.691	34.99
334.903	53.42
335.116	34.99
335.329	71.85
335.541	57.51
335.754	53.42
335.966	2.22
336.179	2.22
336.392	-20.31
336.604	51.37
336.817	4.27
337.029	65.71
337.242	4.27
337.454	26.79
337.667	34.99
337.88	53.42
338.092	-10.07
338.305	26.79
338.517	49.32
338.729	26.79
338.942	67.75
339.154	22.7
339.367	69.8
339.579	-1.88
339.792	4.27
340.004	10.41
340.217	26.79
340.429	49.32
340.641	98.47
340.854	-42.84
341.066	-38.74
341.278	30.89
341.491	41.13
341.703	47.27
341.915	32.94
342.128	69.8
342.34	16.55
342.552	-48.98
342.764	71.85
342.977	-5.97
343.189	8.36
343.401	61.61
343.613	-10.07
343.826	45.23
344.038	0.17
344.25	8.36
344.462	-57.17
344.674	18.6
344.886	-53.08
345.099	65.71
345.311	71.85
345.523	-28.5
345.735	-8.02
345.947	-22.36
346.159	24.75
346.371	34.99
346.583	28.84
346.795	20.65
347.007	20.65
347.219	-30.55
347.431	18.6
347.643	71.85
347.855	-59.22
348.067	53.42
348.279	0.17
348.491	86.19
348.703	-32.6
348.915	43.18
349.127	4.27
349.339	-22.36
349.551	37.03
349.763	94.38
349.975	49.32
350.187	104.62
350.399	67.75
350.61	59.56
350.822	96.43
351.034	63.66
351.246	28.84
351.458	88.23
351.669	-26.45
351.881	26.79
352.093	41.13
352.305	73.9
352.517	22.7
352.728	118.95
352.94	-20.31
353.152	82.09
353.363	32.94
353.575	53.42
353.787	63.66
353.999	110.76
354.21	80.04
354.422	-1.88
354.633	-3.93
354.845	16.55
355.057	8.36
355.268	-1.88
355.48	28.84
355.692	-20.31
355.903	59.56
356.115	18.6
356.326	34.99
356.538	-42.84
356.749	49.32
356.961	51.37
357.172	-14.17
357.384	8.36
357.595	53.42
357.807	53.42
358.018	77.99
358.23	0.17
358.441	127.14
358.653	45.23
358.864	26.79
359.075	-3.93
359.287	-28.5
359.498	22.7
359.709	-34.64
359.921	69.8
360.132	-14.17
360.344	6.31
360.555	-28.5
360.766	16.55
360.977	20.65
361.189	12.46
361.4	65.71
361.611	30.89
361.823	106.67
362.034	-26.45
362.245	57.51
362.456	24.75
362.667	12.46
362.879	-26.45
363.09	28.84
363.301	-8.02
363.512	22.7
363.723	-63.32
363.935	51.37
364.146	2.22
364.357	45.23
364.568	16.55
364.779	-26.45
364.99	61.61
365.201	2.22
365.412	43.18
365.623	10.41
365.834	20.65
366.045	-20.31
366.256	34.99
366.467	63.66
366.678	53.42
366.889	18.6
367.1	37.03
367.311	71.85
367.522	12.46
367.733	24.75
367.944	61.61
368.155	39.08
368.366	104.62
368.577	10.41
368.788	-48.98
368.999	65.71
369.209	82.09
369.42	86.19
369.631	82.09
369.842	32.94
370.053	-124.76
370.264	12.46
370.474	75.95
370.685	59.56
370.896	-34.64
371.107	24.75
371.317	43.18
371.528	57.51
371.739	77.99
371.95	16.55
372.16	14.51
372.371	30.89
372.582	57.51
372.792	51.37
373.003	-3.93
373.214	49.32
373.424	80.04
373.635	-63.32
373.846	84.14
374.056	-8.02
374.267	0.17
374.477	28.84
374.688	22.7
374.898	80.04
375.109	-36.69
375.319	16.55
375.53	133.29
375.74	49.32
375.951	30.89
376.161	6.31
376.372	147.62
376.582	-5.97
376.793	82.09
377.003	47.27
377.214	-42.84
377.424	39.08
377.635	18.6
377.845	10.41
378.055	32.94
378.266	-67.41
378.476	28.84
378.686	28.84
378.897	63.66
379.107	53.42
379.317	57.51
379.528	12.46
379.738	57.51
379.948	-104.28
380.158	24.75
380.369	18.6
380.579	16.55
380.789	24.75
380.999	8.36
381.21	-83.8
381.42	137.38
381.63	30.89
381.84	59.56
382.05	10.41
382.261	108.71
382.471	82.09
382.681	18.6
382.891	71.85
383.101	24.75
383.311	88.23
383.521	63.66
383.731	98.47
383.941	10.41
384.151	63.66
384.361	34.99
384.571	6.31
384.781	75.95
384.991	135.34
385.201	37.03
385.411	-24.4
385.621	61.61
385.831	43.18
386.041	49.32
386.251	-51.03
386.461	26.79
386.671	37.03
386.881	57.51
387.091	-8.02
387.301	65.71
387.511	63.66
387.72	55.47
387.93	86.19
388.14	59.56
388.35	-3.93
388.56	96.43
388.769	20.65
388.979	53.42
389.189	-79.7
389.399	-3.93
389.609	100.52
389.818	55.47
390.028	41.13
390.238	63.66
390.447	2.22
390.657	-14.17
390.867	24.75
391.076	63.66
391.286	-3.93
391.496	32.94
391.705	24.75
391.915	131.24
392.125	61.61
392.334	45.23
392.544	51.37
392.753	16.55
392.963	28.84
393.172	24.75
393.382	-14.17
393.591	127.14
393.801	73.9
394.01	41.13
394.22	94.38
394.429	82.09
394.639	28.84
394.848	94.38
395.058	-22.36
395.267	75.95
395.477	80.04
395.686	90.28
395.895	41.13
396.105	104.62
396.314	0.17
396.524	53.42
396.733	6.31
396.942	41.13
397.152	61.61
397.361	147.62
397.57	108.71
397.78	143.53
397.989	14.51
398.198	106.67
398.407	61.61
398.617	-10.07
398.826	47.27
399.035	82.09
399.244	39.08
399.453	53.42
399.663	96.43
399.872	104.62
400.081	14.51
400.29	67.75
400.499	59.56
400.708	135.34
400.917	106.67
401.127	90.28
401.336	80.04
401.545	147.62
401.754	184.49
401.963	108.71
402.172	94.38
402.381	155.82
402.59	39.08
402.799	32.94
403.008	34.99
403.217	110.76
403.426	106.67
403.635	106.67
403.844	98.47
404.053	186.54
404.262	49.32
404.471	145.58
404.68	174.25
404.888	178.34
405.097	100.52
405.306	168.1
405.515	200.87
405.724	82.09
405.933	186.54
406.142	153.77
406.35	213.16
406.559	139.43
406.768	133.29
406.977	276.65
407.185	69.8
407.394	153.77
407.603	69.8
407.812	243.88
408.02	159.91
408.229	157.86
408.438	215.21
408.646	151.72
408.855	188.58
409.064	188.58
409.272	192.68
409.481	219.3
409.69	321.7
409.898	233.64
410.107	266.41
410.315	270.5
410.524	252.07
410.733	293.03
410.941	348.33
411.15	352.42
411.358	397.48
411.567	391.33
411.775	340.13
411.984	305.32
412.192	354.47
412.401	362.66
412.609	444.58
412.818	469.16
413.026	403.62
413.234	428.2
413.443	401.57
413.651	477.35
413.86	538.79
414.068	549.03
414.276	594.08
414.485	536.74
414.693	616.61
414.901	587.94
415.11	567.46
415.318	655.52
415.526	682.14
415.734	659.62
415.943	628.9
416.151	727.2
416.359	661.66
416.567	800.93
416.776	807.07
416.984	825.5
417.192	938.14
417.4	852.13
417.608	870.56
417.817	927.9
418.025	1063.07
418.233	1140.89
418.441	1020.06
418.649	1075.35
418.857	1298.58
419.065	1144.99
419.273	1267.86
419.481	1294.49
419.689	1235.1
419.897	1376.41
420.105	1323.16
420.313	1501.33
420.521	1519.76
420.729	1466.52
420.937	1566.87
421.145	1642.64
421.353	1689.74
421.561	1740.94
421.769	1777.81
421.977	1853.58
422.185	1857.68
422.393	1964.17
422.601	2062.48
422.809	2003.08
423.017	2019.47
423.224	2101.39
423.432	2195.59
423.64	2295.94
423.848	2406.53
424.056	2297.99
424.263	2666.63
424.471	2654.34
424.679	2701.44
424.887	2734.21
425.094	2887.81
425.302	2967.68
425.51	3076.22
425.718	3037.31
425.925	3092.6
426.133	3272.82
426.341	3487.86
426.548	3688.56
426.756	3594.36
426.964	3686.51
427.171	3825.78
427.379	3987.57
427.586	4030.57
427.794	4229.23
428.001	4370.54
428.209	4524.13
428.417	4438.12
428.624	4704.35
428.832	4872.29
429.039	4761.7
429.247	4771.94
429.454	5116
429.662	5476.44
429.869	5218.4
430.076	5593.17
430.284	5492.82
430.491	5718.1
430.699	5933.14
430.906	5922.9
431.114	6064.21
431.321	6207.56
431.528	6332.49
431.736	6713.41
431.943	7366.71
432.15	6955.07
432.358	6977.6
432.565	7407.67
432.772	7399.48
432.979	7733.3
433.187	7833.65
433.394	7895.09
433.601	8458.28
433.808	8458.28
434.016	8609.83
434.223	8783.91
434.43	9267.23
434.637	9041.95
434.844	9654.3
435.052	9867.28
435.259	9779.22
435.466	9805.85
435.673	9676.82
435.88	10326.03
436.087	11059.2
436.294	11120.64
436.501	10815.49
436.708	10942.47
436.915	11388.92
437.122	12060.66
437.329	11675.64
437.537	12109.81
437.743	12451.82
437.95	12503.02
438.157	12845.03
438.364	13479.9
438.571	13264.86
438.778	13582.3
438.985	14604.24
439.192	14041.04
439.399	14497.74
439.606	14202.83
439.813	14903.24
440.02	15902.65
440.227	15640.51
440.433	15468.48
440.64	16013.24
440.847	16195.51
441.054	16267.19
441.261	17323.94
441.467	17160.1
441.674	17469.34
441.881	18130.84
442.088	18194.33
442.294	17821.59
442.501	18382.74
442.708	18818.96
442.914	19347.33
443.121	20164.47
443.328	19900.28
443.534	21276.52
443.741	20692.85
443.948	20365.17
444.154	21798.75
444.361	21972.83
444.568	21884.76
444.774	21794.65
444.981	22021.98
445.187	22976.33
445.394	23926.59
445.6	23342.92
445.807	25761.57
446.013	24493.88
446.22	24960.81
446.426	25960.22
446.633	25898.78
446.839	27164.43
447.046	26150.68
447.252	27612.93
447.459	27606.79
447.665	27330.31
447.871	28573.43
448.078	29996.77
448.284	28425.98
448.491	29511.4
448.697	30322.4
448.903	31246.03
449.11	31090.38
449.316	30355.16
449.522	31293.13
449.728	31909.57
449.935	32020.16
450.141	31966.91
450.347	32974.52
450.553	31885
450.76	32243.39
450.966	33324.72
451.172	32908.98
451.378	33595.05
451.584	33013.43
451.791	34111.14
451.997	33693.35
452.203	34266.78
452.409	34201.25
452.615	34121.38
452.821	33097.39
453.027	32229.05
453.233	34444.96
453.44	32970.42
453.646	33062.58
453.852	33525.42
454.058	33904.29
454.264	32784.05
454.47	33463.98
454.676	32757.43
454.882	33279.66
455.088	30955.22
455.294	31358.67
455.5	31977.15
455.705	31966.91
455.911	30750.42
456.117	30389.98
456.323	29773.54
456.529	28067.58
456.735	29660.9
456.941	29126.38
457.147	28126.97
457.352	27477.77
457.558	27180.81
457.764	27297.55
457.97	26877.71
458.176	26048.29
458.381	25997.09
458.587	25071.4
458.793	24655.67
458.999	23519.04
459.204	25345.83
459.41	24411.96
459.616	23066.44
459.821	22916.94
460.027	22832.97
460.233	22179.67
460.438	21327.72
460.644	21610.34
460.85	20512.63
461.055	19849.08
461.261	19967.87
461.466	18798.48
461.672	17770.4
461.878	19437.44
462.083	18132.89
462.289	17774.49
462.494	17442.72
462.7	17102.76
462.905	16213.94
463.111	17020.84
463.316	16727.98
463.522	16715.69
463.727	16879.53
463.932	16662.44
464.138	16265.14
464.343	16744.36
464.549	15902.65
464.754	16408.5
464.959	16213.94
465.165	16183.22
465.37	15546.3
465.575	15214.53
465.781	15843.26
465.986	15763.39
466.191	15171.52
466.397	14909.38
466.602	14262.23
