Data from USB4F104151__5__12-40-53-247.txt Node

Date: Fri Mar 14 12:40:53 EDT 2025
User: louis
Spectrometer: USB4F10415
Trigger mode: 4
Integration Time (sec): 3.000000E-2
Scans to average: 1
Electric dark correction enabled: true
Nonlinearity correction enabled: false
Boxcar width: 0
XAxis mode: Wavelengths
Number of Pixels in Spectrum: 3648
>>>>>Begin Spectral Data<<<<<
178.204	-124.93
178.424	-124.93
178.644	-124.93
178.864	-120.83
179.084	-155.65
179.304	30.72
179.524	20.48
179.744	16.38
179.964	86.01
180.184	20.48
180.404	-45.06
180.624	-18.43
180.844	2.05
181.064	-55.3
181.283	12.29
181.503	-34.82
181.723	-34.82
181.943	24.58
182.163	-4.1
182.383	-20.48
182.602	30.72
182.822	8.19
183.042	73.73
183.262	-22.53
183.482	36.86
183.701	51.2
183.921	14.34
184.141	2.05
184.361	30.72
184.58	-10.24
184.8	28.67
185.02	22.53
185.239	73.73
185.459	65.53
185.679	-6.14
185.898	-108.54
186.118	49.15
186.338	18.43
186.557	18.43
186.777	43.01
186.997	81.92
187.216	45.06
187.436	49.15
187.655	67.58
187.875	36.86
188.095	-26.62
188.314	8.19
188.534	116.73
188.753	-73.73
188.973	-24.58
189.192	90.11
189.412	-4.1
189.631	16.38
189.851	28.67
190.07	112.64
190.29	51.2
190.509	67.58
190.729	-30.72
190.948	65.53
191.168	126.97
191.387	43.01
191.607	-45.06
191.826	77.82
192.045	14.34
192.265	20.48
192.484	26.62
192.704	55.3
192.923	-36.86
193.142	18.43
193.362	30.72
193.581	137.21
193.8	-4.1
194.02	16.38
194.239	18.43
194.458	28.67
194.678	-49.15
194.897	28.67
195.116	6.14
195.335	6.14
195.555	59.39
195.774	92.16
195.993	45.06
196.212	43.01
196.432	-18.43
196.651	83.97
196.87	51.2
197.089	45.06
197.308	53.25
197.528	36.86
197.747	-49.15
197.966	0
198.185	96.25
198.404	49.15
198.623	53.25
198.842	32.77
199.062	-18.43
199.281	57.34
199.5	-20.48
199.719	-69.63
199.938	-16.38
200.157	24.58
200.376	43.01
200.595	-38.91
200.814	36.86
201.033	-40.96
201.252	110.59
201.471	49.15
201.69	51.2
201.909	65.53
202.128	61.44
202.347	36.86
202.566	47.1
202.785	-75.77
203.004	-59.39
203.223	36.86
203.442	-32.77
203.661	-49.15
203.879	-45.06
204.098	92.16
204.317	32.77
204.536	4.1
204.755	-43.01
204.974	16.38
205.193	49.15
205.411	94.21
205.63	-30.72
205.849	-18.43
206.068	20.48
206.287	-77.82
206.505	75.77
206.724	-63.49
206.943	22.53
207.162	-61.44
207.381	26.62
207.599	-32.77
207.818	0
208.037	2.05
208.255	-4.1
208.474	0
208.693	83.97
208.911	71.68
209.13	43.01
209.349	12.29
209.567	32.77
209.786	-43.01
210.005	2.05
210.223	2.05
210.442	28.67
210.661	51.2
210.879	-30.72
211.098	-6.14
211.316	-4.1
211.535	57.34
211.753	14.34
211.972	73.73
212.191	69.63
212.409	-24.58
212.628	36.86
212.846	-6.14
213.065	20.48
213.283	86.01
213.502	40.96
213.72	51.2
213.938	63.49
214.157	71.68
214.375	69.63
214.594	26.62
214.812	100.35
215.031	22.53
215.249	0
215.467	-2.05
215.686	36.86
215.904	49.15
216.122	22.53
216.341	45.06
216.559	40.96
216.778	73.73
216.996	40.96
217.214	-34.82
217.432	-6.14
217.651	-2.05
217.869	22.53
218.087	16.38
218.306	36.86
218.524	55.3
218.742	-10.24
218.96	32.77
219.179	-75.77
219.397	40.96
219.615	69.63
219.833	43.01
220.051	-30.72
220.27	59.39
220.488	86.01
220.706	83.97
220.924	69.63
221.142	-16.38
221.36	47.1
221.578	28.67
221.796	26.62
222.015	14.34
222.233	57.34
222.451	79.87
222.669	-38.91
222.887	28.67
223.105	-38.91
223.323	2.05
223.541	-83.97
223.759	36.86
223.977	4.1
224.195	-2.05
224.413	49.15
224.631	-43.01
224.849	10.24
225.067	59.39
225.285	18.43
225.503	47.1
225.721	-49.15
225.939	38.91
226.157	-2.05
226.375	81.92
226.592	-26.62
226.81	26.62
227.028	83.97
227.246	137.21
227.464	10.24
227.682	24.58
227.9	4.1
228.117	-36.86
228.335	67.58
228.553	81.92
228.771	71.68
228.989	75.77
229.206	18.43
229.424	57.34
229.642	-30.72
229.86	45.06
230.077	57.34
230.295	18.43
230.513	32.77
230.731	45.06
230.948	96.25
231.166	67.58
231.384	-10.24
231.601	71.68
231.819	47.1
232.037	43.01
232.254	38.91
232.472	20.48
232.689	-6.14
232.907	-10.24
233.125	32.77
233.342	4.1
233.56	-18.43
233.777	38.91
233.995	-16.38
234.213	86.01
234.43	26.62
234.648	32.77
234.865	38.91
235.083	24.58
235.3	30.72
235.518	20.48
235.735	24.58
235.953	28.67
236.17	20.48
236.388	77.82
236.605	8.19
236.822	94.21
237.04	57.34
237.257	14.34
237.475	73.73
237.692	0
237.909	28.67
238.127	45.06
238.344	12.29
238.562	30.72
238.779	-65.54
238.996	-43.01
239.214	55.3
239.431	135.17
239.648	22.53
239.865	67.58
240.083	34.82
240.3	10.24
240.517	-14.34
240.735	32.77
240.952	6.14
241.169	40.96
241.386	6.14
241.603	-20.48
241.821	-10.24
242.038	47.1
242.255	71.68
242.472	-30.72
242.689	12.29
242.907	8.19
243.124	2.05
243.341	51.2
243.558	14.34
243.775	26.62
243.992	-32.77
244.209	59.39
244.426	63.49
244.643	75.77
244.86	-73.73
245.078	28.67
245.295	55.3
245.512	26.62
245.729	40.96
245.946	22.53
246.163	55.3
246.38	96.25
246.597	90.11
246.814	28.67
247.031	36.86
247.248	-40.96
247.464	14.34
247.681	-10.24
247.898	-24.58
248.115	124.93
248.332	26.62
248.549	24.58
248.766	126.97
248.983	53.25
249.2	18.43
249.417	-16.38
249.633	8.19
249.85	57.34
250.067	43.01
250.284	2.05
250.501	26.62
250.717	67.58
250.934	-32.77
251.151	47.1
251.368	47.1
251.585	79.87
251.801	86.01
252.018	28.67
252.235	77.82
252.451	10.24
252.668	-28.67
252.885	26.62
253.102	55.3
253.318	40.96
253.535	-16.38
253.752	96.25
253.968	-16.38
254.185	-28.67
254.401	-34.82
254.618	14.34
254.835	0
255.051	38.91
255.268	-6.14
255.484	61.44
255.701	-6.14
255.917	4.1
256.134	-8.19
256.351	-40.96
256.567	-4.1
256.784	-51.2
257	45.06
257.217	88.06
257.433	51.2
257.65	49.15
257.866	63.49
258.082	-38.91
258.299	-22.53
258.515	65.53
258.732	73.73
258.948	-36.86
259.165	67.58
259.381	34.82
259.597	-10.24
259.814	22.53
260.03	32.77
260.246	6.14
260.463	14.34
260.679	-20.48
260.895	28.67
261.112	-22.53
261.328	16.38
261.544	53.25
261.761	100.35
261.977	28.67
262.193	-22.53
262.409	69.63
262.626	20.48
262.842	2.05
263.058	36.86
263.274	118.78
263.49	-45.06
263.707	110.59
263.923	45.06
264.139	10.24
264.355	73.73
264.571	8.19
264.787	22.53
265.004	36.86
265.22	24.58
265.436	-22.53
265.652	77.82
265.868	49.15
266.084	-53.25
266.3	22.53
266.516	12.29
266.732	94.21
266.948	-16.38
267.164	2.05
267.38	-6.14
267.596	61.44
267.812	96.25
268.028	112.64
268.244	16.38
268.46	10.24
268.676	-26.62
268.892	36.86
269.108	-26.62
269.324	-10.24
269.54	-4.1
269.756	49.15
269.972	-36.86
270.188	10.24
270.403	-77.82
270.619	-18.43
270.835	79.87
271.051	47.1
271.267	-22.53
271.483	45.06
271.698	133.12
271.914	22.53
272.13	45.06
272.346	-24.58
272.562	63.49
272.777	124.93
272.993	28.67
273.209	38.91
273.425	73.73
273.64	-16.38
273.856	110.59
274.072	2.05
274.287	-24.58
274.503	51.2
274.719	53.25
274.934	65.53
275.15	18.43
275.366	12.29
275.581	0
275.797	2.05
276.012	67.58
276.228	26.62
276.444	-26.62
276.659	104.45
276.875	40.96
277.09	2.05
277.306	10.24
277.521	34.82
277.737	43.01
277.952	73.73
278.168	73.73
278.383	-24.58
278.599	28.67
278.814	55.3
279.03	0
279.245	63.49
279.461	110.59
279.676	20.48
279.892	43.01
280.107	8.19
280.322	-22.53
280.538	12.29
280.753	12.29
280.969	81.92
281.184	83.97
281.399	38.91
281.615	10.24
281.83	34.82
282.045	-30.72
282.26	28.67
282.476	-51.2
282.691	73.73
282.906	-14.34
283.122	16.38
283.337	61.44
283.552	26.62
283.767	83.97
283.983	38.91
284.198	75.77
284.413	38.91
284.628	86.01
284.843	6.14
285.058	88.06
285.274	6.14
285.489	30.72
285.704	118.78
285.919	61.44
286.134	0
286.349	36.86
286.564	0
286.779	75.77
286.995	-36.86
287.21	-18.43
287.425	0
287.64	86.01
287.855	8.19
288.07	-30.72
288.285	53.25
288.5	16.38
288.715	57.34
288.93	0
289.145	-28.67
289.36	77.82
289.575	-40.96
289.79	-10.24
290.004	18.43
290.219	0
290.434	-18.43
290.649	45.06
290.864	16.38
291.079	-49.15
291.294	83.97
291.509	61.44
291.724	16.38
291.938	24.58
292.153	22.53
292.368	-22.53
292.583	69.63
292.798	73.73
293.012	63.49
293.227	55.3
293.442	12.29
293.657	38.91
293.871	102.4
294.086	47.1
294.301	53.25
294.516	90.11
294.73	20.48
294.945	-24.58
295.16	36.86
295.374	122.88
295.589	63.49
295.804	4.1
296.018	34.82
296.233	65.53
296.447	104.45
296.662	-6.14
296.877	55.3
297.091	40.96
297.306	65.53
297.52	63.49
297.735	20.48
297.949	14.34
298.164	53.25
298.378	2.05
298.593	45.06
298.807	45.06
299.022	106.49
299.236	-28.67
299.451	12.29
299.665	0
299.88	16.38
300.094	-18.43
300.309	-55.3
300.523	94.21
300.737	77.82
300.952	14.34
301.166	-8.19
301.381	-4.1
301.595	88.06
301.809	0
302.024	-40.96
302.238	40.96
302.452	49.15
302.667	-2.05
302.881	67.58
303.095	28.67
303.309	36.86
303.524	0
303.738	-6.14
303.952	18.43
304.166	61.44
304.381	-45.06
304.595	149.5
304.809	81.92
305.023	63.49
305.237	38.91
305.452	10.24
305.666	-6.14
305.88	61.44
306.094	47.1
306.308	12.29
306.522	4.1
306.736	-14.34
306.95	40.96
307.164	-45.06
307.379	53.25
307.593	-24.58
307.807	57.34
308.021	81.92
308.235	47.1
308.449	22.53
308.663	-18.43
308.877	81.92
309.091	45.06
309.305	79.87
309.519	-38.91
309.733	30.72
309.947	34.82
310.161	49.15
310.374	24.58
310.588	43.01
310.802	49.15
311.016	71.68
311.23	4.1
311.444	47.1
311.658	77.82
311.872	40.96
312.085	102.4
312.299	51.2
312.513	55.3
312.727	-14.34
312.941	65.53
313.154	20.48
313.368	63.49
313.582	24.58
313.796	-53.25
314.009	133.12
314.223	124.93
314.437	63.49
314.651	2.05
314.864	55.3
315.078	30.72
315.292	10.24
315.505	36.86
315.719	38.91
315.933	12.29
316.146	55.3
316.36	-32.77
316.573	57.34
316.787	36.86
317.001	16.38
317.214	6.14
317.428	0
317.641	28.67
317.855	49.15
318.068	38.91
318.282	90.11
318.495	32.77
318.709	-12.29
318.922	20.48
319.136	65.53
319.349	77.82
319.563	47.1
319.776	4.1
319.99	-10.24
320.203	36.86
320.417	2.05
320.63	59.39
320.843	71.68
321.057	-40.96
321.27	75.77
321.483	51.2
321.697	137.21
321.91	-4.1
322.124	104.45
322.337	28.67
322.55	6.14
322.763	-10.24
322.977	4.1
323.19	-8.19
323.403	79.87
323.617	-6.14
323.83	63.49
324.043	108.54
324.256	-10.24
324.469	24.58
324.683	53.25
324.896	34.82
325.109	12.29
325.322	10.24
325.535	38.91
325.748	47.1
325.962	81.92
326.175	67.58
326.388	-22.53
326.601	-4.1
326.814	45.06
327.027	6.14
327.24	57.34
327.453	12.29
327.666	32.77
327.879	63.49
328.092	34.82
328.305	100.35
328.518	-34.82
328.731	34.82
328.944	55.3
329.157	153.6
329.37	53.25
329.583	106.49
329.796	38.91
330.009	-86.01
330.222	4.1
330.435	28.67
330.648	116.73
330.861	12.29
331.073	10.24
331.286	106.49
331.499	40.96
331.712	79.87
331.925	-34.82
332.138	61.44
332.35	28.67
332.563	24.58
332.776	108.54
332.989	28.67
333.202	47.1
333.414	73.73
333.627	79.87
333.84	40.96
334.053	12.29
334.265	65.53
334.478	-18.43
334.691	51.2
334.903	61.44
335.116	36.86
335.329	-18.43
335.541	34.82
335.754	43.01
335.966	57.34
336.179	55.3
336.392	-36.86
336.604	14.34
336.817	88.06
337.029	4.1
337.242	38.91
337.454	38.91
337.667	-47.1
337.88	143.36
338.092	61.44
338.305	55.3
338.517	22.53
338.729	47.1
338.942	79.87
339.154	20.48
339.367	49.15
339.579	0
339.792	77.82
340.004	-14.34
340.217	12.29
340.429	61.44
340.641	34.82
340.854	-20.48
341.066	24.58
341.278	98.3
341.491	12.29
341.703	-8.19
341.915	-6.14
342.128	24.58
342.34	40.96
342.552	14.34
342.764	49.15
342.977	96.25
343.189	-43.01
343.401	0
343.613	16.38
343.826	26.62
344.038	2.05
344.25	47.1
344.462	-2.05
344.674	10.24
344.886	53.25
345.099	20.48
345.311	67.58
345.523	59.39
345.735	22.53
345.947	102.4
346.159	-18.43
346.371	63.49
346.583	6.14
346.795	81.92
347.007	49.15
347.219	137.21
347.431	18.43
347.643	81.92
347.855	16.38
348.067	75.77
348.279	-28.67
348.491	59.39
348.703	53.25
348.915	67.58
349.127	-8.19
349.339	34.82
349.551	-12.29
349.763	0
349.975	40.96
350.187	16.38
350.399	75.77
350.61	47.1
350.822	10.24
351.034	98.3
351.246	118.78
351.458	-47.1
351.669	157.69
351.881	45.06
352.093	114.69
352.305	32.77
352.517	79.87
352.728	83.97
352.94	43.01
353.152	40.96
353.363	4.1
353.575	67.58
353.787	129.02
353.999	81.92
354.21	126.97
354.422	49.15
354.633	4.1
354.845	86.01
355.057	69.63
355.268	55.3
355.48	-10.24
355.692	90.11
355.903	47.1
356.115	77.82
356.326	16.38
356.538	30.72
356.749	-32.77
356.961	57.34
357.172	57.34
357.384	18.43
357.595	26.62
357.807	34.82
358.018	57.34
358.23	45.06
358.441	96.25
358.653	90.11
358.864	10.24
359.075	10.24
359.287	114.69
359.498	67.58
359.709	28.67
359.921	104.45
360.132	16.38
360.344	4.1
360.555	63.49
360.766	26.62
360.977	4.1
361.189	55.3
361.4	40.96
361.611	71.68
361.823	75.77
362.034	16.38
362.245	-61.44
362.456	69.63
362.667	65.53
362.879	-2.05
363.09	22.53
363.301	86.01
363.512	63.49
363.723	122.88
363.935	24.58
364.146	47.1
364.357	-4.1
364.568	28.67
364.779	36.86
364.99	102.4
365.201	40.96
365.412	120.83
365.623	59.39
365.834	43.01
366.045	34.82
366.256	75.77
366.467	73.73
366.678	32.77
366.889	28.67
367.1	69.63
367.311	8.19
367.522	63.49
367.733	120.83
367.944	-24.58
368.155	49.15
368.366	90.11
368.577	28.67
368.788	63.49
368.999	55.3
369.209	81.92
369.42	129.02
369.631	75.77
369.842	45.06
370.053	43.01
370.264	0
370.474	34.82
370.685	30.72
370.896	34.82
371.107	94.21
371.317	59.39
371.528	-10.24
371.739	92.16
371.95	34.82
372.16	92.16
372.371	88.06
372.582	92.16
372.792	96.25
373.003	69.63
373.214	65.53
373.424	43.01
373.635	75.77
373.846	67.58
374.056	106.49
374.267	73.73
374.477	112.64
374.688	16.38
374.898	102.4
375.109	-28.67
375.319	104.45
375.53	-22.53
375.74	55.3
375.951	81.92
376.161	30.72
376.372	61.44
376.582	65.53
376.793	51.2
377.003	114.69
377.214	40.96
377.424	122.88
377.635	49.15
377.845	-43.01
378.055	83.97
378.266	14.34
378.476	6.14
378.686	83.97
378.897	45.06
379.107	43.01
379.317	2.05
379.528	14.34
379.738	67.58
379.948	28.67
380.158	38.91
380.369	92.16
380.579	45.06
380.789	88.06
380.999	147.45
381.21	112.64
381.42	63.49
381.63	16.38
381.84	100.35
382.05	88.06
382.261	47.1
382.471	133.12
382.681	63.49
382.891	126.97
383.101	124.93
383.311	36.86
383.521	30.72
383.731	116.73
383.941	79.87
384.151	75.77
384.361	49.15
384.571	116.73
384.781	75.77
384.991	133.12
385.201	143.36
385.411	77.82
385.621	36.86
385.831	79.87
386.041	36.86
386.251	-36.86
386.461	110.59
386.671	81.92
386.881	108.54
387.091	83.97
387.301	83.97
387.511	98.3
387.72	59.39
387.93	51.2
388.14	55.3
388.35	98.3
388.56	159.74
388.769	22.53
388.979	116.73
389.189	61.44
389.399	131.07
389.609	36.86
389.818	34.82
390.028	47.1
390.238	71.68
390.447	61.44
390.657	63.49
390.867	92.16
391.076	30.72
391.286	61.44
391.496	108.54
391.705	83.97
391.915	116.73
392.125	69.63
392.334	49.15
392.544	81.92
392.753	75.77
392.963	16.38
393.172	67.58
393.382	30.72
393.591	98.3
393.801	20.48
394.01	174.08
394.22	40.96
394.429	114.69
394.639	75.77
394.848	77.82
395.058	45.06
395.267	106.49
395.477	135.17
395.686	120.83
395.895	165.89
396.105	167.93
396.314	161.79
396.524	92.16
396.733	108.54
396.942	88.06
397.152	131.07
397.361	135.17
397.57	55.3
397.78	172.03
397.989	8.19
398.198	169.98
398.407	98.3
398.617	77.82
398.826	124.93
399.035	73.73
399.244	100.35
399.453	63.49
399.663	172.03
399.872	202.75
400.081	147.45
400.29	196.61
400.499	88.06
400.708	133.12
400.917	98.3
401.127	202.75
401.336	133.12
401.545	169.98
401.754	100.35
401.963	153.6
402.172	100.35
402.381	81.92
402.59	190.46
402.799	196.61
403.008	208.89
403.217	151.55
403.426	190.46
403.635	133.12
403.844	118.78
404.053	239.61
404.262	225.28
404.471	247.8
404.68	155.65
404.888	186.37
405.097	194.56
405.306	194.56
405.515	212.99
405.724	233.47
405.933	245.76
406.142	190.46
406.35	223.23
406.559	204.8
406.768	260.09
406.977	280.57
407.185	194.56
407.394	241.66
407.603	233.47
407.812	274.43
408.02	319.48
408.229	307.2
408.438	239.61
408.646	231.42
408.855	231.42
409.064	251.9
409.272	251.9
409.481	466.94
409.69	403.45
409.898	299
410.107	395.26
410.315	366.59
410.524	423.93
410.733	462.84
410.941	407.55
411.15	405.5
411.358	550.9
411.567	555
411.775	460.79
411.984	540.66
412.192	538.62
412.401	563.19
412.609	653.3
412.818	649.21
413.026	675.83
413.234	636.92
413.443	612.34
413.651	647.16
413.86	710.65
414.068	755.7
414.276	759.8
414.485	794.61
414.693	833.52
414.901	983.02
415.11	964.59
415.318	937.97
415.526	858.1
415.734	1011.7
415.943	1046.51
416.151	1077.23
416.359	1077.23
416.567	1173.49
416.776	1214.45
416.984	1271.79
417.192	1331.18
417.4	1253.36
417.608	1249.26
417.817	1388.52
418.025	1406.95
418.233	1445.87
418.441	1456.11
418.649	1634.28
418.857	1667.05
419.065	1712.1
419.273	1621.99
419.481	1761.25
419.689	1906.66
419.897	1966.05
420.105	2062.3
420.313	2037.73
420.521	2097.12
420.729	2201.57
420.937	2267.1
421.145	2297.82
421.353	2406.36
421.561	2482.14
421.769	2615.26
421.977	2756.57
422.185	2703.32
422.393	2811.86
422.601	2944.98
422.809	2967.51
423.017	3059.67
423.224	3235.79
423.432	3307.47
423.64	3430.35
423.848	3514.31
424.056	3508.17
424.263	3760.07
424.471	3798.98
424.679	3809.22
424.887	4091.84
425.094	4222.91
425.302	4222.91
425.51	4403.13
425.718	4478.91
425.925	4601.79
426.133	4603.83
426.341	4972.47
426.548	5099.44
426.756	5242.8
426.964	5250.99
427.171	5533.61
427.379	5726.12
427.586	5855.14
427.794	5957.54
428.001	6188.96
428.209	6573.98
428.417	6502.3
428.624	6918.04
428.832	6875.03
429.039	6743.96
429.247	7047.06
429.454	7567.24
429.662	7962.5
429.869	7591.82
430.076	8052.61
430.284	7679.88
430.491	8189.83
430.699	8533.89
430.906	8736.63
431.114	8705.92
431.321	9029.49
431.528	9097.08
431.736	9836.39
431.943	10233.7
432.15	9971.56
432.358	10180.45
432.565	10856.28
432.772	10682.2
432.979	11122.52
433.187	11214.68
433.394	11368.27
433.601	11949.9
433.808	12328.77
434.016	12320.58
434.223	12689.21
434.43	13395.76
434.637	13195.06
434.844	14178.09
435.052	14362.4
435.259	13944.62
435.466	14085.93
435.673	14251.81
435.88	15269.65
436.087	15863.57
436.294	15892.24
436.501	15472.4
436.708	15773.46
436.915	16224.01
437.122	17311.48
437.329	17190.65
437.537	17473.27
437.743	17733.36
437.95	17465.08
438.157	18710.24
438.364	19302.11
438.571	19265.24
438.778	19453.66
438.985	21049.02
439.192	20240.08
439.399	21085.89
439.606	20567.75
439.813	21694.13
440.02	22884
440.227	22400.68
440.433	22425.26
440.64	23385.76
440.847	23037.6
441.054	23576.22
441.261	25177.73
441.467	24733.32
441.674	25200.26
441.881	26183.28
442.088	25964.15
442.294	26054.26
442.501	26484.33
442.708	27328.1
442.914	28417.61
443.121	29249.09
443.328	28696.14
443.534	30629.42
443.741	29773.37
443.948	29259.33
444.154	31764
444.361	31354.4
444.568	31731.23
444.774	31764
444.981	31837.72
445.187	32802.32
445.394	34135.54
445.6	33764.86
445.807	37141.96
446.013	35575.27
446.22	36400.6
446.426	37463.49
446.633	37936.57
446.839	39069.1
447.046	37621.19
447.252	39564.71
447.459	39577
447.665	39333.29
447.871	41342.35
448.078	42777.97
448.284	41307.53
448.491	42290.55
448.697	43554.15
448.903	44051.81
449.11	44359
449.316	43986.27
449.522	44475.74
449.728	45718.85
449.935	46009.67
450.141	46261.57
450.347	47390
450.553	45704.52
450.76	45903.17
450.966	47785.25
451.172	47582.51
451.378	48518.43
451.584	47666.47
451.791	48667.93
451.997	48305.44
452.203	49313.04
452.409	49515.79
452.615	49151.25
452.821	47568.17
453.027	46908.72
453.233	49325.33
453.44	47723.82
453.646	47770.92
453.852	48276.77
454.058	48968.98
454.264	47830.31
454.47	48557.34
454.676	47201.58
454.882	49130.77
455.088	44410.2
455.294	45301.07
455.5	46155.07
455.705	46794.04
455.911	44711.25
456.117	43924.83
456.323	43457.9
456.529	41225.61
456.735	42751.35
456.941	42038.65
457.147	41409.93
457.352	39845.28
457.558	39738.79
457.764	39693.73
457.97	38821.3
458.176	38167.99
458.381	38305.21
458.587	36158.94
458.793	36214.23
458.999	34061.82
459.204	36539.86
459.41	35692
459.616	33218.05
459.821	33492.48
460.027	33654.27
460.233	32355.86
460.438	30926.38
460.644	31421.98
460.85	29691.45
461.055	29658.68
461.261	29345.34
461.466	27348.57
461.672	26619.5
461.878	28282.45
462.083	26525.29
462.289	26187.38
462.494	25513.59
462.7	24680.07
462.905	23830.16
463.111	24899.2
463.316	24841.86
463.522	24237.71
463.727	24467.08
463.932	24510.09
464.138	24188.56
464.343	24088.21
464.549	23375.52
464.754	24086.16
464.959	23842.45
465.165	23488.15
465.37	22744.74
465.575	22191.79
465.781	23062.18
465.986	23303.84
466.191	22054.58
466.397	22208.17
466.602	21085.89
466.807	21966.51
467.012	21845.68
467.218	21554.87
467.423	21571.25
467.628	21386.94
467.833	22675.11
