Data from USB4F104151__97__12-42-57-943.txt Node

Date: Fri Mar 14 12:42:57 EDT 2025
User: louis
Spectrometer: USB4F10415
Trigger mode: 4
Integration Time (sec): 3.000000E-2
Scans to average: 1
Electric dark correction enabled: true
Nonlinearity correction enabled: false
Boxcar width: 0
XAxis mode: Wavelengths
Number of Pixels in Spectrum: 3648
>>>>>Begin Spectral Data<<<<<
178.204	-138.24
178.424	-138.24
178.644	-138.24
178.864	-115.71
179.084	-119.81
179.304	-29.7
179.524	-3.07
179.744	-21.5
179.964	35.84
180.184	54.27
180.404	-15.36
180.624	7.17
180.844	-25.6
181.064	-27.65
181.283	70.65
181.503	-68.61
181.723	23.55
181.943	-29.7
182.163	76.8
182.383	31.74
182.602	82.94
182.822	84.99
183.042	48.13
183.262	27.65
183.482	-62.46
183.701	19.46
183.921	62.46
184.141	29.7
184.361	99.33
184.58	101.37
184.8	39.94
185.02	50.18
185.239	84.99
185.459	115.71
185.679	3.07
185.898	-3.07
186.118	80.89
186.338	46.08
186.557	76.8
186.777	33.79
186.997	54.27
187.216	19.46
187.436	27.65
187.655	-3.07
187.875	62.46
188.095	17.41
188.314	37.89
188.534	1.02
188.753	19.46
188.973	-27.65
189.192	91.13
189.412	-15.36
189.631	62.46
189.851	23.55
190.07	134.14
190.29	13.31
190.509	48.13
190.729	-1.02
190.948	119.81
191.168	156.67
191.387	91.13
191.607	31.74
191.826	-19.46
192.045	44.03
192.265	74.75
192.484	101.37
192.704	54.27
192.923	31.74
193.142	138.24
193.362	56.32
193.581	144.38
193.8	54.27
194.02	103.42
194.239	39.94
194.458	76.8
194.678	-29.7
194.897	60.42
195.116	68.61
195.335	-27.65
195.555	54.27
195.774	27.65
195.993	-46.08
196.212	31.74
196.432	31.74
196.651	132.09
196.87	39.94
197.089	117.76
197.308	185.34
197.528	25.6
197.747	11.26
197.966	70.65
198.185	56.32
198.404	44.03
198.623	105.47
198.842	115.71
199.062	35.84
199.281	125.95
199.5	-1.02
199.719	39.94
199.938	33.79
200.157	107.52
200.376	54.27
200.595	144.38
200.814	70.65
201.033	23.55
201.252	101.37
201.471	44.03
201.69	113.66
201.909	46.08
202.128	76.8
202.347	50.18
202.566	31.74
202.785	15.36
203.004	11.26
203.223	101.37
203.442	21.5
203.661	62.46
203.879	5.12
204.098	58.37
204.317	21.5
204.536	82.94
204.755	123.9
204.974	56.32
205.193	70.65
205.411	158.72
205.63	1.02
205.849	37.89
206.068	27.65
206.287	29.7
206.505	39.94
206.724	76.8
206.943	31.74
207.162	52.22
207.381	136.19
207.599	33.79
207.818	95.23
208.037	66.56
208.255	5.12
208.474	13.31
208.693	31.74
208.911	35.84
209.13	84.99
209.349	70.65
209.567	87.04
209.786	72.7
210.005	101.37
210.223	119.81
210.442	13.31
210.661	31.74
210.879	50.18
211.098	41.98
211.316	87.04
211.535	140.29
211.753	54.27
211.972	11.26
212.191	7.17
212.409	7.17
212.628	80.89
212.846	52.22
213.065	27.65
213.283	80.89
213.502	9.22
213.72	50.18
213.938	31.74
214.157	56.32
214.375	31.74
214.594	31.74
214.812	70.65
215.031	64.51
215.249	74.75
215.467	-7.17
215.686	29.7
215.904	103.42
216.122	25.6
216.341	29.7
216.559	111.61
216.778	-7.17
216.996	48.13
217.214	56.32
217.432	7.17
217.651	52.22
217.869	33.79
218.087	11.26
218.306	21.5
218.524	25.6
218.742	9.22
218.96	95.23
219.179	-27.65
219.397	17.41
219.615	148.48
219.833	74.75
220.051	19.46
220.27	132.09
220.488	125.95
220.706	89.09
220.924	19.46
221.142	19.46
221.36	41.98
221.578	91.13
221.796	31.74
222.015	66.56
222.233	52.22
222.451	56.32
222.669	93.18
222.887	46.08
223.105	37.89
223.323	46.08
223.541	138.24
223.759	113.66
223.977	72.7
224.195	56.32
224.413	93.18
224.631	39.94
224.849	66.56
225.067	82.94
225.285	11.26
225.503	64.51
225.721	-3.07
225.939	23.55
226.157	99.33
226.375	171.01
226.592	5.12
226.81	-17.41
227.028	44.03
227.246	84.99
227.464	62.46
227.682	99.33
227.9	109.57
228.117	125.95
228.335	70.65
228.553	11.26
228.771	48.13
228.989	66.56
229.206	82.94
229.424	35.84
229.642	29.7
229.86	33.79
230.077	52.22
230.295	17.41
230.513	103.42
230.731	48.13
230.948	175.1
231.166	125.95
231.384	74.75
231.601	-3.07
231.819	60.42
232.037	44.03
232.254	-9.22
232.472	105.47
232.689	70.65
232.907	76.8
233.125	23.55
233.342	27.65
233.56	48.13
233.777	-19.46
233.995	-1.02
234.213	144.38
234.43	31.74
234.648	46.08
234.865	-3.07
235.083	97.28
235.3	132.09
235.518	39.94
235.735	105.47
235.953	144.38
236.17	54.27
236.388	72.7
236.605	99.33
236.822	72.7
237.04	25.6
237.257	74.75
237.475	-1.02
237.692	48.13
237.909	46.08
238.127	41.98
238.344	27.65
238.562	50.18
238.779	46.08
238.996	13.31
239.214	107.52
239.431	91.13
239.648	68.61
239.865	17.41
240.083	95.23
240.3	89.09
240.517	-7.17
240.735	62.46
240.952	107.52
241.169	117.76
241.386	97.28
241.603	78.85
241.821	19.46
242.038	101.37
242.255	44.03
242.472	19.46
242.689	91.13
242.907	80.89
243.124	95.23
243.341	-21.5
243.558	-60.42
243.775	7.17
243.992	1.02
244.209	60.42
244.426	103.42
244.643	17.41
244.86	3.07
245.078	72.7
245.295	113.66
245.512	-35.84
245.729	76.8
245.946	23.55
246.163	99.33
246.38	-5.12
246.597	46.08
246.814	17.41
247.031	11.26
247.248	-13.31
247.464	82.94
247.681	19.46
247.898	142.33
248.115	37.89
248.332	3.07
248.549	17.41
248.766	46.08
248.983	107.52
249.2	31.74
249.417	109.57
249.633	35.84
249.85	1.02
250.067	13.31
250.284	66.56
250.501	89.09
250.717	101.37
250.934	101.37
251.151	52.22
251.368	23.55
251.585	56.32
251.801	-5.12
252.018	41.98
252.235	15.36
252.451	25.6
252.668	25.6
252.885	121.85
253.102	3.07
253.318	119.81
253.535	23.55
253.752	-31.74
253.968	58.37
254.185	-35.84
254.401	74.75
254.618	84.99
254.835	60.42
255.051	115.71
255.268	46.08
255.484	80.89
255.701	7.17
255.917	123.9
256.134	50.18
256.351	60.42
256.567	35.84
256.784	103.42
257	11.26
257.217	80.89
257.433	82.94
257.65	95.23
257.866	9.22
258.082	52.22
258.299	19.46
258.515	-3.07
258.732	31.74
258.948	-13.31
259.165	29.7
259.381	27.65
259.597	13.31
259.814	62.46
260.03	31.74
260.246	46.08
260.463	117.76
260.679	52.22
260.895	66.56
261.112	138.24
261.328	19.46
261.544	21.5
261.761	91.13
261.977	19.46
262.193	-11.26
262.409	128
262.626	76.8
262.842	146.43
263.058	60.42
263.274	74.75
263.49	23.55
263.707	117.76
263.923	70.65
264.139	-3.07
264.355	29.7
264.571	66.56
264.787	25.6
265.004	80.89
265.22	64.51
265.436	31.74
265.652	15.36
265.868	78.85
266.084	17.41
266.3	13.31
266.516	25.6
266.732	76.8
266.948	107.52
267.164	17.41
267.38	19.46
267.596	89.09
267.812	70.65
268.028	111.61
268.244	11.26
268.46	27.65
268.676	60.42
268.892	91.13
269.108	52.22
269.324	15.36
269.54	76.8
269.756	13.31
269.972	21.5
270.188	84.99
270.403	72.7
270.619	87.04
270.835	56.32
271.051	17.41
271.267	1.02
271.483	99.33
271.698	111.61
271.914	103.42
272.13	82.94
272.346	91.13
272.562	74.75
272.777	103.42
272.993	68.61
273.209	-1.02
273.425	-3.07
273.64	115.71
273.856	5.12
274.072	60.42
274.287	35.84
274.503	58.37
274.719	56.32
274.934	56.32
275.15	44.03
275.366	70.65
275.581	23.55
275.797	84.99
276.012	21.5
276.228	-54.27
276.444	66.56
276.659	66.56
276.875	31.74
277.09	89.09
277.306	91.13
277.521	76.8
277.737	19.46
277.952	25.6
278.168	66.56
278.383	117.76
278.599	37.89
278.814	52.22
279.03	80.89
279.245	-15.36
279.461	46.08
279.676	183.29
279.892	11.26
280.107	27.65
280.322	-11.26
280.538	9.22
280.753	19.46
280.969	78.85
281.184	54.27
281.399	95.23
281.615	37.89
281.83	54.27
282.045	-3.07
282.26	46.08
282.476	58.37
282.691	117.76
282.906	3.07
283.122	144.38
283.337	25.6
283.552	11.26
283.767	50.18
283.983	52.22
284.198	-50.18
284.413	89.09
284.628	-23.55
284.843	62.46
285.058	93.18
285.274	54.27
285.489	27.65
285.704	41.98
285.919	23.55
286.134	66.56
286.349	35.84
286.564	44.03
286.779	48.13
286.995	-7.17
287.21	33.79
287.425	66.56
287.64	70.65
287.855	56.32
288.07	-64.51
288.285	72.7
288.5	138.24
288.715	39.94
288.93	99.33
289.145	31.74
289.36	44.03
289.575	46.08
289.79	142.33
290.004	60.42
290.219	187.39
290.434	17.41
290.649	44.03
290.864	27.65
291.079	46.08
291.294	93.18
291.509	15.36
291.724	17.41
291.938	-35.84
292.153	27.65
292.368	58.37
292.583	1.02
292.798	80.89
293.012	97.28
293.227	117.76
293.442	15.36
293.657	72.7
293.871	25.6
294.086	132.09
294.301	89.09
294.516	175.1
294.73	66.56
294.945	15.36
295.16	62.46
295.374	109.57
295.589	70.65
295.804	95.23
296.018	21.5
296.233	121.85
296.447	50.18
296.662	44.03
296.877	54.27
297.091	62.46
297.306	29.7
297.52	54.27
297.735	87.04
297.949	37.89
298.164	64.51
298.378	27.65
298.593	5.12
298.807	23.55
299.022	41.98
299.236	76.8
299.451	29.7
299.665	37.89
299.88	56.32
300.094	23.55
300.309	27.65
300.523	37.89
300.737	21.5
300.952	27.65
301.166	41.98
301.381	58.37
301.595	89.09
301.809	46.08
302.024	76.8
302.238	37.89
302.452	87.04
302.667	76.8
302.881	109.57
303.095	37.89
303.309	64.51
303.524	76.8
303.738	7.17
303.952	13.31
304.166	99.33
304.381	21.5
304.595	68.61
304.809	29.7
305.023	136.19
305.237	9.22
305.452	52.22
305.666	93.18
305.88	105.47
306.094	72.7
306.308	82.94
306.522	39.94
306.736	60.42
306.95	95.23
307.164	11.26
307.379	78.85
307.593	128
307.807	82.94
308.021	119.81
308.235	44.03
308.449	44.03
308.663	19.46
308.877	80.89
309.091	44.03
309.305	101.37
309.519	60.42
309.733	29.7
309.947	35.84
310.161	97.28
310.374	31.74
310.588	91.13
310.802	109.57
311.016	95.23
311.23	125.95
311.444	5.12
311.658	140.29
311.872	132.09
312.085	-5.12
312.299	203.77
312.513	103.42
312.727	64.51
312.941	15.36
313.154	46.08
313.368	82.94
313.582	72.7
313.796	70.65
314.009	68.61
314.223	48.13
314.437	68.61
314.651	101.37
314.864	56.32
315.078	78.85
315.292	25.6
315.505	46.08
315.719	33.79
315.933	33.79
316.146	46.08
316.36	15.36
316.573	87.04
316.787	164.86
317.001	35.84
317.214	87.04
317.428	80.89
317.641	82.94
317.855	82.94
318.068	70.65
318.282	54.27
318.495	76.8
318.709	64.51
318.922	-7.17
319.136	97.28
319.349	41.98
319.563	13.31
319.776	70.65
319.99	21.5
320.203	80.89
320.417	97.28
320.63	-15.36
320.843	130.05
321.057	37.89
321.27	54.27
321.483	78.85
321.697	95.23
321.91	58.37
322.124	60.42
322.337	89.09
322.55	115.71
322.763	74.75
322.977	66.56
323.19	37.89
323.403	68.61
323.617	52.22
323.83	54.27
324.043	35.84
324.256	37.89
324.469	74.75
324.683	130.05
324.896	99.33
325.109	72.7
325.322	-13.31
325.535	56.32
325.748	41.98
325.962	58.37
326.175	33.79
326.388	48.13
326.601	74.75
326.814	13.31
327.027	56.32
327.24	29.7
327.453	44.03
327.666	123.9
327.879	109.57
328.092	84.99
328.305	74.75
328.518	78.85
328.731	35.84
328.944	58.37
329.157	125.95
329.37	15.36
329.583	72.7
329.796	33.79
330.009	33.79
330.222	7.17
330.435	37.89
330.648	105.47
330.861	89.09
331.073	64.51
331.286	99.33
331.499	97.28
331.712	70.65
331.925	80.89
332.138	68.61
332.35	48.13
332.563	74.75
332.776	113.66
332.989	58.37
333.202	76.8
333.414	27.65
333.627	89.09
333.84	41.98
334.053	29.7
334.265	39.94
334.478	19.46
334.691	66.56
334.903	44.03
335.116	68.61
335.329	23.55
335.541	62.46
335.754	128
335.966	109.57
336.179	62.46
336.392	56.32
336.604	66.56
336.817	50.18
337.029	117.76
337.242	9.22
337.454	103.42
337.667	97.28
337.88	107.52
338.092	48.13
338.305	80.89
338.517	76.8
338.729	31.74
338.942	72.7
339.154	101.37
339.367	19.46
339.579	101.37
339.792	97.28
340.004	80.89
340.217	52.22
340.429	74.75
340.641	93.18
340.854	-3.07
341.066	23.55
341.278	97.28
341.491	52.22
341.703	70.65
341.915	87.04
342.128	74.75
342.34	54.27
342.552	58.37
342.764	35.84
342.977	37.89
343.189	60.42
343.401	5.12
343.613	44.03
343.826	-7.17
344.038	5.12
344.25	87.04
344.462	19.46
344.674	25.6
344.886	117.76
345.099	-27.65
345.311	99.33
345.523	103.42
345.735	52.22
345.947	50.18
346.159	66.56
346.371	117.76
346.583	60.42
346.795	189.44
347.007	64.51
347.219	54.27
347.431	89.09
347.643	91.13
347.855	29.7
348.067	70.65
348.279	-27.65
348.491	1.02
348.703	99.33
348.915	31.74
349.127	50.18
349.339	107.52
349.551	99.33
349.763	121.85
349.975	41.98
350.187	84.99
350.399	68.61
350.61	70.65
350.822	132.09
351.034	78.85
351.246	41.98
351.458	121.85
351.669	44.03
351.881	99.33
352.093	52.22
352.305	140.29
352.517	105.47
352.728	115.71
352.94	82.94
353.152	-7.17
353.363	111.61
353.575	60.42
353.787	54.27
353.999	62.46
354.21	99.33
354.422	39.94
354.633	41.98
354.845	101.37
355.057	29.7
355.268	117.76
355.48	87.04
355.692	19.46
355.903	66.56
356.115	64.51
356.326	-25.6
356.538	89.09
356.749	132.09
356.961	123.9
357.172	105.47
357.384	138.24
357.595	109.57
357.807	99.33
358.018	13.31
358.23	95.23
358.441	107.52
358.653	152.57
358.864	41.98
359.075	82.94
359.287	107.52
359.498	89.09
359.709	84.99
359.921	25.6
360.132	148.48
360.344	93.18
360.555	76.8
360.766	99.33
360.977	99.33
361.189	48.13
361.4	54.27
361.611	115.71
361.823	58.37
362.034	13.31
362.245	44.03
362.456	125.95
362.667	105.47
362.879	72.7
363.09	111.61
363.301	95.23
363.512	48.13
363.723	33.79
363.935	56.32
364.146	99.33
364.357	70.65
364.568	84.99
364.779	41.98
364.99	115.71
365.201	119.81
365.412	115.71
365.623	105.47
365.834	109.57
366.045	-9.22
366.256	64.51
366.467	58.37
366.678	105.47
366.889	33.79
367.1	119.81
367.311	128
367.522	89.09
367.733	119.81
367.944	72.7
368.155	27.65
368.366	76.8
368.577	52.22
368.788	119.81
368.999	84.99
369.209	58.37
369.42	140.29
369.631	226.3
369.842	125.95
370.053	105.47
370.264	99.33
370.474	101.37
370.685	109.57
370.896	152.57
371.107	101.37
371.317	89.09
371.528	97.28
371.739	138.24
371.95	31.74
372.16	31.74
372.371	68.61
372.582	74.75
372.792	146.43
373.003	177.15
373.214	58.37
373.424	113.66
373.635	109.57
373.846	125.95
374.056	87.04
374.267	68.61
374.477	87.04
374.688	64.51
374.898	91.13
375.109	27.65
375.319	27.65
375.53	111.61
375.74	66.56
375.951	64.51
376.161	54.27
376.372	99.33
376.582	70.65
376.793	37.89
377.003	89.09
377.214	99.33
377.424	93.18
377.635	80.89
377.845	138.24
378.055	148.48
378.266	23.55
378.476	72.7
378.686	138.24
378.897	5.12
379.107	113.66
379.317	11.26
379.528	158.72
379.738	64.51
379.948	56.32
380.158	68.61
380.369	171.01
380.579	111.61
380.789	62.46
380.999	41.98
381.21	136.19
381.42	107.52
381.63	70.65
381.84	58.37
382.05	128
382.261	121.85
382.471	97.28
382.681	125.95
382.891	87.04
383.101	44.03
383.311	64.51
383.521	58.37
383.731	105.47
383.941	64.51
384.151	119.81
384.361	84.99
384.571	132.09
384.781	54.27
384.991	142.33
385.201	228.35
385.411	132.09
385.621	56.32
385.831	119.81
386.041	168.96
386.251	107.52
386.461	78.85
386.671	101.37
386.881	128
387.091	48.13
387.301	162.81
387.511	82.94
387.72	140.29
387.93	136.19
388.14	128
388.35	68.61
388.56	97.28
388.769	78.85
388.979	60.42
389.189	89.09
389.399	138.24
389.609	52.22
389.818	91.13
390.028	150.53
390.238	105.47
390.447	60.42
390.657	93.18
390.867	70.65
391.076	93.18
391.286	132.09
391.496	66.56
391.705	173.05
391.915	152.57
392.125	160.77
392.334	119.81
392.544	128
392.753	103.42
392.963	109.57
393.172	123.9
393.382	54.27
393.591	168.96
393.801	82.94
394.01	140.29
394.22	150.53
394.429	109.57
394.639	132.09
394.848	140.29
395.058	150.53
395.267	119.81
395.477	125.95
395.686	37.89
395.895	132.09
396.105	160.77
396.314	152.57
396.524	152.57
396.733	138.24
396.942	211.96
397.152	209.92
397.361	156.67
397.57	171.01
397.78	168.96
397.989	72.7
398.198	197.63
398.407	236.54
398.617	74.75
398.826	152.57
399.035	125.95
399.244	177.15
399.453	179.2
399.663	134.14
399.872	62.46
400.081	187.39
400.29	189.44
400.499	132.09
400.708	226.3
400.917	134.14
401.127	166.91
401.336	181.25
401.545	250.88
401.754	242.68
401.963	146.43
402.172	214.01
402.381	216.06
402.59	195.58
402.799	146.43
403.008	179.2
403.217	99.33
403.426	216.06
403.635	125.95
403.844	171.01
404.053	232.44
404.262	234.49
404.471	220.16
404.68	277.5
404.888	273.4
405.097	211.96
405.306	248.83
405.515	211.96
405.724	195.58
405.933	308.22
406.142	195.58
406.35	414.71
406.559	283.64
406.768	345.08
406.977	310.27
407.185	320.51
407.394	289.79
407.603	220.16
407.812	334.84
408.02	365.56
408.229	338.94
408.438	326.65
408.646	277.5
408.855	334.84
409.064	451.58
409.272	386.04
409.481	406.52
409.69	416.76
409.898	379.9
410.107	404.47
410.315	494.58
410.524	480.25
410.733	474.1
410.941	470.01
411.15	519.16
411.358	582.65
411.567	621.56
411.775	562.17
411.984	578.55
412.192	615.41
412.401	623.61
412.609	683
412.818	742.39
413.026	633.85
413.234	670.71
413.443	785.4
413.651	807.92
413.86	855.03
414.068	914.42
414.276	865.27
414.485	906.23
414.693	973.81
414.901	1004.53
415.11	1076.21
415.318	1002.48
415.526	1065.97
415.734	1121.26
415.943	1203.18
416.151	1299.44
416.359	1201.13
416.567	1160.17
416.776	1367.02
416.984	1362.92
417.192	1485.8
417.4	1457.13
417.608	1420.27
417.817	1457.13
418.025	1584.1
418.233	1788.9
418.441	1731.56
418.649	1694.69
418.857	1786.85
419.065	1833.96
419.273	1985.51
419.481	1872.87
419.689	2141.15
419.897	2229.21
420.105	2233.31
420.313	2135.01
420.521	2415.58
420.729	2417.63
420.937	2634.71
421.145	2585.56
421.353	2675.67
421.561	2769.88
421.769	2841.56
421.977	3029.97
422.185	3027.92
422.393	3029.97
422.601	3396.56
422.809	3335.12
423.017	3501
423.224	3437.52
423.432	3539.91
423.64	3627.98
423.848	4084.67
424.056	3869.64
424.263	4209.6
424.471	4225.98
424.679	4146.11
424.887	4565.95
425.094	4688.82
425.302	4723.64
425.51	4752.31
425.718	4942.77
425.925	4942.77
426.133	5217.2
426.341	5477.29
426.548	5692.33
426.756	5845.93
426.964	5874.6
427.171	6142.88
427.379	6488.99
427.586	6486.94
427.794	6661.02
428.001	6943.64
428.209	7349.14
428.417	7103.38
428.624	7535.5
428.832	7650.19
429.039	7705.48
429.247	7549.84
429.454	8096.64
429.662	8862.58
429.869	8229.76
430.076	8858.49
430.284	8610.68
430.491	9272.18
430.699	9456.5
430.906	9419.63
431.114	9689.96
431.321	10201.96
431.528	10244.96
431.736	10885.98
431.943	11404.11
432.15	11025.24
432.358	11328.34
432.565	11746.12
432.772	11576.14
432.979	12534.59
433.187	12555.07
433.394	12620.61
433.601	13431.6
433.808	13656.88
434.016	13396.79
434.223	14097.19
434.43	14707.49
434.637	14578.47
434.844	15362.84
435.052	15702.8
435.259	15686.42
435.466	15672.08
435.673	16040.72
435.88	16728.83
436.087	17795.82
436.294	17773.3
436.501	17257.21
436.708	17357.56
436.915	18203.37
437.122	18623.2
437.329	18692.83
437.537	19344.09
437.743	19595.99
437.95	19845.84
438.157	20548.29
438.364	21576.37
438.571	21310.14
438.778	21379.77
438.985	23315.1
439.192	22346.41
439.399	23321.24
439.606	22737.57
439.813	23712.41
440.02	25375.36
440.227	24820.36
440.433	24844.93
440.64	25877.11
440.847	24994.43
441.054	25789.05
441.261	27523.68
441.467	27296.35
441.674	28113.49
441.881	28764.75
442.088	28899.91
442.294	28918.34
442.501	29487.68
442.708	30145.08
442.914	31070.76
443.121	32649.74
443.328	31388.19
443.534	33923.58
443.741	32762.38
443.948	32436.75
444.154	34865.64
444.361	34398.71
444.568	34511.35
444.774	34888.17
444.981	35090.92
445.187	36090.33
445.394	37548.48
445.6	37253.58
445.807	40741.27
446.013	39246.25
446.22	39776.67
446.426	41460.1
446.633	41384.33
446.839	43016.56
447.046	41286.03
447.252	43600.23
447.459	43917.67
447.665	43766.12
447.871	45420.87
448.078	47196.46
448.284	45150.54
448.491	46158.14
448.697	47984.93
448.903	48689.43
449.11	48982.29
449.316	48277.79
449.522	48582.94
449.728	50350.34
449.935	50596.09
450.141	50538.75
450.347	51439.86
450.553	50055.43
450.76	50647.29
450.966	52021.48
451.172	51716.33
451.378	53223.64
451.584	51804.39
451.791	53035.22
451.997	52818.14
452.203	54454.47
452.409	54001.86
452.615	53854.41
452.821	51454.19
453.027	51351.79
453.233	53790.92
453.44	51697.9
453.646	52482.27
453.852	52580.57
454.058	53426.38
454.264	52330.72
454.47	52797.66
454.676	51259.63
454.882	53657.81
455.088	48924.95
455.294	49948.93
455.5	50481.41
455.705	51015.93
455.911	48910.61
456.117	47853.86
456.323	47360.3
456.529	45033.81
456.735	47247.66
456.941	45709.64
457.147	44548.44
457.352	43618.66
457.558	43086.19
457.764	43526.5
457.97	42303.87
458.176	41494.92
458.381	41425.29
458.587	39772.58
458.793	39426.47
458.999	37341.64
459.204	40090.01
459.41	39227.82
459.616	36651.47
459.821	36567.51
460.027	36684.24
460.233	35731.93
460.438	34167.29
460.644	34130.42
460.85	32702.99
461.055	32137.75
461.261	32178.71
461.466	29567.55
461.672	28793.42
461.878	31345.19
462.083	28635.72
462.289	28088.92
462.494	28039.76
462.7	26958.44
462.905	26225.26
463.111	27091.55
463.316	27071.07
463.522	26554.99
463.727	26577.51
463.932	26585.71
464.138	26557.03
464.343	26385.01
464.549	25514.62
464.754	26706.54
464.959	26200.69
465.165	25938.55
465.37	25223.81
465.575	24275.6
465.781	25496.19
465.986	25303.68
466.191	24523.4
