Data from USB4F104151__20__12-41-04-736.txt Node

Date: Fri Mar 14 12:41:04 EDT 2025
User: louis
Spectrometer: USB4F10415
Trigger mode: 4
Integration Time (sec): 3.000000E-2
Scans to average: 1
Electric dark correction enabled: true
Nonlinearity correction enabled: false
Boxcar width: 0
XAxis mode: Wavelengths
Number of Pixels in Spectrum: 3648
>>>>>Begin Spectral Data<<<<<
178.204	-144.04
178.424	-144.04
178.644	-144.04
178.864	-197.29
179.084	-96.94
179.304	-0.68
179.524	-4.78
179.744	9.56
179.964	7.51
180.184	-15.02
180.404	-21.16
180.624	9.56
180.844	-47.79
181.064	-12.97
181.283	11.61
181.503	1.37
181.723	62.8
181.943	-19.11
182.163	118.1
182.383	64.85
182.602	27.99
182.822	58.71
183.042	23.89
183.262	52.56
183.482	30.04
183.701	9.56
183.921	15.7
184.141	7.51
184.361	81.24
184.58	87.38
184.8	56.66
185.02	66.9
185.239	46.42
185.459	73.04
185.679	109.91
185.898	32.08
186.118	27.99
186.338	9.56
186.557	85.33
186.777	-10.92
186.997	68.95
187.216	56.66
187.436	120.15
187.655	64.85
187.875	64.85
188.095	50.52
188.314	66.9
188.534	27.99
188.753	46.42
188.973	-6.83
189.192	56.66
189.412	50.52
189.631	64.85
189.851	5.46
190.07	93.52
190.29	25.94
190.509	-49.83
190.729	83.28
190.948	83.28
191.168	128.34
191.387	81.24
191.607	48.47
191.826	46.42
192.045	60.76
192.265	36.18
192.484	25.94
192.704	23.89
192.923	23.89
193.142	32.08
193.362	50.52
193.581	85.33
193.8	71
194.02	134.48
194.239	23.89
194.458	11.61
194.678	77.14
194.897	36.18
195.116	34.13
195.335	87.38
195.555	19.8
195.774	64.85
195.993	75.09
196.212	30.04
196.432	79.19
196.651	42.32
196.87	38.23
197.089	79.19
197.308	62.8
197.528	101.72
197.747	44.37
197.966	103.76
198.185	1.37
198.404	48.47
198.623	56.66
198.842	62.8
199.062	58.71
199.281	99.67
199.5	-31.4
199.719	60.76
199.938	146.77
200.157	19.8
200.376	27.99
200.595	68.95
200.814	19.8
201.033	83.28
201.252	50.52
201.471	34.13
201.69	15.7
201.909	-43.69
202.128	71
202.347	3.41
202.566	11.61
202.785	71
203.004	34.13
203.223	124.24
203.442	60.76
203.661	25.94
203.879	5.46
204.098	5.46
204.317	-4.78
204.536	66.9
204.755	36.18
204.974	-6.83
205.193	42.32
205.411	157.01
205.63	19.8
205.849	58.71
206.068	32.08
206.287	25.94
206.505	60.76
206.724	42.32
206.943	44.37
207.162	-21.16
207.381	62.8
207.599	36.18
207.818	17.75
208.037	13.65
208.255	-19.11
208.474	44.37
208.693	-19.11
208.911	111.96
209.13	52.56
209.349	40.28
209.567	79.19
209.786	62.8
210.005	79.19
210.223	54.61
210.442	-6.83
210.661	60.76
210.879	40.28
211.098	87.38
211.316	30.04
211.535	48.47
211.753	-4.78
211.972	27.99
212.191	54.61
212.409	-23.21
212.628	30.04
212.846	85.33
213.065	87.38
213.283	122.2
213.502	-0.68
213.72	60.76
213.938	60.76
214.157	-0.68
214.375	60.76
214.594	71
214.812	62.8
215.031	56.66
215.249	30.04
215.467	7.51
215.686	105.81
215.904	56.66
216.122	71
216.341	30.04
216.559	52.56
216.778	73.04
216.996	85.33
217.214	44.37
217.432	19.8
217.651	11.61
217.869	77.14
218.087	56.66
218.306	7.51
218.524	-43.69
218.742	5.46
218.96	50.52
219.179	140.63
219.397	62.8
219.615	157.01
219.833	-49.83
220.051	58.71
220.27	62.8
220.488	120.15
220.706	23.89
220.924	42.32
221.142	103.76
221.36	19.8
221.578	75.09
221.796	36.18
222.015	66.9
222.233	73.04
222.451	64.85
222.669	73.04
222.887	71
223.105	15.7
223.323	64.85
223.541	42.32
223.759	87.38
223.977	62.8
224.195	77.14
224.413	71
224.631	-33.45
224.849	23.89
225.067	62.8
225.285	-19.11
225.503	81.24
225.721	-6.83
225.939	71
226.157	66.9
226.375	177.49
226.592	11.61
226.81	17.75
227.028	52.56
227.246	17.75
227.464	97.62
227.682	83.28
227.9	-27.31
228.117	54.61
228.335	73.04
228.553	62.8
228.771	116.05
228.989	-45.74
229.206	50.52
229.424	56.66
229.642	-17.07
229.86	52.56
230.077	68.95
230.295	58.71
230.513	32.08
230.731	75.09
230.948	-2.73
231.166	81.24
231.384	56.66
231.601	60.76
231.819	111.96
232.037	32.08
232.254	-10.92
232.472	7.51
232.689	52.56
232.907	7.51
233.125	52.56
233.342	73.04
233.56	25.94
233.777	64.85
233.995	-37.55
234.213	64.85
234.43	44.37
234.648	48.47
234.865	3.41
235.083	68.95
235.3	-19.11
235.518	40.28
235.735	50.52
235.953	116.05
236.17	89.43
236.388	68.95
236.605	91.48
236.822	9.56
237.04	48.47
237.257	81.24
237.475	-4.78
237.692	64.85
237.909	171.35
238.127	-17.07
238.344	46.42
238.562	21.85
238.779	58.71
238.996	48.47
239.214	38.23
239.431	50.52
239.648	11.61
239.865	107.86
240.083	23.89
240.3	-0.68
240.517	30.04
240.735	25.94
240.952	21.85
241.169	120.15
241.386	103.76
241.603	34.13
241.821	30.04
242.038	30.04
242.255	66.9
242.472	17.75
242.689	48.47
242.907	73.04
243.124	36.18
243.341	21.85
243.558	-31.4
243.775	21.85
243.992	50.52
244.209	27.99
244.426	54.61
244.643	13.65
244.86	-2.73
245.078	81.24
245.295	99.67
245.512	91.48
245.729	9.56
245.946	21.85
246.163	30.04
246.38	30.04
246.597	25.94
246.814	32.08
247.031	93.52
247.248	56.66
247.464	34.13
247.681	15.7
247.898	-55.98
248.115	15.7
248.332	-37.55
248.549	77.14
248.766	91.48
248.983	68.95
249.2	83.28
249.417	66.9
249.633	-25.26
249.85	17.75
250.067	15.7
250.284	56.66
250.501	111.96
250.717	114
250.934	-17.07
251.151	-29.35
251.368	-33.45
251.585	-2.73
251.801	85.33
252.018	30.04
252.235	101.72
252.451	32.08
252.668	1.37
252.885	5.46
253.102	73.04
253.318	-23.21
253.535	-19.11
253.752	23.89
253.968	30.04
254.185	-6.83
254.401	34.13
254.618	7.51
254.835	44.37
255.051	111.96
255.268	44.37
255.484	11.61
255.701	30.04
255.917	116.05
256.134	38.23
256.351	11.61
256.567	60.76
256.784	17.75
257	38.23
257.217	99.67
257.433	34.13
257.65	64.85
257.866	50.52
258.082	11.61
258.299	-43.69
258.515	42.32
258.732	46.42
258.948	50.52
259.165	66.9
259.381	-64.17
259.597	77.14
259.814	58.71
260.03	71
260.246	40.28
260.463	66.9
260.679	75.09
260.895	23.89
261.112	15.7
261.328	32.08
261.544	-4.78
261.761	79.19
261.977	13.65
262.193	32.08
262.409	64.85
262.626	-6.83
262.842	52.56
263.058	17.75
263.274	87.38
263.49	36.18
263.707	128.34
263.923	87.38
264.139	5.46
264.355	9.56
264.571	93.52
264.787	-19.11
265.004	21.85
265.22	52.56
265.436	3.41
265.652	9.56
265.868	5.46
266.084	-27.31
266.3	40.28
266.516	-43.69
266.732	54.61
266.948	30.04
267.164	-2.73
267.38	58.71
267.596	42.32
267.812	187.73
268.028	73.04
268.244	-8.87
268.46	87.38
268.676	62.8
268.892	89.43
269.108	58.71
269.324	23.89
269.54	7.51
269.756	34.13
269.972	21.85
270.188	3.41
270.403	-2.73
270.619	36.18
270.835	-4.78
271.051	66.9
271.267	-58.03
271.483	71
271.698	-2.73
271.914	62.8
272.13	89.43
272.346	87.38
272.562	101.72
272.777	3.41
272.993	38.23
273.209	25.94
273.425	87.38
273.64	30.04
273.856	93.52
274.072	66.9
274.287	11.61
274.503	23.89
274.719	15.7
274.934	56.66
275.15	-74.41
275.366	46.42
275.581	21.85
275.797	3.41
276.012	36.18
276.228	87.38
276.444	17.75
276.659	87.38
276.875	15.7
277.09	-8.87
277.306	56.66
277.521	-2.73
277.737	-17.07
277.952	71
278.168	3.41
278.383	-41.64
278.599	-10.92
278.814	89.43
279.03	93.52
279.245	134.48
279.461	-0.68
279.676	56.66
279.892	27.99
280.107	-33.45
280.322	-37.55
280.538	68.95
280.753	-12.97
280.969	15.7
281.184	42.32
281.399	114
281.615	87.38
281.83	130.39
282.045	9.56
282.26	83.28
282.476	32.08
282.691	68.95
282.906	116.05
283.122	-21.16
283.337	79.19
283.552	11.61
283.767	107.86
283.983	11.61
284.198	60.76
284.413	165.2
284.628	30.04
284.843	15.7
285.058	52.56
285.274	62.8
285.489	34.13
285.704	97.62
285.919	122.2
286.134	81.24
286.349	5.46
286.564	60.76
286.779	68.95
286.995	71
287.21	103.76
287.425	68.95
287.64	32.08
287.855	32.08
288.07	7.51
288.285	116.05
288.5	42.32
288.715	3.41
288.93	48.47
289.145	7.51
289.36	-4.78
289.575	-35.5
289.79	97.62
290.004	34.13
290.219	120.15
290.434	11.61
290.649	-10.92
290.864	48.47
291.079	-0.68
291.294	73.04
291.509	54.61
291.724	103.76
291.938	7.51
292.153	66.9
292.368	-43.69
292.583	99.67
292.798	21.85
293.012	97.62
293.227	40.28
293.442	79.19
293.657	38.23
293.871	77.14
294.086	9.56
294.301	71
294.516	64.85
294.73	60.76
294.945	25.94
295.16	32.08
295.374	122.2
295.589	9.56
295.804	27.99
296.018	91.48
296.233	17.75
296.447	81.24
296.662	-21.16
296.877	9.56
297.091	36.18
297.306	13.65
297.52	9.56
297.735	120.15
297.949	126.29
298.164	42.32
298.378	3.41
298.593	54.61
298.807	30.04
299.022	62.8
299.236	46.42
299.451	-6.83
299.665	58.71
299.88	7.51
300.094	60.76
300.309	-17.07
300.523	1.37
300.737	46.42
300.952	140.63
301.166	38.23
301.381	-35.5
301.595	52.56
301.809	11.61
302.024	-4.78
302.238	32.08
302.452	105.81
302.667	71
302.881	103.76
303.095	71
303.309	81.24
303.524	-17.07
303.738	36.18
303.952	56.66
304.166	95.57
304.381	3.41
304.595	56.66
304.809	-41.64
305.023	17.75
305.237	58.71
305.452	30.04
305.666	7.51
305.88	40.28
306.094	-8.87
306.308	42.32
306.522	52.56
306.736	68.95
306.95	75.09
307.164	19.8
307.379	30.04
307.593	62.8
307.807	68.95
308.021	85.33
308.235	-39.59
308.449	30.04
308.663	93.52
308.877	130.39
309.091	-33.45
309.305	105.81
309.519	-6.83
309.733	40.28
309.947	7.51
310.161	103.76
310.374	146.77
310.588	93.52
310.802	32.08
311.016	34.13
311.23	30.04
311.444	46.42
311.658	40.28
311.872	116.05
312.085	107.86
312.299	75.09
312.513	68.95
312.727	132.44
312.941	11.61
313.154	42.32
313.368	77.14
313.582	71
313.796	54.61
314.009	23.89
314.223	81.24
314.437	107.86
314.651	19.8
314.864	103.76
315.078	-15.02
315.292	46.42
315.505	15.7
315.719	97.62
315.933	40.28
316.146	93.52
316.36	52.56
316.573	42.32
316.787	77.14
317.001	114
317.214	-17.07
317.428	-8.87
317.641	71
317.855	73.04
318.068	71
318.282	56.66
318.495	87.38
318.709	97.62
318.922	38.23
319.136	38.23
319.349	97.62
319.563	13.65
319.776	52.56
319.99	40.28
320.203	48.47
320.417	105.81
320.63	38.23
320.843	50.52
321.057	46.42
321.27	15.7
321.483	13.65
321.697	-0.68
321.91	48.47
322.124	105.81
322.337	95.57
322.55	25.94
322.763	48.47
322.977	77.14
323.19	7.51
323.403	-17.07
323.617	56.66
323.83	50.52
324.043	36.18
324.256	126.29
324.469	81.24
324.683	73.04
324.896	62.8
325.109	95.57
325.322	34.13
325.535	71
325.748	66.9
325.962	30.04
326.175	48.47
326.388	111.96
326.601	81.24
326.814	56.66
327.027	66.9
327.24	68.95
327.453	13.65
327.666	25.94
327.879	79.19
328.092	107.86
328.305	-19.11
328.518	60.76
328.731	77.14
328.944	93.52
329.157	40.28
329.37	34.13
329.583	79.19
329.796	62.8
330.009	-31.4
330.222	103.76
330.435	32.08
330.648	-25.26
330.861	-29.35
331.073	95.57
331.286	83.28
331.499	48.47
331.712	75.09
331.925	9.56
332.138	27.99
332.35	68.95
332.563	23.89
332.776	154.96
332.989	11.61
333.202	87.38
333.414	89.43
333.627	73.04
333.84	144.72
334.053	52.56
334.265	21.85
334.478	15.7
334.691	79.19
334.903	50.52
335.116	-62.12
335.329	1.37
335.541	105.81
335.754	81.24
335.966	52.56
336.179	73.04
336.392	87.38
336.604	13.65
336.817	34.13
337.029	161.11
337.242	-0.68
337.454	52.56
337.667	66.9
337.88	52.56
338.092	81.24
338.305	46.42
338.517	34.13
338.729	25.94
338.942	91.48
339.154	89.43
339.367	30.04
339.579	68.95
339.792	17.75
340.004	81.24
340.217	5.46
340.429	83.28
340.641	34.13
340.854	30.04
341.066	7.51
341.278	56.66
341.491	5.46
341.703	132.44
341.915	5.46
342.128	71
342.34	81.24
342.552	1.37
342.764	34.13
342.977	66.9
343.189	13.65
343.401	13.65
343.613	56.66
343.826	79.19
344.038	-27.31
344.25	27.99
344.462	7.51
344.674	126.29
344.886	71
345.099	71
345.311	83.28
345.523	89.43
345.735	9.56
345.947	68.95
346.159	40.28
346.371	71
346.583	21.85
346.795	167.25
347.007	30.04
347.219	32.08
347.431	58.71
347.643	171.35
347.855	-21.16
348.067	107.86
348.279	101.72
348.491	46.42
348.703	97.62
348.915	11.61
349.127	-4.78
349.339	52.56
349.551	21.85
349.763	56.66
349.975	68.95
350.187	91.48
350.399	42.32
350.61	68.95
350.822	-39.59
351.034	54.61
351.246	60.76
351.458	1.37
351.669	46.42
351.881	56.66
352.093	89.43
352.305	111.96
352.517	9.56
352.728	73.04
352.94	64.85
353.152	75.09
353.363	32.08
353.575	134.48
353.787	136.53
353.999	-17.07
354.21	140.63
354.422	75.09
354.633	91.48
354.845	30.04
355.057	-4.78
355.268	105.81
355.48	79.19
355.692	13.65
355.903	9.56
356.115	-31.4
356.326	56.66
356.538	120.15
356.749	87.38
356.961	87.38
357.172	60.76
357.384	9.56
357.595	150.87
357.807	27.99
358.018	62.8
358.23	75.09
358.441	89.43
358.653	58.71
358.864	21.85
359.075	95.57
359.287	89.43
359.498	25.94
359.709	42.32
359.921	71
360.132	-23.21
360.344	52.56
360.555	3.41
360.766	73.04
360.977	46.42
361.189	187.73
361.4	87.38
361.611	50.52
361.823	103.76
362.034	3.41
362.245	52.56
362.456	-35.5
362.667	111.96
362.879	17.75
363.09	58.71
363.301	36.18
363.512	50.52
363.723	58.71
363.935	58.71
364.146	103.76
364.357	60.76
364.568	58.71
364.779	25.94
364.99	23.89
365.201	42.32
365.412	54.61
365.623	13.65
365.834	40.28
366.045	42.32
366.256	109.91
366.467	114
366.678	73.04
366.889	9.56
367.1	9.56
367.311	91.48
367.522	38.23
367.733	52.56
367.944	132.44
368.155	-23.21
368.366	79.19
368.577	48.47
368.788	23.89
368.999	3.41
369.209	79.19
369.42	54.61
369.631	175.44
369.842	58.71
370.053	54.61
370.264	71
370.474	-66.22
370.685	66.9
370.896	19.8
371.107	83.28
371.317	71
371.528	44.37
371.739	48.47
371.95	60.76
372.16	114
372.371	48.47
372.582	71
372.792	85.33
373.003	111.96
373.214	99.67
373.424	30.04
373.635	89.43
373.846	105.81
374.056	85.33
374.267	107.86
374.477	66.9
374.688	23.89
374.898	68.95
375.109	85.33
375.319	56.66
375.53	62.8
375.74	103.76
375.951	17.75
376.161	134.48
376.372	107.86
376.582	7.51
376.793	73.04
377.003	32.08
377.214	25.94
377.424	91.48
377.635	73.04
377.845	71
378.055	62.8
378.266	42.32
378.476	1.37
378.686	95.57
378.897	60.76
379.107	62.8
379.317	-10.92
379.528	81.24
379.738	32.08
379.948	30.04
380.158	116.05
380.369	42.32
380.579	54.61
380.789	40.28
380.999	73.04
381.21	30.04
381.42	177.49
381.63	97.62
381.84	79.19
382.05	1.37
382.261	165.2
382.471	42.32
382.681	23.89
382.891	77.14
383.101	95.57
383.311	73.04
383.521	38.23
383.731	89.43
383.941	161.11
384.151	126.29
384.361	81.24
384.571	116.05
384.781	79.19
384.991	77.14
385.201	154.96
385.411	105.81
385.621	40.28
385.831	97.62
386.041	81.24
386.251	79.19
386.461	97.62
386.671	23.89
386.881	46.42
387.091	62.8
387.301	68.95
387.511	107.86
387.72	126.29
387.93	132.44
388.14	13.65
388.35	48.47
388.56	109.91
388.769	81.24
388.979	132.44
389.189	50.52
389.399	50.52
389.609	68.95
389.818	46.42
390.028	109.91
390.238	25.94
390.447	68.95
390.657	183.63
390.867	11.61
391.076	23.89
391.286	122.2
391.496	79.19
391.705	79.19
391.915	130.39
392.125	120.15
392.334	101.72
392.544	91.48
392.753	64.85
392.963	52.56
393.172	81.24
393.382	-23.21
393.591	124.24
393.801	62.8
394.01	107.86
394.22	68.95
394.429	128.34
394.639	79.19
394.848	124.24
395.058	122.2
395.267	79.19
395.477	48.47
395.686	132.44
395.895	89.43
396.105	103.76
396.314	83.28
396.524	25.94
396.733	-23.21
396.942	150.87
397.152	126.29
397.361	154.96
397.57	111.96
397.78	83.28
397.989	71
398.198	114
398.407	118.1
398.617	103.76
398.826	140.63
399.035	71
399.244	77.14
399.453	87.38
399.663	50.52
399.872	126.29
400.081	73.04
400.29	93.52
400.499	105.81
400.708	185.68
400.917	120.15
401.127	105.81
401.336	91.48
401.545	150.87
401.754	93.52
401.963	111.96
402.172	66.9
402.381	99.67
402.59	148.82
402.799	101.72
403.008	138.58
403.217	163.15
403.426	56.66
403.635	91.48
403.844	87.38
404.053	163.15
404.262	165.2
404.471	152.91
404.68	169.3
404.888	114
405.097	114
405.306	126.29
405.515	179.54
405.724	236.88
405.933	122.2
406.142	118.1
406.35	193.87
406.559	187.73
406.768	218.45
406.977	212.31
407.185	171.35
407.394	249.17
407.603	193.87
407.812	197.97
408.02	281.94
408.229	259.41
408.438	261.46
408.646	236.88
408.855	226.64
409.064	257.36
409.272	232.79
409.481	230.74
409.69	382.29
409.898	298.32
410.107	314.7
410.315	271.7
410.524	271.7
410.733	343.38
410.941	292.18
411.15	363.86
411.358	372.05
411.567	429.39
411.775	312.66
411.984	367.95
412.192	449.87
412.401	392.53
412.609	476.49
412.818	515.41
413.026	488.78
413.234	437.58
413.443	456.01
413.651	521.55
413.86	591.18
414.068	640.33
414.276	613.71
414.485	509.26
414.693	640.33
414.901	728.39
415.11	687.43
415.318	687.43
415.526	623.95
415.734	699.72
415.943	789.83
416.151	734.54
416.359	724.3
416.567	736.59
416.776	781.64
416.984	925
417.192	914.76
417.4	970.05
417.608	972.1
417.817	1006.92
418.025	1099.08
418.233	1056.07
418.441	1088.84
418.649	1111.36
418.857	1232.19
419.065	1195.33
419.273	1248.58
419.481	1230.15
419.689	1275.2
419.897	1402.18
420.105	1418.56
420.313	1543.49
420.521	1379.65
420.729	1586.49
420.937	1555.77
421.145	1639.74
421.353	1654.08
421.561	1879.35
421.769	1834.3
421.977	1889.59
422.185	1981.75
422.393	2002.23
422.601	2180.4
422.809	2202.93
423.017	2170.16
423.224	2196.79
423.432	2247.99
423.64	2233.65
423.848	2649.39
424.056	2436.4
424.263	2573.61
424.471	2657.58
424.679	2749.74
424.887	2757.93
425.094	2864.43
425.302	2921.77
425.51	2958.63
425.718	3108.13
425.925	3048.74
426.133	3284.26
426.341	3431.71
426.548	3581.21
426.756	3685.66
426.964	3751.2
427.171	3839.26
427.379	3923.23
427.586	3951.9
427.794	4029.72
428.001	4384.02
428.209	4668.69
428.417	4381.97
428.624	4842.76
428.832	4830.48
429.039	4783.37
429.247	4838.67
429.454	5268.74
429.662	5664
429.869	5344.52
430.076	5766.4
430.284	5424.39
430.491	5700.86
430.699	5940.47
430.906	6032.63
431.114	6096.12
431.321	6247.67
431.528	6491.38
431.736	6743.28
431.943	7228.65
432.15	6923.5
432.358	7038.19
432.565	7314.66
432.772	7441.64
432.979	7763.17
433.187	7972.06
433.394	7953.63
433.601	8598.74
433.808	8531.16
434.016	8348.89
434.223	8678.61
434.43	9137.35
434.637	9104.59
434.844	9780.42
435.052	9802.94
435.259	9882.81
435.466	9950.4
435.673	9878.72
435.88	10642.61
436.087	11048.11
436.294	11031.73
436.501	10960.05
436.708	10988.72
436.915	11353.26
437.122	11963.55
437.329	11736.23
437.537	12244.12
437.743	12397.72
437.95	12299.42
438.157	12870.8
438.364	13524.1
438.571	13464.71
438.778	13515.91
438.985	14939.25
439.192	14169.21
439.399	14363.77
439.606	14292.09
439.813	15228.01
440.02	15975.52
440.227	15582.31
440.433	15645.8
440.64	16000.1
440.847	16012.38
441.054	16206.94
441.261	17282.13
441.467	17521.74
441.674	17624.14
441.881	18129.98
442.088	18437.18
442.294	18242.62
442.501	18455.61
442.708	18949.17
442.914	19594.28
443.121	20708.38
443.328	20184.1
443.534	21191.7
443.741	20544.54
443.948	20417.57
444.154	21865.48
444.361	21959.69
444.568	22035.46
444.774	21996.55
444.981	22236.16
445.187	22957.05
445.394	23895.02
445.6	23354.35
445.807	25842.63
446.013	24593.37
446.22	25109.46
446.426	26149.83
446.633	26282.95
446.839	27229.11
447.046	26121.16
447.252	27820.97
447.459	27753.39
447.665	27358.13
447.871	29033.37
448.078	29903.76
448.284	28550.05
448.491	29442.96
448.697	30069.64
448.903	30634.88
449.11	30815.1
449.316	30858.11
449.522	31007.61
449.728	32308.07
449.935	32457.57
450.141	32031.6
450.347	32828.26
450.553	31615.86
450.76	32643.94
450.966	33444.69
451.172	32756.58
451.378	33989.45
451.584	33182.55
451.791	34343.75
451.997	33739.6
452.203	34542.41
452.409	34507.59
452.615	34179.92
452.821	32975.71
453.027	32688.99
453.233	33956.69
453.44	32932.7
453.646	33180.51
453.852	33600.34
454.058	34110.28
454.264	32901.98
454.47	33833.81
454.676	32654.18
454.882	34181.96
455.088	30921.6
455.294	31781.74
455.5	32115.56
455.705	32189.29
455.911	30770.05
456.117	30374.79
456.323	30133.13
456.529	28496.8
456.735	29862.8
456.941	28844.96
457.147	28246.95
457.352	27364.28
457.558	27095.99
457.764	27421.62
457.97	26661.82
458.176	25789.39
458.381	26274.76
458.587	24878.04
458.793	24894.43
458.999	23190.52
459.204	25203.67
459.41	24556.51
459.616	22977.53
459.821	23170.04
460.027	23016.44
460.233	22465.53
460.438	21603.34
460.644	21341.2
460.85	20309.02
461.055	20157.47
461.261	20044.84
461.466	18631.74
461.672	18168.9
461.878	19344.43
462.083	18105.41
462.289	17761.35
462.494	17636.42
462.7	16987.22
462.905	16315.48
463.111	16878.68
463.316	17044.56
463.522	16454.75
463.727	16774.23
463.932	16807
464.138	16499.8
464.343	16499.8
464.549	16114.78
464.754	16694.36
464.959	16409.69
465.165	16288.86
465.37	15670.37
465.575	15344.75
465.781	16014.43
465.986	15963.23
466.191	15492.2
466.397	15156.33
466.602	14500.98
466.807	15035.5
467.012	15101.04
467.218	14828.66
467.423	14644.34
467.628	14627.96
467.833	15318.12
468.038	14824.56
468.244	14550.14
468.449	14984.3
468.654	14392.44
468.859	14206.08
