Data from USB4F104151__47__12-41-38-782.txt Node

Date: Fri Mar 14 12:41:38 EDT 2025
User: louis
Spectrometer: USB4F10415
Trigger mode: 4
Integration Time (sec): 3.000000E-2
Scans to average: 1
Electric dark correction enabled: true
Nonlinearity correction enabled: false
Boxcar width: 0
XAxis mode: Wavelengths
Number of Pixels in Spectrum: 3648
>>>>>Begin Spectral Data<<<<<
178.204	-76.97
178.424	-76.97
178.644	-76.97
178.864	-74.92
179.084	-156.84
179.304	2.9
179.524	-5.29
179.744	19.29
179.964	9.05
180.184	0.85
180.404	-11.43
180.624	33.62
180.844	-29.87
181.064	2.9
181.283	-72.87
181.503	45.91
181.723	4.95
181.943	-19.63
182.163	113.49
182.383	23.38
182.602	0.85
182.822	111.44
183.042	35.67
183.262	80.72
183.482	99.16
183.701	2.9
183.921	39.76
184.141	19.29
184.361	39.76
184.58	-7.34
184.8	11.09
185.02	-25.77
185.239	58.2
185.459	-1.19
185.679	133.97
185.898	-83.11
186.118	52.05
186.338	64.34
186.557	15.19
186.777	-52.39
186.997	-25.77
187.216	15.19
187.436	107.35
187.655	70.48
187.875	21.33
188.095	-3.24
188.314	17.24
188.534	52.05
188.753	25.43
188.973	-1.19
189.192	119.64
189.412	64.34
189.631	11.09
189.851	-15.53
190.07	78.68
190.29	29.52
190.509	13.14
190.729	-15.53
190.948	95.06
191.168	117.59
191.387	33.62
191.607	29.52
191.826	43.86
192.045	39.76
192.265	47.96
192.484	13.14
192.704	-29.87
192.923	-13.48
193.142	78.68
193.362	54.1
193.581	60.24
193.8	2.9
194.02	21.33
194.239	45.91
194.458	142.16
194.678	-11.43
194.897	113.49
195.116	119.64
195.335	39.76
195.555	-58.54
195.774	82.77
195.993	64.34
196.212	88.92
196.432	-50.35
196.651	78.68
196.87	39.76
197.089	136.02
197.308	50
197.528	29.52
197.747	23.38
197.966	111.44
198.185	88.92
198.404	37.72
198.623	35.67
198.842	68.44
199.062	60.24
199.281	95.06
199.5	15.19
199.719	78.68
199.938	-7.34
200.157	29.52
200.376	23.38
200.595	140.12
200.814	-3.24
201.033	68.44
201.252	54.1
201.471	62.29
201.69	41.81
201.909	-44.2
202.128	31.57
202.347	7
202.566	47.96
202.785	62.29
203.004	11.09
203.223	88.92
203.442	50
203.661	37.72
203.879	19.29
204.098	-11.43
204.317	-38.06
204.536	70.48
204.755	4.95
204.974	50
205.193	-5.29
205.411	82.77
205.63	4.95
205.849	52.05
206.068	62.29
206.287	-19.63
206.505	60.24
206.724	64.34
206.943	31.57
207.162	23.38
207.381	21.33
207.599	54.1
207.818	19.29
208.037	80.72
208.255	17.24
208.474	13.14
208.693	37.72
208.911	41.81
209.13	58.2
209.349	88.92
209.567	62.29
209.786	50
210.005	88.92
210.223	-19.63
210.442	-66.73
210.661	47.96
210.879	111.44
211.098	33.62
211.316	-33.96
211.535	74.58
211.753	95.06
211.972	64.34
212.191	9.05
212.409	78.68
212.628	56.15
212.846	70.48
213.065	82.77
213.283	68.44
213.502	119.64
213.72	17.24
213.938	-9.39
214.157	13.14
214.375	15.19
214.594	2.9
214.812	99.16
215.031	60.24
215.249	21.33
215.467	107.35
215.686	35.67
215.904	66.39
216.122	52.05
216.341	13.14
216.559	95.06
216.778	90.96
216.996	54.1
217.214	25.43
217.432	54.1
217.651	60.24
217.869	-19.63
218.087	86.87
218.306	88.92
218.524	-50.35
218.742	19.29
218.96	156.5
219.179	29.52
219.397	27.48
219.615	148.31
219.833	45.91
220.051	-15.53
220.27	29.52
220.488	-3.24
220.706	0.85
220.924	2.9
221.142	39.76
221.36	76.63
221.578	21.33
221.796	47.96
222.015	97.11
222.233	29.52
222.451	131.92
222.669	-9.39
222.887	64.34
223.105	93.01
223.323	27.48
223.541	25.43
223.759	54.1
223.977	35.67
224.195	115.54
224.413	47.96
224.631	105.3
224.849	101.2
225.067	45.91
225.285	84.82
225.503	-13.48
225.721	2.9
225.939	58.2
226.157	76.63
226.375	99.16
226.592	-1.19
226.81	47.96
227.028	76.63
227.246	93.01
227.464	39.76
227.682	54.1
227.9	19.29
228.117	-9.39
228.335	11.09
228.553	58.2
228.771	68.44
228.989	-1.19
229.206	-7.34
229.424	7
229.642	29.52
229.86	31.57
230.077	86.87
230.295	74.58
230.513	17.24
230.731	25.43
230.948	39.76
231.166	107.35
231.384	29.52
231.601	56.15
231.819	113.49
232.037	-9.39
232.254	-97.45
232.472	-7.34
232.689	9.05
232.907	45.91
233.125	-25.77
233.342	47.96
233.56	-44.2
233.777	103.25
233.995	23.38
234.213	123.73
234.43	70.48
234.648	-3.24
234.865	68.44
235.083	78.68
235.3	43.86
235.518	25.43
235.735	74.58
235.953	62.29
236.17	125.78
236.388	111.44
236.605	15.19
236.822	56.15
237.04	23.38
237.257	68.44
237.475	7
237.692	86.87
237.909	43.86
238.127	23.38
238.344	-15.53
238.562	93.01
238.779	2.9
238.996	-44.2
239.214	56.15
239.431	2.9
239.648	-5.29
239.865	-9.39
240.083	133.97
240.3	56.15
240.517	-56.49
240.735	68.44
240.952	127.83
241.169	19.29
241.386	82.77
241.603	13.14
241.821	27.48
242.038	97.11
242.255	0.85
242.472	2.9
242.689	76.63
242.907	54.1
243.124	86.87
243.341	19.29
243.558	-5.29
243.775	52.05
243.992	29.52
244.209	29.52
244.426	129.88
244.643	15.19
244.86	33.62
245.078	-11.43
245.295	70.48
245.512	80.72
245.729	23.38
245.946	97.11
246.163	72.53
246.38	54.1
246.597	109.4
246.814	19.29
247.031	76.63
247.248	19.29
247.464	21.33
247.681	62.29
247.898	64.34
248.115	39.76
248.332	68.44
248.549	82.77
248.766	109.4
248.983	41.81
249.2	13.14
249.417	90.96
249.633	-11.43
249.85	39.76
250.067	-13.48
250.284	56.15
250.501	68.44
250.717	99.16
250.934	56.15
251.151	113.49
251.368	-5.29
251.585	31.57
251.801	119.64
252.018	37.72
252.235	109.4
252.451	-21.67
252.668	-19.63
252.885	39.76
253.102	146.26
253.318	31.57
253.535	54.1
253.752	2.9
253.968	66.39
254.185	4.95
254.401	-36.01
254.618	60.24
254.835	31.57
255.051	107.35
255.268	31.57
255.484	105.3
255.701	86.87
255.917	7
256.134	-72.87
256.351	45.91
256.567	17.24
256.784	17.24
257	15.19
257.217	103.25
257.433	50
257.65	138.07
257.866	111.44
258.082	-19.63
258.299	7
258.515	82.77
258.732	43.86
258.948	13.14
259.165	13.14
259.381	31.57
259.597	60.24
259.814	-17.58
260.03	4.95
260.246	7
260.463	11.09
260.679	54.1
260.895	43.86
261.112	64.34
261.328	35.67
261.544	-23.72
261.761	62.29
261.977	-42.15
262.193	68.44
262.409	43.86
262.626	-46.25
262.842	-11.43
263.058	35.67
263.274	113.49
263.49	97.11
263.707	78.68
263.923	101.2
264.139	9.05
264.355	74.58
264.571	82.77
264.787	54.1
265.004	156.5
265.22	41.81
265.436	76.63
265.652	25.43
265.868	0.85
266.084	15.19
266.3	50
266.516	-56.49
266.732	17.24
266.948	15.19
267.164	43.86
267.38	86.87
267.596	64.34
267.812	117.59
268.028	86.87
268.244	27.48
268.46	84.82
268.676	31.57
268.892	17.24
269.108	29.52
269.324	-50.35
269.54	-40.11
269.756	74.58
269.972	-25.77
270.188	41.81
270.403	60.24
270.619	11.09
270.835	52.05
271.051	54.1
271.267	9.05
271.483	111.44
271.698	56.15
271.914	37.72
272.13	90.96
272.346	-11.43
272.562	-29.87
272.777	54.1
272.993	66.39
273.209	0.85
273.425	35.67
273.64	37.72
273.856	35.67
274.072	60.24
274.287	-25.77
274.503	15.19
274.719	60.24
274.934	66.39
275.15	-19.63
275.366	62.29
275.581	50
275.797	11.09
276.012	41.81
276.228	107.35
276.444	66.39
276.659	64.34
276.875	-17.58
277.09	15.19
277.306	-52.39
277.521	64.34
277.737	35.67
277.952	90.96
278.168	47.96
278.383	27.48
278.599	27.48
278.814	50
279.03	29.52
279.245	125.78
279.461	78.68
279.676	66.39
279.892	9.05
280.107	37.72
280.322	-11.43
280.538	78.68
280.753	-46.25
280.969	21.33
281.184	33.62
281.399	21.33
281.615	109.4
281.83	41.81
282.045	23.38
282.26	45.91
282.476	-21.67
282.691	37.72
282.906	66.39
283.122	-1.19
283.337	2.9
283.552	78.68
283.767	-11.43
283.983	0.85
284.198	50
284.413	62.29
284.628	86.87
284.843	47.96
285.058	43.86
285.274	-76.97
285.489	50
285.704	93.01
285.919	17.24
286.134	15.19
286.349	9.05
286.564	-19.63
286.779	84.82
286.995	23.38
287.21	-87.21
287.425	95.06
287.64	27.48
287.855	62.29
288.07	-48.3
288.285	95.06
288.5	90.96
288.715	123.73
288.93	25.43
289.145	31.57
289.36	93.01
289.575	50
289.79	84.82
290.004	60.24
290.219	72.53
290.434	54.1
290.649	11.09
290.864	90.96
291.079	50
291.294	56.15
291.509	11.09
291.724	56.15
291.938	76.63
292.153	-13.48
292.368	-7.34
292.583	60.24
292.798	101.2
293.012	-7.34
293.227	72.53
293.442	29.52
293.657	50
293.871	78.68
294.086	52.05
294.301	25.43
294.516	50
294.73	43.86
294.945	-40.11
295.16	54.1
295.374	56.15
295.589	95.06
295.804	-21.67
296.018	56.15
296.233	-42.15
296.447	-17.58
296.662	-11.43
296.877	82.77
297.091	35.67
297.306	-3.24
297.52	45.91
297.735	39.76
297.949	-50.35
298.164	70.48
298.378	7
298.593	23.38
298.807	-40.11
299.022	52.05
299.236	86.87
299.451	68.44
299.665	-48.3
299.88	47.96
300.094	50
300.309	13.14
300.523	33.62
300.737	27.48
300.952	31.57
301.166	97.11
301.381	58.2
301.595	21.33
301.809	29.52
302.024	-13.48
302.238	23.38
302.452	58.2
302.667	15.19
302.881	23.38
303.095	47.96
303.309	82.77
303.524	-13.48
303.738	-23.72
303.952	29.52
304.166	27.48
304.381	-19.63
304.595	93.01
304.809	23.38
305.023	105.3
305.237	23.38
305.452	74.58
305.666	47.96
305.88	97.11
306.094	56.15
306.308	60.24
306.522	33.62
306.736	97.11
306.95	0.85
307.164	66.39
307.379	-27.82
307.593	7
307.807	74.58
308.021	103.25
308.235	90.96
308.449	-25.77
308.663	84.82
308.877	107.35
309.091	13.14
309.305	99.16
309.519	54.1
309.733	136.02
309.947	50
310.161	31.57
310.374	17.24
310.588	109.4
310.802	25.43
311.016	43.86
311.23	-7.34
311.444	-31.91
311.658	86.87
311.872	80.72
312.085	115.54
312.299	95.06
312.513	43.86
312.727	54.1
312.941	15.19
313.154	60.24
313.368	31.57
313.582	23.38
313.796	47.96
314.009	72.53
314.223	60.24
314.437	72.53
314.651	47.96
314.864	-19.63
315.078	54.1
315.292	11.09
315.505	33.62
315.719	27.48
315.933	47.96
316.146	68.44
316.36	74.58
316.573	33.62
316.787	25.43
317.001	15.19
317.214	9.05
317.428	72.53
317.641	-21.67
317.855	60.24
318.068	25.43
318.282	45.91
318.495	37.72
318.709	62.29
318.922	29.52
319.136	97.11
319.349	76.63
319.563	17.24
319.776	15.19
319.99	-33.96
320.203	123.73
320.417	58.2
320.63	125.78
320.843	95.06
321.057	23.38
321.27	50
321.483	54.1
321.697	47.96
321.91	39.76
322.124	13.14
322.337	27.48
322.55	-40.11
322.763	31.57
322.977	60.24
323.19	47.96
323.403	25.43
323.617	19.29
323.83	131.92
324.043	7
324.256	76.63
324.469	-21.67
324.683	95.06
324.896	-9.39
325.109	0.85
325.322	15.19
325.535	64.34
325.748	125.78
325.962	-31.91
326.175	21.33
326.388	105.3
326.601	95.06
326.814	111.44
327.027	37.72
327.24	95.06
327.453	43.86
327.666	19.29
327.879	129.88
328.092	66.39
328.305	45.91
328.518	2.9
328.731	58.2
328.944	50
329.157	-11.43
329.37	-11.43
329.583	74.58
329.796	109.4
330.009	-17.58
330.222	43.86
330.435	35.67
330.648	127.83
330.861	86.87
331.073	76.63
331.286	76.63
331.499	-13.48
331.712	0.85
331.925	101.2
332.138	54.1
332.35	109.4
332.563	50
332.776	88.92
332.989	60.24
333.202	39.76
333.414	52.05
333.627	31.57
333.84	103.25
334.053	97.11
334.265	15.19
334.478	97.11
334.691	88.92
334.903	70.48
335.116	7
335.329	54.1
335.541	72.53
335.754	11.09
335.966	4.95
336.179	39.76
336.392	-9.39
336.604	62.29
336.817	86.87
337.029	82.77
337.242	90.96
337.454	86.87
337.667	19.29
337.88	160.59
338.092	68.44
338.305	60.24
338.517	19.29
338.729	37.72
338.942	31.57
339.154	78.68
339.367	19.29
339.579	52.05
339.792	-17.58
340.004	88.92
340.217	2.9
340.429	52.05
340.641	-5.29
340.854	56.15
341.066	39.76
341.278	54.1
341.491	125.78
341.703	93.01
341.915	-9.39
342.128	33.62
342.34	86.87
342.552	86.87
342.764	60.24
342.977	35.67
343.189	86.87
343.401	13.14
343.613	-23.72
343.826	15.19
344.038	-19.63
344.25	25.43
344.462	-42.15
344.674	95.06
344.886	25.43
345.099	4.95
345.311	50
345.523	56.15
345.735	-74.92
345.947	93.01
346.159	78.68
346.371	105.3
346.583	19.29
346.795	99.16
347.007	0.85
347.219	15.19
347.431	-5.29
347.643	37.72
347.855	60.24
348.067	88.92
348.279	58.2
348.491	56.15
348.703	129.88
348.915	27.48
349.127	37.72
349.339	-1.19
349.551	23.38
349.763	19.29
349.975	50
350.187	47.96
350.399	72.53
350.61	47.96
350.822	39.76
351.034	162.64
351.246	99.16
351.458	39.76
351.669	119.64
351.881	97.11
352.093	54.1
352.305	80.72
352.517	127.83
352.728	70.48
352.94	23.38
353.152	84.82
353.363	21.33
353.575	101.2
353.787	129.88
353.999	78.68
354.21	78.68
354.422	58.2
354.633	17.24
354.845	21.33
355.057	88.92
355.268	66.39
355.48	17.24
355.692	21.33
355.903	76.63
356.115	-29.87
356.326	-33.96
356.538	56.15
356.749	25.43
356.961	54.1
357.172	56.15
357.384	-3.24
357.595	45.91
357.807	99.16
358.018	4.95
358.23	82.77
358.441	117.59
358.653	-25.77
358.864	93.01
359.075	21.33
359.287	31.57
359.498	88.92
359.709	119.64
359.921	43.86
360.132	60.24
360.344	101.2
360.555	17.24
360.766	-36.01
360.977	-42.15
361.189	52.05
361.4	9.05
361.611	45.91
361.823	58.2
362.034	41.81
362.245	-44.2
362.456	82.77
362.667	41.81
362.879	-52.39
363.09	-13.48
363.301	113.49
363.512	66.39
363.723	-9.39
363.935	43.86
364.146	64.34
364.357	13.14
364.568	27.48
364.779	-1.19
364.99	195.41
365.201	-5.29
365.412	58.2
365.623	2.9
365.834	131.92
366.045	-56.49
366.256	62.29
366.467	-17.58
366.678	60.24
366.889	-9.39
367.1	13.14
367.311	2.9
367.522	74.58
367.733	58.2
367.944	176.98
368.155	27.48
368.366	74.58
368.577	33.62
368.788	37.72
368.999	15.19
369.209	43.86
369.42	103.25
369.631	136.02
369.842	117.59
370.053	23.38
370.264	133.97
370.474	43.86
370.685	125.78
370.896	66.39
371.107	60.24
371.317	93.01
371.528	0.85
371.739	101.2
371.95	52.05
372.16	95.06
372.371	60.24
372.582	82.77
372.792	60.24
373.003	17.24
373.214	17.24
373.424	103.25
373.635	41.81
373.846	99.16
374.056	68.44
374.267	88.92
374.477	17.24
374.688	54.1
374.898	47.96
375.109	84.82
375.319	62.29
375.53	148.31
375.74	74.58
375.951	62.29
376.161	146.26
376.372	121.68
376.582	-11.43
376.793	47.96
377.003	76.63
377.214	47.96
377.424	-5.29
377.635	113.49
377.845	23.38
378.055	62.29
378.266	4.95
378.476	109.4
378.686	70.48
378.897	107.35
379.107	58.2
379.317	105.3
379.528	74.58
379.738	107.35
379.948	4.95
380.158	162.64
380.369	37.72
380.579	70.48
380.789	64.34
380.999	31.57
381.21	62.29
381.42	103.25
381.63	80.72
381.84	146.26
382.05	103.25
382.261	95.06
382.471	82.77
382.681	84.82
382.891	125.78
383.101	-9.39
383.311	70.48
383.521	29.52
383.731	78.68
383.941	160.59
384.151	-21.67
384.361	90.96
384.571	54.1
384.781	76.63
384.991	150.36
385.201	56.15
385.411	50
385.621	27.48
385.831	58.2
386.041	31.57
386.251	68.44
386.461	127.83
386.671	41.81
386.881	172.88
387.091	76.63
387.301	93.01
387.511	109.4
387.72	101.2
387.93	109.4
388.14	23.38
388.35	88.92
388.56	35.67
388.769	99.16
388.979	80.72
389.189	54.1
389.399	33.62
389.609	19.29
389.818	109.4
390.028	39.76
390.238	39.76
390.447	15.19
390.657	97.11
390.867	7
391.076	93.01
391.286	103.25
391.496	54.1
391.705	-9.39
391.915	80.72
392.125	125.78
392.334	150.36
392.544	84.82
392.753	78.68
392.963	35.67
393.172	146.26
393.382	-60.59
393.591	138.07
393.801	111.44
394.01	88.92
394.22	113.49
394.429	70.48
394.639	62.29
394.848	60.24
395.058	88.92
395.267	138.07
395.477	86.87
395.686	93.01
395.895	164.69
396.105	129.88
396.314	62.29
396.524	64.34
396.733	88.92
396.942	101.2
397.152	156.5
397.361	101.2
397.57	136.02
397.78	74.58
397.989	123.73
398.198	183.12
398.407	138.07
398.617	54.1
398.826	162.64
399.035	111.44
399.244	33.62
399.453	111.44
399.663	99.16
399.872	64.34
400.081	150.36
400.29	170.83
400.499	54.1
400.708	115.54
400.917	125.78
401.127	39.76
401.336	90.96
401.545	56.15
401.754	183.12
401.963	191.31
402.172	84.82
402.381	54.1
402.59	109.4
402.799	176.98
403.008	136.02
403.217	123.73
403.426	103.25
403.635	95.06
403.844	176.98
404.053	213.84
404.262	148.31
404.471	285.52
404.68	197.46
404.888	109.4
405.097	154.45
405.306	84.82
405.515	121.68
405.724	111.44
405.933	201.55
406.142	187.22
406.35	174.93
406.559	246.61
406.768	115.54
406.977	166.74
407.185	191.31
407.394	207.7
407.603	238.42
407.812	236.37
408.02	238.42
408.229	267.09
408.438	195.41
408.646	222.03
408.855	236.37
409.064	244.56
409.272	244.56
409.481	273.23
409.69	291.66
409.898	299.86
410.107	299.86
410.315	377.68
410.524	316.24
410.733	355.15
410.941	328.53
411.15	426.83
411.358	432.97
411.567	392.02
411.775	379.73
411.984	420.69
412.192	510.8
412.401	369.49
412.609	426.83
412.818	455.5
413.026	559.95
413.234	473.93
413.443	539.47
413.651	504.65
413.86	596.81
414.068	637.77
414.276	682.83
414.485	596.81
414.693	736.07
414.901	750.41
415.11	711.5
415.318	754.51
415.526	807.75
415.734	742.22
415.943	820.04
416.151	887.62
416.359	893.77
416.567	1002.31
416.776	947.01
416.984	1020.74
417.192	963.4
417.4	1010.5
417.608	1039.17
417.817	1053.51
418.025	1076.04
418.233	1200.96
418.441	1123.14
418.649	1274.69
418.857	1307.46
419.065	1434.43
419.273	1327.94
419.481	1311.55
419.689	1538.88
419.897	1641.28
420.105	1555.26
420.313	1682.24
420.521	1731.39
420.729	1751.87
420.937	1833.79
421.145	1766.2
421.353	1925.94
421.561	2016.05
421.769	2097.97
421.977	2165.56
422.185	2224.95
422.393	2257.71
422.601	2413.36
422.809	2351.92
423.017	2378.55
423.224	2519.85
423.432	2712.36
423.64	2644.78
423.848	2812.71
424.056	2790.19
424.263	3023.66
424.471	2937.64
424.679	3091.24
424.887	3285.8
425.094	3359.52
425.302	3369.76
425.51	3427.11
425.718	3666.72
425.925	3633.95
426.133	3687.2
426.341	3910.43
426.548	4094.74
426.756	4090.65
426.964	4234
427.171	4373.27
427.379	4498.19
427.586	4573.97
427.794	4659.98
428.001	4961.03
428.209	5206.79
428.417	5057.29
428.624	5466.88
428.832	5522.18
429.039	5491.46
429.247	5489.41
429.454	5921.53
429.662	6257.4
429.869	5862.14
430.076	6400.76
430.284	6054.65
430.491	6415.09
430.699	7009
430.906	6877.93
431.114	6906.6
431.321	7097.07
431.528	7453.41
431.736	7846.62
431.943	8190.68
432.15	7893.72
432.358	8043.23
432.565	8293.08
432.772	8340.18
432.979	8786.64
433.187	9056.97
433.394	8995.53
433.601	9659.07
433.808	9706.18
434.016	9460.42
434.223	9945.79
434.43	10365.62
434.637	10597.04
434.844	11197.1
435.052	11199.15
435.259	11272.87
435.466	11391.66
435.673	11066.03
435.88	12040.86
436.087	12317.34
436.294	12583.57
436.501	12288.67
436.708	12677.78
436.915	12849.81
437.122	13576.84
437.329	13406.86
437.537	13791.87
437.743	14045.82
437.95	14144.13
438.157	14756.47
438.364	15377
438.571	15264.36
438.778	15444.59
438.985	16853.59
439.192	16169.57
439.399	16462.43
439.606	15891.04
439.813	17228.37
440.02	18500.16
440.227	17693.26
440.433	17678.92
440.64	18629.18
440.847	18041.41
441.054	18758.2
441.261	19745.32
441.467	19696.17
441.674	19903.01
441.881	20705.82
442.088	20820.5
442.294	20423.2
442.501	21213.71
442.708	21322.26
442.914	22022.66
443.121	23478.77
443.328	22493.69
443.534	24349.15
443.741	23382.51
443.948	23251.44
444.154	25004.5
444.361	24785.37
444.568	24943.06
444.774	25272.79
444.981	25305.56
445.187	26079.69
445.394	27029.94
445.6	27138.49
445.807	29352.34
446.013	28109.22
446.22	28733.85
446.426	29735.31
446.633	30054.79
446.839	31240.57
447.046	29800.85
447.252	31369.59
447.459	31383.93
447.665	31195.51
447.871	32758.11
448.078	34265.42
448.284	32420.2
448.491	33501.53
448.697	34595.14
448.903	35191.1
449.11	35676.47
449.316	34763.07
449.522	35522.87
449.728	36340.01
449.935	37124.38
450.141	36589.86
450.347	37495.07
450.553	36598.05
450.76	36993.31
450.966	37816.6
451.172	37593.37
451.378	38363.4
451.584	38154.51
451.791	38801.67
451.997	38285.58
452.203	39297.28
452.409	39266.56
452.615	38916.36
452.821	37450.01
453.027	37036.32
453.233	39305.47
453.44	37570.84
453.646	38144.27
453.852	38392.08
454.058	39047.43
454.264	37431.58
454.47	38830.34
454.676	37531.93
454.882	38961.41
455.088	35658.04
455.294	36000.05
455.5	36546.86
455.705	36743.46
455.911	35481.91
456.117	34926.91
456.323	34079.05
456.529	32493.93
456.735	33990.99
456.941	33286.49
457.147	32391.53
457.352	31439.22
457.558	30982.52
457.764	31103.35
457.97	30775.68
458.176	29780.37
458.381	29933.96
458.587	28557.73
458.793	28621.22
458.999	26767.8
459.204	29290.9
459.41	28086.7
459.616	26466.75
459.821	26538.43
460.027	26577.34
460.233	25516.5
460.438	24435.17
460.644	24662.49
460.85	23566.83
461.055	23065.08
461.261	22821.37
461.466	21592.59
461.672	20683.29
461.878	22227.46
462.083	20906.52
462.289	20261.41
462.494	20150.82
462.7	19474.99
462.905	18842.17
463.111	19532.33
463.316	19591.72
463.522	18977.33
463.727	19067.44
463.932	18846.26
464.138	18977.33
464.343	18989.62
464.549	18516.54
464.754	19241.52
464.959	18893.37
465.165	18782.77
465.37	17859.14
465.575	17451.6
465.781	18158.14
465.986	18383.42
466.191	17635.91
466.397	17267.28
466.602	16507.48
466.807	17125.97
467.012	17025.62
467.218	16908.88
467.423	16925.27
467.628	17023.57
467.833	17713.74
468.038	16904.79
468.244	16331.36
