Data from USB4F104151__72__12-42-15-528.txt Node

Date: Fri Mar 14 12:42:15 EDT 2025
User: louis
Spectrometer: USB4F10415
Trigger mode: 4
Integration Time (sec): 3.000000E-2
Scans to average: 1
Electric dark correction enabled: true
Nonlinearity correction enabled: false
Boxcar width: 0
XAxis mode: Wavelengths
Number of Pixels in Spectrum: 3648
>>>>>Begin Spectral Data<<<<<
178.204	-146.43
178.424	-146.43
178.644	-146.43
178.864	-123.9
179.084	-115.71
179.304	-25.6
179.524	-74.75
179.744	-11.26
179.964	35.84
180.184	-11.26
180.404	9.22
180.624	33.79
180.844	-7.17
181.064	-29.7
181.283	37.89
181.503	11.26
181.723	31.74
181.943	-44.03
182.163	50.18
182.383	41.98
182.602	-7.17
182.822	97.28
183.042	39.94
183.262	-19.46
183.482	21.5
183.701	23.55
183.921	52.22
184.141	-3.07
184.361	41.98
184.58	48.13
184.8	82.94
185.02	46.08
185.239	21.5
185.459	50.18
185.679	37.89
185.898	-39.94
186.118	74.75
186.338	66.56
186.557	111.61
186.777	-13.31
186.997	56.32
187.216	56.32
187.436	31.74
187.655	-19.46
187.875	95.23
188.095	-35.84
188.314	-5.12
188.534	84.99
188.753	-1.02
188.973	84.99
189.192	27.65
189.412	68.61
189.631	66.56
189.851	82.94
190.07	39.94
190.29	-5.12
190.509	56.32
190.729	68.61
190.948	31.74
191.168	156.67
191.387	46.08
191.607	39.94
191.826	-13.31
192.045	-105.47
192.265	35.84
192.484	15.36
192.704	39.94
192.923	-66.56
193.142	87.04
193.362	-11.26
193.581	78.85
193.8	31.74
194.02	11.26
194.239	-13.31
194.458	56.32
194.678	44.03
194.897	5.12
195.116	11.26
195.335	-25.6
195.555	23.55
195.774	-9.22
195.993	44.03
196.212	62.46
196.432	-11.26
196.651	39.94
196.87	-17.41
197.089	84.99
197.308	87.04
197.528	-13.31
197.747	3.07
197.966	68.61
198.185	91.13
198.404	3.07
198.623	41.98
198.842	41.98
199.062	74.75
199.281	111.61
199.5	1.02
199.719	41.98
199.938	46.08
200.157	93.18
200.376	25.6
200.595	56.32
200.814	-29.7
201.033	41.98
201.252	64.51
201.471	25.6
201.69	52.22
201.909	37.89
202.128	93.18
202.347	50.18
202.566	35.84
202.785	3.07
203.004	-9.22
203.223	160.77
203.442	72.7
203.661	44.03
203.879	66.56
204.098	31.74
204.317	33.79
204.536	123.9
204.755	13.31
204.974	-9.22
205.193	48.13
205.411	62.46
205.63	46.08
205.849	31.74
206.068	46.08
206.287	15.36
206.505	33.79
206.724	17.41
206.943	-23.55
207.162	-23.55
207.381	44.03
207.599	23.55
207.818	39.94
208.037	9.22
208.255	37.89
208.474	-11.26
208.693	39.94
208.911	-1.02
209.13	31.74
209.349	78.85
209.567	103.42
209.786	95.23
210.005	21.5
210.223	9.22
210.442	-68.61
210.661	60.42
210.879	1.02
211.098	52.22
211.316	27.65
211.535	54.27
211.753	109.57
211.972	68.61
212.191	-37.89
212.409	56.32
212.628	37.89
212.846	25.6
213.065	44.03
213.283	101.37
213.502	64.51
213.72	72.7
213.938	31.74
214.157	-1.02
214.375	89.09
214.594	31.74
214.812	21.5
215.031	74.75
215.249	11.26
215.467	44.03
215.686	-15.36
215.904	41.98
216.122	52.22
216.341	31.74
216.559	29.7
216.778	70.65
216.996	35.84
217.214	-11.26
217.432	80.89
217.651	-7.17
217.869	17.41
218.087	7.17
218.306	1.02
218.524	-5.12
218.742	-35.84
218.96	17.41
219.179	-1.02
219.397	1.02
219.615	134.14
219.833	62.46
220.051	52.22
220.27	31.74
220.488	9.22
220.706	48.13
220.924	41.98
221.142	-15.36
221.36	29.7
221.578	134.14
221.796	33.79
222.015	35.84
222.233	125.95
222.451	48.13
222.669	-39.94
222.887	82.94
223.105	-21.5
223.323	35.84
223.541	-21.5
223.759	9.22
223.977	54.27
224.195	72.7
224.413	68.61
224.631	19.46
224.849	33.79
225.067	60.42
225.285	21.5
225.503	17.41
225.721	-37.89
225.939	-17.41
226.157	144.38
226.375	80.89
226.592	-7.17
226.81	15.36
227.028	41.98
227.246	84.99
227.464	56.32
227.682	13.31
227.9	27.65
228.117	35.84
228.335	-33.79
228.553	29.7
228.771	113.66
228.989	46.08
229.206	107.52
229.424	41.98
229.642	-13.31
229.86	-15.36
230.077	39.94
230.295	11.26
230.513	68.61
230.731	31.74
230.948	52.22
231.166	138.24
231.384	-35.84
231.601	33.79
231.819	97.28
232.037	64.51
232.254	87.04
232.472	68.61
232.689	9.22
232.907	95.23
233.125	33.79
233.342	-33.79
233.56	-66.56
233.777	1.02
233.995	74.75
234.213	128
234.43	48.13
234.648	19.46
234.865	23.55
235.083	60.42
235.3	46.08
235.518	46.08
235.735	19.46
235.953	29.7
236.17	3.07
236.388	27.65
236.605	23.55
236.822	68.61
237.04	87.04
237.257	41.98
237.475	-25.6
237.692	-39.94
237.909	33.79
238.127	-1.02
238.344	52.22
238.562	101.37
238.779	89.09
238.996	-23.55
239.214	80.89
239.431	46.08
239.648	-7.17
239.865	9.22
240.083	91.13
240.3	31.74
240.517	48.13
240.735	17.41
240.952	35.84
241.169	41.98
241.386	9.22
241.603	101.37
241.821	76.8
242.038	66.56
242.255	11.26
242.472	3.07
242.689	117.76
242.907	89.09
243.124	-7.17
243.341	54.27
243.558	60.42
243.775	-5.12
243.992	29.7
244.209	-5.12
244.426	35.84
244.643	99.33
244.86	128
245.078	37.89
245.295	74.75
245.512	62.46
245.729	5.12
245.946	50.18
246.163	107.52
246.38	60.42
246.597	54.27
246.814	48.13
247.031	15.36
247.248	-5.12
247.464	44.03
247.681	23.55
247.898	35.84
248.115	33.79
248.332	-33.79
248.549	72.7
248.766	107.52
248.983	13.31
249.2	35.84
249.417	97.28
249.633	64.51
249.85	66.56
250.067	-27.65
250.284	29.7
250.501	84.99
250.717	95.23
250.934	-60.42
251.151	29.7
251.368	58.37
251.585	95.23
251.801	58.37
252.018	9.22
252.235	33.79
252.451	7.17
252.668	-44.03
252.885	11.26
253.102	33.79
253.318	27.65
253.535	62.46
253.752	68.61
253.968	76.8
254.185	-1.02
254.401	-19.46
254.618	58.37
254.835	76.8
255.051	93.18
255.268	-13.31
255.484	89.09
255.701	37.89
255.917	115.71
256.134	29.7
256.351	27.65
256.567	-13.31
256.784	48.13
257	91.13
257.217	-27.65
257.433	-17.41
257.65	13.31
257.866	113.66
258.082	-15.36
258.299	80.89
258.515	74.75
258.732	35.84
258.948	23.55
259.165	123.9
259.381	64.51
259.597	17.41
259.814	72.7
260.03	41.98
260.246	111.61
260.463	62.46
260.679	70.65
260.895	84.99
261.112	13.31
261.328	115.71
261.544	41.98
261.761	128
261.977	54.27
262.193	23.55
262.409	80.89
262.626	56.32
262.842	62.46
263.058	-74.75
263.274	115.71
263.49	58.37
263.707	-1.02
263.923	17.41
264.139	11.26
264.355	11.26
264.571	33.79
264.787	-31.74
265.004	56.32
265.22	39.94
265.436	-9.22
265.652	48.13
265.868	46.08
266.084	48.13
266.3	64.51
266.516	3.07
266.732	-33.79
266.948	50.18
267.164	33.79
267.38	70.65
267.596	3.07
267.812	101.37
268.028	95.23
268.244	-21.5
268.46	7.17
268.676	44.03
268.892	31.74
269.108	54.27
269.324	39.94
269.54	-11.26
269.756	58.37
269.972	82.94
270.188	37.89
270.403	-80.89
270.619	17.41
270.835	11.26
271.051	23.55
271.267	54.27
271.483	54.27
271.698	80.89
271.914	62.46
272.13	44.03
272.346	39.94
272.562	52.22
272.777	48.13
272.993	64.51
273.209	89.09
273.425	-1.02
273.64	-46.08
273.856	101.37
274.072	93.18
274.287	39.94
274.503	29.7
274.719	46.08
274.934	19.46
275.15	35.84
275.366	31.74
275.581	11.26
275.797	11.26
276.012	60.42
276.228	-11.26
276.444	89.09
276.659	39.94
276.875	-3.07
277.09	54.27
277.306	58.37
277.521	60.42
277.737	13.31
277.952	46.08
278.168	-13.31
278.383	39.94
278.599	23.55
278.814	13.31
279.03	-13.31
279.245	111.61
279.461	9.22
279.676	74.75
279.892	-7.17
280.107	82.94
280.322	-7.17
280.538	66.56
280.753	-29.7
280.969	44.03
281.184	-5.12
281.399	21.5
281.615	13.31
281.83	1.02
282.045	-3.07
282.26	91.13
282.476	3.07
282.691	-7.17
282.906	117.76
283.122	-21.5
283.337	48.13
283.552	64.51
283.767	-54.27
283.983	-9.22
284.198	50.18
284.413	70.65
284.628	-46.08
284.843	17.41
285.058	82.94
285.274	-33.79
285.489	-29.7
285.704	17.41
285.919	72.7
286.134	19.46
286.349	31.74
286.564	9.22
286.779	91.13
286.995	44.03
287.21	35.84
287.425	52.22
287.64	23.55
287.855	5.12
288.07	50.18
288.285	44.03
288.5	3.07
288.715	113.66
288.93	35.84
289.145	70.65
289.36	78.85
289.575	-21.5
289.79	11.26
290.004	72.7
290.219	76.8
290.434	-50.18
290.649	70.65
290.864	35.84
291.079	19.46
291.294	64.51
291.509	23.55
291.724	29.7
291.938	68.61
292.153	91.13
292.368	29.7
292.583	84.99
292.798	95.23
293.012	56.32
293.227	21.5
293.442	-44.03
293.657	33.79
293.871	111.61
294.086	33.79
294.301	76.8
294.516	50.18
294.73	29.7
294.945	23.55
295.16	68.61
295.374	91.13
295.589	60.42
295.804	-41.98
296.018	23.55
296.233	37.89
296.447	39.94
296.662	62.46
296.877	111.61
297.091	35.84
297.306	99.33
297.52	39.94
297.735	72.7
297.949	132.09
298.164	91.13
298.378	58.37
298.593	13.31
298.807	60.42
299.022	33.79
299.236	37.89
299.451	27.65
299.665	25.6
299.88	3.07
300.094	89.09
300.309	37.89
300.523	-11.26
300.737	23.55
300.952	41.98
301.166	87.04
301.381	-52.22
301.595	-39.94
301.809	25.6
302.024	27.65
302.238	-9.22
302.452	78.85
302.667	29.7
302.881	80.89
303.095	1.02
303.309	78.85
303.524	25.6
303.738	54.27
303.952	21.5
304.166	48.13
304.381	-11.26
304.595	31.74
304.809	48.13
305.023	-15.36
305.237	25.6
305.452	19.46
305.666	68.61
305.88	66.56
306.094	-9.22
306.308	56.32
306.522	31.74
306.736	41.98
306.95	109.57
307.164	82.94
307.379	15.36
307.593	9.22
307.807	68.61
308.021	-35.84
308.235	105.47
308.449	-15.36
308.663	31.74
308.877	101.37
309.091	52.22
309.305	23.55
309.519	-68.61
309.733	37.89
309.947	-7.17
310.161	68.61
310.374	48.13
310.588	72.7
310.802	11.26
311.016	72.7
311.23	23.55
311.444	13.31
311.658	44.03
311.872	132.09
312.085	60.42
312.299	54.27
312.513	101.37
312.727	70.65
312.941	39.94
313.154	91.13
313.368	68.61
313.582	72.7
313.796	35.84
314.009	1.02
314.223	64.51
314.437	95.23
314.651	-29.7
314.864	19.46
315.078	15.36
315.292	-1.02
315.505	-35.84
315.719	31.74
315.933	52.22
316.146	35.84
316.36	7.17
316.573	107.52
316.787	21.5
317.001	54.27
317.214	15.36
317.428	3.07
317.641	13.31
317.855	37.89
318.068	58.37
318.282	11.26
318.495	50.18
318.709	54.27
318.922	33.79
319.136	123.9
319.349	39.94
319.563	35.84
319.776	33.79
319.99	109.57
320.203	52.22
320.417	37.89
320.63	97.28
320.843	93.18
321.057	68.61
321.27	15.36
321.483	70.65
321.697	97.28
321.91	99.33
322.124	21.5
322.337	-9.22
322.55	58.37
322.763	1.02
322.977	35.84
323.19	78.85
323.403	27.65
323.617	70.65
323.83	72.7
324.043	9.22
324.256	54.27
324.469	70.65
324.683	74.75
324.896	23.55
325.109	44.03
325.322	-25.6
325.535	93.18
325.748	37.89
325.962	31.74
326.175	70.65
326.388	68.61
326.601	52.22
326.814	-1.02
327.027	-15.36
327.24	50.18
327.453	-15.36
327.666	15.36
327.879	23.55
328.092	33.79
328.305	-44.03
328.518	3.07
328.731	82.94
328.944	25.6
329.157	13.31
329.37	89.09
329.583	50.18
329.796	70.65
330.009	-11.26
330.222	29.7
330.435	3.07
330.648	66.56
330.861	1.02
331.073	48.13
331.286	41.98
331.499	48.13
331.712	33.79
331.925	-19.46
332.138	-48.13
332.35	35.84
332.563	70.65
332.776	111.61
332.989	78.85
333.202	19.46
333.414	23.55
333.627	29.7
333.84	25.6
334.053	17.41
334.265	-21.5
334.478	11.26
334.691	99.33
334.903	93.18
335.116	11.26
335.329	39.94
335.541	52.22
335.754	66.56
335.966	13.31
336.179	41.98
336.392	21.5
336.604	89.09
336.817	115.71
337.029	41.98
337.242	21.5
337.454	23.55
337.667	39.94
337.88	60.42
338.092	-1.02
338.305	66.56
338.517	56.32
338.729	27.65
338.942	128
339.154	62.46
339.367	23.55
339.579	-5.12
339.792	21.5
340.004	23.55
340.217	17.41
340.429	13.31
340.641	-3.07
340.854	-9.22
341.066	13.31
341.278	33.79
341.491	103.42
341.703	97.28
341.915	-23.55
342.128	-5.12
342.34	-25.6
342.552	70.65
342.764	50.18
342.977	39.94
343.189	21.5
343.401	3.07
343.613	-11.26
343.826	64.51
344.038	17.41
344.25	41.98
344.462	-21.5
344.674	21.5
344.886	31.74
345.099	82.94
345.311	74.75
345.523	52.22
345.735	-56.32
345.947	46.08
346.159	11.26
346.371	99.33
346.583	23.55
346.795	89.09
347.007	56.32
347.219	113.66
347.431	-48.13
347.643	99.33
347.855	-3.07
348.067	41.98
348.279	41.98
348.491	64.51
348.703	-23.55
348.915	35.84
349.127	80.89
349.339	113.66
349.551	19.46
349.763	41.98
349.975	15.36
350.187	80.89
350.399	103.42
350.61	48.13
350.822	91.13
351.034	35.84
351.246	33.79
351.458	74.75
351.669	105.47
351.881	78.85
352.093	105.47
352.305	76.8
352.517	123.9
352.728	44.03
352.94	66.56
353.152	89.09
353.363	-7.17
353.575	35.84
353.787	115.71
353.999	123.9
354.21	27.65
354.422	58.37
354.633	66.56
354.845	74.75
355.057	99.33
355.268	50.18
355.48	89.09
355.692	-48.13
355.903	37.89
356.115	87.04
356.326	-35.84
356.538	72.7
356.749	7.17
356.961	115.71
357.172	84.99
357.384	27.65
357.595	175.1
357.807	93.18
358.018	13.31
358.23	97.28
358.441	89.09
358.653	82.94
358.864	5.12
359.075	-33.79
359.287	-7.17
359.498	-33.79
359.709	76.8
359.921	76.8
360.132	-17.41
360.344	33.79
360.555	9.22
360.766	1.02
360.977	62.46
361.189	48.13
361.4	-23.55
361.611	119.81
361.823	64.51
362.034	5.12
362.245	-52.22
362.456	56.32
362.667	56.32
362.879	-9.22
363.09	107.52
363.301	58.37
363.512	-1.02
363.723	89.09
363.935	-19.46
364.146	76.8
364.357	35.84
364.568	101.37
364.779	17.41
364.99	97.28
365.201	-3.07
365.412	121.85
365.623	5.12
365.834	29.7
366.045	13.31
366.256	-13.31
366.467	37.89
366.678	31.74
366.889	13.31
367.1	31.74
367.311	56.32
367.522	-15.36
367.733	35.84
367.944	76.8
368.155	82.94
368.366	58.37
368.577	113.66
368.788	46.08
368.999	21.5
369.209	121.85
369.42	103.42
369.631	142.33
369.842	117.76
370.053	84.99
370.264	48.13
370.474	3.07
370.685	56.32
370.896	-33.79
371.107	84.99
371.317	80.89
371.528	56.32
371.739	105.47
371.95	72.7
372.16	95.23
372.371	-31.74
372.582	74.75
372.792	72.7
373.003	27.65
373.214	44.03
373.424	91.13
373.635	23.55
373.846	62.46
374.056	25.6
374.267	15.36
374.477	19.46
374.688	5.12
374.898	-29.7
375.109	21.5
375.319	17.41
375.53	56.32
375.74	62.46
375.951	48.13
376.161	23.55
376.372	87.04
376.582	48.13
376.793	91.13
377.003	-11.26
377.214	-3.07
377.424	19.46
377.635	27.65
377.845	-25.6
378.055	130.05
378.266	-9.22
378.476	1.02
378.686	95.23
378.897	52.22
379.107	101.37
379.317	52.22
379.528	39.94
379.738	89.09
379.948	52.22
380.158	105.47
380.369	138.24
380.579	95.23
380.789	113.66
380.999	142.33
381.21	33.79
381.42	93.18
381.63	113.66
381.84	56.32
382.05	48.13
382.261	101.37
382.471	109.57
382.681	109.57
382.891	105.47
383.101	15.36
383.311	44.03
383.521	54.27
383.731	52.22
383.941	148.48
384.151	72.7
384.361	7.17
384.571	103.42
384.781	117.76
384.991	95.23
385.201	185.34
385.411	23.55
385.621	46.08
385.831	19.46
386.041	54.27
386.251	60.42
386.461	72.7
386.671	48.13
386.881	39.94
387.091	56.32
387.301	66.56
387.511	76.8
387.72	121.85
387.93	39.94
388.14	66.56
388.35	76.8
388.56	125.95
388.769	105.47
388.979	80.89
389.189	37.89
389.399	91.13
389.609	97.28
389.818	11.26
390.028	-25.6
390.238	72.7
390.447	89.09
390.657	66.56
390.867	140.29
391.076	72.7
391.286	101.37
391.496	84.99
391.705	103.42
391.915	50.18
392.125	121.85
392.334	60.42
392.544	115.71
392.753	25.6
392.963	84.99
393.172	78.85
393.382	-23.55
393.591	72.7
393.801	41.98
394.01	197.63
394.22	91.13
394.429	52.22
394.639	41.98
394.848	56.32
395.058	164.86
395.267	123.9
395.477	140.29
395.686	89.09
395.895	144.38
396.105	125.95
396.314	101.37
396.524	7.17
396.733	89.09
396.942	134.14
397.152	142.33
397.361	70.65
397.57	150.53
397.78	72.7
397.989	76.8
398.198	150.53
398.407	-1.02
398.617	95.23
398.826	128
399.035	72.7
399.244	158.72
399.453	160.77
399.663	125.95
399.872	152.57
400.081	103.42
400.29	68.61
400.499	68.61
400.708	175.1
400.917	101.37
401.127	132.09
401.336	119.81
401.545	195.58
401.754	111.61
401.963	125.95
402.172	91.13
402.381	84.99
402.59	117.76
402.799	91.13
403.008	164.86
403.217	95.23
403.426	72.7
403.635	101.37
403.844	199.68
404.053	152.57
404.262	164.86
404.471	168.96
404.68	156.67
404.888	171.01
405.097	181.25
405.306	156.67
405.515	218.11
405.724	119.81
405.933	160.77
406.142	107.52
406.35	173.05
406.559	177.15
406.768	216.06
406.977	218.11
407.185	181.25
407.394	203.77
407.603	150.53
407.812	189.44
408.02	201.72
408.229	248.83
408.438	224.25
408.646	166.91
408.855	164.86
409.064	297.98
409.272	148.48
409.481	302.08
409.69	300.03
409.898	334.84
410.107	283.64
410.315	351.23
410.524	367.61
410.733	338.94
410.941	347.13
411.15	398.33
411.358	355.32
411.567	424.95
411.775	351.23
411.984	353.27
412.192	439.29
412.401	431.1
412.609	449.53
412.818	506.87
413.026	447.48
413.234	560.12
413.443	494.58
413.651	525.3
413.86	504.82
414.068	621.56
414.276	564.22
414.485	568.31
414.693	613.37
414.901	773.11
415.11	656.37
415.318	691.19
415.526	777.2
415.734	744.44
415.943	621.56
416.151	799.73
416.359	693.24
416.567	791.54
416.776	895.99
416.984	1014.77
417.192	969.71
417.4	932.85
417.608	863.22
417.817	1145.84
418.025	977.91
418.233	1162.22
418.441	1147.89
418.649	1115.12
418.857	1260.52
419.065	1235.95
419.273	1211.37
419.481	1217.52
419.689	1487.85
419.897	1459.18
420.105	1367.02
420.313	1461.23
420.521	1600.49
420.729	1512.42
420.937	1604.58
421.145	1608.68
421.353	1844.2
421.561	1823.72
421.769	1862.63
421.977	1985.51
422.185	1852.39
422.393	1993.7
422.601	2173.92
422.809	2059.23
423.017	2194.4
423.224	2218.97
423.432	2327.52
423.64	2405.34
423.848	2593.75
424.056	2462.68
424.263	2681.82
424.471	2726.87
424.679	2816.98
424.887	2907.09
425.094	2921.43
425.302	2993.11
425.51	3036.11
425.718	3195.86
425.925	3128.27
426.133	3296.21
426.341	3529.67
426.548	3623.88
426.756	3734.47
426.964	3892.16
427.171	3881.92
427.379	4062.15
427.586	4062.15
427.794	4428.73
428.001	4275.13
428.209	4723.64
428.417	4666.3
428.624	4881.33
428.832	4936.63
429.039	4871.09
429.247	4897.72
429.454	5221.3
429.662	5643.18
429.869	5245.87
430.076	5755.82
430.284	5442.48
430.491	5761.96
430.699	6073.25
430.906	6126.5
431.114	6210.47
431.321	6353.82
431.528	6544.28
431.736	6910.87
431.943	7494.54
432.15	6935.45
432.358	7054.23
432.565	7617.42
432.772	7685
432.979	7963.53
433.187	8004.49
433.394	8063.88
433.601	8555.39
433.808	8600.44
434.016	8676.22
434.223	9001.85
434.43	9421.68
434.637	9374.58
434.844	9886.57
435.052	10140.52
435.259	10171.24
435.466	10273.64
435.673	10109.8
435.88	10609.5
436.087	11027.29
436.294	11324.24
436.501	11178.84
436.708	11176.79
436.915	11430.74
437.122	12077.9
437.329	12147.53
437.537	12391.23
437.743	12616.51
437.95	12720.96
438.157	13218.61
438.364	13712.17
438.571	13742.89
438.778	13857.58
438.985	15049.5
439.192	14533.41
439.399	14807.84
439.606	14674.72
439.813	15403.8
440.02	16259.85
440.227	15835.92
440.433	15772.43
440.64	16339.72
440.847	16069.39
441.054	16755.46
441.261	17631.99
441.467	17480.44
441.674	17881.84
441.881	18422.5
442.088	18453.22
442.294	18006.77
442.501	18926.3
442.708	19137.24
442.914	19761.87
443.121	20667.08
443.328	20175.56
443.534	21873.33
443.741	21019.33
443.948	20454.09
444.154	22504.1
444.361	22289.07
444.568	22198.96
444.774	22340.27
444.981	22680.23
445.187	23509.66
445.394	23906.96
445.6	24011.41
445.807	26116.72
446.013	25133.7
446.22	25531
446.426	26448.49
446.633	26684.01
446.839	27734.62
447.046	26368.62
447.252	28058.2
447.459	28060.24
447.665	28066.39
447.871	29364.8
448.078	30458.42
448.284	29035.08
448.491	29794.87
448.697	31263.27
448.903	31586.85
449.11	31562.27
449.316	31158.82
449.522	31863.32
449.728	32668.17
449.935	32600.59
450.141	32891.4
450.347	33450.5
450.553	32293.4
450.76	33165.83
450.966	34423.28
451.172	33309.19
451.378	34341.36
451.584	33792.51
451.791	34626.03
451.997	34945.51
452.203	35129.83
452.409	35162.6
452.615	34826.73
452.821	33851.9
453.027	33133.06
453.233	35537.38
453.44	33878.52
453.646	34157.05
453.852	34433.52
454.058	34972.14
454.264	33671.68
454.47	34861.55
454.676	33743.36
454.882	34902.51
455.088	31924.76
455.294	32436.75
455.5	33122.82
455.705	33217.03
455.911	31885.85
456.117	30964.26
456.323	30847.53
456.529	29647.42
456.735	30595.63
456.941	29958.71
457.147	29190.72
457.352	28291.66
457.558	28002.9
457.764	28437.07
457.97	27650.65
458.176	27060.84
458.381	26964.58
458.587	25549.43
458.793	25868.92
458.999	24222.35
459.204	26337.9
459.41	25502.33
459.616	23689.88
459.821	23667.35
460.027	23517.85
460.233	23472.79
460.438	22035.12
460.644	22178.48
460.85	21504.7
461.055	21045.95
461.261	20904.64
461.466	19280.6
461.672	18907.87
461.878	20280.01
462.083	18758.37
462.289	18416.36
462.494	18404.07
462.7	17199.87
462.905	16902.91
463.111	17740.53
463.316	17707.76
463.522	17316.6
463.727	17470.2
463.932	17257.21
464.138	16835.33
464.343	17189.63
464.549	16755.46
464.754	17023.74
464.959	17025.79
465.165	16839.42
465.37	16069.39
465.575	15616.79
465.781	16354.05
465.986	16679.68
466.191	16044.81
466.397	15747.86
466.602	14867.23
466.807	15469.33
467.012	15317.78
467.218	15246.1
467.423	15129.37
