Data from USB4F104151__87__12-42-40-156.txt Node

Date: Fri Mar 14 12:42:40 EDT 2025
User: louis
Spectrometer: USB4F10415
Trigger mode: 4
Integration Time (sec): 3.000000E-2
Scans to average: 1
Electric dark correction enabled: true
Nonlinearity correction enabled: false
Boxcar width: 0
XAxis mode: Wavelengths
Number of Pixels in Spectrum: 3648
>>>>>Begin Spectral Data<<<<<
178.204	-139.6
178.424	-139.6
178.644	-139.6
178.864	-147.8
179.084	-158.03
179.304	116.39
179.524	-59.73
179.744	-8.53
179.964	-0.34
180.184	-39.25
180.404	26.28
180.624	52.91
180.844	24.23
181.064	-41.3
181.283	-10.58
181.503	-39.25
181.723	-20.82
181.943	-41.3
182.163	-24.92
182.383	54.95
182.602	104.11
182.822	7.85
183.042	-12.63
183.262	-18.77
183.482	54.95
183.701	1.71
183.921	52.91
184.141	34.47
184.361	28.33
184.58	75.43
184.8	11.95
185.02	57
185.239	-6.49
185.459	46.76
185.679	22.19
185.898	-39.25
186.118	36.52
186.338	13.99
186.557	104.11
186.777	30.38
186.997	42.67
187.216	93.87
187.436	126.63
187.655	89.77
187.875	52.91
188.095	73.39
188.314	42.67
188.534	140.97
188.753	16.04
188.973	5.8
189.192	130.73
189.412	61.1
189.631	-0.34
189.851	26.28
190.07	163.5
190.29	20.14
190.509	3.75
190.729	67.24
190.948	-10.58
191.168	116.39
191.387	100.01
191.607	30.38
191.826	3.75
192.045	30.38
192.265	57
192.484	-41.3
192.704	-39.25
192.923	-35.16
193.142	20.14
193.362	9.9
193.581	52.91
193.8	18.09
194.02	124.58
194.239	32.43
194.458	20.14
194.678	44.71
194.897	1.71
195.116	-24.92
195.335	42.67
195.555	44.71
195.774	57
195.993	-12.63
196.212	30.38
196.432	-16.73
196.651	-39.25
196.87	9.9
197.089	138.92
197.308	48.81
197.528	67.24
197.747	-12.63
197.966	-10.58
198.185	71.34
198.404	18.09
198.623	1.71
198.842	63.15
199.062	13.99
199.281	106.15
199.5	38.57
199.719	-43.35
199.938	52.91
200.157	61.1
200.376	26.28
200.595	40.62
200.814	69.29
201.033	32.43
201.252	-12.63
201.471	-2.39
201.69	54.95
201.909	54.95
202.128	110.25
202.347	65.19
202.566	1.71
202.785	40.62
203.004	-20.82
203.223	112.3
203.442	-0.34
203.661	16.04
203.879	-2.39
204.098	32.43
204.317	95.91
204.536	50.86
204.755	22.19
204.974	54.95
205.193	-55.64
205.411	61.1
205.63	-41.3
205.849	69.29
206.068	18.09
206.287	50.86
206.505	7.85
206.724	108.2
206.943	44.71
207.162	48.81
207.381	34.47
207.599	-18.77
207.818	36.52
208.037	28.33
208.255	34.47
208.474	79.53
208.693	79.53
208.911	36.52
209.13	32.43
209.349	54.95
209.567	-37.2
209.786	44.71
210.005	50.86
210.223	9.9
210.442	-12.63
210.661	59.05
210.879	13.99
211.098	20.14
211.316	20.14
211.535	63.15
211.753	75.43
211.972	36.52
212.191	7.85
212.409	91.82
212.628	48.81
212.846	83.63
213.065	50.86
213.283	79.53
213.502	81.58
213.72	48.81
213.938	59.05
214.157	59.05
214.375	59.05
214.594	-12.63
214.812	85.67
215.031	28.33
215.249	9.9
215.467	32.43
215.686	34.47
215.904	145.06
216.122	22.19
216.341	106.15
216.559	-4.44
216.778	28.33
216.996	48.81
217.214	91.82
217.432	61.1
217.651	57
217.869	-18.77
218.087	61.1
218.306	13.99
218.524	71.34
218.742	9.9
218.96	32.43
219.179	16.04
219.397	104.11
219.615	112.3
219.833	44.71
220.051	9.9
220.27	34.47
220.488	63.15
220.706	34.47
220.924	-4.44
221.142	46.76
221.36	22.19
221.578	30.38
221.796	36.52
222.015	57
222.233	-12.63
222.451	50.86
222.669	-8.53
222.887	106.15
223.105	11.95
223.323	71.34
223.541	30.38
223.759	93.87
223.977	40.62
224.195	16.04
224.413	50.86
224.631	57
224.849	46.76
225.067	34.47
225.285	28.33
225.503	69.29
225.721	-31.06
225.939	-22.87
226.157	24.23
226.375	116.39
226.592	50.86
226.81	-33.11
227.028	26.28
227.246	34.47
227.464	34.47
227.682	54.95
227.9	30.38
228.117	42.67
228.335	1.71
228.553	-80.21
228.771	42.67
228.989	46.76
229.206	-24.92
229.424	13.99
229.642	-10.58
229.86	57
230.077	69.29
230.295	24.23
230.513	22.19
230.731	77.48
230.948	124.58
231.166	87.72
231.384	-63.83
231.601	57
231.819	-29.01
232.037	-14.68
232.254	40.62
232.472	38.57
232.689	-4.44
232.907	9.9
233.125	46.76
233.342	36.52
233.56	59.05
233.777	36.52
233.995	108.2
234.213	106.15
234.43	-12.63
234.648	65.19
234.865	61.1
235.083	77.48
235.3	75.43
235.518	114.34
235.735	138.92
235.953	128.68
236.17	7.85
236.388	11.95
236.605	20.14
236.822	34.47
237.04	67.24
237.257	50.86
237.475	1.71
237.692	-6.49
237.909	40.62
238.127	7.85
238.344	9.9
238.562	50.86
238.779	-72.02
238.996	3.75
239.214	24.23
239.431	126.63
239.648	28.33
239.865	40.62
240.083	26.28
240.3	-4.44
240.517	1.71
240.735	24.23
240.952	118.44
241.169	57
241.386	30.38
241.603	5.8
241.821	-39.25
242.038	112.3
242.255	85.67
242.472	7.85
242.689	22.19
242.907	24.23
243.124	91.82
243.341	3.75
243.558	22.19
243.775	57
243.992	-12.63
244.209	69.29
244.426	30.38
244.643	30.38
244.86	57
245.078	57
245.295	89.77
245.512	63.15
245.729	-26.96
245.946	13.99
246.163	97.96
246.38	-16.73
246.597	79.53
246.814	57
247.031	-18.77
247.248	13.99
247.464	-0.34
247.681	16.04
247.898	9.9
248.115	-20.82
248.332	65.19
248.549	38.57
248.766	61.1
248.983	50.86
249.2	-14.68
249.417	9.9
249.633	50.86
249.85	69.29
250.067	3.75
250.284	67.24
250.501	48.81
250.717	69.29
250.934	-45.4
251.151	9.9
251.368	44.71
251.585	13.99
251.801	-10.58
252.018	50.86
252.235	93.87
252.451	28.33
252.668	13.99
252.885	30.38
253.102	87.72
253.318	134.82
253.535	24.23
253.752	-0.34
253.968	18.09
254.185	-6.49
254.401	-31.06
254.618	24.23
254.835	-0.34
255.051	124.58
255.268	102.06
255.484	40.62
255.701	18.09
255.917	75.43
256.134	-4.44
256.351	89.77
256.567	34.47
256.784	44.71
257	-22.87
257.217	124.58
257.433	30.38
257.65	44.71
257.866	97.96
258.082	52.91
258.299	13.99
258.515	157.35
258.732	116.39
258.948	61.1
259.165	42.67
259.381	-2.39
259.597	-8.53
259.814	22.19
260.03	16.04
260.246	34.47
260.463	79.53
260.679	11.95
260.895	-35.16
261.112	93.87
261.328	-31.06
261.544	38.57
261.761	87.72
261.977	28.33
262.193	16.04
262.409	32.43
262.626	57
262.842	22.19
263.058	59.05
263.274	69.29
263.49	48.81
263.707	65.19
263.923	3.75
264.139	69.29
264.355	1.71
264.571	63.15
264.787	59.05
265.004	95.91
265.22	16.04
265.436	38.57
265.652	52.91
265.868	83.63
266.084	50.86
266.3	126.63
266.516	30.38
266.732	110.25
266.948	-24.92
267.164	40.62
267.38	61.1
267.596	16.04
267.812	48.81
268.028	79.53
268.244	-6.49
268.46	71.34
268.676	48.81
268.892	61.1
269.108	38.57
269.324	34.47
269.54	30.38
269.756	32.43
269.972	34.47
270.188	3.75
270.403	50.86
270.619	22.19
270.835	42.67
271.051	54.95
271.267	81.58
271.483	-14.68
271.698	93.87
271.914	54.95
272.13	36.52
272.346	73.39
272.562	57
272.777	95.91
272.993	-20.82
273.209	42.67
273.425	16.04
273.64	46.76
273.856	120.49
274.072	-16.73
274.287	32.43
274.503	-20.82
274.719	59.05
274.934	69.29
275.15	24.23
275.366	108.2
275.581	61.1
275.797	67.24
276.012	24.23
276.228	-18.77
276.444	16.04
276.659	32.43
276.875	7.85
277.09	-16.73
277.306	-24.92
277.521	87.72
277.737	22.19
277.952	16.04
278.168	-35.16
278.383	77.48
278.599	13.99
278.814	77.48
279.03	-0.34
279.245	108.2
279.461	13.99
279.676	42.67
279.892	44.71
280.107	65.19
280.322	38.57
280.538	22.19
280.753	11.95
280.969	22.19
281.184	67.24
281.399	104.11
281.615	134.82
281.83	34.47
282.045	9.9
282.26	93.87
282.476	11.95
282.691	93.87
282.906	7.85
283.122	34.47
283.337	-14.68
283.552	77.48
283.767	18.09
283.983	22.19
284.198	83.63
284.413	9.9
284.628	13.99
284.843	75.43
285.058	54.95
285.274	91.82
285.489	-29.01
285.704	61.1
285.919	79.53
286.134	34.47
286.349	-57.68
286.564	34.47
286.779	46.76
286.995	87.72
287.21	-98.64
287.425	79.53
287.64	-0.34
287.855	20.14
288.07	-35.16
288.285	97.96
288.5	38.57
288.715	30.38
288.93	18.09
289.145	48.81
289.36	77.48
289.575	59.05
289.79	44.71
290.004	-0.34
290.219	22.19
290.434	-0.34
290.649	11.95
290.864	93.87
291.079	59.05
291.294	79.53
291.509	40.62
291.724	3.75
291.938	77.48
292.153	91.82
292.368	34.47
292.583	-67.92
292.798	85.67
293.012	-14.68
293.227	50.86
293.442	48.81
293.657	-4.44
293.871	120.49
294.086	69.29
294.301	118.44
294.516	40.62
294.73	52.91
294.945	-63.83
295.16	116.39
295.374	36.52
295.589	-41.3
295.804	-29.01
296.018	81.58
296.233	34.47
296.447	83.63
296.662	48.81
296.877	93.87
297.091	7.85
297.306	42.67
297.52	30.38
297.735	67.24
297.949	7.85
298.164	108.2
298.378	118.44
298.593	-45.4
298.807	20.14
299.022	114.34
299.236	63.15
299.451	104.11
299.665	112.3
299.88	24.23
300.094	50.86
300.309	54.95
300.523	38.57
300.737	34.47
300.952	46.76
301.166	40.62
301.381	32.43
301.595	-8.53
301.809	73.39
302.024	120.49
302.238	-4.44
302.452	128.68
302.667	54.95
302.881	59.05
303.095	124.58
303.309	77.48
303.524	77.48
303.738	20.14
303.952	57
304.166	93.87
304.381	30.38
304.595	128.68
304.809	-16.73
305.023	5.8
305.237	16.04
305.452	42.67
305.666	97.96
305.88	52.91
306.094	79.53
306.308	30.38
306.522	22.19
306.736	34.47
306.95	124.58
307.164	32.43
307.379	34.47
307.593	91.82
307.807	69.29
308.021	-0.34
308.235	97.96
308.449	-31.06
308.663	24.23
308.877	38.57
309.091	71.34
309.305	28.33
309.519	30.38
309.733	126.63
309.947	22.19
310.161	79.53
310.374	24.23
310.588	71.34
310.802	5.8
311.016	110.25
311.23	30.38
311.444	-20.82
311.658	93.87
311.872	108.2
312.085	9.9
312.299	122.54
312.513	93.87
312.727	13.99
312.941	20.14
313.154	85.67
313.368	18.09
313.582	46.76
313.796	126.63
314.009	77.48
314.223	85.67
314.437	32.43
314.651	65.19
314.864	40.62
315.078	50.86
315.292	-0.34
315.505	7.85
315.719	5.8
315.933	-18.77
316.146	61.1
316.36	11.95
316.573	73.39
316.787	18.09
317.001	61.1
317.214	75.43
317.428	59.05
317.641	69.29
317.855	75.43
318.068	-12.63
318.282	89.77
318.495	22.19
318.709	36.52
318.922	40.62
319.136	102.06
319.349	48.81
319.563	11.95
319.776	110.25
319.99	-41.3
320.203	91.82
320.417	57
320.63	106.15
320.843	116.39
321.057	32.43
321.27	83.63
321.483	147.11
321.697	83.63
321.91	149.16
322.124	46.76
322.337	11.95
322.55	50.86
322.763	-31.06
322.977	54.95
323.19	26.28
323.403	18.09
323.617	18.09
323.83	110.25
324.043	18.09
324.256	36.52
324.469	59.05
324.683	30.38
324.896	-6.49
325.109	61.1
325.322	54.95
325.535	106.15
325.748	61.1
325.962	57
326.175	11.95
326.388	83.63
326.601	97.96
326.814	77.48
327.027	30.38
327.24	75.43
327.453	28.33
327.666	26.28
327.879	97.96
328.092	75.43
328.305	46.76
328.518	28.33
328.731	95.91
328.944	52.91
329.157	28.33
329.37	59.05
329.583	83.63
329.796	1.71
330.009	11.95
330.222	69.29
330.435	97.96
330.648	38.57
330.861	75.43
331.073	9.9
331.286	69.29
331.499	73.39
331.712	22.19
331.925	44.71
332.138	52.91
332.35	69.29
332.563	30.38
332.776	85.67
332.989	7.85
333.202	136.87
333.414	28.33
333.627	3.75
333.84	34.47
334.053	54.95
334.265	22.19
334.478	79.53
334.691	75.43
334.903	36.52
335.116	22.19
335.329	83.63
335.541	69.29
335.754	149.16
335.966	85.67
336.179	77.48
336.392	95.91
336.604	67.24
336.817	106.15
337.029	69.29
337.242	87.72
337.454	57
337.667	100.01
337.88	91.82
338.092	52.91
338.305	65.19
338.517	89.77
338.729	7.85
338.942	63.15
339.154	73.39
339.367	3.75
339.579	116.39
339.792	-43.35
340.004	124.58
340.217	65.19
340.429	73.39
340.641	34.47
340.854	61.1
341.066	97.96
341.278	36.52
341.491	44.71
341.703	91.82
341.915	-6.49
342.128	32.43
342.34	40.62
342.552	52.91
342.764	11.95
342.977	89.77
343.189	85.67
343.401	26.28
343.613	-16.73
343.826	46.76
344.038	24.23
344.25	9.9
344.462	-47.44
344.674	52.91
344.886	95.91
345.099	32.43
345.311	63.15
345.523	71.34
345.735	13.99
345.947	20.14
346.159	52.91
346.371	36.52
346.583	5.8
346.795	140.97
347.007	77.48
347.219	71.34
347.431	20.14
347.643	11.95
347.855	16.04
348.067	138.92
348.279	59.05
348.491	57
348.703	20.14
348.915	71.34
349.127	91.82
349.339	-4.44
349.551	28.33
349.763	97.96
349.975	18.09
350.187	149.16
350.399	36.52
350.61	28.33
350.822	26.28
351.034	71.34
351.246	-12.63
351.458	69.29
351.669	138.92
351.881	81.58
352.093	140.97
352.305	83.63
352.517	38.57
352.728	147.11
352.94	100.01
353.152	83.63
353.363	28.33
353.575	136.87
353.787	63.15
353.999	95.91
354.21	73.39
354.422	38.57
354.633	50.86
354.845	87.72
355.057	22.19
355.268	57
355.48	57
355.692	71.34
355.903	130.73
356.115	85.67
356.326	26.28
356.538	93.87
356.749	52.91
356.961	104.11
357.172	52.91
357.384	-26.96
357.595	110.25
357.807	3.75
358.018	93.87
358.23	108.2
358.441	81.58
358.653	18.09
358.864	67.24
359.075	65.19
359.287	52.91
359.498	52.91
359.709	44.71
359.921	106.15
360.132	67.24
360.344	69.29
360.555	102.06
360.766	134.82
360.977	30.38
361.189	91.82
361.4	20.14
361.611	59.05
361.823	67.24
362.034	61.1
362.245	46.76
362.456	71.34
362.667	34.47
362.879	32.43
363.09	69.29
363.301	89.77
363.512	-0.34
363.723	91.82
363.935	75.43
364.146	91.82
364.357	24.23
364.568	71.34
364.779	67.24
364.99	24.23
365.201	67.24
365.412	155.3
365.623	57
365.834	85.67
366.045	124.58
366.256	91.82
366.467	38.57
366.678	118.44
366.889	77.48
367.1	54.95
367.311	61.1
367.522	36.52
367.733	26.28
367.944	79.53
368.155	54.95
368.366	87.72
368.577	-0.34
368.788	18.09
368.999	28.33
369.209	46.76
369.42	155.3
369.631	93.87
369.842	110.25
370.053	20.14
370.264	69.29
370.474	-24.92
370.685	40.62
370.896	79.53
371.107	54.95
371.317	52.91
371.528	42.67
371.739	122.54
371.95	7.85
372.16	104.11
372.371	75.43
372.582	28.33
372.792	30.38
373.003	106.15
373.214	79.53
373.424	36.52
373.635	44.71
373.846	132.78
374.056	134.82
374.267	71.34
374.477	54.95
374.688	112.3
374.898	67.24
375.109	69.29
375.319	28.33
375.53	102.06
375.74	11.95
375.951	59.05
376.161	54.95
376.372	95.91
376.582	-29.01
376.793	46.76
377.003	77.48
377.214	102.06
377.424	69.29
377.635	52.91
377.845	69.29
378.055	42.67
378.266	9.9
378.476	104.11
378.686	22.19
378.897	112.3
379.107	63.15
379.317	79.53
379.528	7.85
379.738	18.09
379.948	22.19
380.158	118.44
380.369	79.53
380.579	32.43
380.789	85.67
380.999	77.48
381.21	114.34
381.42	77.48
381.63	57
381.84	85.67
382.05	61.1
382.261	116.39
382.471	24.23
382.681	67.24
382.891	157.35
383.101	157.35
383.311	34.47
383.521	106.15
383.731	46.76
383.941	38.57
384.151	130.73
384.361	16.04
384.571	85.67
384.781	48.81
384.991	200.36
385.201	134.82
385.411	73.39
385.621	71.34
385.831	69.29
386.041	128.68
386.251	54.95
386.461	188.07
386.671	112.3
386.881	87.72
387.091	59.05
387.301	100.01
387.511	54.95
387.72	87.72
387.93	122.54
388.14	65.19
388.35	100.01
388.56	140.97
388.769	87.72
388.979	118.44
389.189	67.24
389.399	161.45
389.609	108.2
389.818	175.78
390.028	102.06
390.238	153.26
390.447	18.09
390.657	155.3
390.867	124.58
391.076	44.71
391.286	89.77
391.496	122.54
391.705	102.06
391.915	38.57
392.125	130.73
392.334	24.23
392.544	218.79
392.753	122.54
392.963	63.15
393.172	108.2
393.382	63.15
393.591	104.11
393.801	143.02
394.01	50.86
394.22	116.39
394.429	75.43
394.639	138.92
394.848	128.68
395.058	93.87
395.267	102.06
395.477	149.16
395.686	130.73
395.895	155.3
396.105	81.58
396.314	100.01
396.524	122.54
396.733	159.4
396.942	165.54
397.152	157.35
397.361	63.15
397.57	167.59
397.78	116.39
397.989	161.45
398.198	159.4
398.407	89.77
398.617	104.11
398.826	128.68
399.035	147.11
399.244	169.64
399.453	194.22
399.663	192.17
399.872	138.92
400.081	104.11
400.29	138.92
400.499	108.2
400.708	241.32
400.917	163.5
401.127	167.59
401.336	110.25
401.545	212.65
401.754	181.93
401.963	200.36
402.172	167.59
402.381	132.78
402.59	239.27
402.799	167.59
403.008	181.93
403.217	222.89
403.426	196.26
403.635	138.92
403.844	186.02
404.053	233.13
404.262	183.98
404.471	183.98
404.68	249.51
404.888	192.17
405.097	253.61
405.306	235.18
405.515	218.79
405.724	249.51
405.933	214.7
406.142	251.56
406.35	290.47
406.559	259.75
406.768	327.33
406.977	294.57
407.185	308.9
407.394	247.46
407.603	198.31
407.812	261.8
408.02	353.96
408.229	364.2
408.438	315.05
408.646	306.85
408.855	327.33
409.064	392.87
409.272	374.44
409.481	444.07
409.69	462.5
409.898	403.11
410.107	384.68
410.315	448.16
410.524	456.36
410.733	501.41
410.941	464.55
411.15	497.32
411.358	540.32
411.567	548.51
411.775	509.6
411.984	554.66
412.192	620.19
412.401	665.25
412.609	743.07
412.818	698.02
413.026	687.78
413.234	687.78
413.443	771.74
413.651	810.65
413.86	732.83
414.068	880.29
414.276	915.1
414.485	964.25
414.693	859.81
414.901	1040.03
415.11	1087.13
415.318	958.11
415.526	1060.51
415.734	1080.99
415.943	1113.75
416.151	1175.19
416.359	1201.82
416.567	1193.62
416.776	1291.93
416.984	1463.96
417.192	1384.09
417.4	1330.84
417.608	1390.23
417.817	1488.53
418.025	1576.59
418.233	1740.43
418.441	1619.6
418.649	1662.61
418.857	1803.92
419.065	1816.21
419.273	1851.02
419.481	1818.25
419.689	2076.3
419.897	2152.07
420.105	2084.49
420.313	2182.79
420.521	2244.23
420.729	2320.01
420.937	2412.17
421.145	2512.52
421.353	2541.19
421.561	2797.18
421.769	2788.99
421.977	2969.21
422.185	2846.34
422.393	3069.56
422.601	3253.88
422.809	3335.8
423.017	3358.33
423.224	3397.24
423.432	3556.98
423.64	3544.69
423.848	4089.45
424.056	3788.4
424.263	3917.42
424.471	4085.36
424.679	4261.48
424.887	4378.22
425.094	4558.44
425.302	4537.96
425.51	4562.53
425.718	4894.3
425.925	4904.54
426.133	5144.16
426.341	5523.03
426.548	5641.81
426.756	5635.67
426.964	5658.2
427.171	5971.54
427.379	6329.93
427.586	6370.89
427.794	6432.33
428.001	6780.48
428.209	7153.21
428.417	7038.53
428.624	7343.67
428.832	7505.46
429.039	7489.08
429.247	7511.61
429.454	8324.65
429.662	8494.63
429.869	8074.8
430.076	8764.96
430.284	8660.52
430.491	8996.39
430.699	9463.32
430.906	9455.13
431.114	9592.34
431.321	9932.31
431.528	10090
431.736	10632.71
431.943	11124.22
432.15	10814.98
432.358	10968.58
432.565	11875.83
432.772	11558.39
432.979	12031.48
433.187	12350.96
433.394	12520.94
433.601	13252.06
433.808	13350.37
434.016	13319.65
434.223	13868.5
434.43	14771.66
434.637	14187.99
434.844	15433.15
435.052	15543.74
435.259	15498.69
435.466	15490.49
435.673	15472.06
435.88	16600.49
436.087	17085.86
436.294	17376.67
436.501	16928.17
436.708	17100.2
436.915	17943.96
437.122	18666.89
437.329	18578.83
437.537	19271.04
437.743	19287.43
437.95	19258.76
438.157	20362.61
438.364	21058.92
438.571	21099.88
438.778	21208.42
438.985	22857.04
439.192	22117.72
439.399	22947.15
439.606	22343
439.813	23737.66
440.02	25261.35
440.227	24814.9
440.433	24466.74
440.64	25236.78
440.847	24978.73
441.054	25595.17
441.261	27561.22
441.467	27057.42
441.674	27499.78
441.881	28636.41
442.088	28288.25
442.294	28271.87
442.501	28982.51
442.708	29832.42
442.914	30846.16
443.121	31847.62
443.328	31245.52
443.534	33545.39
443.741	32697.53
443.948	31579.34
444.154	34237.6
444.361	34368.67
444.568	34395.29
444.774	34268.32
444.981	34610.33
445.187	35384.46
445.394	37473.39
445.6	36885.62
445.807	40379.46
446.013	38964.31
446.22	39369.81
446.426	40821.82
446.633	41382.96
446.839	42671.14
447.046	40594.5
447.252	42966.04
447.459	43295.77
447.665	43117.59
447.871	44905.47
448.078	46744.55
448.284	44463.11
448.491	46044.14
448.697	47453.14
448.903	48085.96
449.11	48600.01
449.316	47735.76
449.522	48651.2
449.728	49720.24
449.935	49951.66
450.141	49908.66
450.347	51145.63
450.553	49882.03
450.76	50092.97
450.966	51688.34
451.172	51096.48
451.378	52857.73
451.584	51710.87
451.791	52949.89
451.997	52435.85
452.203	53633.91
452.409	53812.09
452.615	53037.95
452.821	51497.88
453.027	51153.82
453.233	53347.2
453.44	51264.41
453.646	51979.15
453.852	52083.6
454.058	53367.68
454.264	51323.8
454.47	52448.14
454.676	51397.53
454.882	52937.6
455.088	48634.82
455.294	49089.47
455.5	50009.01
455.705	50613.16
455.911	48577.48
456.117	47393.75
456.323	46949.34
456.529	44655.62
456.735	46468.07
456.941	45501.43
457.147	44925.95
457.352	43447.32
457.558	42720.29
457.764	42834.97
457.97	42230.82
458.176	41174.07
458.381	41712.69
458.587	39386.19
458.793	39378
458.999	37317.75
459.204	39799.88
459.41	38421.6
459.616	36347.01
459.821	36134.02
460.027	36080.77
460.233	35294.35
460.438	33754.28
460.644	34299.04
460.85	32740.54
461.055	31882.44
461.261	31857.86
461.466	29695.21
461.672	28812.53
461.878	30823.64
462.083	28724.47
462.289	28208.38
462.494	27890.95
462.7	26582.29
462.905	26033.44
463.111	26803.47
463.316	26983.69
463.522	26297.63
463.727	26473.75
463.932	26449.18
464.138	26250.52
464.343	26758.42
464.549	25324.84
464.754	26635.54
464.959	25939.23
465.165	26201.37
465.37	24597.81
465.575	24304.95
465.781	24888.62
465.986	25007.41
466.191	24335.67
466.397	23686.47
466.602	22594.9
466.807	23500.1
467.012	23727.42
