Data from USB4F104151__94__12-42-56-593.txt Node

Date: Fri Mar 14 12:42:56 EDT 2025
User: louis
Spectrometer: USB4F10415
Trigger mode: 4
Integration Time (sec): 3.000000E-2
Scans to average: 1
Electric dark correction enabled: true
Nonlinearity correction enabled: false
Boxcar width: 0
XAxis mode: Wavelengths
Number of Pixels in Spectrum: 3648
>>>>>Begin Spectral Data<<<<<
178.204	-179.88
178.424	-179.88
178.644	-179.88
178.864	-155.3
179.084	-159.4
179.304	22.87
179.524	20.82
179.744	8.53
179.964	20.82
180.184	26.96
180.404	-52.91
180.624	-54.95
180.844	69.97
181.064	-26.28
181.283	-5.8
181.503	-1.71
181.723	-28.33
181.943	-65.19
182.163	57.68
182.383	-40.62
182.602	2.39
182.822	33.11
183.042	20.82
183.262	78.16
183.482	31.06
183.701	-48.81
183.921	63.83
184.141	-36.52
184.361	37.2
184.58	49.49
184.8	-16.04
185.02	61.78
185.239	55.64
185.459	6.49
185.679	26.96
185.898	-75.43
186.118	33.11
186.338	-13.99
186.557	12.63
186.777	4.44
186.997	-59.05
187.216	16.73
187.436	84.31
187.655	43.35
187.875	51.54
188.095	57.68
188.314	-3.75
188.534	2.39
188.753	69.97
188.973	33.11
189.192	90.45
189.412	41.3
189.631	-22.19
189.851	26.96
190.07	74.07
190.29	-7.85
190.509	69.97
190.729	26.96
190.948	57.68
191.168	166.23
191.387	102.74
191.607	-30.38
191.826	55.64
192.045	-18.09
192.265	-30.38
192.484	14.68
192.704	84.31
192.923	-106.15
193.142	106.84
193.362	35.16
193.581	100.69
193.8	102.74
194.02	57.68
194.239	92.5
194.458	33.11
194.678	55.64
194.897	55.64
195.116	-7.85
195.335	37.2
195.555	33.11
195.774	45.4
195.993	29.01
196.212	26.96
196.432	-1.71
196.651	-1.71
196.87	16.73
197.089	108.88
197.308	47.44
197.528	-7.85
197.747	31.06
197.966	14.68
198.185	100.69
198.404	65.88
198.623	63.83
198.842	63.83
199.062	67.92
199.281	49.49
199.5	39.25
199.719	39.25
199.938	108.88
200.157	53.59
200.376	76.12
200.595	88.4
200.814	88.4
201.033	47.44
201.252	108.88
201.471	8.53
201.69	55.64
201.909	39.25
202.128	-1.71
202.347	55.64
202.566	12.63
202.785	-7.85
203.004	-30.38
203.223	139.6
203.442	16.73
203.661	24.92
203.879	2.39
204.098	49.49
204.317	33.11
204.536	100.69
204.755	112.98
204.974	43.35
205.193	65.88
205.411	102.74
205.63	37.2
205.849	6.49
206.068	18.77
206.287	0.34
206.505	26.96
206.724	12.63
206.943	55.64
207.162	61.78
207.381	51.54
207.599	41.3
207.818	22.87
208.037	22.87
208.255	-3.75
208.474	-28.33
208.693	35.16
208.911	112.98
209.13	41.3
209.349	2.39
209.567	-24.23
209.786	119.12
210.005	18.77
210.223	37.2
210.442	55.64
210.661	45.4
210.879	-20.14
211.098	16.73
211.316	65.88
211.535	-3.75
211.753	-46.76
211.972	53.59
212.191	-36.52
212.409	69.97
212.628	26.96
212.846	96.6
213.065	78.16
213.283	112.98
213.502	14.68
213.72	-1.71
213.938	20.82
214.157	63.83
214.375	14.68
214.594	8.53
214.812	90.45
215.031	86.36
215.249	12.63
215.467	72.02
215.686	-24.23
215.904	67.92
216.122	-9.9
216.341	76.12
216.559	37.2
216.778	108.88
216.996	98.64
217.214	61.78
217.432	4.44
217.651	59.73
217.869	12.63
218.087	16.73
218.306	0.34
218.524	69.97
218.742	2.39
218.96	47.44
219.179	45.4
219.397	20.82
219.615	110.93
219.833	69.97
220.051	39.25
220.27	51.54
220.488	94.55
220.706	6.49
220.924	-34.47
221.142	18.77
221.36	45.4
221.578	47.44
221.796	35.16
222.015	67.92
222.233	-22.19
222.451	45.4
222.669	41.3
222.887	69.97
223.105	-18.09
223.323	57.68
223.541	12.63
223.759	29.01
223.977	26.96
224.195	141.65
224.413	55.64
224.631	47.44
224.849	26.96
225.067	141.65
225.285	16.73
225.503	-20.14
225.721	-22.19
225.939	98.64
226.157	-26.28
226.375	188.75
226.592	51.54
226.81	8.53
227.028	33.11
227.246	43.35
227.464	-26.28
227.682	51.54
227.9	24.92
228.117	37.2
228.335	-28.33
228.553	78.16
228.771	86.36
228.989	49.49
229.206	53.59
229.424	39.25
229.642	49.49
229.86	78.16
230.077	49.49
230.295	33.11
230.513	20.82
230.731	84.31
230.948	80.21
231.166	143.7
231.384	-9.9
231.601	-22.19
231.819	33.11
232.037	12.63
232.254	51.54
232.472	96.6
232.689	-3.75
232.907	29.01
233.125	16.73
233.342	-13.99
233.56	31.06
233.777	6.49
233.995	12.63
234.213	20.82
234.43	26.96
234.648	-20.14
234.865	20.82
235.083	43.35
235.3	24.92
235.518	20.82
235.735	112.98
235.953	37.2
236.17	-34.47
236.388	16.73
236.605	41.3
236.822	129.36
237.04	26.96
237.257	88.4
237.475	-13.99
237.692	63.83
237.909	24.92
238.127	31.06
238.344	2.39
238.562	20.82
238.779	-11.95
238.996	29.01
239.214	63.83
239.431	22.87
239.648	78.16
239.865	61.78
240.083	-22.19
240.3	65.88
240.517	-7.85
240.735	51.54
240.952	-1.71
241.169	115.03
241.386	22.87
241.603	37.2
241.821	-11.95
242.038	8.53
242.255	82.26
242.472	31.06
242.689	90.45
242.907	88.4
243.124	-7.85
243.341	63.83
243.558	35.16
243.775	-89.77
243.992	-52.91
244.209	72.02
244.426	84.31
244.643	67.92
244.86	4.44
245.078	41.3
245.295	39.25
245.512	10.58
245.729	31.06
245.946	61.78
246.163	22.87
246.38	10.58
246.597	20.82
246.814	72.02
247.031	69.97
247.248	37.2
247.464	39.25
247.681	14.68
247.898	59.73
248.115	0.34
248.332	53.59
248.549	-11.95
248.766	129.36
248.983	-34.47
249.2	57.68
249.417	24.92
249.633	88.4
249.85	90.45
250.067	-65.19
250.284	-1.71
250.501	47.44
250.717	-24.23
250.934	24.92
251.151	12.63
251.368	-9.9
251.585	86.36
251.801	24.92
252.018	-1.71
252.235	90.45
252.451	51.54
252.668	16.73
252.885	41.3
253.102	14.68
253.318	82.26
253.535	37.2
253.752	-11.95
253.968	78.16
254.185	-24.23
254.401	31.06
254.618	57.68
254.835	76.12
255.051	125.27
255.268	4.44
255.484	67.92
255.701	35.16
255.917	47.44
256.134	-59.05
256.351	29.01
256.567	43.35
256.784	31.06
257	31.06
257.217	96.6
257.433	82.26
257.65	96.6
257.866	-5.8
258.082	-34.47
258.299	18.77
258.515	72.02
258.732	-7.85
258.948	18.77
259.165	-16.04
259.381	16.73
259.597	10.58
259.814	76.12
260.03	33.11
260.246	37.2
260.463	90.45
260.679	53.59
260.895	-40.62
261.112	6.49
261.328	31.06
261.544	16.73
261.761	49.49
261.977	31.06
262.193	-5.8
262.409	80.21
262.626	12.63
262.842	12.63
263.058	-3.75
263.274	59.73
263.49	31.06
263.707	39.25
263.923	16.73
264.139	-36.52
264.355	51.54
264.571	110.93
264.787	2.39
265.004	45.4
265.22	51.54
265.436	67.92
265.652	4.44
265.868	29.01
266.084	-24.23
266.3	74.07
266.516	14.68
266.732	-9.9
266.948	-1.71
267.164	65.88
267.38	10.58
267.596	63.83
267.812	76.12
268.028	59.73
268.244	8.53
268.46	14.68
268.676	-3.75
268.892	90.45
269.108	-26.28
269.324	55.64
269.54	18.77
269.756	102.74
269.972	-30.38
270.188	37.2
270.403	47.44
270.619	-44.71
270.835	20.82
271.051	-28.33
271.267	80.21
271.483	49.49
271.698	72.02
271.914	16.73
272.13	47.44
272.346	-13.99
272.562	6.49
272.777	121.17
272.993	51.54
273.209	-7.85
273.425	72.02
273.64	12.63
273.856	45.4
274.072	-40.62
274.287	-46.76
274.503	-34.47
274.719	0.34
274.934	-9.9
275.15	69.97
275.366	90.45
275.581	35.16
275.797	45.4
276.012	33.11
276.228	51.54
276.444	8.53
276.659	84.31
276.875	86.36
277.09	22.87
277.306	76.12
277.521	24.92
277.737	-44.71
277.952	45.4
278.168	4.44
278.383	106.84
278.599	-24.23
278.814	16.73
279.03	6.49
279.245	94.55
279.461	16.73
279.676	16.73
279.892	8.53
280.107	49.49
280.322	14.68
280.538	67.92
280.753	0.34
280.969	119.12
281.184	18.77
281.399	24.92
281.615	24.92
281.83	-46.76
282.045	10.58
282.26	12.63
282.476	8.53
282.691	72.02
282.906	61.78
283.122	16.73
283.337	31.06
283.552	61.78
283.767	35.16
283.983	49.49
284.198	39.25
284.413	74.07
284.628	0.34
284.843	-5.8
285.058	31.06
285.274	47.44
285.489	-20.14
285.704	31.06
285.919	31.06
286.134	47.44
286.349	-20.14
286.564	55.64
286.779	65.88
286.995	2.39
287.21	31.06
287.425	51.54
287.64	59.73
287.855	22.87
288.07	-20.14
288.285	63.83
288.5	78.16
288.715	67.92
288.93	63.83
289.145	-3.75
289.36	20.82
289.575	82.26
289.79	145.75
290.004	12.63
290.219	67.92
290.434	-3.75
290.649	0.34
290.864	96.6
291.079	35.16
291.294	31.06
291.509	14.68
291.724	59.73
291.938	22.87
292.153	-5.8
292.368	69.97
292.583	24.92
292.798	67.92
293.012	86.36
293.227	29.01
293.442	6.49
293.657	35.16
293.871	61.78
294.086	96.6
294.301	115.03
294.516	37.2
294.73	72.02
294.945	-20.14
295.16	43.35
295.374	47.44
295.589	53.59
295.804	20.82
296.018	65.88
296.233	74.07
296.447	31.06
296.662	14.68
296.877	61.78
297.091	82.26
297.306	-44.71
297.52	37.2
297.735	29.01
297.949	59.73
298.164	63.83
298.378	26.96
298.593	37.2
298.807	0.34
299.022	31.06
299.236	35.16
299.451	-11.95
299.665	35.16
299.88	24.92
300.094	41.3
300.309	61.78
300.523	57.68
300.737	37.2
300.952	88.4
301.166	69.97
301.381	8.53
301.595	61.78
301.809	29.01
302.024	47.44
302.238	-18.09
302.452	16.73
302.667	-50.86
302.881	92.5
303.095	47.44
303.309	12.63
303.524	-32.43
303.738	26.96
303.952	-28.33
304.166	84.31
304.381	-46.76
304.595	57.68
304.809	104.79
305.023	59.73
305.237	47.44
305.452	112.98
305.666	76.12
305.88	78.16
306.094	61.78
306.308	29.01
306.522	82.26
306.736	90.45
306.95	8.53
307.164	20.82
307.379	47.44
307.593	108.88
307.807	82.26
308.021	63.83
308.235	-5.8
308.449	-18.09
308.663	45.4
308.877	104.79
309.091	96.6
309.305	-20.14
309.519	20.82
309.733	29.01
309.947	-57
310.161	74.07
310.374	53.59
310.588	112.98
310.802	76.12
311.016	12.63
311.23	37.2
311.444	-5.8
311.658	-44.71
311.872	88.4
312.085	-18.09
312.299	151.89
312.513	72.02
312.727	14.68
312.941	-16.04
313.154	76.12
313.368	31.06
313.582	22.87
313.796	26.96
314.009	55.64
314.223	82.26
314.437	117.08
314.651	72.02
314.864	-22.19
315.078	10.58
315.292	67.92
315.505	4.44
315.719	125.27
315.933	51.54
316.146	55.64
316.36	47.44
316.573	59.73
316.787	123.22
317.001	80.21
317.214	39.25
317.428	29.01
317.641	104.79
317.855	90.45
318.068	51.54
318.282	43.35
318.495	86.36
318.709	133.46
318.922	84.31
319.136	41.3
319.349	69.97
319.563	57.68
319.776	22.87
319.99	-18.09
320.203	18.77
320.417	55.64
320.63	51.54
320.843	123.22
321.057	72.02
321.27	4.44
321.483	-11.95
321.697	96.6
321.91	35.16
322.124	74.07
322.337	18.77
322.55	90.45
322.763	-28.33
322.977	29.01
323.19	98.64
323.403	10.58
323.617	61.78
323.83	82.26
324.043	67.92
324.256	104.79
324.469	10.58
324.683	123.22
324.896	80.21
325.109	57.68
325.322	41.3
325.535	-1.71
325.748	53.59
325.962	24.92
326.175	47.44
326.388	37.2
326.601	31.06
326.814	22.87
327.027	-9.9
327.24	166.23
327.453	2.39
327.666	65.88
327.879	39.25
328.092	88.4
328.305	22.87
328.518	74.07
328.731	57.68
328.944	33.11
329.157	51.54
329.37	8.53
329.583	121.17
329.796	67.92
330.009	18.77
330.222	100.69
330.435	45.4
330.648	26.96
330.861	100.69
331.073	51.54
331.286	69.97
331.499	51.54
331.712	-1.71
331.925	-1.71
332.138	69.97
332.35	106.84
332.563	39.25
332.776	67.92
332.989	20.82
333.202	41.3
333.414	37.2
333.627	80.21
333.84	-40.62
334.053	45.4
334.265	10.58
334.478	37.2
334.691	8.53
334.903	96.6
335.116	63.83
335.329	10.58
335.541	41.3
335.754	119.12
335.966	43.35
336.179	29.01
336.392	63.83
336.604	39.25
336.817	112.98
337.029	39.25
337.242	-20.14
337.454	88.4
337.667	43.35
337.88	74.07
338.092	84.31
338.305	74.07
338.517	59.73
338.729	29.01
338.942	72.02
339.154	6.49
339.367	35.16
339.579	16.73
339.792	39.25
340.004	96.6
340.217	37.2
340.429	14.68
340.641	106.84
340.854	78.16
341.066	8.53
341.278	121.17
341.491	63.83
341.703	31.06
341.915	59.73
342.128	65.88
342.34	43.35
342.552	24.92
342.764	-5.8
342.977	18.77
343.189	22.87
343.401	61.78
343.613	-20.14
343.826	63.83
344.038	135.51
344.25	41.3
344.462	41.3
344.674	86.36
344.886	-1.71
345.099	-34.47
345.311	45.4
345.523	51.54
345.735	-52.91
345.947	82.26
346.159	-42.67
346.371	55.64
346.583	41.3
346.795	92.5
347.007	61.78
347.219	31.06
347.431	49.49
347.643	67.92
347.855	69.97
348.067	78.16
348.279	65.88
348.491	-26.28
348.703	104.79
348.915	82.26
349.127	78.16
349.339	106.84
349.551	10.58
349.763	135.51
349.975	43.35
350.187	69.97
350.399	90.45
350.61	86.36
350.822	110.93
351.034	82.26
351.246	69.97
351.458	94.55
351.669	80.21
351.881	162.13
352.093	121.17
352.305	47.44
352.517	45.4
352.728	72.02
352.94	86.36
353.152	24.92
353.363	35.16
353.575	47.44
353.787	43.35
353.999	61.78
354.21	108.88
354.422	82.26
354.633	104.79
354.845	74.07
355.057	-20.14
355.268	49.49
355.48	49.49
355.692	-26.28
355.903	100.69
356.115	106.84
356.326	59.73
356.538	102.74
356.749	72.02
356.961	92.5
357.172	100.69
357.384	74.07
357.595	82.26
357.807	53.59
358.018	6.49
358.23	61.78
358.441	104.79
358.653	80.21
358.864	88.4
359.075	-50.86
359.287	80.21
359.498	131.41
359.709	-20.14
359.921	63.83
360.132	147.8
360.344	12.63
360.555	43.35
360.766	20.82
360.977	-5.8
361.189	104.79
361.4	45.4
361.611	129.36
361.823	57.68
362.034	90.45
362.245	20.82
362.456	4.44
362.667	51.54
362.879	49.49
363.09	39.25
363.301	63.83
363.512	155.99
363.723	-32.43
363.935	69.97
364.146	121.17
364.357	115.03
364.568	76.12
364.779	2.39
364.99	125.27
365.201	49.49
365.412	76.12
365.623	-44.71
365.834	41.3
366.045	57.68
366.256	178.51
366.467	178.51
366.678	-9.9
366.889	18.77
367.1	78.16
367.311	45.4
367.522	55.64
367.733	39.25
367.944	67.92
368.155	115.03
368.366	61.78
368.577	153.94
368.788	20.82
368.999	82.26
369.209	110.93
369.42	82.26
369.631	127.32
369.842	88.4
370.053	45.4
370.264	90.45
370.474	6.49
370.685	41.3
370.896	-26.28
371.107	176.47
371.317	129.36
371.528	106.84
371.739	69.97
371.95	117.08
372.16	141.65
372.371	0.34
372.582	49.49
372.792	139.6
373.003	57.68
373.214	33.11
373.424	31.06
373.635	49.49
373.846	125.27
374.056	69.97
374.267	2.39
374.477	78.16
374.688	86.36
374.898	49.49
375.109	141.65
375.319	108.88
375.53	-11.95
375.74	67.92
375.951	94.55
376.161	37.2
376.372	112.98
376.582	31.06
376.793	55.64
377.003	49.49
377.214	-5.8
377.424	63.83
377.635	59.73
377.845	35.16
378.055	121.17
378.266	61.78
378.476	20.82
378.686	80.21
378.897	51.54
379.107	-13.99
379.317	47.44
379.528	106.84
379.738	102.74
379.948	-1.71
380.158	90.45
380.369	69.97
380.579	137.56
380.789	69.97
380.999	78.16
381.21	90.45
381.42	170.32
381.63	115.03
381.84	51.54
382.05	43.35
382.261	141.65
382.471	170.32
382.681	110.93
382.891	26.96
383.101	35.16
383.311	76.12
383.521	80.21
383.731	102.74
383.941	76.12
384.151	57.68
384.361	96.6
384.571	57.68
384.781	106.84
384.991	96.6
385.201	192.85
385.411	149.84
385.621	92.5
385.831	61.78
386.041	90.45
386.251	39.25
386.461	63.83
386.671	63.83
386.881	72.02
387.091	61.78
387.301	110.93
387.511	41.3
387.72	102.74
387.93	129.36
388.14	59.73
388.35	55.64
388.56	53.59
388.769	108.88
388.979	88.4
389.189	39.25
389.399	24.92
389.609	69.97
389.818	110.93
390.028	31.06
390.238	115.03
390.447	41.3
390.657	57.68
390.867	72.02
391.076	43.35
391.286	80.21
391.496	96.6
391.705	78.16
391.915	155.99
392.125	92.5
392.334	125.27
392.544	123.22
392.753	125.27
392.963	63.83
393.172	53.59
393.382	47.44
393.591	139.6
393.801	131.41
394.01	133.46
394.22	121.17
394.429	92.5
394.639	133.46
394.848	82.26
395.058	33.11
395.267	108.88
395.477	92.5
395.686	100.69
395.895	207.19
396.105	158.03
396.314	127.32
396.524	94.55
396.733	139.6
396.942	196.95
397.152	119.12
397.361	166.23
397.57	65.88
397.78	155.99
397.989	96.6
398.198	135.51
398.407	72.02
398.617	135.51
398.826	141.65
399.035	155.99
399.244	153.94
399.453	108.88
399.663	155.99
399.872	145.75
400.081	166.23
400.29	198.99
400.499	119.12
400.708	178.51
400.917	188.75
401.127	186.71
401.336	112.98
401.545	231.76
401.754	184.66
401.963	127.32
402.172	82.26
402.381	143.7
402.59	90.45
402.799	233.81
403.008	194.9
403.217	235.86
403.426	258.39
403.635	190.8
403.844	223.57
404.053	237.91
404.262	170.32
404.471	239.95
404.68	174.42
404.888	211.28
405.097	252.24
405.306	264.53
405.515	209.23
405.724	256.34
405.933	287.06
406.142	350.54
406.35	262.48
406.559	313.68
406.768	264.53
406.977	248.15
407.185	317.78
407.394	248.15
407.603	219.47
407.812	235.86
408.02	334.16
408.229	325.97
408.438	328.02
408.646	328.02
408.855	350.54
409.064	418.13
409.272	332.11
409.481	389.46
409.69	448.85
409.898	428.37
410.107	381.26
410.315	465.23
410.524	454.99
410.733	563.53
410.941	500.05
411.15	526.67
411.358	608.59
411.567	602.44
411.775	538.96
411.984	524.62
412.192	618.83
412.401	678.22
412.609	577.87
412.818	672.08
413.026	784.71
413.234	682.31
413.443	782.67
413.651	784.71
413.86	758.09
414.068	756.04
414.276	874.82
414.485	895.3
414.693	993.61
414.901	1075.52
415.11	1014.09
415.318	1038.66
415.526	1016.13
415.734	1024.33
415.943	1046.85
416.151	1198.4
416.359	1208.64
416.567	1249.6
416.776	1354.05
416.984	1380.67
417.192	1354.05
417.4	1454.4
417.608	1440.06
417.817	1536.32
418.025	1583.42
418.233	1737.02
418.441	1700.16
418.649	1718.59
418.857	1788.22
419.065	1796.41
419.273	1859.9
419.481	1894.71
419.689	2036.02
419.897	2158.9
420.105	2089.27
420.313	2193.72
420.521	2382.13
420.729	2386.22
420.937	2429.23
421.145	2492.72
421.353	2713.9
421.561	2779.43
421.769	2890.03
421.977	3078.44
422.185	2976.04
422.393	3154.21
422.601	3275.04
422.809	3367.2
423.017	3340.58
423.224	3639.58
423.432	3635.49
423.64	3682.59
423.848	4006.17
424.056	3746.08
424.263	4186.39
424.471	4192.53
424.679	4190.49
424.887	4462.87
425.094	4555.02
425.302	4462.87
425.51	4813.07
425.718	4911.37
425.925	4901.13
426.133	5124.36
426.341	5652.74
426.548	5712.13
426.756	5783.81
426.964	5714.17
427.171	6254.84
427.379	6308.09
427.586	6228.21
427.794	6535.41
428.001	7004.39
428.209	7254.25
428.417	6981.87
428.624	7643.36
428.832	7624.93
429.039	7340.26
429.247	7549.15
429.454	8351.96
429.662	8689.87
429.869	8134.87
430.076	8861.9
430.284	8698.06
430.491	9152.71
430.699	9523.4
430.906	9423.05
431.114	9734.34
431.321	10019
431.528	10131.64
431.736	10801.33
431.943	11247.79
432.15	11014.32
432.358	10836.14
432.565	11741.35
432.772	11591.84
432.979	12179.61
433.187	12472.47
433.394	12624.02
433.601	13242.51
433.808	13701.25
434.016	13545.61
434.223	13947.01
434.43	14710.9
434.637	14473.34
434.844	15583.34
435.052	15564.9
435.259	15456.36
435.466	15624.29
435.673	15771.75
435.88	16552.02
436.087	17455.18
436.294	17295.44
436.501	17176.66
436.708	17598.54
436.915	17889.35
437.122	18710.58
437.329	18878.52
437.537	19370.03
437.743	19886.12
437.95	19365.93
438.157	20707.35
438.364	21219.35
438.571	20885.53
438.778	21471.25
438.985	23302.13
439.192	22204.42
439.399	22704.12
439.606	22781.95
439.813	24039.4
440.02	25325.52
440.227	24805.34
440.433	24750.04
440.64	25634.77
440.847	25358.29
441.054	25919.43
441.261	27652.02
441.467	27254.71
441.674	27606.96
441.881	28907.42
442.088	28993.43
442.294	28559.27
442.501	29216.66
442.708	29736.85
442.914	31031.16
443.121	32081.77
443.328	31174.52
443.534	33781.59
443.741	32778.08
443.948	32126.83
444.154	34733.89
444.361	34195.28
444.568	34594.63
444.774	34535.24
444.981	35020.61
445.187	36210.48
445.394	37629.72
445.6	37404.44
445.807	40449.77
446.013	38766.34
446.22	39407.36
446.426	41068.26
446.633	41397.98
446.839	42622.67
447.046	40750.82
447.252	43083.46
447.459	43151.04
447.665	43347.65
447.871	45008.55
448.078	47513.22
448.284	44576.43
448.491	45567.65
448.697	47906.43
448.903	48402.03
449.11	48592.5
449.316	48002.68
449.522	48549.49
449.728	49657.44
449.935	50134.62
450.141	50003.55
450.347	51125.83
450.553	50064.99
450.76	50738.77
450.966	52371
451.172	51371.59
451.378	53235.24
451.584	51871.29
451.791	52719.15
451.997	52766.26
452.203	53575.2
452.409	53587.49
452.615	53325.35
452.821	51521.09
453.027	50968.14
453.233	53100.08
453.44	51566.15
453.646	52309.56
453.852	52471.35
454.058	52723.25
454.264	51572.29
454.47	52813.36
454.676	51406.4
454.882	52608.56
455.088	49041
455.294	49231.46
455.5	50038.36
455.705	50146.9
455.911	48846.44
456.117	48072.31
456.323	47234.69
456.529	44981.93
456.735	46388.88
456.941	45475.49
457.147	44471.98
457.352	43337.41
457.558	43026.12
457.764	43099.84
457.97	42323.66
458.176	41195.23
458.381	41522.91
458.587	39474.94
458.793	39591.67
458.999	37328.67
459.204	39923.44
459.41	38930.18
459.616	36388.65
459.821	36652.84
460.027	36032.3
460.233	35501.88
460.438	33679.19
460.644	34158.41
460.85	32464.74
461.055	31993.71
461.261	32042.86
461.466	29503.38
461.672	29009.82
461.878	31006.59
462.083	28610.46
462.289	28157.86
462.494	27639.73
462.7	26603.46
462.905	26013.64
463.111	26720.19
463.316	26920.89
463.522	26609.6
463.727	26548.16
463.932	26578.88
464.138	25966.54
464.343	26308.55
464.549	25327.57
464.754	26558.4
464.959	25956.3
465.165	25663.44
465.37	24432.61
465.575	24059.88
465.781	25495.5
465.986	25372.63
466.191	24643.55
466.397	23973.86
466.602	22859.77
