Data from USB4F104151__95__12-42-57-044.txt Node

Date: Fri Mar 14 12:42:57 EDT 2025
User: louis
Spectrometer: USB4F10415
Trigger mode: 4
Integration Time (sec): 3.000000E-2
Scans to average: 1
Electric dark correction enabled: true
Nonlinearity correction enabled: false
Boxcar width: 0
XAxis mode: Wavelengths
Number of Pixels in Spectrum: 3648
>>>>>Begin Spectral Data<<<<<
178.204	-142.33
178.424	-142.33
178.644	-142.33
178.864	-171.01
179.084	-218.11
179.304	19.46
179.524	-41.98
179.744	-52.22
179.964	70.65
180.184	-3.07
180.404	-19.46
180.624	39.94
180.844	27.65
181.064	-29.7
181.283	-25.6
181.503	9.22
181.723	5.12
181.943	-101.37
182.163	-11.26
182.383	5.12
182.602	44.03
182.822	62.46
183.042	27.65
183.262	-21.5
183.482	-21.5
183.701	7.17
183.921	56.32
184.141	-11.26
184.361	52.22
184.58	56.32
184.8	-9.22
185.02	15.36
185.239	7.17
185.459	50.18
185.679	89.09
185.898	-52.22
186.118	70.65
186.338	60.42
186.557	84.99
186.777	-9.22
186.997	31.74
187.216	107.52
187.436	37.89
187.655	19.46
187.875	44.03
188.095	23.55
188.314	62.46
188.534	70.65
188.753	-11.26
188.973	80.89
189.192	68.61
189.412	82.94
189.631	70.65
189.851	17.41
190.07	54.27
190.29	27.65
190.509	-19.46
190.729	58.37
190.948	97.28
191.168	193.53
191.387	101.37
191.607	64.51
191.826	25.6
192.045	58.37
192.265	-1.02
192.484	25.6
192.704	-25.6
192.923	19.46
193.142	74.75
193.362	23.55
193.581	25.6
193.8	48.13
194.02	89.09
194.239	25.6
194.458	54.27
194.678	-21.5
194.897	54.27
195.116	-13.31
195.335	-44.03
195.555	33.79
195.774	33.79
195.993	68.61
196.212	-9.22
196.432	5.12
196.651	13.31
196.87	17.41
197.089	80.89
197.308	-21.5
197.528	-17.41
197.747	-27.65
197.966	64.51
198.185	91.13
198.404	-15.36
198.623	23.55
198.842	21.5
199.062	99.33
199.281	60.42
199.5	11.26
199.719	48.13
199.938	-19.46
200.157	70.65
200.376	56.32
200.595	25.6
200.814	93.18
201.033	31.74
201.252	66.56
201.471	91.13
201.69	25.6
201.909	39.94
202.128	13.31
202.347	39.94
202.566	-23.55
202.785	-3.07
203.004	-27.65
203.223	37.89
203.442	50.18
203.661	13.31
203.879	35.84
204.098	46.08
204.317	-5.12
204.536	50.18
204.755	-9.22
204.974	50.18
205.193	64.51
205.411	54.27
205.63	48.13
205.849	-19.46
206.068	25.6
206.287	44.03
206.505	87.04
206.724	50.18
206.943	62.46
207.162	39.94
207.381	5.12
207.599	41.98
207.818	31.74
208.037	-17.41
208.255	46.08
208.474	35.84
208.693	9.22
208.911	-29.7
209.13	-64.51
209.349	31.74
209.567	-62.46
209.786	9.22
210.005	29.7
210.223	50.18
210.442	-5.12
210.661	-31.74
210.879	41.98
211.098	62.46
211.316	74.75
211.535	39.94
211.753	-19.46
211.972	58.37
212.191	-7.17
212.409	78.85
212.628	17.41
212.846	19.46
213.065	58.37
213.283	72.7
213.502	25.6
213.72	13.31
213.938	-25.6
214.157	11.26
214.375	91.13
214.594	103.42
214.812	119.81
215.031	84.99
215.249	33.79
215.467	-13.31
215.686	27.65
215.904	62.46
216.122	3.07
216.341	62.46
216.559	-5.12
216.778	62.46
216.996	70.65
217.214	95.23
217.432	58.37
217.651	9.22
217.869	54.27
218.087	-31.74
218.306	21.5
218.524	5.12
218.742	35.84
218.96	29.7
219.179	19.46
219.397	52.22
219.615	58.37
219.833	74.75
220.051	7.17
220.27	123.9
220.488	44.03
220.706	54.27
220.924	23.55
221.142	91.13
221.36	82.94
221.578	39.94
221.796	97.28
222.015	78.85
222.233	-5.12
222.451	134.14
222.669	62.46
222.887	-15.36
223.105	-3.07
223.323	74.75
223.541	-25.6
223.759	93.18
223.977	-7.17
224.195	48.13
224.413	58.37
224.631	60.42
224.849	29.7
225.067	82.94
225.285	25.6
225.503	41.98
225.721	-5.12
225.939	19.46
226.157	78.85
226.375	72.7
226.592	-39.94
226.81	29.7
227.028	99.33
227.246	144.38
227.464	70.65
227.682	89.09
227.9	105.47
228.117	-11.26
228.335	66.56
228.553	7.17
228.771	74.75
228.989	76.8
229.206	23.55
229.424	99.33
229.642	-13.31
229.86	64.51
230.077	54.27
230.295	97.28
230.513	91.13
230.731	13.31
230.948	41.98
231.166	68.61
231.384	-11.26
231.601	-21.5
231.819	168.96
232.037	91.13
232.254	37.89
232.472	-11.26
232.689	21.5
232.907	15.36
233.125	21.5
233.342	17.41
233.56	9.22
233.777	37.89
233.995	72.7
234.213	72.7
234.43	29.7
234.648	13.31
234.865	70.65
235.083	11.26
235.3	39.94
235.518	58.37
235.735	154.62
235.953	19.46
236.17	1.02
236.388	-17.41
236.605	109.57
236.822	41.98
237.04	-31.74
237.257	60.42
237.475	-13.31
237.692	62.46
237.909	-5.12
238.127	68.61
238.344	-27.65
238.562	7.17
238.779	66.56
238.996	25.6
239.214	64.51
239.431	103.42
239.648	-13.31
239.865	54.27
240.083	-13.31
240.3	27.65
240.517	-54.27
240.735	31.74
240.952	21.5
241.169	44.03
241.386	64.51
241.603	80.89
241.821	19.46
242.038	33.79
242.255	29.7
242.472	-37.89
242.689	17.41
242.907	11.26
243.124	35.84
243.341	21.5
243.558	-23.55
243.775	41.98
243.992	37.89
244.209	37.89
244.426	101.37
244.643	70.65
244.86	-33.79
245.078	78.85
245.295	5.12
245.512	19.46
245.729	-5.12
245.946	23.55
246.163	54.27
246.38	39.94
246.597	44.03
246.814	103.42
247.031	56.32
247.248	52.22
247.464	48.13
247.681	-52.22
247.898	44.03
248.115	15.36
248.332	39.94
248.549	48.13
248.766	105.47
248.983	-11.26
249.2	-13.31
249.417	41.98
249.633	-15.36
249.85	35.84
250.067	17.41
250.284	29.7
250.501	95.23
250.717	37.89
250.934	1.02
251.151	82.94
251.368	27.65
251.585	-13.31
251.801	15.36
252.018	52.22
252.235	68.61
252.451	76.8
252.668	13.31
252.885	5.12
253.102	60.42
253.318	5.12
253.535	29.7
253.752	-80.89
253.968	-5.12
254.185	76.8
254.401	35.84
254.618	62.46
254.835	52.22
255.051	74.75
255.268	-35.84
255.484	41.98
255.701	-3.07
255.917	82.94
256.134	29.7
256.351	15.36
256.567	-1.02
256.784	-35.84
257	-35.84
257.217	101.37
257.433	46.08
257.65	-35.84
257.866	80.89
258.082	-15.36
258.299	-37.89
258.515	109.57
258.732	31.74
258.948	25.6
259.165	109.57
259.381	3.07
259.597	33.79
259.814	-41.98
260.03	66.56
260.246	95.23
260.463	46.08
260.679	76.8
260.895	54.27
261.112	33.79
261.328	-7.17
261.544	13.31
261.761	62.46
261.977	35.84
262.193	39.94
262.409	68.61
262.626	-1.02
262.842	64.51
263.058	-17.41
263.274	25.6
263.49	64.51
263.707	72.7
263.923	35.84
264.139	68.61
264.355	29.7
264.571	109.57
264.787	25.6
265.004	29.7
265.22	76.8
265.436	-15.36
265.652	21.5
265.868	35.84
266.084	44.03
266.3	15.36
266.516	-15.36
266.732	21.5
266.948	39.94
267.164	17.41
267.38	72.7
267.596	54.27
267.812	107.52
268.028	54.27
268.244	11.26
268.46	64.51
268.676	27.65
268.892	60.42
269.108	68.61
269.324	52.22
269.54	-56.32
269.756	78.85
269.972	27.65
270.188	97.28
270.403	7.17
270.619	-13.31
270.835	25.6
271.051	-27.65
271.267	9.22
271.483	54.27
271.698	-1.02
271.914	21.5
272.13	-7.17
272.346	60.42
272.562	48.13
272.777	-41.98
272.993	-1.02
273.209	15.36
273.425	13.31
273.64	-19.46
273.856	21.5
274.072	76.8
274.287	44.03
274.503	52.22
274.719	101.37
274.934	64.51
275.15	7.17
275.366	-1.02
275.581	-11.26
275.797	25.6
276.012	74.75
276.228	31.74
276.444	17.41
276.659	74.75
276.875	44.03
277.09	93.18
277.306	-13.31
277.521	21.5
277.737	48.13
277.952	74.75
278.168	95.23
278.383	35.84
278.599	68.61
278.814	25.6
279.03	39.94
279.245	82.94
279.461	15.36
279.676	107.52
279.892	99.33
280.107	9.22
280.322	7.17
280.538	56.32
280.753	93.18
280.969	33.79
281.184	76.8
281.399	76.8
281.615	64.51
281.83	56.32
282.045	54.27
282.26	68.61
282.476	31.74
282.691	54.27
282.906	119.81
283.122	31.74
283.337	-66.56
283.552	44.03
283.767	29.7
283.983	68.61
284.198	23.55
284.413	29.7
284.628	3.07
284.843	52.22
285.058	76.8
285.274	76.8
285.489	58.37
285.704	50.18
285.919	44.03
286.134	72.7
286.349	107.52
286.564	29.7
286.779	107.52
286.995	11.26
287.21	25.6
287.425	105.47
287.64	-13.31
287.855	50.18
288.07	-13.31
288.285	76.8
288.5	48.13
288.715	3.07
288.93	-1.02
289.145	52.22
289.36	115.71
289.575	72.7
289.79	68.61
290.004	11.26
290.219	11.26
290.434	80.89
290.649	95.23
290.864	19.46
291.079	13.31
291.294	76.8
291.509	-19.46
291.724	23.55
291.938	-41.98
292.153	103.42
292.368	-68.61
292.583	87.04
292.798	68.61
293.012	60.42
293.227	50.18
293.442	-35.84
293.657	58.37
293.871	56.32
294.086	134.14
294.301	91.13
294.516	87.04
294.73	-5.12
294.945	35.84
295.16	23.55
295.374	29.7
295.589	80.89
295.804	58.37
296.018	-35.84
296.233	7.17
296.447	56.32
296.662	41.98
296.877	70.65
297.091	23.55
297.306	44.03
297.52	-3.07
297.735	-27.65
297.949	54.27
298.164	142.33
298.378	-52.22
298.593	-48.13
298.807	52.22
299.022	37.89
299.236	93.18
299.451	17.41
299.665	-3.07
299.88	35.84
300.094	-41.98
300.309	39.94
300.523	142.33
300.737	-7.17
300.952	80.89
301.166	35.84
301.381	15.36
301.595	41.98
301.809	41.98
302.024	29.7
302.238	50.18
302.452	-19.46
302.667	37.89
302.881	35.84
303.095	54.27
303.309	50.18
303.524	39.94
303.738	37.89
303.952	17.41
304.166	44.03
304.381	19.46
304.595	125.95
304.809	78.85
305.023	-25.6
305.237	37.89
305.452	62.46
305.666	80.89
305.88	84.99
306.094	3.07
306.308	103.42
306.522	9.22
306.736	62.46
306.95	87.04
307.164	91.13
307.379	76.8
307.593	109.57
307.807	41.98
308.021	99.33
308.235	-41.98
308.449	-5.12
308.663	97.28
308.877	54.27
309.091	107.52
309.305	62.46
309.519	-11.26
309.733	58.37
309.947	25.6
310.161	109.57
310.374	70.65
310.588	117.76
310.802	39.94
311.016	41.98
311.23	25.6
311.444	5.12
311.658	13.31
311.872	84.99
312.085	113.66
312.299	185.34
312.513	58.37
312.727	84.99
312.941	21.5
313.154	56.32
313.368	95.23
313.582	41.98
313.796	87.04
314.009	54.27
314.223	35.84
314.437	82.94
314.651	3.07
314.864	-5.12
315.078	33.79
315.292	23.55
315.505	103.42
315.719	56.32
315.933	21.5
316.146	27.65
316.36	-5.12
316.573	123.9
316.787	29.7
317.001	64.51
317.214	-46.08
317.428	64.51
317.641	7.17
317.855	9.22
318.068	125.95
318.282	113.66
318.495	48.13
318.709	107.52
318.922	97.28
319.136	54.27
319.349	13.31
319.563	54.27
319.776	66.56
319.99	50.18
320.203	160.77
320.417	74.75
320.63	72.7
320.843	97.28
321.057	62.46
321.27	134.14
321.483	3.07
321.697	89.09
321.91	107.52
322.124	62.46
322.337	54.27
322.55	52.22
322.763	25.6
322.977	41.98
323.19	17.41
323.403	9.22
323.617	107.52
323.83	78.85
324.043	15.36
324.256	19.46
324.469	5.12
324.683	56.32
324.896	-35.84
325.109	74.75
325.322	-23.55
325.535	7.17
325.748	-29.7
325.962	54.27
326.175	64.51
326.388	109.57
326.601	107.52
326.814	52.22
327.027	50.18
327.24	97.28
327.453	60.42
327.666	5.12
327.879	60.42
328.092	39.94
328.305	52.22
328.518	58.37
328.731	-31.74
328.944	103.42
329.157	29.7
329.37	60.42
329.583	41.98
329.796	115.71
330.009	-9.22
330.222	21.5
330.435	74.75
330.648	44.03
330.861	68.61
331.073	54.27
331.286	162.81
331.499	29.7
331.712	35.84
331.925	99.33
332.138	99.33
332.35	62.46
332.563	-15.36
332.776	56.32
332.989	5.12
333.202	99.33
333.414	72.7
333.627	105.47
333.84	46.08
334.053	103.42
334.265	13.31
334.478	19.46
334.691	35.84
334.903	11.26
335.116	31.74
335.329	62.46
335.541	-3.07
335.754	99.33
335.966	50.18
336.179	46.08
336.392	39.94
336.604	13.31
336.817	37.89
337.029	78.85
337.242	76.8
337.454	76.8
337.667	89.09
337.88	70.65
338.092	66.56
338.305	91.13
338.517	5.12
338.729	52.22
338.942	44.03
339.154	41.98
339.367	91.13
339.579	99.33
339.792	-48.13
340.004	74.75
340.217	-25.6
340.429	48.13
340.641	41.98
340.854	68.61
341.066	-48.13
341.278	80.89
341.491	121.85
341.703	136.19
341.915	37.89
342.128	52.22
342.34	97.28
342.552	31.74
342.764	62.46
342.977	-25.6
343.189	-1.02
343.401	107.52
343.613	35.84
343.826	33.79
344.038	19.46
344.25	37.89
344.462	-54.27
344.674	56.32
344.886	76.8
345.099	62.46
345.311	89.09
345.523	50.18
345.735	21.5
345.947	119.81
346.159	103.42
346.371	68.61
346.583	78.85
346.795	82.94
347.007	99.33
347.219	52.22
347.431	37.89
347.643	115.71
347.855	25.6
348.067	107.52
348.279	62.46
348.491	58.37
348.703	9.22
348.915	56.32
349.127	-19.46
349.339	111.61
349.551	39.94
349.763	78.85
349.975	56.32
350.187	27.65
350.399	39.94
350.61	84.99
350.822	60.42
351.034	21.5
351.246	64.51
351.458	78.85
351.669	80.89
351.881	46.08
352.093	52.22
352.305	23.55
352.517	66.56
352.728	105.47
352.94	103.42
353.152	23.55
353.363	19.46
353.575	121.85
353.787	58.37
353.999	64.51
354.21	50.18
354.422	78.85
354.633	58.37
354.845	7.17
355.057	29.7
355.268	50.18
355.48	27.65
355.692	87.04
355.903	-37.89
356.115	37.89
356.326	-1.02
356.538	142.33
356.749	101.37
356.961	132.09
357.172	80.89
357.384	-9.22
357.595	82.94
357.807	74.75
358.018	46.08
358.23	101.37
358.441	109.57
358.653	175.1
358.864	62.46
359.075	48.13
359.287	62.46
359.498	-3.07
359.709	27.65
359.921	58.37
360.132	11.26
360.344	-31.74
360.555	39.94
360.766	58.37
360.977	101.37
361.189	160.77
361.4	74.75
361.611	146.43
361.823	101.37
362.034	60.42
362.245	-23.55
362.456	35.84
362.667	76.8
362.879	48.13
363.09	52.22
363.301	41.98
363.512	97.28
363.723	56.32
363.935	39.94
364.146	115.71
364.357	119.81
364.568	125.95
364.779	7.17
364.99	56.32
365.201	-11.26
365.412	154.62
365.623	29.7
365.834	46.08
366.045	-11.26
366.256	74.75
366.467	91.13
366.678	56.32
366.889	46.08
367.1	-1.02
367.311	72.7
367.522	62.46
367.733	48.13
367.944	70.65
368.155	54.27
368.366	60.42
368.577	66.56
368.788	72.7
368.999	84.99
369.209	-5.12
369.42	166.91
369.631	123.9
369.842	41.98
370.053	29.7
370.264	99.33
370.474	17.41
370.685	50.18
370.896	76.8
371.107	103.42
371.317	70.65
371.528	3.07
371.739	89.09
371.95	95.23
372.16	84.99
372.371	58.37
372.582	84.99
372.792	72.7
373.003	15.36
373.214	1.02
373.424	13.31
373.635	76.8
373.846	123.9
374.056	111.61
374.267	72.7
374.477	109.57
374.688	101.37
374.898	84.99
375.109	27.65
375.319	103.42
375.53	62.46
375.74	33.79
375.951	7.17
376.161	107.52
376.372	150.53
376.582	87.04
376.793	82.94
377.003	13.31
377.214	27.65
377.424	123.9
377.635	134.14
377.845	-3.07
378.055	115.71
378.266	70.65
378.476	27.65
378.686	-3.07
378.897	11.26
379.107	54.27
379.317	91.13
379.528	33.79
379.738	74.75
379.948	52.22
380.158	107.52
380.369	37.89
380.579	44.03
380.789	84.99
380.999	27.65
381.21	128
381.42	91.13
381.63	-19.46
381.84	-5.12
382.05	117.76
382.261	74.75
382.471	113.66
382.681	56.32
382.891	128
383.101	134.14
383.311	21.5
383.521	31.74
383.731	125.95
383.941	44.03
384.151	54.27
384.361	54.27
384.571	82.94
384.781	136.19
384.991	113.66
385.201	193.53
385.411	171.01
385.621	115.71
385.831	15.36
386.041	70.65
386.251	82.94
386.461	218.11
386.671	35.84
386.881	148.48
387.091	60.42
387.301	109.57
387.511	89.09
387.72	80.89
387.93	25.6
388.14	25.6
388.35	121.85
388.56	54.27
388.769	136.19
388.979	105.47
389.189	99.33
389.399	-5.12
389.609	103.42
389.818	128
390.028	115.71
390.238	95.23
390.447	58.37
390.657	154.62
390.867	41.98
391.076	89.09
391.286	3.07
391.496	138.24
391.705	25.6
391.915	105.47
392.125	119.81
392.334	119.81
392.544	119.81
392.753	89.09
392.963	68.61
393.172	66.56
393.382	99.33
393.591	117.76
393.801	27.65
394.01	175.1
394.22	60.42
394.429	177.15
394.639	48.13
394.848	164.86
395.058	109.57
395.267	101.37
395.477	150.53
395.686	162.81
395.895	144.38
396.105	132.09
396.314	164.86
396.524	205.82
396.733	97.28
396.942	185.34
397.152	123.9
397.361	164.86
397.57	168.96
397.78	76.8
397.989	97.28
398.198	168.96
398.407	168.96
398.617	140.29
398.826	156.67
399.035	142.33
399.244	140.29
399.453	130.05
399.663	134.14
399.872	125.95
400.081	195.58
400.29	207.87
400.499	189.44
400.708	97.28
400.917	154.62
401.127	111.61
401.336	168.96
401.545	152.57
401.754	289.79
401.963	140.29
402.172	132.09
402.381	162.81
402.59	162.81
402.799	119.81
403.008	144.38
403.217	203.77
403.426	177.15
403.635	128
403.844	185.34
404.053	197.63
404.262	185.34
404.471	345.08
404.68	166.91
404.888	240.64
405.097	236.54
405.306	193.53
405.515	340.99
405.724	197.63
405.933	252.92
406.142	207.87
406.35	259.07
406.559	287.74
406.768	289.79
406.977	273.4
407.185	300.03
407.394	324.6
407.603	218.11
407.812	289.79
408.02	273.4
408.229	383.99
408.438	293.88
408.646	295.93
408.855	367.61
409.064	359.42
409.272	304.12
409.481	422.91
409.69	427
409.898	240.64
410.107	429.05
410.315	396.28
410.524	414.71
410.733	529.4
410.941	392.19
411.15	533.5
411.358	519.16
411.567	596.98
411.775	574.46
411.984	680.95
412.192	619.51
412.401	607.22
412.609	693.24
412.818	664.57
413.026	648.18
413.234	834.55
413.443	699.38
413.651	699.38
413.86	775.16
414.068	855.03
414.276	920.56
414.485	912.37
414.693	893.94
414.901	1061.87
415.11	1049.58
415.318	938.99
415.526	1016.82
415.734	1137.65
415.943	1084.4
416.151	1227.76
416.359	1238
416.567	1209.33
416.776	1254.38
416.984	1354.73
417.192	1393.64
417.4	1414.12
417.608	1524.71
417.817	1471.47
418.025	1680.36
418.233	1745.89
418.441	1557.48
418.649	1780.71
418.857	1803.24
419.065	1946.59
419.273	1864.68
419.481	1991.65
419.689	2061.28
419.897	2118.62
420.105	2313.18
420.313	2221.02
420.521	2376.67
420.729	2370.52
420.937	2454.49
421.145	2583.51
421.353	2653.14
421.561	2669.53
421.769	2812.89
421.977	3079.12
422.185	2913.24
422.393	3273.68
422.601	3281.87
422.809	3378.12
423.017	3408.84
423.224	3322.83
423.432	3734.47
423.64	3656.65
423.848	3849.16
424.056	3875.78
424.263	4088.77
424.471	4213.7
424.679	4234.18
424.887	4418.49
425.094	4576.19
425.302	4510.65
425.51	4811.7
425.718	4856.76
425.925	4809.65
426.133	5180.34
426.341	5516.2
426.548	5755.82
426.756	5790.63
426.964	5698.47
427.171	6093.73
427.379	6114.21
427.586	6284.19
427.794	6585.24
428.001	6906.77
428.209	7027.6
428.417	7021.46
428.624	7388.05
428.832	7488.4
429.039	7478.16
429.247	7533.45
429.454	8090.5
429.662	8854.39
429.869	8168.32
430.076	8868.73
430.284	8520.57
430.491	9020.28
430.699	9556.85
430.906	9413.49
431.114	9485.17
431.321	9818.99
431.528	9966.44
431.736	10650.46
431.943	11195.22
432.15	10926.94
432.358	11027.29
432.565	11451.22
432.772	11645.77
432.979	12305.22
433.187	12542.78
433.394	12532.54
433.601	13316.92
433.808	13458.23
434.016	13294.39
434.223	13837.1
434.43	14678.82
434.637	14349.09
434.844	15381.27
435.052	15489.81
435.259	15401.75
435.466	15602.45
435.673	15403.8
435.88	16741.12
436.087	17400.57
436.294	17169.15
436.501	17064.7
436.708	17451.77
436.915	17986.29
437.122	18805.47
437.329	18696.93
437.537	19534.55
437.743	19567.32
437.95	19618.52
438.157	20460.23
438.364	21482.17
438.571	20947.65
438.778	21476.02
438.985	22977.19
439.192	22405.8
439.399	22762.15
439.606	22559.4
439.813	23794.32
440.02	25504.38
440.227	24937.09
440.433	24523.4
440.64	25205.38
440.847	25297.53
441.054	25860.73
441.261	27638.36
441.467	26755.69
441.674	27802.2
441.881	28889.67
442.088	28586.57
442.294	28219.99
442.501	29487.68
442.708	29588.03
442.914	30958.12
443.121	32250.39
443.328	31169.06
443.534	33653.25
443.741	32713.23
443.948	32373.27
444.154	34281.97
444.361	34478.58
444.568	34552.3
444.774	34388.47
444.981	35070.44
445.187	36352.47
445.394	37181.9
445.6	36952.52
445.807	40429.98
446.013	39020.97
446.22	39299.5
446.426	41005.45
446.633	41240.97
446.839	42713.46
447.046	41023.89
447.252	43280.75
447.459	43075.95
447.665	42953.07
447.871	44859.73
448.078	46405.95
448.284	44804.44
448.491	45658.44
448.697	47499.56
448.903	47968.55
449.11	48582.94
449.316	47778.09
449.522	48591.13
449.728	49934.6
449.935	50209.03
450.141	50037
450.347	51239.15
450.553	49555.72
450.76	50065.67
450.966	51882.22
451.172	51300.59
451.378	52830.43
451.584	51327.22
451.791	52660.44
451.997	52623.58
452.203	53573.84
452.409	53483.73
452.615	53278.93
452.821	51181.81
453.027	51185.91
453.233	53442.77
453.44	51507.44
453.646	52185.32
453.852	51808.49
454.058	52953.3
454.264	51402.99
454.47	52324.58
454.676	51071.22
454.882	53123.29
455.088	48883.99
455.294	49158.42
455.5	49787.14
455.705	50344.19
455.911	48263.46
456.117	47311.15
456.323	47198.51
456.529	44478.81
456.735	46790.97
456.941	45207.89
457.147	44421.47
457.352	43321.71
457.558	42568.05
457.764	43166.06
457.97	42371.45
458.176	41298.31
458.381	41025.93
458.587	39195.05
458.793	38850.99
458.999	36977.1
459.204	39666.08
459.41	39063.98
459.616	35977.69
459.821	36217.3
460.027	36145.62
460.233	35248.61
460.438	33901.05
460.644	34064.89
460.85	32569.87
461.055	31863.32
461.261	31891.99
461.466	29702.71
461.672	28688.97
461.878	30548.53
462.083	29069.89
462.289	28074.58
462.494	27552.35
462.7	26845.8
462.905	25672.31
463.111	26810.98
463.316	27013.73
463.522	26116.72
463.727	26321.52
463.932	26686.06
464.138	25868.92
464.343	25860.73
464.549	25217.66
464.754	26221.17
464.959	26108.53
465.165	25811.57
465.37	24726.15
465.575	24173.2
465.781	24982.15
465.986	25252.48
466.191	24199.82
466.397	24087.18
466.602	22702.76
