Data from USB4F104151__58__12-41-55-790.txt Node

Date: Fri Mar 14 12:41:55 EDT 2025
User: louis
Spectrometer: USB4F10415
Trigger mode: 4
Integration Time (sec): 3.000000E-2
Scans to average: 1
Electric dark correction enabled: true
Nonlinearity correction enabled: false
Boxcar width: 0
XAxis mode: Wavelengths
Number of Pixels in Spectrum: 3648
>>>>>Begin Spectral Data<<<<<
178.204	-146.09
178.424	-146.09
178.644	-146.09
178.864	-148.14
179.084	-150.18
179.304	42.32
179.524	-53.93
179.744	52.56
179.964	-2.73
180.184	-17.07
180.404	-10.92
180.624	66.9
180.844	77.14
181.064	-66.22
181.283	9.56
181.503	-101.03
181.723	3.41
181.943	-70.31
182.163	-8.87
182.383	-25.26
182.602	66.9
182.822	17.75
183.042	-74.41
183.262	-68.27
183.482	23.89
183.701	25.94
183.921	38.23
184.141	13.65
184.361	5.46
184.58	25.94
184.8	58.71
185.02	-72.36
185.239	73.04
185.459	77.14
185.679	32.08
185.898	-0.68
186.118	21.84
186.338	-19.11
186.557	34.13
186.777	-27.31
186.997	15.7
187.216	-33.45
187.436	132.44
187.655	-6.83
187.875	21.84
188.095	1.37
188.314	50.52
188.534	38.23
188.753	-6.83
188.973	52.56
189.192	122.2
189.412	21.84
189.631	-29.35
189.851	62.8
190.07	68.95
190.29	7.51
190.509	1.37
190.729	68.95
190.948	91.48
191.168	130.39
191.387	114
191.607	36.18
191.826	30.04
192.045	9.56
192.265	-29.35
192.484	32.08
192.704	27.99
192.923	-0.68
193.142	144.72
193.362	54.61
193.581	56.66
193.8	81.24
194.02	11.61
194.239	9.56
194.458	-12.97
194.678	11.61
194.897	3.41
195.116	42.32
195.335	15.7
195.555	44.37
195.774	32.08
195.993	54.61
196.212	38.23
196.432	36.18
196.651	13.65
196.87	38.23
197.089	30.04
197.308	-8.87
197.528	25.94
197.747	71
197.966	25.94
198.185	42.32
198.404	46.42
198.623	93.52
198.842	109.91
199.062	73.04
199.281	99.67
199.5	-12.97
199.719	19.8
199.938	30.04
200.157	34.13
200.376	-23.21
200.595	101.72
200.814	56.66
201.033	73.04
201.252	17.75
201.471	7.51
201.69	48.47
201.909	21.84
202.128	-31.4
202.347	17.75
202.566	-23.21
202.785	-0.68
203.004	32.08
203.223	107.86
203.442	-6.83
203.661	-4.78
203.879	81.24
204.098	17.75
204.317	-64.17
204.536	46.42
204.755	25.94
204.974	85.33
205.193	3.41
205.411	111.96
205.63	-19.11
205.849	23.89
206.068	17.75
206.287	1.37
206.505	27.99
206.724	7.51
206.943	17.75
207.162	23.89
207.381	42.32
207.599	21.84
207.818	-15.02
208.037	27.99
208.255	56.66
208.474	48.47
208.693	60.76
208.911	30.04
209.13	40.28
209.349	30.04
209.567	7.51
209.786	40.28
210.005	34.13
210.223	1.37
210.442	-72.36
210.661	71
210.879	66.9
211.098	64.85
211.316	-4.78
211.535	99.67
211.753	-17.07
211.972	7.51
212.191	-2.73
212.409	5.46
212.628	105.81
212.846	-19.11
213.065	68.95
213.283	93.52
213.502	-23.21
213.72	30.04
213.938	-4.78
214.157	89.43
214.375	81.24
214.594	50.52
214.812	62.8
215.031	36.18
215.249	40.28
215.467	19.8
215.686	-10.92
215.904	34.13
216.122	21.84
216.341	11.61
216.559	68.95
216.778	77.14
216.996	97.62
217.214	126.29
217.432	23.89
217.651	-39.59
217.869	-49.83
218.087	23.89
218.306	1.37
218.524	-35.5
218.742	-31.4
218.96	77.14
219.179	-82.6
219.397	99.67
219.615	185.68
219.833	68.95
220.051	-0.68
220.27	19.8
220.488	99.67
220.706	21.84
220.924	-25.26
221.142	-6.83
221.36	27.99
221.578	56.66
221.796	19.8
222.015	40.28
222.233	-21.16
222.451	62.8
222.669	1.37
222.887	21.84
223.105	56.66
223.323	52.56
223.541	15.7
223.759	27.99
223.977	27.99
224.195	73.04
224.413	30.04
224.631	77.14
224.849	68.95
225.067	97.62
225.285	-39.59
225.503	-0.68
225.721	-47.79
225.939	-27.31
226.157	-39.59
226.375	48.47
226.592	44.37
226.81	-8.87
227.028	-58.03
227.246	56.66
227.464	17.75
227.682	17.75
227.9	-15.02
228.117	81.24
228.335	32.08
228.553	95.57
228.771	-4.78
228.989	13.65
229.206	38.23
229.424	-23.21
229.642	44.37
229.86	-8.87
230.077	60.76
230.295	11.61
230.513	44.37
230.731	-27.31
230.948	13.65
231.166	19.8
231.384	1.37
231.601	-51.88
231.819	46.42
232.037	27.99
232.254	71
232.472	23.89
232.689	-45.74
232.907	-25.26
233.125	-2.73
233.342	-4.78
233.56	50.52
233.777	50.52
233.995	79.19
234.213	60.76
234.43	30.04
234.648	-2.73
234.865	23.89
235.083	21.84
235.3	68.95
235.518	71
235.735	-4.78
235.953	44.37
236.17	73.04
236.388	36.18
236.605	32.08
236.822	68.95
237.04	30.04
237.257	11.61
237.475	-35.5
237.692	46.42
237.909	25.94
238.127	46.42
238.344	48.47
238.562	38.23
238.779	46.42
238.996	9.56
239.214	34.13
239.431	142.68
239.648	-15.02
239.865	89.43
240.083	13.65
240.3	-23.21
240.517	-8.87
240.735	58.71
240.952	54.61
241.169	17.75
241.386	-10.92
241.603	-4.78
241.821	17.75
242.038	56.66
242.255	25.94
242.472	19.8
242.689	19.8
242.907	42.32
243.124	58.71
243.341	71
243.558	34.13
243.775	-19.11
243.992	44.37
244.209	118.1
244.426	66.9
244.643	95.57
244.86	-0.68
245.078	38.23
245.295	62.8
245.512	25.94
245.729	46.42
245.946	54.61
246.163	11.61
246.38	81.24
246.597	23.89
246.814	23.89
247.031	23.89
247.248	93.52
247.464	46.42
247.681	68.95
247.898	9.56
248.115	15.7
248.332	50.52
248.549	32.08
248.766	36.18
248.983	81.24
249.2	-19.11
249.417	42.32
249.633	5.46
249.85	25.94
250.067	7.51
250.284	17.75
250.501	62.8
250.717	68.95
250.934	-10.92
251.151	30.04
251.368	40.28
251.585	66.9
251.801	48.47
252.018	5.46
252.235	32.08
252.451	-49.83
252.668	-33.45
252.885	68.95
253.102	64.85
253.318	30.04
253.535	-21.16
253.752	48.47
253.968	32.08
254.185	7.51
254.401	30.04
254.618	-15.02
254.835	21.84
255.051	71
255.268	71
255.484	7.51
255.701	27.99
255.917	-43.69
256.134	-6.83
256.351	23.89
256.567	-10.92
256.784	64.85
257	-66.22
257.217	64.85
257.433	32.08
257.65	73.04
257.866	83.28
258.082	-0.68
258.299	-6.83
258.515	83.28
258.732	54.61
258.948	19.8
259.165	50.52
259.381	15.7
259.597	73.04
259.814	-10.92
260.03	71
260.246	40.28
260.463	46.42
260.679	42.32
260.895	73.04
261.112	50.52
261.328	79.19
261.544	1.37
261.761	54.61
261.977	48.47
262.193	-74.41
262.409	40.28
262.626	-2.73
262.842	-4.78
263.058	9.56
263.274	36.18
263.49	71
263.707	52.56
263.923	11.61
264.139	11.61
264.355	7.51
264.571	83.28
264.787	-31.4
265.004	52.56
265.22	58.71
265.436	-25.26
265.652	66.9
265.868	21.84
266.084	7.51
266.3	11.61
266.516	-25.26
266.732	71
266.948	85.33
267.164	32.08
267.38	54.61
267.596	-2.73
267.812	66.9
268.028	38.23
268.244	9.56
268.46	-6.83
268.676	5.46
268.892	27.99
269.108	44.37
269.324	21.84
269.54	5.46
269.756	3.41
269.972	19.8
270.188	5.46
270.403	-82.6
270.619	99.67
270.835	44.37
271.051	68.95
271.267	34.13
271.483	-68.27
271.698	52.56
271.914	101.72
272.13	13.65
272.346	-6.83
272.562	-60.07
272.777	27.99
272.993	21.84
273.209	40.28
273.425	11.61
273.64	60.76
273.856	17.75
274.072	40.28
274.287	-12.97
274.503	54.61
274.719	-4.78
274.934	11.61
275.15	-64.17
275.366	5.46
275.581	46.42
275.797	-33.45
276.012	42.32
276.228	13.65
276.444	36.18
276.659	23.89
276.875	54.61
277.09	-2.73
277.306	36.18
277.521	36.18
277.737	38.23
277.952	42.32
278.168	25.94
278.383	11.61
278.599	7.51
278.814	142.68
279.03	-23.21
279.245	9.56
279.461	-19.11
279.676	54.61
279.892	-37.55
280.107	5.46
280.322	40.28
280.538	52.56
280.753	44.37
280.969	3.41
281.184	27.99
281.399	93.52
281.615	46.42
281.83	97.62
282.045	-2.73
282.26	52.56
282.476	3.41
282.691	46.42
282.906	60.76
283.122	30.04
283.337	23.89
283.552	40.28
283.767	-39.59
283.983	34.13
284.198	3.41
284.413	-21.16
284.628	-41.64
284.843	-31.4
285.058	99.67
285.274	64.85
285.489	-33.45
285.704	81.24
285.919	48.47
286.134	-66.22
286.349	27.99
286.564	23.89
286.779	34.13
286.995	109.91
287.21	-43.69
287.425	23.89
287.64	32.08
287.855	52.56
288.07	34.13
288.285	56.66
288.5	77.14
288.715	85.33
288.93	-12.97
289.145	-6.83
289.36	60.76
289.575	50.52
289.79	81.24
290.004	5.46
290.219	23.89
290.434	1.37
290.649	27.99
290.864	7.51
291.079	60.76
291.294	-21.16
291.509	-31.4
291.724	-15.02
291.938	85.33
292.153	105.81
292.368	48.47
292.583	25.94
292.798	79.19
293.012	52.56
293.227	13.65
293.442	46.42
293.657	34.13
293.871	79.19
294.086	32.08
294.301	36.18
294.516	19.8
294.73	17.75
294.945	-6.83
295.16	11.61
295.374	87.38
295.589	38.23
295.804	-29.35
296.018	-12.97
296.233	3.41
296.447	40.28
296.662	-33.45
296.877	91.48
297.091	-0.68
297.306	-25.26
297.52	9.56
297.735	93.52
297.949	54.61
298.164	93.52
298.378	64.85
298.593	-0.68
298.807	-6.83
299.022	38.23
299.236	77.14
299.451	32.08
299.665	21.84
299.88	-6.83
300.094	30.04
300.309	-0.68
300.523	79.19
300.737	-23.21
300.952	9.56
301.166	97.62
301.381	56.66
301.595	1.37
301.809	79.19
302.024	11.61
302.238	52.56
302.452	44.37
302.667	21.84
302.881	66.9
303.095	89.43
303.309	13.65
303.524	30.04
303.738	48.47
303.952	77.14
304.166	32.08
304.381	52.56
304.595	36.18
304.809	-15.02
305.023	42.32
305.237	3.41
305.452	-31.4
305.666	7.51
305.88	1.37
306.094	99.67
306.308	-19.11
306.522	-66.22
306.736	77.14
306.95	17.75
307.164	42.32
307.379	-17.07
307.593	64.85
307.807	46.42
308.021	-2.73
308.235	-25.26
308.449	-35.5
308.663	44.37
308.877	103.76
309.091	54.61
309.305	-12.97
309.519	-35.5
309.733	50.52
309.947	-4.78
310.161	-2.73
310.374	75.09
310.588	83.28
310.802	7.51
311.016	-2.73
311.23	36.18
311.444	30.04
311.658	7.51
311.872	77.14
312.085	46.42
312.299	36.18
312.513	30.04
312.727	38.23
312.941	15.7
313.154	5.46
313.368	71
313.582	42.32
313.796	25.94
314.009	21.84
314.223	9.56
314.437	38.23
314.651	30.04
314.864	11.61
315.078	1.37
315.292	25.94
315.505	73.04
315.719	25.94
315.933	30.04
316.146	-12.97
316.36	-17.07
316.573	142.68
316.787	68.95
317.001	23.89
317.214	25.94
317.428	62.8
317.641	34.13
317.855	56.66
318.068	44.37
318.282	44.37
318.495	89.43
318.709	17.75
318.922	-43.69
319.136	111.96
319.349	79.19
319.563	71
319.776	138.58
319.99	60.76
320.203	116.05
320.417	27.99
320.63	30.04
320.843	85.33
321.057	42.32
321.27	105.81
321.483	13.65
321.697	13.65
321.91	11.61
322.124	36.18
322.337	-19.11
322.55	-6.83
322.763	23.89
322.977	75.09
323.19	34.13
323.403	42.32
323.617	-17.07
323.83	79.19
324.043	36.18
324.256	27.99
324.469	-23.21
324.683	77.14
324.896	-8.87
325.109	-51.88
325.322	-49.83
325.535	136.53
325.748	-4.78
325.962	13.65
326.175	7.51
326.388	87.38
326.601	40.28
326.814	19.8
327.027	34.13
327.24	73.04
327.453	44.37
327.666	40.28
327.879	111.96
328.092	91.48
328.305	95.57
328.518	38.23
328.731	-78.51
328.944	27.99
329.157	-47.79
329.37	79.19
329.583	130.39
329.796	17.75
330.009	19.8
330.222	58.71
330.435	46.42
330.648	9.56
330.861	52.56
331.073	-12.97
331.286	-23.21
331.499	62.8
331.712	-62.12
331.925	1.37
332.138	54.61
332.35	66.9
332.563	15.7
332.776	40.28
332.989	-0.68
333.202	-17.07
333.414	13.65
333.627	56.66
333.84	68.95
334.053	89.43
334.265	46.42
334.478	85.33
334.691	30.04
334.903	101.72
335.116	-33.45
335.329	73.04
335.541	21.84
335.754	128.34
335.966	-0.68
336.179	11.61
336.392	-15.02
336.604	19.8
336.817	83.28
337.029	54.61
337.242	42.32
337.454	79.19
337.667	21.84
337.88	23.89
338.092	30.04
338.305	30.04
338.517	-4.78
338.729	46.42
338.942	75.09
339.154	36.18
339.367	-2.73
339.579	66.9
339.792	62.8
340.004	66.9
340.217	-6.83
340.429	95.57
340.641	3.41
340.854	77.14
341.066	62.8
341.278	15.7
341.491	79.19
341.703	42.32
341.915	73.04
342.128	40.28
342.34	54.61
342.552	-0.68
342.764	17.75
342.977	-103.08
343.189	54.61
343.401	89.43
343.613	-6.83
343.826	79.19
344.038	-6.83
344.25	58.71
344.462	66.9
344.674	-0.68
344.886	30.04
345.099	116.05
345.311	77.14
345.523	30.04
345.735	-8.87
345.947	81.24
346.159	30.04
346.371	56.66
346.583	126.29
346.795	79.19
347.007	68.95
347.219	-4.78
347.431	66.9
347.643	-0.68
347.855	40.28
348.067	56.66
348.279	-10.92
348.491	36.18
348.703	56.66
348.915	-4.78
349.127	1.37
349.339	50.52
349.551	25.94
349.763	17.75
349.975	-19.11
350.187	83.28
350.399	42.32
350.61	-15.02
350.822	38.23
351.034	7.51
351.246	32.08
351.458	19.8
351.669	32.08
351.881	13.65
352.093	58.71
352.305	50.52
352.517	-33.45
352.728	99.67
352.94	-8.87
353.152	97.62
353.363	-23.21
353.575	75.09
353.787	107.86
353.999	60.76
354.21	30.04
354.422	44.37
354.633	-33.45
354.845	3.41
355.057	21.84
355.268	34.13
355.48	13.65
355.692	-2.73
355.903	107.86
356.115	-10.92
356.326	95.57
356.538	68.95
356.749	27.99
356.961	30.04
357.172	64.85
357.384	-37.55
357.595	165.2
357.807	64.85
358.018	-0.68
358.23	25.94
358.441	71
358.653	54.61
358.864	44.37
359.075	-29.35
359.287	34.13
359.498	32.08
359.709	32.08
359.921	27.99
360.132	38.23
360.344	71
360.555	19.8
360.766	85.33
360.977	34.13
361.189	99.67
361.4	11.61
361.611	21.84
361.823	89.43
362.034	138.58
362.245	7.51
362.456	32.08
362.667	36.18
362.879	46.42
363.09	73.04
363.301	138.58
363.512	34.13
363.723	44.37
363.935	38.23
364.146	42.32
364.357	19.8
364.568	34.13
364.779	1.37
364.99	25.94
365.201	87.38
365.412	44.37
365.623	-19.11
365.834	5.46
366.045	66.9
366.256	40.28
366.467	-23.21
366.678	-33.45
366.889	5.46
367.1	7.51
367.311	-2.73
367.522	-2.73
367.733	111.96
367.944	-19.11
368.155	64.85
368.366	50.52
368.577	64.85
368.788	3.41
368.999	-33.45
369.209	36.18
369.42	134.48
369.631	142.68
369.842	-43.69
370.053	77.14
370.264	73.04
370.474	21.84
370.685	77.14
370.896	5.46
371.107	79.19
371.317	-8.87
371.528	89.43
371.739	105.81
371.95	124.24
372.16	71
372.371	77.14
372.582	73.04
372.792	13.65
373.003	75.09
373.214	44.37
373.424	62.8
373.635	-2.73
373.846	118.1
374.056	75.09
374.267	34.13
374.477	46.42
374.688	95.57
374.898	52.56
375.109	81.24
375.319	9.56
375.53	17.75
375.74	42.32
375.951	107.86
376.161	-4.78
376.372	38.23
376.582	-33.45
376.793	23.89
377.003	62.8
377.214	11.61
377.424	64.85
377.635	54.61
377.845	34.13
378.055	85.33
378.266	36.18
378.476	21.84
378.686	60.76
378.897	93.52
379.107	75.09
379.317	42.32
379.528	27.99
379.738	66.9
379.948	73.04
380.158	95.57
380.369	85.33
380.579	-2.73
380.789	48.47
380.999	64.85
381.21	93.52
381.42	89.43
381.63	36.18
381.84	15.7
382.05	13.65
382.261	58.71
382.471	93.52
382.681	-12.97
382.891	77.14
383.101	36.18
383.311	3.41
383.521	85.33
383.731	21.84
383.941	40.28
384.151	19.8
384.361	91.48
384.571	25.94
384.781	-19.11
384.991	130.39
385.201	79.19
385.411	36.18
385.621	124.24
385.831	34.13
386.041	50.52
386.251	60.76
386.461	52.56
386.671	83.28
386.881	44.37
387.091	44.37
387.301	109.91
387.511	97.62
387.72	71
387.93	91.48
388.14	27.99
388.35	52.56
388.56	46.42
388.769	99.67
388.979	54.61
389.189	-12.97
389.399	71
389.609	50.52
389.818	64.85
390.028	77.14
390.238	25.94
390.447	36.18
390.657	34.13
390.867	85.33
391.076	36.18
391.286	60.76
391.496	58.71
391.705	50.52
391.915	89.43
392.125	68.95
392.334	62.8
392.544	140.63
392.753	81.24
392.963	58.71
393.172	134.48
393.382	-35.5
393.591	62.8
393.801	50.52
394.01	68.95
394.22	66.9
394.429	62.8
394.639	81.24
394.848	95.57
395.058	17.75
395.267	5.46
395.477	101.72
395.686	64.85
395.895	71
396.105	130.39
396.314	-0.68
396.524	83.28
396.733	85.33
396.942	89.43
397.152	93.52
397.361	157.01
397.57	23.89
397.78	48.47
397.989	19.8
398.198	87.38
398.407	134.48
398.617	56.66
398.826	99.67
399.035	64.85
399.244	99.67
399.453	48.47
399.663	126.29
399.872	105.81
400.081	146.77
400.29	136.53
400.499	144.72
400.708	130.39
400.917	134.48
401.127	142.68
401.336	120.15
401.545	202.07
401.754	109.91
401.963	116.05
402.172	216.4
402.381	46.42
402.59	128.34
402.799	122.2
403.008	179.54
403.217	140.63
403.426	116.05
403.635	111.96
403.844	30.04
404.053	118.1
404.262	132.44
404.471	181.59
404.68	144.72
404.888	81.24
405.097	148.82
405.306	75.09
405.515	159.06
405.724	159.06
405.933	122.2
406.142	177.49
406.35	204.11
406.559	183.63
406.768	202.07
406.977	228.69
407.185	185.68
407.394	249.17
407.603	214.35
407.812	204.11
408.02	224.59
408.229	273.75
408.438	179.54
408.646	214.35
408.855	267.6
409.064	249.17
409.272	277.84
409.481	324.94
409.69	238.93
409.898	259.41
410.107	245.07
410.315	316.75
410.524	263.51
410.733	359.76
410.941	234.83
411.15	376.14
411.358	331.09
411.567	398.67
411.775	445.77
411.984	435.53
412.192	462.16
412.401	406.86
412.609	515.41
412.818	531.79
413.026	386.38
413.234	568.65
413.443	496.97
413.651	558.41
413.86	519.5
414.068	673.1
414.276	701.77
414.485	650.57
414.693	652.62
414.901	757.07
415.11	740.68
415.318	714.06
415.526	777.55
415.734	904.52
415.943	884.04
416.151	808.26
416.359	724.3
416.567	939.33
416.776	1039.69
416.984	1021.25
417.192	996.68
417.4	1013.06
417.608	1146.18
417.817	1015.11
418.025	1152.32
418.233	1240.39
418.441	1035.59
418.649	1232.19
418.857	1318.21
419.065	1305.92
419.273	1258.82
419.481	1365.31
419.689	1490.24
419.897	1473.85
420.105	1494.33
420.313	1596.73
420.521	1611.07
420.729	1738.04
420.937	1621.31
421.145	1799.48
421.353	1797.43
421.561	1881.4
421.769	1912.12
421.977	2022.71
422.185	1951.03
422.393	2229.56
422.601	2370.87
422.809	2346.29
423.017	2293.04
423.224	2426.16
423.432	2442.54
423.64	2542.89
423.848	2702.64
424.056	2751.79
424.263	3003.69
424.471	2985.26
424.679	3038.5
424.887	3101.99
425.094	3278.12
425.302	3325.22
425.51	3411.23
425.718	3468.58
425.925	3458.34
426.133	3661.09
426.341	3970.33
426.548	3953.94
426.756	4050.2
426.964	4052.25
427.171	4259.09
427.379	4431.12
427.586	4447.51
427.794	4537.62
428.001	4869.39
428.209	5010.7
428.417	4758.8
428.624	5371.14
428.832	5305.6
429.039	5342.47
429.247	5240.07
429.454	5780.73
429.662	6219
429.869	5741.82
430.076	6280.44
430.284	5936.38
430.491	6190.33
430.699	6518
430.906	6730.99
431.114	6728.94
431.321	7040.23
431.528	7032.04
431.736	7513.31
431.943	7843.04
432.15	7695.58
432.358	7525.6
432.565	8070.36
432.772	8078.55
432.979	8578.26
433.187	8834.25
433.394	8635.6
433.601	9284.81
433.808	9370.82
434.016	9393.35
434.223	9678.02
434.43	10396.85
434.637	10120.38
434.844	10697.91
435.052	10790.06
435.259	10906.8
435.466	11152.56
435.673	10826.93
435.88	11377.83
436.087	12242.07
436.294	12108.96
436.501	11951.26
436.708	12416.15
436.915	12553.37
437.122	13157.52
437.329	13032.59
437.537	13409.42
437.743	13857.92
437.95	13677.7
438.157	14429.31
438.364	14929.01
438.571	15062.13
438.778	14640.25
438.985	16340.06
439.192	15610.98
439.399	15975.52
439.606	15608.94
439.813	16694.36
440.02	17509.45
440.227	17251.41
440.433	17140.82
440.64	17853.51
440.847	17583.18
441.054	17878.08
441.261	19405.87
441.467	19143.73
441.674	19459.12
441.881	20010.02
442.088	20247.58
442.294	19903.53
442.501	20450.33
442.708	20970.52
442.914	21625.87
443.121	22590.46
443.328	21873.67
443.534	23452.66
443.741	22887.42
443.948	22471.68
444.154	24103.91
444.361	23993.32
444.568	24513.5
444.774	24683.48
444.981	24466.4
445.187	25205.72
445.394	26180.55
445.6	26004.42
445.807	28650.4
446.013	27538.35
446.22	27630.51
446.426	28859.29
446.633	28783.52
446.839	30053.26
447.046	28830.62
447.252	30522.24
447.459	30677.89
447.665	30356.36
447.871	31617.91
448.078	33205.08
448.284	31507.32
448.491	32852.83
448.697	33743.7
448.903	34227.02
449.11	34106.19
449.316	33780.56
449.522	34665.28
449.728	35334.97
449.935	35509.05
450.141	35445.56
450.347	36426.54
450.553	35443.51
450.76	35849.01
450.966	37006.11
451.172	36711.21
451.378	37655.32
451.584	36588.33
451.791	37907.22
451.997	37624.6
452.203	38152.98
452.409	38144.78
452.615	37790.48
452.821	36797.22
453.027	36598.57
453.233	38294.28
453.44	36573.99
453.646	37298.97
453.852	37149.47
454.058	38126.35
454.264	36680.49
454.47	37235.49
454.676	36195.12
454.882	37982.99
455.088	34231.11
455.294	35113.79
455.5	35982.13
455.705	36244.27
455.911	34798.4
456.117	34122.57
456.323	33397.59
456.529	32199.53
456.735	33147.74
456.941	32234.35
457.147	31794.03
457.352	30931.84
457.558	30555.01
457.764	30743.42
457.97	29961.1
458.176	29406.1
458.381	29264.79
458.587	27890.6
458.793	28048.3
458.999	26401.73
459.204	28373.92
459.41	27534.26
459.616	25793.48
459.821	25545.68
460.027	25629.65
460.233	25263.06
460.438	24034.28
460.644	23958.5
460.85	23032.82
461.055	22711.29
461.261	22852.6
461.466	21109.78
461.672	20323.36
461.878	21842.95
462.083	20302.88
462.289	19924.01
462.494	19725.35
462.7	18785.33
462.905	18353.21
463.111	19174.45
463.316	19287.09
463.522	18922.55
463.727	18803.77
463.932	18748.47
464.138	18533.43
464.343	18674.74
464.549	17876.04
464.754	18609.21
464.959	18512.95
465.165	18410.56
465.37	17667.14
465.575	17204.3
465.781	17851.46
465.986	17964.1
466.191	17282.13
466.397	16727.13
466.602	16163.93
466.807	16522.33
467.012	16712.79
467.218	16610.39
467.423	16366.68
467.628	16440.41
467.833	17009.75
468.038	16524.38
