Data from USB4F104151__73__12-42-15-918.txt Node

Date: Fri Mar 14 12:42:15 EDT 2025
User: louis
Spectrometer: USB4F10415
Trigger mode: 4
Integration Time (sec): 3.000000E-2
Scans to average: 1
Electric dark correction enabled: true
Nonlinearity correction enabled: false
Boxcar width: 0
XAxis mode: Wavelengths
Number of Pixels in Spectrum: 3648
>>>>>Begin Spectral Data<<<<<
178.204	-114.69
178.424	-114.69
178.644	-114.69
178.864	-116.73
179.084	-122.88
179.304	-67.58
179.524	-8.19
179.744	12.29
179.964	100.35
180.184	26.62
180.404	30.72
180.624	-16.38
180.844	-28.67
181.064	36.86
181.283	-18.43
181.503	-63.49
181.723	-4.1
181.943	-6.14
182.163	104.45
182.383	-10.24
182.602	12.29
182.822	86.01
183.042	77.82
183.262	38.91
183.482	28.67
183.701	12.29
183.921	-10.24
184.141	-20.48
184.361	59.39
184.58	61.44
184.8	57.34
185.02	34.82
185.239	83.97
185.459	86.01
185.679	71.68
185.898	-34.82
186.118	26.62
186.338	32.77
186.557	38.91
186.777	-4.1
186.997	73.73
187.216	28.67
187.436	122.88
187.655	26.62
187.875	126.97
188.095	57.34
188.314	90.11
188.534	49.15
188.753	-28.67
188.973	88.06
189.192	30.72
189.412	63.49
189.631	12.29
189.851	12.29
190.07	172.03
190.29	-18.43
190.509	67.58
190.729	26.62
190.948	86.01
191.168	159.74
191.387	-20.48
191.607	-32.77
191.826	94.21
192.045	22.53
192.265	34.82
192.484	2.05
192.704	59.39
192.923	12.29
193.142	149.5
193.362	-14.34
193.581	10.24
193.8	-0
194.02	90.11
194.239	55.3
194.458	57.34
194.678	-24.58
194.897	-8.19
195.116	18.43
195.335	69.63
195.555	94.21
195.774	24.58
195.993	32.77
196.212	51.2
196.432	55.3
196.651	34.82
196.87	6.14
197.089	102.4
197.308	63.49
197.528	116.73
197.747	-32.77
197.966	57.34
198.185	77.82
198.404	43.01
198.623	36.86
198.842	75.77
199.062	57.34
199.281	47.1
199.5	104.45
199.719	77.82
199.938	94.21
200.157	98.3
200.376	92.16
200.595	45.06
200.814	8.19
201.033	2.05
201.252	38.91
201.471	51.2
201.69	36.86
201.909	65.53
202.128	118.78
202.347	51.2
202.566	75.77
202.785	4.1
203.004	61.44
203.223	79.87
203.442	86.01
203.661	4.1
203.879	18.43
204.098	90.11
204.317	4.1
204.536	110.59
204.755	47.1
204.974	61.44
205.193	10.24
205.411	172.03
205.63	49.15
205.849	112.64
206.068	-0
206.287	57.34
206.505	10.24
206.724	4.1
206.943	22.53
207.162	43.01
207.381	71.68
207.599	51.2
207.818	24.58
208.037	118.78
208.255	59.39
208.474	108.54
208.693	34.82
208.911	4.1
209.13	67.58
209.349	120.83
209.567	55.3
209.786	122.88
210.005	-4.1
210.223	-0
210.442	24.58
210.661	18.43
210.879	71.68
211.098	53.25
211.316	-2.05
211.535	59.39
211.753	98.3
211.972	10.24
212.191	-22.53
212.409	45.06
212.628	67.58
212.846	-6.14
213.065	122.88
213.283	83.97
213.502	-26.62
213.72	45.06
213.938	26.62
214.157	102.4
214.375	71.68
214.594	94.21
214.812	43.01
215.031	8.19
215.249	18.43
215.467	57.34
215.686	88.06
215.904	47.1
216.122	2.05
216.341	34.82
216.559	63.49
216.778	73.73
216.996	45.06
217.214	20.48
217.432	45.06
217.651	18.43
217.869	-6.14
218.087	47.1
218.306	-40.96
218.524	67.58
218.742	6.14
218.96	10.24
219.179	51.2
219.397	20.48
219.615	178.17
219.833	77.82
220.051	-12.29
220.27	79.87
220.488	-20.48
220.706	-6.14
220.924	26.62
221.142	16.38
221.36	124.93
221.578	77.82
221.796	57.34
222.015	49.15
222.233	30.72
222.451	57.34
222.669	-20.48
222.887	104.45
223.105	16.38
223.323	-34.82
223.541	26.62
223.759	71.68
223.977	-20.48
224.195	90.11
224.413	88.06
224.631	77.82
224.849	18.43
225.067	106.49
225.285	47.1
225.503	79.87
225.721	20.48
225.939	-4.1
226.157	61.44
226.375	163.84
226.592	20.48
226.81	20.48
227.028	65.53
227.246	180.22
227.464	10.24
227.682	43.01
227.9	36.86
228.117	114.69
228.335	43.01
228.553	6.14
228.771	83.97
228.989	38.91
229.206	-26.62
229.424	53.25
229.642	65.53
229.86	65.53
230.077	57.34
230.295	49.15
230.513	124.93
230.731	28.67
230.948	133.12
231.166	90.11
231.384	22.53
231.601	16.38
231.819	26.62
232.037	-14.34
232.254	28.67
232.472	-55.3
232.689	20.48
232.907	20.48
233.125	6.14
233.342	32.77
233.56	77.82
233.777	8.19
233.995	53.25
234.213	34.82
234.43	22.53
234.648	59.39
234.865	73.73
235.083	106.49
235.3	-18.43
235.518	53.25
235.735	32.77
235.953	6.14
236.17	-43.01
236.388	102.4
236.605	12.29
236.822	45.06
237.04	51.2
237.257	6.14
237.475	28.67
237.692	57.34
237.909	71.68
238.127	71.68
238.344	-18.43
238.562	116.73
238.779	-18.43
238.996	38.91
239.214	43.01
239.431	88.06
239.648	-2.05
239.865	57.34
240.083	88.06
240.3	83.97
240.517	-4.1
240.735	30.72
240.952	100.35
241.169	83.97
241.386	126.97
241.603	61.44
241.821	26.62
242.038	-16.38
242.255	12.29
242.472	4.1
242.689	28.67
242.907	94.21
243.124	51.2
243.341	63.49
243.558	-6.14
243.775	40.96
243.992	26.62
244.209	71.68
244.426	94.21
244.643	124.93
244.86	36.86
245.078	34.82
245.295	38.91
245.512	40.96
245.729	20.48
245.946	8.19
246.163	86.01
246.38	81.92
246.597	14.34
246.814	22.53
247.031	49.15
247.248	79.87
247.464	55.3
247.681	14.34
247.898	45.06
248.115	55.3
248.332	86.01
248.549	55.3
248.766	81.92
248.983	94.21
249.2	6.14
249.417	88.06
249.633	61.44
249.85	126.97
250.067	65.53
250.284	40.96
250.501	63.49
250.717	-8.19
250.934	45.06
251.151	112.64
251.368	-36.86
251.585	2.05
251.801	16.38
252.018	73.73
252.235	104.45
252.451	-4.1
252.668	106.49
252.885	88.06
253.102	38.91
253.318	6.14
253.535	-18.43
253.752	49.15
253.968	63.49
254.185	40.96
254.401	-6.14
254.618	77.82
254.835	4.1
255.051	34.82
255.268	-0
255.484	88.06
255.701	57.34
255.917	-22.53
256.134	12.29
256.351	86.01
256.567	75.77
256.784	32.77
257	6.14
257.217	126.97
257.433	83.97
257.65	51.2
257.866	26.62
258.082	-12.29
258.299	-22.53
258.515	79.87
258.732	10.24
258.948	26.62
259.165	26.62
259.381	-59.39
259.597	49.15
259.814	79.87
260.03	43.01
260.246	88.06
260.463	57.34
260.679	10.24
260.895	100.35
261.112	-6.14
261.328	30.72
261.544	26.62
261.761	129.02
261.977	14.34
262.193	-12.29
262.409	81.92
262.626	94.21
262.842	34.82
263.058	14.34
263.274	71.68
263.49	88.06
263.707	8.19
263.923	98.3
264.139	22.53
264.355	6.14
264.571	102.4
264.787	10.24
265.004	24.58
265.22	65.53
265.436	14.34
265.652	83.97
265.868	104.45
266.084	-34.82
266.3	30.72
266.516	12.29
266.732	94.21
266.948	-8.19
267.164	22.53
267.38	67.58
267.596	137.21
267.812	77.82
268.028	12.29
268.244	49.15
268.46	34.82
268.676	26.62
268.892	96.25
269.108	-0
269.324	-32.77
269.54	112.64
269.756	55.3
269.972	106.49
270.188	-16.38
270.403	61.44
270.619	-6.14
270.835	43.01
271.051	71.68
271.267	28.67
271.483	55.3
271.698	55.3
271.914	38.91
272.13	36.86
272.346	47.1
272.562	6.14
272.777	61.44
272.993	124.93
273.209	26.62
273.425	63.49
273.64	12.29
273.856	61.44
274.072	81.92
274.287	43.01
274.503	45.06
274.719	51.2
274.934	38.91
275.15	53.25
275.366	43.01
275.581	49.15
275.797	-10.24
276.012	47.1
276.228	18.43
276.444	4.1
276.659	79.87
276.875	-2.05
277.09	34.82
277.306	30.72
277.521	71.68
277.737	40.96
277.952	12.29
278.168	20.48
278.383	59.39
278.599	40.96
278.814	47.1
279.03	100.35
279.245	161.79
279.461	47.1
279.676	49.15
279.892	63.49
280.107	16.38
280.322	-18.43
280.538	28.67
280.753	40.96
280.969	51.2
281.184	88.06
281.399	81.92
281.615	6.14
281.83	34.82
282.045	-49.15
282.26	14.34
282.476	43.01
282.691	53.25
282.906	16.38
283.122	-55.3
283.337	98.3
283.552	77.82
283.767	-6.14
283.983	133.12
284.198	69.63
284.413	55.3
284.628	-20.48
284.843	49.15
285.058	16.38
285.274	90.11
285.489	14.34
285.704	59.39
285.919	18.43
286.134	8.19
286.349	36.86
286.564	79.87
286.779	6.14
286.995	92.16
287.21	-2.05
287.425	57.34
287.64	71.68
287.855	75.77
288.07	-22.53
288.285	110.59
288.5	98.3
288.715	79.87
288.93	65.53
289.145	22.53
289.36	92.16
289.575	32.77
289.79	67.58
290.004	40.96
290.219	75.77
290.434	12.29
290.649	-4.1
290.864	104.45
291.079	40.96
291.294	45.06
291.509	57.34
291.724	57.34
291.938	69.63
292.153	102.4
292.368	22.53
292.583	16.38
292.798	47.1
293.012	96.25
293.227	47.1
293.442	-32.77
293.657	71.68
293.871	75.77
294.086	79.87
294.301	96.25
294.516	77.82
294.73	18.43
294.945	-10.24
295.16	71.68
295.374	69.63
295.589	120.83
295.804	24.58
296.018	69.63
296.233	92.16
296.447	49.15
296.662	2.05
296.877	77.82
297.091	45.06
297.306	88.06
297.52	83.97
297.735	30.72
297.949	4.1
298.164	55.3
298.378	69.63
298.593	-4.1
298.807	-0
299.022	10.24
299.236	79.87
299.451	10.24
299.665	22.53
299.88	2.05
300.094	-6.14
300.309	-6.14
300.523	49.15
300.737	126.97
300.952	22.53
301.166	129.02
301.381	59.39
301.595	92.16
301.809	26.62
302.024	30.72
302.238	-22.53
302.452	182.27
302.667	71.68
302.881	47.1
303.095	67.58
303.309	53.25
303.524	-0
303.738	8.19
303.952	45.06
304.166	100.35
304.381	-0
304.595	38.91
304.809	12.29
305.023	26.62
305.237	2.05
305.452	102.4
305.666	63.49
305.88	108.54
306.094	94.21
306.308	69.63
306.522	86.01
306.736	102.4
306.95	61.44
307.164	92.16
307.379	18.43
307.593	22.53
307.807	131.07
308.021	143.36
308.235	22.53
308.449	-57.34
308.663	51.2
308.877	96.25
309.091	47.1
309.305	79.87
309.519	-10.24
309.733	96.25
309.947	61.44
310.161	118.78
310.374	77.82
310.588	22.53
310.802	24.58
311.016	-26.62
311.23	43.01
311.444	26.62
311.658	47.1
311.872	69.63
312.085	69.63
312.299	88.06
312.513	69.63
312.727	32.77
312.941	12.29
313.154	106.49
313.368	45.06
313.582	34.82
313.796	10.24
314.009	57.34
314.223	12.29
314.437	14.34
314.651	67.58
314.864	120.83
315.078	-14.34
315.292	67.58
315.505	28.67
315.719	96.25
315.933	-14.34
316.146	49.15
316.36	-4.1
316.573	90.11
316.787	53.25
317.001	112.64
317.214	-57.34
317.428	18.43
317.641	65.53
317.855	63.49
318.068	43.01
318.282	88.06
318.495	51.2
318.709	53.25
318.922	75.77
319.136	110.59
319.349	94.21
319.563	49.15
319.776	108.54
319.99	-24.58
320.203	114.69
320.417	14.34
320.63	20.48
320.843	-26.62
321.057	6.14
321.27	81.92
321.483	63.49
321.697	71.68
321.91	73.73
322.124	18.43
322.337	-0
322.55	-8.19
322.763	69.63
322.977	-10.24
323.19	12.29
323.403	61.44
323.617	49.15
323.83	79.87
324.043	57.34
324.256	32.77
324.469	45.06
324.683	135.17
324.896	67.58
325.109	10.24
325.322	22.53
325.535	79.87
325.748	79.87
325.962	47.1
326.175	73.73
326.388	73.73
326.601	71.68
326.814	79.87
327.027	-32.77
327.24	90.11
327.453	18.43
327.666	71.68
327.879	55.3
328.092	61.44
328.305	10.24
328.518	14.34
328.731	63.49
328.944	49.15
329.157	26.62
329.37	-0
329.583	100.35
329.796	65.53
330.009	-10.24
330.222	40.96
330.435	63.49
330.648	45.06
330.861	4.1
331.073	18.43
331.286	120.83
331.499	83.97
331.712	63.49
331.925	59.39
332.138	26.62
332.35	114.69
332.563	38.91
332.776	139.26
332.989	38.91
333.202	22.53
333.414	22.53
333.627	34.82
333.84	26.62
334.053	98.3
334.265	83.97
334.478	116.73
334.691	143.36
334.903	61.44
335.116	34.82
335.329	57.34
335.541	92.16
335.754	92.16
335.966	57.34
336.179	-12.29
336.392	92.16
336.604	34.82
336.817	104.45
337.029	59.39
337.242	-0
337.454	65.53
337.667	49.15
337.88	153.6
338.092	43.01
338.305	75.77
338.517	32.77
338.729	104.45
338.942	106.49
339.154	-6.14
339.367	-0
339.579	55.3
339.792	-38.91
340.004	45.06
340.217	-53.25
340.429	47.1
340.641	77.82
340.854	94.21
341.066	4.1
341.278	67.58
341.491	96.25
341.703	94.21
341.915	36.86
342.128	53.25
342.34	90.11
342.552	114.69
342.764	18.43
342.977	26.62
343.189	22.53
343.401	61.44
343.613	22.53
343.826	22.53
344.038	20.48
344.25	79.87
344.462	30.72
344.674	65.53
344.886	45.06
345.099	98.3
345.311	133.12
345.523	26.62
345.735	53.25
345.947	69.63
346.159	65.53
346.371	65.53
346.583	22.53
346.795	86.01
347.007	83.97
347.219	47.1
347.431	88.06
347.643	75.77
347.855	-10.24
348.067	67.58
348.279	-22.53
348.491	26.62
348.703	-0
348.915	43.01
349.127	-28.67
349.339	14.34
349.551	47.1
349.763	51.2
349.975	-30.72
350.187	118.78
350.399	118.78
350.61	12.29
350.822	124.93
351.034	71.68
351.246	69.63
351.458	96.25
351.669	110.59
351.881	112.64
352.093	67.58
352.305	94.21
352.517	22.53
352.728	79.87
352.94	77.82
353.152	57.34
353.363	-22.53
353.575	57.34
353.787	124.93
353.999	106.49
354.21	100.35
354.422	12.29
354.633	110.59
354.845	79.87
355.057	34.82
355.268	32.77
355.48	36.86
355.692	24.58
355.903	88.06
356.115	-38.91
356.326	-63.49
356.538	126.97
356.749	75.77
356.961	122.88
357.172	30.72
357.384	-24.58
357.595	137.21
357.807	30.72
358.018	43.01
358.23	53.25
358.441	94.21
358.653	38.91
358.864	65.53
359.075	73.73
359.287	90.11
359.498	83.97
359.709	65.53
359.921	47.1
360.132	45.06
360.344	18.43
360.555	49.15
360.766	-30.72
360.977	143.36
361.189	59.39
361.4	77.82
361.611	143.36
361.823	81.92
362.034	40.96
362.245	-6.14
362.456	131.07
362.667	83.97
362.879	61.44
363.09	51.2
363.301	79.87
363.512	100.35
363.723	59.39
363.935	122.88
364.146	30.72
364.357	57.34
364.568	90.11
364.779	-6.14
364.99	96.25
365.201	-4.1
365.412	83.97
365.623	-10.24
365.834	77.82
366.045	10.24
366.256	43.01
366.467	79.87
366.678	55.3
366.889	6.14
367.1	40.96
367.311	32.77
367.522	57.34
367.733	63.49
367.944	110.59
368.155	77.82
368.366	57.34
368.577	63.49
368.788	73.73
368.999	92.16
369.209	40.96
369.42	94.21
369.631	59.39
369.842	106.49
370.053	28.67
370.264	53.25
370.474	83.97
370.685	92.16
370.896	55.3
371.107	141.31
371.317	81.92
371.528	2.05
371.739	112.64
371.95	100.35
372.16	124.93
372.371	6.14
372.582	57.34
372.792	47.1
373.003	131.07
373.214	30.72
373.424	90.11
373.635	-28.67
373.846	81.92
374.056	155.65
374.267	90.11
374.477	100.35
374.688	43.01
374.898	6.14
375.109	30.72
375.319	34.82
375.53	96.25
375.74	98.3
375.951	81.92
376.161	126.97
376.372	120.83
376.582	26.62
376.793	67.58
377.003	71.68
377.214	8.19
377.424	108.54
377.635	90.11
377.845	8.19
378.055	147.45
378.266	110.59
378.476	30.72
378.686	43.01
378.897	83.97
379.107	98.3
379.317	47.1
379.528	20.48
379.738	135.17
379.948	28.67
380.158	75.77
380.369	120.83
380.579	133.12
380.789	96.25
380.999	90.11
381.21	149.5
381.42	145.41
381.63	26.62
381.84	114.69
382.05	98.3
382.261	83.97
382.471	55.3
382.681	69.63
382.891	92.16
383.101	106.49
383.311	26.62
383.521	28.67
383.731	92.16
383.941	67.58
384.151	59.39
384.361	79.87
384.571	4.1
384.781	16.38
384.991	100.35
385.201	161.79
385.411	67.58
385.621	96.25
385.831	47.1
386.041	51.2
386.251	47.1
386.461	108.54
386.671	98.3
386.881	73.73
387.091	51.2
387.301	77.82
387.511	131.07
387.72	30.72
387.93	36.86
388.14	59.39
388.35	49.15
388.56	108.54
388.769	43.01
388.979	98.3
389.189	73.73
389.399	73.73
389.609	88.06
389.818	108.54
390.028	49.15
390.238	141.31
390.447	16.38
390.657	96.25
390.867	18.43
391.076	104.45
391.286	102.4
391.496	149.5
391.705	86.01
391.915	116.73
392.125	32.77
392.334	69.63
392.544	180.22
392.753	94.21
392.963	71.68
393.172	-18.43
393.382	34.82
393.591	122.88
393.801	53.25
394.01	145.41
394.22	61.44
394.429	98.3
394.639	81.92
394.848	108.54
395.058	112.64
395.267	116.73
395.477	86.01
395.686	114.69
395.895	137.21
396.105	55.3
396.314	61.44
396.524	71.68
396.733	79.87
396.942	92.16
397.152	77.82
397.361	90.11
397.57	143.36
397.78	104.45
397.989	69.63
398.198	157.69
398.407	133.12
398.617	90.11
398.826	116.73
399.035	90.11
399.244	137.21
399.453	126.97
399.663	143.36
399.872	59.39
400.081	77.82
400.29	186.37
400.499	106.49
400.708	73.73
400.917	143.36
401.127	157.69
401.336	165.89
401.545	131.07
401.754	159.74
401.963	145.41
402.172	116.73
402.381	129.02
402.59	81.92
402.799	98.3
403.008	190.46
403.217	169.98
403.426	143.36
403.635	147.45
403.844	192.51
404.053	157.69
404.262	145.41
404.471	172.03
404.68	157.69
404.888	141.31
405.097	98.3
405.306	145.41
405.515	215.04
405.724	235.52
405.933	118.78
406.142	172.03
406.35	235.52
406.559	180.22
406.768	155.65
406.977	167.93
407.185	202.75
407.394	286.72
407.603	178.17
407.812	202.75
408.02	251.9
408.229	237.56
408.438	215.04
408.646	210.94
408.855	239.61
409.064	288.76
409.272	292.86
409.481	344.06
409.69	237.56
409.898	346.11
410.107	280.57
410.315	290.81
410.524	253.95
410.733	323.58
410.941	303.1
411.15	385.02
411.358	382.97
411.567	485.37
411.775	405.5
411.984	405.5
412.192	413.69
412.401	413.69
412.609	471.03
412.818	552.95
413.026	565.24
413.234	489.46
413.443	499.7
413.651	534.52
413.86	520.18
414.068	507.9
414.276	628.73
414.485	534.52
414.693	624.63
414.901	737.27
415.11	704.5
415.318	727.03
415.526	720.88
415.734	784.37
415.943	749.56
416.151	845.81
416.359	722.93
416.567	788.47
416.776	835.57
416.984	894.96
417.192	993.26
417.4	950.26
417.608	948.21
417.817	999.41
418.025	948.21
418.233	1097.71
418.441	1077.23
418.649	1183.73
418.857	1239.02
419.065	1325.04
419.273	1200.11
419.481	1325.04
419.689	1351.66
419.897	1456.11
420.105	1443.82
420.313	1476.59
420.521	1628.14
420.729	1636.33
420.937	1644.52
421.145	1671.14
421.353	1748.97
421.561	1847.27
421.769	1822.69
421.977	1916.9
422.185	1908.71
422.393	2029.54
422.601	2334.68
422.809	2224.09
423.017	2195.42
423.224	2357.21
423.432	2490.33
423.64	2385.88
423.848	2637.78
424.056	2566.1
424.263	2738.13
424.471	2738.13
424.679	2695.13
424.887	2861.01
425.094	3076.05
425.302	3129.3
425.51	3125.2
425.718	3184.59
425.925	3196.88
426.133	3377.1
426.341	3659.72
426.548	3661.77
426.756	3725.26
426.964	3817.41
427.171	4018.11
427.379	4143.04
427.586	4145.09
427.794	4349.89
428.001	4499.39
428.209	4796.34
428.417	4589.5
428.624	4954.04
428.832	5015.48
429.039	4945.84
429.247	4902.84
429.454	5382.06
429.662	5826.47
429.869	5388.21
430.076	5541.8
430.284	5674.92
430.491	5900.2
430.699	6090.66
430.906	6180.77
431.114	6203.3
431.321	6535.07
431.528	6662.04
431.736	7096.21
431.943	7458.7
432.15	7270.29
432.358	7260.05
432.565	7565.2
432.772	7585.68
432.979	7915.4
433.187	8091.52
433.394	8105.86
433.601	8585.08
433.808	8564.61
434.016	8755.07
434.223	9156.47
434.43	9549.68
434.637	9299.83
434.844	9801.58
435.052	10260.32
435.259	9946.98
435.466	10299.23
435.673	10248.04
435.88	10860.38
436.087	11450.19
436.294	11413.33
436.501	10981.21
436.708	11409.23
436.915	11820.88
437.122	12304.2
437.329	12353.35
437.537	12576.58
437.743	12887.87
437.95	12744.51
438.157	13385.52
438.364	13852.46
438.571	13926.19
438.778	13899.56
438.985	15173.4
439.192	14761.76
439.399	15048.47
439.606	14747.42
439.813	15658.77
440.02	16721.66
440.227	16039.69
440.433	15953.68
440.64	16621.31
440.847	16494.34
441.054	16867.07
441.261	17923.82
441.467	17477.37
441.674	18269.93
441.881	18716.39
442.088	18994.91
442.294	18626.28
442.501	18986.72
442.708	19433.18
442.914	20199.12
443.121	21264.06
443.328	20635.33
443.534	21999.28
443.741	21384.89
443.948	21028.54
444.154	22417.07
444.361	22744.74
444.568	22486.7
444.774	22738.6
444.981	22898.34
445.187	23455.39
445.394	24514.19
445.6	24061.58
445.807	26351.21
446.013	25644.66
446.22	25808.5
446.426	26670.7
446.633	27131.49
446.839	28253.78
447.046	26893.93
447.252	28616.27
447.459	28247.63
447.665	28366.42
447.871	29607.48
448.078	30664.24
448.284	29109.83
448.491	30092.85
448.697	31538.72
448.903	32073.24
449.11	32052.76
449.316	31520.29
449.522	32329.23
449.728	33052.17
449.935	32982.54
450.141	33052.17
450.347	34006.52
450.553	33080.84
450.76	33322.5
450.966	34317.81
451.172	34045.43
451.378	34657.78
451.584	34156.02
451.791	35216.87
451.997	35126.76
452.203	35446.24
452.409	35493.35
452.615	35671.52
452.821	34088.44
453.027	33562.11
453.233	35356.13
453.44	34100.73
453.646	34803.18
453.852	34661.87
454.058	35352.04
454.264	34303.48
454.47	35091.94
454.676	34065.91
454.882	35341.8
455.088	32337.43
455.294	32669.2
455.5	33099.27
455.705	33474.05
455.911	32347.67
456.117	31381.03
456.323	31098.41
456.529	29623.87
456.735	30961.19
456.941	30400.05
457.147	29560.38
457.352	28913.22
457.558	28307.02
457.764	28569.16
457.97	27971.16
458.176	27068
458.381	26986.08
458.587	26089.07
458.793	25849.46
458.999	24905.35
459.204	26478.19
459.41	25800.31
459.616	23637.66
459.821	24241.81
460.027	23850.64
460.233	23479.96
460.438	22253.23
460.644	22824.61
460.85	21462.71
461.055	21421.75
461.261	21257.92
461.466	19953.36
461.672	18882.27
461.878	20598.47
462.083	18667.24
462.289	18550.5
462.494	18585.32
462.7	17688.31
462.905	17219.32
463.111	17839.86
463.316	17800.94
463.522	17463.03
463.727	17526.52
463.932	17555.19
464.138	17358.58
464.343	17473.27
464.549	16752.38
464.754	17409.78
464.959	17200.89
465.165	17280.76
465.37	16523.01
465.575	16006.92
465.781	16596.74
465.986	16746.24
466.191	16084.75
466.397	15927.05
466.602	14941.98
466.807	15720.21
467.012	15609.62
467.218	15542.03
467.423	15339.29
467.628	15486.74
