Data from USB4F104151__30__12-41-13-704.txt Node

Date: Fri Mar 14 12:41:13 EDT 2025
User: louis
Spectrometer: USB4F10415
Trigger mode: 4
Integration Time (sec): 3.000000E-2
Scans to average: 1
Electric dark correction enabled: true
Nonlinearity correction enabled: false
Boxcar width: 0
XAxis mode: Wavelengths
Number of Pixels in Spectrum: 3648
>>>>>Begin Spectral Data<<<<<
178.204	-154.45
178.424	-154.45
178.644	-154.45
178.864	-97.11
179.084	-123.73
179.304	11.43
179.524	-60.24
179.744	-27.48
179.964	1.19
180.184	15.53
180.404	11.43
180.624	-43.86
180.844	21.67
181.064	5.29
181.283	3.24
181.503	3.24
181.723	58.54
181.943	-82.77
182.163	38.06
182.383	-43.86
182.602	-13.14
182.822	58.54
183.042	9.39
183.262	15.53
183.482	29.87
183.701	3.24
183.921	48.3
184.141	-43.86
184.361	56.49
184.58	17.58
184.8	52.39
185.02	36.01
185.239	52.39
185.459	-13.14
185.679	21.67
185.898	-35.67
186.118	81.07
186.338	23.72
186.557	-13.14
186.777	-29.52
186.997	54.44
187.216	-21.33
187.436	76.97
187.655	62.63
187.875	7.34
188.095	27.82
188.314	33.96
188.534	-7
188.753	-17.24
188.973	-19.29
189.192	113.83
189.412	68.78
189.631	-11.09
189.851	-45.91
190.07	48.3
190.29	-43.86
190.509	27.82
190.729	70.83
190.948	52.39
191.168	85.16
191.387	15.53
191.607	38.06
191.826	97.45
192.045	-21.33
192.265	81.07
192.484	-0.85
192.704	87.21
192.923	-58.2
193.142	103.59
193.362	50.35
193.581	64.68
193.8	13.48
194.02	42.15
194.239	17.58
194.458	25.77
194.678	-19.29
194.897	44.2
195.116	21.67
195.335	-56.15
195.555	-25.43
195.774	31.91
195.993	25.77
196.212	15.53
196.432	-50
196.651	-15.19
196.87	68.78
197.089	111.78
197.308	19.63
197.528	56.49
197.747	-19.29
197.966	38.06
198.185	105.64
198.404	70.83
198.623	52.39
198.842	68.78
199.062	25.77
199.281	132.26
199.5	48.3
199.719	-31.57
199.938	95.4
200.157	44.2
200.376	40.11
200.595	93.35
200.814	-19.29
201.033	-29.52
201.252	19.63
201.471	42.15
201.69	68.78
201.909	54.44
202.128	50.35
202.347	81.07
202.566	5.29
202.785	-4.95
203.004	-7
203.223	40.11
203.442	5.29
203.661	31.91
203.879	52.39
204.098	48.3
204.317	44.2
204.536	36.01
204.755	38.06
204.974	29.87
205.193	36.01
205.411	48.3
205.63	101.55
205.849	-19.29
206.068	42.15
206.287	17.58
206.505	13.48
206.724	-13.14
206.943	-9.05
207.162	40.11
207.381	38.06
207.599	68.78
207.818	-7
208.037	-41.81
208.255	7.34
208.474	44.2
208.693	17.58
208.911	27.82
209.13	3.24
209.349	21.67
209.567	56.49
209.786	109.74
210.005	91.31
210.223	15.53
210.442	31.91
210.661	15.53
210.879	56.49
211.098	-35.67
211.316	-9.05
211.535	40.11
211.753	5.29
211.972	44.2
212.191	3.24
212.409	-23.38
212.628	-21.33
212.846	58.54
213.065	38.06
213.283	52.39
213.502	46.25
213.72	52.39
213.938	33.96
214.157	76.97
214.375	95.4
214.594	48.3
214.812	72.87
215.031	-37.72
215.249	-17.24
215.467	42.15
215.686	91.31
215.904	38.06
216.122	25.77
216.341	115.88
216.559	11.43
216.778	31.91
216.996	44.2
217.214	23.72
217.432	9.39
217.651	70.83
217.869	-17.24
218.087	-33.62
218.306	27.82
218.524	72.87
218.742	25.77
218.96	38.06
219.179	50.35
219.397	89.26
219.615	70.83
219.833	40.11
220.051	13.48
220.27	87.21
220.488	91.31
220.706	68.78
220.924	13.48
221.142	70.83
221.36	-33.62
221.578	68.78
221.796	-9.05
222.015	91.31
222.233	42.15
222.451	31.91
222.669	74.92
222.887	44.2
223.105	-23.38
223.323	23.72
223.541	21.67
223.759	-15.19
223.977	-15.19
224.195	60.59
224.413	27.82
224.631	44.2
224.849	64.68
225.067	74.92
225.285	-80.72
225.503	64.68
225.721	-62.29
225.939	-52.05
226.157	29.87
226.375	142.5
226.592	-93.01
226.81	23.72
227.028	146.6
227.246	156.84
227.464	42.15
227.682	1.19
227.9	-19.29
228.117	48.3
228.335	-17.24
228.553	70.83
228.771	5.29
228.989	111.78
229.206	13.48
229.424	1.19
229.642	15.53
229.86	42.15
230.077	85.16
230.295	56.49
230.513	56.49
230.731	1.19
230.948	81.07
231.166	40.11
231.384	38.06
231.601	-31.57
231.819	111.78
232.037	1.19
232.254	-39.76
232.472	50.35
232.689	25.77
232.907	68.78
233.125	15.53
233.342	58.54
233.56	36.01
233.777	-60.24
233.995	105.64
234.213	64.68
234.43	62.63
234.648	68.78
234.865	5.29
235.083	27.82
235.3	-25.43
235.518	64.68
235.735	58.54
235.953	15.53
236.17	76.97
236.388	44.2
236.605	38.06
236.822	-7
237.04	48.3
237.257	-19.29
237.475	-7
237.692	27.82
237.909	56.49
238.127	-39.76
238.344	-29.52
238.562	79.02
238.779	76.97
238.996	44.2
239.214	-2.9
239.431	21.67
239.648	-13.14
239.865	66.73
240.083	64.68
240.3	38.06
240.517	38.06
240.735	68.78
240.952	62.63
241.169	152.74
241.386	29.87
241.603	68.78
241.821	-13.14
242.038	50.35
242.255	-11.09
242.472	-21.33
242.689	31.91
242.907	27.82
243.124	21.67
243.341	-39.76
243.558	23.72
243.775	1.19
243.992	-25.43
244.209	76.97
244.426	124.07
244.643	-35.67
244.86	15.53
245.078	9.39
245.295	48.3
245.512	15.53
245.729	29.87
245.946	13.48
246.163	68.78
246.38	23.72
246.597	-23.38
246.814	-29.52
247.031	42.15
247.248	33.96
247.464	23.72
247.681	-7
247.898	11.43
248.115	25.77
248.332	48.3
248.549	21.67
248.766	66.73
248.983	15.53
249.2	-9.05
249.417	44.2
249.633	31.91
249.85	-7
250.067	38.06
250.284	23.72
250.501	68.78
250.717	97.45
250.934	-25.43
251.151	1.19
251.368	-31.57
251.585	99.5
251.801	-52.05
252.018	25.77
252.235	68.78
252.451	3.24
252.668	40.11
252.885	1.19
253.102	56.49
253.318	60.59
253.535	42.15
253.752	-17.24
253.968	33.96
254.185	-7
254.401	-27.48
254.618	64.68
254.835	7.34
255.051	62.63
255.268	-35.67
255.484	48.3
255.701	36.01
255.917	48.3
256.134	-2.9
256.351	54.44
256.567	-2.9
256.784	-41.81
257	-13.14
257.217	31.91
257.433	93.35
257.65	70.83
257.866	68.78
258.082	33.96
258.299	48.3
258.515	48.3
258.732	27.82
258.948	-29.52
259.165	15.53
259.381	9.39
259.597	23.72
259.814	58.54
260.03	38.06
260.246	15.53
260.463	11.43
260.679	21.67
260.895	19.63
261.112	74.92
261.328	-0.85
261.544	19.63
261.761	68.78
261.977	36.01
262.193	-33.62
262.409	-11.09
262.626	46.25
262.842	5.29
263.058	42.15
263.274	23.72
263.49	36.01
263.707	-7
263.923	-7
264.139	-0.85
264.355	-35.67
264.571	29.87
264.787	21.67
265.004	87.21
265.22	50.35
265.436	21.67
265.652	70.83
265.868	27.82
266.084	-0.85
266.3	40.11
266.516	85.16
266.732	62.63
266.948	56.49
267.164	74.92
267.38	38.06
267.596	-13.14
267.812	50.35
268.028	25.77
268.244	44.2
268.46	33.96
268.676	74.92
268.892	89.26
269.108	87.21
269.324	23.72
269.54	-19.29
269.756	70.83
269.972	-7
270.188	-25.43
270.403	29.87
270.619	19.63
270.835	74.92
271.051	21.67
271.267	-2.9
271.483	9.39
271.698	25.77
271.914	38.06
272.13	64.68
272.346	-0.85
272.562	-2.9
272.777	-4.95
272.993	109.74
273.209	-21.33
273.425	52.39
273.64	36.01
273.856	87.21
274.072	-13.14
274.287	36.01
274.503	44.2
274.719	101.55
274.934	-11.09
275.15	-33.62
275.366	79.02
275.581	-25.43
275.797	15.53
276.012	60.59
276.228	29.87
276.444	7.34
276.659	79.02
276.875	-31.57
277.09	9.39
277.306	68.78
277.521	52.39
277.737	25.77
277.952	-7
278.168	72.87
278.383	7.34
278.599	-2.9
278.814	42.15
279.03	54.44
279.245	95.4
279.461	25.77
279.676	-31.57
279.892	-62.29
280.107	-80.72
280.322	-19.29
280.538	68.78
280.753	58.54
280.969	83.11
281.184	-19.29
281.399	50.35
281.615	126.12
281.83	31.91
282.045	-29.52
282.26	70.83
282.476	-58.2
282.691	11.43
282.906	-9.05
283.122	36.01
283.337	11.43
283.552	42.15
283.767	-11.09
283.983	97.45
284.198	38.06
284.413	25.77
284.628	-25.43
284.843	7.34
285.058	113.83
285.274	64.68
285.489	11.43
285.704	1.19
285.919	31.91
286.134	-7
286.349	1.19
286.564	19.63
286.779	31.91
286.995	81.07
287.21	1.19
287.425	-15.19
287.64	13.48
287.855	7.34
288.07	-4.95
288.285	38.06
288.5	23.72
288.715	107.69
288.93	-29.52
289.145	25.77
289.36	42.15
289.575	21.67
289.79	85.16
290.004	15.53
290.219	105.64
290.434	-62.29
290.649	-80.72
290.864	72.87
291.079	27.82
291.294	64.68
291.509	66.73
291.724	33.96
291.938	23.72
292.153	87.21
292.368	40.11
292.583	38.06
292.798	64.68
293.012	-15.19
293.227	95.4
293.442	40.11
293.657	66.73
293.871	115.88
294.086	103.59
294.301	60.59
294.516	15.53
294.73	97.45
294.945	-25.43
295.16	66.73
295.374	62.63
295.589	17.58
295.804	52.39
296.018	54.44
296.233	66.73
296.447	68.78
296.662	-7
296.877	89.26
297.091	105.64
297.306	-15.19
297.52	74.92
297.735	111.78
297.949	-9.05
298.164	48.3
298.378	81.07
298.593	-4.95
298.807	-13.14
299.022	27.82
299.236	66.73
299.451	-41.81
299.665	-41.81
299.88	-15.19
300.094	87.21
300.309	42.15
300.523	-0.85
300.737	38.06
300.952	72.87
301.166	33.96
301.381	5.29
301.595	9.39
301.809	9.39
302.024	56.49
302.238	44.2
302.452	93.35
302.667	17.58
302.881	117.93
303.095	44.2
303.309	50.35
303.524	-45.91
303.738	29.87
303.952	3.24
304.166	-37.72
304.381	-41.81
304.595	79.02
304.809	62.63
305.023	64.68
305.237	5.29
305.452	38.06
305.666	46.25
305.88	17.58
306.094	52.39
306.308	23.72
306.522	66.73
306.736	29.87
306.95	66.73
307.164	-19.29
307.379	23.72
307.593	79.02
307.807	15.53
308.021	87.21
308.235	52.39
308.449	74.92
308.663	56.49
308.877	103.59
309.091	5.29
309.305	-2.9
309.519	7.34
309.733	111.78
309.947	54.44
310.161	56.49
310.374	81.07
310.588	85.16
310.802	-9.05
311.016	-13.14
311.23	89.26
311.444	9.39
311.658	31.91
311.872	79.02
312.085	103.59
312.299	97.45
312.513	56.49
312.727	101.55
312.941	-39.76
313.154	87.21
313.368	25.77
313.582	-29.52
313.796	17.58
314.009	19.63
314.223	31.91
314.437	60.59
314.651	36.01
314.864	56.49
315.078	-11.09
315.292	44.2
315.505	74.92
315.719	-2.9
315.933	17.58
316.146	23.72
316.36	-0.85
316.573	76.97
316.787	68.78
317.001	21.67
317.214	21.67
317.428	-7
317.641	-35.67
317.855	-7
318.068	-41.81
318.282	58.54
318.495	136.36
318.709	44.2
318.922	15.53
319.136	40.11
319.349	64.68
319.563	13.48
319.776	-15.19
319.99	25.77
320.203	64.68
320.417	60.59
320.63	23.72
320.843	66.73
321.057	46.25
321.27	36.01
321.483	23.72
321.697	99.5
321.91	58.54
322.124	40.11
322.337	56.49
322.55	5.29
322.763	-17.24
322.977	46.25
323.19	62.63
323.403	-7
323.617	-13.14
323.83	-39.76
324.043	7.34
324.256	56.49
324.469	-45.91
324.683	29.87
324.896	-11.09
325.109	48.3
325.322	-64.34
325.535	93.35
325.748	70.83
325.962	93.35
326.175	17.58
326.388	46.25
326.601	-2.9
326.814	17.58
327.027	23.72
327.24	107.69
327.453	33.96
327.666	27.82
327.879	44.2
328.092	101.55
328.305	23.72
328.518	15.53
328.731	29.87
328.944	33.96
329.157	50.35
329.37	62.63
329.583	36.01
329.796	62.63
330.009	-11.09
330.222	50.35
330.435	87.21
330.648	81.07
330.861	19.63
331.073	68.78
331.286	150.7
331.499	29.87
331.712	40.11
331.925	48.3
332.138	-4.95
332.35	21.67
332.563	23.72
332.776	25.77
332.989	15.53
333.202	60.59
333.414	23.72
333.627	42.15
333.84	36.01
334.053	-9.05
334.265	58.54
334.478	17.58
334.691	54.44
334.903	15.53
335.116	-4.95
335.329	109.74
335.541	5.29
335.754	85.16
335.966	-25.43
336.179	52.39
336.392	-17.24
336.604	-11.09
336.817	48.3
337.029	9.39
337.242	95.4
337.454	89.26
337.667	44.2
337.88	148.65
338.092	62.63
338.305	83.11
338.517	11.43
338.729	27.82
338.942	97.45
339.154	68.78
339.367	5.29
339.579	117.93
339.792	11.43
340.004	76.97
340.217	99.5
340.429	58.54
340.641	48.3
340.854	-27.48
341.066	-25.43
341.278	44.2
341.491	126.12
341.703	31.91
341.915	21.67
342.128	-11.09
342.34	68.78
342.552	60.59
342.764	-0.85
342.977	50.35
343.189	38.06
343.401	148.65
343.613	52.39
343.826	19.63
344.038	-15.19
344.25	62.63
344.462	-2.9
344.674	109.74
344.886	95.4
345.099	115.88
345.311	64.68
345.523	31.91
345.735	56.49
345.947	128.17
346.159	17.58
346.371	44.2
346.583	66.73
346.795	13.48
347.007	105.64
347.219	40.11
347.431	-37.72
347.643	132.26
347.855	-13.14
348.067	134.31
348.279	83.11
348.491	40.11
348.703	48.3
348.915	42.15
349.127	27.82
349.339	81.07
349.551	115.88
349.763	50.35
349.975	40.11
350.187	58.54
350.399	56.49
350.61	97.45
350.822	97.45
351.034	91.31
351.246	50.35
351.458	76.97
351.669	72.87
351.881	-50
352.093	33.96
352.305	130.22
352.517	15.53
352.728	5.29
352.94	31.91
353.152	122.02
353.363	11.43
353.575	64.68
353.787	138.41
353.999	64.68
354.21	103.59
354.422	9.39
354.633	5.29
354.845	27.82
355.057	93.35
355.268	89.26
355.48	109.74
355.692	115.88
355.903	54.44
356.115	31.91
356.326	-4.95
356.538	105.64
356.749	38.06
356.961	95.4
357.172	70.83
357.384	-13.14
357.595	33.96
357.807	93.35
358.018	31.91
358.23	-7
358.441	74.92
358.653	115.88
358.864	25.77
359.075	1.19
359.287	54.44
359.498	81.07
359.709	105.64
359.921	60.59
360.132	31.91
360.344	68.78
360.555	56.49
360.766	50.35
360.977	68.78
361.189	130.22
361.4	33.96
361.611	113.83
361.823	70.83
362.034	56.49
362.245	91.31
362.456	31.91
362.667	48.3
362.879	31.91
363.09	38.06
363.301	23.72
363.512	60.59
363.723	21.67
363.935	36.01
364.146	62.63
364.357	-0.85
364.568	97.45
364.779	-29.52
364.99	64.68
365.201	44.2
365.412	60.59
365.623	-0.85
365.834	60.59
366.045	68.78
366.256	46.25
366.467	99.5
366.678	-31.57
366.889	-4.95
367.1	62.63
367.311	-0.85
367.522	31.91
367.733	-13.14
367.944	40.11
368.155	23.72
368.366	64.68
368.577	97.45
368.788	23.72
368.999	36.01
369.209	122.02
369.42	46.25
369.631	119.98
369.842	40.11
370.053	11.43
370.264	7.34
370.474	81.07
370.685	50.35
370.896	42.15
371.107	15.53
371.317	128.17
371.528	7.34
371.739	38.06
371.95	44.2
372.16	46.25
372.371	107.69
372.582	74.92
372.792	5.29
373.003	52.39
373.214	25.77
373.424	19.63
373.635	-47.96
373.846	85.16
374.056	42.15
374.267	44.2
374.477	25.77
374.688	50.35
374.898	38.06
375.109	64.68
375.319	42.15
375.53	85.16
375.74	23.72
375.951	74.92
376.161	1.19
376.372	42.15
376.582	-35.67
376.793	70.83
377.003	27.82
377.214	74.92
377.424	33.96
377.635	107.69
377.845	-2.9
378.055	107.69
378.266	-11.09
378.476	25.77
378.686	52.39
378.897	117.93
379.107	42.15
379.317	54.44
379.528	21.67
379.738	29.87
379.948	13.48
380.158	70.83
380.369	95.4
380.579	15.53
380.789	62.63
380.999	40.11
381.21	87.21
381.42	138.41
381.63	97.45
381.84	179.37
382.05	15.53
382.261	56.49
382.471	46.25
382.681	9.39
382.891	50.35
383.101	109.74
383.311	25.77
383.521	72.87
383.731	54.44
383.941	42.15
384.151	128.17
384.361	36.01
384.571	42.15
384.781	42.15
384.991	29.87
385.201	109.74
385.411	36.01
385.621	130.22
385.831	54.44
386.041	44.2
386.251	27.82
386.461	134.31
386.671	48.3
386.881	23.72
387.091	50.35
387.301	79.02
387.511	33.96
387.72	72.87
387.93	-13.14
388.14	83.11
388.35	-17.24
388.56	68.78
388.769	64.68
388.979	130.22
389.189	79.02
389.399	7.34
389.609	66.73
389.818	60.59
390.028	50.35
390.238	23.72
390.447	58.54
390.657	15.53
390.867	23.72
391.076	60.59
391.286	48.3
391.496	95.4
391.705	38.06
391.915	126.12
392.125	62.63
392.334	91.31
392.544	19.63
392.753	48.3
392.963	60.59
393.172	70.83
393.382	79.02
393.591	107.69
393.801	54.44
394.01	136.36
394.22	-27.48
394.429	50.35
394.639	70.83
394.848	122.02
395.058	130.22
395.267	66.73
395.477	119.98
395.686	101.55
395.895	195.75
396.105	193.7
396.314	103.59
396.524	117.93
396.733	76.97
396.942	142.5
397.152	122.02
397.361	115.88
397.57	103.59
397.78	122.02
397.989	138.41
398.198	175.27
398.407	48.3
398.617	99.5
398.826	134.31
399.035	128.17
399.244	128.17
399.453	99.5
399.663	56.49
399.872	85.16
400.081	124.07
400.29	99.5
400.499	89.26
400.708	175.27
400.917	79.02
401.127	76.97
401.336	130.22
401.545	99.5
401.754	220.33
401.963	122.02
402.172	169.13
402.381	179.37
402.59	74.92
402.799	101.55
403.008	144.55
403.217	171.18
403.426	107.69
403.635	76.97
403.844	175.27
404.053	158.89
404.262	173.22
404.471	169.13
404.68	130.22
404.888	101.55
405.097	111.78
405.306	144.55
405.515	158.89
405.724	234.66
405.933	167.08
406.142	212.14
406.35	222.38
406.559	298.15
406.768	214.18
406.977	296.1
407.185	263.33
407.394	183.46
407.603	277.67
407.812	226.47
408.02	335.01
408.229	238.76
408.438	242.85
408.646	287.91
408.855	273.57
409.064	285.86
409.272	332.97
409.481	314.53
409.69	345.25
409.898	335.01
410.107	281.77
410.315	371.88
410.524	359.59
410.733	341.16
410.941	357.54
411.15	466.08
411.358	447.65
411.567	486.56
411.775	402.6
411.984	537.76
412.192	531.62
412.401	527.52
412.609	580.77
412.818	605.35
413.026	642.21
413.234	560.29
413.443	634.02
413.651	699.55
413.86	586.91
414.068	685.22
414.276	781.47
414.485	726.18
414.693	832.67
414.901	896.16
415.11	879.77
415.318	804
415.526	892.06
415.734	939.16
415.943	971.93
416.151	965.79
416.359	1012.89
416.567	1053.85
416.776	1014.94
416.984	1154.2
417.192	1127.58
417.4	1117.34
417.608	1176.73
417.817	1258.65
418.025	1322.13
418.233	1385.62
418.441	1440.92
418.649	1424.53
418.857	1539.22
419.065	1569.94
419.273	1569.94
419.481	1713.3
419.689	1768.59
419.897	1883.28
420.105	1799.31
420.313	1901.71
420.521	1926.29
420.729	1934.48
420.937	2116.75
421.145	2071.69
421.353	2219.14
421.561	2413.7
421.769	2458.76
421.977	2475.14
422.185	2544.77
422.393	2720.9
422.601	2878.59
422.809	2686.08
423.017	2856.06
423.224	2907.26
423.432	2956.41
423.64	2960.51
423.848	3415.16
424.056	3144.83
424.263	3458.17
424.471	3564.66
424.679	3683.44
424.887	3882.1
425.094	3935.34
425.302	3896.43
425.51	4050.03
425.718	4027.5
425.925	4203.63
426.133	4404.33
426.341	4625.51
426.548	4678.76
426.756	4863.07
426.964	4820.07
427.171	5041.25
427.379	5227.61
427.586	5424.22
427.794	5557.33
428.001	5762.13
428.209	6054.99
428.417	5868.63
428.624	6364.23
428.832	6286.41
429.039	6399.05
429.247	6356.04
429.454	6700.1
429.662	7367.74
429.869	6804.55
430.076	7349.31
430.284	7150.65
430.491	7550.01
430.699	7935.03
430.906	8006.7
431.114	8098.86
431.321	8361
431.528	8537.13
431.736	9188.38
431.943	9485.34
432.15	9239.58
432.358	9405.47
432.565	9896.98
432.772	9796.63
432.979	10238.99
433.187	10494.99
433.394	10603.53
433.601	11260.93
433.808	11203.58
434.016	11377.66
434.223	11817.97
434.43	12266.48
434.637	12307.44
434.844	12868.58
435.052	13022.18
435.259	13149.15
435.466	13255.65
435.673	13093.86
435.88	13913.05
436.087	14703.56
436.294	14787.53
436.501	14416.85
436.708	14472.14
436.915	15401.92
437.122	15614.91
437.329	15844.28
437.537	16417.71
437.743	16612.27
437.95	16640.94
438.157	17312.67
438.364	18121.62
438.571	18072.47
438.778	17972.12
438.985	19463.04
439.192	19020.68
439.399	19454.85
439.606	19059.59
439.813	20259.7
440.02	21369.7
440.227	20839.28
440.433	20489.07
440.64	21392.23
440.847	21130.09
441.054	21758.81
441.261	23237.45
441.467	23014.22
441.674	23466.82
441.881	24218.43
442.088	24007.48
442.294	24093.5
442.501	24587.06
442.708	25129.77
442.914	26266.39
443.121	27167.5
443.328	26690.32
443.534	28400.38
443.741	27482.89
443.948	27153.16
444.154	29184.75
444.361	29258.48
444.568	29653.73
444.774	29309.68
444.981	29563.62
445.187	30304.99
445.394	31732.42
445.6	31154.9
445.807	34237.09
446.013	32365.24
446.22	33436.33
446.426	34685.59
446.633	34462.36
446.839	36280.96
447.046	34298.53
447.252	36350.59
447.459	36563.58
447.665	36379.26
447.871	38304.35
448.078	39975.5
448.284	37667.44
448.491	38914.65
448.697	40766.01
448.903	41241.14
449.11	41175.61
449.316	40577.6
449.522	41738.8
449.728	41871.92
449.935	42791.45
450.141	42353.19
450.347	43588.11
450.553	42232.36
450.76	42592.8
450.966	44483.08
451.172	43502.1
451.378	44564.99
451.584	44081.67
451.791	45040.12
451.997	44493.32
452.203	45693.43
452.409	45709.81
452.615	45369.85
452.821	44038.67
453.027	43201.05
453.233	45384.18
453.44	43672.08
453.646	44505.6
453.852	44259.85
454.058	45519.35
454.264	43627.02
454.47	44589.57
454.676	43303.45
454.882	44999.16
455.088	41060.92
455.294	41640.5
455.5	41933.35
455.705	42893.85
455.911	40886.84
456.117	40176.2
456.323	39891.53
456.529	37972.58
456.735	39494.22
456.941	38562.4
457.147	38003.3
457.352	36610.68
457.558	36395.65
457.764	36358.78
457.97	35394.19
458.176	34597.53
458.381	34597.53
458.587	33084.08
458.793	33174.19
458.999	31425.23
459.204	33639.08
459.41	32910
459.616	30554.84
459.821	30872.28
460.027	30773.97
460.233	30171.87
460.438	28261.12
460.644	28910.32
460.85	27783.94
461.055	26938.13
461.261	26856.21
461.466	24980.27
461.672	24402.74
461.878	25998.11
462.083	23909.18
462.289	23962.43
462.494	23511.88
462.7	22483.8
462.905	21887.84
463.111	22709.07
463.316	22670.16
463.522	22313.81
463.727	22246.23
463.932	22424.4
464.138	21998.43
464.343	21828.45
464.549	21697.38
464.754	22395.73
464.959	21889.88
465.165	21920.6
465.37	21134.18
465.575	20337.52
465.781	21105.51
465.986	21390.18
466.191	20759.41
466.397	20183.93
466.602	19094.41
466.807	19905.4
467.012	19846.01
467.218	19788.67
467.423	19786.62
