Data from USB4F104151__14__12-41-01-346.txt Node

Date: Fri Mar 14 12:41:01 EDT 2025
User: louis
Spectrometer: USB4F10415
Trigger mode: 4
Integration Time (sec): 3.000000E-2
Scans to average: 1
Electric dark correction enabled: true
Nonlinearity correction enabled: false
Boxcar width: 0
XAxis mode: Wavelengths
Number of Pixels in Spectrum: 3648
>>>>>Begin Spectral Data<<<<<
178.204	-145.41
178.424	-145.41
178.644	-145.41
178.864	-94.21
179.084	-124.93
179.304	16.38
179.524	-6.14
179.744	-6.14
179.964	2.05
180.184	4.1
180.404	-8.19
180.624	40.96
180.844	26.62
181.064	-65.54
181.283	-22.53
181.503	-45.06
181.723	63.49
181.943	-4.1
182.163	71.68
182.383	-22.53
182.602	2.05
182.822	59.39
183.042	30.72
183.262	32.77
183.482	6.14
183.701	40.96
183.921	14.34
184.141	-53.25
184.361	92.16
184.58	55.3
184.8	94.21
185.02	-51.2
185.239	88.06
185.459	40.96
185.679	45.06
185.898	-45.06
186.118	163.84
186.338	4.1
186.557	45.06
186.777	-55.3
186.997	43.01
187.216	59.39
187.436	71.68
187.655	45.06
187.875	63.49
188.095	36.86
188.314	69.63
188.534	114.69
188.753	4.1
188.973	71.68
189.192	81.92
189.412	34.82
189.631	-14.34
189.851	-65.54
190.07	14.34
190.29	-30.72
190.509	-40.96
190.729	45.06
190.948	81.92
191.168	141.31
191.387	67.58
191.607	-30.72
191.826	-10.24
192.045	36.86
192.265	30.72
192.484	-0
192.704	-34.82
192.923	-10.24
193.142	92.16
193.362	96.25
193.581	108.54
193.8	94.21
194.02	90.11
194.239	28.67
194.458	-4.1
194.678	-30.72
194.897	67.58
195.116	30.72
195.335	30.72
195.555	43.01
195.774	75.77
195.993	73.73
196.212	22.53
196.432	-4.1
196.651	61.44
196.87	28.67
197.089	10.24
197.308	-12.29
197.528	79.87
197.747	79.87
197.966	-59.39
198.185	122.88
198.404	96.25
198.623	36.86
198.842	-59.39
199.062	49.15
199.281	147.45
199.5	75.77
199.719	-40.96
199.938	34.82
200.157	18.43
200.376	-2.05
200.595	88.06
200.814	-12.29
201.033	32.77
201.252	6.14
201.471	16.38
201.69	92.16
201.909	-16.38
202.128	2.05
202.347	8.19
202.566	-20.48
202.785	45.06
203.004	24.58
203.223	79.87
203.442	28.67
203.661	34.82
203.879	106.49
204.098	45.06
204.317	-10.24
204.536	75.77
204.755	47.1
204.974	104.45
205.193	28.67
205.411	94.21
205.63	45.06
205.849	61.44
206.068	-49.15
206.287	83.97
206.505	73.73
206.724	-30.72
206.943	6.14
207.162	34.82
207.381	14.34
207.599	55.3
207.818	71.68
208.037	73.73
208.255	61.44
208.474	49.15
208.693	12.29
208.911	61.44
209.13	-34.82
209.349	-24.58
209.567	26.62
209.786	40.96
210.005	81.92
210.223	67.58
210.442	-53.25
210.661	26.62
210.879	55.3
211.098	51.2
211.316	34.82
211.535	65.53
211.753	-12.29
211.972	12.29
212.191	69.63
212.409	16.38
212.628	8.19
212.846	106.49
213.065	75.77
213.283	43.01
213.502	2.05
213.72	-45.06
213.938	40.96
214.157	53.25
214.375	28.67
214.594	28.67
214.812	69.63
215.031	40.96
215.249	40.96
215.467	-32.77
215.686	-20.48
215.904	30.72
216.122	65.53
216.341	28.67
216.559	43.01
216.778	96.25
216.996	30.72
217.214	20.48
217.432	-30.72
217.651	10.24
217.869	16.38
218.087	34.82
218.306	-28.67
218.524	24.58
218.742	12.29
218.96	51.2
219.179	36.86
219.397	4.1
219.615	53.25
219.833	34.82
220.051	24.58
220.27	49.15
220.488	61.44
220.706	100.35
220.924	94.21
221.142	67.58
221.36	4.1
221.578	71.68
221.796	75.77
222.015	108.54
222.233	-61.44
222.451	79.87
222.669	16.38
222.887	-12.29
223.105	88.06
223.323	16.38
223.541	-22.53
223.759	47.1
223.977	38.91
224.195	112.64
224.413	59.39
224.631	28.67
224.849	96.25
225.067	159.74
225.285	51.2
225.503	8.19
225.721	-40.96
225.939	32.77
226.157	-20.48
226.375	92.16
226.592	40.96
226.81	57.34
227.028	40.96
227.246	116.73
227.464	8.19
227.682	57.34
227.9	102.4
228.117	40.96
228.335	40.96
228.553	8.19
228.771	98.3
228.989	-16.38
229.206	55.3
229.424	16.38
229.642	-61.44
229.86	-18.43
230.077	73.73
230.295	45.06
230.513	147.45
230.731	116.73
230.948	34.82
231.166	108.54
231.384	16.38
231.601	-26.62
231.819	126.97
232.037	12.29
232.254	-59.39
232.472	4.1
232.689	-18.43
232.907	141.31
233.125	47.1
233.342	57.34
233.56	-10.24
233.777	47.1
233.995	-12.29
234.213	38.91
234.43	40.96
234.648	51.2
234.865	75.77
235.083	40.96
235.3	28.67
235.518	34.82
235.735	59.39
235.953	28.67
236.17	-6.14
236.388	45.06
236.605	-0
236.822	43.01
237.04	110.59
237.257	30.72
237.475	-26.62
237.692	55.3
237.909	6.14
238.127	22.53
238.344	-16.38
238.562	-0
238.779	-16.38
238.996	22.53
239.214	32.77
239.431	90.11
239.648	-24.58
239.865	83.97
240.083	49.15
240.3	67.58
240.517	-22.53
240.735	77.82
240.952	86.01
241.169	126.97
241.386	12.29
241.603	47.1
241.821	-12.29
242.038	53.25
242.255	-6.14
242.472	59.39
242.689	-2.05
242.907	81.92
243.124	-0
243.341	34.82
243.558	45.06
243.775	-24.58
243.992	14.34
244.209	18.43
244.426	129.02
244.643	90.11
244.86	16.38
245.078	34.82
245.295	96.25
245.512	38.91
245.729	-10.24
245.946	-22.53
246.163	77.82
246.38	-30.72
246.597	116.73
246.814	-40.96
247.031	40.96
247.248	81.92
247.464	-26.62
247.681	20.48
247.898	71.68
248.115	32.77
248.332	45.06
248.549	-20.48
248.766	43.01
248.983	53.25
249.2	75.77
249.417	-10.24
249.633	8.19
249.85	73.73
250.067	6.14
250.284	106.49
250.501	57.34
250.717	45.06
250.934	38.91
251.151	55.3
251.368	22.53
251.585	88.06
251.801	8.19
252.018	-22.53
252.235	102.4
252.451	-47.1
252.668	-10.24
252.885	26.62
253.102	51.2
253.318	18.43
253.535	-24.58
253.752	-4.1
253.968	26.62
254.185	65.53
254.401	40.96
254.618	38.91
254.835	92.16
255.051	65.53
255.268	71.68
255.484	28.67
255.701	55.3
255.917	77.82
256.134	51.2
256.351	102.4
256.567	-22.53
256.784	49.15
257	-18.43
257.217	100.35
257.433	112.64
257.65	63.49
257.866	145.41
258.082	-10.24
258.299	-47.1
258.515	-36.86
258.732	-16.38
258.948	-20.48
259.165	-24.58
259.381	-55.3
259.597	4.1
259.814	81.92
260.03	36.86
260.246	55.3
260.463	22.53
260.679	81.92
260.895	-10.24
261.112	6.14
261.328	-0
261.544	34.82
261.761	112.64
261.977	-14.34
262.193	-14.34
262.409	28.67
262.626	92.16
262.842	-18.43
263.058	49.15
263.274	-4.1
263.49	34.82
263.707	28.67
263.923	77.82
264.139	-36.86
264.355	73.73
264.571	30.72
264.787	77.82
265.004	71.68
265.22	-36.86
265.436	36.86
265.652	75.77
265.868	-2.05
266.084	53.25
266.3	30.72
266.516	38.91
266.732	4.1
266.948	45.06
267.164	45.06
267.38	106.49
267.596	18.43
267.812	53.25
268.028	53.25
268.244	-30.72
268.46	129.02
268.676	6.14
268.892	43.01
269.108	28.67
269.324	18.43
269.54	-55.3
269.756	43.01
269.972	10.24
270.188	34.82
270.403	-16.38
270.619	12.29
270.835	51.2
271.051	24.58
271.267	-24.58
271.483	2.05
271.698	69.63
271.914	30.72
272.13	-26.62
272.346	79.87
272.562	49.15
272.777	108.54
272.993	-4.1
273.209	59.39
273.425	67.58
273.64	40.96
273.856	75.77
274.072	-4.1
274.287	-22.53
274.503	38.91
274.719	34.82
274.934	34.82
275.15	10.24
275.366	61.44
275.581	75.77
275.797	94.21
276.012	-57.34
276.228	57.34
276.444	4.1
276.659	53.25
276.875	61.44
277.09	79.87
277.306	22.53
277.521	12.29
277.737	6.14
277.952	124.93
278.168	-38.91
278.383	20.48
278.599	38.91
278.814	53.25
279.03	2.05
279.245	51.2
279.461	53.25
279.676	32.77
279.892	36.86
280.107	12.29
280.322	28.67
280.538	112.64
280.753	14.34
280.969	63.49
281.184	88.06
281.399	96.25
281.615	100.35
281.83	104.45
282.045	30.72
282.26	26.62
282.476	6.14
282.691	100.35
282.906	36.86
283.122	96.25
283.337	8.19
283.552	30.72
283.767	65.53
283.983	-32.77
284.198	28.67
284.413	104.45
284.628	43.01
284.843	26.62
285.058	53.25
285.274	26.62
285.489	71.68
285.704	10.24
285.919	102.4
286.134	10.24
286.349	-55.3
286.564	14.34
286.779	49.15
286.995	45.06
287.21	-2.05
287.425	98.3
287.64	43.01
287.855	-20.48
288.07	4.1
288.285	65.53
288.5	20.48
288.715	57.34
288.93	26.62
289.145	75.77
289.36	159.74
289.575	-75.77
289.79	102.4
290.004	-34.82
290.219	24.58
290.434	2.05
290.649	57.34
290.864	59.39
291.079	34.82
291.294	-14.34
291.509	36.86
291.724	22.53
291.938	47.1
292.153	8.19
292.368	-38.91
292.583	69.63
292.798	61.44
293.012	55.3
293.227	51.2
293.442	24.58
293.657	59.39
293.871	59.39
294.086	75.77
294.301	90.11
294.516	59.39
294.73	18.43
294.945	10.24
295.16	98.3
295.374	86.01
295.589	43.01
295.804	18.43
296.018	77.82
296.233	55.3
296.447	67.58
296.662	4.1
296.877	14.34
297.091	57.34
297.306	96.25
297.52	28.67
297.735	-0
297.949	53.25
298.164	47.1
298.378	18.43
298.593	24.58
298.807	126.97
299.022	102.4
299.236	36.86
299.451	47.1
299.665	43.01
299.88	47.1
300.094	36.86
300.309	-36.86
300.523	45.06
300.737	-40.96
300.952	114.69
301.166	18.43
301.381	65.53
301.595	-16.38
301.809	-8.19
302.024	47.1
302.238	36.86
302.452	38.91
302.667	10.24
302.881	18.43
303.095	47.1
303.309	-0
303.524	49.15
303.738	-8.19
303.952	22.53
304.166	88.06
304.381	-81.92
304.595	47.1
304.809	-8.19
305.023	102.4
305.237	40.96
305.452	-4.1
305.666	47.1
305.88	26.62
306.094	57.34
306.308	-51.2
306.522	98.3
306.736	112.64
306.95	106.49
307.164	57.34
307.379	2.05
307.593	34.82
307.807	83.97
308.021	92.16
308.235	51.2
308.449	8.19
308.663	63.49
308.877	124.93
309.091	53.25
309.305	53.25
309.519	-38.91
309.733	28.67
309.947	6.14
310.161	61.44
310.374	63.49
310.588	92.16
310.802	34.82
311.016	88.06
311.23	47.1
311.444	-53.25
311.658	28.67
311.872	67.58
312.085	-0
312.299	73.73
312.513	100.35
312.727	30.72
312.941	12.29
313.154	59.39
313.368	77.82
313.582	135.17
313.796	-12.29
314.009	28.67
314.223	49.15
314.437	69.63
314.651	26.62
314.864	12.29
315.078	28.67
315.292	-12.29
315.505	26.62
315.719	100.35
315.933	18.43
316.146	-10.24
316.36	18.43
316.573	63.49
316.787	61.44
317.001	79.87
317.214	12.29
317.428	108.54
317.641	22.53
317.855	63.49
318.068	36.86
318.282	40.96
318.495	61.44
318.709	90.11
318.922	40.96
319.136	69.63
319.349	106.49
319.563	61.44
319.776	67.58
319.99	-0
320.203	38.91
320.417	-38.91
320.63	59.39
320.843	100.35
321.057	-14.34
321.27	59.39
321.483	16.38
321.697	126.97
321.91	71.68
322.124	120.83
322.337	40.96
322.55	-6.14
322.763	18.43
322.977	53.25
323.19	8.19
323.403	24.58
323.617	34.82
323.83	65.53
324.043	59.39
324.256	163.84
324.469	8.19
324.683	16.38
324.896	-28.67
325.109	40.96
325.322	2.05
325.535	67.58
325.748	102.4
325.962	30.72
326.175	12.29
326.388	65.53
326.601	12.29
326.814	-40.96
327.027	38.91
327.24	122.88
327.453	40.96
327.666	53.25
327.879	47.1
328.092	34.82
328.305	2.05
328.518	36.86
328.731	16.38
328.944	65.53
329.157	61.44
329.37	61.44
329.583	94.21
329.796	12.29
330.009	6.14
330.222	51.2
330.435	63.49
330.648	-2.05
330.861	-32.77
331.073	67.58
331.286	65.53
331.499	114.69
331.712	43.01
331.925	59.39
332.138	67.58
332.35	-10.24
332.563	92.16
332.776	45.06
332.989	59.39
333.202	47.1
333.414	8.19
333.627	16.38
333.84	96.25
334.053	124.93
334.265	59.39
334.478	-4.1
334.691	77.82
334.903	20.48
335.116	-32.77
335.329	38.91
335.541	77.82
335.754	20.48
335.966	61.44
336.179	73.73
336.392	71.68
336.604	-0
336.817	61.44
337.029	-4.1
337.242	98.3
337.454	90.11
337.667	14.34
337.88	83.97
338.092	94.21
338.305	61.44
338.517	100.35
338.729	96.25
338.942	49.15
339.154	81.92
339.367	2.05
339.579	24.58
339.792	57.34
340.004	30.72
340.217	75.77
340.429	77.82
340.641	83.97
340.854	61.44
341.066	-14.34
341.278	51.2
341.491	61.44
341.703	108.54
341.915	-10.24
342.128	28.67
342.34	63.49
342.552	38.91
342.764	45.06
342.977	-24.58
343.189	100.35
343.401	22.53
343.613	34.82
343.826	90.11
344.038	45.06
344.25	18.43
344.462	8.19
344.674	43.01
344.886	63.49
345.099	79.87
345.311	73.73
345.523	36.86
345.735	-0
345.947	36.86
346.159	-40.96
346.371	34.82
346.583	22.53
346.795	38.91
347.007	65.53
347.219	28.67
347.431	34.82
347.643	100.35
347.855	51.2
348.067	51.2
348.279	-4.1
348.491	53.25
348.703	69.63
348.915	38.91
349.127	45.06
349.339	-14.34
349.551	40.96
349.763	59.39
349.975	73.73
350.187	94.21
350.399	73.73
350.61	65.53
350.822	40.96
351.034	96.25
351.246	38.91
351.458	45.06
351.669	77.82
351.881	114.69
352.093	59.39
352.305	94.21
352.517	126.97
352.728	129.02
352.94	88.06
353.152	61.44
353.363	12.29
353.575	12.29
353.787	-20.48
353.999	90.11
354.21	73.73
354.422	63.49
354.633	59.39
354.845	47.1
355.057	6.14
355.268	36.86
355.48	55.3
355.692	-12.29
355.903	14.34
356.115	69.63
356.326	-65.54
356.538	96.25
356.749	40.96
356.961	100.35
357.172	40.96
357.384	102.4
357.595	100.35
357.807	73.73
358.018	47.1
358.23	53.25
358.441	151.55
358.653	77.82
358.864	10.24
359.075	75.77
359.287	-30.72
359.498	55.3
359.709	92.16
359.921	47.1
360.132	55.3
360.344	20.48
360.555	83.97
360.766	90.11
360.977	94.21
361.189	-4.1
361.4	112.64
361.611	59.39
361.823	79.87
362.034	55.3
362.245	-14.34
362.456	57.34
362.667	75.77
362.879	88.06
363.09	36.86
363.301	34.82
363.512	69.63
363.723	10.24
363.935	26.62
364.146	28.67
364.357	43.01
364.568	24.58
364.779	26.62
364.99	67.58
365.201	2.05
365.412	40.96
365.623	45.06
365.834	88.06
366.045	65.53
366.256	92.16
366.467	126.97
366.678	-30.72
366.889	24.58
367.1	79.87
367.311	-4.1
367.522	14.34
367.733	88.06
367.944	83.97
368.155	8.19
368.366	98.3
368.577	98.3
368.788	112.64
368.999	10.24
369.209	69.63
369.42	69.63
369.631	159.74
369.842	69.63
370.053	69.63
370.264	106.49
370.474	96.25
370.685	71.68
370.896	24.58
371.107	139.26
371.317	30.72
371.528	32.77
371.739	137.21
371.95	145.41
372.16	36.86
372.371	-6.14
372.582	18.43
372.792	129.02
373.003	57.34
373.214	36.86
373.424	45.06
373.635	6.14
373.846	145.41
374.056	53.25
374.267	100.35
374.477	94.21
374.688	151.55
374.898	38.91
375.109	110.59
375.319	30.72
375.53	38.91
375.74	24.58
375.951	20.48
376.161	112.64
376.372	116.73
376.582	53.25
376.793	75.77
377.003	-2.05
377.214	77.82
377.424	65.53
377.635	69.63
377.845	40.96
378.055	49.15
378.266	12.29
378.476	61.44
378.686	77.82
378.897	122.88
379.107	135.17
379.317	79.87
379.528	63.49
379.738	131.07
379.948	-4.1
380.158	8.19
380.369	94.21
380.579	118.78
380.789	45.06
380.999	34.82
381.21	96.25
381.42	141.31
381.63	8.19
381.84	53.25
382.05	86.01
382.261	14.34
382.471	26.62
382.681	71.68
382.891	126.97
383.101	96.25
383.311	6.14
383.521	71.68
383.731	135.17
383.941	10.24
384.151	77.82
384.361	106.49
384.571	98.3
384.781	92.16
384.991	147.45
385.201	90.11
385.411	61.44
385.621	88.06
385.831	20.48
386.041	34.82
386.251	53.25
386.461	167.93
386.671	55.3
386.881	86.01
387.091	81.92
387.301	59.39
387.511	59.39
387.72	163.84
387.93	79.87
388.14	98.3
388.35	88.06
388.56	155.65
388.769	108.54
388.979	122.88
389.189	155.65
389.399	88.06
389.609	139.26
389.818	129.02
390.028	102.4
390.238	40.96
390.447	86.01
390.657	67.58
390.867	63.49
391.076	45.06
391.286	79.87
391.496	63.49
391.705	24.58
391.915	116.73
392.125	88.06
392.334	100.35
392.544	129.02
392.753	20.48
392.963	53.25
393.172	118.78
393.382	88.06
393.591	86.01
393.801	45.06
394.01	83.97
394.22	96.25
394.429	67.58
394.639	61.44
394.848	92.16
395.058	43.01
395.267	143.36
395.477	114.69
395.686	167.93
395.895	133.12
396.105	108.54
396.314	161.79
396.524	104.45
396.733	124.93
396.942	129.02
397.152	131.07
397.361	98.3
397.57	75.77
397.78	49.15
397.989	102.4
398.198	206.84
398.407	79.87
398.617	108.54
398.826	131.07
399.035	71.68
399.244	106.49
399.453	155.65
399.663	149.5
399.872	124.93
400.081	100.35
400.29	157.69
400.499	126.97
400.708	135.17
400.917	157.69
401.127	96.25
401.336	190.46
401.545	86.01
401.754	169.98
401.963	155.65
402.172	81.92
402.381	126.97
402.59	223.23
402.799	151.55
403.008	129.02
403.217	200.7
403.426	192.51
403.635	190.46
403.844	208.89
404.053	126.97
404.262	186.37
404.471	227.32
404.68	174.08
404.888	149.5
405.097	165.89
405.306	190.46
405.515	182.27
405.724	190.46
405.933	223.23
406.142	227.32
406.35	208.89
406.559	288.76
406.768	251.9
406.977	280.57
407.185	194.56
407.394	260.09
407.603	272.38
407.812	274.43
408.02	366.59
408.229	337.91
408.438	303.1
408.646	233.47
408.855	276.48
409.064	333.82
409.272	317.44
409.481	419.83
409.69	317.44
409.898	342.01
410.107	329.72
410.315	385.02
410.524	374.78
410.733	458.74
410.941	397.31
411.15	458.74
411.358	552.95
411.567	501.75
411.775	479.22
411.984	544.76
412.192	503.8
412.401	501.75
412.609	618.49
412.818	628.73
413.026	636.92
413.234	634.87
413.443	718.84
413.651	692.21
413.86	735.22
414.068	774.13
414.276	806.9
414.485	706.55
414.693	817.14
414.901	890.87
415.11	888.82
415.318	856.05
415.526	944.11
415.734	1110
415.943	919.54
416.151	1021.94
416.359	1048.56
416.567	1112.05
416.776	1200.11
416.984	1243.12
417.192	1210.35
417.4	1220.59
417.608	1257.45
417.817	1249.26
418.025	1376.23
418.233	1511.4
418.441	1437.67
418.649	1554.41
418.857	1609.7
419.065	1714.15
419.273	1658.85
419.481	1718.25
419.689	1818.6
419.897	1986.53
420.105	1849.32
420.313	1974.24
420.521	2140.13
420.729	1996.77
420.937	2103.26
421.145	2279.39
421.353	2392.03
421.561	2541.53
421.769	2441.18
421.977	2519
422.185	2594.78
422.393	2758.61
422.601	2918.36
422.809	2969.55
423.017	2922.45
423.224	3076.05
423.432	3102.67
423.64	3231.69
423.848	3391.44
424.056	3389.39
424.263	3588.04
424.471	3532.75
424.679	3778.5
424.887	3995.59
425.094	4095.94
425.302	4046.79
425.51	4341.69
425.718	4282.3
425.925	4396.99
426.133	4413.37
426.341	4831.16
426.548	5099.44
426.756	4980.66
426.964	5132.21
427.171	5414.83
427.379	5431.21
427.586	5457.84
427.794	5765.03
428.001	6066.08
428.209	6340.51
428.417	6178.72
428.624	6612.89
428.832	6825.88
429.039	6447.01
429.247	6555.55
429.454	7327.63
429.662	7798.66
429.869	7270.29
430.076	7776.14
430.284	7425.93
430.491	7925.64
430.699	8191.87
430.906	8306.56
431.114	8609.66
431.321	8664.96
431.528	9047.93
431.736	9430.9
431.943	9768.81
432.15	9738.09
432.358	9752.43
432.565	10233.7
432.772	10153.83
432.979	10561.37
433.187	10960.73
433.394	11011.93
433.601	11667.28
433.808	12015.43
434.016	11652.94
434.223	12046.15
434.43	13023.03
434.637	12818.24
434.844	13385.52
435.052	13780.78
435.259	13498.16
435.466	13903.66
435.673	13788.97
435.88	14540.58
436.087	15306.52
436.294	15724.3
436.501	14958.36
436.708	15361.81
436.915	15683.34
437.122	16414.47
437.329	16326.41
437.537	17022.72
437.743	17245.94
437.95	17002.24
438.157	18089.71
438.364	18599.65
438.571	18769.63
438.778	18736.87
438.985	20598.47
439.192	19666.64
439.399	20508.36
439.606	19810
439.813	20975.3
440.02	22224.56
440.227	21966.51
440.433	21546.68
440.64	22589.1
440.847	22079.15
441.054	23015.07
441.261	24172.18
441.467	23948.95
441.674	24534.67
441.881	25245.31
442.088	25579.13
442.294	25063.04
442.501	25722.49
442.708	26392.17
442.914	27424.35
443.121	28374.61
443.328	27930.2
443.534	29556.28
443.741	28661.32
443.948	28112.47
444.154	30588.46
444.361	30043.7
444.568	30557.74
444.774	30549.55
444.981	30729.77
445.187	31675.93
445.394	33127.94
445.6	32607.76
445.807	35900.89
446.013	34131.45
446.22	34641.39
446.426	36269.53
446.633	37035.47
446.839	37942.72
447.046	36255.19
447.252	38413.75
447.459	38198.71
447.665	37957.05
447.871	39742.88
448.078	41344.39
448.284	39681.44
448.491	40498.58
448.697	42507.64
448.903	42913.14
449.11	43212.14
449.316	42450.3
449.522	43025.78
449.728	44227.93
449.935	44832.08
450.141	44205.41
450.347	45575.5
450.553	43834.72
450.76	44752.21
450.966	46130.5
451.172	45516.11
451.378	46726.45
451.584	45632.84
451.791	46677.3
451.997	46890.29
452.203	47572.27
452.409	47506.73
452.615	46916.92
452.821	45712.71
453.027	45014.35
453.233	47392.04
453.44	45729.09
453.646	46503.23
453.852	46417.21
454.058	47142.19
454.264	45538.63
454.47	46779.7
454.676	45507.91
454.882	46935.35
455.088	43257.2
455.294	43758.95
455.5	44232.03
455.705	44615
455.911	43103.6
456.117	42282.36
456.323	41719.17
456.529	39781.79
456.735	40994.19
456.941	40144.28
457.147	39546.28
457.352	38557.11
457.558	37623.23
457.764	38034.88
457.97	37012.94
458.176	36900.3
458.381	36423.12
458.587	34672.11
458.793	34635.25
458.999	33132.04
459.204	35151.34
459.41	34070.01
459.616	32022.04
459.821	31987.22
460.027	32251.41
460.233	31340.07
460.438	29558.33
460.644	29871.67
460.85	28642.89
461.055	28270.16
461.261	28249.68
461.466	26443.37
461.672	25163.39
461.878	26971.75
462.083	25288.32
462.289	24864.39
462.494	24610.44
462.7	23596.7
462.905	22961.83
463.111	23875.22
463.316	23987.86
463.522	23264.92
463.727	23309.98
463.932	23369.37
464.138	23185.05
464.343	23021.22
464.549	22578.86
464.754	23510.68
464.959	22992.55
465.165	22726.31
465.37	21923.51
465.575	21337.79
465.781	22347.44
465.986	22376.11
466.191	21636.79
466.397	21118.65
466.602	20209.36
466.807	20899.52
467.012	20967.1
