Data from USB4F104151__74__12-42-20-387.txt Node

Date: Fri Mar 14 12:42:20 EDT 2025
User: louis
Spectrometer: USB4F10415
Trigger mode: 4
Integration Time (sec): 3.000000E-2
Scans to average: 1
Electric dark correction enabled: true
Nonlinearity correction enabled: false
Boxcar width: 0
XAxis mode: Wavelengths
Number of Pixels in Spectrum: 3648
>>>>>Begin Spectral Data<<<<<
178.204	-78.33
178.424	-78.33
178.644	-78.33
178.864	-178.69
179.084	-133.63
179.304	-6.66
179.524	-23.04
179.744	-43.52
179.964	40.45
180.184	-6.66
180.404	11.78
180.624	-25.09
180.844	-6.66
181.064	-12.8
181.283	46.59
181.503	-39.42
181.723	65.02
181.943	-35.33
182.163	-4.61
182.383	30.21
182.602	-4.61
182.822	144.89
183.042	34.3
183.262	-20.99
183.482	67.07
183.701	-8.7
183.921	58.88
184.141	-2.56
184.361	54.78
184.58	7.68
184.8	15.87
185.02	28.16
185.239	134.65
185.459	118.27
185.679	48.64
185.898	11.78
186.118	89.6
186.338	144.89
186.557	95.74
186.777	-8.7
186.997	60.93
187.216	42.5
187.436	32.26
187.655	87.55
187.875	58.88
188.095	-25.09
188.314	46.59
188.534	67.07
188.753	5.63
188.973	89.6
189.192	42.5
189.412	60.93
189.631	85.5
189.851	24.06
190.07	-4.61
190.29	-16.9
190.509	99.84
190.729	138.75
190.948	62.98
191.168	204.28
191.387	151.04
191.607	32.26
191.826	71.17
192.045	56.83
192.265	101.89
192.484	67.07
192.704	83.45
192.923	58.88
193.142	153.09
193.362	-16.9
193.581	99.84
193.8	87.55
194.02	65.02
194.239	56.83
194.458	108.03
194.678	-25.09
194.897	50.69
195.116	54.78
195.335	40.45
195.555	87.55
195.774	34.3
195.993	79.36
196.212	5.63
196.432	60.93
196.651	44.54
196.87	50.69
197.089	122.37
197.308	44.54
197.528	34.3
197.747	-8.7
197.966	15.87
198.185	128.51
198.404	65.02
198.623	32.26
198.842	62.98
199.062	116.22
199.281	46.59
199.5	44.54
199.719	22.02
199.938	87.55
200.157	103.93
200.376	19.97
200.595	34.3
200.814	62.98
201.033	46.59
201.252	97.79
201.471	17.92
201.69	93.69
201.909	60.93
202.128	-2.56
202.347	112.13
202.566	-41.47
202.785	7.68
203.004	40.45
203.223	140.8
203.442	87.55
203.661	67.07
203.879	28.16
204.098	153.09
204.317	54.78
204.536	30.21
204.755	-8.7
204.974	50.69
205.193	54.78
205.411	97.79
205.63	58.88
205.849	3.58
206.068	46.59
206.287	-51.71
206.505	65.02
206.724	126.46
206.943	38.4
207.162	-20.99
207.381	60.93
207.599	69.12
207.818	95.74
208.037	30.21
208.255	48.64
208.474	19.97
208.693	60.93
208.911	81.41
209.13	71.17
209.349	114.17
209.567	93.69
209.786	50.69
210.005	17.92
210.223	62.98
210.442	-57.86
210.661	69.12
210.879	44.54
211.098	103.93
211.316	54.78
211.535	101.89
211.753	22.02
211.972	93.69
212.191	26.11
212.409	50.69
212.628	91.65
212.846	34.3
213.065	128.51
213.283	58.88
213.502	15.87
213.72	28.16
213.938	-14.85
214.157	91.65
214.375	17.92
214.594	11.78
214.812	101.89
215.031	87.55
215.249	85.5
215.467	50.69
215.686	81.41
215.904	87.55
216.122	36.35
216.341	54.78
216.559	24.06
216.778	91.65
216.996	126.46
217.214	50.69
217.432	52.74
217.651	19.97
217.869	-49.66
218.087	-4.61
218.306	69.12
218.524	11.78
218.742	50.69
218.96	50.69
219.179	77.31
219.397	-10.75
219.615	114.17
219.833	85.5
220.051	48.64
220.27	22.02
220.488	77.31
220.706	93.69
220.924	26.11
221.142	67.07
221.36	32.26
221.578	38.4
221.796	24.06
222.015	38.4
222.233	54.78
222.451	65.02
222.669	28.16
222.887	15.87
223.105	3.58
223.323	19.97
223.541	42.5
223.759	62.98
223.977	17.92
224.195	110.08
224.413	103.93
224.631	171.52
224.849	58.88
225.067	60.93
225.285	50.69
225.503	-8.7
225.721	1.54
225.939	42.5
226.157	75.26
226.375	114.17
226.592	34.3
226.81	77.31
227.028	85.5
227.246	122.37
227.464	-25.09
227.682	42.5
227.9	122.37
228.117	56.83
228.335	81.41
228.553	124.41
228.771	95.74
228.989	79.36
229.206	58.88
229.424	-12.8
229.642	28.16
229.86	87.55
230.077	52.74
230.295	34.3
230.513	81.41
230.731	148.99
230.948	50.69
231.166	132.61
231.384	44.54
231.601	26.11
231.819	73.21
232.037	46.59
232.254	-43.52
232.472	48.64
232.689	77.31
232.907	73.21
233.125	22.02
233.342	62.98
233.56	56.83
233.777	5.63
233.995	95.74
234.213	77.31
234.43	73.21
234.648	-10.75
234.865	-12.8
235.083	56.83
235.3	79.36
235.518	42.5
235.735	151.04
235.953	132.61
236.17	22.02
236.388	11.78
236.605	122.37
236.822	130.56
237.04	5.63
237.257	81.41
237.475	60.93
237.692	81.41
237.909	91.65
238.127	15.87
238.344	48.64
238.562	65.02
238.779	65.02
238.996	30.21
239.214	85.5
239.431	28.16
239.648	52.74
239.865	157.18
240.083	77.31
240.3	77.31
240.517	-47.62
240.735	85.5
240.952	142.85
241.169	110.08
241.386	79.36
241.603	50.69
241.821	60.93
242.038	62.98
242.255	42.5
242.472	40.45
242.689	87.55
242.907	71.17
243.124	28.16
243.341	54.78
243.558	-64
243.775	38.4
243.992	9.73
244.209	126.46
244.426	112.13
244.643	75.26
244.86	13.82
245.078	91.65
245.295	32.26
245.512	28.16
245.729	65.02
245.946	50.69
246.163	118.27
246.38	128.51
246.597	85.5
246.814	15.87
247.031	44.54
247.248	79.36
247.464	-6.66
247.681	60.93
247.898	110.08
248.115	50.69
248.332	7.68
248.549	99.84
248.766	93.69
248.983	116.22
249.2	67.07
249.417	62.98
249.633	28.16
249.85	83.45
250.067	56.83
250.284	5.63
250.501	69.12
250.717	26.11
250.934	42.5
251.151	54.78
251.368	-10.75
251.585	54.78
251.801	65.02
252.018	38.4
252.235	77.31
252.451	-16.9
252.668	52.74
252.885	103.93
253.102	65.02
253.318	5.63
253.535	22.02
253.752	60.93
253.968	30.21
254.185	48.64
254.401	52.74
254.618	79.36
254.835	13.82
255.051	112.13
255.268	89.6
255.484	30.21
255.701	101.89
255.917	54.78
256.134	79.36
256.351	97.79
256.567	28.16
256.784	36.35
257	89.6
257.217	116.22
257.433	36.35
257.65	54.78
257.866	95.74
258.082	-2.56
258.299	-8.7
258.515	58.88
258.732	11.78
258.948	13.82
259.165	34.3
259.381	38.4
259.597	15.87
259.814	65.02
260.03	26.11
260.246	42.5
260.463	44.54
260.679	81.41
260.895	105.98
261.112	77.31
261.328	28.16
261.544	32.26
261.761	122.37
261.977	-14.85
262.193	52.74
262.409	1.54
262.626	46.59
262.842	-18.94
263.058	89.6
263.274	159.23
263.49	75.26
263.707	36.35
263.923	116.22
264.139	11.78
264.355	83.45
264.571	44.54
264.787	52.74
265.004	67.07
265.22	13.82
265.436	52.74
265.652	32.26
265.868	108.03
266.084	-0.51
266.3	60.93
266.516	-47.62
266.732	97.79
266.948	54.78
267.164	24.06
267.38	101.89
267.596	77.31
267.812	44.54
268.028	26.11
268.244	52.74
268.46	91.65
268.676	1.54
268.892	130.56
269.108	26.11
269.324	-0.51
269.54	-33.28
269.756	75.26
269.972	24.06
270.188	97.79
270.403	77.31
270.619	50.69
270.835	93.69
271.051	52.74
271.267	122.37
271.483	99.84
271.698	58.88
271.914	101.89
272.13	91.65
272.346	34.3
272.562	26.11
272.777	99.84
272.993	87.55
273.209	67.07
273.425	91.65
273.64	48.64
273.856	58.88
274.072	52.74
274.287	34.3
274.503	89.6
274.719	124.41
274.934	62.98
275.15	-8.7
275.366	42.5
275.581	42.5
275.797	48.64
276.012	-0.51
276.228	-6.66
276.444	-4.61
276.659	67.07
276.875	-8.7
277.09	32.26
277.306	-20.99
277.521	75.26
277.737	17.92
277.952	44.54
278.168	105.98
278.383	114.17
278.599	17.92
278.814	52.74
279.03	71.17
279.245	89.6
279.461	-25.09
279.676	91.65
279.892	-20.99
280.107	26.11
280.322	87.55
280.538	130.56
280.753	15.87
280.969	17.92
281.184	11.78
281.399	83.45
281.615	97.79
281.83	95.74
282.045	54.78
282.26	110.08
282.476	30.21
282.691	85.5
282.906	69.12
283.122	-2.56
283.337	9.73
283.552	44.54
283.767	65.02
283.983	120.32
284.198	71.17
284.413	148.99
284.628	-18.94
284.843	99.84
285.058	-2.56
285.274	24.06
285.489	67.07
285.704	75.26
285.919	30.21
286.134	60.93
286.349	11.78
286.564	30.21
286.779	118.27
286.995	65.02
287.21	36.35
287.425	28.16
287.64	54.78
287.855	32.26
288.07	67.07
288.285	93.69
288.5	54.78
288.715	62.98
288.93	77.31
289.145	1.54
289.36	122.37
289.575	11.78
289.79	91.65
290.004	-25.09
290.219	32.26
290.434	171.52
290.649	1.54
290.864	81.41
291.079	79.36
291.294	52.74
291.509	62.98
291.724	28.16
291.938	30.21
292.153	103.93
292.368	9.73
292.583	52.74
292.798	67.07
293.012	-2.56
293.227	91.65
293.442	44.54
293.657	120.32
293.871	83.45
294.086	54.78
294.301	62.98
294.516	110.08
294.73	83.45
294.945	56.83
295.16	40.45
295.374	101.89
295.589	165.37
295.804	-29.18
296.018	46.59
296.233	171.52
296.447	120.32
296.662	58.88
296.877	17.92
297.091	50.69
297.306	73.21
297.52	67.07
297.735	73.21
297.949	83.45
298.164	130.56
298.378	1.54
298.593	44.54
298.807	87.55
299.022	79.36
299.236	83.45
299.451	73.21
299.665	-10.75
299.88	116.22
300.094	132.61
300.309	87.55
300.523	46.59
300.737	42.5
300.952	-12.8
301.166	122.37
301.381	-0.51
301.595	40.45
301.809	50.69
302.024	71.17
302.238	44.54
302.452	124.41
302.667	67.07
302.881	124.41
303.095	112.13
303.309	65.02
303.524	5.63
303.738	38.4
303.952	52.74
304.166	19.97
304.381	56.83
304.595	93.69
304.809	40.45
305.023	75.26
305.237	93.69
305.452	77.31
305.666	128.51
305.88	36.35
306.094	108.03
306.308	28.16
306.522	87.55
306.736	67.07
306.95	60.93
307.164	52.74
307.379	13.82
307.593	85.5
307.807	93.69
308.021	5.63
308.235	-6.66
308.449	-14.85
308.663	-14.85
308.877	171.52
309.091	42.5
309.305	114.17
309.519	-14.85
309.733	32.26
309.947	-43.52
310.161	50.69
310.374	77.31
310.588	85.5
310.802	-20.99
311.016	54.78
311.23	128.51
311.444	-10.75
311.658	112.13
311.872	101.89
312.085	83.45
312.299	52.74
312.513	58.88
312.727	95.74
312.941	34.3
313.154	62.98
313.368	97.79
313.582	120.32
313.796	91.65
314.009	116.22
314.223	101.89
314.437	99.84
314.651	103.93
314.864	48.64
315.078	91.65
315.292	-41.47
315.505	58.88
315.719	146.94
315.933	54.78
316.146	83.45
316.36	54.78
316.573	89.6
316.787	122.37
317.001	42.5
317.214	17.92
317.428	97.79
317.641	17.92
317.855	50.69
318.068	52.74
318.282	101.89
318.495	19.97
318.709	32.26
318.922	34.3
319.136	114.17
319.349	108.03
319.563	79.36
319.776	91.65
319.99	17.92
320.203	24.06
320.417	71.17
320.63	60.93
320.843	60.93
321.057	52.74
321.27	101.89
321.483	105.98
321.697	128.51
321.91	5.63
322.124	99.84
322.337	54.78
322.55	5.63
322.763	93.69
322.977	56.83
323.19	165.37
323.403	122.37
323.617	34.3
323.83	67.07
324.043	19.97
324.256	56.83
324.469	46.59
324.683	89.6
324.896	67.07
325.109	69.12
325.322	11.78
325.535	101.89
325.748	126.46
325.962	5.63
326.175	50.69
326.388	114.17
326.601	62.98
326.814	56.83
327.027	87.55
327.24	157.18
327.453	73.21
327.666	81.41
327.879	75.26
328.092	48.64
328.305	75.26
328.518	95.74
328.731	48.64
328.944	142.85
329.157	46.59
329.37	34.3
329.583	116.22
329.796	13.82
330.009	36.35
330.222	60.93
330.435	91.65
330.648	81.41
330.861	85.5
331.073	42.5
331.286	73.21
331.499	36.35
331.712	28.16
331.925	32.26
332.138	67.07
332.35	122.37
332.563	44.54
332.776	42.5
332.989	19.97
333.202	85.5
333.414	-18.94
333.627	108.03
333.84	81.41
334.053	97.79
334.265	60.93
334.478	24.06
334.691	77.31
334.903	93.69
335.116	-6.66
335.329	22.02
335.541	65.02
335.754	34.3
335.966	105.98
336.179	99.84
336.392	7.68
336.604	93.69
336.817	91.65
337.029	110.08
337.242	32.26
337.454	99.84
337.667	85.5
337.88	126.46
338.092	77.31
338.305	-20.99
338.517	-4.61
338.729	75.26
338.942	58.88
339.154	19.97
339.367	-25.09
339.579	32.26
339.792	81.41
340.004	11.78
340.217	67.07
340.429	124.41
340.641	50.69
340.854	-4.61
341.066	108.03
341.278	48.64
341.491	136.7
341.703	24.06
341.915	28.16
342.128	99.84
342.34	85.5
342.552	65.02
342.764	85.5
342.977	19.97
343.189	114.17
343.401	77.31
343.613	54.78
343.826	144.89
344.038	32.26
344.25	40.45
344.462	9.73
344.674	58.88
344.886	118.27
345.099	52.74
345.311	17.92
345.523	67.07
345.735	48.64
345.947	103.93
346.159	58.88
346.371	79.36
346.583	93.69
346.795	138.75
347.007	132.61
347.219	136.7
347.431	19.97
347.643	58.88
347.855	71.17
348.067	83.45
348.279	24.06
348.491	77.31
348.703	62.98
348.915	32.26
349.127	118.27
349.339	54.78
349.551	24.06
349.763	110.08
349.975	75.26
350.187	58.88
350.399	77.31
350.61	44.54
350.822	52.74
351.034	73.21
351.246	30.21
351.458	101.89
351.669	46.59
351.881	81.41
352.093	9.73
352.305	77.31
352.517	118.27
352.728	69.12
352.94	142.85
353.152	101.89
353.363	83.45
353.575	58.88
353.787	144.89
353.999	46.59
354.21	9.73
354.422	44.54
354.633	69.12
354.845	116.22
355.057	99.84
355.268	112.13
355.48	54.78
355.692	-57.86
355.903	112.13
356.115	30.21
356.326	138.75
356.538	151.04
356.749	114.17
356.961	91.65
357.172	9.73
357.384	-23.04
357.595	108.03
357.807	50.69
358.018	83.45
358.23	142.85
358.441	110.08
358.653	103.93
358.864	19.97
359.075	171.52
359.287	46.59
359.498	67.07
359.709	132.61
359.921	110.08
360.132	67.07
360.344	146.94
360.555	22.02
360.766	36.35
360.977	17.92
361.189	118.27
361.4	79.36
361.611	142.85
361.823	134.65
362.034	58.88
362.245	28.16
362.456	81.41
362.667	91.65
362.879	44.54
363.09	87.55
363.301	97.79
363.512	101.89
363.723	97.79
363.935	91.65
364.146	79.36
364.357	108.03
364.568	93.69
364.779	1.54
364.99	99.84
365.201	38.4
365.412	122.37
365.623	11.78
365.834	69.12
366.045	58.88
366.256	198.14
366.467	136.7
366.678	142.85
366.889	58.88
367.1	69.12
367.311	38.4
367.522	87.55
367.733	120.32
367.944	116.22
368.155	40.45
368.366	95.74
368.577	159.23
368.788	65.02
368.999	15.87
369.209	89.6
369.42	108.03
369.631	159.23
369.842	138.75
370.053	87.55
370.264	116.22
370.474	169.47
370.685	60.93
370.896	108.03
371.107	130.56
371.317	97.79
371.528	46.59
371.739	101.89
371.95	177.66
372.16	28.16
372.371	97.79
372.582	65.02
372.792	118.27
373.003	148.99
373.214	91.65
373.424	132.61
373.635	75.26
373.846	91.65
374.056	116.22
374.267	28.16
374.477	52.74
374.688	81.41
374.898	36.35
375.109	65.02
375.319	85.5
375.53	126.46
375.74	77.31
375.951	60.93
376.161	112.13
376.372	48.64
376.582	54.78
376.793	83.45
377.003	3.58
377.214	52.74
377.424	65.02
377.635	89.6
377.845	93.69
378.055	91.65
378.266	58.88
378.476	105.98
378.686	99.84
378.897	142.85
379.107	54.78
379.317	87.55
379.528	32.26
379.738	83.45
379.948	87.55
380.158	159.23
380.369	65.02
380.579	138.75
380.789	65.02
380.999	105.98
381.21	134.65
381.42	153.09
381.63	26.11
381.84	181.76
382.05	112.13
382.261	87.55
382.471	120.32
382.681	83.45
382.891	124.41
383.101	93.69
383.311	7.68
383.521	56.83
383.731	167.42
383.941	58.88
384.151	58.88
384.361	114.17
384.571	48.64
384.781	69.12
384.991	140.8
385.201	67.07
385.411	124.41
385.621	89.6
385.831	89.6
386.041	77.31
386.251	40.45
386.461	138.75
386.671	99.84
386.881	114.17
387.091	81.41
387.301	130.56
387.511	105.98
387.72	89.6
387.93	99.84
388.14	9.73
388.35	-2.56
388.56	159.23
388.769	183.81
388.979	71.17
389.189	56.83
389.399	81.41
389.609	105.98
389.818	108.03
390.028	79.36
390.238	97.79
390.447	75.26
390.657	81.41
390.867	7.68
391.076	38.4
391.286	132.61
391.496	144.89
391.705	38.4
391.915	155.13
392.125	50.69
392.334	67.07
392.544	130.56
392.753	122.37
392.963	65.02
393.172	75.26
393.382	112.13
393.591	77.31
393.801	105.98
394.01	187.9
394.22	130.56
394.429	151.04
394.639	116.22
394.848	65.02
395.058	144.89
395.267	108.03
395.477	105.98
395.686	91.65
395.895	181.76
396.105	183.81
396.314	110.08
396.524	126.46
396.733	103.93
396.942	83.45
397.152	159.23
397.361	175.61
397.57	146.94
397.78	126.46
397.989	99.84
398.198	212.48
398.407	142.85
398.617	144.89
398.826	75.26
399.035	144.89
399.244	177.66
399.453	167.42
399.663	101.89
399.872	142.85
400.081	-0.51
400.29	210.43
400.499	50.69
400.708	173.57
400.917	159.23
401.127	124.41
401.336	77.31
401.545	200.19
401.754	142.85
401.963	132.61
402.172	165.37
402.381	142.85
402.59	185.85
402.799	146.94
403.008	179.71
403.217	101.89
403.426	114.17
403.635	114.17
403.844	212.48
404.053	132.61
404.262	101.89
404.471	206.33
404.68	73.21
404.888	136.7
405.097	153.09
405.306	214.52
405.515	173.57
405.724	136.7
405.933	273.92
406.142	151.04
406.35	167.42
406.559	218.62
406.768	345.59
406.977	185.85
407.185	212.48
407.394	269.82
407.603	161.28
407.812	253.44
408.02	232.96
408.229	226.81
408.438	278.01
408.646	300.54
408.855	265.72
409.064	323.07
409.272	267.77
409.481	347.64
409.69	253.44
409.898	310.78
410.107	343.55
410.315	267.77
410.524	296.44
410.733	398.84
410.941	364.03
411.15	419.32
411.358	425.47
411.567	472.57
411.775	423.42
411.984	380.41
412.192	495.1
412.401	398.84
412.609	572.92
412.818	581.11
413.026	495.1
413.234	503.29
413.443	564.73
413.651	560.63
413.86	591.35
414.068	609.78
414.276	675.32
414.485	568.82
414.693	628.21
414.901	763.38
415.11	740.85
415.318	656.89
415.526	747
415.734	706.04
415.943	701.94
416.151	869.87
416.359	822.77
416.567	888.31
416.776	865.78
416.984	1029.62
417.192	935.41
417.4	982.51
417.608	992.75
417.817	1005.04
418.025	1023.47
418.233	1222.13
418.441	1037.81
418.649	1109.49
418.857	1258.99
419.065	1299.95
419.273	1172.97
419.481	1293.8
419.689	1342.96
419.897	1418.73
420.105	1390.06
420.313	1615.34
420.521	1576.42
420.729	1619.43
420.937	1592.81
421.145	1711.59
421.353	1723.88
421.561	1691.11
421.769	1885.67
421.977	1955.3
422.185	1977.83
422.393	2080.22
422.601	2201.05
422.809	2211.29
423.017	2184.67
423.224	2262.49
423.432	2303.45
423.64	2416.09
423.848	2549.21
424.056	2459.1
424.263	2706.9
424.471	2754.01
424.679	2762.2
424.887	2989.52
425.094	2962.9
425.302	3010
425.51	3143.12
425.718	3091.92
425.925	3249.61
426.133	3339.73
426.341	3452.36
426.548	3573.19
426.756	3743.17
426.964	3757.51
427.171	4044.23
427.379	4074.95
427.586	4013.51
427.794	4191.68
428.001	4636.09
428.209	4623.8
428.417	4511.16
428.624	4773.3
428.832	4949.43
429.039	4791.73
429.247	4806.07
429.454	5232.05
429.662	5576.11
429.869	5383.6
430.076	5772.71
430.284	5385.65
430.491	5653.93
430.699	6065.57
430.906	6041
431.114	6278.56
431.321	6247.84
431.528	6569.37
431.736	6978.97
431.943	7214.48
432.15	7017.88
432.358	7054.74
432.565	7583.12
432.772	7318.93
432.979	7929.22
433.187	7884.17
433.394	7943.56
433.601	8709.5
433.808	8490.37
434.016	8613.24
434.223	8895.86
434.43	9411.95
434.637	9500.02
434.844	9786.73
435.052	10050.92
435.259	10055.01
435.466	10069.35
435.673	10038.63
435.88	10605.92
436.087	11285.84
436.294	11119.96
436.501	11085.14
436.708	11119.96
436.915	11533.65
437.122	12162.37
437.329	11963.72
437.537	12385.6
437.743	12711.23
437.95	12391.75
438.157	13284.66
438.364	13612.34
438.571	13491.51
438.778	13581.62
438.985	14929.18
439.192	14120.23
439.399	14519.59
439.606	14458.15
439.813	15152.41
440.02	16190.73
440.227	15858.96
440.433	15889.68
440.64	16289.03
440.847	16413.96
441.054	16557.32
441.261	17648.88
441.467	17523.96
441.674	17833.2
441.881	18361.58
442.088	18599.14
442.294	17997.04
442.501	18906.34
442.708	18969.82
442.914	19895.5
443.121	20747.46
443.328	20036.81
443.534	21693.62
443.741	20894.91
443.948	20718.79
444.154	21953.71
444.361	21947.57
444.568	22080.69
444.774	22123.69
444.981	22506.66
445.187	23110.82
445.394	24065.17
445.6	24001.68
445.807	25867.38
446.013	24642.7
446.22	25603.19
446.426	26483.82
446.633	26596.46
446.839	27346.01
447.046	26362.99
447.252	27862.1
447.459	27780.18
447.665	27790.42
447.871	28845.13
448.078	30217.27
448.284	28611.66
448.491	29377.6
448.697	30665.77
448.903	31073.32
449.11	31380.51
449.316	31474.72
449.522	31736.86
449.728	32404.5
449.935	32543.76
450.141	32377.87
450.347	33248.26
450.553	32506.9
450.76	32717.84
450.966	34024.44
451.172	33457.15
451.378	34200.57
451.584	33588.22
451.791	34606.06
451.997	34534.39
452.203	34999.27
452.409	34614.26
452.615	34659.31
452.821	33649.66
453.027	33086.47
453.233	35218.41
453.44	33754.11
453.646	33862.65
453.852	34460.66
454.058	34782.19
454.264	33702.91
454.47	34659.31
454.676	33383.43
454.882	34724.85
455.088	32007.19
455.294	32293.91
455.5	32797.71
455.705	32791.56
455.911	31632.41
456.117	31249.44
456.323	30743.59
456.529	28939.33
456.735	30546.99
456.941	29613.12
457.147	29373.5
457.352	28322.9
457.558	27901.01
457.764	28066.9
457.97	27317.34
458.176	27040.87
458.381	26887.27
458.587	25840.76
458.793	25693.3
458.999	24249.49
459.204	25898.1
459.41	25822.33
459.616	23626.9
459.821	23422.11
460.027	23493.79
460.233	22869.16
460.438	21912.75
460.644	22336.68
460.85	21241.02
461.055	20632.77
461.261	20829.38
461.466	19064.03
461.672	18558.18
461.878	19918.03
462.083	18734.31
462.289	18300.14
462.494	18414.82
462.7	17280.25
462.905	16866.56
463.111	17413.37
463.316	17503.48
463.522	16991.48
463.727	17188.09
463.932	16973.05
464.138	16887.04
464.343	17079.55
464.549	16569.6
464.754	16993.53
464.959	16747.78
465.165	16977.15
465.37	16157.96
465.575	15564.05
465.781	16313.61
465.986	16266.5
466.191	15856.91
