Data from USB4F104151__4__12-40-52-708.txt Node

Date: Fri Mar 14 12:40:52 EDT 2025
User: louis
Spectrometer: USB4F10415
Trigger mode: 4
Integration Time (sec): 3.000000E-2
Scans to average: 1
Electric dark correction enabled: true
Nonlinearity correction enabled: false
Boxcar width: 0
XAxis mode: Wavelengths
Number of Pixels in Spectrum: 3648
>>>>>Begin Spectral Data<<<<<
178.204	-123.56
178.424	-123.56
178.644	-123.56
178.864	-156.33
179.084	-121.51
179.304	36.18
179.524	-4.78
179.744	-64.17
179.964	44.37
180.184	44.37
180.404	40.28
180.624	-55.98
180.844	-43.69
181.064	-33.45
181.283	-19.11
181.503	66.9
181.723	-10.92
181.943	-8.87
182.163	71
182.383	56.66
182.602	85.33
182.822	105.81
183.042	11.61
183.262	-19.11
183.482	34.13
183.701	19.8
183.921	23.89
184.141	111.96
184.361	87.38
184.58	23.89
184.8	50.52
185.02	73.04
185.239	25.94
185.459	15.7
185.679	56.66
185.898	44.37
186.118	95.57
186.338	-10.92
186.557	46.42
186.777	3.41
186.997	107.86
187.216	64.85
187.436	91.48
187.655	101.72
187.875	42.32
188.095	17.75
188.314	36.18
188.534	107.86
188.753	13.65
188.973	50.52
189.192	136.53
189.412	60.76
189.631	-0.68
189.851	73.04
190.07	95.57
190.29	-66.22
190.509	93.52
190.729	27.99
190.948	93.52
191.168	99.67
191.387	54.61
191.607	62.8
191.826	60.76
192.045	-0.68
192.265	52.56
192.484	11.61
192.704	15.7
192.923	-8.87
193.142	101.72
193.362	36.18
193.581	36.18
193.8	81.24
194.02	3.41
194.239	54.61
194.458	44.37
194.678	-0.68
194.897	-2.73
195.116	60.76
195.335	27.99
195.555	91.48
195.774	42.32
195.993	13.65
196.212	71
196.432	56.66
196.651	91.48
196.87	-33.45
197.089	114
197.308	21.84
197.528	48.47
197.747	-21.16
197.966	58.71
198.185	46.42
198.404	15.7
198.623	19.8
198.842	73.04
199.062	114
199.281	71
199.5	89.43
199.719	1.37
199.938	48.47
200.157	124.24
200.376	60.76
200.595	52.56
200.814	83.28
201.033	3.41
201.252	101.72
201.471	-6.83
201.69	134.48
201.909	27.99
202.128	62.8
202.347	56.66
202.566	40.28
202.785	-15.02
203.004	54.61
203.223	148.82
203.442	71
203.661	13.65
203.879	83.28
204.098	3.41
204.317	-0.68
204.536	1.37
204.755	9.56
204.974	87.38
205.193	36.18
205.411	38.23
205.63	52.56
205.849	79.19
206.068	75.09
206.287	52.56
206.505	79.19
206.724	97.62
206.943	58.71
207.162	58.71
207.381	66.9
207.599	66.9
207.818	58.71
208.037	19.8
208.255	11.61
208.474	-2.73
208.693	79.19
208.911	46.42
209.13	75.09
209.349	77.14
209.567	83.28
209.786	109.91
210.005	46.42
210.223	99.67
210.442	13.65
210.661	50.52
210.879	34.13
211.098	75.09
211.316	23.89
211.535	42.32
211.753	11.61
211.972	73.04
212.191	40.28
212.409	87.38
212.628	73.04
212.846	27.99
213.065	-8.87
213.283	101.72
213.502	30.04
213.72	-27.31
213.938	87.38
214.157	42.32
214.375	101.72
214.594	-6.83
214.812	75.09
215.031	83.28
215.249	75.09
215.467	68.95
215.686	46.42
215.904	83.28
216.122	36.18
216.341	81.24
216.559	-8.87
216.778	58.71
216.996	23.89
217.214	-10.92
217.432	-6.83
217.651	83.28
217.869	44.37
218.087	103.76
218.306	62.8
218.524	89.43
218.742	36.18
218.96	38.23
219.179	13.65
219.397	3.41
219.615	79.19
219.833	56.66
220.051	13.65
220.27	34.13
220.488	25.94
220.706	81.24
220.924	62.8
221.142	91.48
221.36	-12.97
221.578	42.32
221.796	27.99
222.015	13.65
222.233	103.76
222.451	93.52
222.669	-6.83
222.887	103.76
223.105	42.32
223.323	56.66
223.541	36.18
223.759	87.38
223.977	-0.68
224.195	17.75
224.413	46.42
224.631	81.24
224.849	58.71
225.067	128.34
225.285	60.76
225.503	23.89
225.721	50.52
225.939	99.67
226.157	40.28
226.375	142.68
226.592	64.85
226.81	52.56
227.028	56.66
227.246	120.15
227.464	21.84
227.682	105.81
227.9	134.48
228.117	79.19
228.335	44.37
228.553	50.52
228.771	30.04
228.989	95.57
229.206	27.99
229.424	7.51
229.642	50.52
229.86	23.89
230.077	97.62
230.295	83.28
230.513	107.86
230.731	44.37
230.948	95.57
231.166	144.72
231.384	44.37
231.601	9.56
231.819	52.56
232.037	-0.68
232.254	-0.68
232.472	83.28
232.689	30.04
232.907	58.71
233.125	25.94
233.342	34.13
233.56	-31.4
233.777	54.61
233.995	48.47
234.213	85.33
234.43	87.38
234.648	-35.5
234.865	23.89
235.083	66.9
235.3	48.47
235.518	54.61
235.735	38.23
235.953	169.3
236.17	13.65
236.388	1.37
236.605	21.84
236.822	75.09
237.04	87.38
237.257	15.7
237.475	50.52
237.692	40.28
237.909	-33.45
238.127	21.84
238.344	50.52
238.562	58.71
238.779	75.09
238.996	-33.45
239.214	60.76
239.431	95.57
239.648	38.23
239.865	56.66
240.083	103.76
240.3	60.76
240.517	46.42
240.735	13.65
240.952	114
241.169	-6.83
241.386	97.62
241.603	54.61
241.821	25.94
242.038	89.43
242.255	-17.07
242.472	32.08
242.689	36.18
242.907	3.41
243.124	85.33
243.341	19.8
243.558	-12.97
243.775	36.18
243.992	40.28
244.209	56.66
244.426	60.76
244.643	21.84
244.86	19.8
245.078	60.76
245.295	68.95
245.512	66.9
245.729	-53.93
245.946	21.84
246.163	48.47
246.38	42.32
246.597	64.85
246.814	95.57
247.031	-27.31
247.248	34.13
247.464	60.76
247.681	136.53
247.898	81.24
248.115	105.81
248.332	71
248.549	126.29
248.766	34.13
248.983	91.48
249.2	11.61
249.417	93.52
249.633	27.99
249.85	95.57
250.067	36.18
250.284	48.47
250.501	40.28
250.717	36.18
250.934	11.61
251.151	25.94
251.368	17.75
251.585	71
251.801	-39.59
252.018	85.33
252.235	89.43
252.451	1.37
252.668	1.37
252.885	52.56
253.102	36.18
253.318	17.75
253.535	1.37
253.752	30.04
253.968	56.66
254.185	-10.92
254.401	81.24
254.618	120.15
254.835	44.37
255.051	107.86
255.268	62.8
255.484	60.76
255.701	19.8
255.917	124.24
256.134	60.76
256.351	25.94
256.567	-43.69
256.784	56.66
257	60.76
257.217	46.42
257.433	73.04
257.65	60.76
257.866	101.72
258.082	77.14
258.299	60.76
258.515	103.76
258.732	75.09
258.948	-6.83
259.165	118.1
259.381	-39.59
259.597	118.1
259.814	60.76
260.03	15.7
260.246	77.14
260.463	91.48
260.679	142.68
260.895	9.56
261.112	62.8
261.328	-0.68
261.544	25.94
261.761	159.06
261.977	25.94
262.193	17.75
262.409	36.18
262.626	85.33
262.842	109.91
263.058	56.66
263.274	13.65
263.49	79.19
263.707	120.15
263.923	40.28
264.139	-8.87
264.355	15.7
264.571	85.33
264.787	5.46
265.004	73.04
265.22	97.62
265.436	44.37
265.652	66.9
265.868	120.15
266.084	38.23
266.3	64.85
266.516	13.65
266.732	48.47
266.948	62.8
267.164	13.65
267.38	144.72
267.596	97.62
267.812	66.9
268.028	30.04
268.244	50.52
268.46	66.9
268.676	36.18
268.892	44.37
269.108	83.28
269.324	73.04
269.54	-12.97
269.756	23.89
269.972	46.42
270.188	21.84
270.403	-8.87
270.619	56.66
270.835	44.37
271.051	5.46
271.267	38.23
271.483	85.33
271.698	44.37
271.914	54.61
272.13	13.65
272.346	44.37
272.562	38.23
272.777	75.09
272.993	23.89
273.209	32.08
273.425	48.47
273.64	91.48
273.856	17.75
274.072	79.19
274.287	34.13
274.503	71
274.719	64.85
274.934	1.37
275.15	-4.78
275.366	48.47
275.581	42.32
275.797	25.94
276.012	114
276.228	44.37
276.444	32.08
276.659	5.46
276.875	60.76
277.09	42.32
277.306	101.72
277.521	107.86
277.737	68.95
277.952	30.04
278.168	79.19
278.383	19.8
278.599	30.04
278.814	114
279.03	-0.68
279.245	101.72
279.461	40.28
279.676	116.05
279.892	-17.07
280.107	38.23
280.322	23.89
280.538	116.05
280.753	-6.83
280.969	111.96
281.184	62.8
281.399	71
281.615	-10.92
281.83	36.18
282.045	-17.07
282.26	-43.69
282.476	1.37
282.691	152.91
282.906	25.94
283.122	124.24
283.337	30.04
283.552	3.41
283.767	21.84
283.983	87.38
284.198	11.61
284.413	-0.68
284.628	56.66
284.843	68.95
285.058	48.47
285.274	66.9
285.489	27.99
285.704	87.38
285.919	-4.78
286.134	34.13
286.349	58.71
286.564	19.8
286.779	93.52
286.995	40.28
287.21	-10.92
287.425	77.14
287.64	19.8
287.855	40.28
288.07	15.7
288.285	68.95
288.5	32.08
288.715	77.14
288.93	48.47
289.145	107.86
289.36	52.56
289.575	25.94
289.79	54.61
290.004	-4.78
290.219	122.2
290.434	42.32
290.649	-23.21
290.864	134.48
291.079	83.28
291.294	60.76
291.509	58.71
291.724	25.94
291.938	138.58
292.153	68.95
292.368	-8.87
292.583	77.14
292.798	89.43
293.012	77.14
293.227	-8.87
293.442	60.76
293.657	91.48
293.871	99.67
294.086	77.14
294.301	62.8
294.516	126.29
294.73	75.09
294.945	1.37
295.16	1.37
295.374	52.56
295.589	73.04
295.804	7.51
296.018	116.05
296.233	103.76
296.447	134.48
296.662	-10.92
296.877	66.9
297.091	64.85
297.306	105.81
297.52	1.37
297.735	75.09
297.949	-25.26
298.164	79.19
298.378	23.89
298.593	85.33
298.807	-4.78
299.022	46.42
299.236	93.52
299.451	27.99
299.665	1.37
299.88	21.84
300.094	111.96
300.309	30.04
300.523	99.67
300.737	50.52
300.952	15.7
301.166	48.47
301.381	50.52
301.595	89.43
301.809	79.19
302.024	50.52
302.238	-39.59
302.452	54.61
302.667	36.18
302.881	58.71
303.095	52.56
303.309	99.67
303.524	19.8
303.738	75.09
303.952	-23.21
304.166	103.76
304.381	34.13
304.595	66.9
304.809	-15.02
305.023	71
305.237	11.61
305.452	1.37
305.666	27.99
305.88	146.77
306.094	95.57
306.308	62.8
306.522	27.99
306.736	-35.5
306.95	19.8
307.164	34.13
307.379	58.71
307.593	114
307.807	81.24
308.021	177.49
308.235	81.24
308.449	-27.31
308.663	64.85
308.877	52.56
309.091	93.52
309.305	71
309.519	13.65
309.733	126.29
309.947	-6.83
310.161	38.23
310.374	152.91
310.588	134.48
310.802	87.38
311.016	85.33
311.23	75.09
311.444	-31.4
311.658	30.04
311.872	101.72
312.085	167.25
312.299	-4.78
312.513	54.61
312.727	116.05
312.941	27.99
313.154	58.71
313.368	60.76
313.582	54.61
313.796	46.42
314.009	75.09
314.223	71
314.437	25.94
314.651	116.05
314.864	107.86
315.078	109.91
315.292	25.94
315.505	81.24
315.719	177.49
315.933	7.51
316.146	46.42
316.36	107.86
316.573	122.2
316.787	95.57
317.001	17.75
317.214	34.13
317.428	111.96
317.641	9.56
317.855	52.56
318.068	79.19
318.282	93.52
318.495	97.62
318.709	91.48
318.922	54.61
319.136	83.28
319.349	89.43
319.563	60.76
319.776	21.84
319.99	-8.87
320.203	15.7
320.417	44.37
320.63	13.65
320.843	38.23
321.057	83.28
321.27	58.71
321.483	-27.31
321.697	77.14
321.91	77.14
322.124	46.42
322.337	11.61
322.55	77.14
322.763	38.23
322.977	48.47
323.19	124.24
323.403	136.53
323.617	87.38
323.83	42.32
324.043	107.86
324.256	91.48
324.469	62.8
324.683	163.15
324.896	34.13
325.109	107.86
325.322	-72.36
325.535	91.48
325.748	130.39
325.962	52.56
326.175	60.76
326.388	103.76
326.601	105.81
326.814	3.41
327.027	7.51
327.24	103.76
327.453	-58.03
327.666	60.76
327.879	85.33
328.092	103.76
328.305	60.76
328.518	54.61
328.731	103.76
328.944	46.42
329.157	91.48
329.37	66.9
329.583	68.95
329.796	146.77
330.009	38.23
330.222	107.86
330.435	87.38
330.648	-15.02
330.861	42.32
331.073	68.95
331.286	126.29
331.499	34.13
331.712	50.52
331.925	71
332.138	60.76
332.35	111.96
332.563	23.89
332.776	73.04
332.989	54.61
333.202	87.38
333.414	54.61
333.627	68.95
333.84	48.47
334.053	54.61
334.265	60.76
334.478	58.71
334.691	48.47
334.903	95.57
335.116	34.13
335.329	64.85
335.541	93.52
335.754	105.81
335.966	38.23
336.179	118.1
336.392	85.33
336.604	15.7
336.817	34.13
337.029	42.32
337.242	23.89
337.454	77.14
337.667	126.29
337.88	114
338.092	81.24
338.305	42.32
338.517	32.08
338.729	34.13
338.942	73.04
339.154	79.19
339.367	-0.68
339.579	75.09
339.792	-15.02
340.004	1.37
340.217	48.47
340.429	36.18
340.641	62.8
340.854	68.95
341.066	79.19
341.278	157.01
341.491	97.62
341.703	38.23
341.915	-0.68
342.128	122.2
342.34	105.81
342.552	60.76
342.764	101.72
342.977	62.8
343.189	19.8
343.401	83.28
343.613	5.46
343.826	64.85
344.038	11.61
344.25	114
344.462	7.51
344.674	93.52
344.886	19.8
345.099	132.44
345.311	30.04
345.523	13.65
345.735	11.61
345.947	171.35
346.159	136.53
346.371	46.42
346.583	30.04
346.795	66.9
347.007	89.43
347.219	27.99
347.431	87.38
347.643	114
347.855	54.61
348.067	50.52
348.279	-33.45
348.491	169.3
348.703	89.43
348.915	118.1
349.127	-49.83
349.339	58.71
349.551	34.13
349.763	111.96
349.975	66.9
350.187	93.52
350.399	136.53
350.61	38.23
350.822	25.94
351.034	52.56
351.246	62.8
351.458	54.61
351.669	27.99
351.881	50.52
352.093	103.76
352.305	52.56
352.517	81.24
352.728	154.96
352.94	81.24
353.152	34.13
353.363	34.13
353.575	5.46
353.787	89.43
353.999	136.53
354.21	152.91
354.422	27.99
354.633	50.52
354.845	54.61
355.057	75.09
355.268	17.75
355.48	77.14
355.692	11.61
355.903	54.61
356.115	27.99
356.326	30.04
356.538	81.24
356.749	107.86
356.961	154.96
357.172	17.75
357.384	46.42
357.595	107.86
357.807	62.8
358.018	-80.55
358.23	103.76
358.441	95.57
358.653	79.19
358.864	52.56
359.075	68.95
359.287	75.09
359.498	128.34
359.709	23.89
359.921	91.48
360.132	46.42
360.344	19.8
360.555	71
360.766	54.61
360.977	81.24
361.189	142.68
361.4	25.94
361.611	103.76
361.823	140.63
362.034	97.62
362.245	79.19
362.456	52.56
362.667	36.18
362.879	7.51
363.09	32.08
363.301	68.95
363.512	13.65
363.723	25.94
363.935	101.72
364.146	146.77
364.357	97.62
364.568	66.9
364.779	89.43
364.99	66.9
365.201	15.7
365.412	134.48
365.623	56.66
365.834	56.66
366.045	89.43
366.256	111.96
366.467	111.96
366.678	66.9
366.889	109.91
367.1	105.81
367.311	171.35
367.522	87.38
367.733	77.14
367.944	83.28
368.155	-21.16
368.366	99.67
368.577	62.8
368.788	93.52
368.999	52.56
369.209	68.95
369.42	146.77
369.631	99.67
369.842	169.3
370.053	116.05
370.264	9.56
370.474	58.71
370.685	9.56
370.896	105.81
371.107	95.57
371.317	116.05
371.528	73.04
371.739	130.39
371.95	95.57
372.16	85.33
372.371	79.19
372.582	77.14
372.792	75.09
373.003	48.47
373.214	62.8
373.424	134.48
373.635	44.37
373.846	111.96
374.056	81.24
374.267	34.13
374.477	107.86
374.688	27.99
374.898	-25.26
375.109	64.85
375.319	68.95
375.53	105.81
375.74	183.63
375.951	7.51
376.161	48.47
376.372	105.81
376.582	7.51
376.793	118.1
377.003	50.52
377.214	42.32
377.424	132.44
377.635	91.48
377.845	130.39
378.055	132.44
378.266	15.7
378.476	101.72
378.686	36.18
378.897	50.52
379.107	97.62
379.317	114
379.528	42.32
379.738	81.24
379.948	83.28
380.158	44.37
380.369	107.86
380.579	128.34
380.789	89.43
380.999	50.52
381.21	58.71
381.42	89.43
381.63	132.44
381.84	71
382.05	42.32
382.261	165.2
382.471	85.33
382.681	42.32
382.891	97.62
383.101	9.56
383.311	58.71
383.521	62.8
383.731	109.91
383.941	144.72
384.151	118.1
384.361	60.76
384.571	19.8
384.781	89.43
384.991	161.11
385.201	99.67
385.411	107.86
385.621	66.9
385.831	17.75
386.041	95.57
386.251	142.68
386.461	103.76
386.671	42.32
386.881	99.67
387.091	87.38
387.301	60.76
387.511	71
387.72	140.63
387.93	64.85
388.14	58.71
388.35	62.8
388.56	116.05
388.769	109.91
388.979	120.15
389.189	68.95
389.399	71
389.609	122.2
389.818	150.87
390.028	122.2
390.238	56.66
390.447	40.28
390.657	148.82
390.867	44.37
391.076	60.76
391.286	103.76
391.496	77.14
391.705	114
391.915	126.29
392.125	136.53
392.334	50.52
392.544	89.43
392.753	101.72
392.963	150.87
393.172	87.38
393.382	58.71
393.591	138.58
393.801	71
394.01	165.2
394.22	187.73
394.429	85.33
394.639	103.76
394.848	146.77
395.058	118.1
395.267	58.71
395.477	130.39
395.686	159.06
395.895	165.2
396.105	175.44
396.314	99.67
396.524	154.96
396.733	200.02
396.942	195.92
397.152	118.1
397.361	173.39
397.57	103.76
397.78	120.15
397.989	146.77
398.198	218.45
398.407	154.96
398.617	50.52
398.826	124.24
399.035	114
399.244	85.33
399.453	171.35
399.663	103.76
399.872	54.61
400.081	114
400.29	187.73
400.499	191.83
400.708	226.64
400.917	167.25
401.127	167.25
401.336	202.07
401.545	202.07
401.754	167.25
401.963	255.31
402.172	218.45
402.381	218.45
402.59	159.06
402.799	261.46
403.008	290.13
403.217	175.44
403.426	134.48
403.635	222.55
403.844	130.39
404.053	187.73
404.262	163.15
404.471	224.59
404.68	234.83
404.888	185.68
405.097	197.97
405.306	234.83
405.515	216.4
405.724	216.4
405.933	390.48
406.142	224.59
406.35	316.75
406.559	259.41
406.768	224.59
406.977	331.09
407.185	290.13
407.394	306.51
407.603	218.45
407.812	292.18
408.02	382.29
408.229	304.46
408.438	294.22
408.646	271.7
408.855	349.52
409.064	451.92
409.272	357.71
409.481	281.94
409.69	374.1
409.898	388.43
410.107	386.38
410.315	410.96
410.524	396.62
410.733	505.17
410.941	445.77
411.15	470.35
411.358	472.4
411.567	539.98
411.775	562.51
411.984	566.6
412.192	617.8
412.401	552.27
412.609	574.8
412.818	671.05
413.026	615.76
413.234	650.57
413.443	669
413.651	755.02
413.86	732.49
414.068	773.45
414.276	855.37
414.485	732.49
414.693	853.32
414.901	908.62
415.11	970.05
415.318	927.05
415.526	957.77
415.734	1060.17
415.943	1101.12
416.151	1097.03
416.359	1109.32
416.567	1168.71
416.776	1144.13
416.984	1314.11
417.192	1371.46
417.4	1297.73
417.608	1307.97
417.817	1396.03
418.025	1404.22
418.233	1539.39
418.441	1523.01
418.649	1512.77
418.857	1619.26
419.065	1664.32
419.273	1606.97
419.481	1801.53
419.689	1846.59
419.897	1944.89
420.105	1932.6
420.313	2121.01
420.521	2078.01
420.729	2147.64
420.937	2252.08
421.145	2334
421.353	2323.76
421.561	2481.46
421.769	2626.86
421.977	2739.5
422.185	2639.15
422.393	2759.98
422.601	3009.83
422.809	3005.74
423.017	2889
423.224	3188
423.432	3339.55
423.64	3413.28
423.848	3550.5
424.056	3474.72
424.263	3802.4
424.471	3675.42
424.679	3935.51
424.887	3931.42
425.094	4244.76
425.302	4121.88
425.51	4420.88
425.718	4437.27
425.925	4541.71
426.133	4750.6
426.341	4988.17
426.548	5149.96
426.756	5149.96
426.964	5430.53
427.171	5553.41
427.379	5795.07
427.586	5735.68
427.794	6006.01
428.001	6257.91
428.209	6567.15
428.417	6532.34
428.624	6894.83
428.832	7001.32
429.039	7054.57
429.247	6857.96
429.454	7668.96
429.662	7998.68
429.869	7646.43
430.076	8232.15
430.284	7740.64
430.491	8279.25
430.699	8738
430.906	8555.73
431.114	8828.11
431.321	8959.18
431.528	9293
431.736	9727.17
431.943	9999.55
432.15	10013.88
432.358	10142.91
432.565	10560.69
432.772	10521.78
432.979	11011.25
433.187	11287.72
433.394	11416.74
433.601	12145.82
433.808	12448.92
434.016	11988.13
434.223	12596.37
434.43	13253.77
434.637	13202.57
434.844	13870.21
435.052	14306.43
435.259	14257.28
435.466	13933.7
435.673	14017.66
435.88	15010.93
436.087	15772.77
436.294	15559.78
436.501	15385.71
436.708	15826.02
436.915	16421.98
437.122	17384.52
437.329	16919.64
437.537	17843.27
437.743	18107.46
437.95	17728.58
438.157	18644.02
438.364	19082.29
438.571	19319.85
438.778	19346.48
438.985	21124.11
439.192	20548.64
439.399	20816.92
439.606	20345.89
439.813	21511.18
440.02	23223.28
440.227	22633.47
440.433	22383.62
440.64	23141.36
440.847	22961.14
441.054	23604.21
441.261	25121.75
441.467	24468.45
441.674	25338.83
441.881	26223.56
442.088	26184.65
442.294	25938.89
442.501	26848.19
442.708	27270.07
442.914	28115.88
443.121	29365.14
443.328	28697.5
443.534	30573.44
443.741	29729.68
443.948	29336.47
444.154	31632.24
444.361	31226.74
444.568	31622
444.774	31615.86
444.981	32052.08
445.187	32670.56
445.394	34220.88
445.6	33862.48
445.807	36967.2
446.013	35038.01
446.22	36352.81
446.426	37630.74
446.633	37788.44
446.839	39375.61
447.046	37608.22
447.252	39731.96
447.459	39525.11
447.665	39389.95
447.871	40934.12
448.078	42887.88
448.284	40841.96
448.491	42091.22
448.697	43723.45
448.903	44360.37
449.11	44501.68
449.316	43627.2
449.522	44735.15
449.728	46248.6
449.935	46158.49
450.141	45980.31
450.347	47088.26
450.553	45691.55
450.76	46404.24
450.966	47757.95
451.172	47747.71
451.378	48384.63
451.584	47274.63
451.791	48788.08
451.997	48724.59
452.203	48976.49
452.409	49429.09
452.615	49099.37
452.821	47493.76
453.027	46940.81
453.233	49455.71
453.44	47481.47
453.646	48032.38
453.852	47913.59
454.058	49316.45
454.264	47540.86
454.47	48638.58
454.676	47256.2
454.882	48910.96
455.088	44874.41
455.294	45693.6
455.5	46162.58
455.705	46441.1
455.911	44794.54
456.117	43909.82
456.323	43229.89
456.529	41476.83
456.735	42826.44
456.941	41810.65
457.147	41190.11
457.352	39719.67
457.558	39430.91
457.764	39564.03
457.97	38912.77
458.176	37929.75
458.381	38183.69
458.587	36160.3
458.793	36240.17
458.999	34448.2
459.204	36655.91
459.41	35687.22
459.616	33620.82
459.821	33440.6
460.027	33438.55
460.233	32570.21
460.438	31265.66
460.644	31826.8
460.85	30092.17
461.055	29508.5
461.261	29391.76
461.466	27378.61
461.672	26348.48
461.878	28249
462.083	26418.11
462.289	26061.77
462.494	25500.62
462.7	24454.11
462.905	23825.39
463.111	24667.1
463.316	25076.69
463.522	24597.47
463.727	24374.24
463.932	24464.35
464.138	23985.13
464.343	24138.72
464.549	23352.3
464.754	24230.88
464.959	23968.74
465.165	23444.46
465.37	22809.59
465.575	22230.02
465.781	23155.7
465.986	23247.86
466.191	22541.31
466.397	21998.6
466.602	20835.35
466.807	21648.39
467.012	21851.14
467.218	21629.96
467.423	21447.69
