Data from USB4F104151__1__12-58-20-914.txt Node

Date: Fri Mar 14 12:58:20 EDT 2025
User: louis
Spectrometer: USB4F10415
Trigger mode: 4
Integration Time (sec): 1.000000E-2
Scans to average: 1
Electric dark correction enabled: true
Nonlinearity correction enabled: false
Boxcar width: 0
XAxis mode: Wavelengths
Number of Pixels in Spectrum: 3648
>>>>>Begin Spectral Data<<<<<
178.204	-60.24
178.424	-60.24
178.644	-60.24
178.864	-74.58
179.084	23.72
179.304	-21.33
179.524	-9.05
179.744	-33.62
179.964	1.19
180.184	-15.19
180.404	13.48
180.624	-17.24
180.844	48.3
181.064	23.72
181.283	42.15
181.503	-23.38
181.723	-9.05
181.943	-56.15
182.163	25.77
182.383	19.63
182.602	-7
182.822	3.24
183.042	-7
183.262	-4.95
183.482	60.59
183.701	15.53
183.921	50.35
184.141	-11.09
184.361	29.87
184.58	38.06
184.8	42.15
185.02	3.24
185.239	21.67
185.459	27.82
185.679	27.82
185.898	-2.9
186.118	9.39
186.338	-7
186.557	-13.14
186.777	17.58
186.997	-27.48
187.216	-37.72
187.436	44.2
187.655	-11.09
187.875	9.39
188.095	89.26
188.314	-58.2
188.534	3.24
188.753	72.87
188.973	50.35
189.192	64.68
189.412	-7
189.631	33.96
189.851	-9.05
190.07	91.31
190.29	11.43
190.509	-7
190.729	40.11
190.948	-9.05
191.168	29.87
191.387	72.87
191.607	-66.39
191.826	7.34
192.045	27.82
192.265	40.11
192.484	56.49
192.704	11.43
192.923	-41.81
193.142	-41.81
193.362	-29.52
193.581	27.82
193.8	-39.76
194.02	36.01
194.239	46.25
194.458	31.91
194.678	52.39
194.897	-15.19
195.116	-45.91
195.335	83.11
195.555	7.34
195.774	3.24
195.993	17.58
196.212	-13.14
196.432	-31.57
196.651	-43.86
196.87	56.49
197.089	36.01
197.308	17.58
197.528	17.58
197.747	-19.29
197.966	-66.39
198.185	68.78
198.404	42.15
198.623	40.11
198.842	58.54
199.062	50.35
199.281	40.11
199.5	42.15
199.719	44.2
199.938	58.54
200.157	48.3
200.376	33.96
200.595	62.63
200.814	15.53
201.033	11.43
201.252	-15.19
201.471	79.02
201.69	-19.29
201.909	48.3
202.128	-33.62
202.347	46.25
202.566	93.35
202.785	81.07
203.004	-41.81
203.223	44.2
203.442	5.29
203.661	40.11
203.879	21.67
204.098	122.02
204.317	44.2
204.536	-15.19
204.755	15.53
204.974	13.48
205.193	-13.14
205.411	-21.33
205.63	-13.14
205.849	33.96
206.068	89.26
206.287	-17.24
206.505	-31.57
206.724	-2.9
206.943	-17.24
207.162	-23.38
207.381	-13.14
207.599	44.2
207.818	27.82
208.037	74.92
208.255	-76.63
208.474	42.15
208.693	-39.76
208.911	-47.96
209.13	48.3
209.349	56.49
209.567	74.92
209.786	1.19
210.005	-23.38
210.223	7.34
210.442	113.83
210.661	-13.14
210.879	3.24
211.098	-7
211.316	27.82
211.535	60.59
211.753	72.87
211.972	-31.57
212.191	87.21
212.409	7.34
212.628	48.3
212.846	-7
213.065	-0.85
213.283	25.77
213.502	36.01
213.72	48.3
213.938	-31.57
214.157	27.82
214.375	-7
214.594	107.69
214.812	-13.14
215.031	40.11
215.249	36.01
215.467	27.82
215.686	-0.85
215.904	-29.52
216.122	44.2
216.341	50.35
216.559	25.77
216.778	58.54
216.996	64.68
217.214	13.48
217.432	11.43
217.651	128.17
217.869	9.39
218.087	17.58
218.306	-9.05
218.524	-0.85
218.742	-21.33
218.96	7.34
219.179	-33.62
219.397	9.39
219.615	31.91
219.833	19.63
220.051	46.25
220.27	50.35
220.488	36.01
220.706	-2.9
220.924	-56.15
221.142	-29.52
221.36	-50
221.578	-7
221.796	-4.95
222.015	91.31
222.233	33.96
222.451	36.01
222.669	-21.33
222.887	46.25
223.105	7.34
223.323	33.96
223.541	-17.24
223.759	15.53
223.977	48.3
224.195	27.82
224.413	-43.86
224.631	68.78
224.849	1.19
225.067	-15.19
225.285	15.53
225.503	21.67
225.721	15.53
225.939	44.2
226.157	50.35
226.375	87.21
226.592	15.53
226.81	-29.52
227.028	113.83
227.246	83.11
227.464	5.29
227.682	40.11
227.9	1.19
228.117	23.72
228.335	70.83
228.553	-2.9
228.771	-9.05
228.989	56.49
229.206	9.39
229.424	25.77
229.642	38.06
229.86	64.68
230.077	42.15
230.295	44.2
230.513	-39.76
230.731	3.24
230.948	54.44
231.166	-11.09
231.384	29.87
231.601	40.11
231.819	44.2
232.037	-41.81
232.254	-29.52
232.472	1.19
232.689	48.3
232.907	89.26
233.125	-50
233.342	9.39
233.56	95.4
233.777	60.59
233.995	5.29
234.213	3.24
234.43	52.39
234.648	93.35
234.865	19.63
235.083	23.72
235.3	15.53
235.518	-0.85
235.735	76.97
235.953	33.96
236.17	54.44
236.388	79.02
236.605	31.91
236.822	23.72
237.04	-74.58
237.257	-35.67
237.475	25.77
237.692	68.78
237.909	-17.24
238.127	74.92
238.344	-62.29
238.562	-2.9
238.779	-2.9
238.996	-58.2
239.214	27.82
239.431	38.06
239.648	11.43
239.865	40.11
240.083	68.78
240.3	97.45
240.517	54.44
240.735	46.25
240.952	68.78
241.169	21.67
241.386	81.07
241.603	-23.38
241.821	27.82
242.038	23.72
242.255	38.06
242.472	68.78
242.689	36.01
242.907	31.91
243.124	17.58
243.341	31.91
243.558	-4.95
243.775	38.06
243.992	33.96
244.209	23.72
244.426	50.35
244.643	3.24
244.86	99.5
245.078	19.63
245.295	46.25
245.512	42.15
245.729	25.77
245.946	-17.24
246.163	-9.05
246.38	38.06
246.597	9.39
246.814	-23.38
247.031	19.63
247.248	68.78
247.464	76.97
247.681	27.82
247.898	31.91
248.115	124.07
248.332	-15.19
248.549	113.83
248.766	54.44
248.983	-29.52
249.2	-0.85
249.417	97.45
249.633	50.35
249.85	54.44
250.067	-25.43
250.284	15.53
250.501	-7
250.717	-0.85
250.934	11.43
251.151	-9.05
251.368	17.58
251.585	109.74
251.801	3.24
252.018	52.39
252.235	83.11
252.451	3.24
252.668	97.45
252.885	50.35
253.102	38.06
253.318	72.87
253.535	42.15
253.752	89.26
253.968	42.15
254.185	93.35
254.401	-2.9
254.618	56.49
254.835	58.54
255.051	44.2
255.268	15.53
255.484	36.01
255.701	42.15
255.917	113.83
256.134	-23.38
256.351	64.68
256.567	64.68
256.784	148.65
257	-41.81
257.217	-15.19
257.433	36.01
257.65	54.44
257.866	5.29
258.082	9.39
258.299	-15.19
258.515	7.34
258.732	-13.14
258.948	62.63
259.165	76.97
259.381	31.91
259.597	54.44
259.814	-4.95
260.03	11.43
260.246	31.91
260.463	-39.76
260.679	9.39
260.895	-19.29
261.112	38.06
261.328	25.77
261.544	58.54
261.761	-11.09
261.977	76.97
262.193	-17.24
262.409	72.87
262.626	54.44
262.842	50.35
263.058	19.63
263.274	95.4
263.49	-27.48
263.707	27.82
263.923	9.39
264.139	15.53
264.355	-31.57
264.571	99.5
264.787	-0.85
265.004	31.91
265.22	1.19
265.436	-7
265.652	23.72
265.868	7.34
266.084	36.01
266.3	40.11
266.516	3.24
266.732	42.15
266.948	19.63
267.164	-2.9
267.38	76.97
267.596	9.39
267.812	-4.95
268.028	23.72
268.244	33.96
268.46	70.83
268.676	-23.38
268.892	-0.85
269.108	42.15
269.324	50.35
269.54	-41.81
269.756	79.02
269.972	15.53
270.188	50.35
270.403	27.82
270.619	29.87
270.835	54.44
271.051	9.39
271.267	31.91
271.483	3.24
271.698	7.34
271.914	25.77
272.13	40.11
272.346	76.97
272.562	50.35
272.777	138.41
272.993	111.78
273.209	66.73
273.425	27.82
273.64	23.72
273.856	44.2
274.072	74.92
274.287	23.72
274.503	29.87
274.719	76.97
274.934	54.44
275.15	31.91
275.366	-7
275.581	-13.14
275.797	-9.05
276.012	11.43
276.228	68.78
276.444	15.53
276.659	68.78
276.875	19.63
277.09	11.43
277.306	5.29
277.521	-2.9
277.737	9.39
277.952	66.73
278.168	33.96
278.383	38.06
278.599	27.82
278.814	-17.24
279.03	44.2
279.245	70.83
279.461	105.64
279.676	68.78
279.892	50.35
280.107	40.11
280.322	9.39
280.538	5.29
280.753	15.53
280.969	3.24
281.184	23.72
281.399	19.63
281.615	9.39
281.83	72.87
282.045	44.2
282.26	83.11
282.476	-31.57
282.691	128.17
282.906	3.24
283.122	85.16
283.337	42.15
283.552	25.77
283.767	29.87
283.983	36.01
284.198	23.72
284.413	74.92
284.628	25.77
284.843	3.24
285.058	60.59
285.274	33.96
285.489	62.63
285.704	89.26
285.919	-4.95
286.134	-64.34
286.349	36.01
286.564	89.26
286.779	83.11
286.995	3.24
287.21	7.34
287.425	72.87
287.64	5.29
287.855	64.68
288.07	36.01
288.285	89.26
288.5	-0.85
288.715	64.68
288.93	38.06
289.145	7.34
289.36	40.11
289.575	23.72
289.79	89.26
290.004	89.26
290.219	52.39
290.434	111.78
290.649	23.72
290.864	-7
291.079	-25.43
291.294	54.44
291.509	68.78
291.724	27.82
291.938	3.24
292.153	40.11
292.368	-19.29
292.583	87.21
292.798	23.72
293.012	76.97
293.227	38.06
293.442	105.64
293.657	-27.48
293.871	1.19
294.086	40.11
294.301	62.63
294.516	29.87
294.73	31.91
294.945	70.83
295.16	33.96
295.374	44.2
295.589	83.11
295.804	-41.81
296.018	31.91
296.233	87.21
296.447	-43.86
296.662	-21.33
296.877	-9.05
297.091	62.63
297.306	81.07
297.52	23.72
297.735	64.68
297.949	-15.19
298.164	40.11
298.378	52.39
298.593	95.4
298.807	36.01
299.022	72.87
299.236	54.44
299.451	19.63
299.665	27.82
299.88	87.21
300.094	-4.95
300.309	-29.52
300.523	15.53
300.737	7.34
300.952	103.59
301.166	74.92
301.381	79.02
301.595	-25.43
301.809	-15.19
302.024	44.2
302.238	46.25
302.452	56.49
302.667	-19.29
302.881	-29.52
303.095	-35.67
303.309	33.96
303.524	44.2
303.738	19.63
303.952	1.19
304.166	15.53
304.381	60.59
304.595	56.49
304.809	74.92
305.023	74.92
305.237	79.02
305.452	64.68
305.666	60.59
305.88	48.3
306.094	56.49
306.308	52.39
306.522	9.39
306.736	72.87
306.95	62.63
307.164	1.19
307.379	58.54
307.593	38.06
307.807	50.35
308.021	36.01
308.235	58.54
308.449	42.15
308.663	79.02
308.877	70.83
309.091	103.59
309.305	50.35
309.519	27.82
309.733	42.15
309.947	7.34
310.161	31.91
310.374	33.96
310.588	-4.95
310.802	17.58
311.016	72.87
311.23	40.11
311.444	91.31
311.658	-45.91
311.872	7.34
312.085	40.11
312.299	42.15
312.513	13.48
312.727	56.49
312.941	15.53
313.154	33.96
313.368	-15.19
313.582	44.2
313.796	42.15
314.009	-43.86
314.223	54.44
314.437	54.44
314.651	-29.52
314.864	-27.48
315.078	50.35
315.292	19.63
315.505	13.48
315.719	15.53
315.933	44.2
316.146	40.11
316.36	21.67
316.573	72.87
316.787	50.35
317.001	7.34
317.214	7.34
317.428	17.58
317.641	-4.95
317.855	64.68
318.068	97.45
318.282	11.43
318.495	-2.9
318.709	42.15
318.922	3.24
319.136	44.2
319.349	42.15
319.563	48.3
319.776	19.63
319.99	25.77
320.203	13.48
320.417	27.82
320.63	9.39
320.843	46.25
321.057	27.82
321.27	31.91
321.483	74.92
321.697	97.45
321.91	9.39
322.124	56.49
322.337	58.54
322.55	31.91
322.763	83.11
322.977	64.68
323.19	-17.24
323.403	29.87
323.617	64.68
323.83	50.35
324.043	56.49
324.256	23.72
324.469	3.24
324.683	58.54
324.896	25.77
325.109	60.59
325.322	-41.81
325.535	23.72
325.748	142.5
325.962	81.07
326.175	17.58
326.388	5.29
326.601	25.77
326.814	19.63
327.027	-21.33
327.24	36.01
327.453	56.49
327.666	95.4
327.879	36.01
328.092	50.35
328.305	46.25
328.518	93.35
328.731	40.11
328.944	36.01
329.157	81.07
329.37	7.34
329.583	68.78
329.796	-0.85
330.009	40.11
330.222	52.39
330.435	7.34
330.648	44.2
330.861	40.11
331.073	111.78
331.286	97.45
331.499	27.82
331.712	21.67
331.925	72.87
332.138	52.39
332.35	74.92
332.563	48.3
332.776	72.87
332.989	64.68
333.202	42.15
333.414	3.24
333.627	21.67
333.84	3.24
334.053	33.96
334.265	19.63
334.478	74.92
334.691	81.07
334.903	-7
335.116	23.72
335.329	66.73
335.541	-47.96
335.754	76.97
335.966	52.39
336.179	48.3
336.392	44.2
336.604	27.82
336.817	15.53
337.029	122.02
337.242	97.45
337.454	93.35
337.667	58.54
337.88	119.98
338.092	40.11
338.305	124.07
338.517	-2.9
338.729	-7
338.942	1.19
339.154	42.15
339.367	9.39
339.579	-7
339.792	19.63
340.004	107.69
340.217	40.11
340.429	38.06
340.641	40.11
340.854	36.01
341.066	48.3
341.278	33.96
341.491	117.93
341.703	11.43
341.915	19.63
342.128	66.73
342.34	-15.19
342.552	5.29
342.764	29.87
342.977	31.91
343.189	5.29
343.401	40.11
343.613	5.29
343.826	50.35
344.038	36.01
344.25	33.96
344.462	-27.48
344.674	33.96
344.886	54.44
345.099	-37.72
345.311	-35.67
345.523	56.49
345.735	-9.05
345.947	15.53
346.159	33.96
346.371	70.83
346.583	70.83
346.795	42.15
347.007	-25.43
347.219	25.77
347.431	103.59
347.643	42.15
347.855	-19.29
348.067	50.35
348.279	-23.38
348.491	66.73
348.703	7.34
348.915	31.91
349.127	23.72
349.339	9.39
349.551	29.87
349.763	40.11
349.975	58.54
350.187	11.43
350.399	-4.95
350.61	1.19
350.822	15.53
351.034	-2.9
351.246	-0.85
351.458	101.55
351.669	50.35
351.881	33.96
352.093	40.11
352.305	81.07
352.517	62.63
352.728	48.3
352.94	40.11
353.152	58.54
353.363	56.49
353.575	85.16
353.787	31.91
353.999	66.73
354.21	62.63
354.422	64.68
354.633	60.59
354.845	97.45
355.057	68.78
355.268	-19.29
355.48	50.35
355.692	21.67
355.903	7.34
356.115	68.78
356.326	40.11
356.538	109.74
356.749	9.39
356.961	72.87
357.172	-11.09
357.384	81.07
357.595	48.3
357.807	105.64
358.018	17.58
358.23	3.24
358.441	31.91
358.653	64.68
358.864	54.44
359.075	1.19
359.287	58.54
359.498	134.31
359.709	40.11
359.921	79.02
360.132	70.83
360.344	62.63
360.555	48.3
360.766	66.73
360.977	38.06
361.189	68.78
361.4	13.48
361.611	25.77
361.823	40.11
362.034	42.15
362.245	117.93
362.456	52.39
362.667	111.78
362.879	50.35
363.09	-17.24
363.301	64.68
363.512	62.63
363.723	-9.05
363.935	17.58
364.146	25.77
364.357	83.11
364.568	93.35
364.779	76.97
364.99	72.87
365.201	66.73
365.412	15.53
365.623	17.58
365.834	38.06
366.045	109.74
366.256	23.72
366.467	1.19
366.678	40.11
366.889	62.63
367.1	-23.38
367.311	25.77
367.522	54.44
367.733	5.29
367.944	-23.38
368.155	99.5
368.366	54.44
368.577	-15.19
368.788	140.46
368.999	36.01
369.209	76.97
369.42	93.35
369.631	64.68
369.842	62.63
370.053	19.63
370.264	15.53
370.474	56.49
370.685	-11.09
370.896	-43.86
371.107	9.39
371.317	64.68
371.528	72.87
371.739	9.39
371.95	62.63
372.16	36.01
372.371	13.48
372.582	13.48
372.792	42.15
373.003	25.77
373.214	23.72
373.424	-7
373.635	3.24
373.846	122.02
374.056	81.07
374.267	60.59
374.477	15.53
374.688	15.53
374.898	52.39
375.109	21.67
375.319	103.59
375.53	15.53
375.74	33.96
375.951	21.67
376.161	70.83
376.372	23.72
376.582	15.53
376.793	15.53
377.003	33.96
377.214	-50
377.424	-7
377.635	29.87
377.845	70.83
378.055	31.91
378.266	-47.96
378.476	111.78
378.686	50.35
378.897	79.02
379.107	48.3
379.317	91.31
379.528	27.82
379.738	-0.85
379.948	11.43
380.158	58.54
380.369	58.54
380.579	111.78
380.789	44.2
380.999	38.06
381.21	56.49
381.42	68.78
381.63	48.3
381.84	81.07
382.05	81.07
382.261	58.54
382.471	-17.24
382.681	46.25
382.891	54.44
383.101	3.24
383.311	-2.9
383.521	40.11
383.731	31.91
383.941	119.98
384.151	17.58
384.361	-4.95
384.571	66.73
384.781	85.16
384.991	126.12
385.201	117.93
385.411	58.54
385.621	56.49
385.831	-0.85
386.041	-11.09
386.251	1.19
386.461	-56.15
386.671	56.49
386.881	11.43
387.091	52.39
387.301	48.3
387.511	81.07
387.72	117.93
387.93	31.91
388.14	-31.57
388.35	19.63
388.56	70.83
388.769	56.49
388.979	134.31
389.189	128.17
389.399	48.3
389.609	72.87
389.818	38.06
390.028	31.91
390.238	33.96
390.447	19.63
390.657	74.92
390.867	48.3
391.076	40.11
391.286	29.87
391.496	17.58
391.705	89.26
391.915	132.26
392.125	54.44
392.334	-15.19
392.544	101.55
392.753	136.36
392.963	17.58
393.172	66.73
393.382	7.34
393.591	70.83
393.801	50.35
394.01	74.92
394.22	48.3
394.429	62.63
394.639	25.77
394.848	54.44
395.058	19.63
395.267	83.11
395.477	17.58
395.686	107.69
395.895	91.31
396.105	103.59
396.314	113.83
396.524	50.35
396.733	19.63
396.942	31.91
397.152	21.67
397.361	95.4
397.57	89.26
397.78	42.15
397.989	89.26
398.198	70.83
398.407	-7
398.617	89.26
398.826	64.68
399.035	105.64
399.244	87.21
399.453	99.5
399.663	3.24
399.872	111.78
400.081	54.44
400.29	29.87
400.499	40.11
400.708	81.07
400.917	76.97
401.127	72.87
401.336	38.06
401.545	31.91
401.754	56.49
401.963	122.02
402.172	81.07
402.381	142.5
402.59	138.41
402.799	122.02
403.008	136.36
403.217	158.89
403.426	101.55
403.635	50.35
403.844	101.55
404.053	113.83
404.262	52.39
404.471	122.02
404.68	107.69
404.888	126.12
405.097	148.65
405.306	107.69
405.515	62.63
405.724	66.73
405.933	150.7
406.142	138.41
406.35	132.26
406.559	179.37
406.768	122.02
406.977	122.02
407.185	212.14
407.394	97.45
407.603	132.26
407.812	203.94
408.02	179.37
408.229	158.89
408.438	160.94
408.646	197.8
408.855	173.22
409.064	181.42
409.272	240.81
409.481	230.57
409.69	255.14
409.898	304.29
410.107	232.62
410.315	257.19
410.524	187.56
410.733	271.53
410.941	234.66
411.15	263.33
411.358	339.11
411.567	224.42
411.775	335.01
411.984	304.29
412.192	382.12
412.401	343.21
412.609	427.17
412.818	429.22
413.026	320.68
413.234	375.97
413.443	410.79
413.651	429.22
413.86	418.98
414.068	504.99
414.276	461.99
414.485	490.66
414.693	480.42
414.901	517.28
415.11	560.29
415.318	470.18
415.526	568.48
415.734	623.78
415.943	617.63
416.151	586.91
416.359	568.48
416.567	644.26
416.776	597.15
416.984	722.08
417.192	742.56
417.4	756.9
417.608	754.85
417.817	801.95
418.025	810.14
418.233	869.53
418.441	832.67
418.649	986.27
418.857	883.87
419.065	1045.66
419.273	973.98
419.481	980.12
419.689	1037.47
419.897	1158.3
420.105	1174.68
420.313	1156.25
420.521	1254.55
420.729	1277.08
420.937	1322.13
421.145	1352.85
421.353	1424.53
421.561	1395.86
421.769	1463.44
421.977	1526.93
422.185	1524.88
422.393	1543.32
422.601	1784.98
422.809	1819.79
423.017	1748.11
423.224	1793.17
423.432	1914
423.64	1883.28
423.848	2065.55
424.056	2053.26
424.263	2163.85
424.471	2194.57
424.679	2245.77
424.887	2309.26
425.094	2419.85
425.302	2399.37
425.51	2425.99
425.718	2567.3
425.925	2702.47
426.133	2659.46
426.341	2811.01
426.548	2970.75
426.756	2919.55
426.964	3099.77
427.171	3165.31
427.379	3345.53
427.586	3343.48
427.794	3384.44
428.001	3622
428.209	3734.64
428.417	3646.58
428.624	3849.33
428.832	3972.21
429.039	3875.95
429.247	3996.78
429.454	4342.89
429.662	4490.34
429.869	4260.97
430.076	4578.4
430.284	4404.33
430.491	4729.95
430.699	4920.42
430.906	4875.36
431.114	5123.16
431.321	5127.26
431.528	5317.72
431.736	5684.31
431.943	5604.44
432.15	5575.77
432.358	5899.34
432.565	6095.95
432.772	6050.89
432.979	6341.71
433.187	6292.55
433.394	6462.54
433.601	6954.05
433.808	6956.1
434.016	6837.31
434.223	7175.23
434.43	7484.47
434.637	7498.81
434.844	7998.51
435.052	8090.67
435.259	8225.84
435.466	8250.41
435.673	8086.58
435.88	8463.4
436.087	9217.05
436.294	8907.81
436.501	8805.41
436.708	9149.47
436.915	9268.25
437.122	9806.87
437.329	9622.55
437.537	9952.27
437.743	10198.03
437.95	10097.68
438.157	10677.26
438.364	10980.36
438.571	11031.55
438.778	11133.95
438.985	12172.27
439.192	11535.35
439.399	12002.29
439.606	12008.44
439.813	12409.84
440.02	13235.17
440.227	12942.31
440.433	12680.17
440.64	13235.17
440.847	12977.12
441.054	13245.41
441.261	14427.09
441.467	14048.21
441.674	14724.04
441.881	14844.87
442.088	15064
442.294	14742.47
442.501	15076.29
442.708	15537.09
442.914	16268.21
443.121	16823.21
443.328	16260.02
443.534	17460.13
443.741	17064.87
443.948	16890.79
444.154	18193.3
444.361	17763.23
444.568	18236.31
444.774	17998.74
444.981	18596.75
445.187	19053.45
445.394	19893.12
445.6	19510.14
445.807	21459.81
446.013	20622.19
446.22	21025.64
446.426	21637.98
446.633	21707.62
446.839	22698.83
447.046	21642.08
447.252	23024.46
447.459	22899.53
447.665	22739.79
447.871	23989.05
448.078	24951.6
448.284	23436.1
448.491	24249.14
448.697	25576.23
448.903	25838.37
449.11	26174.24
449.316	25373.48
449.522	26053.41
449.728	26766.1
449.935	27009.81
450.141	26948.37
450.347	27794.18
450.553	26454.81
450.76	27067.15
450.966	27937.54
451.172	27687.68
451.378	28338.94
451.584	27665.16
451.791	28494.58
451.997	28488.44
452.203	29111.02
452.409	29035.25
452.615	28957.42
452.821	27499.27
453.027	27579.14
453.233	29205.23
453.44	27888.39
453.646	28254.97
453.852	28279.55
454.058	28961.52
454.264	27648.77
454.47	28654.33
454.676	27749.12
454.882	28680.95
455.088	26237.72
455.294	26557.21
455.5	27032.33
455.705	27300.62
455.911	26245.91
456.117	25735.97
456.323	25262.89
456.529	24126.27
456.735	25058.09
456.941	24437.56
457.147	24015.68
457.352	23300.94
457.558	23012.17
457.764	23100.23
457.97	22903.63
458.176	22117.21
458.381	21984.09
458.587	21009.26
458.793	21427.04
458.999	19788.67
459.204	21502.82
459.41	20835.18
459.616	19602.3
459.821	19438.47
460.027	19262.34
460.233	18830.22
460.438	18183.06
460.644	18316.18
460.85	17347.49
461.055	17103.78
461.261	17111.97
461.466	15856.57
461.672	15375.3
461.878	16561.07
462.083	15264.71
462.289	15334.34
462.494	15055.81
462.7	14173.14
462.905	14001.11
463.111	14500.81
463.316	14269.39
463.522	13935.57
463.727	14162.9
463.932	14074.84
464.138	13972.44
464.343	13994.97
464.549	13933.53
464.754	14109.65
464.959	13904.85
465.165	14132.18
465.37	13351.9
465.575	13024.23
465.781	13540.32
465.986	13452.25
466.191	13235.17
466.397	12688.36
466.602	12168.18
466.807	12645.35
467.012	12858.34
467.218	12467.18
467.423	12422.13
467.628	12588.01
467.833	13245.41
468.038	12549.1
468.244	12205.04
468.449	12731.37
468.654	12375.02
468.859	12182.51
