Data from USB4F104151__47__12-59-08-925.txt Node

Date: Fri Mar 14 12:59:08 EDT 2025
User: louis
Spectrometer: USB4F10415
Trigger mode: 4
Integration Time (sec): 1.000000E-2
Scans to average: 1
Electric dark correction enabled: true
Nonlinearity correction enabled: false
Boxcar width: 0
XAxis mode: Wavelengths
Number of Pixels in Spectrum: 3648
>>>>>Begin Spectral Data<<<<<
178.204	-42.84
178.424	-42.84
178.644	-42.84
178.864	-57.17
179.084	-22.36
179.304	-20.31
179.524	-16.21
179.744	59.56
179.964	-20.31
180.184	-20.31
180.404	2.22
180.624	18.6
180.844	4.27
181.064	-48.98
181.283	43.18
181.503	22.7
181.723	-24.4
181.943	4.27
182.163	-8.02
182.383	32.94
182.602	34.99
182.822	57.51
183.042	24.75
183.262	73.9
183.482	77.99
183.701	-32.6
183.921	86.19
184.141	8.36
184.361	65.71
184.58	-44.88
184.8	90.28
185.02	57.51
185.239	-40.79
185.459	45.23
185.679	8.36
185.898	-79.7
186.118	-26.45
186.338	102.57
186.557	90.28
186.777	98.47
186.997	53.42
187.216	26.79
187.436	84.14
187.655	8.36
187.875	-14.17
188.095	-10.07
188.314	75.95
188.534	26.79
188.753	49.32
188.973	2.22
189.192	75.95
189.412	63.66
189.631	-10.07
189.851	82.09
190.07	63.66
190.29	-12.12
190.509	28.84
190.729	41.13
190.948	28.84
191.168	75.95
191.387	61.61
191.607	16.55
191.826	100.52
192.045	57.51
192.265	2.22
192.484	104.62
192.704	65.71
192.923	-3.93
193.142	73.9
193.362	51.37
193.581	28.84
193.8	34.99
194.02	28.84
194.239	-71.51
194.458	51.37
194.678	57.51
194.897	51.37
195.116	39.08
195.335	39.08
195.555	20.65
195.774	-14.17
195.993	-20.31
196.212	47.27
196.432	18.6
196.651	96.43
196.87	-8.02
197.089	61.61
197.308	37.03
197.528	80.04
197.747	22.7
197.966	67.75
198.185	65.71
198.404	-18.26
198.623	-16.21
198.842	63.66
199.062	53.42
199.281	53.42
199.5	28.84
199.719	10.41
199.938	51.37
200.157	84.14
200.376	14.51
200.595	-44.88
200.814	96.43
201.033	30.89
201.252	-63.32
201.471	51.37
201.69	71.85
201.909	28.84
202.128	65.71
202.347	0.17
202.566	-3.93
202.785	24.75
203.004	43.18
203.223	53.42
203.442	75.95
203.661	65.71
203.879	28.84
204.098	45.23
204.317	32.94
204.536	75.95
204.755	16.55
204.974	47.27
205.193	65.71
205.411	43.18
205.63	-5.97
205.849	34.99
206.068	-10.07
206.287	26.79
206.505	-30.55
206.724	-12.12
206.943	92.33
207.162	-14.17
207.381	6.31
207.599	39.08
207.818	39.08
208.037	4.27
208.255	67.75
208.474	0.17
208.693	45.23
208.911	-5.97
209.13	45.23
209.349	77.99
209.567	59.56
209.786	67.75
210.005	28.84
210.223	61.61
210.442	0.17
210.661	20.65
210.879	32.94
211.098	30.89
211.316	20.65
211.535	26.79
211.753	80.04
211.972	86.19
212.191	75.95
212.409	75.95
212.628	-1.88
212.846	49.32
213.065	118.95
213.283	26.79
213.502	104.62
213.72	18.6
213.938	26.79
214.157	47.27
214.375	34.99
214.594	30.89
214.812	16.55
215.031	34.99
215.249	-3.93
215.467	41.13
215.686	39.08
215.904	90.28
216.122	61.61
216.341	41.13
216.559	47.27
216.778	12.46
216.996	57.51
217.214	53.42
217.432	65.71
217.651	-14.17
217.869	18.6
218.087	24.75
218.306	75.95
218.524	26.79
218.742	-12.12
218.96	106.67
219.179	39.08
219.397	41.13
219.615	47.27
219.833	-10.07
220.051	69.8
220.27	30.89
220.488	8.36
220.706	43.18
220.924	22.7
221.142	67.75
221.36	41.13
221.578	16.55
221.796	-34.64
222.015	8.36
222.233	47.27
222.451	47.27
222.669	67.75
222.887	90.28
223.105	51.37
223.323	22.7
223.541	28.84
223.759	43.18
223.977	-18.26
224.195	12.46
224.413	57.51
224.631	41.13
224.849	-16.21
225.067	37.03
225.285	14.51
225.503	80.04
225.721	96.43
225.939	-16.21
226.157	-12.12
226.375	16.55
226.592	2.22
226.81	-14.17
227.028	-14.17
227.246	67.75
227.464	34.99
227.682	16.55
227.9	65.71
228.117	28.84
228.335	61.61
228.553	47.27
228.771	18.6
228.989	-12.12
229.206	75.95
229.424	41.13
229.642	-26.45
229.86	43.18
230.077	77.99
230.295	90.28
230.513	61.61
230.731	34.99
230.948	118.95
231.166	65.71
231.384	71.85
231.601	90.28
231.819	39.08
232.037	102.57
232.254	39.08
232.472	47.27
232.689	0.17
232.907	77.99
233.125	51.37
233.342	28.84
233.56	18.6
233.777	37.03
233.995	24.75
234.213	61.61
234.43	34.99
234.648	14.51
234.865	18.6
235.083	98.47
235.3	65.71
235.518	80.04
235.735	77.99
235.953	106.67
236.17	32.94
236.388	65.71
236.605	16.55
236.822	26.79
237.04	53.42
237.257	20.65
237.475	-1.88
237.692	37.03
237.909	0.17
238.127	63.66
238.344	61.61
238.562	41.13
238.779	71.85
238.996	28.84
239.214	-22.36
239.431	65.71
239.648	16.55
239.865	65.71
240.083	131.24
240.3	45.23
240.517	41.13
240.735	75.95
240.952	75.95
241.169	57.51
241.386	47.27
241.603	51.37
241.821	18.6
242.038	14.51
242.255	32.94
242.472	71.85
242.689	-24.4
242.907	75.95
243.124	34.99
243.341	55.47
243.558	37.03
243.775	4.27
243.992	8.36
244.209	47.27
244.426	125.1
244.643	20.65
244.86	24.75
245.078	24.75
245.295	37.03
245.512	102.57
245.729	2.22
245.946	-12.12
246.163	49.32
246.38	16.55
246.597	53.42
246.814	55.47
247.031	57.51
247.248	53.42
247.464	43.18
247.681	43.18
247.898	-34.64
248.115	26.79
248.332	43.18
248.549	82.09
248.766	110.76
248.983	47.27
249.2	32.94
249.417	16.55
249.633	55.47
249.85	10.41
250.067	8.36
250.284	-5.97
250.501	34.99
250.717	84.14
250.934	-16.21
251.151	69.8
251.368	-5.97
251.585	49.32
251.801	82.09
252.018	82.09
252.235	12.46
252.451	55.47
252.668	30.89
252.885	55.47
253.102	69.8
253.318	37.03
253.535	51.37
253.752	63.66
253.968	10.41
254.185	37.03
254.401	75.95
254.618	67.75
254.835	-32.6
255.051	82.09
255.268	55.47
255.484	34.99
255.701	12.46
255.917	28.84
256.134	53.42
256.351	-1.88
256.567	32.94
256.784	73.9
257	77.99
257.217	108.71
257.433	20.65
257.65	32.94
257.866	34.99
258.082	16.55
258.299	14.51
258.515	34.99
258.732	-1.88
258.948	86.19
259.165	20.65
259.381	32.94
259.597	12.46
259.814	77.99
260.03	39.08
260.246	-3.93
260.463	10.41
260.679	4.27
260.895	22.7
261.112	22.7
261.328	73.9
261.544	57.51
261.761	65.71
261.977	73.9
262.193	102.57
262.409	73.9
262.626	30.89
262.842	37.03
263.058	-14.17
263.274	-1.88
263.49	106.67
263.707	51.37
263.923	2.22
264.139	49.32
264.355	24.75
264.571	-3.93
264.787	71.85
265.004	-28.5
265.22	51.37
265.436	6.31
265.652	30.89
265.868	98.47
266.084	8.36
266.3	-3.93
266.516	18.6
266.732	63.66
266.948	86.19
267.164	-8.02
267.38	34.99
267.596	2.22
267.812	47.27
268.028	24.75
268.244	2.22
268.46	16.55
268.676	98.47
268.892	37.03
269.108	-3.93
269.324	6.31
269.54	47.27
269.756	57.51
269.972	-51.03
270.188	26.79
270.403	-8.02
270.619	57.51
270.835	63.66
271.051	32.94
271.267	0.17
271.483	-24.4
271.698	37.03
271.914	10.41
272.13	75.95
272.346	28.84
272.562	106.67
272.777	84.14
272.993	41.13
273.209	100.52
273.425	98.47
273.64	45.23
273.856	32.94
274.072	80.04
274.287	63.66
274.503	39.08
274.719	0.17
274.934	51.37
275.15	63.66
275.366	71.85
275.581	16.55
275.797	51.37
276.012	63.66
276.228	116.9
276.444	24.75
276.659	53.42
276.875	28.84
277.09	75.95
277.306	53.42
277.521	92.33
277.737	37.03
277.952	61.61
278.168	84.14
278.383	49.32
278.599	57.51
278.814	20.65
279.03	14.51
279.245	39.08
279.461	88.23
279.676	53.42
279.892	69.8
280.107	65.71
280.322	34.99
280.538	-12.12
280.753	47.27
280.969	43.18
281.184	18.6
281.399	57.51
281.615	73.9
281.83	92.33
282.045	41.13
282.26	90.28
282.476	-10.07
282.691	34.99
282.906	-28.5
283.122	-20.31
283.337	75.95
283.552	63.66
283.767	8.36
283.983	0.17
284.198	118.95
284.413	2.22
284.628	16.55
284.843	24.75
285.058	73.9
285.274	39.08
285.489	61.61
285.704	20.65
285.919	8.36
286.134	41.13
286.349	32.94
286.564	135.34
286.779	-8.02
286.995	59.56
287.21	-8.02
287.425	28.84
287.64	6.31
287.855	90.28
288.07	10.41
288.285	67.75
288.5	20.65
288.715	106.67
288.93	49.32
289.145	10.41
289.36	57.51
289.575	63.66
289.79	-3.93
290.004	49.32
290.219	88.23
290.434	106.67
290.649	57.51
290.864	18.6
291.079	45.23
291.294	37.03
291.509	12.46
291.724	61.61
291.938	2.22
292.153	108.71
292.368	90.28
292.583	45.23
292.798	6.31
293.012	14.51
293.227	61.61
293.442	51.37
293.657	84.14
293.871	61.61
294.086	43.18
294.301	67.75
294.516	24.75
294.73	53.42
294.945	59.56
295.16	-10.07
295.374	18.6
295.589	94.38
295.804	32.94
296.018	49.32
296.233	88.23
296.447	82.09
296.662	49.32
296.877	131.24
297.091	16.55
297.306	75.95
297.52	45.23
297.735	53.42
297.949	-3.93
298.164	-63.32
298.378	53.42
298.593	51.37
298.807	10.41
299.022	57.51
299.236	55.47
299.451	-12.12
299.665	100.52
299.88	61.61
300.094	47.27
300.309	67.75
300.523	-26.45
300.737	84.14
300.952	63.66
301.166	37.03
301.381	12.46
301.595	84.14
301.809	6.31
302.024	-20.31
302.238	61.61
302.452	43.18
302.667	-40.79
302.881	90.28
303.095	22.7
303.309	32.94
303.524	94.38
303.738	12.46
303.952	2.22
304.166	34.99
304.381	6.31
304.595	37.03
304.809	63.66
305.023	-71.51
305.237	18.6
305.452	88.23
305.666	14.51
305.88	67.75
306.094	-28.5
306.308	18.6
306.522	8.36
306.736	88.23
306.95	28.84
307.164	-5.97
307.379	-46.93
307.593	65.71
307.807	73.9
308.021	41.13
308.235	43.18
308.449	92.33
308.663	30.89
308.877	100.52
309.091	32.94
309.305	73.9
309.519	57.51
309.733	37.03
309.947	-3.93
310.161	-69.46
310.374	-14.17
310.588	41.13
310.802	-28.5
311.016	22.7
311.23	24.75
311.444	37.03
311.658	55.47
311.872	71.85
312.085	-32.6
312.299	16.55
312.513	34.99
312.727	84.14
312.941	39.08
313.154	65.71
313.368	26.79
313.582	20.65
313.796	55.47
314.009	0.17
314.223	-16.21
314.437	4.27
314.651	82.09
314.864	18.6
315.078	125.1
315.292	63.66
315.505	28.84
315.719	57.51
315.933	57.51
316.146	53.42
316.36	37.03
316.573	51.37
316.787	28.84
317.001	75.95
317.214	84.14
317.428	12.46
317.641	100.52
317.855	51.37
318.068	30.89
318.282	49.32
318.495	82.09
318.709	26.79
318.922	10.41
319.136	65.71
319.349	53.42
319.563	45.23
319.776	96.43
319.99	18.6
320.203	84.14
320.417	-1.88
320.63	94.38
320.843	32.94
321.057	114.86
321.27	84.14
321.483	41.13
321.697	41.13
321.91	14.51
322.124	49.32
322.337	32.94
322.55	22.7
322.763	32.94
322.977	-1.88
323.19	-1.88
323.403	-16.21
323.617	51.37
323.83	30.89
324.043	43.18
324.256	-38.74
324.469	30.89
324.683	12.46
324.896	59.56
325.109	-12.12
325.322	-8.02
325.535	-5.97
325.748	39.08
325.962	37.03
326.175	30.89
326.388	34.99
326.601	37.03
326.814	39.08
327.027	4.27
327.24	-10.07
327.453	-20.31
327.666	82.09
327.879	77.99
328.092	147.62
328.305	147.62
328.518	34.99
328.731	-48.98
328.944	53.42
329.157	28.84
329.37	98.47
329.583	45.23
329.796	80.04
330.009	12.46
330.222	43.18
330.435	98.47
330.648	88.23
330.861	57.51
331.073	123.05
331.286	2.22
331.499	53.42
331.712	37.03
331.925	116.9
332.138	20.65
332.35	67.75
332.563	0.17
332.776	16.55
332.989	14.51
333.202	2.22
333.414	39.08
333.627	59.56
333.84	43.18
334.053	102.57
334.265	-3.93
334.478	41.13
334.691	47.27
334.903	127.14
335.116	65.71
335.329	45.23
335.541	-12.12
335.754	86.19
335.966	53.42
336.179	65.71
336.392	43.18
336.604	77.99
336.817	129.19
337.029	16.55
337.242	59.56
337.454	57.51
337.667	127.14
337.88	45.23
338.092	57.51
338.305	8.36
338.517	-1.88
338.729	12.46
338.942	49.32
339.154	-8.02
339.367	14.51
339.579	0.17
339.792	32.94
340.004	8.36
340.217	43.18
340.429	63.66
340.641	39.08
340.854	67.75
341.066	6.31
341.278	116.9
341.491	71.85
341.703	49.32
341.915	-20.31
342.128	30.89
342.34	41.13
342.552	61.61
342.764	77.99
342.977	43.18
343.189	24.75
343.401	69.8
343.613	-5.97
343.826	88.23
344.038	114.86
344.25	51.37
344.462	-16.21
344.674	73.9
344.886	125.1
345.099	71.85
345.311	37.03
345.523	75.95
345.735	24.75
345.947	45.23
346.159	59.56
346.371	69.8
346.583	34.99
346.795	84.14
347.007	-8.02
347.219	32.94
347.431	45.23
347.643	73.9
347.855	-48.98
348.067	59.56
348.279	41.13
348.491	86.19
348.703	53.42
348.915	-36.69
349.127	63.66
349.339	104.62
349.551	41.13
349.763	57.51
349.975	39.08
350.187	53.42
350.399	147.62
350.61	51.37
350.822	-28.5
351.034	75.95
351.246	67.75
351.458	34.99
351.669	90.28
351.881	28.84
352.093	30.89
352.305	57.51
352.517	39.08
352.728	94.38
352.94	10.41
353.152	12.46
353.363	-46.93
353.575	57.51
353.787	69.8
353.999	28.84
354.21	30.89
354.422	20.65
354.633	53.42
354.845	80.04
355.057	28.84
355.268	59.56
355.48	90.28
355.692	84.14
355.903	84.14
356.115	24.75
356.326	102.57
356.538	45.23
356.749	82.09
356.961	51.37
357.172	71.85
357.384	92.33
357.595	84.14
357.807	37.03
358.018	55.47
358.23	92.33
358.441	41.13
358.653	82.09
358.864	0.17
359.075	49.32
359.287	61.61
359.498	16.55
359.709	53.42
359.921	104.62
360.132	45.23
360.344	28.84
360.555	71.85
360.766	71.85
360.977	4.27
361.189	-8.02
361.4	92.33
361.611	57.51
361.823	92.33
362.034	63.66
362.245	55.47
362.456	10.41
362.667	26.79
362.879	45.23
363.09	43.18
363.301	43.18
363.512	30.89
363.723	6.31
363.935	-12.12
364.146	-8.02
364.357	61.61
364.568	53.42
364.779	41.13
364.99	22.7
365.201	59.56
365.412	88.23
365.623	84.14
365.834	100.52
366.045	-16.21
366.256	59.56
366.467	69.8
366.678	73.9
366.889	112.81
367.1	-12.12
367.311	80.04
367.522	16.55
367.733	34.99
367.944	75.95
368.155	-32.6
368.366	-8.02
368.577	-1.88
368.788	55.47
368.999	28.84
369.209	98.47
369.42	153.77
369.631	49.32
369.842	69.8
370.053	65.71
370.264	-26.45
370.474	39.08
370.685	-26.45
370.896	96.43
371.107	53.42
371.317	84.14
371.528	28.84
371.739	30.89
371.95	24.75
372.16	100.52
372.371	16.55
372.582	43.18
372.792	41.13
373.003	45.23
373.214	37.03
373.424	61.61
373.635	10.41
373.846	67.75
374.056	8.36
374.267	41.13
374.477	45.23
374.688	92.33
374.898	49.32
375.109	75.95
375.319	67.75
375.53	41.13
375.74	20.65
375.951	45.23
376.161	102.57
376.372	55.47
376.582	18.6
376.793	49.32
377.003	129.19
377.214	143.53
377.424	71.85
377.635	98.47
377.845	12.46
378.055	65.71
378.266	59.56
378.476	53.42
378.686	49.32
378.897	63.66
379.107	73.9
379.317	110.76
379.528	43.18
379.738	-12.12
379.948	-3.93
380.158	16.55
380.369	94.38
380.579	90.28
380.789	24.75
380.999	77.99
381.21	41.13
381.42	65.71
381.63	47.27
381.84	139.43
382.05	116.9
382.261	84.14
382.471	63.66
382.681	37.03
382.891	114.86
383.101	75.95
383.311	41.13
383.521	98.47
383.731	67.75
383.941	100.52
384.151	26.79
384.361	59.56
384.571	24.75
384.781	30.89
384.991	90.28
385.201	55.47
385.411	39.08
385.621	75.95
385.831	57.51
386.041	10.41
386.251	82.09
386.461	32.94
386.671	39.08
386.881	-46.93
387.091	39.08
387.301	77.99
387.511	65.71
387.72	82.09
387.93	71.85
388.14	102.57
388.35	98.47
388.56	67.75
388.769	14.51
388.979	59.56
389.189	86.19
389.399	47.27
389.609	55.47
389.818	100.52
390.028	37.03
390.238	125.1
390.447	26.79
390.657	61.61
390.867	77.99
391.076	34.99
391.286	57.51
391.496	43.18
391.705	41.13
391.915	96.43
392.125	34.99
392.334	20.65
392.544	67.75
392.753	98.47
392.963	24.75
393.172	108.71
393.382	4.27
393.591	137.38
393.801	61.61
394.01	108.71
394.22	147.62
394.429	16.55
394.639	55.47
394.848	82.09
395.058	116.9
395.267	94.38
395.477	37.03
395.686	100.52
395.895	96.43
396.105	110.76
396.314	86.19
396.524	34.99
396.733	96.43
396.942	86.19
397.152	65.71
397.361	65.71
397.57	59.56
397.78	37.03
397.989	94.38
398.198	80.04
398.407	106.67
398.617	28.84
398.826	51.37
399.035	82.09
399.244	63.66
399.453	98.47
399.663	96.43
399.872	123.05
400.081	73.9
400.29	137.38
400.499	39.08
400.708	90.28
400.917	82.09
401.127	125.1
401.336	139.43
401.545	112.81
401.754	88.23
401.963	28.84
402.172	94.38
402.381	104.62
402.59	178.34
402.799	157.86
403.008	92.33
403.217	100.52
403.426	92.33
403.635	61.61
403.844	100.52
404.053	98.47
404.262	39.08
404.471	145.58
404.68	135.34
404.888	69.8
405.097	73.9
405.306	98.47
405.515	123.05
405.724	182.44
405.933	133.29
406.142	137.38
406.35	127.14
406.559	92.33
406.768	110.76
406.977	164.01
407.185	186.54
407.394	188.58
407.603	190.63
407.812	174.25
408.02	118.95
408.229	151.72
408.438	125.1
408.646	149.67
408.855	145.58
409.064	139.43
409.272	168.1
409.481	235.69
409.69	168.1
409.898	233.64
410.107	176.3
410.315	202.92
410.524	192.68
410.733	121
410.941	245.93
411.15	225.45
411.358	303.27
411.567	266.41
411.775	264.36
411.984	274.6
412.192	284.84
412.401	286.89
412.609	319.65
412.818	266.41
413.026	174.25
413.234	395.43
413.443	280.74
413.651	381.09
413.86	383.14
414.068	362.66
414.276	409.76
414.485	372.9
414.693	417.96
414.901	469.16
415.11	460.96
415.318	512.16
415.526	401.57
415.734	518.31
415.943	465.06
416.151	503.97
416.359	532.64
416.567	542.88
416.776	508.07
416.984	630.95
417.192	542.88
417.4	680.1
417.608	626.85
417.817	676
418.025	698.53
418.233	757.92
418.441	684.19
418.649	696.48
418.857	798.88
419.065	811.17
419.273	786.59
419.481	813.21
419.689	927.9
419.897	893.09
420.105	932
420.313	966.81
420.521	1007.77
420.729	1020.06
420.937	1040.54
421.145	1058.97
421.353	1042.59
421.561	1190.04
421.769	1271.96
421.977	1290.39
422.185	1241.24
422.393	1417.37
422.601	1497.24
422.809	1441.94
423.017	1468.56
423.224	1425.56
423.432	1470.61
423.64	1540.24
423.848	1609.87
424.056	1603.73
424.263	1781.9
424.471	1589.39
424.679	1699.98
424.887	1812.62
425.094	1872.01
425.302	1992.84
425.51	2023.56
425.718	1876.11
425.925	2007.18
426.133	2148.49
426.341	2242.7
426.548	2371.72
426.756	2381.96
426.964	2328.71
427.171	2443.4
427.379	2443.4
427.586	2568.32
427.794	2680.96
428.001	2789.5
428.209	2998.4
428.417	2885.76
428.624	3002.49
428.832	3156.09
429.039	3168.38
429.247	3031.16
429.454	3371.13
429.662	3686.51
429.869	3338.36
430.076	3745.91
430.284	3491.96
430.491	3661.94
430.699	3973.23
430.906	3856.5
431.114	4032.62
431.321	4151.4
431.528	4079.72
431.736	4352.1
431.943	4612.2
432.15	4429.93
432.358	4489.32
432.565	4812.9
432.772	4626.53
432.979	5066.85
433.187	5095.52
433.394	5113.95
433.601	5582.93
433.808	5472.34
434.016	5441.62
434.223	5732.44
434.43	6064.21
434.637	5857.36
434.844	6203.47
435.052	6254.67
435.259	6322.25
435.466	6494.28
435.673	6502.47
435.88	6709.32
436.087	7014.46
436.294	7229.5
436.501	6963.26
436.708	7012.42
436.915	7465.02
437.122	7739.44
437.329	7708.73
437.537	7907.38
437.743	8048.69
437.95	8009.78
438.157	8345.64
438.364	8558.63
438.571	8589.35
438.778	8689.7
438.985	9318.43
439.192	9179.17
439.399	9414.68
439.606	9125.92
439.813	9682.97
440.02	10448.91
440.227	10125.33
440.433	10123.28
440.64	10342.41
440.847	10203.15
441.054	10754.05
441.261	11376.64
441.467	11104.26
441.674	11624.44
441.881	11683.83
442.088	11878.39
442.294	11589.63
442.501	11880.44
442.708	12326.89
442.914	12640.23
443.121	13217.76
443.328	12730.34
443.534	13766.62
443.741	13205.47
443.948	13402.08
444.154	14284.75
444.361	14004.18
444.568	14454.73
444.774	14444.49
444.981	14587.85
445.187	14723.02
445.394	15697.85
445.6	15409.09
445.807	16781.23
446.013	16084.92
446.22	16598.96
446.426	16994.22
446.633	17096.61
446.839	17827.74
447.046	17076.13
447.252	17991.58
447.459	18395.03
447.665	18001.82
447.871	18853.77
448.078	19722.11
448.284	19015.56
448.491	19251.08
448.697	20039.54
448.903	20438.9
449.11	20701.04
449.316	19949.43
449.522	20569.97
449.728	21075.82
449.935	21473.12
450.141	21268.33
450.347	21897.05
450.553	21176.17
450.76	21329.77
450.966	22087.51
451.172	21860.19
451.378	22206.3
451.584	22265.69
451.791	22654.8
451.997	22665.04
452.203	22800.21
452.409	23168.84
452.615	22855.5
452.821	21993.31
453.027	22120.28
453.233	22982.48
453.44	22079.32
453.646	22349.65
453.852	22484.82
454.058	22658.9
454.264	22196.06
454.47	22728.53
454.676	22081.37
454.882	22886.22
455.088	20793.2
455.294	21043.05
455.5	21475.17
455.705	21622.62
455.911	20907.88
456.117	20711.28
456.323	20076.41
456.529	19314.56
456.735	19949.43
456.941	19548.03
457.147	18892.68
457.352	18554.77
457.558	18573.2
457.764	18435.99
457.97	17995.67
458.176	17684.38
458.381	17715.1
458.587	16840.62
458.793	16742.32
458.999	16033.72
459.204	17008.55
459.41	16330.67
459.616	15607.74
459.821	15583.16
460.027	15374.27
460.233	15255.49
460.438	14632.91
460.644	14745.55
460.85	14053.33
461.055	13801.43
461.261	13604.83
461.466	12656.62
461.672	12382.19
461.878	13004.77
462.083	12091.38
462.289	12195.82
462.494	12132.34
462.7	11362.3
462.905	10909.7
463.111	11423.74
463.316	11608.06
463.522	11255.81
463.727	11276.29
463.932	11280.38
464.138	11323.39
464.343	11042.82
464.549	10997.76
464.754	11438.08
464.959	11317.25
465.165	10969.09
465.37	10754.05
465.575	10426.38
465.781	11001.86
465.986	10948.61
466.191	10563.59
466.397	10242.06
466.602	9701.4
466.807	10141.71
467.012	10240.01
467.218	10027.03
467.423	9910.29
467.628	10020.88
467.833	10344.46
468.038	10045.46
468.244	9721.88
468.449	10156.05
