Data from USB4F104151__35__12-58-54-067.txt Node

Date: Fri Mar 14 12:58:54 EDT 2025
User: louis
Spectrometer: USB4F10415
Trigger mode: 4
Integration Time (sec): 1.000000E-2
Scans to average: 1
Electric dark correction enabled: true
Nonlinearity correction enabled: false
Boxcar width: 0
XAxis mode: Wavelengths
Number of Pixels in Spectrum: 3648
>>>>>Begin Spectral Data<<<<<
178.204	-42.5
178.424	-42.5
178.644	-42.5
178.864	-99.84
179.084	-32.26
179.304	14.85
179.524	33.28
179.744	-17.92
179.964	-73.21
180.184	-26.11
180.404	-19.97
180.624	31.23
180.844	-24.06
181.064	8.7
181.283	43.52
181.503	-30.21
181.723	59.9
181.943	-44.54
182.163	-17.92
182.383	-60.93
182.602	20.99
182.822	-67.07
183.042	-93.69
183.262	-22.02
183.482	-7.68
183.701	-73.21
183.921	-40.45
184.141	49.66
184.361	-13.82
184.58	-79.36
184.8	8.7
185.02	45.57
185.239	20.99
185.459	-71.17
185.679	53.76
185.898	-62.98
186.118	-36.35
186.338	-7.68
186.557	8.7
186.777	-17.92
186.997	-34.3
187.216	-1.54
187.436	-34.3
187.655	35.33
187.875	29.18
188.095	-9.73
188.314	18.94
188.534	47.62
188.753	41.47
188.973	-38.4
189.192	35.33
189.412	31.23
189.631	47.62
189.851	111.1
190.07	-36.35
190.29	-19.97
190.509	-22.02
190.729	18.94
190.948	-9.73
191.168	25.09
191.387	68.09
191.607	-38.4
191.826	-13.82
192.045	-30.21
192.265	-9.73
192.484	-3.58
192.704	-11.78
192.923	-40.45
193.142	4.61
193.362	6.66
193.581	27.14
193.8	25.09
194.02	2.56
194.239	12.8
194.458	6.66
194.678	-48.64
194.897	2.56
195.116	-1.54
195.335	-11.78
195.555	-19.97
195.774	2.56
195.993	-38.4
196.212	-3.58
196.432	-5.63
196.651	4.61
196.87	0.51
197.089	20.99
197.308	-40.45
197.528	10.75
197.747	-46.59
197.966	-13.82
198.185	23.04
198.404	-7.68
198.623	-17.92
198.842	-24.06
199.062	-40.45
199.281	39.42
199.5	14.85
199.719	109.05
199.938	-56.83
200.157	0.51
200.376	-9.73
200.595	-22.02
200.814	-46.59
201.033	-9.73
201.252	41.47
201.471	-30.21
201.69	8.7
201.909	59.9
202.128	-54.78
202.347	33.28
202.566	-32.26
202.785	10.75
203.004	88.57
203.223	43.52
203.442	27.14
203.661	-11.78
203.879	14.85
204.098	51.71
204.317	-17.92
204.536	23.04
204.755	-13.82
204.974	-22.02
205.193	84.48
205.411	98.81
205.63	12.8
205.849	-30.21
206.068	27.14
206.287	68.09
206.505	29.18
206.724	-54.78
206.943	39.42
207.162	-28.16
207.381	-32.26
207.599	39.42
207.818	96.77
208.037	25.09
208.255	-71.17
208.474	-38.4
208.693	41.47
208.911	53.76
209.13	29.18
209.349	-30.21
209.567	-32.26
209.786	-5.63
210.005	78.33
210.223	8.7
210.442	37.38
210.661	2.56
210.879	25.09
211.098	-46.59
211.316	-19.97
211.535	-9.73
211.753	-1.54
211.972	35.33
212.191	-54.78
212.409	16.9
212.628	-22.02
212.846	-15.87
213.065	-52.74
213.283	-22.02
213.502	-9.73
213.72	53.76
213.938	41.47
214.157	59.9
214.375	35.33
214.594	0.51
214.812	-7.68
215.031	2.56
215.249	-9.73
215.467	10.75
215.686	29.18
215.904	23.04
216.122	23.04
216.341	14.85
216.559	55.81
216.778	76.29
216.996	-17.92
217.214	51.71
217.432	20.99
217.651	-93.69
217.869	-38.4
218.087	-30.21
218.306	16.9
218.524	-5.63
218.742	49.66
218.96	2.56
219.179	8.7
219.397	-34.3
219.615	76.29
219.833	16.9
220.051	6.66
220.27	23.04
220.488	-54.78
220.706	33.28
220.924	-36.35
221.142	2.56
221.36	20.99
221.578	-30.21
221.796	-15.87
222.015	43.52
222.233	-17.92
222.451	-9.73
222.669	4.61
222.887	-5.63
223.105	-46.59
223.323	37.38
223.541	-9.73
223.759	33.28
223.977	47.62
224.195	4.61
224.413	20.99
224.631	94.72
224.849	23.04
225.067	53.76
225.285	-60.93
225.503	-7.68
225.721	-26.11
225.939	29.18
226.157	78.33
226.375	80.38
226.592	49.66
226.81	8.7
227.028	55.81
227.246	61.95
227.464	-7.68
227.682	-3.58
227.9	-24.06
228.117	25.09
228.335	-44.54
228.553	-13.82
228.771	-13.82
228.989	0.51
229.206	-54.78
229.424	20.99
229.642	-7.68
229.86	-17.92
230.077	10.75
230.295	61.95
230.513	10.75
230.731	45.57
230.948	27.14
231.166	4.61
231.384	-40.45
231.601	59.9
231.819	14.85
232.037	49.66
232.254	53.76
232.472	-46.59
232.689	-15.87
232.907	12.8
233.125	10.75
233.342	35.33
233.56	-65.02
233.777	47.62
233.995	20.99
234.213	10.75
234.43	72.19
234.648	20.99
234.865	14.85
235.083	-11.78
235.3	0.51
235.518	53.76
235.735	-7.68
235.953	4.61
236.17	-44.54
236.388	-48.64
236.605	-3.58
236.822	-13.82
237.04	37.38
237.257	76.29
237.475	0.51
237.692	27.14
237.909	49.66
238.127	8.7
238.344	4.61
238.562	45.57
238.779	-13.82
238.996	2.56
239.214	59.9
239.431	39.42
239.648	57.86
239.865	-19.97
240.083	-77.31
240.3	43.52
240.517	-3.58
240.735	-17.92
240.952	43.52
241.169	29.18
241.386	-34.3
241.603	-38.4
241.821	51.71
242.038	-54.78
242.255	14.85
242.472	74.24
242.689	16.9
242.907	29.18
243.124	6.66
243.341	-34.3
243.558	39.42
243.775	-36.35
243.992	2.56
244.209	27.14
244.426	43.52
244.643	-13.82
244.86	-30.21
245.078	2.56
245.295	-15.87
245.512	8.7
245.729	-48.64
245.946	-24.06
246.163	8.7
246.38	-17.92
246.597	61.95
246.814	18.94
247.031	-28.16
247.248	-50.69
247.464	45.57
247.681	-34.3
247.898	27.14
248.115	20.99
248.332	43.52
248.549	-3.58
248.766	35.33
248.983	-5.63
249.2	18.94
249.417	16.9
249.633	2.56
249.85	-15.87
250.067	8.7
250.284	-19.97
250.501	-1.54
250.717	117.25
250.934	-58.88
251.151	-15.87
251.368	6.66
251.585	27.14
251.801	4.61
252.018	-36.35
252.235	-54.78
252.451	-7.68
252.668	6.66
252.885	-22.02
253.102	47.62
253.318	-15.87
253.535	-28.16
253.752	-30.21
253.968	-40.45
254.185	31.23
254.401	-17.92
254.618	31.23
254.835	8.7
255.051	51.71
255.268	-1.54
255.484	2.56
255.701	31.23
255.917	8.7
256.134	27.14
256.351	-34.3
256.567	2.56
256.784	29.18
257	-52.74
257.217	-3.58
257.433	-22.02
257.65	18.94
257.866	10.75
258.082	37.38
258.299	-5.63
258.515	27.14
258.732	-38.4
258.948	14.85
259.165	23.04
259.381	18.94
259.597	31.23
259.814	8.7
260.03	-7.68
260.246	-15.87
260.463	6.66
260.679	-58.88
260.895	94.72
261.112	47.62
261.328	57.86
261.544	-13.82
261.761	-26.11
261.977	-19.97
262.193	33.28
262.409	39.42
262.626	-44.54
262.842	-11.78
263.058	-38.4
263.274	39.42
263.49	0.51
263.707	-30.21
263.923	0.51
264.139	-13.82
264.355	45.57
264.571	-32.26
264.787	86.53
265.004	76.29
265.22	8.7
265.436	-22.02
265.652	-17.92
265.868	23.04
266.084	-34.3
266.3	-15.87
266.516	-28.16
266.732	10.75
266.948	16.9
267.164	-28.16
267.38	-9.73
267.596	43.52
267.812	23.04
268.028	31.23
268.244	-44.54
268.46	6.66
268.676	18.94
268.892	-3.58
269.108	35.33
269.324	35.33
269.54	-3.58
269.756	45.57
269.972	-9.73
270.188	-71.17
270.403	37.38
270.619	-19.97
270.835	-26.11
271.051	16.9
271.267	-36.35
271.483	35.33
271.698	35.33
271.914	68.09
272.13	-44.54
272.346	-40.45
272.562	51.71
272.777	-26.11
272.993	-5.63
273.209	-17.92
273.425	-44.54
273.64	4.61
273.856	64
274.072	10.75
274.287	51.71
274.503	37.38
274.719	53.76
274.934	4.61
275.15	-38.4
275.366	-52.74
275.581	-48.64
275.797	-7.68
276.012	18.94
276.228	39.42
276.444	31.23
276.659	-22.02
276.875	35.33
277.09	-19.97
277.306	-24.06
277.521	33.28
277.737	16.9
277.952	-9.73
278.168	47.62
278.383	2.56
278.599	-13.82
278.814	-3.58
279.03	-5.63
279.245	14.85
279.461	49.66
279.676	-36.35
279.892	29.18
280.107	16.9
280.322	-38.4
280.538	-30.21
280.753	-36.35
280.969	18.94
281.184	-38.4
281.399	-22.02
281.615	78.33
281.83	2.56
282.045	-83.45
282.26	25.09
282.476	-5.63
282.691	-17.92
282.906	-34.3
283.122	-13.82
283.337	16.9
283.552	29.18
283.767	16.9
283.983	4.61
284.198	2.56
284.413	59.9
284.628	-30.21
284.843	61.95
285.058	35.33
285.274	90.62
285.489	4.61
285.704	27.14
285.919	-5.63
286.134	43.52
286.349	10.75
286.564	92.67
286.779	14.85
286.995	-15.87
287.21	78.33
287.425	-38.4
287.64	4.61
287.855	10.75
288.07	23.04
288.285	64
288.5	-65.02
288.715	84.48
288.93	6.66
289.145	-3.58
289.36	10.75
289.575	-54.78
289.79	14.85
290.004	31.23
290.219	-62.98
290.434	-28.16
290.649	25.09
290.864	45.57
291.079	16.9
291.294	10.75
291.509	18.94
291.724	43.52
291.938	6.66
292.153	14.85
292.368	-26.11
292.583	6.66
292.798	-13.82
293.012	2.56
293.227	-44.54
293.442	-22.02
293.657	-48.64
293.871	6.66
294.086	2.56
294.301	-22.02
294.516	27.14
294.73	6.66
294.945	-38.4
295.16	29.18
295.374	47.62
295.589	-54.78
295.804	-30.21
296.018	-30.21
296.233	51.71
296.447	-3.58
296.662	-9.73
296.877	6.66
297.091	0.51
297.306	29.18
297.52	-24.06
297.735	10.75
297.949	-50.69
298.164	20.99
298.378	23.04
298.593	20.99
298.807	-75.26
299.022	-19.97
299.236	-5.63
299.451	16.9
299.665	-30.21
299.88	-32.26
300.094	-1.54
300.309	6.66
300.523	49.66
300.737	-1.54
300.952	-54.78
301.166	47.62
301.381	-26.11
301.595	-19.97
301.809	-50.69
302.024	-34.3
302.238	-44.54
302.452	-30.21
302.667	2.56
302.881	47.62
303.095	14.85
303.309	-1.54
303.524	-5.63
303.738	43.52
303.952	-42.5
304.166	-50.69
304.381	31.23
304.595	0.51
304.809	6.66
305.023	10.75
305.237	-3.58
305.452	0.51
305.666	49.66
305.88	2.56
306.094	-38.4
306.308	23.04
306.522	-42.5
306.736	-15.87
306.95	-26.11
307.164	55.81
307.379	8.7
307.593	-19.97
307.807	35.33
308.021	4.61
308.235	-22.02
308.449	27.14
308.663	-62.98
308.877	64
309.091	-7.68
309.305	90.62
309.519	0.51
309.733	39.42
309.947	20.99
310.161	20.99
310.374	-22.02
310.588	-75.26
310.802	27.14
311.016	23.04
311.23	12.8
311.444	-5.63
311.658	-69.12
311.872	33.28
312.085	-13.82
312.299	-15.87
312.513	86.53
312.727	29.18
312.941	25.09
313.154	72.19
313.368	18.94
313.582	-22.02
313.796	-22.02
314.009	-9.73
314.223	23.04
314.437	-28.16
314.651	16.9
314.864	12.8
315.078	74.24
315.292	-11.78
315.505	49.66
315.719	12.8
315.933	-44.54
316.146	-83.45
316.36	-19.97
316.573	10.75
316.787	49.66
317.001	57.86
317.214	39.42
317.428	18.94
317.641	47.62
317.855	-34.3
318.068	37.38
318.282	-7.68
318.495	10.75
318.709	-22.02
318.922	-50.69
319.136	35.33
319.349	-42.5
319.563	47.62
319.776	-42.5
319.99	68.09
320.203	-22.02
320.417	43.52
320.63	10.75
320.843	55.81
321.057	10.75
321.27	74.24
321.483	-34.3
321.697	43.52
321.91	14.85
322.124	64
322.337	-5.63
322.55	-24.06
322.763	47.62
322.977	70.14
323.19	-44.54
323.403	45.57
323.617	-3.58
323.83	20.99
324.043	61.95
324.256	6.66
324.469	4.61
324.683	-1.54
324.896	16.9
325.109	-22.02
325.322	23.04
325.535	0.51
325.748	4.61
325.962	10.75
326.175	-11.78
326.388	86.53
326.601	51.71
326.814	-1.54
327.027	0.51
327.24	18.94
327.453	-19.97
327.666	82.43
327.879	10.75
328.092	111.1
328.305	-32.26
328.518	47.62
328.731	18.94
328.944	-3.58
329.157	33.28
329.37	8.7
329.583	84.48
329.796	31.23
330.009	27.14
330.222	0.51
330.435	-5.63
330.648	10.75
330.861	53.76
331.073	29.18
331.286	-38.4
331.499	35.33
331.712	70.14
331.925	68.09
332.138	8.7
332.35	10.75
332.563	-19.97
332.776	-7.68
332.989	4.61
333.202	51.71
333.414	51.71
333.627	29.18
333.84	14.85
334.053	29.18
334.265	43.52
334.478	45.57
334.691	-1.54
334.903	18.94
335.116	6.66
335.329	27.14
335.541	-44.54
335.754	41.47
335.966	51.71
336.179	-5.63
336.392	8.7
336.604	104.96
336.817	43.52
337.029	68.09
337.242	27.14
337.454	35.33
337.667	76.29
337.88	14.85
338.092	4.61
338.305	-15.87
338.517	14.85
338.729	-11.78
338.942	31.23
339.154	18.94
339.367	55.81
339.579	-9.73
339.792	43.52
340.004	27.14
340.217	64
340.429	-34.3
340.641	2.56
340.854	37.38
341.066	-1.54
341.278	74.24
341.491	-13.82
341.703	29.18
341.915	6.66
342.128	8.7
342.34	12.8
342.552	-65.02
342.764	10.75
342.977	10.75
343.189	-7.68
343.401	-30.21
343.613	53.76
343.826	53.76
344.038	27.14
344.25	41.47
344.462	6.66
344.674	-1.54
344.886	18.94
345.099	-62.98
345.311	-60.93
345.523	43.52
345.735	-7.68
345.947	31.23
346.159	27.14
346.371	-1.54
346.583	23.04
346.795	4.61
347.007	-38.4
347.219	-5.63
347.431	61.95
347.643	49.66
347.855	6.66
348.067	86.53
348.279	-73.21
348.491	-73.21
348.703	29.18
348.915	2.56
349.127	-22.02
349.339	29.18
349.551	4.61
349.763	-32.26
349.975	-34.3
350.187	6.66
350.399	-13.82
350.61	10.75
350.822	39.42
351.034	-1.54
351.246	4.61
351.458	14.85
351.669	-17.92
351.881	2.56
352.093	-60.93
352.305	100.86
352.517	0.51
352.728	-15.87
352.94	-56.83
353.152	61.95
353.363	-42.5
353.575	18.94
353.787	18.94
353.999	31.23
354.21	-44.54
354.422	45.57
354.633	-34.3
354.845	27.14
355.057	14.85
355.268	49.66
355.48	-17.92
355.692	-38.4
355.903	-11.78
356.115	55.81
356.326	-5.63
356.538	66.05
356.749	6.66
356.961	-17.92
357.172	23.04
357.384	-42.5
357.595	53.76
357.807	59.9
358.018	33.28
358.23	-11.78
358.441	43.52
358.653	57.86
358.864	12.8
359.075	-22.02
359.287	-32.26
359.498	16.9
359.709	41.47
359.921	-13.82
360.132	-46.59
360.344	43.52
360.555	-44.54
360.766	20.99
360.977	-99.84
361.189	-44.54
361.4	78.33
361.611	43.52
361.823	25.09
362.034	57.86
362.245	25.09
362.456	35.33
362.667	-30.21
362.879	-22.02
363.09	4.61
363.301	47.62
363.512	49.66
363.723	-30.21
363.935	-3.58
364.146	74.24
364.357	98.81
364.568	23.04
364.779	-34.3
364.99	29.18
365.201	-50.69
365.412	-3.58
365.623	45.57
365.834	86.53
366.045	-60.93
366.256	25.09
366.467	-3.58
366.678	-17.92
366.889	29.18
367.1	10.75
367.311	66.05
367.522	59.9
367.733	29.18
367.944	10.75
368.155	64
368.366	18.94
368.577	51.71
368.788	25.09
368.999	18.94
369.209	51.71
369.42	10.75
369.631	33.28
369.842	-48.64
370.053	-58.88
370.264	-60.93
370.474	-1.54
370.685	76.29
370.896	6.66
371.107	-1.54
371.317	-3.58
371.528	90.62
371.739	35.33
371.95	-58.88
372.16	61.95
372.371	16.9
372.582	92.67
372.792	25.09
373.003	-13.82
373.214	-17.92
373.424	-7.68
373.635	4.61
373.846	37.38
374.056	-11.78
374.267	23.04
374.477	-1.54
374.688	37.38
374.898	84.48
375.109	57.86
375.319	68.09
375.53	-3.58
375.74	-11.78
375.951	47.62
376.161	78.33
376.372	68.09
376.582	35.33
376.793	49.66
377.003	84.48
377.214	10.75
377.424	-83.45
377.635	-11.78
377.845	31.23
378.055	-9.73
378.266	-1.54
378.476	2.56
378.686	-26.11
378.897	37.38
379.107	25.09
379.317	12.8
379.528	-7.68
379.738	-28.16
379.948	-32.26
380.158	29.18
380.369	-17.92
380.579	64
380.789	-38.4
380.999	43.52
381.21	2.56
381.42	72.19
381.63	43.52
381.84	-1.54
382.05	61.95
382.261	14.85
382.471	49.66
382.681	-7.68
382.891	-30.21
383.101	-50.69
383.311	23.04
383.521	74.24
383.731	27.14
383.941	-15.87
384.151	61.95
384.361	84.48
384.571	29.18
384.781	37.38
384.991	45.57
385.201	43.52
385.411	18.94
385.621	84.48
385.831	18.94
386.041	29.18
386.251	-30.21
386.461	64
386.671	14.85
386.881	-28.16
387.091	-19.97
387.301	68.09
387.511	-28.16
387.72	49.66
387.93	57.86
388.14	-15.87
388.35	6.66
388.56	59.9
388.769	41.47
388.979	45.57
389.189	14.85
389.399	109.05
389.609	2.56
389.818	20.99
390.028	39.42
390.238	45.57
390.447	35.33
390.657	45.57
390.867	-15.87
391.076	14.85
391.286	35.33
391.496	4.61
391.705	18.94
391.915	80.38
392.125	29.18
392.334	80.38
392.544	31.23
392.753	31.23
392.963	-30.21
393.172	31.23
393.382	4.61
393.591	35.33
393.801	37.38
394.01	49.66
394.22	-30.21
394.429	66.05
394.639	-22.02
394.848	68.09
395.058	88.57
395.267	-7.68
395.477	6.66
395.686	25.09
395.895	20.99
396.105	107.01
396.314	68.09
396.524	12.8
396.733	4.61
396.942	2.56
397.152	59.9
397.361	49.66
397.57	61.95
397.78	64
397.989	86.53
398.198	127.49
398.407	37.38
398.617	8.7
398.826	-46.59
399.035	33.28
399.244	-54.78
399.453	90.62
399.663	80.38
399.872	84.48
400.081	18.94
400.29	51.71
400.499	18.94
400.708	6.66
400.917	-3.58
401.127	84.48
401.336	-5.63
401.545	82.43
401.754	33.28
401.963	107.01
402.172	129.53
402.381	-32.26
402.59	14.85
402.799	90.62
403.008	94.72
403.217	-19.97
403.426	86.53
403.635	12.8
403.844	23.04
404.053	107.01
404.262	49.66
404.471	43.52
404.68	156.16
404.888	129.53
405.097	4.61
405.306	41.47
405.515	53.76
405.724	78.33
405.933	53.76
406.142	117.25
406.35	61.95
406.559	-7.68
406.768	113.15
406.977	186.88
407.185	80.38
407.394	8.7
407.603	129.53
407.812	182.78
408.02	182.78
408.229	129.53
408.438	133.63
408.646	160.25
408.855	125.44
409.064	186.88
409.272	98.81
409.481	125.44
409.69	137.73
409.898	82.43
410.107	158.21
410.315	113.15
410.524	145.92
410.733	174.59
410.941	166.4
411.15	203.26
411.358	190.97
411.567	211.45
411.775	266.75
411.984	199.16
412.192	231.93
412.401	320
412.609	215.55
412.818	287.23
413.026	268.8
413.234	227.84
413.443	303.61
413.651	328.19
413.86	281.08
414.068	283.13
414.276	332.28
414.485	313.85
414.693	311.8
414.901	276.99
415.11	348.67
415.318	434.68
415.526	317.95
415.734	371.19
415.943	354.81
416.151	401.91
416.359	360.95
416.567	422.39
416.776	442.87
416.984	469.5
417.192	412.15
417.4	477.69
417.608	453.11
417.817	494.07
418.025	510.46
418.233	641.53
418.441	492.02
418.649	477.69
418.857	610.81
419.065	674.29
419.273	680.44
419.481	686.58
419.689	713.21
419.897	748.02
420.105	827.89
420.313	758.26
420.521	797.17
420.729	772.6
420.937	850.42
421.145	860.66
421.353	911.86
421.561	1018.35
421.769	1047.02
421.977	1028.59
422.185	1018.35
422.393	1026.54
422.601	1102.32
422.809	1202.67
423.017	1163.76
423.224	1217.01
423.432	1262.06
423.64	1286.64
423.848	1450.47
424.056	1337.84
424.263	1384.94
424.471	1419.75
424.679	1561.06
424.887	1522.15
425.094	1630.7
425.302	1513.96
425.51	1626.6
425.718	1698.28
425.925	1753.57
426.133	1733.09
426.341	1886.69
426.548	2040.29
426.756	1997.28
426.964	1939.94
427.171	2118.11
427.379	2316.76
427.586	2181.6
427.794	2267.61
428.001	2474.46
428.209	2550.23
428.417	2460.12
428.624	2658.78
428.832	2615.77
429.039	2521.56
429.247	2537.95
429.454	2904.53
429.662	3078.61
429.869	2779.61
430.076	3023.31
430.284	2953.68
430.491	3043.79
430.699	3140.05
430.906	3318.22
431.114	3357.13
431.321	3381.71
431.528	3463.63
431.736	3652.04
431.943	3977.67
432.15	3875.27
432.358	3944.9
432.565	4010.43
432.772	4000.19
432.979	4239.81
433.187	4192.7
433.394	4504
433.601	4534.71
433.808	4628.92
434.016	4614.59
434.223	4923.83
434.43	5061.04
434.637	4940.21
434.844	5284.27
435.052	5507.5
435.259	5566.89
435.466	5454.25
435.673	5564.84
435.88	5824.94
436.087	6078.88
436.294	6058.4
436.501	5908.9
436.708	5878.18
436.915	6437.28
437.122	6490.52
437.329	6549.92
437.537	6746.52
437.743	6848.92
437.95	6783.38
438.157	7014.8
438.364	7207.31
438.571	7473.55
438.778	7336.34
438.985	8069.51
439.192	7702.92
439.399	8042.89
439.606	7858.57
439.813	8413.57
440.02	8831.35
440.227	8720.76
440.433	8544.64
440.64	8927.61
440.847	8718.71
441.054	8960.38
441.261	9623.92
441.467	9673.07
441.674	9609.58
441.881	10070.37
442.088	10076.52
442.294	10013.03
442.501	10129.77
442.708	10365.28
442.914	10895.71
443.121	11567.44
443.328	11108.69
443.534	11628.88
443.741	11565.39
443.948	11229.52
444.154	12265.8
444.361	12052.81
444.568	12273.99
444.774	12325.19
444.981	12374.34
445.187	12636.48
445.394	13123.9
445.6	13197.62
445.807	14422.31
446.013	13916.46
446.22	14158.12
446.426	14633.25
446.633	14477.6
446.839	15208.73
447.046	14670.11
447.252	15182.1
447.459	15376.66
447.665	15517.97
447.871	16132.36
448.078	16881.92
448.284	15989
448.491	16331.01
448.697	16972.03
448.903	17385.72
449.11	17555.7
449.316	17287.42
449.522	17594.61
449.728	17912.05
449.935	18082.03
450.141	18139.37
450.347	18620.64
450.553	18120.94
450.76	18145.52
450.966	19171.55
451.172	18559.2
451.378	19110.11
451.584	18522.34
451.791	19273.95
451.997	19122.4
452.203	19638.48
452.409	19716.31
452.615	19478.74
452.821	18708.71
453.027	18606.31
453.233	19661.01
453.44	18655.46
453.646	19212.51
453.852	19159.26
454.058	19587.29
454.264	18860.26
454.47	19353.82
454.676	18712.8
454.882	19437.78
455.088	17877.23
455.294	18106.6
455.5	18211.05
455.705	18782.43
455.911	17979.63
456.117	17311.99
456.323	17125.63
456.529	16314.63
456.735	17070.33
456.941	16597.25
457.147	16470.28
457.352	16128.27
457.558	15700.24
457.764	15700.24
457.97	15253.78
458.176	15249.69
458.381	15374.61
458.587	14244.13
458.793	14414.12
458.999	13441.33
459.204	14709.02
459.41	14262.57
459.616	13439.28
459.821	13478.19
460.027	13273.4
460.233	12763.45
460.438	12501.31
460.644	12466.5
460.85	12030.28
461.055	11897.16
461.261	11694.41
461.466	10690.91
461.672	10746.2
461.878	11467.09
462.083	10473.82
462.289	10340.71
462.494	10385.76
462.7	9791.85
462.905	9578.86
463.111	10068.33
463.316	9804.14
463.522	9476.46
463.727	9699.69
463.932	9720.17
464.138	9488.75
464.343	9365.87
464.549	9353.59
464.754	9630.06
464.959	9478.51
465.165	9509.23
465.37	9169.27
465.575	8864.12
465.781	9040.25
465.986	9253.23
466.191	8812.92
466.397	8843.64
466.602	8135.04
466.807	8468.86
467.012	8683.9
467.218	8761.72
467.423	8440.19
467.628	8567.17
467.833	9023.86
468.038	8538.49
468.244	8225.15
468.449	8671.61
