Data from USB4F104151__38__12-58-58-626.txt Node

Date: Fri Mar 14 12:58:58 EDT 2025
User: louis
Spectrometer: USB4F10415
Trigger mode: 4
Integration Time (sec): 1.000000E-2
Scans to average: 1
Electric dark correction enabled: true
Nonlinearity correction enabled: false
Boxcar width: 0
XAxis mode: Wavelengths
Number of Pixels in Spectrum: 3648
>>>>>Begin Spectral Data<<<<<
178.204	-10.58
178.424	-10.58
178.644	-10.58
178.864	-82.26
179.084	-29.01
179.304	1.71
179.524	-0.34
179.744	18.09
179.964	-12.63
180.184	5.8
180.404	-41.3
180.624	-59.73
180.844	11.95
181.064	71.34
181.283	5.8
181.503	-24.92
181.723	24.23
181.943	32.43
182.163	36.52
182.383	-55.64
182.602	26.28
182.822	-6.49
183.042	63.15
183.262	13.99
183.482	-14.68
183.701	1.71
183.921	-6.49
184.141	16.04
184.361	44.71
184.58	-47.44
184.8	54.95
185.02	-49.49
185.239	13.99
185.459	54.95
185.679	87.72
185.898	-76.12
186.118	46.76
186.338	3.75
186.557	95.91
186.777	50.86
186.997	22.19
187.216	73.39
187.436	59.05
187.655	-45.4
187.875	-39.25
188.095	44.71
188.314	48.81
188.534	69.29
188.753	65.19
188.973	7.85
189.192	89.77
189.412	5.8
189.631	75.43
189.851	-26.96
190.07	9.9
190.29	-37.2
190.509	48.81
190.729	-133.46
190.948	38.57
191.168	89.77
191.387	-26.96
191.607	5.8
191.826	-14.68
192.045	3.75
192.265	5.8
192.484	-8.53
192.704	5.8
192.923	1.71
193.142	18.09
193.362	77.48
193.581	13.99
193.8	75.43
194.02	5.8
194.239	-57.68
194.458	34.47
194.678	-18.77
194.897	-16.73
195.116	-0.34
195.335	-8.53
195.555	13.99
195.774	5.8
195.993	-102.74
196.212	46.76
196.432	34.47
196.651	-72.02
196.87	46.76
197.089	91.82
197.308	36.52
197.528	-6.49
197.747	-20.82
197.966	16.04
198.185	73.39
198.404	36.52
198.623	1.71
198.842	-88.4
199.062	11.95
199.281	73.39
199.5	28.33
199.719	26.28
199.938	28.33
200.157	91.82
200.376	40.62
200.595	-47.44
200.814	-63.83
201.033	-26.96
201.252	-26.96
201.471	-37.2
201.69	-35.16
201.909	13.99
202.128	5.8
202.347	-22.87
202.566	-16.73
202.785	-43.35
203.004	-14.68
203.223	-0.34
203.442	44.71
203.661	22.19
203.879	28.33
204.098	100.01
204.317	57
204.536	50.86
204.755	24.23
204.974	34.47
205.193	61.1
205.411	18.09
205.63	30.38
205.849	13.99
206.068	1.71
206.287	32.43
206.505	-43.35
206.724	-12.63
206.943	-6.49
207.162	63.15
207.381	-6.49
207.599	-6.49
207.818	1.71
208.037	9.9
208.255	13.99
208.474	32.43
208.693	-2.39
208.911	-2.39
209.13	-6.49
209.349	13.99
209.567	-59.73
209.786	18.09
210.005	32.43
210.223	16.04
210.442	-6.49
210.661	-4.44
210.879	38.57
211.098	22.19
211.316	7.85
211.535	18.09
211.753	-102.74
211.972	110.25
212.191	-4.44
212.409	20.14
212.628	-35.16
212.846	26.28
213.065	11.95
213.283	22.19
213.502	-24.92
213.72	-6.49
213.938	46.76
214.157	-35.16
214.375	46.76
214.594	20.14
214.812	24.23
215.031	-31.06
215.249	30.38
215.467	106.15
215.686	-35.16
215.904	1.71
216.122	-29.01
216.341	-29.01
216.559	5.8
216.778	40.62
216.996	-47.44
217.214	44.71
217.432	18.09
217.651	-29.01
217.869	9.9
218.087	20.14
218.306	13.99
218.524	28.33
218.742	-45.4
218.96	-12.63
219.179	18.09
219.397	102.06
219.615	28.33
219.833	34.47
220.051	1.71
220.27	59.05
220.488	38.57
220.706	102.06
220.924	-47.44
221.142	-14.68
221.36	40.62
221.578	26.28
221.796	-18.77
222.015	73.39
222.233	54.95
222.451	65.19
222.669	-8.53
222.887	-16.73
223.105	1.71
223.323	-10.58
223.541	20.14
223.759	28.33
223.977	-63.83
224.195	-29.01
224.413	-33.11
224.631	52.91
224.849	18.09
225.067	3.75
225.285	18.09
225.503	-16.73
225.721	-24.92
225.939	54.95
226.157	20.14
226.375	130.73
226.592	22.19
226.81	-63.83
227.028	13.99
227.246	11.95
227.464	-26.96
227.682	63.15
227.9	32.43
228.117	40.62
228.335	26.28
228.553	42.67
228.771	-18.77
228.989	42.67
229.206	1.71
229.424	54.95
229.642	-57.68
229.86	18.09
230.077	-37.2
230.295	-14.68
230.513	71.34
230.731	54.95
230.948	67.24
231.166	30.38
231.384	26.28
231.601	9.9
231.819	-33.11
232.037	42.67
232.254	34.47
232.472	-31.06
232.689	69.29
232.907	63.15
233.125	28.33
233.342	20.14
233.56	-65.88
233.777	-26.96
233.995	36.52
234.213	18.09
234.43	-0.34
234.648	24.23
234.865	44.71
235.083	11.95
235.3	11.95
235.518	63.15
235.735	24.23
235.953	83.63
236.17	44.71
236.388	36.52
236.605	30.38
236.822	71.34
237.04	13.99
237.257	9.9
237.475	-10.58
237.692	34.47
237.909	-69.97
238.127	63.15
238.344	65.19
238.562	77.48
238.779	32.43
238.996	-31.06
239.214	46.76
239.431	13.99
239.648	1.71
239.865	-20.82
240.083	85.67
240.3	26.28
240.517	24.23
240.735	18.09
240.952	57
241.169	9.9
241.386	-22.87
241.603	-2.39
241.821	34.47
242.038	54.95
242.255	20.14
242.472	5.8
242.689	18.09
242.907	-16.73
243.124	44.71
243.341	34.47
243.558	42.67
243.775	1.71
243.992	91.82
244.209	-35.16
244.426	65.19
244.643	28.33
244.86	-22.87
245.078	40.62
245.295	-6.49
245.512	-8.53
245.729	-51.54
245.946	28.33
246.163	48.81
246.38	48.81
246.597	26.28
246.814	36.52
247.031	3.75
247.248	-12.63
247.464	40.62
247.681	20.14
247.898	-8.53
248.115	5.8
248.332	-80.21
248.549	-24.92
248.766	-47.44
248.983	-6.49
249.2	-76.12
249.417	-37.2
249.633	-43.35
249.85	79.53
250.067	-10.58
250.284	-6.49
250.501	77.48
250.717	22.19
250.934	13.99
251.151	-53.59
251.368	40.62
251.585	44.71
251.801	-0.34
252.018	28.33
252.235	63.15
252.451	-29.01
252.668	11.95
252.885	36.52
253.102	24.23
253.318	20.14
253.535	46.76
253.752	40.62
253.968	-20.82
254.185	38.57
254.401	36.52
254.618	18.09
254.835	-2.39
255.051	30.38
255.268	11.95
255.484	-63.83
255.701	-12.63
255.917	-0.34
256.134	-4.44
256.351	34.47
256.567	7.85
256.784	-72.02
257	-31.06
257.217	42.67
257.433	-55.64
257.65	42.67
257.866	13.99
258.082	-55.64
258.299	-33.11
258.515	-18.77
258.732	18.09
258.948	-2.39
259.165	100.01
259.381	-4.44
259.597	59.05
259.814	3.75
260.03	24.23
260.246	67.24
260.463	77.48
260.679	7.85
260.895	42.67
261.112	-14.68
261.328	1.71
261.544	3.75
261.761	28.33
261.977	11.95
262.193	-16.73
262.409	28.33
262.626	-8.53
262.842	3.75
263.058	-35.16
263.274	38.57
263.49	69.29
263.707	32.43
263.923	11.95
264.139	38.57
264.355	1.71
264.571	67.24
264.787	34.47
265.004	16.04
265.22	20.14
265.436	13.99
265.652	18.09
265.868	-4.44
266.084	-31.06
266.3	28.33
266.516	34.47
266.732	75.43
266.948	-6.49
267.164	42.67
267.38	13.99
267.596	26.28
267.812	63.15
268.028	61.1
268.244	59.05
268.46	9.9
268.676	1.71
268.892	5.8
269.108	46.76
269.324	-14.68
269.54	3.75
269.756	9.9
269.972	-22.87
270.188	-0.34
270.403	11.95
270.619	9.9
270.835	18.09
271.051	30.38
271.267	-2.39
271.483	24.23
271.698	69.29
271.914	36.52
272.13	-2.39
272.346	-18.77
272.562	-2.39
272.777	-0.34
272.993	-2.39
273.209	9.9
273.425	-4.44
273.64	42.67
273.856	24.23
274.072	65.19
274.287	20.14
274.503	-18.77
274.719	36.52
274.934	52.91
275.15	-47.44
275.366	42.67
275.581	-84.31
275.797	7.85
276.012	-47.44
276.228	50.86
276.444	22.19
276.659	-41.3
276.875	28.33
277.09	13.99
277.306	13.99
277.521	-4.44
277.737	-43.35
277.952	-22.87
278.168	11.95
278.383	52.91
278.599	32.43
278.814	57
279.03	-8.53
279.245	48.81
279.461	28.33
279.676	83.63
279.892	-22.87
280.107	7.85
280.322	-55.64
280.538	-12.63
280.753	-35.16
280.969	38.57
281.184	40.62
281.399	18.09
281.615	20.14
281.83	-2.39
282.045	26.28
282.26	-10.58
282.476	100.01
282.691	-35.16
282.906	26.28
283.122	20.14
283.337	-20.82
283.552	16.04
283.767	-47.44
283.983	20.14
284.198	18.09
284.413	-4.44
284.628	-37.2
284.843	54.95
285.058	28.33
285.274	71.34
285.489	-22.87
285.704	-29.01
285.919	-51.54
286.134	-20.82
286.349	-16.73
286.564	-63.83
286.779	42.67
286.995	40.62
287.21	3.75
287.425	38.57
287.64	28.33
287.855	71.34
288.07	22.19
288.285	30.38
288.5	73.39
288.715	-8.53
288.93	-59.73
289.145	65.19
289.36	16.04
289.575	1.71
289.79	20.14
290.004	-16.73
290.219	57
290.434	-10.58
290.649	1.71
290.864	54.95
291.079	26.28
291.294	34.47
291.509	-29.01
291.724	13.99
291.938	1.71
292.153	52.91
292.368	-31.06
292.583	-8.53
292.798	106.15
293.012	85.67
293.227	38.57
293.442	67.24
293.657	95.91
293.871	46.76
294.086	54.95
294.301	18.09
294.516	-51.54
294.73	50.86
294.945	-16.73
295.16	20.14
295.374	46.76
295.589	13.99
295.804	50.86
296.018	18.09
296.233	3.75
296.447	57
296.662	54.95
296.877	48.81
297.091	-12.63
297.306	3.75
297.52	24.23
297.735	28.33
297.949	-49.49
298.164	93.87
298.378	9.9
298.593	9.9
298.807	-51.54
299.022	50.86
299.236	18.09
299.451	1.71
299.665	-4.44
299.88	38.57
300.094	-31.06
300.309	3.75
300.523	-2.39
300.737	67.24
300.952	-10.58
301.166	87.72
301.381	-0.34
301.595	-57.68
301.809	44.71
302.024	34.47
302.238	-18.77
302.452	13.99
302.667	-8.53
302.881	-8.53
303.095	116.39
303.309	18.09
303.524	26.28
303.738	22.19
303.952	-26.96
304.166	13.99
304.381	-45.4
304.595	34.47
304.809	38.57
305.023	54.95
305.237	32.43
305.452	36.52
305.666	67.24
305.88	71.34
306.094	36.52
306.308	36.52
306.522	65.19
306.736	-0.34
306.95	40.62
307.164	28.33
307.379	-0.34
307.593	24.23
307.807	54.95
308.021	-12.63
308.235	71.34
308.449	44.71
308.663	24.23
308.877	50.86
309.091	-4.44
309.305	-22.87
309.519	26.28
309.733	24.23
309.947	63.15
310.161	-20.82
310.374	30.38
310.588	-0.34
310.802	-29.01
311.016	52.91
311.23	46.76
311.444	5.8
311.658	-8.53
311.872	40.62
312.085	-26.96
312.299	132.78
312.513	24.23
312.727	75.43
312.941	-8.53
313.154	42.67
313.368	-35.16
313.582	44.71
313.796	50.86
314.009	-12.63
314.223	32.43
314.437	52.91
314.651	-18.77
314.864	9.9
315.078	34.47
315.292	46.76
315.505	97.96
315.719	30.38
315.933	22.19
316.146	-33.11
316.36	38.57
316.573	-26.96
316.787	1.71
317.001	-59.73
317.214	67.24
317.428	5.8
317.641	-37.2
317.855	42.67
318.068	28.33
318.282	-94.55
318.495	9.9
318.709	11.95
318.922	40.62
319.136	34.47
319.349	5.8
319.563	-22.87
319.776	16.04
319.99	-47.44
320.203	59.05
320.417	81.58
320.63	1.71
320.843	36.52
321.057	-20.82
321.27	-12.63
321.483	61.1
321.697	-14.68
321.91	57
322.124	36.52
322.337	1.71
322.55	-6.49
322.763	-2.39
322.977	34.47
323.19	11.95
323.403	9.9
323.617	63.15
323.83	22.19
324.043	34.47
324.256	36.52
324.469	40.62
324.683	11.95
324.896	-22.87
325.109	16.04
325.322	-31.06
325.535	59.05
325.748	22.19
325.962	44.71
326.175	9.9
326.388	65.19
326.601	38.57
326.814	-47.44
327.027	63.15
327.24	28.33
327.453	-0.34
327.666	75.43
327.879	20.14
328.092	20.14
328.305	24.23
328.518	-4.44
328.731	54.95
328.944	-65.88
329.157	-4.44
329.37	18.09
329.583	-18.77
329.796	22.19
330.009	71.34
330.222	-4.44
330.435	34.47
330.648	-10.58
330.861	-8.53
331.073	30.38
331.286	30.38
331.499	36.52
331.712	52.91
331.925	-6.49
332.138	-55.64
332.35	26.28
332.563	24.23
332.776	26.28
332.989	11.95
333.202	-10.58
333.414	-20.82
333.627	-22.87
333.84	-31.06
334.053	40.62
334.265	16.04
334.478	73.39
334.691	-26.96
334.903	-31.06
335.116	-4.44
335.329	18.09
335.541	-20.82
335.754	-37.2
335.966	-74.07
336.179	11.95
336.392	22.19
336.604	50.86
336.817	16.04
337.029	71.34
337.242	-4.44
337.454	36.52
337.667	42.67
337.88	48.81
338.092	-6.49
338.305	71.34
338.517	22.19
338.729	9.9
338.942	-14.68
339.154	3.75
339.367	34.47
339.579	32.43
339.792	87.72
340.004	38.57
340.217	57
340.429	11.95
340.641	-22.87
340.854	5.8
341.066	28.33
341.278	5.8
341.491	46.76
341.703	61.1
341.915	-43.35
342.128	104.11
342.34	18.09
342.552	18.09
342.764	13.99
342.977	110.25
343.189	91.82
343.401	13.99
343.613	52.91
343.826	52.91
344.038	28.33
344.25	18.09
344.462	20.14
344.674	36.52
344.886	13.99
345.099	-6.49
345.311	57
345.523	-29.01
345.735	46.76
345.947	30.38
346.159	-29.01
346.371	1.71
346.583	-0.34
346.795	59.05
347.007	18.09
347.219	44.71
347.431	-35.16
347.643	63.15
347.855	3.75
348.067	87.72
348.279	-0.34
348.491	52.91
348.703	-8.53
348.915	13.99
349.127	44.71
349.339	59.05
349.551	-6.49
349.763	93.87
349.975	69.29
350.187	54.95
350.399	-0.34
350.61	-26.96
350.822	-57.68
351.034	59.05
351.246	7.85
351.458	44.71
351.669	26.28
351.881	20.14
352.093	3.75
352.305	40.62
352.517	42.67
352.728	75.43
352.94	-12.63
353.152	20.14
353.363	-37.2
353.575	-8.53
353.787	73.39
353.999	44.71
354.21	77.48
354.422	-4.44
354.633	-41.3
354.845	-12.63
355.057	67.24
355.268	59.05
355.48	5.8
355.692	-10.58
355.903	57
356.115	-14.68
356.326	48.81
356.538	30.38
356.749	-55.64
356.961	63.15
357.172	32.43
357.384	-41.3
357.595	16.04
357.807	7.85
358.018	100.01
358.23	20.14
358.441	34.47
358.653	13.99
358.864	1.71
359.075	40.62
359.287	32.43
359.498	57
359.709	57
359.921	46.76
360.132	-35.16
360.344	22.19
360.555	5.8
360.766	83.63
360.977	-6.49
361.189	18.09
361.4	-37.2
361.611	69.29
361.823	-43.35
362.034	11.95
362.245	28.33
362.456	-72.02
362.667	50.86
362.879	30.38
363.09	22.19
363.301	-29.01
363.512	20.14
363.723	20.14
363.935	-53.59
364.146	36.52
364.357	32.43
364.568	-29.01
364.779	63.15
364.99	-26.96
365.201	20.14
365.412	59.05
365.623	-12.63
365.834	13.99
366.045	-22.87
366.256	54.95
366.467	11.95
366.678	44.71
366.889	13.99
367.1	73.39
367.311	-31.06
367.522	-6.49
367.733	38.57
367.944	-20.82
368.155	13.99
368.366	1.71
368.577	32.43
368.788	65.19
368.999	-2.39
369.209	36.52
369.42	32.43
369.631	44.71
369.842	22.19
370.053	1.71
370.264	36.52
370.474	106.15
370.685	-22.87
370.896	79.53
371.107	-20.82
371.317	38.57
371.528	-14.68
371.739	11.95
371.95	52.91
372.16	44.71
372.371	46.76
372.582	52.91
372.792	36.52
373.003	13.99
373.214	-80.21
373.424	59.05
373.635	3.75
373.846	110.25
374.056	18.09
374.267	50.86
374.477	38.57
374.688	26.28
374.898	-10.58
375.109	61.1
375.319	59.05
375.53	52.91
375.74	30.38
375.951	28.33
376.161	-18.77
376.372	83.63
376.582	22.19
376.793	1.71
377.003	22.19
377.214	3.75
377.424	-14.68
377.635	-0.34
377.845	-53.59
378.055	50.86
378.266	87.72
378.476	9.9
378.686	3.75
378.897	-22.87
379.107	-22.87
379.317	-51.54
379.528	24.23
379.738	69.29
379.948	26.28
380.158	61.1
380.369	-10.58
380.579	48.81
380.789	-24.92
380.999	59.05
381.21	85.67
381.42	20.14
381.63	73.39
381.84	106.15
382.05	57
382.261	-20.82
382.471	-2.39
382.681	97.96
382.891	34.47
383.101	83.63
383.311	24.23
383.521	38.57
383.731	13.99
383.941	42.67
384.151	75.43
384.361	73.39
384.571	1.71
384.781	50.86
384.991	59.05
385.201	59.05
385.411	67.24
385.621	40.62
385.831	-10.58
386.041	11.95
386.251	-0.34
386.461	61.1
386.671	-2.39
386.881	77.48
387.091	77.48
387.301	95.91
387.511	-12.63
387.72	28.33
387.93	26.28
388.14	63.15
388.35	26.28
388.56	1.71
388.769	52.91
388.979	9.9
389.189	-14.68
389.399	85.67
389.609	30.38
389.818	28.33
390.028	46.76
390.238	75.43
390.447	-47.44
390.657	-47.44
390.867	83.63
391.076	89.77
391.286	-20.82
391.496	-14.68
391.705	-0.34
391.915	3.75
392.125	-6.49
392.334	-18.77
392.544	69.29
392.753	59.05
392.963	75.43
393.172	57
393.382	7.85
393.591	59.05
393.801	36.52
394.01	67.24
394.22	57
394.429	97.96
394.639	36.52
394.848	-14.68
395.058	44.71
395.267	-45.4
395.477	126.63
395.686	100.01
395.895	124.58
396.105	104.11
396.314	34.47
396.524	16.04
396.733	-41.3
396.942	63.15
397.152	-6.49
397.361	38.57
397.57	24.23
397.78	71.34
397.989	89.77
398.198	63.15
398.407	30.38
398.617	87.72
398.826	36.52
399.035	87.72
399.244	97.96
399.453	132.78
399.663	40.62
399.872	48.81
400.081	65.19
400.29	138.92
400.499	85.67
400.708	-29.01
400.917	44.71
401.127	54.95
401.336	28.33
401.545	114.34
401.754	79.53
401.963	5.8
402.172	16.04
402.381	-20.82
402.59	-8.53
402.799	77.48
403.008	46.76
403.217	79.53
403.426	106.15
403.635	100.01
403.844	77.48
404.053	124.58
404.262	22.19
404.471	79.53
404.68	-12.63
404.888	118.44
405.097	11.95
405.306	77.48
405.515	20.14
405.724	132.78
405.933	30.38
406.142	44.71
406.35	3.75
406.559	71.34
406.768	65.19
406.977	173.74
407.185	89.77
407.394	116.39
407.603	102.06
407.812	104.11
408.02	149.16
408.229	110.25
408.438	130.73
408.646	42.67
408.855	145.06
409.064	102.06
409.272	75.43
409.481	171.69
409.69	116.39
409.898	126.63
410.107	136.87
410.315	138.92
410.524	130.73
410.733	263.85
410.941	198.31
411.15	192.17
411.358	140.97
411.567	255.65
411.775	132.78
411.984	210.6
412.192	208.55
412.401	259.75
412.609	235.18
412.818	241.32
413.026	245.41
413.234	341.67
413.443	165.54
413.651	280.23
413.86	313
414.068	327.33
414.276	288.42
414.485	220.84
414.693	349.86
414.901	382.63
415.11	403.11
415.318	315.05
415.526	439.97
415.734	407.2
415.943	382.63
416.151	386.72
416.359	462.5
416.567	358.05
416.776	485.03
416.984	478.88
417.192	517.79
417.4	538.27
417.608	425.64
417.817	517.79
418.025	493.22
418.233	665.25
418.441	515.75
418.649	620.19
418.857	675.49
419.065	599.71
419.273	679.58
419.481	716.45
419.689	695.97
419.897	812.7
420.105	790.17
420.313	781.98
420.521	818.85
420.729	800.41
420.937	814.75
421.145	892.57
421.353	849.57
421.561	974.49
421.769	1085.08
421.977	1017.5
422.185	1033.88
422.393	1044.12
422.601	1179.29
422.809	1128.09
423.017	1181.34
423.224	1267.35
423.432	1105.56
423.64	1230.49
423.848	1420.95
424.056	1339.03
424.263	1506.96
424.471	1463.96
424.679	1445.52
424.887	1580.69
425.094	1580.69
425.302	1601.17
425.51	1664.66
425.718	1740.43
425.925	1707.66
426.133	1803.92
426.341	1855.12
426.548	1951.37
426.756	1928.85
426.964	2000.52
427.171	1957.52
427.379	2117.26
427.586	2154.12
427.794	2363.01
428.001	2369.16
428.209	2440.84
428.417	2432.65
428.624	2651.78
428.832	2586.24
429.039	2543.24
429.247	2557.57
429.454	2803.33
429.662	3049.08
429.869	2870.91
430.076	3059.32
430.284	2928.25
430.491	3112.57
430.699	3210.87
430.906	3208.83
431.114	3356.28
431.321	3606.13
431.528	3532.4
431.736	3778.16
431.943	3876.46
432.15	3542.64
432.358	3821.17
432.565	4073.07
432.772	4052.59
432.979	4261.48
433.187	4318.82
433.394	4329.06
433.601	4646.5
433.808	4746.85
434.016	4689.51
434.223	4752.99
434.43	5107.29
434.637	5121.63
434.844	5443.16
435.052	5484.12
435.259	5310.04
435.466	5324.38
435.673	5389.91
435.88	5461.59
436.087	6026.83
436.294	5895.76
436.501	5811.79
436.708	6164.04
436.915	6313.55
437.122	6551.11
437.329	6436.42
437.537	6686.28
437.743	6911.55
437.95	6745.67
438.157	6962.75
438.364	7204.41
438.571	7343.67
438.778	7245.37
438.985	7947.83
439.192	7644.73
439.399	7894.58
439.606	7874.1
439.813	8277.55
440.02	8625.7
440.227	8533.54
440.433	8435.24
440.64	8711.72
440.847	8812.07
441.054	8734.25
441.261	9629.21
441.467	9289.24
441.674	9756.18
441.881	9989.65
442.088	10026.51
442.294	9987.6
442.501	10149.39
442.708	10401.29
442.914	10874.37
443.121	11451.9
443.328	10743.3
443.534	11740.66
443.741	11384.32
443.948	11468.28
444.154	12084.72
444.361	12054
444.568	11906.55
444.774	12043.76
444.981	12406.25
445.187	12606.95
445.394	13043.17
445.6	12916.2
445.807	14206.42
446.013	13731.29
446.22	13880.79
446.426	14427.6
446.633	14669.26
446.839	15123.91
447.046	14648.78
447.252	15439.3
447.459	15310.27
447.665	15199.68
447.871	16016.82
448.078	16637.36
448.284	15930.81
448.491	16188.85
448.697	17073.57
448.903	17311.14
449.11	17124.77
449.316	17065.38
449.522	17325.47
449.728	17618.33
449.935	17831.32
450.141	17935.77
450.347	18863.5
450.553	18087.32
450.76	18058.65
450.966	18894.22
451.172	18636.17
451.378	18961.8
451.584	18738.57
451.791	19205.51
451.997	19162.5
452.203	19379.59
452.409	19295.62
452.615	19152.26
452.821	18867.59
453.027	18349.46
453.233	19172.74
453.44	18900.36
453.646	19094.92
453.852	19099.02
454.058	19172.74
454.264	18816.4
454.47	19289.48
454.676	18640.27
454.882	19496.32
455.088	17636.77
455.294	17941.91
455.5	18101.65
455.705	18468.24
455.911	17683.87
456.117	17130.92
456.323	16913.83
456.529	16379.31
456.735	16985.51
456.941	16539.05
457.147	16297.39
457.352	15848.89
457.558	15463.87
457.764	15625.66
457.97	15406.53
458.176	14994.89
458.381	15183.3
458.587	14144.98
458.793	14298.58
458.999	13579.74
459.204	14642.64
459.41	14038.48
459.616	12967.4
459.821	13100.51
460.027	13100.51
460.233	12785.13
460.438	12271.09
460.644	12191.22
460.85	11861.49
461.055	11552.25
461.261	11576.83
461.466	10929.67
461.672	10434.06
461.878	11005.44
462.083	10432.01
462.289	10124.82
462.494	10003.99
462.7	9709.08
462.905	9143.84
463.111	9717.27
463.316	9852.44
463.522	9455.13
463.727	9621.02
463.932	9494.04
464.138	9319.96
464.343	9457.18
464.549	9102.88
464.754	9664.02
464.959	9491.99
465.165	9332.25
465.37	9088.54
465.575	8887.84
465.781	9127.46
465.986	9213.47
466.191	8801.83
466.397	8621.61
466.602	8261.16
466.807	8660.52
467.012	8633.89
467.218	8621.61
467.423	8445.48
467.628	8564.26
467.833	8812.07
468.038	8609.32
468.244	8275.5
468.449	8572.46
468.654	8113.71
