Data from USB4F104151__80__12-59-50-560.txt Node

Date: Fri Mar 14 12:59:50 EDT 2025
User: louis
Spectrometer: USB4F10415
Trigger mode: 4
Integration Time (sec): 1.000000E-2
Scans to average: 1
Electric dark correction enabled: true
Nonlinearity correction enabled: false
Boxcar width: 0
XAxis mode: Wavelengths
Number of Pixels in Spectrum: 3648
>>>>>Begin Spectral Data<<<<<
178.204	-97.45
178.424	-97.45
178.644	-97.45
178.864	-3.24
179.084	-58.54
179.304	-1.19
179.524	43.86
179.744	54.1
179.964	29.52
180.184	-7.34
180.404	-17.58
180.624	9.05
180.844	-15.53
181.064	-23.72
181.283	-23.72
181.503	-50.35
181.723	2.9
181.943	2.9
182.163	9.05
182.383	35.67
182.602	-70.83
182.822	2.9
183.042	37.72
183.262	17.24
183.482	97.11
183.701	11.09
183.921	-5.29
184.141	50
184.361	60.24
184.58	50
184.8	54.1
185.02	25.43
185.239	50
185.459	-1.19
185.679	-7.34
185.898	-33.96
186.118	23.38
186.338	19.29
186.557	72.53
186.777	-17.58
186.997	-15.53
187.216	-1.19
187.436	43.86
187.655	11.09
187.875	-36.01
188.095	-33.96
188.314	52.05
188.534	-1.19
188.753	9.05
188.973	-33.96
189.192	2.9
189.412	-5.29
189.631	64.34
189.851	-79.02
190.07	72.53
190.29	-17.58
190.509	37.72
190.729	23.38
190.948	31.57
191.168	23.38
191.387	-15.53
191.607	4.95
191.826	-5.29
192.045	-19.63
192.265	84.82
192.484	17.24
192.704	-58.54
192.923	-1.19
193.142	13.14
193.362	4.95
193.581	50
193.8	31.57
194.02	-13.48
194.239	23.38
194.458	25.43
194.678	33.62
194.897	35.67
195.116	21.33
195.335	31.57
195.555	-42.15
195.774	35.67
195.993	0.85
196.212	-1.19
196.432	-19.63
196.651	-5.29
196.87	-50.35
197.089	66.39
197.308	-9.39
197.528	-42.15
197.747	-23.72
197.966	25.43
198.185	29.52
198.404	-19.63
198.623	11.09
198.842	29.52
199.062	47.96
199.281	37.72
199.5	15.19
199.719	62.29
199.938	-29.87
200.157	-36.01
200.376	45.91
200.595	56.15
200.814	-38.06
201.033	90.96
201.252	31.57
201.471	56.15
201.69	-7.34
201.909	-66.73
202.128	-40.11
202.347	70.48
202.566	15.19
202.785	-81.07
203.004	-17.58
203.223	35.67
203.442	-66.73
203.661	-1.19
203.879	45.91
204.098	41.81
204.317	-15.53
204.536	68.44
204.755	-48.3
204.974	-25.77
205.193	-7.34
205.411	-62.63
205.63	17.24
205.849	-5.29
206.068	-23.72
206.287	9.05
206.505	-11.43
206.724	-46.25
206.943	-31.91
207.162	-66.73
207.381	-11.43
207.599	37.72
207.818	-5.29
208.037	17.24
208.255	-48.3
208.474	54.1
208.693	-9.39
208.911	-9.39
209.13	60.24
209.349	72.53
209.567	27.48
209.786	43.86
210.005	-19.63
210.223	39.76
210.442	62.29
210.661	74.58
210.879	31.57
211.098	56.15
211.316	103.25
211.535	52.05
211.753	7
211.972	47.96
212.191	-87.21
212.409	58.2
212.628	29.52
212.846	-13.48
213.065	-21.67
213.283	2.9
213.502	27.48
213.72	-46.25
213.938	11.09
214.157	-33.96
214.375	-70.83
214.594	-42.15
214.812	19.29
215.031	-5.29
215.249	11.09
215.467	-31.91
215.686	0.85
215.904	74.58
216.122	66.39
216.341	2.9
216.559	86.87
216.778	54.1
216.996	-17.58
217.214	68.44
217.432	9.05
217.651	2.9
217.869	-13.48
218.087	-72.87
218.306	19.29
218.524	25.43
218.742	-11.43
218.96	-11.43
219.179	23.38
219.397	35.67
219.615	25.43
219.833	17.24
220.051	56.15
220.27	-7.34
220.488	-5.29
220.706	-13.48
220.924	-44.2
221.142	-17.58
221.36	23.38
221.578	50
221.796	-13.48
222.015	50
222.233	41.81
222.451	-50.35
222.669	-58.54
222.887	-64.68
223.105	7
223.323	-1.19
223.541	39.76
223.759	-76.97
223.977	-9.39
224.195	-23.72
224.413	23.38
224.631	2.9
224.849	47.96
225.067	-1.19
225.285	64.34
225.503	-62.63
225.721	33.62
225.939	-66.73
226.157	-5.29
226.375	17.24
226.592	72.53
226.81	56.15
227.028	50
227.246	82.77
227.464	-21.67
227.682	72.53
227.9	56.15
228.117	-7.34
228.335	80.72
228.553	0.85
228.771	-9.39
228.989	23.38
229.206	19.29
229.424	-7.34
229.642	41.81
229.86	-54.44
230.077	88.92
230.295	35.67
230.513	62.29
230.731	-17.58
230.948	-7.34
231.166	25.43
231.384	11.09
231.601	99.16
231.819	-38.06
232.037	39.76
232.254	47.96
232.472	-17.58
232.689	11.09
232.907	-19.63
233.125	-5.29
233.342	-29.87
233.56	-17.58
233.777	13.14
233.995	31.57
234.213	7
234.43	17.24
234.648	50
234.865	-3.24
235.083	56.15
235.3	-46.25
235.518	23.38
235.735	4.95
235.953	68.44
236.17	-48.3
236.388	-3.24
236.605	43.86
236.822	-54.44
237.04	52.05
237.257	19.29
237.475	11.09
237.692	-7.34
237.909	35.67
238.127	-7.34
238.344	52.05
238.562	23.38
238.779	15.19
238.996	-38.06
239.214	-44.2
239.431	9.05
239.648	72.53
239.865	15.19
240.083	-7.34
240.3	13.14
240.517	-66.73
240.735	60.24
240.952	23.38
241.169	43.86
241.386	7
241.603	-3.24
241.821	-64.68
242.038	72.53
242.255	23.38
242.472	-15.53
242.689	23.38
242.907	25.43
243.124	31.57
243.341	82.77
243.558	7
243.775	-7.34
243.992	-21.67
244.209	-50.35
244.426	4.95
244.643	27.48
244.86	-62.63
245.078	-13.48
245.295	11.09
245.512	23.38
245.729	29.52
245.946	19.29
246.163	4.95
246.38	15.19
246.597	41.81
246.814	39.76
247.031	23.38
247.248	41.81
247.464	41.81
247.681	-7.34
247.898	-9.39
248.115	-17.58
248.332	17.24
248.549	74.58
248.766	7
248.983	-29.87
249.2	17.24
249.417	-27.82
249.633	-11.43
249.85	11.09
250.067	-31.91
250.284	-44.2
250.501	-21.67
250.717	117.59
250.934	-15.53
251.151	-17.58
251.368	-17.58
251.585	-1.19
251.801	0.85
252.018	33.62
252.235	-25.77
252.451	-23.72
252.668	19.29
252.885	2.9
253.102	-70.83
253.318	-1.19
253.535	-33.96
253.752	-9.39
253.968	33.62
254.185	-5.29
254.401	37.72
254.618	39.76
254.835	33.62
255.051	-62.63
255.268	-42.15
255.484	-25.77
255.701	17.24
255.917	-21.67
256.134	-36.01
256.351	72.53
256.567	-13.48
256.784	41.81
257	-21.67
257.217	37.72
257.433	88.92
257.65	11.09
257.866	-46.25
258.082	78.68
258.299	-7.34
258.515	-25.77
258.732	-3.24
258.948	29.52
259.165	11.09
259.381	52.05
259.597	23.38
259.814	-29.87
260.03	13.14
260.246	39.76
260.463	56.15
260.679	15.19
260.895	-19.63
261.112	25.43
261.328	31.57
261.544	31.57
261.761	15.19
261.977	39.76
262.193	-15.53
262.409	17.24
262.626	23.38
262.842	19.29
263.058	41.81
263.274	31.57
263.49	56.15
263.707	-3.24
263.923	-42.15
264.139	29.52
264.355	-29.87
264.571	86.87
264.787	41.81
265.004	19.29
265.22	25.43
265.436	66.39
265.652	0.85
265.868	-36.01
266.084	-3.24
266.3	7
266.516	64.34
266.732	35.67
266.948	35.67
267.164	66.39
267.38	-50.35
267.596	68.44
267.812	80.72
268.028	23.38
268.244	11.09
268.46	11.09
268.676	25.43
268.892	-7.34
269.108	58.2
269.324	-9.39
269.54	29.52
269.756	7
269.972	-17.58
270.188	-1.19
270.403	-38.06
270.619	31.57
270.835	41.81
271.051	-60.59
271.267	9.05
271.483	31.57
271.698	72.53
271.914	41.81
272.13	-25.77
272.346	-17.58
272.562	-29.87
272.777	33.62
272.993	-36.01
273.209	-7.34
273.425	31.57
273.64	-19.63
273.856	-46.25
274.072	23.38
274.287	-33.96
274.503	-21.67
274.719	93.01
274.934	33.62
275.15	56.15
275.366	-23.72
275.581	35.67
275.797	39.76
276.012	-48.3
276.228	-15.53
276.444	45.91
276.659	72.53
276.875	76.63
277.09	21.33
277.306	-66.73
277.521	9.05
277.737	-9.39
277.952	-7.34
278.168	35.67
278.383	56.15
278.599	-9.39
278.814	-40.11
279.03	23.38
279.245	39.76
279.461	-25.77
279.676	80.72
279.892	17.24
280.107	25.43
280.322	25.43
280.538	31.57
280.753	50
280.969	56.15
281.184	15.19
281.399	82.77
281.615	-91.31
281.83	17.24
282.045	9.05
282.26	95.06
282.476	43.86
282.691	-40.11
282.906	7
283.122	4.95
283.337	25.43
283.552	-7.34
283.767	9.05
283.983	-74.92
284.198	-38.06
284.413	17.24
284.628	-25.77
284.843	33.62
285.058	-13.48
285.274	41.81
285.489	21.33
285.704	-62.63
285.919	64.34
286.134	19.29
286.349	21.33
286.564	41.81
286.779	31.57
286.995	21.33
287.21	33.62
287.425	-1.19
287.64	35.67
287.855	58.2
288.07	-31.91
288.285	39.76
288.5	25.43
288.715	15.19
288.93	-11.43
289.145	2.9
289.36	-21.67
289.575	-46.25
289.79	11.09
290.004	29.52
290.219	-13.48
290.434	43.86
290.649	41.81
290.864	43.86
291.079	25.43
291.294	31.57
291.509	29.52
291.724	0.85
291.938	33.62
292.153	31.57
292.368	43.86
292.583	-1.19
292.798	13.14
293.012	56.15
293.227	45.91
293.442	19.29
293.657	15.19
293.871	-9.39
294.086	43.86
294.301	15.19
294.516	21.33
294.73	7
294.945	-42.15
295.16	0.85
295.374	17.24
295.589	-9.39
295.804	47.96
296.018	29.52
296.233	-3.24
296.447	23.38
296.662	-17.58
296.877	25.43
297.091	-7.34
297.306	15.19
297.52	-3.24
297.735	-62.63
297.949	56.15
298.164	-11.43
298.378	9.05
298.593	-42.15
298.807	43.86
299.022	0.85
299.236	-42.15
299.451	19.29
299.665	15.19
299.88	-3.24
300.094	23.38
300.309	17.24
300.523	-21.67
300.737	56.15
300.952	37.72
301.166	15.19
301.381	19.29
301.595	-62.63
301.809	-58.54
302.024	39.76
302.238	-62.63
302.452	58.2
302.667	64.34
302.881	103.25
303.095	21.33
303.309	80.72
303.524	-7.34
303.738	15.19
303.952	-15.53
304.166	27.48
304.381	-13.48
304.595	25.43
304.809	13.14
305.023	41.81
305.237	25.43
305.452	17.24
305.666	25.43
305.88	37.72
306.094	68.44
306.308	9.05
306.522	-25.77
306.736	2.9
306.95	31.57
307.164	37.72
307.379	-21.67
307.593	-15.53
307.807	27.48
308.021	64.34
308.235	-7.34
308.449	50
308.663	11.09
308.877	11.09
309.091	2.9
309.305	50
309.519	-21.67
309.733	56.15
309.947	56.15
310.161	52.05
310.374	31.57
310.588	-11.43
310.802	58.2
311.016	9.05
311.23	80.72
311.444	-7.34
311.658	-23.72
311.872	29.52
312.085	23.38
312.299	56.15
312.513	-11.43
312.727	-70.83
312.941	4.95
313.154	60.24
313.368	19.29
313.582	-44.2
313.796	84.82
314.009	-40.11
314.223	-13.48
314.437	-19.63
314.651	2.9
314.864	-36.01
315.078	-40.11
315.292	9.05
315.505	19.29
315.719	17.24
315.933	-5.29
316.146	58.2
316.36	-23.72
316.573	-13.48
316.787	7
317.001	43.86
317.214	52.05
317.428	111.44
317.641	21.33
317.855	9.05
318.068	-9.39
318.282	35.67
318.495	27.48
318.709	33.62
318.922	50
319.136	21.33
319.349	-13.48
319.563	-27.82
319.776	68.44
319.99	88.92
320.203	82.77
320.417	21.33
320.63	-17.58
320.843	43.86
321.057	33.62
321.27	58.2
321.483	-7.34
321.697	25.43
321.91	11.09
322.124	21.33
322.337	-13.48
322.55	4.95
322.763	15.19
322.977	-17.58
323.19	7
323.403	68.44
323.617	25.43
323.83	52.05
324.043	-23.72
324.256	25.43
324.469	45.91
324.683	64.34
324.896	-11.43
325.109	56.15
325.322	35.67
325.535	64.34
325.748	31.57
325.962	-31.91
326.175	-13.48
326.388	-1.19
326.601	62.29
326.814	43.86
327.027	-21.67
327.24	78.68
327.453	80.72
327.666	72.53
327.879	39.76
328.092	54.1
328.305	-23.72
328.518	25.43
328.731	52.05
328.944	-27.82
329.157	25.43
329.37	72.53
329.583	25.43
329.796	45.91
330.009	37.72
330.222	25.43
330.435	50
330.648	31.57
330.861	-19.63
331.073	-23.72
331.286	7
331.499	43.86
331.712	11.09
331.925	-23.72
332.138	17.24
332.35	95.06
332.563	35.67
332.776	-33.96
332.989	62.29
333.202	-3.24
333.414	25.43
333.627	-23.72
333.84	19.29
334.053	62.29
334.265	-9.39
334.478	-17.58
334.691	-13.48
334.903	9.05
335.116	-7.34
335.329	9.05
335.541	74.58
335.754	64.34
335.966	11.09
336.179	-15.53
336.392	41.81
336.604	-5.29
336.817	21.33
337.029	13.14
337.242	136.02
337.454	39.76
337.667	52.05
337.88	74.58
338.092	15.19
338.305	-1.19
338.517	-15.53
338.729	39.76
338.942	-1.19
339.154	2.9
339.367	-9.39
339.579	-1.19
339.792	-15.53
340.004	4.95
340.217	9.05
340.429	-25.77
340.641	84.82
340.854	31.57
341.066	17.24
341.278	0.85
341.491	39.76
341.703	23.38
341.915	-1.19
342.128	62.29
342.34	25.43
342.552	43.86
342.764	29.52
342.977	9.05
343.189	-15.53
343.401	-13.48
343.613	56.15
343.826	-27.82
344.038	7
344.25	15.19
344.462	25.43
344.674	23.38
344.886	-38.06
345.099	9.05
345.311	-1.19
345.523	39.76
345.735	9.05
345.947	45.91
346.159	4.95
346.371	45.91
346.583	-17.58
346.795	7
347.007	7
347.219	31.57
347.431	-23.72
347.643	-23.72
347.855	-29.87
348.067	-7.34
348.279	9.05
348.491	-1.19
348.703	-5.29
348.915	-58.54
349.127	-13.48
349.339	-36.01
349.551	-52.39
349.763	7
349.975	56.15
350.187	58.2
350.399	-21.67
350.61	15.19
350.822	-38.06
351.034	7
351.246	37.72
351.458	15.19
351.669	37.72
351.881	64.34
352.093	23.38
352.305	47.96
352.517	15.19
352.728	-25.77
352.94	107.35
353.152	31.57
353.363	58.2
353.575	66.39
353.787	37.72
353.999	41.81
354.21	-36.01
354.422	41.81
354.633	23.38
354.845	23.38
355.057	56.15
355.268	37.72
355.48	31.57
355.692	-60.59
355.903	23.38
356.115	2.9
356.326	-11.43
356.538	9.05
356.749	-15.53
356.961	60.24
357.172	-29.87
357.384	21.33
357.595	86.87
357.807	27.48
358.018	19.29
358.23	9.05
358.441	66.39
358.653	21.33
358.864	-29.87
359.075	-21.67
359.287	19.29
359.498	35.67
359.709	35.67
359.921	78.68
360.132	-13.48
360.344	9.05
360.555	-5.29
360.766	-7.34
360.977	17.24
361.189	29.52
361.4	23.38
361.611	17.24
361.823	70.48
362.034	13.14
362.245	-1.19
362.456	11.09
362.667	-21.67
362.879	2.9
363.09	45.91
363.301	9.05
363.512	7
363.723	23.38
363.935	90.96
364.146	47.96
364.357	23.38
364.568	-9.39
364.779	72.53
364.99	4.95
365.201	0.85
365.412	4.95
365.623	-9.39
365.834	66.39
366.045	17.24
366.256	7
366.467	-85.16
366.678	29.52
366.889	-31.91
367.1	-13.48
367.311	70.48
367.522	39.76
367.733	2.9
367.944	43.86
368.155	15.19
368.366	39.76
368.577	11.09
368.788	-3.24
368.999	-62.63
369.209	9.05
369.42	66.39
369.631	-7.34
369.842	2.9
370.053	50
370.264	-15.53
370.474	4.95
370.685	27.48
370.896	-13.48
371.107	4.95
371.317	43.86
371.528	-1.19
371.739	19.29
371.95	17.24
372.16	60.24
372.371	-25.77
372.582	-17.58
372.792	-17.58
373.003	39.76
373.214	-58.54
373.424	88.92
373.635	-5.29
373.846	2.9
374.056	33.62
374.267	19.29
374.477	60.24
374.688	39.76
374.898	43.86
375.109	62.29
375.319	101.2
375.53	41.81
375.74	-15.53
375.951	43.86
376.161	43.86
376.372	41.81
376.582	64.34
376.793	7
377.003	-44.2
377.214	56.15
377.424	-7.34
377.635	35.67
377.845	76.63
378.055	17.24
378.266	15.19
378.476	-50.35
378.686	80.72
378.897	-5.29
379.107	-3.24
379.317	27.48
379.528	-1.19
379.738	125.78
379.948	-42.15
380.158	23.38
380.369	68.44
380.579	-19.63
380.789	64.34
380.999	60.24
381.21	23.38
381.42	25.43
381.63	25.43
381.84	23.38
382.05	72.53
382.261	43.86
382.471	27.48
382.681	7
382.891	27.48
383.101	54.1
383.311	56.15
383.521	68.44
383.731	-25.77
383.941	52.05
384.151	15.19
384.361	50
384.571	15.19
384.781	78.68
384.991	56.15
385.201	23.38
385.411	0.85
385.621	25.43
385.831	-25.77
386.041	54.1
386.251	-93.35
386.461	23.38
386.671	7
386.881	-21.67
387.091	56.15
387.301	88.92
387.511	-25.77
387.72	39.76
387.93	45.91
388.14	-25.77
388.35	7
388.56	27.48
388.769	9.05
388.979	2.9
389.189	39.76
389.399	9.05
389.609	23.38
389.818	39.76
390.028	35.67
390.238	29.52
390.447	52.05
390.657	41.81
390.867	-42.15
391.076	-21.67
391.286	7
391.496	-17.58
391.705	-23.72
391.915	121.68
392.125	72.53
392.334	64.34
392.544	25.43
392.753	99.16
392.963	31.57
393.172	13.14
393.382	21.33
393.591	33.62
393.801	50
394.01	39.76
394.22	54.1
394.429	15.19
394.639	60.24
394.848	70.48
395.058	50
395.267	47.96
395.477	23.38
395.686	56.15
395.895	66.39
396.105	-33.96
396.314	2.9
396.524	95.06
396.733	35.67
396.942	76.63
397.152	33.62
397.361	88.92
397.57	72.53
397.78	27.48
397.989	19.29
398.198	0.85
398.407	99.16
398.617	113.49
398.826	93.01
399.035	88.92
399.244	-3.24
399.453	90.96
399.663	-15.53
399.872	17.24
400.081	31.57
400.29	37.72
400.499	-7.34
400.708	72.53
400.917	27.48
401.127	66.39
401.336	27.48
401.545	99.16
401.754	-17.58
401.963	-13.48
402.172	56.15
402.381	62.29
402.59	29.52
402.799	33.62
403.008	2.9
403.217	68.44
403.426	35.67
403.635	93.01
403.844	27.48
404.053	23.38
404.262	78.68
404.471	43.86
404.68	39.76
404.888	60.24
405.097	50
405.306	105.3
405.515	142.16
405.724	105.3
405.933	88.92
406.142	90.96
406.35	52.05
406.559	84.82
406.768	-3.24
406.977	80.72
407.185	64.34
407.394	109.4
407.603	86.87
407.812	117.59
408.02	105.3
408.229	74.58
408.438	33.62
408.646	121.68
408.855	99.16
409.064	101.2
409.272	99.16
409.481	162.64
409.69	76.63
409.898	54.1
410.107	158.55
410.315	170.83
410.524	140.12
410.733	115.54
410.941	97.11
411.15	162.64
411.358	181.07
411.567	164.69
411.775	181.07
411.984	238.42
412.192	201.55
412.401	211.79
412.609	187.22
412.818	211.79
413.026	252.75
413.234	199.51
413.443	199.51
413.651	150.36
413.86	246.61
414.068	265.04
414.276	248.66
414.485	267.09
414.693	238.42
414.901	281.43
415.11	291.66
415.318	277.33
415.526	301.9
415.734	291.66
415.943	326.48
416.151	338.77
416.359	318.29
416.567	441.17
416.776	363.34
416.984	361.3
417.192	394.06
417.4	447.31
417.608	357.2
417.817	443.21
418.025	420.69
418.233	439.12
418.441	514.89
418.649	492.37
418.857	541.52
419.065	570.19
419.273	533.33
419.481	590.67
419.689	635.72
419.897	605
420.105	637.77
420.313	764.75
420.521	729.93
420.729	703.31
420.937	670.54
421.145	766.79
421.353	748.36
421.561	830.28
421.769	846.66
421.977	865.1
422.185	803.66
422.393	856.9
422.601	967.49
422.809	836.42
423.017	893.77
423.224	1016.65
423.432	1041.22
423.64	1131.33
423.848	1166.15
424.056	1125.19
424.263	1239.87
424.471	1219.39
424.679	1215.3
424.887	1293.12
425.094	1305.41
425.302	1428.29
425.51	1401.66
425.718	1409.86
425.925	1442.62
426.133	1538.88
426.341	1549.12
426.548	1700.67
426.756	1655.61
426.964	1727.29
427.171	1729.34
427.379	1772.35
427.586	1936.18
427.794	1952.57
428.001	1956.66
428.209	2116.41
428.417	2005.81
428.624	2140.98
428.832	2220.85
429.039	2126.64
429.247	2161.46
429.454	2454.32
429.662	2442.03
429.869	2409.26
430.076	2536.24
430.284	2564.91
430.491	2571.05
430.699	2663.21
430.906	2730.8
431.114	2808.62
431.321	2908.97
431.528	3001.13
431.736	3083.05
431.943	3279.65
432.15	2994.98
432.358	3226.4
432.565	3375.91
432.772	3324.71
432.979	3461.92
433.187	3580.7
433.394	3623.71
433.601	3801.88
433.808	3949.34
434.016	3810.08
434.223	3959.58
434.43	4393.75
434.637	4203.29
434.844	4414.23
435.052	4522.77
435.259	4422.42
435.466	4596.5
435.673	4455.19
435.88	4762.38
436.087	4963.08
436.294	5008.14
436.501	4967.18
436.708	4961.03
436.915	5257.99
437.122	5337.86
437.329	5313.28
437.537	5591.81
437.743	5704.45
437.95	5581.57
438.157	5899
438.364	6068.98
438.571	6060.79
438.778	6195.96
438.985	6693.62
439.192	6456.05
439.399	6556.4
439.606	6677.23
439.813	6888.17
440.02	7340.77
440.227	7090.92
440.433	7256.81
440.64	7221.99
440.847	7279.33
441.054	7445.22
441.261	8043.23
441.467	7838.43
441.674	7942.88
441.881	8159.96
442.088	8258.26
442.294	8231.64
442.501	8501.97
442.708	8637.14
442.914	8843.98
443.121	9403.08
443.328	9052.88
443.534	9816.77
443.741	9489.09
443.948	9464.52
444.154	10056.38
444.361	9982.65
444.568	9925.31
444.774	10095.29
444.981	10246.84
445.187	10529.46
445.394	10754.74
445.6	10855.09
445.807	11877.02
446.013	11350.7
446.22	11535.01
446.426	12141.21
446.633	12333.72
446.839	12526.23
447.046	11997.85
447.252	12765.84
447.459	12788.37
447.665	12901.01
447.871	13167.24
448.078	13824.64
448.284	13134.48
448.491	13445.77
448.697	14170.75
448.903	14570.1
449.11	14623.35
449.316	14252.67
449.522	14486.14
449.728	14965.36
449.935	15045.23
450.141	15121.01
450.347	15293.04
450.553	14934.64
450.76	15104.62
450.966	15649.38
451.172	15415.91
451.378	15911.52
451.584	15475.31
451.791	16046.69
451.997	15946.34
452.203	16380.51
452.409	16018.02
452.615	15878.76
452.821	15405.67
453.027	15303.28
453.233	16188
453.44	15342.19
453.646	15575.66
453.852	15784.55
454.058	16050.78
454.264	15510.12
454.47	15731.3
454.676	15549.03
454.882	16013.92
455.088	14813.81
455.294	15034.99
455.5	15045.23
455.705	15426.15
455.911	14502.52
456.117	14551.67
456.323	13976.19
456.529	13435.53
456.735	14056.06
456.941	13765.25
457.147	13517.45
457.352	13128.33
457.558	13120.14
457.764	12927.63
457.97	12616.34
458.176	12270.23
458.381	12501.65
458.587	12065.44
458.793	11899.55
458.999	11268.78
459.204	12165.79
459.41	11578.02
459.616	10988.21
459.821	10834.61
460.027	10883.76
460.233	10660.53
460.438	10033.85
460.644	10300.09
460.85	9802.43
461.055	9738.94
461.261	9779.9
461.466	8862.41
461.672	8641.23
461.878	9374.41
462.083	8819.41
462.289	8510.16
462.494	8303.32
462.7	8059.61
462.905	7828.19
463.111	8211.16
463.316	8030.94
463.522	8012.51
463.727	7998.17
463.932	7928.54
464.138	7856.86
464.343	8127.19
464.549	7713.5
464.754	7957.21
464.959	7848.67
465.165	7850.72
465.37	7682.78
465.575	7187.18
465.781	7627.49
465.986	7637.73
466.191	7289.57
466.397	7080.68
466.602	6890.22
466.807	7252.71
467.012	7342.82
467.218	7019.24
467.423	7121.64
467.628	7101.16
467.833	7449.32
468.038	7127.78
468.244	6746.86
468.449	7166.7
468.654	6941.42
468.859	6830.83
469.064	6966
469.269	6630.13
469.474	6920.94
469.679	6710
469.885	6537.97
470.09	6556.4
