Data from USB4F104151__66__12-59-28-743.txt Node

Date: Fri Mar 14 12:59:28 EDT 2025
User: louis
Spectrometer: USB4F10415
Trigger mode: 4
Integration Time (sec): 1.000000E-2
Scans to average: 1
Electric dark correction enabled: true
Nonlinearity correction enabled: false
Boxcar width: 0
XAxis mode: Wavelengths
Number of Pixels in Spectrum: 3648
>>>>>Begin Spectral Data<<<<<
178.204	-91.13
178.424	-91.13
178.644	-91.13
178.864	-87.04
179.084	-60.42
179.304	-23.55
179.524	-15.36
179.744	17.41
179.964	23.55
180.184	19.46
180.404	-15.36
180.624	17.41
180.844	9.22
181.064	-21.5
181.283	31.74
181.503	5.12
181.723	-48.13
181.943	-97.28
182.163	17.41
182.383	-44.03
182.602	-66.56
182.822	13.31
183.042	-3.07
183.262	-3.07
183.482	19.46
183.701	58.37
183.921	-5.12
184.141	50.18
184.361	39.94
184.58	-9.22
184.8	-33.79
185.02	-68.61
185.239	52.22
185.459	-19.46
185.679	-1.02
185.898	9.22
186.118	33.79
186.338	-33.79
186.557	101.37
186.777	5.12
186.997	-19.46
187.216	17.41
187.436	-13.31
187.655	9.22
187.875	3.07
188.095	68.61
188.314	113.66
188.534	5.12
188.753	-9.22
188.973	25.6
189.192	23.55
189.412	-5.12
189.631	9.22
189.851	29.7
190.07	50.18
190.29	-3.07
190.509	19.46
190.729	17.41
190.948	50.18
191.168	-13.31
191.387	84.99
191.607	9.22
191.826	60.42
192.045	-44.03
192.265	31.74
192.484	-11.26
192.704	29.7
192.923	-15.36
193.142	64.51
193.362	-3.07
193.581	1.02
193.8	-15.36
194.02	41.98
194.239	-9.22
194.458	-7.17
194.678	48.13
194.897	-37.89
195.116	-23.55
195.335	-62.46
195.555	84.99
195.774	70.65
195.993	50.18
196.212	93.18
196.432	-39.94
196.651	-60.42
196.87	-39.94
197.089	50.18
197.308	19.46
197.528	-25.6
197.747	-13.31
197.966	-17.41
198.185	78.85
198.404	9.22
198.623	3.07
198.842	17.41
199.062	-19.46
199.281	87.04
199.5	5.12
199.719	-41.98
199.938	39.94
200.157	74.75
200.376	-11.26
200.595	-35.84
200.814	-50.18
201.033	-87.04
201.252	95.23
201.471	17.41
201.69	-46.08
201.909	46.08
202.128	-35.84
202.347	23.55
202.566	33.79
202.785	39.94
203.004	74.75
203.223	46.08
203.442	72.7
203.661	-27.65
203.879	15.36
204.098	21.5
204.317	-23.55
204.536	7.17
204.755	-9.22
204.974	-44.03
205.193	-13.31
205.411	-39.94
205.63	-3.07
205.849	-31.74
206.068	78.85
206.287	-44.03
206.505	-54.27
206.724	17.41
206.943	74.75
207.162	-1.02
207.381	3.07
207.599	-27.65
207.818	21.5
208.037	-19.46
208.255	5.12
208.474	33.79
208.693	1.02
208.911	25.6
209.13	33.79
209.349	27.65
209.567	31.74
209.786	35.84
210.005	-15.36
210.223	-39.94
210.442	15.36
210.661	1.02
210.879	3.07
211.098	-41.98
211.316	-5.12
211.535	52.22
211.753	-68.61
211.972	62.46
212.191	25.6
212.409	-11.26
212.628	15.36
212.846	25.6
213.065	39.94
213.283	-44.03
213.502	21.5
213.72	62.46
213.938	11.26
214.157	25.6
214.375	-19.46
214.594	5.12
214.812	37.89
215.031	3.07
215.249	3.07
215.467	-23.55
215.686	72.7
215.904	-11.26
216.122	-64.51
216.341	37.89
216.559	62.46
216.778	-25.6
216.996	41.98
217.214	-31.74
217.432	-27.65
217.651	-17.41
217.869	-1.02
218.087	-25.6
218.306	37.89
218.524	-25.6
218.742	27.65
218.96	-7.17
219.179	-33.79
219.397	-15.36
219.615	-54.27
219.833	41.98
220.051	3.07
220.27	56.32
220.488	56.32
220.706	50.18
220.924	-35.84
221.142	21.5
221.36	46.08
221.578	-31.74
221.796	64.51
222.015	70.65
222.233	5.12
222.451	84.99
222.669	56.32
222.887	-15.36
223.105	21.5
223.323	19.46
223.541	-41.98
223.759	41.98
223.977	-35.84
224.195	15.36
224.413	-17.41
224.631	5.12
224.849	78.85
225.067	7.17
225.285	-46.08
225.503	29.7
225.721	5.12
225.939	13.31
226.157	-9.22
226.375	62.46
226.592	-48.13
226.81	-5.12
227.028	-23.55
227.246	50.18
227.464	44.03
227.682	13.31
227.9	35.84
228.117	9.22
228.335	1.02
228.553	-13.31
228.771	-15.36
228.989	66.56
229.206	62.46
229.424	19.46
229.642	-13.31
229.86	15.36
230.077	1.02
230.295	80.89
230.513	-56.32
230.731	78.85
230.948	23.55
231.166	23.55
231.384	29.7
231.601	1.02
231.819	-23.55
232.037	19.46
232.254	25.6
232.472	70.65
232.689	-89.09
232.907	-25.6
233.125	-19.46
233.342	-15.36
233.56	-25.6
233.777	11.26
233.995	-35.84
234.213	13.31
234.43	-31.74
234.648	-13.31
234.865	44.03
235.083	31.74
235.3	-82.94
235.518	-13.31
235.735	-13.31
235.953	5.12
236.17	50.18
236.388	37.89
236.605	-78.85
236.822	-19.46
237.04	54.27
237.257	-50.18
237.475	3.07
237.692	-58.37
237.909	84.99
238.127	-39.94
238.344	-35.84
238.562	-19.46
238.779	-33.79
238.996	1.02
239.214	72.7
239.431	62.46
239.648	-31.74
239.865	11.26
240.083	64.51
240.3	3.07
240.517	-7.17
240.735	-27.65
240.952	-41.98
241.169	-58.37
241.386	123.9
241.603	48.13
241.821	1.02
242.038	-9.22
242.255	7.17
242.472	54.27
242.689	3.07
242.907	66.56
243.124	13.31
243.341	72.7
243.558	11.26
243.775	-3.07
243.992	-21.5
244.209	-82.94
244.426	76.8
244.643	33.79
244.86	-41.98
245.078	7.17
245.295	-15.36
245.512	25.6
245.729	-3.07
245.946	-13.31
246.163	5.12
246.38	5.12
246.597	-3.07
246.814	15.36
247.031	62.46
247.248	54.27
247.464	15.36
247.681	52.22
247.898	13.31
248.115	11.26
248.332	35.84
248.549	25.6
248.766	-74.75
248.983	-50.18
249.2	15.36
249.417	41.98
249.633	-23.55
249.85	74.75
250.067	25.6
250.284	-72.7
250.501	29.7
250.717	39.94
250.934	29.7
251.151	-21.5
251.368	39.94
251.585	-25.6
251.801	9.22
252.018	29.7
252.235	39.94
252.451	13.31
252.668	52.22
252.885	1.02
253.102	-31.74
253.318	-27.65
253.535	25.6
253.752	74.75
253.968	5.12
254.185	5.12
254.401	17.41
254.618	9.22
254.835	-17.41
255.051	-48.13
255.268	60.42
255.484	-21.5
255.701	-5.12
255.917	50.18
256.134	-44.03
256.351	-50.18
256.567	-33.79
256.784	21.5
257	7.17
257.217	-58.37
257.433	15.36
257.65	19.46
257.866	5.12
258.082	5.12
258.299	33.79
258.515	39.94
258.732	44.03
258.948	1.02
259.165	-3.07
259.381	15.36
259.597	-7.17
259.814	-9.22
260.03	-41.98
260.246	5.12
260.463	13.31
260.679	39.94
260.895	-13.31
261.112	56.32
261.328	23.55
261.544	9.22
261.761	72.7
261.977	5.12
262.193	66.56
262.409	15.36
262.626	44.03
262.842	25.6
263.058	-17.41
263.274	78.85
263.49	11.26
263.707	-7.17
263.923	-23.55
264.139	-29.7
264.355	17.41
264.571	-1.02
264.787	1.02
265.004	1.02
265.22	56.32
265.436	37.89
265.652	-15.36
265.868	-9.22
266.084	-1.02
266.3	37.89
266.516	-11.26
266.732	-44.03
266.948	-11.26
267.164	15.36
267.38	-48.13
267.596	-62.46
267.812	-9.22
268.028	52.22
268.244	-46.08
268.46	-3.07
268.676	29.7
268.892	33.79
269.108	-31.74
269.324	35.84
269.54	9.22
269.756	-50.18
269.972	9.22
270.188	78.85
270.403	-21.5
270.619	58.37
270.835	-5.12
271.051	-23.55
271.267	-23.55
271.483	-31.74
271.698	70.65
271.914	-23.55
272.13	-17.41
272.346	21.5
272.562	13.31
272.777	60.42
272.993	19.46
273.209	-19.46
273.425	29.7
273.64	-64.51
273.856	19.46
274.072	56.32
274.287	-25.6
274.503	72.7
274.719	-19.46
274.934	23.55
275.15	56.32
275.366	-15.36
275.581	3.07
275.797	60.42
276.012	19.46
276.228	17.41
276.444	37.89
276.659	7.17
276.875	25.6
277.09	44.03
277.306	29.7
277.521	21.5
277.737	17.41
277.952	19.46
278.168	3.07
278.383	-7.17
278.599	-54.27
278.814	11.26
279.03	7.17
279.245	15.36
279.461	-9.22
279.676	1.02
279.892	-1.02
280.107	7.17
280.322	66.56
280.538	7.17
280.753	-44.03
280.969	11.26
281.184	25.6
281.399	37.89
281.615	39.94
281.83	7.17
282.045	-33.79
282.26	66.56
282.476	27.65
282.691	52.22
282.906	-23.55
283.122	-3.07
283.337	11.26
283.552	17.41
283.767	-39.94
283.983	7.17
284.198	-29.7
284.413	-68.61
284.628	46.08
284.843	56.32
285.058	31.74
285.274	-11.26
285.489	-13.31
285.704	-7.17
285.919	15.36
286.134	97.28
286.349	23.55
286.564	23.55
286.779	-3.07
286.995	33.79
287.21	-11.26
287.425	62.46
287.64	31.74
287.855	-21.5
288.07	-54.27
288.285	-5.12
288.5	21.5
288.715	74.75
288.93	-50.18
289.145	-64.51
289.36	7.17
289.575	9.22
289.79	37.89
290.004	97.28
290.219	1.02
290.434	-3.07
290.649	25.6
290.864	-7.17
291.079	64.51
291.294	29.7
291.509	-52.22
291.724	-15.36
291.938	15.36
292.153	70.65
292.368	-1.02
292.583	-27.65
292.798	-3.07
293.012	-15.36
293.227	-15.36
293.442	-1.02
293.657	66.56
293.871	13.31
294.086	35.84
294.301	21.5
294.516	-13.31
294.73	19.46
294.945	-15.36
295.16	23.55
295.374	11.26
295.589	41.98
295.804	-21.5
296.018	-3.07
296.233	41.98
296.447	-41.98
296.662	9.22
296.877	1.02
297.091	21.5
297.306	89.09
297.52	70.65
297.735	50.18
297.949	37.89
298.164	44.03
298.378	-52.22
298.593	-33.79
298.807	17.41
299.022	-15.36
299.236	-74.75
299.451	-44.03
299.665	15.36
299.88	58.37
300.094	27.65
300.309	17.41
300.523	-9.22
300.737	-3.07
300.952	-29.7
301.166	46.08
301.381	95.23
301.595	23.55
301.809	3.07
302.024	-44.03
302.238	-5.12
302.452	62.46
302.667	-11.26
302.881	13.31
303.095	80.89
303.309	50.18
303.524	29.7
303.738	27.65
303.952	-3.07
304.166	-33.79
304.381	-5.12
304.595	48.13
304.809	25.6
305.023	15.36
305.237	-44.03
305.452	56.32
305.666	23.55
305.88	-15.36
306.094	60.42
306.308	13.31
306.522	13.31
306.736	23.55
306.95	25.6
307.164	46.08
307.379	-15.36
307.593	39.94
307.807	87.04
308.021	-31.74
308.235	25.6
308.449	-48.13
308.663	-27.65
308.877	35.84
309.091	3.07
309.305	33.79
309.519	9.22
309.733	50.18
309.947	50.18
310.161	50.18
310.374	89.09
310.588	-3.07
310.802	64.51
311.016	60.42
311.23	-68.61
311.444	-35.84
311.658	-80.89
311.872	3.07
312.085	50.18
312.299	-19.46
312.513	74.75
312.727	-23.55
312.941	-91.13
313.154	62.46
313.368	78.85
313.582	13.31
313.796	-9.22
314.009	25.6
314.223	58.37
314.437	11.26
314.651	50.18
314.864	-11.26
315.078	39.94
315.292	-7.17
315.505	66.56
315.719	50.18
315.933	13.31
316.146	48.13
316.36	-9.22
316.573	5.12
316.787	-7.17
317.001	-1.02
317.214	3.07
317.428	-15.36
317.641	11.26
317.855	25.6
318.068	-27.65
318.282	66.56
318.495	11.26
318.709	35.84
318.922	-35.84
319.136	29.7
319.349	19.46
319.563	31.74
319.776	9.22
319.99	29.7
320.203	21.5
320.417	-66.56
320.63	-89.09
320.843	46.08
321.057	-19.46
321.27	39.94
321.483	17.41
321.697	27.65
321.91	64.51
322.124	-46.08
322.337	-19.46
322.55	41.98
322.763	-23.55
322.977	-11.26
323.19	31.74
323.403	41.98
323.617	17.41
323.83	13.31
324.043	15.36
324.256	21.5
324.469	-3.07
324.683	23.55
324.896	66.56
325.109	-17.41
325.322	23.55
325.535	-64.51
325.748	97.28
325.962	1.02
326.175	56.32
326.388	-9.22
326.601	-15.36
326.814	-19.46
327.027	37.89
327.24	17.41
327.453	-54.27
327.666	33.79
327.879	54.27
328.092	13.31
328.305	44.03
328.518	-7.17
328.731	-15.36
328.944	-52.22
329.157	-44.03
329.37	-21.5
329.583	39.94
329.796	-44.03
330.009	58.37
330.222	52.22
330.435	19.46
330.648	33.79
330.861	-56.32
331.073	66.56
331.286	58.37
331.499	13.31
331.712	-46.08
331.925	44.03
332.138	62.46
332.35	78.85
332.563	5.12
332.776	29.7
332.989	35.84
333.202	-19.46
333.414	15.36
333.627	56.32
333.84	37.89
334.053	-11.26
334.265	33.79
334.478	15.36
334.691	-25.6
334.903	7.17
335.116	-3.07
335.329	13.31
335.541	87.04
335.754	78.85
335.966	33.79
336.179	29.7
336.392	5.12
336.604	33.79
336.817	23.55
337.029	44.03
337.242	-35.84
337.454	17.41
337.667	37.89
337.88	-31.74
338.092	54.27
338.305	82.94
338.517	1.02
338.729	3.07
338.942	21.5
339.154	-9.22
339.367	23.55
339.579	-33.79
339.792	-21.5
340.004	25.6
340.217	27.65
340.429	37.89
340.641	-21.5
340.854	29.7
341.066	41.98
341.278	64.51
341.491	-5.12
341.703	23.55
341.915	56.32
342.128	7.17
342.34	-50.18
342.552	29.7
342.764	62.46
342.977	9.22
343.189	27.65
343.401	76.8
343.613	5.12
343.826	76.8
344.038	-60.42
344.25	41.98
344.462	82.94
344.674	97.28
344.886	-56.32
345.099	37.89
345.311	29.7
345.523	-5.12
345.735	70.65
345.947	25.6
346.159	-19.46
346.371	-21.5
346.583	9.22
346.795	-25.6
347.007	19.46
347.219	64.51
347.431	31.74
347.643	78.85
347.855	41.98
348.067	46.08
348.279	66.56
348.491	80.89
348.703	52.22
348.915	-7.17
349.127	-48.13
349.339	29.7
349.551	25.6
349.763	33.79
349.975	25.6
350.187	15.36
350.399	60.42
350.61	82.94
350.822	11.26
351.034	78.85
351.246	27.65
351.458	39.94
351.669	44.03
351.881	41.98
352.093	21.5
352.305	70.65
352.517	37.89
352.728	31.74
352.94	78.85
353.152	68.61
353.363	-27.65
353.575	89.09
353.787	-3.07
353.999	54.27
354.21	-13.31
354.422	-25.6
354.633	13.31
354.845	-11.26
355.057	46.08
355.268	27.65
355.48	11.26
355.692	25.6
355.903	46.08
356.115	44.03
356.326	25.6
356.538	44.03
356.749	-33.79
356.961	128
357.172	-33.79
357.384	-41.98
357.595	21.5
357.807	46.08
358.018	37.89
358.23	-9.22
358.441	1.02
358.653	-13.31
358.864	-5.12
359.075	48.13
359.287	27.65
359.498	33.79
359.709	115.71
359.921	35.84
360.132	33.79
360.344	35.84
360.555	58.37
360.766	56.32
360.977	44.03
361.189	48.13
361.4	-33.79
361.611	64.51
361.823	29.7
362.034	54.27
362.245	70.65
362.456	50.18
362.667	3.07
362.879	-1.02
363.09	17.41
363.301	-48.13
363.512	-15.36
363.723	25.6
363.935	33.79
364.146	21.5
364.357	46.08
364.568	87.04
364.779	50.18
364.99	-17.41
365.201	-13.31
365.412	13.31
365.623	82.94
365.834	80.89
366.045	-19.46
366.256	62.46
366.467	9.22
366.678	66.56
366.889	15.36
367.1	-19.46
367.311	41.98
367.522	3.07
367.733	46.08
367.944	9.22
368.155	56.32
368.366	19.46
368.577	7.17
368.788	48.13
368.999	21.5
369.209	33.79
369.42	41.98
369.631	58.37
369.842	11.26
370.053	-3.07
370.264	-48.13
370.474	76.8
370.685	-58.37
370.896	23.55
371.107	-11.26
371.317	140.29
371.528	21.5
371.739	29.7
371.95	19.46
372.16	44.03
372.371	62.46
372.582	56.32
372.792	54.27
373.003	5.12
373.214	-60.42
373.424	31.74
373.635	37.89
373.846	9.22
374.056	9.22
374.267	52.22
374.477	-44.03
374.688	54.27
374.898	80.89
375.109	44.03
375.319	74.75
375.53	93.18
375.74	13.31
375.951	82.94
376.161	-5.12
376.372	97.28
376.582	23.55
376.793	17.41
377.003	99.33
377.214	44.03
377.424	62.46
377.635	44.03
377.845	64.51
378.055	128
378.266	-27.65
378.476	29.7
378.686	58.37
378.897	46.08
379.107	68.61
379.317	54.27
379.528	64.51
379.738	111.61
379.948	27.65
380.158	17.41
380.369	58.37
380.579	-33.79
380.789	64.51
380.999	76.8
381.21	74.75
381.42	31.74
381.63	-23.55
381.84	-9.22
382.05	50.18
382.261	29.7
382.471	56.32
382.681	54.27
382.891	84.99
383.101	-9.22
383.311	-25.6
383.521	70.65
383.731	9.22
383.941	27.65
384.151	46.08
384.361	-9.22
384.571	39.94
384.781	76.8
384.991	-9.22
385.201	78.85
385.411	13.31
385.621	128
385.831	56.32
386.041	15.36
386.251	13.31
386.461	25.6
386.671	3.07
386.881	50.18
387.091	5.12
387.301	9.22
387.511	-17.41
387.72	-44.03
387.93	21.5
388.14	5.12
388.35	25.6
388.56	64.51
388.769	11.26
388.979	23.55
389.189	17.41
389.399	15.36
389.609	74.75
389.818	62.46
390.028	62.46
390.238	39.94
390.447	-11.26
390.657	21.5
390.867	39.94
391.076	21.5
391.286	66.56
391.496	39.94
391.705	39.94
391.915	33.79
392.125	27.65
392.334	62.46
392.544	70.65
392.753	50.18
392.963	39.94
393.172	-7.17
393.382	35.84
393.591	31.74
393.801	1.02
394.01	25.6
394.22	3.07
394.429	60.42
394.639	62.46
394.848	-17.41
395.058	46.08
395.267	64.51
395.477	72.7
395.686	46.08
395.895	66.56
396.105	50.18
396.314	60.42
396.524	80.89
396.733	19.46
396.942	37.89
397.152	60.42
397.361	60.42
397.57	7.17
397.78	3.07
397.989	29.7
398.198	64.51
398.407	80.89
398.617	15.36
398.826	113.66
399.035	64.51
399.244	82.94
399.453	46.08
399.663	97.28
399.872	11.26
400.081	123.9
400.29	33.79
400.499	74.75
400.708	76.8
400.917	54.27
401.127	62.46
401.336	72.7
401.545	78.85
401.754	25.6
401.963	95.23
402.172	74.75
402.381	113.66
402.59	-9.22
402.799	119.81
403.008	97.28
403.217	35.84
403.426	60.42
403.635	56.32
403.844	25.6
404.053	103.42
404.262	17.41
404.471	60.42
404.68	66.56
404.888	31.74
405.097	128
405.306	80.89
405.515	72.7
405.724	105.47
405.933	80.89
406.142	87.04
406.35	7.17
406.559	211.96
406.768	113.66
406.977	107.52
407.185	105.47
407.394	89.09
407.603	109.57
407.812	95.23
408.02	115.71
408.229	144.38
408.438	234.49
408.646	154.62
408.855	197.63
409.064	150.53
409.272	177.15
409.481	177.15
409.69	121.85
409.898	193.53
410.107	130.05
410.315	218.11
410.524	234.49
410.733	193.53
410.941	142.33
411.15	248.83
411.358	254.97
411.567	203.77
411.775	232.44
411.984	181.25
412.192	275.45
412.401	224.25
412.609	281.6
412.818	285.69
413.026	300.03
413.234	230.4
413.443	275.45
413.651	287.74
413.86	361.47
414.068	277.5
414.276	261.12
414.485	363.51
414.693	367.61
414.901	449.53
415.11	439.29
415.318	427
415.526	396.28
415.734	435.19
415.943	472.06
416.151	510.97
416.359	553.98
416.567	525.3
416.776	488.44
416.984	639.99
417.192	484.34
417.4	549.88
417.608	568.31
417.817	488.44
418.025	660.47
418.233	611.32
418.441	703.48
418.649	672.76
418.857	721.91
419.065	758.77
419.273	738.29
419.481	820.21
419.689	801.78
419.897	895.99
420.105	867.31
420.313	766.96
420.521	902.13
420.729	881.65
420.937	932.85
421.145	1078.26
421.353	1059.82
421.561	1201.13
421.769	1065.97
421.977	1162.22
422.185	1127.41
422.393	1178.61
422.601	1375.21
422.809	1332.2
423.017	1334.25
423.224	1397.74
423.432	1444.84
423.64	1426.41
423.848	1592.3
424.056	1532.9
424.263	1586.15
424.471	1643.49
424.679	1721.32
424.887	1823.72
425.094	1811.43
425.302	1831.91
425.51	1883.11
425.718	1965.03
425.925	2046.94
426.133	2122.72
426.341	2200.54
426.548	2288.61
426.756	2309.08
426.964	2300.89
427.171	2438.11
427.379	2487.26
427.586	2403.29
427.794	2595.8
428.001	2769.88
428.209	2771.93
428.417	2833.36
428.624	2915.28
428.832	3054.55
429.039	2962.39
429.247	3036.11
429.454	3202
429.662	3443.66
429.869	3316.69
430.076	3486.67
430.284	3367.88
430.491	3541.96
430.699	3673.03
430.906	3597.26
431.114	3736.52
431.321	4049.86
431.528	4074.43
431.736	4162.5
431.943	4350.91
432.15	4230.08
432.358	4582.33
432.565	4590.52
432.772	4651.96
432.979	4897.72
433.187	5022.64
433.394	4985.78
433.601	5231.54
433.808	5288.88
434.016	5276.59
434.223	5358.51
434.43	6036.39
434.637	5731.24
434.844	5944.23
435.052	6187.94
435.259	6157.22
435.466	6376.35
435.673	6257.57
435.88	6511.52
436.087	6953.88
436.294	6945.69
436.501	6890.39
436.708	6927.25
436.915	7130
437.122	7351.18
437.329	7412.62
437.537	7580.56
437.743	7789.45
437.95	7639.95
438.157	7938.95
438.364	8280.96
438.571	8524.67
438.778	8252.29
438.985	9182.07
439.192	8868.73
439.399	9241.46
439.606	8870.78
439.813	9378.67
440.02	9999.21
440.227	9845.61
440.433	9816.94
440.64	10074.98
440.847	10144.61
441.054	10163.04
441.261	10681.18
441.467	10879.83
441.674	11213.65
441.881	11547.47
442.088	11379.54
442.294	11299.67
442.501	11879.24
442.708	11860.81
442.914	12360.52
443.121	12825.4
443.328	12518.21
443.534	13517.62
443.741	13042.49
443.948	12993.34
444.154	13790
444.361	13751.09
444.568	13476.66
444.774	13878.06
444.981	14279.46
445.187	14545.7
445.394	15008.54
445.6	14920.48
445.807	16388.87
446.013	15725.33
446.22	16057.1
446.426	16460.55
446.633	16683.78
446.839	17386.23
447.046	16448.26
447.252	17591.03
447.459	17748.72
447.665	17523.44
447.871	18299.62
448.078	19276.51
448.284	18346.73
448.491	19059.42
448.697	19409.62
448.903	20331.21
449.11	20249.29
449.316	19849.94
449.522	20085.45
449.728	20775.62
449.935	20697.8
450.141	20744.9
450.347	21502.65
450.553	20609.73
450.76	21138.11
450.966	21566.13
451.172	21267.13
451.378	21895.86
451.584	21676.73
451.791	22061.74
451.997	22010.54
452.203	22387.37
452.409	22317.74
452.615	22377.13
452.821	21430.97
453.027	21193.4
453.233	22567.59
453.44	21584.57
453.646	21963.44
453.852	21836.47
454.058	22330.03
454.264	21738.16
454.47	22319.79
454.676	21721.78
454.882	22485.67
455.088	20681.41
455.294	20921.02
455.5	21056.19
455.705	21574.33
455.911	20224.72
456.117	20308.68
456.323	20046.54
456.529	18787.04
456.735	19432.15
456.941	18895.58
457.147	18887.39
457.352	18428.65
457.558	18193.13
457.764	18146.03
457.97	17842.93
458.176	17507.06
458.381	17281.78
458.587	16509.7
458.793	16636.67
458.999	15686.42
459.204	16917.25
459.41	16456.45
459.616	15184.66
459.821	15340.31
460.027	15307.54
460.233	15043.35
460.438	14187.3
460.644	14306.09
460.85	13685.55
461.055	13390.64
461.261	13441.84
461.466	12133.19
461.672	12272.45
461.878	12935.99
462.083	12217.16
462.289	11846.48
462.494	11776.84
462.7	11195.22
462.905	10910.55
463.111	11268.95
463.316	11361.11
463.522	11019.1
463.727	11273.04
463.932	11101.01
464.138	11053.91
464.343	11150.17
464.549	10707.8
464.754	11019.1
464.959	10992.47
465.165	11082.58
465.37	10484.58
465.575	10169.19
465.781	10451.81
465.986	10666.85
466.191	10253.16
466.397	10042.21
466.602	9753.45
466.807	10060.65
467.012	9763.69
467.218	9958.25
467.423	9773.93
467.628	9937.77
467.833	9995.11
468.038	9839.47
468.244	9581.42
468.449	10011.5
468.654	9536.37
