Data from USB4F104151__23__12-58-38-419.txt Node

Date: Fri Mar 14 12:58:38 EDT 2025
User: louis
Spectrometer: USB4F10415
Trigger mode: 4
Integration Time (sec): 1.000000E-2
Scans to average: 1
Electric dark correction enabled: true
Nonlinearity correction enabled: false
Boxcar width: 0
XAxis mode: Wavelengths
Number of Pixels in Spectrum: 3648
>>>>>Begin Spectral Data<<<<<
178.204	-49.15
178.424	-49.15
178.644	-49.15
178.864	12.29
179.084	-34.82
179.304	40.96
179.524	18.43
179.744	57.34
179.964	0
180.184	-22.53
180.404	-26.62
180.624	-45.06
180.844	-47.1
181.064	-18.43
181.283	6.14
181.503	-2.05
181.723	38.91
181.943	30.72
182.163	8.19
182.383	-36.86
182.602	-8.19
182.822	0
183.042	-18.43
183.262	-73.73
183.482	57.34
183.701	-38.91
183.921	0
184.141	40.96
184.361	-22.53
184.58	0
184.8	49.15
185.02	-51.2
185.239	14.34
185.459	-43.01
185.679	-34.82
185.898	-36.86
186.118	108.54
186.338	32.77
186.557	22.53
186.777	12.29
186.997	49.15
187.216	-8.19
187.436	26.62
187.655	10.24
187.875	28.67
188.095	-8.19
188.314	-4.1
188.534	65.53
188.753	-24.58
188.973	22.53
189.192	30.72
189.412	-24.58
189.631	24.58
189.851	22.53
190.07	-18.43
190.29	-63.49
190.509	28.67
190.729	-4.1
190.948	59.39
191.168	-6.14
191.387	0
191.607	32.77
191.826	30.72
192.045	67.58
192.265	71.68
192.484	40.96
192.704	20.48
192.923	6.14
193.142	-6.14
193.362	16.38
193.581	-32.77
193.8	14.34
194.02	6.14
194.239	36.86
194.458	38.91
194.678	30.72
194.897	32.77
195.116	49.15
195.335	-16.38
195.555	26.62
195.774	6.14
195.993	8.19
196.212	2.05
196.432	0
196.651	-38.91
196.87	-63.49
197.089	49.15
197.308	-8.19
197.528	40.96
197.747	-40.96
197.966	-24.58
198.185	14.34
198.404	-65.54
198.623	32.77
198.842	43.01
199.062	28.67
199.281	16.38
199.5	-22.53
199.719	-6.14
199.938	57.34
200.157	38.91
200.376	-14.34
200.595	51.2
200.814	6.14
201.033	-4.1
201.252	10.24
201.471	75.77
201.69	36.86
201.909	24.58
202.128	-12.29
202.347	-6.14
202.566	4.1
202.785	36.86
203.004	47.1
203.223	-30.72
203.442	-28.67
203.661	-63.49
203.879	6.14
204.098	-2.05
204.317	-34.82
204.536	47.1
204.755	-18.43
204.974	-26.62
205.193	12.29
205.411	30.72
205.63	-34.82
205.849	40.96
206.068	32.77
206.287	-16.38
206.505	43.01
206.724	2.05
206.943	63.49
207.162	77.82
207.381	4.1
207.599	14.34
207.818	40.96
208.037	-8.19
208.255	-26.62
208.474	-22.53
208.693	6.14
208.911	43.01
209.13	38.91
209.349	47.1
209.567	28.67
209.786	6.14
210.005	8.19
210.223	88.06
210.442	30.72
210.661	16.38
210.879	20.48
211.098	55.3
211.316	47.1
211.535	32.77
211.753	36.86
211.972	-16.38
212.191	-34.82
212.409	67.58
212.628	18.43
212.846	65.53
213.065	14.34
213.283	69.63
213.502	-24.58
213.72	22.53
213.938	18.43
214.157	86.01
214.375	-34.82
214.594	40.96
214.812	67.58
215.031	4.1
215.249	24.58
215.467	6.14
215.686	73.73
215.904	38.91
216.122	4.1
216.341	6.14
216.559	6.14
216.778	8.19
216.996	6.14
217.214	14.34
217.432	-40.96
217.651	45.06
217.869	-2.05
218.087	47.1
218.306	12.29
218.524	10.24
218.742	0
218.96	86.01
219.179	32.77
219.397	-34.82
219.615	18.43
219.833	67.58
220.051	-40.96
220.27	18.43
220.488	2.05
220.706	24.58
220.924	24.58
221.142	55.3
221.36	16.38
221.578	6.14
221.796	51.2
222.015	-16.38
222.233	96.25
222.451	65.53
222.669	4.1
222.887	71.68
223.105	-59.39
223.323	61.44
223.541	-36.86
223.759	-8.19
223.977	-6.14
224.195	-20.48
224.413	32.77
224.631	-2.05
224.849	-6.14
225.067	59.39
225.285	49.15
225.503	32.77
225.721	-16.38
225.939	47.1
226.157	-22.53
226.375	49.15
226.592	12.29
226.81	34.82
227.028	53.25
227.246	63.49
227.464	14.34
227.682	36.86
227.9	108.54
228.117	0
228.335	38.91
228.553	-12.29
228.771	-22.53
228.989	83.97
229.206	49.15
229.424	0
229.642	-4.1
229.86	-18.43
230.077	73.73
230.295	40.96
230.513	55.3
230.731	2.05
230.948	88.06
231.166	-4.1
231.384	-24.58
231.601	32.77
231.819	43.01
232.037	-32.77
232.254	53.25
232.472	51.2
232.689	-36.86
232.907	45.06
233.125	-69.63
233.342	38.91
233.56	45.06
233.777	22.53
233.995	8.19
234.213	4.1
234.43	2.05
234.648	-59.39
234.865	10.24
235.083	10.24
235.3	-65.54
235.518	-20.48
235.735	-12.29
235.953	4.1
236.17	-28.67
236.388	-30.72
236.605	-26.62
236.822	22.53
237.04	40.96
237.257	34.82
237.475	-8.19
237.692	32.77
237.909	61.44
238.127	81.92
238.344	12.29
238.562	18.43
238.779	-20.48
238.996	47.1
239.214	34.82
239.431	-2.05
239.648	-43.01
239.865	12.29
240.083	-8.19
240.3	-16.38
240.517	63.49
240.735	51.2
240.952	14.34
241.169	30.72
241.386	32.77
241.603	102.4
241.821	-28.67
242.038	-22.53
242.255	90.11
242.472	36.86
242.689	77.82
242.907	16.38
243.124	14.34
243.341	-4.1
243.558	65.53
243.775	57.34
243.992	22.53
244.209	-22.53
244.426	71.68
244.643	-12.29
244.86	8.19
245.078	12.29
245.295	59.39
245.512	-18.43
245.729	22.53
245.946	-4.1
246.163	38.91
246.38	32.77
246.597	57.34
246.814	53.25
247.031	51.2
247.248	8.19
247.464	24.58
247.681	55.3
247.898	-40.96
248.115	47.1
248.332	18.43
248.549	10.24
248.766	18.43
248.983	22.53
249.2	-32.77
249.417	55.3
249.633	-65.54
249.85	-6.14
250.067	14.34
250.284	4.1
250.501	22.53
250.717	49.15
250.934	-10.24
251.151	26.62
251.368	-10.24
251.585	38.91
251.801	-38.91
252.018	30.72
252.235	-8.19
252.451	49.15
252.668	45.06
252.885	6.14
253.102	22.53
253.318	40.96
253.535	6.14
253.752	-24.58
253.968	65.53
254.185	49.15
254.401	16.38
254.618	90.11
254.835	-32.77
255.051	-2.05
255.268	34.82
255.484	40.96
255.701	-6.14
255.917	67.58
256.134	26.62
256.351	-45.06
256.567	14.34
256.784	18.43
257	28.67
257.217	-4.1
257.433	26.62
257.65	22.53
257.866	14.34
258.082	-30.72
258.299	83.97
258.515	73.73
258.732	-6.14
258.948	61.44
259.165	-2.05
259.381	-22.53
259.597	-24.58
259.814	14.34
260.03	16.38
260.246	12.29
260.463	14.34
260.679	43.01
260.895	14.34
261.112	57.34
261.328	49.15
261.544	30.72
261.761	81.92
261.977	94.21
262.193	8.19
262.409	24.58
262.626	-8.19
262.842	-12.29
263.058	-24.58
263.274	-12.29
263.49	-4.1
263.707	6.14
263.923	45.06
264.139	49.15
264.355	34.82
264.571	30.72
264.787	-8.19
265.004	-36.86
265.22	-8.19
265.436	2.05
265.652	22.53
265.868	0
266.084	2.05
266.3	28.67
266.516	8.19
266.732	106.49
266.948	36.86
267.164	30.72
267.38	0
267.596	43.01
267.812	61.44
268.028	71.68
268.244	-53.25
268.46	38.91
268.676	110.59
268.892	-8.19
269.108	22.53
269.324	10.24
269.54	14.34
269.756	8.19
269.972	22.53
270.188	57.34
270.403	51.2
270.619	38.91
270.835	38.91
271.051	-12.29
271.267	-40.96
271.483	-10.24
271.698	116.73
271.914	34.82
272.13	-16.38
272.346	47.1
272.562	59.39
272.777	79.87
272.993	-36.86
273.209	22.53
273.425	-53.25
273.64	43.01
273.856	-2.05
274.072	-10.24
274.287	-36.86
274.503	26.62
274.719	-38.91
274.934	71.68
275.15	10.24
275.366	12.29
275.581	-4.1
275.797	8.19
276.012	-10.24
276.228	43.01
276.444	-4.1
276.659	55.3
276.875	-8.19
277.09	-18.43
277.306	53.25
277.521	38.91
277.737	22.53
277.952	16.38
278.168	2.05
278.383	30.72
278.599	51.2
278.814	8.19
279.03	0
279.245	53.25
279.461	-26.62
279.676	-16.38
279.892	36.86
280.107	-4.1
280.322	69.63
280.538	8.19
280.753	18.43
280.969	116.73
281.184	47.1
281.399	45.06
281.615	0
281.83	24.58
282.045	14.34
282.26	-51.2
282.476	40.96
282.691	8.19
282.906	24.58
283.122	26.62
283.337	-51.2
283.552	2.05
283.767	32.77
283.983	10.24
284.198	26.62
284.413	22.53
284.628	-61.44
284.843	-57.34
285.058	59.39
285.274	-6.14
285.489	-24.58
285.704	49.15
285.919	47.1
286.134	38.91
286.349	6.14
286.564	-16.38
286.779	45.06
286.995	0
287.21	-6.14
287.425	47.1
287.64	63.49
287.855	14.34
288.07	-40.96
288.285	32.77
288.5	16.38
288.715	32.77
288.93	-14.34
289.145	20.48
289.36	55.3
289.575	61.44
289.79	-4.1
290.004	-30.72
290.219	79.87
290.434	51.2
290.649	22.53
290.864	-38.91
291.079	45.06
291.294	30.72
291.509	-18.43
291.724	10.24
291.938	12.29
292.153	47.1
292.368	36.86
292.583	6.14
292.798	-4.1
293.012	-8.19
293.227	61.44
293.442	81.92
293.657	18.43
293.871	40.96
294.086	2.05
294.301	26.62
294.516	67.58
294.73	0
294.945	-65.54
295.16	14.34
295.374	51.2
295.589	8.19
295.804	0
296.018	-10.24
296.233	22.53
296.447	57.34
296.662	26.62
296.877	83.97
297.091	-18.43
297.306	-43.01
297.52	14.34
297.735	34.82
297.949	43.01
298.164	2.05
298.378	22.53
298.593	20.48
298.807	-4.1
299.022	28.67
299.236	-34.82
299.451	-2.05
299.665	45.06
299.88	-57.34
300.094	14.34
300.309	-34.82
300.523	8.19
300.737	-92.16
300.952	4.1
301.166	16.38
301.381	131.07
301.595	32.77
301.809	32.77
302.024	-30.72
302.238	-16.38
302.452	47.1
302.667	-32.77
302.881	20.48
303.095	-26.62
303.309	6.14
303.524	-24.58
303.738	36.86
303.952	40.96
304.166	63.49
304.381	-47.1
304.595	77.82
304.809	16.38
305.023	49.15
305.237	16.38
305.452	20.48
305.666	-69.63
305.88	67.58
306.094	-14.34
306.308	59.39
306.522	-22.53
306.736	32.77
306.95	24.58
307.164	96.25
307.379	-20.48
307.593	57.34
307.807	26.62
308.021	43.01
308.235	71.68
308.449	-2.05
308.663	-26.62
308.877	45.06
309.091	36.86
309.305	26.62
309.519	102.4
309.733	55.3
309.947	-69.63
310.161	32.77
310.374	-12.29
310.588	67.58
310.802	-30.72
311.016	81.92
311.23	10.24
311.444	22.53
311.658	-2.05
311.872	79.87
312.085	63.49
312.299	43.01
312.513	47.1
312.727	-16.38
312.941	4.1
313.154	0
313.368	20.48
313.582	63.49
313.796	49.15
314.009	61.44
314.223	59.39
314.437	34.82
314.651	-6.14
314.864	43.01
315.078	-38.91
315.292	32.77
315.505	73.73
315.719	43.01
315.933	59.39
316.146	137.21
316.36	22.53
316.573	169.98
316.787	32.77
317.001	-30.72
317.214	-22.53
317.428	10.24
317.641	30.72
317.855	-12.29
318.068	40.96
318.282	18.43
318.495	38.91
318.709	65.53
318.922	-12.29
319.136	26.62
319.349	0
319.563	22.53
319.776	-30.72
319.99	51.2
320.203	98.3
320.417	75.77
320.63	90.11
320.843	2.05
321.057	47.1
321.27	24.58
321.483	20.48
321.697	47.1
321.91	32.77
322.124	32.77
322.337	49.15
322.55	24.58
322.763	47.1
322.977	20.48
323.19	6.14
323.403	12.29
323.617	24.58
323.83	-6.14
324.043	32.77
324.256	-16.38
324.469	57.34
324.683	-40.96
324.896	67.58
325.109	32.77
325.322	-8.19
325.535	-14.34
325.748	63.49
325.962	-43.01
326.175	6.14
326.388	-18.43
326.601	16.38
326.814	-2.05
327.027	-2.05
327.24	110.59
327.453	61.44
327.666	-43.01
327.879	6.14
328.092	36.86
328.305	51.2
328.518	55.3
328.731	55.3
328.944	6.14
329.157	28.67
329.37	-6.14
329.583	55.3
329.796	26.62
330.009	18.43
330.222	2.05
330.435	18.43
330.648	24.58
330.861	-34.82
331.073	51.2
331.286	36.86
331.499	-16.38
331.712	38.91
331.925	32.77
332.138	55.3
332.35	53.25
332.563	-12.29
332.776	30.72
332.989	-8.19
333.202	0
333.414	-18.43
333.627	59.39
333.84	0
334.053	61.44
334.265	38.91
334.478	10.24
334.691	49.15
334.903	55.3
335.116	-8.19
335.329	38.91
335.541	12.29
335.754	20.48
335.966	22.53
336.179	-18.43
336.392	-63.49
336.604	30.72
336.817	20.48
337.029	65.53
337.242	18.43
337.454	-26.62
337.667	75.77
337.88	53.25
338.092	49.15
338.305	124.93
338.517	32.77
338.729	40.96
338.942	-96.25
339.154	28.67
339.367	55.3
339.579	92.16
339.792	18.43
340.004	92.16
340.217	43.01
340.429	16.38
340.641	-18.43
340.854	38.91
341.066	2.05
341.278	57.34
341.491	79.87
341.703	14.34
341.915	26.62
342.128	8.19
342.34	30.72
342.552	10.24
342.764	14.34
342.977	20.48
343.189	4.1
343.401	-10.24
343.613	16.38
343.826	45.06
344.038	-32.77
344.25	34.82
344.462	-36.86
344.674	30.72
344.886	-32.77
345.099	-10.24
345.311	67.58
345.523	0
345.735	63.49
345.947	16.38
346.159	-6.14
346.371	26.62
346.583	-51.2
346.795	55.3
347.007	12.29
347.219	8.19
347.431	18.43
347.643	22.53
347.855	6.14
348.067	88.06
348.279	69.63
348.491	-16.38
348.703	-2.05
348.915	6.14
349.127	28.67
349.339	24.58
349.551	8.19
349.763	34.82
349.975	26.62
350.187	143.36
350.399	-16.38
350.61	-8.19
350.822	26.62
351.034	51.2
351.246	38.91
351.458	18.43
351.669	0
351.881	20.48
352.093	45.06
352.305	18.43
352.517	16.38
352.728	112.64
352.94	6.14
353.152	4.1
353.363	40.96
353.575	65.53
353.787	98.3
353.999	69.63
354.21	65.53
354.422	-22.53
354.633	36.86
354.845	49.15
355.057	61.44
355.268	6.14
355.48	61.44
355.692	53.25
355.903	43.01
356.115	30.72
356.326	24.58
356.538	57.34
356.749	77.82
356.961	-53.25
357.172	22.53
357.384	-2.05
357.595	-8.19
357.807	40.96
358.018	6.14
358.23	36.86
358.441	30.72
358.653	32.77
358.864	26.62
359.075	51.2
359.287	24.58
359.498	90.11
359.709	0
359.921	-36.86
360.132	24.58
360.344	34.82
360.555	-14.34
360.766	32.77
360.977	12.29
361.189	67.58
361.4	10.24
361.611	34.82
361.823	-16.38
362.034	0
362.245	-10.24
362.456	53.25
362.667	-28.67
362.879	38.91
363.09	30.72
363.301	61.44
363.512	30.72
363.723	16.38
363.935	6.14
364.146	71.68
364.357	8.19
364.568	63.49
364.779	67.58
364.99	22.53
365.201	53.25
365.412	14.34
365.623	-53.25
365.834	-34.82
366.045	18.43
366.256	8.19
366.467	12.29
366.678	77.82
366.889	38.91
367.1	22.53
367.311	18.43
367.522	16.38
367.733	49.15
367.944	55.3
368.155	32.77
368.366	2.05
368.577	59.39
368.788	63.49
368.999	-36.86
369.209	6.14
369.42	159.74
369.631	88.06
369.842	79.87
370.053	2.05
370.264	24.58
370.474	61.44
370.685	75.77
370.896	59.39
371.107	18.43
371.317	20.48
371.528	4.1
371.739	61.44
371.95	14.34
372.16	69.63
372.371	-12.29
372.582	22.53
372.792	-10.24
373.003	-18.43
373.214	30.72
373.424	63.49
373.635	14.34
373.846	-26.62
374.056	-43.01
374.267	12.29
374.477	55.3
374.688	40.96
374.898	20.48
375.109	71.68
375.319	43.01
375.53	43.01
375.74	24.58
375.951	24.58
376.161	2.05
376.372	51.2
376.582	32.77
376.793	65.53
377.003	108.54
377.214	53.25
377.424	32.77
377.635	14.34
377.845	30.72
378.055	-28.67
378.266	4.1
378.476	47.1
378.686	83.97
378.897	16.38
379.107	22.53
379.317	4.1
379.528	81.92
379.738	73.73
379.948	38.91
380.158	40.96
380.369	38.91
380.579	36.86
380.789	57.34
380.999	69.63
381.21	-36.86
381.42	67.58
381.63	18.43
381.84	32.77
382.05	47.1
382.261	49.15
382.471	75.77
382.681	47.1
382.891	22.53
383.101	-18.43
383.311	38.91
383.521	34.82
383.731	53.25
383.941	83.97
384.151	94.21
384.361	51.2
384.571	18.43
384.781	22.53
384.991	34.82
385.201	57.34
385.411	51.2
385.621	47.1
385.831	-12.29
386.041	69.63
386.251	-6.14
386.461	106.49
386.671	67.58
386.881	14.34
387.091	-32.77
387.301	2.05
387.511	2.05
387.72	51.2
387.93	49.15
388.14	40.96
388.35	65.53
388.56	49.15
388.769	-47.1
388.979	24.58
389.189	53.25
389.399	57.34
389.609	-20.48
389.818	90.11
390.028	-43.01
390.238	36.86
390.447	79.87
390.657	14.34
390.867	-26.62
391.076	38.91
391.286	-32.77
391.496	73.73
391.705	30.72
391.915	30.72
392.125	90.11
392.334	61.44
392.544	57.34
392.753	22.53
392.963	47.1
393.172	8.19
393.382	-16.38
393.591	61.44
393.801	73.73
394.01	51.2
394.22	22.53
394.429	63.49
394.639	-10.24
394.848	149.5
395.058	40.96
395.267	55.3
395.477	14.34
395.686	51.2
395.895	106.49
396.105	114.69
396.314	14.34
396.524	30.72
396.733	-12.29
396.942	71.68
397.152	77.82
397.361	26.62
397.57	30.72
397.78	34.82
397.989	36.86
398.198	67.58
398.407	90.11
398.617	88.06
398.826	61.44
399.035	59.39
399.244	137.21
399.453	108.54
399.663	43.01
399.872	38.91
400.081	83.97
400.29	75.77
400.499	55.3
400.708	57.34
400.917	51.2
401.127	40.96
401.336	88.06
401.545	73.73
401.754	69.63
401.963	131.07
402.172	67.58
402.381	24.58
402.59	22.53
402.799	40.96
403.008	40.96
403.217	14.34
403.426	73.73
403.635	90.11
403.844	55.3
404.053	75.77
404.262	98.3
404.471	133.12
404.68	6.14
404.888	8.19
405.097	96.25
405.306	137.21
405.515	71.68
405.724	77.82
405.933	172.03
406.142	149.5
406.35	118.78
406.559	102.4
406.768	40.96
406.977	75.77
407.185	151.55
407.394	94.21
407.603	71.68
407.812	86.01
408.02	149.5
408.229	137.21
408.438	116.73
408.646	174.08
408.855	124.93
409.064	182.27
409.272	131.07
409.481	194.56
409.69	180.22
409.898	219.13
410.107	163.84
410.315	192.51
410.524	188.41
410.733	229.37
410.941	143.36
411.15	221.18
411.358	245.76
411.567	243.71
411.775	260.09
411.984	196.61
412.192	182.27
412.401	251.9
412.609	229.37
412.818	268.28
413.026	288.76
413.234	272.38
413.443	315.39
413.651	292.86
413.86	339.96
414.068	348.15
414.276	389.11
414.485	282.62
414.693	374.78
414.901	362.49
415.11	434.17
415.318	511.99
415.526	458.74
415.734	360.44
415.943	448.51
416.151	428.03
416.359	503.8
416.567	495.61
416.776	450.55
416.984	561.14
417.192	536.57
417.4	573.43
417.608	557.05
417.817	612.34
418.025	550.9
418.233	698.36
418.441	630.77
418.649	739.32
418.857	735.22
419.065	673.78
419.273	790.52
419.481	763.89
419.689	831.48
419.897	882.67
420.105	841.72
420.313	892.91
420.521	917.49
420.729	980.98
420.937	940.02
421.145	1085.42
421.353	1062.9
421.561	1095.66
421.769	1097.71
421.977	1181.68
422.185	1142.77
422.393	1253.36
422.601	1417.19
422.809	1275.88
423.017	1353.71
423.224	1386.47
423.432	1456.11
423.64	1396.71
423.848	1535.98
424.056	1523.69
424.263	1597.42
424.471	1703.91
424.679	1685.48
424.887	1824.74
425.094	1771.49
425.302	1791.97
425.51	1865.7
425.718	1904.61
425.925	1951.71
426.133	2115.55
426.341	2127.84
426.548	2238.43
426.756	2123.74
426.964	2172.89
427.171	2445.27
427.379	2410.46
427.586	2529.24
427.794	2590.68
428.001	2789.33
428.209	2842.58
428.417	2711.51
428.624	2998.23
428.832	2889.68
429.039	3080.14
429.247	2951.12
429.454	3231.69
429.662	3479.5
429.869	3184.59
430.076	3432.4
430.284	3334.09
430.491	3463.12
430.699	3766.21
430.906	3704.78
431.114	3653.58
431.321	3923.91
431.528	4106.18
431.736	4243.39
431.943	4374.46
432.15	4229.06
432.358	4296.64
432.565	4657.08
432.772	4564.92
432.979	4825.01
433.187	4837.3
433.394	4827.06
433.601	5201.84
433.808	5382.06
434.016	5033.91
434.223	5353.39
434.43	5779.37
434.637	5619.63
434.844	5896.1
435.052	5957.54
435.259	6154.15
435.466	6166.43
435.673	6037.41
435.88	6395.81
436.087	6752.15
436.294	6850.46
436.501	6653.85
436.708	6655.9
436.915	7014.29
437.122	7214.99
437.329	7366.54
437.537	7628.68
437.743	7612.3
437.95	7430.03
438.157	8091.52
438.364	8206.21
438.571	8077.19
438.778	8296.32
438.985	9072.5
439.192	8771.45
439.399	8939.38
439.606	8796.03
439.813	9310.07
440.02	9981.8
440.227	9670.51
440.433	9621.36
440.64	9987.94
440.847	9910.12
441.054	10141.54
441.261	10839.9
441.467	10557.28
441.674	11042.65
441.881	11351.89
442.088	11257.68
442.294	11306.84
442.501	11478.86
442.708	11523.92
442.914	12246.85
443.121	12756.8
443.328	12429.12
443.534	13270.84
443.741	12744.51
443.948	12527.42
444.154	13774.64
444.361	13309.75
444.568	13856.56
444.774	13782.83
444.981	13973.29
445.187	14335.78
445.394	14700.32
445.6	14636.83
445.807	16054.03
446.013	15279.89
446.22	15802.13
446.426	16455.43
446.633	16420.61
446.839	16975.61
447.046	16447.24
447.252	17495.8
447.459	17544.95
447.665	17215.23
447.871	18126.57
448.078	18843.36
448.284	17950.45
448.491	18310.89
448.697	19418.84
448.903	19699.41
449.11	19551.96
449.316	19238.62
449.522	19680.98
449.728	20158.16
449.935	20471.5
450.141	20670.15
450.347	20885.19
450.553	20346.57
450.76	20422.34
450.966	21546.68
451.172	21126.85
451.378	21542.58
451.584	21257.92
451.791	21704.37
451.997	21714.61
452.203	21794.48
452.409	21995.18
452.615	22046.38
452.821	21141.18
453.027	20770.5
453.233	22333.1
453.44	21151.42
453.646	21485.24
453.852	21397.18
454.058	21808.82
454.264	21012.16
454.47	21753.52
454.676	21116.61
454.882	21878.45
455.088	19832.53
455.294	20215.5
455.5	20444.87
455.705	20803.27
455.911	19832.53
456.117	19611.35
456.323	19201.76
456.529	18507.49
456.735	19166.94
456.941	18591.46
457.147	18278.12
457.352	17745.65
457.558	17374.97
457.764	17811.18
457.97	17053.44
458.176	16928.51
458.381	17069.82
458.587	16000.78
458.793	16170.76
458.999	15279.89
459.204	16310.02
459.41	15996.68
459.616	14788.38
459.821	14821.15
460.027	14909.21
460.233	14384.93
460.438	13872.94
460.644	14001.96
460.85	13246.26
461.055	13080.38
461.261	13205.3
461.466	12113.74
461.672	11902.79
461.878	12873.53
462.083	11708.24
462.289	11626.32
462.494	11448.15
462.7	10780.51
462.905	10620.77
463.111	10979.16
463.316	11153.24
463.522	10862.43
463.727	10921.82
463.932	10958.68
464.138	10764.12
464.343	10616.67
464.549	10327.91
464.754	10698.59
464.959	10393.44
465.165	10598.24
465.37	10194.79
465.575	9789.29
465.781	10235.75
465.986	10323.81
466.191	9994.09
466.397	9668.46
466.602	9240.43
466.807	9533.29
467.012	9641.84
467.218	9709.42
467.423	9615.21
467.628	9488.24
467.833	9946.98
468.038	9455.47
468.244	9402.22
468.449	9787.24
468.654	9279.35
468.859	9351.03
469.064	9172.85
469.269	8873.85
469.474	8992.63
469.679	9230.2
469.885	8820.6
