Data from USB4F104151__34__12-58-53-787.txt Node

Date: Fri Mar 14 12:58:53 EDT 2025
User: louis
Spectrometer: USB4F10415
Trigger mode: 4
Integration Time (sec): 1.000000E-2
Scans to average: 1
Electric dark correction enabled: true
Nonlinearity correction enabled: false
Boxcar width: 0
XAxis mode: Wavelengths
Number of Pixels in Spectrum: 3648
>>>>>Begin Spectral Data<<<<<
178.204	37.03
178.424	37.03
178.644	37.03
178.864	-94.04
179.084	-77.65
179.304	51.37
179.524	65.71
179.744	-12.12
179.964	-20.31
180.184	-26.45
180.404	22.7
180.624	-48.98
180.844	20.65
181.064	20.65
181.283	-59.22
181.503	-10.07
181.723	-3.93
181.943	-8.02
182.163	51.37
182.383	30.89
182.602	55.47
182.822	51.37
183.042	24.75
183.262	61.61
183.482	-26.45
183.701	24.75
183.921	34.99
184.141	-30.55
184.361	-26.45
184.58	-12.12
184.8	34.99
185.02	-65.36
185.239	34.99
185.459	-55.12
185.679	4.27
185.898	6.31
186.118	63.66
186.338	-57.17
186.557	22.7
186.777	10.41
186.997	-3.93
187.216	10.41
187.436	75.95
187.655	2.22
187.875	-51.03
188.095	-30.55
188.314	53.42
188.534	-32.6
188.753	6.31
188.973	-65.36
189.192	34.99
189.412	-34.64
189.631	-22.36
189.851	24.75
190.07	30.89
190.29	8.36
190.509	47.27
190.729	26.79
190.948	-10.07
191.168	80.04
191.387	10.41
191.607	43.18
191.826	12.46
192.045	-8.02
192.265	-24.4
192.484	51.37
192.704	-30.55
192.923	-59.22
193.142	106.67
193.362	-61.27
193.581	26.79
193.8	-36.69
194.02	0.17
194.239	-5.97
194.458	-42.84
194.678	47.27
194.897	37.03
195.116	-14.17
195.335	-12.12
195.555	71.85
195.774	-1.88
195.993	-12.12
196.212	-40.79
196.432	-3.93
196.651	-5.97
196.87	8.36
197.089	20.65
197.308	-10.07
197.528	41.13
197.747	18.6
197.966	-24.4
198.185	6.31
198.404	2.22
198.623	-8.02
198.842	16.55
199.062	14.51
199.281	6.31
199.5	20.65
199.719	32.94
199.938	4.27
200.157	-12.12
200.376	24.75
200.595	80.04
200.814	73.9
201.033	-5.97
201.252	10.41
201.471	-30.55
201.69	20.65
201.909	41.13
202.128	8.36
202.347	14.51
202.566	51.37
202.785	-3.93
203.004	-40.79
203.223	16.55
203.442	-26.45
203.661	77.99
203.879	-46.93
204.098	59.56
204.317	-61.27
204.536	-18.26
204.755	22.7
204.974	22.7
205.193	-16.21
205.411	-16.21
205.63	-57.17
205.849	39.08
206.068	-40.79
206.287	73.9
206.505	-20.31
206.724	-16.21
206.943	-30.55
207.162	16.55
207.381	39.08
207.599	-63.32
207.818	-3.93
208.037	-38.74
208.255	75.95
208.474	39.08
208.693	-3.93
208.911	-5.97
209.13	-79.7
209.349	-16.21
209.567	57.51
209.786	6.31
210.005	-1.88
210.223	-40.79
210.442	-44.88
210.661	28.84
210.879	28.84
211.098	32.94
211.316	22.7
211.535	24.75
211.753	-44.88
211.972	2.22
212.191	69.8
212.409	10.41
212.628	-53.08
212.846	4.27
213.065	114.86
213.283	47.27
213.502	-59.22
213.72	-20.31
213.938	92.33
214.157	63.66
214.375	-1.88
214.594	30.89
214.812	55.47
215.031	-18.26
215.249	41.13
215.467	-44.88
215.686	-3.93
215.904	69.8
216.122	37.03
216.341	59.56
216.559	-16.21
216.778	-5.97
216.996	32.94
217.214	43.18
217.432	-36.69
217.651	-24.4
217.869	20.65
218.087	53.42
218.306	-53.08
218.524	28.84
218.742	8.36
218.96	-1.88
219.179	-26.45
219.397	41.13
219.615	39.08
219.833	-24.4
220.051	-16.21
220.27	41.13
220.488	-1.88
220.706	-79.7
220.924	0.17
221.142	75.95
221.36	-20.31
221.578	-51.03
221.796	-46.93
222.015	-36.69
222.233	24.75
222.451	-12.12
222.669	34.99
222.887	28.84
223.105	-24.4
223.323	-12.12
223.541	-26.45
223.759	18.6
223.977	-34.64
224.195	-32.6
224.413	43.18
224.631	53.42
224.849	-3.93
225.067	51.37
225.285	-18.26
225.503	26.79
225.721	-28.5
225.939	47.27
226.157	14.51
226.375	22.7
226.592	-16.21
226.81	14.51
227.028	18.6
227.246	82.09
227.464	-22.36
227.682	28.84
227.9	-1.88
228.117	14.51
228.335	2.22
228.553	4.27
228.771	28.84
228.989	-24.4
229.206	-40.79
229.424	34.99
229.642	30.89
229.86	-32.6
230.077	-5.97
230.295	4.27
230.513	41.13
230.731	53.42
230.948	-57.17
231.166	30.89
231.384	-57.17
231.601	45.23
231.819	2.22
232.037	24.75
232.254	-20.31
232.472	-22.36
232.689	-10.07
232.907	71.85
233.125	-3.93
233.342	-10.07
233.56	-44.88
233.777	20.65
233.995	-16.21
234.213	-42.84
234.43	-5.97
234.648	-42.84
234.865	24.75
235.083	39.08
235.3	67.75
235.518	-32.6
235.735	10.41
235.953	8.36
236.17	-14.17
236.388	53.42
236.605	24.75
236.822	16.55
237.04	6.31
237.257	-5.97
237.475	37.03
237.692	-26.45
237.909	34.99
238.127	-40.79
238.344	32.94
238.562	2.22
238.779	-8.02
238.996	-24.4
239.214	22.7
239.431	-3.93
239.648	-18.26
239.865	-14.17
240.083	39.08
240.3	-61.27
240.517	45.23
240.735	67.75
240.952	-32.6
241.169	61.61
241.386	-42.84
241.603	0.17
241.821	-18.26
242.038	26.79
242.255	39.08
242.472	10.41
242.689	116.9
242.907	24.75
243.124	14.51
243.341	-26.45
243.558	-48.98
243.775	28.84
243.992	106.67
244.209	14.51
244.426	-26.45
244.643	18.6
244.86	10.41
245.078	6.31
245.295	-18.26
245.512	10.41
245.729	-14.17
245.946	0.17
246.163	14.51
246.38	59.56
246.597	-44.88
246.814	43.18
247.031	12.46
247.248	4.27
247.464	22.7
247.681	-1.88
247.898	2.22
248.115	32.94
248.332	41.13
248.549	49.32
248.766	45.23
248.983	14.51
249.2	32.94
249.417	-5.97
249.633	2.22
249.85	22.7
250.067	10.41
250.284	-38.74
250.501	0.17
250.717	16.55
250.934	-5.97
251.151	80.04
251.368	-30.55
251.585	77.99
251.801	-5.97
252.018	16.55
252.235	-1.88
252.451	-28.5
252.668	20.65
252.885	26.79
253.102	10.41
253.318	-10.07
253.535	28.84
253.752	20.65
253.968	-57.17
254.185	34.99
254.401	-1.88
254.618	59.56
254.835	-40.79
255.051	-40.79
255.268	18.6
255.484	6.31
255.701	41.13
255.917	-30.55
256.134	12.46
256.351	10.41
256.567	61.61
256.784	-40.79
257	24.75
257.217	24.75
257.433	16.55
257.65	-24.4
257.866	0.17
258.082	63.66
258.299	-128.85
258.515	32.94
258.732	61.61
258.948	2.22
259.165	-36.69
259.381	-3.93
259.597	14.51
259.814	-48.98
260.03	-24.4
260.246	-10.07
260.463	24.75
260.679	-16.21
260.895	-16.21
261.112	-75.6
261.328	-57.17
261.544	-32.6
261.761	-1.88
261.977	2.22
262.193	2.22
262.409	10.41
262.626	4.27
262.842	28.84
263.058	-10.07
263.274	24.75
263.49	-24.4
263.707	20.65
263.923	59.56
264.139	-65.36
264.355	0.17
264.571	-44.88
264.787	45.23
265.004	-28.5
265.22	6.31
265.436	37.03
265.652	24.75
265.868	-24.4
266.084	67.75
266.3	94.38
266.516	-3.93
266.732	39.08
266.948	69.8
267.164	51.37
267.38	-3.93
267.596	-26.45
267.812	-42.84
268.028	69.8
268.244	-24.4
268.46	2.22
268.676	-59.22
268.892	69.8
269.108	4.27
269.324	8.36
269.54	-40.79
269.756	24.75
269.972	32.94
270.188	-18.26
270.403	51.37
270.619	41.13
270.835	6.31
271.051	67.75
271.267	-51.03
271.483	65.71
271.698	-10.07
271.914	-48.98
272.13	22.7
272.346	12.46
272.562	-83.8
272.777	18.6
272.993	-10.07
273.209	77.99
273.425	65.71
273.64	0.17
273.856	37.03
274.072	-3.93
274.287	-22.36
274.503	30.89
274.719	59.56
274.934	0.17
275.15	-44.88
275.366	32.94
275.581	-40.79
275.797	8.36
276.012	16.55
276.228	14.51
276.444	4.27
276.659	0.17
276.875	45.23
277.09	34.99
277.306	-32.6
277.521	18.6
277.737	-12.12
277.952	67.75
278.168	12.46
278.383	-34.64
278.599	43.18
278.814	16.55
279.03	-22.36
279.245	45.23
279.461	-24.4
279.676	4.27
279.892	0.17
280.107	41.13
280.322	14.51
280.538	-10.07
280.753	-8.02
280.969	82.09
281.184	61.61
281.399	37.03
281.615	22.7
281.83	8.36
282.045	-22.36
282.26	-3.93
282.476	-44.88
282.691	-20.31
282.906	18.6
283.122	77.99
283.337	18.6
283.552	-42.84
283.767	-32.6
283.983	45.23
284.198	6.31
284.413	16.55
284.628	30.89
284.843	22.7
285.058	80.04
285.274	-36.69
285.489	-67.41
285.704	10.41
285.919	57.51
286.134	-3.93
286.349	24.75
286.564	65.71
286.779	-12.12
286.995	12.46
287.21	-42.84
287.425	24.75
287.64	-75.6
287.855	-30.55
288.07	30.89
288.285	24.75
288.5	12.46
288.715	28.84
288.93	8.36
289.145	-20.31
289.36	-44.88
289.575	34.99
289.79	22.7
290.004	47.27
290.219	86.19
290.434	45.23
290.649	-1.88
290.864	-18.26
291.079	-10.07
291.294	28.84
291.509	37.03
291.724	-3.93
291.938	-8.02
292.153	-1.88
292.368	-40.79
292.583	6.31
292.798	55.47
293.012	12.46
293.227	-63.32
293.442	57.51
293.657	-22.36
293.871	10.41
294.086	0.17
294.301	-28.5
294.516	28.84
294.73	59.56
294.945	-28.5
295.16	55.47
295.374	-3.93
295.589	32.94
295.804	-1.88
296.018	49.32
296.233	-18.26
296.447	86.19
296.662	30.89
296.877	39.08
297.091	6.31
297.306	6.31
297.52	39.08
297.735	-28.5
297.949	-67.41
298.164	-40.79
298.378	86.19
298.593	6.31
298.807	10.41
299.022	43.18
299.236	-5.97
299.451	-32.6
299.665	43.18
299.88	-38.74
300.094	-46.93
300.309	0.17
300.523	24.75
300.737	32.94
300.952	47.27
301.166	57.51
301.381	8.36
301.595	24.75
301.809	8.36
302.024	47.27
302.238	4.27
302.452	-18.26
302.667	12.46
302.881	30.89
303.095	0.17
303.309	-22.36
303.524	-10.07
303.738	-38.74
303.952	18.6
304.166	20.65
304.381	24.75
304.595	73.9
304.809	-34.64
305.023	80.04
305.237	32.94
305.452	90.28
305.666	88.23
305.88	30.89
306.094	16.55
306.308	49.32
306.522	-22.36
306.736	-34.64
306.95	-3.93
307.164	-30.55
307.379	-26.45
307.593	90.28
307.807	-10.07
308.021	16.55
308.235	8.36
308.449	26.79
308.663	-12.12
308.877	59.56
309.091	-24.4
309.305	-10.07
309.519	18.6
309.733	65.71
309.947	28.84
310.161	-12.12
310.374	-12.12
310.588	65.71
310.802	-3.93
311.016	34.99
311.23	37.03
311.444	-63.32
311.658	-3.93
311.872	-22.36
312.085	-10.07
312.299	39.08
312.513	-30.55
312.727	8.36
312.941	26.79
313.154	30.89
313.368	4.27
313.582	4.27
313.796	-40.79
314.009	-44.88
314.223	10.41
314.437	8.36
314.651	-18.26
314.864	28.84
315.078	43.18
315.292	47.27
315.505	57.51
315.719	-12.12
315.933	26.79
316.146	55.47
316.36	12.46
316.573	49.32
316.787	22.7
317.001	22.7
317.214	114.86
317.428	-12.12
317.641	51.37
317.855	8.36
318.068	37.03
318.282	-8.02
318.495	63.66
318.709	65.71
318.922	-3.93
319.136	57.51
319.349	39.08
319.563	-48.98
319.776	-46.93
319.99	-1.88
320.203	49.32
320.417	16.55
320.63	73.9
320.843	6.31
321.057	20.65
321.27	18.6
321.483	49.32
321.697	4.27
321.91	26.79
322.124	34.99
322.337	80.04
322.55	-48.98
322.763	32.94
322.977	45.23
323.19	-63.32
323.403	8.36
323.617	-30.55
323.83	-3.93
324.043	-18.26
324.256	-16.21
324.469	84.14
324.683	-18.26
324.896	28.84
325.109	-26.45
325.322	-12.12
325.535	86.19
325.748	57.51
325.962	-34.64
326.175	-51.03
326.388	18.6
326.601	-20.31
326.814	-8.02
327.027	98.47
327.24	-44.88
327.453	10.41
327.666	-36.69
327.879	-3.93
328.092	47.27
328.305	-10.07
328.518	-32.6
328.731	39.08
328.944	-14.17
329.157	-1.88
329.37	2.22
329.583	39.08
329.796	28.84
330.009	-10.07
330.222	-8.02
330.435	-5.97
330.648	30.89
330.861	65.71
331.073	2.22
331.286	34.99
331.499	80.04
331.712	16.55
331.925	20.65
332.138	-22.36
332.35	8.36
332.563	-18.26
332.776	47.27
332.989	-83.8
333.202	-18.26
333.414	-36.69
333.627	-10.07
333.84	20.65
334.053	26.79
334.265	10.41
334.478	-10.07
334.691	69.8
334.903	65.71
335.116	57.51
335.329	88.23
335.541	-12.12
335.754	26.79
335.966	2.22
336.179	32.94
336.392	-79.7
336.604	96.43
336.817	37.03
337.029	-10.07
337.242	80.04
337.454	-36.69
337.667	49.32
337.88	-57.17
338.092	53.42
338.305	30.89
338.517	18.6
338.729	-20.31
338.942	90.28
339.154	22.7
339.367	8.36
339.579	-63.32
339.792	22.7
340.004	18.6
340.217	18.6
340.429	-34.64
340.641	-44.88
340.854	65.71
341.066	14.51
341.278	114.86
341.491	-44.88
341.703	94.38
341.915	63.66
342.128	20.65
342.34	14.51
342.552	14.51
342.764	0.17
342.977	-63.32
343.189	8.36
343.401	32.94
343.613	41.13
343.826	30.89
344.038	16.55
344.25	0.17
344.462	55.47
344.674	-38.74
344.886	18.6
345.099	57.51
345.311	32.94
345.523	-42.84
345.735	2.22
345.947	18.6
346.159	-3.93
346.371	10.41
346.583	-63.32
346.795	30.89
347.007	-53.08
347.219	61.61
347.431	32.94
347.643	-26.45
347.855	8.36
348.067	-42.84
348.279	4.27
348.491	45.23
348.703	-24.4
348.915	-57.17
349.127	30.89
349.339	34.99
349.551	0.17
349.763	53.42
349.975	45.23
350.187	-1.88
350.399	51.37
350.61	45.23
350.822	-32.6
351.034	51.37
351.246	24.75
351.458	16.55
351.669	-1.88
351.881	8.36
352.093	67.75
352.305	-1.88
352.517	43.18
352.728	-98.13
352.94	22.7
353.152	57.51
353.363	4.27
353.575	26.79
353.787	12.46
353.999	43.18
354.21	37.03
354.422	-55.12
354.633	71.85
354.845	59.56
355.057	-38.74
355.268	-14.17
355.48	88.23
355.692	-14.17
355.903	16.55
356.115	2.22
356.326	-46.93
356.538	-32.6
356.749	30.89
356.961	73.9
357.172	41.13
357.384	49.32
357.595	0.17
357.807	20.65
358.018	0.17
358.23	-34.64
358.441	26.79
358.653	71.85
358.864	-30.55
359.075	20.65
359.287	2.22
359.498	43.18
359.709	14.51
359.921	59.56
360.132	94.38
360.344	55.47
360.555	-1.88
360.766	106.67
360.977	-28.5
361.189	20.65
361.4	55.47
361.611	-20.31
361.823	24.75
362.034	26.79
362.245	-30.55
362.456	-1.88
362.667	30.89
362.879	22.7
363.09	49.32
363.301	8.36
363.512	18.6
363.723	-10.07
363.935	39.08
364.146	-14.17
364.357	-34.64
364.568	114.86
364.779	-36.69
364.99	-10.07
365.201	-30.55
365.412	26.79
365.623	34.99
365.834	86.19
366.045	14.51
366.256	-22.36
366.467	47.27
366.678	-3.93
366.889	37.03
367.1	69.8
367.311	-65.36
367.522	-10.07
367.733	10.41
367.944	2.22
368.155	-83.8
368.366	6.31
368.577	32.94
368.788	30.89
368.999	39.08
369.209	45.23
369.42	30.89
369.631	6.31
369.842	41.13
370.053	-5.97
370.264	96.43
370.474	12.46
370.685	32.94
370.896	-24.4
371.107	53.42
371.317	22.7
371.528	49.32
371.739	-55.12
371.95	47.27
372.16	2.22
372.371	-16.21
372.582	-12.12
372.792	22.7
373.003	2.22
373.214	14.51
373.424	-10.07
373.635	20.65
373.846	-46.93
374.056	55.47
374.267	24.75
374.477	14.51
374.688	24.75
374.898	51.37
375.109	8.36
375.319	-18.26
375.53	18.6
375.74	47.27
375.951	-14.17
376.161	-10.07
376.372	-1.88
376.582	-36.69
376.793	28.84
377.003	12.46
377.214	49.32
377.424	53.42
377.635	65.71
377.845	41.13
378.055	28.84
378.266	18.6
378.476	-3.93
378.686	-22.36
378.897	20.65
379.107	2.22
379.317	30.89
379.528	98.47
379.738	43.18
379.948	16.55
380.158	51.37
380.369	-40.79
380.579	30.89
380.789	34.99
380.999	8.36
381.21	-5.97
381.42	94.38
381.63	-34.64
381.84	47.27
382.05	53.42
382.261	24.75
382.471	39.08
382.681	41.13
382.891	37.03
383.101	30.89
383.311	47.27
383.521	-12.12
383.731	6.31
383.941	49.32
384.151	-20.31
384.361	34.99
384.571	-5.97
384.781	-14.17
384.991	-14.17
385.201	100.52
385.411	26.79
385.621	-8.02
385.831	59.56
386.041	100.52
386.251	-5.97
386.461	41.13
386.671	-18.26
386.881	24.75
387.091	22.7
387.301	86.19
387.511	2.22
387.72	-53.08
387.93	-34.64
388.14	-22.36
388.35	92.33
388.56	49.32
388.769	49.32
388.979	129.19
389.189	-32.6
389.399	51.37
389.609	45.23
389.818	-14.17
390.028	47.27
390.238	8.36
390.447	43.18
390.657	26.79
390.867	-18.26
391.076	69.8
391.286	16.55
391.496	-5.97
391.705	0.17
391.915	71.85
392.125	47.27
392.334	2.22
392.544	51.37
392.753	71.85
392.963	-18.26
393.172	80.04
393.382	57.51
393.591	73.9
393.801	10.41
394.01	-1.88
394.22	73.9
394.429	-1.88
394.639	43.18
394.848	57.51
395.058	84.14
395.267	51.37
395.477	8.36
395.686	73.9
395.895	26.79
396.105	55.47
396.314	24.75
396.524	61.61
396.733	10.41
396.942	104.62
397.152	41.13
397.361	110.76
397.57	43.18
397.78	102.57
397.989	121
398.198	18.6
398.407	2.22
398.617	16.55
398.826	47.27
399.035	69.8
399.244	2.22
399.453	51.37
399.663	30.89
399.872	65.71
400.081	-1.88
400.29	39.08
400.499	47.27
400.708	57.51
400.917	106.67
401.127	8.36
401.336	41.13
401.545	82.09
401.754	0.17
401.963	92.33
402.172	90.28
402.381	84.14
402.59	18.6
402.799	32.94
403.008	47.27
403.217	106.67
403.426	129.19
403.635	63.66
403.844	57.51
404.053	123.05
404.262	67.75
404.471	100.52
404.68	147.62
404.888	127.14
405.097	39.08
405.306	80.04
405.515	37.03
405.724	55.47
405.933	98.47
406.142	39.08
406.35	45.23
406.559	75.95
406.768	77.99
406.977	77.99
407.185	123.05
407.394	92.33
407.603	108.71
407.812	145.58
408.02	94.38
408.229	108.71
408.438	102.57
408.646	67.75
408.855	166.06
409.064	164.01
409.272	114.86
409.481	135.34
409.69	143.53
409.898	153.77
410.107	149.67
410.315	123.05
410.524	135.34
410.733	149.67
410.941	192.68
411.15	73.9
411.358	180.39
411.567	247.97
411.775	174.25
411.984	170.15
412.192	161.96
412.401	172.2
412.609	288.93
412.818	184.49
413.026	276.65
413.234	276.65
413.443	270.5
413.651	258.21
413.86	247.97
414.068	250.02
414.276	280.74
414.485	364.71
414.693	346.28
414.901	321.7
415.11	323.75
415.318	319.65
415.526	346.28
415.734	377
415.943	409.76
416.151	415.91
416.359	448.68
416.567	428.2
416.776	508.07
416.984	475.3
417.192	503.97
417.4	473.25
417.608	477.35
417.817	499.88
418.025	616.61
418.233	489.64
418.441	549.03
418.649	587.94
418.857	555.17
419.065	649.38
419.273	589.99
419.481	710.82
419.689	706.72
419.897	821.41
420.105	735.39
420.313	784.54
420.521	852.13
420.729	813.21
420.937	829.6
421.145	866.46
421.353	942.24
421.561	1022.11
421.769	956.57
421.977	1018.01
422.185	997.53
422.393	1071.26
422.601	1171.61
422.809	1079.45
423.017	1130.65
423.224	1267.86
423.432	1280.15
423.64	1265.82
423.848	1366.17
424.056	1452.18
424.263	1403.03
424.471	1456.28
424.679	1386.65
424.887	1532.05
425.094	1554.58
425.302	1644.69
425.51	1622.16
425.718	1734.8
425.925	1779.86
426.133	1742.99
426.341	1896.59
426.548	2066.57
426.756	1955.98
426.964	1966.22
427.171	2121.87
427.379	2177.16
427.586	2199.69
427.794	2388.1
428.001	2381.96
428.209	2484.36
428.417	2517.12
428.624	2676.87
428.832	2582.66
429.039	2478.21
429.247	2605.19
429.454	2891.9
429.662	3160.19
429.869	2857.09
430.076	3014.78
430.284	2996.35
430.491	3131.51
430.699	3164.28
430.906	3250.3
431.114	3276.92
431.321	3391.61
431.528	3596.4
431.736	3645.56
431.943	4003.95
432.15	3688.56
432.358	3795.06
432.565	3881.07
432.772	4006
432.979	4221.03
433.187	4313.19
433.394	4399.21
433.601	4561
433.808	4571.24
434.016	4739.17
434.223	4821.09
434.43	5048.41
434.637	4995.17
434.844	5259.35
435.052	5537.88
435.259	5511.25
435.466	5415
435.673	5384.28
435.88	5767.25
436.087	5990.48
436.294	6221.9
436.501	5873.75
436.708	6084.69
436.915	6144.08
437.122	6596.68
437.329	6625.35
437.537	6830.15
437.743	6793.28
437.95	6748.23
438.157	7094.33
438.364	7264.32
438.571	7368.76
438.778	7442.49
438.985	8173.61
439.192	7751.73
439.399	7909.43
439.606	7962.67
439.813	8466.47
440.02	8788
440.227	8613.93
440.433	8521.77
440.64	8806.44
440.847	8919.07
441.054	8869.92
441.261	9476.12
441.467	9400.35
441.674	9664.54
441.881	10235.92
442.088	10000.4
442.294	10131.47
442.501	10289.17
442.708	10344.46
442.914	10745.86
443.121	11132.93
443.328	10985.48
443.534	11616.25
443.741	11495.42
443.948	11329.53
444.154	12095.47
444.361	12228.59
444.568	12081.14
444.774	12218.35
444.981	12457.96
445.187	12804.07
445.394	13144.03
445.6	13219.81
445.807	14266.32
446.013	13780.95
446.22	14141.39
446.426	14454.73
446.633	14800.84
446.839	15071.17
447.046	14501.84
447.252	15271.87
447.459	15249.35
447.665	15427.52
447.871	16181.17
448.078	17041.32
448.284	15941.56
448.491	16388.02
448.697	17375.14
448.903	17299.36
449.11	17373.09
449.316	17323.94
449.522	17483.68
449.728	18028.44
449.935	18311.06
450.141	18315.16
450.347	18675.6
450.553	18098.07
450.76	18241.43
450.966	18769.8
451.172	18589.58
451.378	19232.65
451.584	18720.65
451.791	19187.59
451.997	19009.42
452.203	19724.16
452.409	19543.94
452.615	19357.57
452.821	19050.38
453.027	18472.85
453.233	19666.81
453.44	18876.3
453.646	19011.46
453.852	19146.63
454.058	19500.93
454.264	18851.72
454.47	19236.74
454.676	18847.63
454.882	19470.21
455.088	17969.05
455.294	17751.96
455.5	18306.96
455.705	18464.66
455.911	17717.15
456.117	17573.79
456.323	17096.61
456.529	16453.55
456.735	16848.81
456.941	16836.52
457.147	16373.68
457.352	15845.3
457.558	15859.64
457.764	15714.23
457.97	15304.64
458.176	15275.97
458.381	14970.82
458.587	14561.23
458.793	14501.84
458.999	13391.84
459.204	14385.1
459.41	14301.14
459.616	13221.86
459.821	13236.19
460.027	13340.64
460.233	12894.18
460.438	12341.23
460.644	12455.92
460.85	11835.38
461.055	11620.35
461.261	11704.31
461.466	10760.2
461.672	10577.93
461.878	11280.38
462.083	10483.72
462.289	10248.21
462.494	10145.81
462.7	9670.68
462.905	9435.16
463.111	9746.45
463.316	9900.05
463.522	9592.86
463.727	9658.39
463.932	9766.93
464.138	9433.11
464.343	9582.62
464.549	9281.57
464.754	9496.6
464.959	9412.64
465.165	9631.77
465.37	9107.49
465.575	8917.03
465.781	9279.52
465.986	9447.45
466.191	8968.23
466.397	8675.37
466.602	8204.33
466.807	8677.41
467.012	8589.35
467.218	8505.38
467.423	8595.5
467.628	8628.26
467.833	9070.62
468.038	8581.16
468.244	8345.64
