Data from USB4F104151__51__12-59-13-805.txt Node

Date: Fri Mar 14 12:59:13 EDT 2025
User: louis
Spectrometer: USB4F10415
Trigger mode: 4
Integration Time (sec): 1.000000E-2
Scans to average: 1
Electric dark correction enabled: true
Nonlinearity correction enabled: false
Boxcar width: 0
XAxis mode: Wavelengths
Number of Pixels in Spectrum: 3648
>>>>>Begin Spectral Data<<<<<
178.204	-72.02
178.424	-72.02
178.644	-72.02
178.864	1.71
179.084	-49.49
179.304	-51.54
179.524	32.43
179.744	-16.73
179.964	-26.96
180.184	28.33
180.404	69.29
180.624	5.8
180.844	-37.2
181.064	-22.87
181.283	-2.39
181.503	-20.82
181.723	42.67
181.943	-20.82
182.163	7.85
182.383	-24.92
182.602	-0.34
182.822	-24.92
183.042	28.33
183.262	32.43
183.482	-41.3
183.701	-72.02
183.921	20.14
184.141	-2.39
184.361	20.14
184.58	26.28
184.8	9.9
185.02	69.29
185.239	-2.39
185.459	30.38
185.679	-10.58
185.898	-14.68
186.118	32.43
186.338	-12.63
186.557	42.67
186.777	40.62
186.997	-8.53
187.216	1.71
187.436	1.71
187.655	-39.25
187.875	-31.06
188.095	1.71
188.314	-4.44
188.534	87.72
188.753	-26.96
188.973	-10.58
189.192	16.04
189.412	-53.59
189.631	18.09
189.851	-16.73
190.07	16.04
190.29	9.9
190.509	-8.53
190.729	-6.49
190.948	112.3
191.168	-22.87
191.387	30.38
191.607	18.09
191.826	44.71
192.045	54.95
192.265	-0.34
192.484	46.76
192.704	36.52
192.923	-20.82
193.142	73.39
193.362	-10.58
193.581	42.67
193.8	54.95
194.02	1.71
194.239	-12.63
194.458	42.67
194.678	75.43
194.897	-2.39
195.116	24.23
195.335	1.71
195.555	24.23
195.774	38.57
195.993	-74.07
196.212	20.14
196.432	-2.39
196.651	18.09
196.87	18.09
197.089	-12.63
197.308	57
197.528	-12.63
197.747	-14.68
197.966	48.81
198.185	75.43
198.404	-14.68
198.623	13.99
198.842	-6.49
199.062	46.76
199.281	7.85
199.5	30.38
199.719	63.15
199.938	-26.96
200.157	-29.01
200.376	-37.2
200.595	54.95
200.814	-2.39
201.033	102.06
201.252	40.62
201.471	48.81
201.69	22.19
201.909	44.71
202.128	-33.11
202.347	7.85
202.566	34.47
202.785	46.76
203.004	-24.92
203.223	48.81
203.442	59.05
203.661	-10.58
203.879	65.19
204.098	-2.39
204.317	5.8
204.536	-4.44
204.755	-37.2
204.974	9.9
205.193	-2.39
205.411	54.95
205.63	38.57
205.849	1.71
206.068	-61.78
206.287	30.38
206.505	20.14
206.724	22.19
206.943	65.19
207.162	48.81
207.381	-41.3
207.599	3.75
207.818	-8.53
208.037	40.62
208.255	59.05
208.474	-0.34
208.693	-6.49
208.911	-12.63
209.13	32.43
209.349	26.28
209.567	73.39
209.786	-2.39
210.005	-10.58
210.223	36.52
210.442	-10.58
210.661	44.71
210.879	61.1
211.098	-0.34
211.316	44.71
211.535	36.52
211.753	-22.87
211.972	26.28
212.191	-12.63
212.409	69.29
212.628	-8.53
212.846	40.62
213.065	42.67
213.283	5.8
213.502	-8.53
213.72	18.09
213.938	-12.63
214.157	13.99
214.375	-2.39
214.594	50.86
214.812	24.23
215.031	42.67
215.249	46.76
215.467	-8.53
215.686	5.8
215.904	32.43
216.122	-20.82
216.341	110.25
216.559	30.38
216.778	3.75
216.996	30.38
217.214	50.86
217.432	24.23
217.651	38.57
217.869	-49.49
218.087	-16.73
218.306	-10.58
218.524	16.04
218.742	-69.97
218.96	7.85
219.179	-20.82
219.397	5.8
219.615	38.57
219.833	48.81
220.051	-6.49
220.27	114.34
220.488	93.87
220.706	-31.06
220.924	-14.68
221.142	73.39
221.36	63.15
221.578	30.38
221.796	44.71
222.015	22.19
222.233	-49.49
222.451	30.38
222.669	-16.73
222.887	1.71
223.105	7.85
223.323	46.76
223.541	-22.87
223.759	-0.34
223.977	18.09
224.195	1.71
224.413	65.19
224.631	-33.11
224.849	71.34
225.067	126.63
225.285	-0.34
225.503	50.86
225.721	-39.25
225.939	73.39
226.157	-45.4
226.375	11.95
226.592	36.52
226.81	11.95
227.028	9.9
227.246	-18.77
227.464	9.9
227.682	30.38
227.9	-16.73
228.117	97.96
228.335	22.19
228.553	7.85
228.771	9.9
228.989	89.77
229.206	9.9
229.424	1.71
229.642	48.81
229.86	-6.49
230.077	-37.2
230.295	20.14
230.513	-6.49
230.731	5.8
230.948	3.75
231.166	7.85
231.384	-6.49
231.601	22.19
231.819	3.75
232.037	-16.73
232.254	69.29
232.472	46.76
232.689	1.71
232.907	81.58
233.125	-4.44
233.342	-2.39
233.56	38.57
233.777	9.9
233.995	116.39
234.213	36.52
234.43	-0.34
234.648	48.81
234.865	-14.68
235.083	69.29
235.3	-12.63
235.518	32.43
235.735	28.33
235.953	50.86
236.17	26.28
236.388	-31.06
236.605	16.04
236.822	48.81
237.04	32.43
237.257	-37.2
237.475	-6.49
237.692	-24.92
237.909	30.38
238.127	-12.63
238.344	-22.87
238.562	1.71
238.779	63.15
238.996	48.81
239.214	22.19
239.431	16.04
239.648	20.14
239.865	5.8
240.083	18.09
240.3	81.58
240.517	24.23
240.735	22.19
240.952	44.71
241.169	-24.92
241.386	48.81
241.603	-8.53
241.821	9.9
242.038	16.04
242.255	16.04
242.472	40.62
242.689	83.63
242.907	40.62
243.124	-78.16
243.341	22.19
243.558	71.34
243.775	44.71
243.992	22.19
244.209	16.04
244.426	71.34
244.643	32.43
244.86	22.19
245.078	13.99
245.295	-20.82
245.512	-18.77
245.729	-55.64
245.946	97.96
246.163	63.15
246.38	54.95
246.597	69.29
246.814	24.23
247.031	20.14
247.248	18.09
247.464	46.76
247.681	11.95
247.898	20.14
248.115	-4.44
248.332	-31.06
248.549	32.43
248.766	112.3
248.983	69.29
249.2	-4.44
249.417	38.57
249.633	-24.92
249.85	104.11
250.067	46.76
250.284	48.81
250.501	42.67
250.717	69.29
250.934	38.57
251.151	-10.58
251.368	7.85
251.585	-2.39
251.801	5.8
252.018	36.52
252.235	26.28
252.451	50.86
252.668	63.15
252.885	11.95
253.102	24.23
253.318	24.23
253.535	30.38
253.752	-35.16
253.968	7.85
254.185	-26.96
254.401	28.33
254.618	-10.58
254.835	-0.34
255.051	-18.77
255.268	40.62
255.484	18.09
255.701	-14.68
255.917	57
256.134	-24.92
256.351	46.76
256.567	50.86
256.784	-10.58
257	32.43
257.217	95.91
257.433	50.86
257.65	-18.77
257.866	-14.68
258.082	26.28
258.299	30.38
258.515	38.57
258.732	30.38
258.948	28.33
259.165	42.67
259.381	44.71
259.597	44.71
259.814	97.96
260.03	48.81
260.246	11.95
260.463	79.53
260.679	-10.58
260.895	-20.82
261.112	-2.39
261.328	-14.68
261.544	7.85
261.761	46.76
261.977	36.52
262.193	30.38
262.409	-10.58
262.626	7.85
262.842	83.63
263.058	-8.53
263.274	1.71
263.49	-22.87
263.707	5.8
263.923	-33.11
264.139	-18.77
264.355	38.57
264.571	22.19
264.787	-0.34
265.004	-14.68
265.22	11.95
265.436	54.95
265.652	-26.96
265.868	57
266.084	50.86
266.3	-2.39
266.516	71.34
266.732	-31.06
266.948	28.33
267.164	16.04
267.38	11.95
267.596	59.05
267.812	34.47
268.028	63.15
268.244	-45.4
268.46	-0.34
268.676	-18.77
268.892	-45.4
269.108	81.58
269.324	11.95
269.54	-10.58
269.756	16.04
269.972	16.04
270.188	26.28
270.403	-41.3
270.619	9.9
270.835	20.14
271.051	5.8
271.267	32.43
271.483	-4.44
271.698	-10.58
271.914	-20.82
272.13	38.57
272.346	-2.39
272.562	73.39
272.777	42.67
272.993	13.99
273.209	18.09
273.425	-43.35
273.64	5.8
273.856	40.62
274.072	-2.39
274.287	59.05
274.503	-10.58
274.719	-22.87
274.934	1.71
275.15	3.75
275.366	-31.06
275.581	-22.87
275.797	-35.16
276.012	38.57
276.228	1.71
276.444	22.19
276.659	-0.34
276.875	13.99
277.09	24.23
277.306	22.19
277.521	-20.82
277.737	-37.2
277.952	34.47
278.168	13.99
278.383	-8.53
278.599	-35.16
278.814	16.04
279.03	22.19
279.245	34.47
279.461	-2.39
279.676	11.95
279.892	26.28
280.107	9.9
280.322	-55.64
280.538	79.53
280.753	-39.25
280.969	54.95
281.184	-14.68
281.399	67.24
281.615	13.99
281.83	44.71
282.045	-26.96
282.26	54.95
282.476	-14.68
282.691	3.75
282.906	50.86
283.122	-20.82
283.337	16.04
283.552	30.38
283.767	-20.82
283.983	20.14
284.198	9.9
284.413	65.19
284.628	-6.49
284.843	18.09
285.058	71.34
285.274	71.34
285.489	13.99
285.704	11.95
285.919	32.43
286.134	-47.44
286.349	7.85
286.564	67.24
286.779	65.19
286.995	57
287.21	11.95
287.425	63.15
287.64	-35.16
287.855	52.91
288.07	5.8
288.285	16.04
288.5	38.57
288.715	-31.06
288.93	22.19
289.145	9.9
289.36	-18.77
289.575	-8.53
289.79	-33.11
290.004	-14.68
290.219	9.9
290.434	-14.68
290.649	40.62
290.864	9.9
291.079	-26.96
291.294	-31.06
291.509	22.19
291.724	16.04
291.938	-6.49
292.153	40.62
292.368	-20.82
292.583	-0.34
292.798	18.09
293.012	102.06
293.227	13.99
293.442	50.86
293.657	-80.21
293.871	-14.68
294.086	-0.34
294.301	-24.92
294.516	7.85
294.73	20.14
294.945	22.19
295.16	-0.34
295.374	38.57
295.589	100.01
295.804	-14.68
296.018	-6.49
296.233	50.86
296.447	44.71
296.662	11.95
296.877	118.44
297.091	112.3
297.306	18.09
297.52	73.39
297.735	38.57
297.949	30.38
298.164	28.33
298.378	52.91
298.593	48.81
298.807	34.47
299.022	26.28
299.236	100.01
299.451	46.76
299.665	-39.25
299.88	11.95
300.094	-22.87
300.309	-33.11
300.523	13.99
300.737	-14.68
300.952	1.71
301.166	18.09
301.381	-20.82
301.595	16.04
301.809	-31.06
302.024	1.71
302.238	-65.88
302.452	42.67
302.667	65.19
302.881	22.19
303.095	65.19
303.309	32.43
303.524	44.71
303.738	-14.68
303.952	32.43
304.166	-2.39
304.381	13.99
304.595	50.86
304.809	46.76
305.023	81.58
305.237	22.19
305.452	7.85
305.666	32.43
305.88	57
306.094	-16.73
306.308	28.33
306.522	-18.77
306.736	-18.77
306.95	18.09
307.164	-43.35
307.379	-6.49
307.593	3.75
307.807	34.47
308.021	24.23
308.235	69.29
308.449	63.15
308.663	11.95
308.877	3.75
309.091	-24.92
309.305	22.19
309.519	36.52
309.733	79.53
309.947	97.96
310.161	30.38
310.374	-31.06
310.588	26.28
310.802	40.62
311.016	-12.63
311.23	9.9
311.444	54.95
311.658	54.95
311.872	-29.01
312.085	83.63
312.299	112.3
312.513	-33.11
312.727	87.72
312.941	48.81
313.154	-2.39
313.368	20.14
313.582	-33.11
313.796	-61.78
314.009	34.47
314.223	38.57
314.437	46.76
314.651	20.14
314.864	46.76
315.078	13.99
315.292	11.95
315.505	40.62
315.719	1.71
315.933	26.28
316.146	75.43
316.36	-22.87
316.573	46.76
316.787	69.29
317.001	-59.73
317.214	-24.92
317.428	24.23
317.641	79.53
317.855	57
318.068	52.91
318.282	52.91
318.495	34.47
318.709	42.67
318.922	42.67
319.136	54.95
319.349	-45.4
319.563	71.34
319.776	38.57
319.99	24.23
320.203	46.76
320.417	24.23
320.63	-31.06
320.843	85.67
321.057	-57.68
321.27	26.28
321.483	128.68
321.697	69.29
321.91	83.63
322.124	30.38
322.337	-20.82
322.55	32.43
322.763	16.04
322.977	30.38
323.19	-29.01
323.403	40.62
323.617	69.29
323.83	54.95
324.043	75.43
324.256	85.67
324.469	65.19
324.683	54.95
324.896	-0.34
325.109	20.14
325.322	-6.49
325.535	48.81
325.748	-108.88
325.962	5.8
326.175	5.8
326.388	24.23
326.601	71.34
326.814	3.75
327.027	46.76
327.24	-12.63
327.453	-2.39
327.666	20.14
327.879	50.86
328.092	50.86
328.305	22.19
328.518	7.85
328.731	18.09
328.944	73.39
329.157	65.19
329.37	30.38
329.583	46.76
329.796	87.72
330.009	38.57
330.222	77.48
330.435	57
330.648	71.34
330.861	-4.44
331.073	46.76
331.286	16.04
331.499	65.19
331.712	-14.68
331.925	5.8
332.138	-10.58
332.35	-45.4
332.563	67.24
332.776	114.34
332.989	11.95
333.202	32.43
333.414	-37.2
333.627	-57.68
333.84	-92.5
334.053	5.8
334.265	-22.87
334.478	73.39
334.691	-18.77
334.903	18.09
335.116	5.8
335.329	40.62
335.541	3.75
335.754	104.11
335.966	5.8
336.179	28.33
336.392	-26.96
336.604	-8.53
336.817	13.99
337.029	57
337.242	-4.44
337.454	46.76
337.667	46.76
337.88	59.05
338.092	1.71
338.305	16.04
338.517	22.19
338.729	-24.92
338.942	-35.16
339.154	-16.73
339.367	50.86
339.579	79.53
339.792	-31.06
340.004	63.15
340.217	18.09
340.429	36.52
340.641	112.3
340.854	9.9
341.066	-26.96
341.278	63.15
341.491	-0.34
341.703	-63.83
341.915	42.67
342.128	3.75
342.34	-18.77
342.552	79.53
342.764	32.43
342.977	83.63
343.189	67.24
343.401	5.8
343.613	28.33
343.826	-10.58
344.038	-2.39
344.25	75.43
344.462	-63.83
344.674	67.24
344.886	-4.44
345.099	79.53
345.311	36.52
345.523	104.11
345.735	24.23
345.947	67.24
346.159	-10.58
346.371	61.1
346.583	-35.16
346.795	102.06
347.007	73.39
347.219	9.9
347.431	26.28
347.643	65.19
347.855	-6.49
348.067	22.19
348.279	9.9
348.491	-10.58
348.703	46.76
348.915	32.43
349.127	11.95
349.339	75.43
349.551	13.99
349.763	34.47
349.975	48.81
350.187	18.09
350.399	24.23
350.61	-2.39
350.822	-61.78
351.034	5.8
351.246	32.43
351.458	69.29
351.669	61.1
351.881	-12.63
352.093	30.38
352.305	54.95
352.517	13.99
352.728	38.57
352.94	34.47
353.152	-24.92
353.363	24.23
353.575	50.86
353.787	83.63
353.999	26.28
354.21	-12.63
354.422	-67.92
354.633	-4.44
354.845	28.33
355.057	18.09
355.268	40.62
355.48	16.04
355.692	18.09
355.903	3.75
356.115	18.09
356.326	34.47
356.538	67.24
356.749	100.01
356.961	81.58
357.172	-4.44
357.384	-10.58
357.595	59.05
357.807	36.52
358.018	22.19
358.23	46.76
358.441	69.29
358.653	44.71
358.864	91.82
359.075	-18.77
359.287	28.33
359.498	-0.34
359.709	-14.68
359.921	32.43
360.132	-2.39
360.344	32.43
360.555	67.24
360.766	3.75
360.977	-51.54
361.189	67.24
361.4	34.47
361.611	44.71
361.823	-35.16
362.034	30.38
362.245	32.43
362.456	13.99
362.667	34.47
362.879	-18.77
363.09	7.85
363.301	40.62
363.512	-33.11
363.723	46.76
363.935	7.85
364.146	71.34
364.357	22.19
364.568	34.47
364.779	30.38
364.99	42.67
365.201	9.9
365.412	5.8
365.623	46.76
365.834	18.09
366.045	-18.77
366.256	34.47
366.467	54.95
366.678	85.67
366.889	38.57
367.1	13.99
367.311	16.04
367.522	38.57
367.733	54.95
367.944	9.9
368.155	63.15
368.366	114.34
368.577	-4.44
368.788	67.24
368.999	-35.16
369.209	91.82
369.42	5.8
369.631	106.15
369.842	28.33
370.053	-10.58
370.264	48.81
370.474	13.99
370.685	-14.68
370.896	81.58
371.107	50.86
371.317	108.2
371.528	48.81
371.739	108.2
371.95	48.81
372.16	11.95
372.371	26.28
372.582	-2.39
372.792	-33.11
373.003	38.57
373.214	-29.01
373.424	87.72
373.635	65.19
373.846	83.63
374.056	7.85
374.267	65.19
374.477	-0.34
374.688	30.38
374.898	5.8
375.109	13.99
375.319	65.19
375.53	26.28
375.74	-26.96
375.951	81.58
376.161	-0.34
376.372	67.24
376.582	3.75
376.793	54.95
377.003	-51.54
377.214	38.57
377.424	-16.73
377.635	59.05
377.845	13.99
378.055	91.82
378.266	73.39
378.476	46.76
378.686	36.52
378.897	-10.58
379.107	46.76
379.317	13.99
379.528	22.19
379.738	36.52
379.948	7.85
380.158	48.81
380.369	75.43
380.579	34.47
380.789	69.29
380.999	18.09
381.21	34.47
381.42	30.38
381.63	18.09
381.84	16.04
382.05	32.43
382.261	54.95
382.471	18.09
382.681	36.52
382.891	26.28
383.101	95.91
383.311	38.57
383.521	143.02
383.731	32.43
383.941	36.52
384.151	63.15
384.361	69.29
384.571	75.43
384.781	87.72
384.991	63.15
385.201	26.28
385.411	40.62
385.621	46.76
385.831	-47.44
386.041	69.29
386.251	32.43
386.461	79.53
386.671	11.95
386.881	46.76
387.091	26.28
387.301	16.04
387.511	-55.64
387.72	153.26
387.93	18.09
388.14	71.34
388.35	28.33
388.56	-26.96
388.769	77.48
388.979	71.34
389.189	3.75
389.399	81.58
389.609	50.86
389.818	38.57
390.028	-26.96
390.238	59.05
390.447	54.95
390.657	102.06
390.867	-2.39
391.076	46.76
391.286	52.91
391.496	69.29
391.705	71.34
391.915	7.85
392.125	50.86
392.334	-31.06
392.544	7.85
392.753	63.15
392.963	112.3
393.172	81.58
393.382	-18.77
393.591	73.39
393.801	57
394.01	83.63
394.22	28.33
394.429	-18.77
394.639	46.76
394.848	11.95
395.058	46.76
395.267	112.3
395.477	59.05
395.686	26.28
395.895	89.77
396.105	18.09
396.314	95.91
396.524	93.87
396.733	-41.3
396.942	48.81
397.152	108.2
397.361	57
397.57	40.62
397.78	112.3
397.989	54.95
398.198	149.16
398.407	73.39
398.617	126.63
398.826	91.82
399.035	13.99
399.244	75.43
399.453	100.01
399.663	38.57
399.872	-18.77
400.081	87.72
400.29	104.11
400.499	59.05
400.708	67.24
400.917	20.14
401.127	18.09
401.336	32.43
401.545	147.11
401.754	79.53
401.963	120.49
402.172	67.24
402.381	134.82
402.59	81.58
402.799	120.49
403.008	52.91
403.217	79.53
403.426	22.19
403.635	67.24
403.844	145.06
404.053	114.34
404.262	102.06
404.471	81.58
404.68	134.82
404.888	24.23
405.097	114.34
405.306	108.2
405.515	69.29
405.724	54.95
405.933	181.93
406.142	63.15
406.35	110.25
406.559	118.44
406.768	163.5
406.977	89.77
407.185	114.34
407.394	42.67
407.603	69.29
407.812	132.78
408.02	136.87
408.229	173.74
408.438	138.92
408.646	161.45
408.855	136.87
409.064	153.26
409.272	42.67
409.481	194.22
409.69	128.68
409.898	138.92
410.107	136.87
410.315	140.97
410.524	122.54
410.733	253.61
410.941	151.21
411.15	183.98
411.358	206.5
411.567	298.66
411.775	222.89
411.984	251.56
412.192	269.99
412.401	282.28
412.609	190.12
412.818	321.19
413.026	220.84
413.234	251.56
413.443	247.46
413.651	343.72
413.86	384.68
414.068	390.82
414.276	386.72
414.485	368.29
414.693	429.73
414.901	413.35
415.11	399.01
415.318	407.2
415.526	372.39
415.734	403.11
415.943	380.58
416.151	493.22
416.359	480.93
416.567	435.88
416.776	550.56
416.984	517.79
417.192	644.77
417.4	497.32
417.608	556.71
417.817	638.62
418.025	624.29
418.233	712.35
418.441	630.43
418.649	714.4
418.857	691.87
419.065	702.11
419.273	796.32
419.481	802.46
419.689	822.94
419.897	898.72
420.105	833.18
420.313	851.61
420.521	888.48
420.729	904.86
420.937	933.53
421.145	1013.4
421.353	1027.74
421.561	1011.36
421.769	1033.88
421.977	1193.62
422.185	1189.53
422.393	1275.54
422.601	1261.21
422.809	1283.74
423.017	1349.27
423.224	1367.7
423.432	1357.46
423.64	1394.33
423.848	1549.97
424.056	1423
424.263	1664.66
424.471	1629.84
424.679	1611.41
424.887	1750.67
425.094	1760.91
425.302	1726.1
425.51	1814.16
425.718	1928.85
425.925	1906.32
426.133	1898.13
426.341	2193.03
426.548	2160.27
426.756	2242.18
426.964	2274.95
427.171	2324.1
427.379	2391.69
427.586	2426.5
427.794	2555.52
428.001	2623.11
428.209	2659.97
428.417	2758.27
428.624	2930.3
428.832	2934.4
429.039	2975.36
429.247	2930.3
429.454	3257.98
429.662	3458.68
429.869	3255.93
430.076	3485.3
430.284	3257.98
430.491	3483.25
430.699	3604.08
430.906	3612.28
431.114	3700.34
431.321	3837.55
431.528	3853.94
431.736	4173.42
431.943	4251.24
432.15	4275.82
432.358	4243.05
432.565	4593.25
432.772	4535.91
432.979	4679.27
433.187	4767.33
433.394	4822.63
433.601	5283.42
433.808	5101.15
434.016	5232.22
434.223	5385.82
434.43	5754.45
434.637	5598.81
434.844	6024.78
435.052	6149.71
435.259	6069.84
435.466	6014.54
435.673	6037.07
435.88	6301.26
436.087	6768.2
436.294	6788.68
436.501	6618.69
436.708	6913.6
436.915	6940.22
437.122	7341.63
437.329	7247.42
437.537	7618.1
437.743	7540.28
437.95	7466.55
438.157	8054.32
438.364	8076.85
438.571	8142.38
438.778	8218.16
438.985	8881.7
439.192	8621.61
439.399	8986.15
439.606	8560.17
439.813	9301.53
440.02	9762.33
440.227	9694.74
440.433	9582.1
440.64	10090
440.847	9969.17
441.054	10038.8
441.261	10604.04
441.467	10599.94
441.674	10655.24
441.881	11228.67
442.088	11134.46
442.294	11187.71
442.501	11376.13
442.708	11701.75
442.914	12164.59
443.121	12541.42
443.328	12111.35
443.534	12926.44
443.741	12811.75
443.948	12561.9
444.154	13471.2
444.361	13424.09
444.568	13774.3
444.774	13424.09
444.981	13757.91
445.187	14151.12
445.394	14706.12
445.6	14714.31
445.807	15990.2
446.013	15619.52
446.22	15691.2
446.426	16346.55
446.633	16326.07
446.839	16934.31
447.046	16387.5
447.252	17012.14
447.459	17143.21
447.665	17055.14
447.871	17933.72
448.078	18902.41
448.284	18007.45
448.491	18431.38
448.697	19180.93
448.903	19494.27
449.11	19563.9
449.316	19107.21
449.522	19789.18
449.728	20346.23
449.935	20505.97
450.141	20495.73
450.347	20639.09
450.553	19932.54
450.76	20690.29
450.966	21347.68
451.172	20839.79
451.378	21370.21
451.584	21024.11
451.791	21575.01
451.997	21751.13
452.203	22232.41
452.409	21804.38
452.615	21722.46
452.821	21198.18
453.027	21017.96
453.233	21779.81
453.44	21130.6
453.646	21378.4
453.852	21417.32
454.058	21749.09
454.264	21251.43
454.47	21685.6
454.676	21288.29
454.882	21886.3
455.088	20020.6
455.294	20364.66
455.5	20450.67
455.705	21017.96
455.911	19740.03
456.117	19660.16
456.323	19301.76
456.529	18091.41
456.735	19195.27
456.941	18687.37
457.147	18363.79
457.352	17823.13
457.558	17479.07
457.764	17757.6
457.97	17214.88
458.176	16971.18
458.381	17001.9
458.587	16197.04
458.793	16258.48
458.999	15363.52
459.204	16467.38
459.41	15912.38
459.616	14982.6
459.821	14998.98
460.027	14884.3
460.233	14575.05
460.438	13895.13
460.644	13848.02
460.85	13346.27
461.055	13194.72
461.261	13229.54
461.466	12023.28
461.672	11886.07
461.878	12760.55
462.083	11726.33
462.289	11441.66
462.494	11546.11
462.7	10790.41
462.905	10513.93
463.111	11212.29
463.316	10960.39
463.522	10659.34
463.727	10851.85
463.932	10911.24
464.138	10853.89
464.343	10814.98
464.549	10368.52
464.754	10868.23
464.959	10755.59
465.165	10647.05
465.37	10141.2
465.575	9840.15
465.781	10376.72
465.986	10397.2
466.191	9975.31
466.397	9952.79
466.602	9192.99
466.807	9825.81
467.012	9803.29
467.218	9600.54
467.423	9405.98
467.628	9541.15
467.833	10327.57
468.038	9614.87
468.244	9342.49
468.449	9811.48
