Data from USB4F104151__67__12-59-29-083.txt Node

Date: Fri Mar 14 12:59:29 EDT 2025
User: louis
Spectrometer: USB4F10415
Trigger mode: 4
Integration Time (sec): 1.000000E-2
Scans to average: 1
Electric dark correction enabled: true
Nonlinearity correction enabled: false
Boxcar width: 0
XAxis mode: Wavelengths
Number of Pixels in Spectrum: 3648
>>>>>Begin Spectral Data<<<<<
178.204	-29.7
178.424	-29.7
178.644	-29.7
178.864	-33.79
179.084	-95.23
179.304	-1.02
179.524	37.89
179.744	-21.5
179.964	-33.79
180.184	-3.07
180.404	5.12
180.624	3.07
180.844	13.31
181.064	-23.55
181.283	23.55
181.503	-19.46
181.723	19.46
181.943	7.17
182.163	-15.36
182.383	9.22
182.602	-37.89
182.822	-15.36
183.042	31.74
183.262	35.84
183.482	13.31
183.701	70.65
183.921	13.31
184.141	23.55
184.361	50.18
184.58	39.94
184.8	5.12
185.02	46.08
185.239	-23.55
185.459	54.27
185.679	5.12
185.898	-50.18
186.118	25.6
186.338	1.02
186.557	78.85
186.777	-50.18
186.997	-23.55
187.216	-41.98
187.436	-25.6
187.655	-5.12
187.875	25.6
188.095	19.46
188.314	39.94
188.534	15.36
188.753	54.27
188.973	5.12
189.192	-33.79
189.412	-13.31
189.631	11.26
189.851	31.74
190.07	60.42
190.29	23.55
190.509	41.98
190.729	68.61
190.948	48.13
191.168	54.27
191.387	31.74
191.607	27.65
191.826	-91.13
192.045	-72.7
192.265	54.27
192.484	25.6
192.704	13.31
192.923	5.12
193.142	-46.08
193.362	33.79
193.581	23.55
193.8	-3.07
194.02	13.31
194.239	9.22
194.458	15.36
194.678	23.55
194.897	27.65
195.116	-33.79
195.335	21.5
195.555	-9.22
195.774	-3.07
195.993	3.07
196.212	13.31
196.432	-46.08
196.651	-11.26
196.87	-3.07
197.089	35.84
197.308	-33.79
197.528	72.7
197.747	5.12
197.966	13.31
198.185	-11.26
198.404	37.89
198.623	41.98
198.842	-31.74
199.062	60.42
199.281	-78.85
199.5	-5.12
199.719	-11.26
199.938	-11.26
200.157	37.89
200.376	64.51
200.595	76.8
200.814	7.17
201.033	5.12
201.252	-15.36
201.471	52.22
201.69	23.55
201.909	-39.94
202.128	-25.6
202.347	-3.07
202.566	29.7
202.785	-19.46
203.004	95.23
203.223	-1.02
203.442	-15.36
203.661	31.74
203.879	72.7
204.098	41.98
204.317	11.26
204.536	7.17
204.755	21.5
204.974	52.22
205.193	17.41
205.411	-9.22
205.63	-76.8
205.849	-25.6
206.068	27.65
206.287	29.7
206.505	41.98
206.724	29.7
206.943	56.32
207.162	48.13
207.381	17.41
207.599	48.13
207.818	-27.65
208.037	31.74
208.255	13.31
208.474	13.31
208.693	39.94
208.911	70.65
209.13	48.13
209.349	37.89
209.567	-25.6
209.786	-11.26
210.005	35.84
210.223	29.7
210.442	15.36
210.661	15.36
210.879	37.89
211.098	-17.41
211.316	5.12
211.535	-3.07
211.753	21.5
211.972	9.22
212.191	-9.22
212.409	1.02
212.628	15.36
212.846	41.98
213.065	-5.12
213.283	62.46
213.502	-9.22
213.72	66.56
213.938	46.08
214.157	29.7
214.375	17.41
214.594	35.84
214.812	56.32
215.031	66.56
215.249	-11.26
215.467	50.18
215.686	-29.7
215.904	-19.46
216.122	-25.6
216.341	58.37
216.559	5.12
216.778	56.32
216.996	-1.02
217.214	1.02
217.432	50.18
217.651	-21.5
217.869	80.89
218.087	-15.36
218.306	-23.55
218.524	9.22
218.742	37.89
218.96	-1.02
219.179	-1.02
219.397	-29.7
219.615	35.84
219.833	7.17
220.051	3.07
220.27	27.65
220.488	-60.42
220.706	39.94
220.924	37.89
221.142	33.79
221.36	-35.84
221.578	48.13
221.796	-33.79
222.015	-1.02
222.233	82.94
222.451	76.8
222.669	37.89
222.887	-3.07
223.105	31.74
223.323	1.02
223.541	-13.31
223.759	54.27
223.977	68.61
224.195	60.42
224.413	-31.74
224.631	23.55
224.849	9.22
225.067	95.23
225.285	-35.84
225.503	-3.07
225.721	23.55
225.939	25.6
226.157	54.27
226.375	39.94
226.592	25.6
226.81	27.65
227.028	58.37
227.246	-19.46
227.464	21.5
227.682	-33.79
227.9	7.17
228.117	128
228.335	15.36
228.553	48.13
228.771	-7.17
228.989	37.89
229.206	-21.5
229.424	-3.07
229.642	29.7
229.86	25.6
230.077	-68.61
230.295	37.89
230.513	27.65
230.731	62.46
230.948	13.31
231.166	56.32
231.384	15.36
231.601	11.26
231.819	52.22
232.037	11.26
232.254	1.02
232.472	-50.18
232.689	3.07
232.907	21.5
233.125	-15.36
233.342	-13.31
233.56	-19.46
233.777	33.79
233.995	-29.7
234.213	74.75
234.43	-15.36
234.648	-91.13
234.865	21.5
235.083	5.12
235.3	62.46
235.518	29.7
235.735	15.36
235.953	-5.12
236.17	-7.17
236.388	70.65
236.605	15.36
236.822	-7.17
237.04	44.03
237.257	19.46
237.475	13.31
237.692	19.46
237.909	7.17
238.127	44.03
238.344	128
238.562	144.38
238.779	27.65
238.996	-1.02
239.214	21.5
239.431	125.95
239.648	-3.07
239.865	13.31
240.083	-17.41
240.3	37.89
240.517	21.5
240.735	21.5
240.952	21.5
241.169	-9.22
241.386	44.03
241.603	13.31
241.821	37.89
242.038	64.51
242.255	80.89
242.472	-27.65
242.689	23.55
242.907	15.36
243.124	1.02
243.341	-23.55
243.558	48.13
243.775	11.26
243.992	-56.32
244.209	-25.6
244.426	58.37
244.643	64.51
244.86	9.22
245.078	5.12
245.295	46.08
245.512	37.89
245.729	-15.36
245.946	37.89
246.163	-27.65
246.38	9.22
246.597	50.18
246.814	-17.41
247.031	31.74
247.248	29.7
247.464	1.02
247.681	39.94
247.898	-15.36
248.115	-44.03
248.332	23.55
248.549	125.95
248.766	-27.65
248.983	19.46
249.2	44.03
249.417	84.99
249.633	50.18
249.85	62.46
250.067	21.5
250.284	19.46
250.501	-3.07
250.717	29.7
250.934	11.26
251.151	1.02
251.368	-25.6
251.585	54.27
251.801	48.13
252.018	46.08
252.235	-7.17
252.451	-33.79
252.668	35.84
252.885	82.94
253.102	54.27
253.318	50.18
253.535	-35.84
253.752	13.31
253.968	-17.41
254.185	23.55
254.401	21.5
254.618	5.12
254.835	-58.37
255.051	15.36
255.268	-25.6
255.484	50.18
255.701	27.65
255.917	54.27
256.134	46.08
256.351	13.31
256.567	3.07
256.784	17.41
257	23.55
257.217	13.31
257.433	-35.84
257.65	-27.65
257.866	50.18
258.082	-1.02
258.299	15.36
258.515	-3.07
258.732	68.61
258.948	-19.46
259.165	-39.94
259.381	-27.65
259.597	-11.26
259.814	-19.46
260.03	-19.46
260.246	-11.26
260.463	13.31
260.679	-1.02
260.895	39.94
261.112	31.74
261.328	-64.51
261.544	121.85
261.761	58.37
261.977	-33.79
262.193	54.27
262.409	62.46
262.626	25.6
262.842	27.65
263.058	46.08
263.274	11.26
263.49	87.04
263.707	54.27
263.923	70.65
264.139	-11.26
264.355	48.13
264.571	58.37
264.787	-3.07
265.004	58.37
265.22	-54.27
265.436	-35.84
265.652	15.36
265.868	91.13
266.084	66.56
266.3	48.13
266.516	-13.31
266.732	7.17
266.948	31.74
267.164	48.13
267.38	-11.26
267.596	-7.17
267.812	5.12
268.028	33.79
268.244	13.31
268.46	33.79
268.676	68.61
268.892	64.51
269.108	58.37
269.324	54.27
269.54	-41.98
269.756	19.46
269.972	19.46
270.188	33.79
270.403	3.07
270.619	37.89
270.835	46.08
271.051	29.7
271.267	-7.17
271.483	1.02
271.698	5.12
271.914	-3.07
272.13	89.09
272.346	54.27
272.562	21.5
272.777	39.94
272.993	27.65
273.209	44.03
273.425	-17.41
273.64	-7.17
273.856	5.12
274.072	3.07
274.287	48.13
274.503	1.02
274.719	39.94
274.934	-48.13
275.15	19.46
275.366	31.74
275.581	13.31
275.797	-17.41
276.012	-1.02
276.228	115.71
276.444	48.13
276.659	62.46
276.875	-5.12
277.09	68.61
277.306	5.12
277.521	64.51
277.737	41.98
277.952	48.13
278.168	25.6
278.383	89.09
278.599	54.27
278.814	-27.65
279.03	23.55
279.245	9.22
279.461	25.6
279.676	41.98
279.892	-66.56
280.107	91.13
280.322	25.6
280.538	103.42
280.753	11.26
280.969	82.94
281.184	46.08
281.399	74.75
281.615	37.89
281.83	23.55
282.045	-37.89
282.26	-23.55
282.476	64.51
282.691	66.56
282.906	29.7
283.122	46.08
283.337	27.65
283.552	31.74
283.767	7.17
283.983	29.7
284.198	-39.94
284.413	41.98
284.628	-27.65
284.843	-3.07
285.058	19.46
285.274	52.22
285.489	-9.22
285.704	52.22
285.919	-5.12
286.134	68.61
286.349	1.02
286.564	80.89
286.779	-9.22
286.995	35.84
287.21	-70.65
287.425	37.89
287.64	1.02
287.855	76.8
288.07	-21.5
288.285	7.17
288.5	89.09
288.715	33.79
288.93	60.42
289.145	76.8
289.36	68.61
289.575	60.42
289.79	48.13
290.004	52.22
290.219	5.12
290.434	31.74
290.649	50.18
290.864	3.07
291.079	7.17
291.294	17.41
291.509	15.36
291.724	9.22
291.938	9.22
292.153	15.36
292.368	-17.41
292.583	56.32
292.798	17.41
293.012	37.89
293.227	21.5
293.442	23.55
293.657	78.85
293.871	13.31
294.086	21.5
294.301	74.75
294.516	-29.7
294.73	64.51
294.945	3.07
295.16	-44.03
295.374	31.74
295.589	72.7
295.804	13.31
296.018	27.65
296.233	29.7
296.447	19.46
296.662	72.7
296.877	7.17
297.091	-41.98
297.306	-1.02
297.52	-17.41
297.735	-5.12
297.949	44.03
298.164	60.42
298.378	46.08
298.593	54.27
298.807	7.17
299.022	19.46
299.236	33.79
299.451	46.08
299.665	-19.46
299.88	-19.46
300.094	1.02
300.309	-9.22
300.523	25.6
300.737	70.65
300.952	70.65
301.166	62.46
301.381	31.74
301.595	-27.65
301.809	66.56
302.024	-41.98
302.238	-31.74
302.452	23.55
302.667	-19.46
302.881	33.79
303.095	21.5
303.309	-44.03
303.524	-35.84
303.738	70.65
303.952	-11.26
304.166	84.99
304.381	-17.41
304.595	41.98
304.809	31.74
305.023	1.02
305.237	33.79
305.452	23.55
305.666	25.6
305.88	70.65
306.094	54.27
306.308	44.03
306.522	-17.41
306.736	87.04
306.95	74.75
307.164	97.28
307.379	62.46
307.593	46.08
307.807	-11.26
308.021	21.5
308.235	50.18
308.449	72.7
308.663	1.02
308.877	95.23
309.091	23.55
309.305	31.74
309.519	35.84
309.733	89.09
309.947	31.74
310.161	123.9
310.374	19.46
310.588	66.56
310.802	-3.07
311.016	3.07
311.23	62.46
311.444	97.28
311.658	54.27
311.872	21.5
312.085	23.55
312.299	23.55
312.513	-11.26
312.727	48.13
312.941	37.89
313.154	60.42
313.368	41.98
313.582	25.6
313.796	-13.31
314.009	-13.31
314.223	50.18
314.437	48.13
314.651	-11.26
314.864	27.65
315.078	62.46
315.292	19.46
315.505	-35.84
315.719	46.08
315.933	58.37
316.146	29.7
316.36	52.22
316.573	48.13
316.787	21.5
317.001	3.07
317.214	-11.26
317.428	62.46
317.641	-13.31
317.855	5.12
318.068	56.32
318.282	54.27
318.495	-29.7
318.709	70.65
318.922	7.17
319.136	95.23
319.349	70.65
319.563	64.51
319.776	17.41
319.99	33.79
320.203	87.04
320.417	54.27
320.63	31.74
320.843	19.46
321.057	5.12
321.27	37.89
321.483	41.98
321.697	21.5
321.91	35.84
322.124	27.65
322.337	29.7
322.55	-1.02
322.763	27.65
322.977	33.79
323.19	-5.12
323.403	-9.22
323.617	-3.07
323.83	21.5
324.043	-58.37
324.256	31.74
324.469	13.31
324.683	80.89
324.896	48.13
325.109	21.5
325.322	-25.6
325.535	-21.5
325.748	-3.07
325.962	21.5
326.175	-1.02
326.388	5.12
326.601	37.89
326.814	46.08
327.027	72.7
327.24	11.26
327.453	62.46
327.666	21.5
327.879	54.27
328.092	-1.02
328.305	-21.5
328.518	31.74
328.731	17.41
328.944	29.7
329.157	-19.46
329.37	89.09
329.583	19.46
329.796	56.32
330.009	41.98
330.222	-39.94
330.435	93.18
330.648	41.98
330.861	-62.46
331.073	37.89
331.286	66.56
331.499	-39.94
331.712	52.22
331.925	7.17
332.138	-23.55
332.35	-17.41
332.563	25.6
332.776	29.7
332.989	21.5
333.202	23.55
333.414	11.26
333.627	62.46
333.84	48.13
334.053	66.56
334.265	23.55
334.478	60.42
334.691	15.36
334.903	9.22
335.116	35.84
335.329	5.12
335.541	46.08
335.754	37.89
335.966	35.84
336.179	58.37
336.392	54.27
336.604	23.55
336.817	-13.31
337.029	37.89
337.242	3.07
337.454	54.27
337.667	56.32
337.88	-21.5
338.092	13.31
338.305	54.27
338.517	17.41
338.729	107.52
338.942	121.85
339.154	66.56
339.367	31.74
339.579	46.08
339.792	23.55
340.004	31.74
340.217	37.89
340.429	74.75
340.641	27.65
340.854	29.7
341.066	50.18
341.278	31.74
341.491	54.27
341.703	50.18
341.915	76.8
342.128	15.36
342.34	107.52
342.552	5.12
342.764	50.18
342.977	15.36
343.189	-9.22
343.401	17.41
343.613	21.5
343.826	29.7
344.038	39.94
344.25	-31.74
344.462	-9.22
344.674	33.79
344.886	33.79
345.099	-7.17
345.311	17.41
345.523	19.46
345.735	25.6
345.947	29.7
346.159	5.12
346.371	31.74
346.583	15.36
346.795	54.27
347.007	15.36
347.219	-9.22
347.431	15.36
347.643	33.79
347.855	54.27
348.067	-3.07
348.279	58.37
348.491	58.37
348.703	35.84
348.915	89.09
349.127	31.74
349.339	130.05
349.551	-17.41
349.763	62.46
349.975	-1.02
350.187	50.18
350.399	35.84
350.61	-9.22
350.822	84.99
351.034	25.6
351.246	25.6
351.458	-7.17
351.669	37.89
351.881	74.75
352.093	82.94
352.305	76.8
352.517	25.6
352.728	99.33
352.94	15.36
353.152	46.08
353.363	-58.37
353.575	56.32
353.787	44.03
353.999	87.04
354.21	46.08
354.422	-17.41
354.633	-17.41
354.845	-19.46
355.057	-31.74
355.268	-66.56
355.48	60.42
355.692	-35.84
355.903	89.09
356.115	-5.12
356.326	56.32
356.538	17.41
356.749	-9.22
356.961	21.5
357.172	62.46
357.384	35.84
357.595	7.17
357.807	1.02
358.018	50.18
358.23	23.55
358.441	37.89
358.653	68.61
358.864	58.37
359.075	37.89
359.287	37.89
359.498	-9.22
359.709	3.07
359.921	-19.46
360.132	21.5
360.344	56.32
360.555	37.89
360.766	39.94
360.977	39.94
361.189	9.22
361.4	27.65
361.611	62.46
361.823	80.89
362.034	44.03
362.245	-37.89
362.456	91.13
362.667	91.13
362.879	78.85
363.09	5.12
363.301	9.22
363.512	87.04
363.723	54.27
363.935	-5.12
364.146	5.12
364.357	64.51
364.568	41.98
364.779	48.13
364.99	95.23
365.201	21.5
365.412	27.65
365.623	-31.74
365.834	41.98
366.045	1.02
366.256	-3.07
366.467	-1.02
366.678	17.41
366.889	-9.22
367.1	50.18
367.311	97.28
367.522	-27.65
367.733	107.52
367.944	37.89
368.155	62.46
368.366	25.6
368.577	41.98
368.788	95.23
368.999	58.37
369.209	-15.36
369.42	60.42
369.631	17.41
369.842	-23.55
370.053	37.89
370.264	37.89
370.474	9.22
370.685	31.74
370.896	41.98
371.107	48.13
371.317	5.12
371.528	87.04
371.739	107.52
371.95	1.02
372.16	46.08
372.371	80.89
372.582	17.41
372.792	99.33
373.003	37.89
373.214	29.7
373.424	3.07
373.635	25.6
373.846	25.6
374.056	-1.02
374.267	17.41
374.477	72.7
374.688	87.04
374.898	3.07
375.109	46.08
375.319	15.36
375.53	13.31
375.74	37.89
375.951	-3.07
376.161	44.03
376.372	107.52
376.582	78.85
376.793	15.36
377.003	15.36
377.214	-64.51
377.424	-41.98
377.635	64.51
377.845	1.02
378.055	78.85
378.266	58.37
378.476	50.18
378.686	58.37
378.897	15.36
379.107	97.28
379.317	56.32
379.528	93.18
379.738	68.61
379.948	27.65
380.158	74.75
380.369	41.98
380.579	52.22
380.789	21.5
380.999	-11.26
381.21	29.7
381.42	33.79
381.63	41.98
381.84	91.13
382.05	21.5
382.261	46.08
382.471	25.6
382.681	33.79
382.891	56.32
383.101	31.74
383.311	-9.22
383.521	29.7
383.731	62.46
383.941	109.57
384.151	11.26
384.361	66.56
384.571	21.5
384.781	60.42
384.991	-23.55
385.201	56.32
385.411	70.65
385.621	33.79
385.831	29.7
386.041	27.65
386.251	-23.55
386.461	31.74
386.671	80.89
386.881	80.89
387.091	72.7
387.301	78.85
387.511	58.37
387.72	-41.98
387.93	60.42
388.14	66.56
388.35	-17.41
388.56	29.7
388.769	23.55
388.979	111.61
389.189	-5.12
389.399	17.41
389.609	15.36
389.818	123.9
390.028	5.12
390.238	72.7
390.447	11.26
390.657	41.98
390.867	41.98
391.076	87.04
391.286	33.79
391.496	89.09
391.705	-35.84
391.915	25.6
392.125	87.04
392.334	95.23
392.544	9.22
392.753	74.75
392.963	1.02
393.172	66.56
393.382	48.13
393.591	54.27
393.801	-29.7
394.01	25.6
394.22	35.84
394.429	13.31
394.639	39.94
394.848	23.55
395.058	39.94
395.267	60.42
395.477	78.85
395.686	156.67
395.895	66.56
396.105	111.61
396.314	52.22
396.524	64.51
396.733	54.27
396.942	29.7
397.152	50.18
397.361	115.71
397.57	27.65
397.78	37.89
397.989	64.51
398.198	9.22
398.407	82.94
398.617	105.47
398.826	89.09
399.035	93.18
399.244	-15.36
399.453	41.98
399.663	62.46
399.872	80.89
400.081	54.27
400.29	70.65
400.499	148.48
400.708	41.98
400.917	21.5
401.127	87.04
401.336	74.75
401.545	80.89
401.754	107.52
401.963	31.74
402.172	80.89
402.381	60.42
402.59	103.42
402.799	70.65
403.008	91.13
403.217	23.55
403.426	62.46
403.635	101.37
403.844	97.28
404.053	93.18
404.262	146.43
404.471	123.9
404.68	152.57
404.888	185.34
405.097	87.04
405.306	117.76
405.515	58.37
405.724	179.2
405.933	72.7
406.142	107.52
406.35	68.61
406.559	99.33
406.768	66.56
406.977	130.05
407.185	103.42
407.394	183.29
407.603	136.19
407.812	162.81
408.02	171.01
408.229	193.53
408.438	130.05
408.646	119.81
408.855	166.91
409.064	197.63
409.272	166.91
409.481	197.63
409.69	173.05
409.898	64.51
410.107	181.25
410.315	171.01
410.524	209.92
410.733	148.48
410.941	130.05
411.15	281.6
411.358	158.72
411.567	207.87
411.775	310.27
411.984	207.87
412.192	240.64
412.401	261.12
412.609	214.01
412.818	234.49
413.026	334.84
413.234	287.74
413.443	310.27
413.651	271.36
413.86	316.41
414.068	248.83
414.276	318.46
414.485	375.8
414.693	334.84
414.901	463.86
415.11	410.62
415.318	439.29
415.526	474.1
415.734	519.16
415.943	494.58
416.151	484.34
416.359	379.9
416.567	553.98
416.776	476.15
416.984	437.24
417.192	668.66
417.4	611.32
417.608	545.78
417.817	527.35
418.025	676.85
418.233	676.85
418.441	691.19
418.649	723.96
418.857	738.29
419.065	805.88
419.273	685.05
419.481	822.26
419.689	812.02
419.897	803.83
420.105	844.79
420.313	883.7
420.521	914.42
420.729	1006.58
420.937	1094.64
421.145	951.28
421.353	1025.01
421.561	1151.98
421.769	1174.51
421.977	1264.62
422.185	1106.93
422.393	1182.7
422.601	1278.96
422.809	1328.11
423.017	1336.3
423.224	1405.93
423.432	1473.51
423.64	1483.75
423.848	1543.14
424.056	1516.52
424.263	1725.41
424.471	1500.14
424.679	1659.88
424.887	1766.37
425.094	1813.48
425.302	1864.68
425.51	1909.73
425.718	1885.16
425.925	1915.87
426.133	2001.89
426.341	2218.97
426.548	2298.84
426.756	2237.41
426.964	2257.89
427.171	2345.95
427.379	2427.87
427.586	2626.52
427.794	2612.18
428.001	2798.55
428.209	2823.12
428.417	2773.97
428.624	3093.46
428.832	3083.22
429.039	2948.05
429.247	3068.88
429.454	3179.47
429.662	3400.65
429.869	3281.87
430.076	3453.9
430.284	3419.08
430.491	3400.65
430.699	3660.74
430.906	3625.93
431.114	3791.81
431.321	3896.26
431.528	3939.27
431.736	4238.27
431.943	4283.33
432.15	4350.91
432.358	4334.53
432.565	4578.23
432.772	4524.99
432.979	4719.54
433.187	5088.18
433.394	4848.57
433.601	5170.1
433.808	5221.3
434.016	5301.17
434.223	5422
434.43	5690.28
434.637	5694.38
434.844	5989.28
435.052	6124.45
435.259	6110.11
435.466	6132.64
435.673	6200.23
435.88	6448.03
436.087	7011.22
436.294	6900.63
436.501	6663.07
436.708	6687.64
436.915	7132.05
437.122	7338.9
437.329	7361.42
437.537	7713.67
437.743	7682.95
437.95	7619.47
438.157	8035.21
438.364	8434.56
438.571	8170.37
438.778	8416.13
438.985	9036.66
439.192	8833.91
439.399	8885.11
439.606	8833.91
439.813	9335.67
440.02	9966.44
440.227	9739.12
440.433	9710.44
440.64	10093.41
440.847	9925.48
441.054	10236.77
441.261	10879.83
441.467	10576.73
441.674	10867.55
441.881	11178.84
442.088	11344.72
442.294	11174.74
442.501	11453.27
442.708	11871.05
442.914	12270.4
443.121	12972.86
443.328	12399.43
443.534	13269.81
443.741	12964.67
443.948	12938.04
444.154	13667.12
444.361	13824.81
444.568	13867.82
444.774	13869.87
444.981	13966.12
445.187	14519.07
445.394	14986.01
445.6	14666.53
445.807	16251.66
446.013	15469.33
446.22	15887.12
446.426	16546.56
446.633	16401.16
446.839	17453.81
447.046	16567.04
447.252	17468.15
447.459	17347.32
447.665	17558.26
447.871	18438.89
448.078	19251.93
448.284	18287.34
448.491	18512.61
448.697	19163.87
448.903	19727.06
449.11	19989.2
449.316	19512.02
449.522	19999.44
449.728	20521.67
449.935	20734.66
450.141	20628.17
450.347	20939.46
450.553	20390.6
450.76	20693.7
450.966	21553.85
451.172	21521.08
451.378	21883.57
451.584	21527.22
451.791	21947.06
451.997	21912.24
452.203	22387.37
452.409	22641.32
452.615	22194.86
452.821	21498.55
453.027	21330.62
453.233	22418.09
453.44	21574.33
453.646	21635.77
453.852	21541.56
454.058	22399.66
454.264	21713.59
454.47	22102.7
454.676	21449.4
454.882	21881.52
455.088	20439.75
455.294	20593.35
455.5	21066.43
455.705	21269.18
455.911	20548.29
456.117	20200.14
456.323	19604.18
456.529	18604.77
456.735	19475.16
456.941	19057.37
457.147	18639.59
457.352	18141.93
457.558	18066.16
457.764	18084.59
457.97	17281.78
458.176	17326.84
458.381	17414.9
458.587	16184.07
458.793	16661.25
458.999	15663.89
459.204	16794.37
459.41	16159.5
459.616	14988.06
459.821	15053.59
460.027	15196.95
460.233	14885.66
460.438	14082.86
460.644	14119.72
460.85	13695.79
461.055	13308.72
461.261	13361.97
461.466	12387.14
461.672	11856.72
461.878	12819.26
462.083	11895.63
462.289	11889.48
462.494	11924.3
462.7	11131.73
462.905	11051.86
463.111	11375.44
463.316	11297.62
463.522	10963.8
463.727	11066.2
463.932	10859.35
464.138	10802.01
464.343	11060.06
464.549	10693.47
464.754	10888.03
464.959	10896.22
465.165	10986.33
465.37	10449.76
465.575	10150.76
465.781	10474.34
465.986	10455.9
466.191	10320.74
466.397	10048.36
466.602	9497.46
466.807	9765.74
467.012	9735.02
467.218	9943.91
467.423	9599.85
467.628	9755.5
467.833	10335.07
468.038	9866.09
468.244	9808.75
468.449	9976.68
468.654	9573.23
468.859	9483.12
469.064	9476.98
469.269	9171.83
