Data from USB4F104151__91__13-00-05-459.txt Node

Date: Fri Mar 14 13:00:05 EDT 2025
User: louis
Spectrometer: USB4F10415
Trigger mode: 4
Integration Time (sec): 1.000000E-2
Scans to average: 1
Electric dark correction enabled: true
Nonlinearity correction enabled: false
Boxcar width: 0
XAxis mode: Wavelengths
Number of Pixels in Spectrum: 3648
>>>>>Begin Spectral Data<<<<<
178.204	-96.08
178.424	-96.08
178.644	-96.08
178.864	4.27
179.084	-26.45
179.304	8.36
179.524	-26.45
179.744	28.84
179.964	-16.21
180.184	28.84
180.404	14.51
180.624	-26.45
180.844	0.17
181.064	-16.21
181.283	2.22
181.503	10.41
181.723	-8.02
181.943	-32.6
182.163	30.89
182.383	69.8
182.602	-36.69
182.822	51.37
183.042	-1.88
183.262	-30.55
183.482	43.18
183.701	10.41
183.921	20.65
184.141	39.08
184.361	-8.02
184.58	14.51
184.8	-63.32
185.02	41.13
185.239	32.94
185.459	-12.12
185.679	6.31
185.898	-75.6
186.118	-32.6
186.338	-48.98
186.557	41.13
186.777	-1.88
186.997	-26.45
187.216	47.27
187.436	6.31
187.655	28.84
187.875	-30.55
188.095	-16.21
188.314	6.31
188.534	24.75
188.753	-32.6
188.973	47.27
189.192	6.31
189.412	14.51
189.631	26.79
189.851	-20.31
190.07	-12.12
190.29	57.51
190.509	4.27
190.729	47.27
190.948	18.6
191.168	34.99
191.387	30.89
191.607	-8.02
191.826	37.03
192.045	20.65
192.265	2.22
192.484	-8.02
192.704	-5.97
192.923	-14.17
193.142	30.89
193.362	2.22
193.581	-10.07
193.8	8.36
194.02	16.55
194.239	4.27
194.458	116.9
194.678	-16.21
194.897	-5.97
195.116	10.41
195.335	6.31
195.555	-8.02
195.774	22.7
195.993	49.32
196.212	-14.17
196.432	37.03
196.651	8.36
196.87	43.18
197.089	28.84
197.308	-26.45
197.528	20.65
197.747	-24.4
197.966	16.55
198.185	43.18
198.404	26.79
198.623	-67.41
198.842	43.18
199.062	-63.32
199.281	12.46
199.5	18.6
199.719	0.17
199.938	12.46
200.157	37.03
200.376	-1.88
200.595	61.61
200.814	20.65
201.033	-1.88
201.252	-14.17
201.471	10.41
201.69	0.17
201.909	57.51
202.128	-1.88
202.347	37.03
202.566	34.99
202.785	-3.93
203.004	20.65
203.223	47.27
203.442	-32.6
203.661	-59.22
203.879	-32.6
204.098	63.66
204.317	-40.79
204.536	8.36
204.755	18.6
204.974	-14.17
205.193	-22.36
205.411	55.47
205.63	41.13
205.849	14.51
206.068	69.8
206.287	16.55
206.505	18.6
206.724	65.71
206.943	-18.26
207.162	-3.93
207.381	2.22
207.599	8.36
207.818	-8.02
208.037	24.75
208.255	-1.88
208.474	51.37
208.693	-1.88
208.911	47.27
209.13	0.17
209.349	-46.93
209.567	-40.79
209.786	0.17
210.005	63.66
210.223	2.22
210.442	-65.36
210.661	-24.4
210.879	24.75
211.098	32.94
211.316	30.89
211.535	-12.12
211.753	2.22
211.972	41.13
212.191	100.52
212.409	-26.45
212.628	4.27
212.846	-34.64
213.065	47.27
213.283	-1.88
213.502	-75.6
213.72	-81.75
213.938	-48.98
214.157	-24.4
214.375	26.79
214.594	57.51
214.812	-3.93
215.031	-5.97
215.249	18.6
215.467	16.55
215.686	12.46
215.904	57.51
216.122	30.89
216.341	-71.51
216.559	53.42
216.778	45.23
216.996	49.32
217.214	34.99
217.432	-12.12
217.651	-18.26
217.869	-42.84
218.087	-12.12
218.306	20.65
218.524	8.36
218.742	45.23
218.96	30.89
219.179	14.51
219.397	39.08
219.615	75.95
219.833	43.18
220.051	41.13
220.27	57.51
220.488	18.6
220.706	-1.88
220.924	24.75
221.142	39.08
221.36	12.46
221.578	10.41
221.796	-5.97
222.015	-51.03
222.233	-53.08
222.451	-42.84
222.669	-18.26
222.887	88.23
223.105	14.51
223.323	30.89
223.541	24.75
223.759	-5.97
223.977	2.22
224.195	69.8
224.413	55.47
224.631	47.27
224.849	39.08
225.067	-10.07
225.285	20.65
225.503	8.36
225.721	-3.93
225.939	32.94
226.157	-32.6
226.375	71.85
226.592	18.6
226.81	26.79
227.028	65.71
227.246	30.89
227.464	-14.17
227.682	75.95
227.9	41.13
228.117	41.13
228.335	59.56
228.553	47.27
228.771	-32.6
228.989	-14.17
229.206	-1.88
229.424	-5.97
229.642	16.55
229.86	18.6
230.077	51.37
230.295	20.65
230.513	57.51
230.731	55.47
230.948	2.22
231.166	22.7
231.384	18.6
231.601	16.55
231.819	32.94
232.037	-30.55
232.254	10.41
232.472	-26.45
232.689	-8.02
232.907	96.43
233.125	-69.46
233.342	-36.69
233.56	-24.4
233.777	61.61
233.995	6.31
234.213	51.37
234.43	-10.07
234.648	-18.26
234.865	37.03
235.083	-61.27
235.3	41.13
235.518	28.84
235.735	12.46
235.953	-1.88
236.17	22.7
236.388	-5.97
236.605	47.27
236.822	71.85
237.04	-22.36
237.257	-5.97
237.475	-8.02
237.692	-5.97
237.909	45.23
238.127	41.13
238.344	-22.36
238.562	2.22
238.779	-20.31
238.996	-1.88
239.214	-46.93
239.431	-22.36
239.648	0.17
239.865	-67.41
240.083	-38.74
240.3	-69.46
240.517	14.51
240.735	6.31
240.952	-20.31
241.169	22.7
241.386	-30.55
241.603	8.36
241.821	28.84
242.038	39.08
242.255	55.47
242.472	47.27
242.689	53.42
242.907	8.36
243.124	-10.07
243.341	-48.98
243.558	14.51
243.775	34.99
243.992	10.41
244.209	28.84
244.426	6.31
244.643	57.51
244.86	10.41
245.078	22.7
245.295	75.95
245.512	24.75
245.729	41.13
245.946	55.47
246.163	16.55
246.38	63.66
246.597	0.17
246.814	-16.21
247.031	10.41
247.248	-40.79
247.464	51.37
247.681	-26.45
247.898	24.75
248.115	-30.55
248.332	4.27
248.549	47.27
248.766	59.56
248.983	-46.93
249.2	65.71
249.417	14.51
249.633	-30.55
249.85	-38.74
250.067	8.36
250.284	18.6
250.501	-1.88
250.717	49.32
250.934	26.79
251.151	26.79
251.368	77.99
251.585	-12.12
251.801	-5.97
252.018	53.42
252.235	-1.88
252.451	-44.88
252.668	14.51
252.885	-36.69
253.102	12.46
253.318	8.36
253.535	53.42
253.752	10.41
253.968	45.23
254.185	-18.26
254.401	-1.88
254.618	30.89
254.835	8.36
255.051	71.85
255.268	30.89
255.484	22.7
255.701	-1.88
255.917	-14.17
256.134	51.37
256.351	-42.84
256.567	-18.26
256.784	2.22
257	6.31
257.217	73.9
257.433	-14.17
257.65	94.38
257.866	8.36
258.082	4.27
258.299	22.7
258.515	37.03
258.732	-46.93
258.948	47.27
259.165	8.36
259.381	-1.88
259.597	-51.03
259.814	-32.6
260.03	-73.56
260.246	4.27
260.463	26.79
260.679	59.56
260.895	24.75
261.112	20.65
261.328	-14.17
261.544	-20.31
261.761	51.37
261.977	10.41
262.193	16.55
262.409	-32.6
262.626	30.89
262.842	-26.45
263.058	34.99
263.274	82.09
263.49	20.65
263.707	112.81
263.923	-55.12
264.139	24.75
264.355	34.99
264.571	0.17
264.787	8.36
265.004	75.95
265.22	-14.17
265.436	26.79
265.652	16.55
265.868	-5.97
266.084	-8.02
266.3	-8.02
266.516	-57.17
266.732	10.41
266.948	104.62
267.164	61.61
267.38	41.13
267.596	-26.45
267.812	45.23
268.028	16.55
268.244	22.7
268.46	34.99
268.676	-30.55
268.892	41.13
269.108	-36.69
269.324	-10.07
269.54	-1.88
269.756	-36.69
269.972	47.27
270.188	-20.31
270.403	-51.03
270.619	14.51
270.835	16.55
271.051	-1.88
271.267	10.41
271.483	37.03
271.698	34.99
271.914	47.27
272.13	-63.32
272.346	-26.45
272.562	-12.12
272.777	14.51
272.993	32.94
273.209	69.8
273.425	20.65
273.64	59.56
273.856	-14.17
274.072	51.37
274.287	18.6
274.503	-16.21
274.719	12.46
274.934	-26.45
275.15	10.41
275.366	8.36
275.581	0.17
275.797	12.46
276.012	2.22
276.228	-22.36
276.444	-1.88
276.659	24.75
276.875	41.13
277.09	22.7
277.306	-18.26
277.521	-44.88
277.737	-22.36
277.952	6.31
278.168	24.75
278.383	59.56
278.599	2.22
278.814	67.75
279.03	37.03
279.245	39.08
279.461	22.7
279.676	2.22
279.892	41.13
280.107	-85.84
280.322	-75.6
280.538	32.94
280.753	-38.74
280.969	71.85
281.184	12.46
281.399	30.89
281.615	-10.07
281.83	-18.26
282.045	14.51
282.26	18.6
282.476	2.22
282.691	-24.4
282.906	-24.4
283.122	-36.69
283.337	-42.84
283.552	-55.12
283.767	73.9
283.983	-18.26
284.198	-26.45
284.413	-28.5
284.628	-22.36
284.843	61.61
285.058	88.23
285.274	32.94
285.489	18.6
285.704	57.51
285.919	-16.21
286.134	41.13
286.349	-5.97
286.564	-18.26
286.779	37.03
286.995	14.51
287.21	116.9
287.425	43.18
287.64	24.75
287.855	86.19
288.07	8.36
288.285	-28.5
288.5	-44.88
288.715	18.6
288.93	30.89
289.145	45.23
289.36	28.84
289.575	18.6
289.79	-38.74
290.004	37.03
290.219	-8.02
290.434	26.79
290.649	55.47
290.864	30.89
291.079	4.27
291.294	8.36
291.509	-3.93
291.724	18.6
291.938	22.7
292.153	16.55
292.368	8.36
292.583	-53.08
292.798	22.7
293.012	6.31
293.227	-46.93
293.442	-3.93
293.657	41.13
293.871	43.18
294.086	-16.21
294.301	0.17
294.516	-40.79
294.73	6.31
294.945	39.08
295.16	47.27
295.374	98.47
295.589	63.66
295.804	34.99
296.018	26.79
296.233	-36.69
296.447	24.75
296.662	-12.12
296.877	80.04
297.091	-1.88
297.306	28.84
297.52	-55.12
297.735	18.6
297.949	0.17
298.164	39.08
298.378	-40.79
298.593	51.37
298.807	-8.02
299.022	12.46
299.236	-98.13
299.451	-8.02
299.665	2.22
299.88	-34.64
300.094	-18.26
300.309	-3.93
300.523	-40.79
300.737	8.36
300.952	53.42
301.166	-59.22
301.381	-8.02
301.595	59.56
301.809	-1.88
302.024	-3.93
302.238	57.51
302.452	16.55
302.667	84.14
302.881	14.51
303.095	-28.5
303.309	22.7
303.524	51.37
303.738	-3.93
303.952	30.89
304.166	71.85
304.381	10.41
304.595	16.55
304.809	2.22
305.023	4.27
305.237	28.84
305.452	-24.4
305.666	-10.07
305.88	39.08
306.094	45.23
306.308	73.9
306.522	-5.97
306.736	24.75
306.95	6.31
307.164	-12.12
307.379	-32.6
307.593	51.37
307.807	75.95
308.021	8.36
308.235	2.22
308.449	22.7
308.663	14.51
308.877	114.86
309.091	20.65
309.305	2.22
309.519	-42.84
309.733	12.46
309.947	43.18
310.161	65.71
310.374	55.47
310.588	39.08
310.802	-40.79
311.016	-18.26
311.23	90.28
311.444	57.51
311.658	-26.45
311.872	67.75
312.085	39.08
312.299	63.66
312.513	82.09
312.727	18.6
312.941	-1.88
313.154	39.08
313.368	30.89
313.582	0.17
313.796	-38.74
314.009	110.76
314.223	22.7
314.437	8.36
314.651	0.17
314.864	41.13
315.078	-42.84
315.292	-46.93
315.505	16.55
315.719	22.7
315.933	-18.26
316.146	-38.74
316.36	6.31
316.573	51.37
316.787	-1.88
317.001	-20.31
317.214	-51.03
317.428	0.17
317.641	6.31
317.855	71.85
318.068	-30.55
318.282	77.99
318.495	-44.88
318.709	18.6
318.922	4.27
319.136	-1.88
319.349	10.41
319.563	55.47
319.776	-63.32
319.99	0.17
320.203	16.55
320.417	71.85
320.63	20.65
320.843	28.84
321.057	6.31
321.27	26.79
321.483	-32.6
321.697	59.56
321.91	0.17
322.124	-16.21
322.337	51.37
322.55	-24.4
322.763	41.13
322.977	20.65
323.19	-42.84
323.403	-40.79
323.617	4.27
323.83	20.65
324.043	2.22
324.256	-10.07
324.469	-36.69
324.683	24.75
324.896	-18.26
325.109	37.03
325.322	-24.4
325.535	63.66
325.748	10.41
325.962	2.22
326.175	45.23
326.388	73.9
326.601	61.61
326.814	59.56
327.027	55.47
327.24	37.03
327.453	28.84
327.666	-10.07
327.879	30.89
328.092	86.19
328.305	14.51
328.518	24.75
328.731	-14.17
328.944	-5.97
329.157	-18.26
329.37	22.7
329.583	-1.88
329.796	39.08
330.009	-32.6
330.222	0.17
330.435	34.99
330.648	51.37
330.861	-24.4
331.073	14.51
331.286	22.7
331.499	-18.26
331.712	57.51
331.925	45.23
332.138	-38.74
332.35	59.56
332.563	-34.64
332.776	-8.02
332.989	39.08
333.202	63.66
333.414	59.56
333.627	16.55
333.84	18.6
334.053	-14.17
334.265	6.31
334.478	-48.98
334.691	41.13
334.903	6.31
335.116	41.13
335.329	75.95
335.541	16.55
335.754	-10.07
335.966	10.41
336.179	59.56
336.392	24.75
336.604	6.31
336.817	24.75
337.029	96.43
337.242	39.08
337.454	80.04
337.667	-26.45
337.88	59.56
338.092	51.37
338.305	14.51
338.517	77.99
338.729	77.99
338.942	10.41
339.154	-18.26
339.367	6.31
339.579	30.89
339.792	45.23
340.004	41.13
340.217	-110.42
340.429	65.71
340.641	6.31
340.854	63.66
341.066	22.7
341.278	24.75
341.491	28.84
341.703	6.31
341.915	-22.36
342.128	-10.07
342.34	24.75
342.552	26.79
342.764	49.32
342.977	28.84
343.189	61.61
343.401	59.56
343.613	37.03
343.826	41.13
344.038	28.84
344.25	34.99
344.462	55.47
344.674	16.55
344.886	18.6
345.099	-1.88
345.311	4.27
345.523	6.31
345.735	57.51
345.947	-34.64
346.159	4.27
346.371	-1.88
346.583	16.55
346.795	6.31
347.007	-1.88
347.219	39.08
347.431	121
347.643	39.08
347.855	34.99
348.067	57.51
348.279	12.46
348.491	-34.64
348.703	6.31
348.915	24.75
349.127	63.66
349.339	22.7
349.551	12.46
349.763	80.04
349.975	14.51
350.187	6.31
350.399	10.41
350.61	-36.69
350.822	-34.64
351.034	-32.6
351.246	-16.21
351.458	-40.79
351.669	18.6
351.881	-24.4
352.093	-34.64
352.305	90.28
352.517	10.41
352.728	-10.07
352.94	18.6
353.152	18.6
353.363	-5.97
353.575	16.55
353.787	-91.99
353.999	43.18
354.21	-22.36
354.422	18.6
354.633	12.46
354.845	104.62
355.057	-5.97
355.268	10.41
355.48	-36.69
355.692	30.89
355.903	24.75
356.115	22.7
356.326	-67.41
356.538	26.79
356.749	-5.97
356.961	47.27
357.172	10.41
357.384	-32.6
357.595	18.6
357.807	16.55
358.018	-24.4
358.23	80.04
358.441	43.18
358.653	-51.03
358.864	22.7
359.075	57.51
359.287	55.47
359.498	41.13
359.709	71.85
359.921	-24.4
360.132	67.75
360.344	2.22
360.555	43.18
360.766	-18.26
360.977	-20.31
361.189	59.56
361.4	-26.45
361.611	-36.69
361.823	-32.6
362.034	47.27
362.245	114.86
362.456	2.22
362.667	-12.12
362.879	84.14
363.09	-18.26
363.301	20.65
363.512	20.65
363.723	98.47
363.935	41.13
364.146	-59.22
364.357	51.37
364.568	6.31
364.779	30.89
364.99	71.85
365.201	6.31
365.412	24.75
365.623	-14.17
365.834	41.13
366.045	6.31
366.256	-34.64
366.467	14.51
366.678	108.71
366.889	30.89
367.1	20.65
367.311	2.22
367.522	-22.36
367.733	20.65
367.944	22.7
368.155	-32.6
368.366	10.41
368.577	20.65
368.788	88.23
368.999	-3.93
369.209	2.22
369.42	45.23
369.631	39.08
369.842	45.23
370.053	86.19
370.264	2.22
370.474	32.94
370.685	67.75
370.896	26.79
371.107	14.51
371.317	53.42
371.528	-34.64
371.739	77.99
371.95	10.41
372.16	-38.74
372.371	57.51
372.582	-20.31
372.792	10.41
373.003	-8.02
373.214	61.61
373.424	-32.6
373.635	-26.45
373.846	88.23
374.056	30.89
374.267	22.7
374.477	51.37
374.688	-3.93
374.898	20.65
375.109	51.37
375.319	39.08
375.53	18.6
375.74	-8.02
375.951	4.27
376.161	51.37
376.372	57.51
376.582	57.51
376.793	96.43
377.003	0.17
377.214	22.7
377.424	0.17
377.635	14.51
377.845	41.13
378.055	84.14
378.266	-8.02
378.476	75.95
378.686	0.17
378.897	30.89
379.107	32.94
379.317	123.05
379.528	-32.6
379.738	-1.88
379.948	47.27
380.158	22.7
380.369	-65.36
380.579	16.55
380.789	22.7
380.999	73.9
381.21	18.6
381.42	65.71
381.63	20.65
381.84	24.75
382.05	-53.08
382.261	55.47
382.471	10.41
382.681	37.03
382.891	80.04
383.101	0.17
383.311	20.65
383.521	63.66
383.731	14.51
383.941	96.43
384.151	63.66
384.361	69.8
384.571	90.28
384.781	57.51
384.991	-10.07
385.201	55.47
385.411	30.89
385.621	-1.88
385.831	51.37
386.041	-8.02
386.251	-12.12
386.461	90.28
386.671	22.7
386.881	41.13
387.091	43.18
387.301	73.9
387.511	-12.12
387.72	12.46
387.93	-8.02
388.14	37.03
388.35	-46.93
388.56	28.84
388.769	127.14
388.979	88.23
389.189	16.55
389.399	39.08
389.609	10.41
389.818	65.71
390.028	47.27
390.238	41.13
390.447	22.7
390.657	121
390.867	69.8
391.076	14.51
391.286	24.75
391.496	-20.31
391.705	67.75
391.915	47.27
392.125	-34.64
392.334	16.55
392.544	0.17
392.753	67.75
392.963	-34.64
393.172	123.05
393.382	-16.21
393.591	39.08
393.801	2.22
394.01	-8.02
394.22	39.08
394.429	28.84
394.639	-69.46
394.848	53.42
395.058	39.08
395.267	51.37
395.477	49.32
395.686	123.05
395.895	39.08
396.105	51.37
396.314	10.41
396.524	55.47
396.733	77.99
396.942	45.23
397.152	12.46
397.361	69.8
397.57	18.6
397.78	8.36
397.989	43.18
398.198	45.23
398.407	-1.88
398.617	59.56
398.826	98.47
399.035	16.55
399.244	88.23
399.453	59.56
399.663	86.19
399.872	26.79
400.081	102.57
400.29	2.22
400.499	57.51
400.708	41.13
400.917	10.41
401.127	151.72
401.336	24.75
401.545	57.51
401.754	55.47
401.963	90.28
402.172	63.66
402.381	65.71
402.59	143.53
402.799	88.23
403.008	71.85
403.217	-5.97
403.426	55.47
403.635	-40.79
403.844	49.32
404.053	-12.12
404.262	100.52
404.471	30.89
404.68	51.37
404.888	-8.02
405.097	82.09
405.306	63.66
405.515	43.18
405.724	96.43
405.933	110.76
406.142	59.56
406.35	84.14
406.559	110.76
406.768	16.55
406.977	149.67
407.185	112.81
407.394	108.71
407.603	67.75
407.812	116.9
408.02	90.28
408.229	121
408.438	73.9
408.646	116.9
408.855	77.99
409.064	100.52
409.272	82.09
409.481	157.86
409.69	43.18
409.898	100.52
410.107	71.85
410.315	129.19
410.524	168.1
410.733	67.75
410.941	198.82
411.15	215.21
411.358	155.82
411.567	139.43
411.775	155.82
411.984	256.17
412.192	237.74
412.401	188.58
412.609	190.63
412.818	241.83
413.026	186.54
413.234	282.79
413.443	219.3
413.651	209.06
413.86	252.07
414.068	305.32
414.276	286.89
414.485	223.4
414.693	219.3
414.901	288.93
415.11	276.65
415.318	319.65
415.526	336.04
415.734	311.46
415.943	333.99
416.151	336.04
416.359	379.04
416.567	336.04
416.776	354.47
416.984	381.09
417.192	432.29
417.4	473.25
417.608	403.62
417.817	434.34
418.025	495.78
418.233	467.11
418.441	446.63
418.649	487.59
418.857	549.03
419.065	546.98
419.273	503.97
419.481	592.03
419.689	594.08
419.897	628.9
420.105	598.18
420.313	704.67
420.521	712.86
420.729	731.3
420.937	784.54
421.145	800.93
421.353	743.58
421.561	780.45
421.769	852.13
421.977	825.5
422.185	913.56
422.393	854.17
422.601	925.85
422.809	1005.72
423.017	1005.72
423.224	999.58
423.432	1071.26
423.64	1063.07
423.848	1161.37
424.056	1114.27
424.263	1165.46
424.471	1263.77
424.679	1247.38
424.887	1206.42
425.094	1323.16
425.302	1345.69
425.51	1396.89
425.718	1443.99
425.925	1400.98
426.133	1437.84
426.341	1607.83
426.548	1646.74
426.756	1616.02
426.964	1648.79
427.171	1792.14
427.379	1937.55
427.586	1837.2
427.794	1857.68
428.001	1984.65
428.209	2062.48
428.417	2132.11
428.624	2226.31
428.832	2095.24
429.039	2209.93
429.247	2209.93
429.454	2431.11
429.662	2527.36
429.869	2453.64
430.076	2472.07
430.284	2578.56
430.491	2502.79
430.699	2742.4
430.906	2746.5
431.114	2775.17
431.321	2820.22
431.528	2953.34
431.736	3141.75
431.943	3217.53
432.15	3246.2
432.358	3221.63
432.565	3379.32
432.772	3326.07
432.979	3586.16
433.187	3641.46
433.394	3799.15
433.601	3944.56
433.808	3866.74
434.016	3799.15
434.223	4186.22
434.43	4243.56
434.637	4175.98
434.844	4319.34
435.052	4606.05
435.259	4536.42
435.466	4630.63
435.673	4542.57
435.88	4841.57
436.087	4937.82
436.294	5089.37
436.501	4978.78
436.708	4941.92
436.915	5216.35
437.122	5496.92
437.329	5421.14
437.537	5650.52
437.743	5746.77
437.95	5724.24
438.157	5949.52
438.364	6129.74
438.571	6127.69
438.778	6232.14
438.985	6717.51
439.192	6512.71
439.399	6873.15
439.606	6760.52
439.813	6891.59
440.02	7469.11
440.227	7295.04
440.433	7333.95
440.64	7243.84
440.847	7452.73
441.054	7581.75
441.261	8110.13
441.467	7946.29
441.674	8153.13
441.881	8521.77
442.088	8339.5
442.294	8241.2
442.501	8566.82
442.708	8822.82
442.914	9158.69
443.121	9412.64
443.328	9207.84
443.534	9869.33
443.741	9629.72
443.948	9496.6
444.154	10162.19
444.361	10197.01
444.568	10311.69
444.774	10231.82
444.981	10432.52
445.187	10534.92
445.394	11175.94
445.6	10838.02
445.807	12179.44
446.013	11393.02
446.22	11710.46
446.426	12177.39
446.633	12253.17
446.839	12673
447.046	12214.26
447.252	13037.54
447.459	12943.33
447.665	12959.72
447.871	13461.47
448.078	14215.12
448.284	13578.2
448.491	13684.7
448.697	14268.37
448.903	14600.14
449.11	14718.92
449.316	14417.87
449.522	14655.44
449.728	15112.13
449.935	15480.77
450.141	15312.83
450.347	15448
450.553	15163.33
450.76	15284.16
450.966	16265.14
451.172	15826.87
451.378	16031.67
451.584	16023.48
451.791	16230.32
451.997	16056.25
452.203	16408.5
452.409	16770.99
452.615	16273.33
452.821	15833.02
453.027	15755.19
453.233	16209.84
453.44	15916.98
453.646	15857.59
453.852	16017.33
454.058	16449.46
454.264	15959.99
454.47	16324.53
454.676	15998.9
454.882	16154.55
455.088	14868.42
455.294	14811.08
455.5	15339.46
455.705	15427.52
455.911	14999.49
456.117	14675.91
456.323	14706.63
456.529	13744.09
456.735	14213.07
456.941	14116.82
457.147	13473.76
457.352	13264.86
457.558	13211.62
457.764	12957.67
457.97	13182.95
458.176	12730.34
458.381	12765.16
458.587	12101.62
458.793	12320.75
458.999	11411.45
459.204	12189.68
459.41	12066.8
459.616	11149.31
459.821	11280.38
460.027	10991.62
460.233	10870.79
460.438	10278.93
460.644	10508.3
460.85	10160.14
461.055	9766.93
461.261	9773.08
461.466	9103.39
461.672	8890.4
461.878	9525.27
462.083	8837.16
462.289	8618.02
462.494	8640.55
462.7	8108.08
462.905	7936.05
463.111	8429.61
463.316	8202.29
463.522	8245.29
463.727	8106.03
463.932	8093.74
464.138	8128.56
464.343	7944.24
464.549	7919.67
464.754	8183.85
464.959	7977.01
465.165	8163.37
465.37	7764.02
465.575	7520.31
465.781	7794.74
465.986	7800.88
466.191	7477.3
466.397	7315.52
466.602	7057.47
466.807	7381.05
467.012	7180.35
467.218	7075.9
467.423	7192.64
467.628	7147.58
467.833	7616.57
468.038	7364.67
468.244	7071.81
468.449	7264.32
468.654	7049.28
468.859	7145.53
469.064	7000.13
469.269	6787.14
