Data from USB4F104151__69__12-59-36-262.txt Node

Date: Fri Mar 14 12:59:36 EDT 2025
User: louis
Spectrometer: USB4F10415
Trigger mode: 4
Integration Time (sec): 1.000000E-2
Scans to average: 1
Electric dark correction enabled: true
Nonlinearity correction enabled: false
Boxcar width: 0
XAxis mode: Wavelengths
Number of Pixels in Spectrum: 3648
>>>>>Begin Spectral Data<<<<<
178.204	-51.2
178.424	-51.2
178.644	-51.2
178.864	-30.72
179.084	-4.1
179.304	-47.1
179.524	12.29
179.744	-4.1
179.964	-40.96
180.184	-8.19
180.404	20.48
180.624	-18.43
180.844	61.44
181.064	-0
181.283	16.38
181.503	16.38
181.723	-8.19
181.943	-40.96
182.163	43.01
182.383	-2.05
182.602	49.15
182.822	-24.58
183.042	24.58
183.262	-30.72
183.482	22.53
183.701	-8.19
183.921	2.05
184.141	61.44
184.361	16.38
184.58	49.15
184.8	12.29
185.02	-30.72
185.239	16.38
185.459	16.38
185.679	12.29
185.898	-10.24
186.118	38.91
186.338	-20.48
186.557	65.53
186.777	24.58
186.997	22.53
187.216	-59.39
187.436	75.77
187.655	-63.49
187.875	-20.48
188.095	18.43
188.314	18.43
188.534	14.34
188.753	6.14
188.973	4.1
189.192	-34.82
189.412	-14.34
189.631	81.92
189.851	-20.48
190.07	57.34
190.29	-6.14
190.509	-38.91
190.729	-14.34
190.948	43.01
191.168	28.67
191.387	102.4
191.607	90.11
191.826	45.06
192.045	-4.1
192.265	24.58
192.484	36.86
192.704	12.29
192.923	-0
193.142	-20.48
193.362	18.43
193.581	57.34
193.8	53.25
194.02	-24.58
194.239	18.43
194.458	34.82
194.678	-24.58
194.897	61.44
195.116	8.19
195.335	6.14
195.555	-12.29
195.774	45.06
195.993	20.48
196.212	40.96
196.432	-55.3
196.651	-34.82
196.87	57.34
197.089	-8.19
197.308	57.34
197.528	43.01
197.747	-8.19
197.966	12.29
198.185	12.29
198.404	-40.96
198.623	-20.48
198.842	24.58
199.062	67.58
199.281	-24.58
199.5	-8.19
199.719	24.58
199.938	-26.62
200.157	24.58
200.376	-45.06
200.595	65.53
200.814	-8.19
201.033	6.14
201.252	26.62
201.471	2.05
201.69	-24.58
201.909	26.62
202.128	61.44
202.347	-6.14
202.566	-2.05
202.785	20.48
203.004	-45.06
203.223	75.77
203.442	-0
203.661	18.43
203.879	2.05
204.098	-8.19
204.317	-12.29
204.536	59.39
204.755	14.34
204.974	51.2
205.193	28.67
205.411	12.29
205.63	-20.48
205.849	43.01
206.068	-18.43
206.287	65.53
206.505	-30.72
206.724	-8.19
206.943	12.29
207.162	47.1
207.381	112.64
207.599	16.38
207.818	18.43
208.037	40.96
208.255	-6.14
208.474	57.34
208.693	-22.53
208.911	16.38
209.13	-12.29
209.349	-8.19
209.567	47.1
209.786	-6.14
210.005	30.72
210.223	40.96
210.442	-30.72
210.661	22.53
210.879	40.96
211.098	4.1
211.316	51.2
211.535	8.19
211.753	-45.06
211.972	8.19
212.191	-14.34
212.409	-20.48
212.628	28.67
212.846	-28.67
213.065	8.19
213.283	53.25
213.502	-83.97
213.72	71.68
213.938	22.53
214.157	-36.86
214.375	14.34
214.594	22.53
214.812	6.14
215.031	49.15
215.249	36.86
215.467	32.77
215.686	36.86
215.904	-2.05
216.122	16.38
216.341	6.14
216.559	57.34
216.778	10.24
216.996	79.87
217.214	-24.58
217.432	28.67
217.651	-30.72
217.869	10.24
218.087	-18.43
218.306	-57.34
218.524	43.01
218.742	-32.77
218.96	2.05
219.179	43.01
219.397	81.92
219.615	96.25
219.833	40.96
220.051	12.29
220.27	32.77
220.488	30.72
220.706	10.24
220.924	22.53
221.142	65.53
221.36	-6.14
221.578	12.29
221.796	73.73
222.015	-6.14
222.233	16.38
222.451	63.49
222.669	28.67
222.887	28.67
223.105	-38.91
223.323	-20.48
223.541	36.86
223.759	22.53
223.977	-28.67
224.195	22.53
224.413	2.05
224.631	139.26
224.849	10.24
225.067	69.63
225.285	90.11
225.503	-24.58
225.721	-6.14
225.939	51.2
226.157	6.14
226.375	18.43
226.592	-26.62
226.81	34.82
227.028	22.53
227.246	38.91
227.464	18.43
227.682	49.15
227.9	-2.05
228.117	6.14
228.335	79.87
228.553	28.67
228.771	-40.96
228.989	49.15
229.206	131.07
229.424	4.1
229.642	49.15
229.86	2.05
230.077	-112.64
230.295	59.39
230.513	-73.73
230.731	34.82
230.948	16.38
231.166	-18.43
231.384	-26.62
231.601	-18.43
231.819	51.2
232.037	55.3
232.254	-2.05
232.472	34.82
232.689	-10.24
232.907	57.34
233.125	24.58
233.342	14.34
233.56	22.53
233.777	-20.48
233.995	-16.38
234.213	18.43
234.43	16.38
234.648	14.34
234.865	16.38
235.083	30.72
235.3	86.01
235.518	-16.38
235.735	12.29
235.953	45.06
236.17	43.01
236.388	-61.44
236.605	59.39
236.822	36.86
237.04	57.34
237.257	32.77
237.475	18.43
237.692	-6.14
237.909	-57.34
238.127	20.48
238.344	-40.96
238.562	20.48
238.779	32.77
238.996	4.1
239.214	32.77
239.431	40.96
239.648	8.19
239.865	2.05
240.083	-49.15
240.3	-24.58
240.517	28.67
240.735	-10.24
240.952	6.14
241.169	81.92
241.386	-8.19
241.603	55.3
241.821	-43.01
242.038	28.67
242.255	-22.53
242.472	18.43
242.689	-8.19
242.907	-65.54
243.124	-16.38
243.341	-38.91
243.558	2.05
243.775	-16.38
243.992	73.73
244.209	30.72
244.426	45.06
244.643	-18.43
244.86	18.43
245.078	-12.29
245.295	30.72
245.512	43.01
245.729	16.38
245.946	16.38
246.163	40.96
246.38	-16.38
246.597	2.05
246.814	26.62
247.031	26.62
247.248	36.86
247.464	90.11
247.681	53.25
247.898	28.67
248.115	59.39
248.332	69.63
248.549	69.63
248.766	38.91
248.983	32.77
249.2	-0
249.417	16.38
249.633	16.38
249.85	-28.67
250.067	10.24
250.284	-36.86
250.501	-36.86
250.717	43.01
250.934	-34.82
251.151	79.87
251.368	73.73
251.585	-0
251.801	-2.05
252.018	49.15
252.235	30.72
252.451	-8.19
252.668	-73.73
252.885	-38.91
253.102	57.34
253.318	26.62
253.535	-16.38
253.752	-16.38
253.968	26.62
254.185	4.1
254.401	10.24
254.618	12.29
254.835	26.62
255.051	57.34
255.268	-43.01
255.484	24.58
255.701	-22.53
255.917	139.26
256.134	40.96
256.351	81.92
256.567	28.67
256.784	57.34
257	-49.15
257.217	-16.38
257.433	-18.43
257.65	94.21
257.866	-49.15
258.082	-34.82
258.299	-20.48
258.515	45.06
258.732	40.96
258.948	-14.34
259.165	55.3
259.381	20.48
259.597	40.96
259.814	51.2
260.03	-51.2
260.246	73.73
260.463	88.06
260.679	40.96
260.895	30.72
261.112	16.38
261.328	-79.87
261.544	26.62
261.761	18.43
261.977	-12.29
262.193	-18.43
262.409	40.96
262.626	14.34
262.842	-8.19
263.058	57.34
263.274	92.16
263.49	-8.19
263.707	24.58
263.923	26.62
264.139	-24.58
264.355	40.96
264.571	14.34
264.787	-26.62
265.004	57.34
265.22	2.05
265.436	45.06
265.652	28.67
265.868	-0
266.084	-16.38
266.3	-24.58
266.516	24.58
266.732	-16.38
266.948	-2.05
267.164	22.53
267.38	63.49
267.596	2.05
267.812	61.44
268.028	59.39
268.244	-22.53
268.46	-2.05
268.676	-16.38
268.892	36.86
269.108	2.05
269.324	16.38
269.54	20.48
269.756	14.34
269.972	81.92
270.188	-20.48
270.403	34.82
270.619	67.58
270.835	38.91
271.051	34.82
271.267	-0
271.483	20.48
271.698	-8.19
271.914	-53.25
272.13	-32.77
272.346	45.06
272.562	-16.38
272.777	-2.05
272.993	55.3
273.209	47.1
273.425	28.67
273.64	106.49
273.856	10.24
274.072	-20.48
274.287	-0
274.503	43.01
274.719	18.43
274.934	40.96
275.15	-4.1
275.366	47.1
275.581	30.72
275.797	14.34
276.012	-0
276.228	-26.62
276.444	98.3
276.659	-22.53
276.875	2.05
277.09	-53.25
277.306	-55.3
277.521	90.11
277.737	-16.38
277.952	18.43
278.168	-0
278.383	-24.58
278.599	-4.1
278.814	-2.05
279.03	118.78
279.245	16.38
279.461	-36.86
279.676	-2.05
279.892	-36.86
280.107	-8.19
280.322	-22.53
280.538	135.17
280.753	2.05
280.969	-4.1
281.184	10.24
281.399	2.05
281.615	81.92
281.83	10.24
282.045	12.29
282.26	-2.05
282.476	6.14
282.691	20.48
282.906	-18.43
283.122	126.97
283.337	-45.06
283.552	45.06
283.767	71.68
283.983	6.14
284.198	22.53
284.413	55.3
284.628	57.34
284.843	-8.19
285.058	77.82
285.274	-8.19
285.489	24.58
285.704	28.67
285.919	63.49
286.134	45.06
286.349	43.01
286.564	-43.01
286.779	40.96
286.995	-4.1
287.21	-8.19
287.425	-14.34
287.64	-0
287.855	40.96
288.07	-34.82
288.285	47.1
288.5	10.24
288.715	47.1
288.93	6.14
289.145	6.14
289.36	-8.19
289.575	30.72
289.79	-16.38
290.004	10.24
290.219	4.1
290.434	-28.67
290.649	10.24
290.864	-24.58
291.079	-47.1
291.294	-22.53
291.509	28.67
291.724	36.86
291.938	-22.53
292.153	47.1
292.368	-4.1
292.583	4.1
292.798	77.82
293.012	-4.1
293.227	-45.06
293.442	-51.2
293.657	2.05
293.871	-40.96
294.086	18.43
294.301	45.06
294.516	14.34
294.73	36.86
294.945	18.43
295.16	-71.68
295.374	-28.67
295.589	36.86
295.804	40.96
296.018	10.24
296.233	24.58
296.447	32.77
296.662	-36.86
296.877	26.62
297.091	28.67
297.306	-10.24
297.52	12.29
297.735	51.2
297.949	2.05
298.164	-14.34
298.378	30.72
298.593	12.29
298.807	-14.34
299.022	-16.38
299.236	-4.1
299.451	-18.43
299.665	61.44
299.88	14.34
300.094	-8.19
300.309	24.58
300.523	34.82
300.737	110.59
300.952	10.24
301.166	8.19
301.381	32.77
301.595	24.58
301.809	8.19
302.024	10.24
302.238	-16.38
302.452	24.58
302.667	43.01
302.881	28.67
303.095	8.19
303.309	40.96
303.524	22.53
303.738	8.19
303.952	-14.34
304.166	22.53
304.381	-4.1
304.595	28.67
304.809	20.48
305.023	6.14
305.237	-38.91
305.452	10.24
305.666	34.82
305.88	22.53
306.094	67.58
306.308	-2.05
306.522	-38.91
306.736	-30.72
306.95	10.24
307.164	18.43
307.379	36.86
307.593	47.1
307.807	73.73
308.021	8.19
308.235	38.91
308.449	8.19
308.663	-28.67
308.877	18.43
309.091	124.93
309.305	10.24
309.519	-18.43
309.733	12.29
309.947	32.77
310.161	69.63
310.374	88.06
310.588	94.21
310.802	12.29
311.016	43.01
311.23	22.53
311.444	-2.05
311.658	16.38
311.872	47.1
312.085	-24.58
312.299	38.91
312.513	61.44
312.727	-16.38
312.941	24.58
313.154	-10.24
313.368	57.34
313.582	55.3
313.796	-24.58
314.009	2.05
314.223	24.58
314.437	-2.05
314.651	22.53
314.864	45.06
315.078	-36.86
315.292	51.2
315.505	-36.86
315.719	-12.29
315.933	14.34
316.146	40.96
316.36	38.91
316.573	61.44
316.787	26.62
317.001	24.58
317.214	34.82
317.428	24.58
317.641	-14.34
317.855	2.05
318.068	-16.38
318.282	10.24
318.495	61.44
318.709	-26.62
318.922	55.3
319.136	34.82
319.349	14.34
319.563	-12.29
319.776	-40.96
319.99	30.72
320.203	24.58
320.417	-24.58
320.63	51.2
320.843	38.91
321.057	8.19
321.27	-12.29
321.483	-16.38
321.697	47.1
321.91	-14.34
322.124	-43.01
322.337	-28.67
322.55	43.01
322.763	32.77
322.977	47.1
323.19	38.91
323.403	26.62
323.617	6.14
323.83	-16.38
324.043	4.1
324.256	71.68
324.469	16.38
324.683	36.86
324.896	-0
325.109	20.48
325.322	34.82
325.535	45.06
325.748	45.06
325.962	-24.58
326.175	-20.48
326.388	-24.58
326.601	34.82
326.814	-38.91
327.027	-10.24
327.24	38.91
327.453	34.82
327.666	-6.14
327.879	12.29
328.092	-30.72
328.305	-26.62
328.518	-10.24
328.731	59.39
328.944	16.38
329.157	47.1
329.37	-4.1
329.583	-63.49
329.796	94.21
330.009	32.77
330.222	36.86
330.435	-28.67
330.648	47.1
330.861	-24.58
331.073	69.63
331.286	20.48
331.499	55.3
331.712	49.15
331.925	-43.01
332.138	63.49
332.35	43.01
332.563	14.34
332.776	-4.1
332.989	-28.67
333.202	20.48
333.414	30.72
333.627	-36.86
333.84	6.14
334.053	32.77
334.265	32.77
334.478	34.82
334.691	96.25
334.903	16.38
335.116	12.29
335.329	-22.53
335.541	32.77
335.754	106.49
335.966	20.48
336.179	22.53
336.392	100.35
336.604	-10.24
336.817	12.29
337.029	-30.72
337.242	-51.2
337.454	38.91
337.667	36.86
337.88	8.19
338.092	-4.1
338.305	24.58
338.517	49.15
338.729	90.11
338.942	-36.86
339.154	-45.06
339.367	24.58
339.579	63.49
339.792	32.77
340.004	34.82
340.217	-36.86
340.429	38.91
340.641	2.05
340.854	-18.43
341.066	30.72
341.278	49.15
341.491	24.58
341.703	77.82
341.915	22.53
342.128	-6.14
342.34	-8.19
342.552	-30.72
342.764	28.67
342.977	-43.01
343.189	8.19
343.401	51.2
343.613	-61.44
343.826	-0
344.038	2.05
344.25	57.34
344.462	-8.19
344.674	45.06
344.886	28.67
345.099	-40.96
345.311	-10.24
345.523	24.58
345.735	-8.19
345.947	38.91
346.159	-47.1
346.371	-0
346.583	4.1
346.795	104.45
347.007	73.73
347.219	6.14
347.431	34.82
347.643	51.2
347.855	10.24
348.067	114.69
348.279	-4.1
348.491	69.63
348.703	-6.14
348.915	32.77
349.127	-40.96
349.339	10.24
349.551	-2.05
349.763	-36.86
349.975	-26.62
350.187	2.05
350.399	45.06
350.61	16.38
350.822	-30.72
351.034	69.63
351.246	40.96
351.458	65.53
351.669	65.53
351.881	67.58
352.093	-22.53
352.305	81.92
352.517	-18.43
352.728	8.19
352.94	-4.1
353.152	4.1
353.363	57.34
353.575	53.25
353.787	92.16
353.999	47.1
354.21	-49.15
354.422	34.82
354.633	112.64
354.845	-0
355.057	55.3
355.268	108.54
355.48	83.97
355.692	4.1
355.903	18.43
356.115	36.86
356.326	14.34
356.538	86.01
356.749	20.48
356.961	49.15
357.172	-92.16
357.384	-49.15
357.595	22.53
357.807	-4.1
358.018	-28.67
358.23	-65.54
358.441	32.77
358.653	16.38
358.864	53.25
359.075	4.1
359.287	69.63
359.498	34.82
359.709	75.77
359.921	12.29
360.132	36.86
360.344	-20.48
360.555	40.96
360.766	16.38
360.977	34.82
361.189	28.67
361.4	6.14
361.611	65.53
361.823	63.49
362.034	26.62
362.245	24.58
362.456	8.19
362.667	4.1
362.879	22.53
363.09	-22.53
363.301	-26.62
363.512	10.24
363.723	24.58
363.935	-43.01
364.146	98.3
364.357	18.43
364.568	-16.38
364.779	22.53
364.99	34.82
365.201	26.62
365.412	12.29
365.623	14.34
365.834	-4.1
366.045	34.82
366.256	-26.62
366.467	28.67
366.678	73.73
366.889	-4.1
367.1	12.29
367.311	-4.1
367.522	-2.05
367.733	-22.53
367.944	57.34
368.155	24.58
368.366	59.39
368.577	10.24
368.788	51.2
368.999	20.48
369.209	16.38
369.42	108.54
369.631	53.25
369.842	38.91
370.053	-36.86
370.264	-2.05
370.474	-55.3
370.685	86.01
370.896	49.15
371.107	38.91
371.317	-20.48
371.528	6.14
371.739	16.38
371.95	59.39
372.16	20.48
372.371	14.34
372.582	16.38
372.792	59.39
373.003	12.29
373.214	55.3
373.424	43.01
373.635	-2.05
373.846	24.58
374.056	-20.48
374.267	18.43
374.477	-2.05
374.688	8.19
374.898	-14.34
375.109	59.39
375.319	38.91
375.53	73.73
375.74	-2.05
375.951	6.14
376.161	2.05
376.372	106.49
376.582	61.44
376.793	137.21
377.003	-4.1
377.214	8.19
377.424	8.19
377.635	-28.67
377.845	-32.77
378.055	26.62
378.266	-30.72
378.476	-57.34
378.686	-45.06
378.897	12.29
379.107	51.2
379.317	18.43
379.528	77.82
379.738	-20.48
379.948	-16.38
380.158	4.1
380.369	-10.24
380.579	14.34
380.789	-32.77
380.999	59.39
381.21	118.78
381.42	45.06
381.63	8.19
381.84	40.96
382.05	2.05
382.261	73.73
382.471	-30.72
382.681	34.82
382.891	-53.25
383.101	57.34
383.311	57.34
383.521	12.29
383.731	14.34
383.941	-8.19
384.151	-4.1
384.361	4.1
384.571	38.91
384.781	49.15
384.991	28.67
385.201	-8.19
385.411	28.67
385.621	-12.29
385.831	-40.96
386.041	-20.48
386.251	32.77
386.461	8.19
386.671	71.68
386.881	8.19
387.091	28.67
387.301	16.38
387.511	12.29
387.72	24.58
387.93	-6.14
388.14	24.58
388.35	30.72
388.56	75.77
388.769	57.34
388.979	45.06
389.189	73.73
389.399	-75.77
389.609	12.29
389.818	57.34
390.028	24.58
390.238	16.38
390.447	-14.34
390.657	16.38
390.867	-2.05
391.076	-30.72
391.286	28.67
391.496	45.06
391.705	30.72
391.915	24.58
392.125	-10.24
392.334	61.44
392.544	34.82
392.753	30.72
392.963	-22.53
393.172	22.53
393.382	-6.14
393.591	65.53
393.801	-71.68
394.01	34.82
394.22	81.92
394.429	71.68
394.639	-22.53
394.848	47.1
395.058	4.1
395.267	57.34
395.477	88.06
395.686	53.25
395.895	71.68
396.105	10.24
396.314	65.53
396.524	79.87
396.733	-4.1
396.942	51.2
397.152	26.62
397.361	24.58
397.57	43.01
397.78	2.05
397.989	-4.1
398.198	16.38
398.407	67.58
398.617	59.39
398.826	26.62
399.035	38.91
399.244	16.38
399.453	16.38
399.663	-10.24
399.872	28.67
400.081	10.24
400.29	-24.58
400.499	-32.77
400.708	90.11
400.917	47.1
401.127	32.77
401.336	20.48
401.545	77.82
401.754	2.05
401.963	8.19
402.172	20.48
402.381	24.58
402.59	30.72
402.799	155.65
403.008	75.77
403.217	30.72
403.426	-6.14
403.635	16.38
403.844	59.39
404.053	53.25
404.262	-16.38
404.471	57.34
404.68	-14.34
404.888	8.19
405.097	24.58
405.306	18.43
405.515	12.29
405.724	57.34
405.933	32.77
406.142	22.53
406.35	131.07
406.559	61.44
406.768	67.58
406.977	120.83
407.185	75.77
407.394	57.34
407.603	88.06
407.812	133.12
408.02	40.96
408.229	59.39
408.438	16.38
408.646	73.73
408.855	77.82
409.064	114.69
409.272	153.6
409.481	129.02
409.69	49.15
409.898	36.86
410.107	81.92
410.315	81.92
410.524	63.49
410.733	110.59
410.941	77.82
411.15	59.39
411.358	108.54
411.567	145.41
411.775	137.21
411.984	96.25
412.192	71.68
412.401	73.73
412.609	59.39
412.818	133.12
413.026	71.68
413.234	92.16
413.443	122.88
413.651	184.32
413.86	139.26
414.068	165.89
414.276	167.93
414.485	198.65
414.693	182.27
414.901	219.13
415.11	180.22
415.318	221.18
415.526	180.22
415.734	223.23
415.943	188.41
416.151	182.27
416.359	249.85
416.567	184.32
416.776	229.37
416.984	270.33
417.192	215.04
417.4	178.17
417.608	251.9
417.817	200.7
418.025	288.76
418.233	309.24
418.441	354.3
418.649	323.58
418.857	296.96
419.065	346.11
419.273	280.57
419.481	323.58
419.689	299
419.897	342.01
420.105	282.62
420.313	385.02
420.521	360.44
420.729	475.13
420.937	385.02
421.145	413.69
421.353	524.28
421.561	477.18
421.769	473.08
421.977	528.38
422.185	497.66
422.393	540.66
422.601	516.09
422.809	555
423.017	550.9
423.224	610.29
423.432	669.69
423.64	602.1
423.848	583.67
424.056	581.62
424.263	714.74
424.471	673.78
424.679	755.7
424.887	706.55
425.094	788.47
425.302	892.91
425.51	786.42
425.718	782.32
425.925	772.08
426.133	823.28
426.341	983.02
426.548	892.91
426.756	966.64
426.964	999.41
427.171	985.07
427.379	1089.52
427.586	1044.46
427.794	1056.75
428.001	1114.09
428.209	1148.91
428.417	1073.14
428.624	1220.59
428.832	1206.25
429.039	1257.45
429.247	1255.4
429.454	1366
429.662	1476.59
429.869	1370.09
430.076	1486.83
430.284	1425.39
430.491	1466.35
430.699	1427.43
430.906	1509.35
431.114	1544.17
431.321	1558.5
431.528	1730.53
431.736	1722.34
431.943	1804.26
432.15	1736.68
432.358	1818.6
432.565	1929.19
432.772	1781.73
432.979	1990.63
433.187	2035.68
433.394	1998.82
433.601	2162.65
433.808	2189.28
434.016	2250.72
434.223	2220
434.43	2367.45
434.637	2338.78
434.844	2553.82
435.052	2416.6
435.259	2500.57
435.466	2600.92
435.673	2492.38
435.88	2662.36
436.087	2793.43
436.294	2861.01
436.501	2758.61
436.708	2760.66
436.915	3092.43
437.122	3051.47
437.329	2953.17
437.537	3067.86
437.743	3200.98
437.95	3071.95
438.157	3352.52
438.364	3481.55
438.571	3262.41
438.778	3354.57
438.985	3751.88
439.192	3612.62
439.399	3760.07
439.606	3649.48
439.813	3733.45
440.02	3966.92
440.227	3989.44
440.433	3858.37
440.64	4079.55
440.847	4188.1
441.054	4161.47
441.261	4491.2
441.467	4495.29
441.674	4362.17
441.881	4736.95
442.088	4546.49
442.294	4585.4
442.501	4810.68
442.708	4982.71
442.914	5101.49
443.121	5302.19
443.328	4937.65
443.534	5531.56
443.741	5371.82
443.948	5099.44
444.154	5525.42
444.361	5611.43
444.568	5556.14
444.774	5474.22
444.981	5730.22
445.187	5828.52
445.394	6086.56
445.6	5851.05
445.807	6563.74
446.013	6356.89
446.22	6502.3
446.426	6721.43
446.633	6893.46
446.839	6991.77
447.046	6561.69
447.252	7196.56
447.459	6936.47
447.665	7102.36
447.871	7448.46
448.078	7729.03
448.284	7356.3
448.491	7589.77
448.697	7837.58
448.903	7890.82
449.11	8028.04
449.316	7982.98
449.522	8095.62
449.728	8419.2
449.935	8253.31
450.141	8447.87
450.347	8574.85
450.553	8269.7
450.76	8241.03
450.966	8523.65
451.172	8611.71
451.378	8927.1
451.584	8519.55
451.791	9035.64
451.997	8863.61
452.203	9035.64
452.409	9068.41
452.615	8724.35
452.821	8619.9
453.027	8564.61
453.233	8912.76
453.44	8644.48
453.646	8759.16
453.852	8802.17
454.058	9017.21
454.264	8570.75
454.47	8863.61
454.676	8808.31
454.882	8785.79
455.088	8263.55
455.294	8277.89
455.5	8570.75
455.705	8574.85
455.911	8212.35
456.117	8107.91
456.323	7966.6
456.529	7507.85
456.735	7837.58
456.941	7636.88
457.147	7489.42
457.352	7370.64
457.558	7294.86
457.764	7249.81
457.97	7128.98
458.176	6989.72
458.381	7014.29
458.587	6549.4
458.793	6586.27
458.999	6277.02
459.204	6571.93
459.41	6457.25
459.616	6158.24
459.821	6078.37
460.027	6113.19
460.233	5994.4
460.438	5773.22
460.644	5793.7
460.85	5582.76
461.055	5513.13
461.261	5353.39
461.466	4982.71
461.672	4812.73
461.878	5142.45
462.083	4913.08
462.289	4753.34
462.494	4614.07
462.7	4554.68
462.905	4407.23
463.111	4454.33
463.316	4464.57
463.522	4517.82
463.727	4581.31
463.932	4489.15
464.138	4417.47
464.343	4437.95
464.549	4401.08
464.754	4548.54
464.959	4480.96
465.165	4308.93
465.37	4198.34
465.575	4087.75
465.781	4403.13
465.986	4224.96
466.191	4241.34
466.397	4100.03
466.602	3917.76
466.807	4100.03
467.012	3919.81
467.218	3872.71
467.423	3921.86
467.628	3962.82
467.833	4087.75
468.038	3825.61
468.244	3897.28
468.449	4036.55
468.654	3950.53
468.859	3841.99
469.064	3975.11
469.269	3612.62
469.474	3737.54
469.679	3858.37
469.885	3581.9
470.09	3864.52
470.295	3747.78
470.5	3528.65
470.705	3702.73
470.91	3506.12
