Data from USB4F104151__55__12-59-18-324.txt Node

Date: Fri Mar 14 12:59:18 EDT 2025
User: louis
Spectrometer: USB4F10415
Trigger mode: 4
Integration Time (sec): 1.000000E-2
Scans to average: 1
Electric dark correction enabled: true
Nonlinearity correction enabled: false
Boxcar width: 0
XAxis mode: Wavelengths
Number of Pixels in Spectrum: 3648
>>>>>Begin Spectral Data<<<<<
178.204	-4.95
178.424	-4.95
178.644	-4.95
178.864	-82.77
179.084	-74.58
179.304	60.59
179.524	52.39
179.744	-25.43
179.964	-29.52
180.184	-9.05
180.404	-45.91
180.624	-15.19
180.844	-2.9
181.064	-2.9
181.283	-17.24
181.503	11.43
181.723	23.72
181.943	25.77
182.163	-25.43
182.383	-54.1
182.602	87.21
182.822	89.26
183.042	58.54
183.262	-41.81
183.482	-39.76
183.701	5.29
183.921	64.68
184.141	15.53
184.361	68.78
184.58	50.35
184.8	68.78
185.02	-21.33
185.239	13.48
185.459	-56.15
185.679	27.82
185.898	-4.95
186.118	-15.19
186.338	27.82
186.557	19.63
186.777	-39.76
186.997	46.25
187.216	5.29
187.436	93.35
187.655	19.63
187.875	64.68
188.095	29.87
188.314	58.54
188.534	-4.95
188.753	36.01
188.973	29.87
189.192	40.11
189.412	21.67
189.631	21.67
189.851	-21.33
190.07	13.48
190.29	21.67
190.509	-35.67
190.729	5.29
190.948	-19.29
191.168	54.44
191.387	31.91
191.607	-47.96
191.826	19.63
192.045	58.54
192.265	-21.33
192.484	-9.05
192.704	62.63
192.923	40.11
193.142	52.39
193.362	66.73
193.581	3.24
193.8	-21.33
194.02	1.19
194.239	97.45
194.458	72.87
194.678	17.58
194.897	7.34
195.116	-4.95
195.335	-4.95
195.555	11.43
195.774	40.11
195.993	25.77
196.212	-4.95
196.432	-33.62
196.651	-17.24
196.87	56.49
197.089	-21.33
197.308	46.25
197.528	1.19
197.747	31.91
197.966	-35.67
198.185	11.43
198.404	17.58
198.623	50.35
198.842	-2.9
199.062	81.07
199.281	46.25
199.5	-0.85
199.719	-45.91
199.938	48.3
200.157	48.3
200.376	5.29
200.595	38.06
200.814	54.44
201.033	-19.29
201.252	44.2
201.471	-13.14
201.69	-27.48
201.909	-33.62
202.128	27.82
202.347	66.73
202.566	7.34
202.785	42.15
203.004	13.48
203.223	64.68
203.442	9.39
203.661	31.91
203.879	54.44
204.098	40.11
204.317	29.87
204.536	83.11
204.755	-9.05
204.974	36.01
205.193	11.43
205.411	85.16
205.63	79.02
205.849	29.87
206.068	17.58
206.287	-19.29
206.505	48.3
206.724	11.43
206.943	9.39
207.162	-45.91
207.381	50.35
207.599	60.59
207.818	56.49
208.037	66.73
208.255	-35.67
208.474	60.59
208.693	-2.9
208.911	46.25
209.13	19.63
209.349	36.01
209.567	74.92
209.786	-52.05
210.005	68.78
210.223	52.39
210.442	11.43
210.661	87.21
210.879	62.63
211.098	5.29
211.316	76.97
211.535	38.06
211.753	68.78
211.972	15.53
212.191	-4.95
212.409	38.06
212.628	-33.62
212.846	23.72
213.065	95.4
213.283	109.74
213.502	-23.38
213.72	13.48
213.938	64.68
214.157	15.53
214.375	23.72
214.594	3.24
214.812	23.72
215.031	29.87
215.249	-23.38
215.467	13.48
215.686	7.34
215.904	56.49
216.122	58.54
216.341	50.35
216.559	5.29
216.778	97.45
216.996	-56.15
217.214	36.01
217.432	44.2
217.651	36.01
217.869	-0.85
218.087	52.39
218.306	-25.43
218.524	-19.29
218.742	-2.9
218.96	40.11
219.179	9.39
219.397	52.39
219.615	17.58
219.833	29.87
220.051	5.29
220.27	27.82
220.488	-23.38
220.706	-27.48
220.924	62.63
221.142	76.97
221.36	-23.38
221.578	-17.24
221.796	3.24
222.015	111.78
222.233	60.59
222.451	-0.85
222.669	-17.24
222.887	13.48
223.105	31.91
223.323	70.83
223.541	21.67
223.759	38.06
223.977	31.91
224.195	138.41
224.413	68.78
224.631	-19.29
224.849	40.11
225.067	36.01
225.285	17.58
225.503	3.24
225.721	-45.91
225.939	15.53
226.157	68.78
226.375	48.3
226.592	-54.1
226.81	70.83
227.028	38.06
227.246	76.97
227.464	81.07
227.682	74.92
227.9	27.82
228.117	54.44
228.335	46.25
228.553	-17.24
228.771	23.72
228.989	66.73
229.206	33.96
229.424	68.78
229.642	40.11
229.86	5.29
230.077	62.63
230.295	-13.14
230.513	38.06
230.731	5.29
230.948	-17.24
231.166	3.24
231.384	21.67
231.601	52.39
231.819	-13.14
232.037	31.91
232.254	-9.05
232.472	27.82
232.689	87.21
232.907	19.63
233.125	-33.62
233.342	-4.95
233.56	-29.52
233.777	33.96
233.995	48.3
234.213	-15.19
234.43	11.43
234.648	-27.48
234.865	36.01
235.083	25.77
235.3	25.77
235.518	85.16
235.735	52.39
235.953	117.93
236.17	97.45
236.388	15.53
236.605	85.16
236.822	13.48
237.04	36.01
237.257	70.83
237.475	-21.33
237.692	29.87
237.909	-13.14
238.127	83.11
238.344	128.17
238.562	19.63
238.779	95.4
238.996	27.82
239.214	-41.81
239.431	-35.67
239.648	-23.38
239.865	42.15
240.083	3.24
240.3	44.2
240.517	-9.05
240.735	54.44
240.952	-19.29
241.169	9.39
241.386	19.63
241.603	38.06
241.821	68.78
242.038	42.15
242.255	-17.24
242.472	95.4
242.689	44.2
242.907	13.48
243.124	11.43
243.341	29.87
243.558	-17.24
243.775	19.63
243.992	-27.48
244.209	64.68
244.426	19.63
244.643	5.29
244.86	-11.09
245.078	111.78
245.295	23.72
245.512	40.11
245.729	1.19
245.946	23.72
246.163	87.21
246.38	27.82
246.597	-23.38
246.814	-19.29
247.031	85.16
247.248	54.44
247.464	48.3
247.681	36.01
247.898	17.58
248.115	25.77
248.332	-13.14
248.549	-33.62
248.766	44.2
248.983	40.11
249.2	62.63
249.417	25.77
249.633	-0.85
249.85	46.25
250.067	-13.14
250.284	68.78
250.501	15.53
250.717	48.3
250.934	-11.09
251.151	-29.52
251.368	-54.1
251.585	52.39
251.801	36.01
252.018	1.19
252.235	9.39
252.451	-4.95
252.668	27.82
252.885	72.87
253.102	36.01
253.318	64.68
253.535	68.78
253.752	38.06
253.968	66.73
254.185	44.2
254.401	38.06
254.618	81.07
254.835	60.59
255.051	17.58
255.268	46.25
255.484	70.83
255.701	70.83
255.917	46.25
256.134	-17.24
256.351	36.01
256.567	-13.14
256.784	93.35
257	23.72
257.217	50.35
257.433	21.67
257.65	56.49
257.866	56.49
258.082	-39.76
258.299	29.87
258.515	56.49
258.732	52.39
258.948	48.3
259.165	-2.9
259.381	-35.67
259.597	-2.9
259.814	21.67
260.03	17.58
260.246	91.31
260.463	64.68
260.679	68.78
260.895	-35.67
261.112	64.68
261.328	54.44
261.544	56.49
261.761	72.87
261.977	66.73
262.193	38.06
262.409	27.82
262.626	40.11
262.842	38.06
263.058	29.87
263.274	-15.19
263.49	9.39
263.707	38.06
263.923	-7
264.139	29.87
264.355	48.3
264.571	76.97
264.787	13.48
265.004	85.16
265.22	-2.9
265.436	19.63
265.652	-50
265.868	29.87
266.084	-7
266.3	-0.85
266.516	-27.48
266.732	62.63
266.948	21.67
267.164	38.06
267.38	-33.62
267.596	13.48
267.812	38.06
268.028	-4.95
268.244	-7
268.46	99.5
268.676	3.24
268.892	9.39
269.108	48.3
269.324	-15.19
269.54	17.58
269.756	17.58
269.972	1.19
270.188	27.82
270.403	17.58
270.619	38.06
270.835	29.87
271.051	62.63
271.267	-70.48
271.483	7.34
271.698	3.24
271.914	33.96
272.13	1.19
272.346	76.97
272.562	-17.24
272.777	85.16
272.993	72.87
273.209	-2.9
273.425	36.01
273.64	-4.95
273.856	23.72
274.072	29.87
274.287	33.96
274.503	19.63
274.719	81.07
274.934	44.2
275.15	-19.29
275.366	60.59
275.581	101.55
275.797	68.78
276.012	-9.05
276.228	29.87
276.444	-27.48
276.659	19.63
276.875	31.91
277.09	42.15
277.306	31.91
277.521	85.16
277.737	-33.62
277.952	3.24
278.168	36.01
278.383	64.68
278.599	-29.52
278.814	-0.85
279.03	19.63
279.245	-4.95
279.461	38.06
279.676	103.59
279.892	17.58
280.107	7.34
280.322	79.02
280.538	21.67
280.753	31.91
280.969	25.77
281.184	-47.96
281.399	36.01
281.615	-7
281.83	56.49
282.045	-11.09
282.26	15.53
282.476	21.67
282.691	33.96
282.906	-13.14
283.122	21.67
283.337	48.3
283.552	-21.33
283.767	48.3
283.983	89.26
284.198	31.91
284.413	76.97
284.628	9.39
284.843	48.3
285.058	48.3
285.274	21.67
285.489	23.72
285.704	64.68
285.919	-25.43
286.134	70.83
286.349	13.48
286.564	-27.48
286.779	38.06
286.995	70.83
287.21	31.91
287.425	130.22
287.64	25.77
287.855	36.01
288.07	-9.05
288.285	17.58
288.5	38.06
288.715	21.67
288.93	79.02
289.145	25.77
289.36	17.58
289.575	-0.85
289.79	54.44
290.004	-35.67
290.219	44.2
290.434	1.19
290.649	1.19
290.864	17.58
291.079	11.43
291.294	36.01
291.509	3.24
291.724	15.53
291.938	58.54
292.153	72.87
292.368	19.63
292.583	33.96
292.798	48.3
293.012	-25.43
293.227	-4.95
293.442	95.4
293.657	52.39
293.871	11.43
294.086	44.2
294.301	36.01
294.516	44.2
294.73	54.44
294.945	33.96
295.16	9.39
295.374	1.19
295.589	31.91
295.804	3.24
296.018	17.58
296.233	70.83
296.447	9.39
296.662	38.06
296.877	64.68
297.091	11.43
297.306	-27.48
297.52	-27.48
297.735	17.58
297.949	17.58
298.164	91.31
298.378	-43.86
298.593	5.29
298.807	19.63
299.022	27.82
299.236	76.97
299.451	36.01
299.665	107.69
299.88	-31.57
300.094	48.3
300.309	31.91
300.523	23.72
300.737	54.44
300.952	109.74
301.166	56.49
301.381	19.63
301.595	21.67
301.809	23.72
302.024	58.54
302.238	19.63
302.452	-4.95
302.667	3.24
302.881	27.82
303.095	83.11
303.309	124.07
303.524	-19.29
303.738	-33.62
303.952	25.77
304.166	3.24
304.381	29.87
304.595	81.07
304.809	11.43
305.023	97.45
305.237	5.29
305.452	-2.9
305.666	-29.52
305.88	52.39
306.094	11.43
306.308	15.53
306.522	89.26
306.736	29.87
306.95	31.91
307.164	21.67
307.379	52.39
307.593	76.97
307.807	54.44
308.021	19.63
308.235	27.82
308.449	36.01
308.663	-0.85
308.877	76.97
309.091	27.82
309.305	105.64
309.519	-19.29
309.733	5.29
309.947	-2.9
310.161	79.02
310.374	44.2
310.588	15.53
310.802	23.72
311.016	48.3
311.23	48.3
311.444	23.72
311.658	19.63
311.872	-13.14
312.085	-7
312.299	52.39
312.513	38.06
312.727	29.87
312.941	33.96
313.154	60.59
313.368	5.29
313.582	-0.85
313.796	19.63
314.009	-11.09
314.223	85.16
314.437	52.39
314.651	-72.53
314.864	46.25
315.078	-60.24
315.292	21.67
315.505	7.34
315.719	-11.09
315.933	87.21
316.146	62.63
316.36	13.48
316.573	-23.38
316.787	-13.14
317.001	36.01
317.214	31.91
317.428	66.73
317.641	-93.01
317.855	-7
318.068	5.29
318.282	46.25
318.495	54.44
318.709	27.82
318.922	13.48
319.136	103.59
319.349	-0.85
319.563	-27.48
319.776	13.48
319.99	3.24
320.203	-2.9
320.417	11.43
320.63	58.54
320.843	25.77
321.057	-11.09
321.27	72.87
321.483	68.78
321.697	60.59
321.91	31.91
322.124	52.39
322.337	42.15
322.55	-4.95
322.763	-4.95
322.977	58.54
323.19	54.44
323.403	33.96
323.617	-11.09
323.83	81.07
324.043	-4.95
324.256	50.35
324.469	3.24
324.683	50.35
324.896	23.72
325.109	21.67
325.322	27.82
325.535	103.59
325.748	21.67
325.962	7.34
326.175	40.11
326.388	54.44
326.601	-4.95
326.814	46.25
327.027	1.19
327.24	23.72
327.453	27.82
327.666	56.49
327.879	7.34
328.092	64.68
328.305	60.59
328.518	85.16
328.731	-7
328.944	58.54
329.157	17.58
329.37	21.67
329.583	33.96
329.796	11.43
330.009	54.44
330.222	25.77
330.435	52.39
330.648	42.15
330.861	-15.19
331.073	56.49
331.286	-54.1
331.499	19.63
331.712	25.77
331.925	19.63
332.138	31.91
332.35	3.24
332.563	3.24
332.776	44.2
332.989	-9.05
333.202	76.97
333.414	-0.85
333.627	105.64
333.84	-2.9
334.053	11.43
334.265	11.43
334.478	70.83
334.691	52.39
334.903	9.39
335.116	44.2
335.329	50.35
335.541	-7
335.754	44.2
335.966	-15.19
336.179	7.34
336.392	5.29
336.604	70.83
336.817	19.63
337.029	93.35
337.242	119.98
337.454	17.58
337.667	44.2
337.88	38.06
338.092	48.3
338.305	31.91
338.517	9.39
338.729	5.29
338.942	23.72
339.154	-25.43
339.367	17.58
339.579	89.26
339.792	-0.85
340.004	111.78
340.217	-35.67
340.429	1.19
340.641	9.39
340.854	31.91
341.066	-23.38
341.278	83.11
341.491	23.72
341.703	122.02
341.915	-11.09
342.128	-11.09
342.34	13.48
342.552	40.11
342.764	19.63
342.977	56.49
343.189	15.53
343.401	-4.95
343.613	52.39
343.826	-21.33
344.038	76.97
344.25	40.11
344.462	48.3
344.674	31.91
344.886	15.53
345.099	105.64
345.311	5.29
345.523	68.78
345.735	7.34
345.947	113.83
346.159	46.25
346.371	21.67
346.583	-0.85
346.795	68.78
347.007	-15.19
347.219	105.64
347.431	44.2
347.643	17.58
347.855	54.44
348.067	48.3
348.279	3.24
348.491	113.83
348.703	5.29
348.915	52.39
349.127	25.77
349.339	60.59
349.551	15.53
349.763	15.53
349.975	54.44
350.187	68.78
350.399	66.73
350.61	11.43
350.822	72.87
351.034	-13.14
351.246	44.2
351.458	42.15
351.669	-4.95
351.881	-35.67
352.093	44.2
352.305	66.73
352.517	-37.72
352.728	140.46
352.94	44.2
353.152	68.78
353.363	72.87
353.575	-0.85
353.787	122.02
353.999	13.48
354.21	-0.85
354.422	23.72
354.633	42.15
354.845	23.72
355.057	68.78
355.268	99.5
355.48	1.19
355.692	95.4
355.903	19.63
356.115	-13.14
356.326	126.12
356.538	15.53
356.749	93.35
356.961	81.07
357.172	7.34
357.384	27.82
357.595	74.92
357.807	19.63
358.018	-25.43
358.23	27.82
358.441	38.06
358.653	79.02
358.864	68.78
359.075	11.43
359.287	87.21
359.498	56.49
359.709	21.67
359.921	52.39
360.132	46.25
360.344	-41.81
360.555	81.07
360.766	11.43
360.977	3.24
361.189	-11.09
361.4	-15.19
361.611	-37.72
361.823	62.63
362.034	29.87
362.245	19.63
362.456	64.68
362.667	17.58
362.879	-7
363.09	46.25
363.301	-39.76
363.512	115.88
363.723	-0.85
363.935	40.11
364.146	48.3
364.357	-7
364.568	60.59
364.779	46.25
364.99	-11.09
365.201	44.2
365.412	101.55
365.623	29.87
365.834	11.43
366.045	93.35
366.256	31.91
366.467	76.97
366.678	46.25
366.889	-2.9
367.1	-2.9
367.311	60.59
367.522	-0.85
367.733	27.82
367.944	36.01
368.155	36.01
368.366	76.97
368.577	27.82
368.788	48.3
368.999	87.21
369.209	23.72
369.42	162.98
369.631	54.44
369.842	5.29
370.053	79.02
370.264	23.72
370.474	-50
370.685	-7
370.896	56.49
371.107	60.59
371.317	48.3
371.528	29.87
371.739	-60.24
371.95	50.35
372.16	42.15
372.371	3.24
372.582	81.07
372.792	27.82
373.003	-7
373.214	-29.52
373.424	17.58
373.635	62.63
373.846	9.39
374.056	76.97
374.267	27.82
374.477	13.48
374.688	36.01
374.898	13.48
375.109	87.21
375.319	11.43
375.53	31.91
375.74	31.91
375.951	17.58
376.161	52.39
376.372	48.3
376.582	7.34
376.793	3.24
377.003	-7
377.214	89.26
377.424	68.78
377.635	85.16
377.845	29.87
378.055	83.11
378.266	17.58
378.476	11.43
378.686	42.15
378.897	72.87
379.107	19.63
379.317	68.78
379.528	5.29
379.738	76.97
379.948	66.73
380.158	56.49
380.369	58.54
380.579	72.87
380.789	103.59
380.999	122.02
381.21	58.54
381.42	23.72
381.63	29.87
381.84	52.39
382.05	128.17
382.261	11.43
382.471	52.39
382.681	46.25
382.891	105.64
383.101	-27.48
383.311	93.35
383.521	70.83
383.731	66.73
383.941	87.21
384.151	27.82
384.361	56.49
384.571	68.78
384.781	-11.09
384.991	99.5
385.201	27.82
385.411	54.44
385.621	99.5
385.831	46.25
386.041	-11.09
386.251	3.24
386.461	54.44
386.671	-11.09
386.881	111.78
387.091	60.59
387.301	101.55
387.511	29.87
387.72	87.21
387.93	52.39
388.14	40.11
388.35	13.48
388.56	76.97
388.769	5.29
388.979	52.39
389.189	-7
389.399	44.2
389.609	21.67
389.818	46.25
390.028	93.35
390.238	95.4
390.447	27.82
390.657	56.49
390.867	64.68
391.076	27.82
391.286	3.24
391.496	105.64
391.705	40.11
391.915	52.39
392.125	70.83
392.334	1.19
392.544	38.06
392.753	25.77
392.963	-52.05
393.172	70.83
393.382	21.67
393.591	124.07
393.801	134.31
394.01	25.77
394.22	31.91
394.429	-23.38
394.639	-25.43
394.848	107.69
395.058	111.78
395.267	72.87
395.477	76.97
395.686	70.83
395.895	128.17
396.105	103.59
396.314	23.72
396.524	40.11
396.733	64.68
396.942	9.39
397.152	62.63
397.361	36.01
397.57	17.58
397.78	79.02
397.989	52.39
398.198	74.92
398.407	81.07
398.617	95.4
398.826	46.25
399.035	97.45
399.244	85.16
399.453	48.3
399.663	91.31
399.872	76.97
400.081	89.26
400.29	79.02
400.499	46.25
400.708	124.07
400.917	101.55
401.127	103.59
401.336	101.55
401.545	64.68
401.754	93.35
401.963	25.77
402.172	-17.24
402.381	203.94
402.59	11.43
402.799	105.64
403.008	54.44
403.217	60.59
403.426	31.91
403.635	99.5
403.844	101.55
404.053	93.35
404.262	91.31
404.471	158.89
404.68	103.59
404.888	87.21
405.097	154.79
405.306	150.7
405.515	40.11
405.724	93.35
405.933	113.83
406.142	93.35
406.35	134.31
406.559	87.21
406.768	109.74
406.977	70.83
407.185	150.7
407.394	103.59
407.603	103.59
407.812	195.75
408.02	146.6
408.229	203.94
408.438	193.7
408.646	142.5
408.855	76.97
409.064	160.94
409.272	191.66
409.481	169.13
409.69	210.09
409.898	169.13
410.107	119.98
410.315	130.22
410.524	236.71
410.733	183.46
410.941	249
411.15	259.24
411.358	210.09
411.567	236.71
411.775	181.42
411.984	197.8
412.192	263.33
412.401	263.33
412.609	265.38
412.818	296.1
413.026	212.14
413.234	341.16
413.443	296.1
413.651	283.81
413.86	404.64
414.068	427.17
414.276	310.44
414.485	341.16
414.693	359.59
414.901	435.36
415.11	396.45
415.318	461.99
415.526	416.93
415.734	461.99
415.943	502.95
416.151	449.7
416.359	476.32
416.567	507.04
416.776	543.91
416.984	531.62
417.192	588.96
417.4	560.29
417.608	560.29
417.817	560.29
418.025	709.79
418.233	664.74
418.441	677.02
418.649	642.21
418.857	795.81
419.065	740.51
419.273	720.03
419.481	822.43
419.689	906.4
419.897	840.86
420.105	904.35
420.313	953.5
420.521	920.73
420.729	980.12
420.937	1012.89
421.145	1109.15
421.353	1057.95
421.561	1152.15
421.769	1092.76
421.977	1217.69
422.185	1189.02
422.393	1141.91
422.601	1227.93
422.809	1207.45
423.017	1295.51
423.224	1391.77
423.432	1461.4
423.64	1455.25
423.848	1608.85
424.056	1559.7
424.263	1758.35
424.471	1602.71
424.679	1797.26
424.887	1717.39
425.094	1840.27
425.302	1850.51
425.51	1864.85
425.718	1905.81
425.925	2014.35
426.133	2038.92
426.341	2079.88
426.548	2225.29
426.756	2284.68
426.964	2215.05
427.171	2337.93
427.379	2548.87
427.586	2495.62
427.794	2452.61
428.001	2659.46
428.209	2800.77
428.417	2833.54
428.624	2954.37
428.832	2890.88
429.039	3001.47
429.247	2956.41
429.454	3189.88
429.662	3411.06
429.869	3216.51
430.076	3525.75
430.284	3419.25
430.491	3497.08
430.699	3619.96
430.906	3597.43
431.114	3732.59
431.321	3966.06
431.528	4031.6
431.736	4230.25
431.943	4308.07
432.15	4154.48
432.358	4271.21
432.565	4623.46
432.772	4576.36
432.979	4762.72
433.187	4926.56
433.394	4926.56
433.601	5131.36
433.808	5123.16
434.016	5164.12
434.223	5383.26
434.43	5651.54
434.637	5536.85
434.844	6003.79
435.052	6098
435.259	6181.96
435.466	6106.19
435.673	6114.38
435.88	6374.47
436.087	6564.93
436.294	6747.2
436.501	6560.84
436.708	6726.72
436.915	7013.44
437.122	7341.11
437.329	7388.22
437.537	7474.23
437.743	7707.7
437.95	7558.2
438.157	7945.27
438.364	8367.15
438.571	8318
438.778	8303.66
438.985	9112.61
439.192	8873
439.399	9088.03
439.606	8956.96
439.813	9399.32
440.02	9909.27
440.227	9894.93
440.433	9636.89
440.64	9954.32
440.847	9886.74
441.054	9982.99
441.261	10574.86
441.467	10664.97
441.674	11004.93
441.881	11426.81
442.088	11217.92
442.294	11189.25
442.501	11543.55
442.708	11635.71
442.914	11959.28
443.121	12616.68
443.328	12540.91
443.534	13210.59
443.741	12805.1
443.948	12772.33
444.154	13624.28
444.361	13523.93
444.568	13695.96
444.774	13554.65
444.981	13990.87
445.187	14304.21
445.394	15080.39
445.6	14560.2
445.807	15956.92
446.013	15367.1
446.22	15633.34
446.426	16352.18
446.633	16397.23
446.839	16870.31
447.046	16491.44
447.252	17294.24
447.459	17519.52
447.665	17425.31
447.871	17980.31
448.078	19016.58
448.284	18004.89
448.491	18543.5
448.697	19542.91
448.903	19575.68
449.11	19731.33
449.316	19436.42
449.522	19895.16
449.728	20063.1
449.935	20665.2
450.141	20386.68
450.347	21068.65
450.553	20353.91
450.76	20628.34
450.966	21207.91
451.172	20849.52
451.378	21924.7
451.584	21261.16
451.791	21437.28
451.997	21736.29
452.203	21988.19
452.409	22274.9
452.615	21859.17
452.821	21171.05
453.027	20767.6
453.233	22041.43
453.44	21232.49
453.646	21332.84
453.852	21539.68
454.058	22035.29
454.264	21408.61
454.47	21748.57
454.676	21023.59
454.882	21949.28
455.088	20147.06
455.294	20527.99
455.5	20597.62
455.705	20874.09
455.911	20075.38
456.117	19585.92
456.323	19420.03
456.529	18424.72
456.735	19278.72
456.941	18672.53
457.147	18369.43
457.352	18168.73
457.558	17863.58
457.764	17425.31
457.97	17570.72
458.176	17101.73
458.381	16999.34
458.587	16372.66
458.793	16391.09
458.999	15332.29
459.204	16311.22
459.41	16116.66
459.616	14889.93
459.821	14928.84
460.027	14916.55
460.233	14601.16
460.438	14001.11
460.644	14222.29
460.85	13376.48
461.055	13300.7
461.261	13093.86
461.466	12215.28
461.672	11824.12
461.878	12770.28
462.083	11615.23
462.289	11731.96
462.494	11545.59
462.7	11066.37
462.905	10671.11
463.111	11070.47
463.316	11262.97
463.522	10830.85
463.727	10980.36
463.932	10900.48
464.138	10722.31
464.343	10986.5
464.549	10382.35
464.754	10925.06
464.959	10761.22
465.165	10775.56
465.37	10341.39
465.575	9923.6
465.781	10581
465.986	10433.55
466.191	9960.47
466.397	9976.85
466.602	9317.4
466.807	9804.82
467.012	9624.6
467.218	9514.01
467.423	9704.47
467.628	9638.94
467.833	10089.49
468.038	9907.22
468.244	9497.63
468.449	9800.73
468.654	9464.86
468.859	9425.95
469.064	9507.87
469.269	9120.8
469.474	9128.99
