Data from USB4F104151__28__12-58-45-988.txt Node

Date: Fri Mar 14 12:58:45 EDT 2025
User: louis
Spectrometer: USB4F10415
Trigger mode: 4
Integration Time (sec): 1.000000E-2
Scans to average: 1
Electric dark correction enabled: true
Nonlinearity correction enabled: false
Boxcar width: 0
XAxis mode: Wavelengths
Number of Pixels in Spectrum: 3648
>>>>>Begin Spectral Data<<<<<
178.204	-10.41
178.424	-10.41
178.644	-10.41
178.864	-63.66
179.084	-2.22
179.304	38.74
179.524	-26.79
179.744	-20.65
179.964	-45.23
180.184	-75.95
180.404	-0.17
180.624	1.88
180.844	-34.99
181.064	14.17
181.283	48.98
181.503	30.55
181.723	69.46
181.943	-12.46
182.163	18.26
182.383	20.31
182.602	-41.13
182.822	-8.36
183.042	44.88
183.262	-71.85
183.482	-26.79
183.701	-26.79
183.921	18.26
184.141	-39.08
184.361	34.64
184.58	-20.65
184.8	-39.08
185.02	28.5
185.239	-39.08
185.459	44.88
185.679	34.64
185.898	-20.65
186.118	42.84
186.338	30.55
186.557	59.22
186.777	-69.8
186.997	5.97
187.216	-14.51
187.436	94.04
187.655	5.97
187.875	40.79
188.095	-53.42
188.314	100.18
188.534	-67.75
188.753	-26.79
188.973	-4.27
189.192	53.08
189.412	5.97
189.631	-10.41
189.851	-65.71
190.07	-22.7
190.29	-8.36
190.509	-20.65
190.729	61.27
190.948	22.36
191.168	61.27
191.387	42.84
191.607	-10.41
191.826	63.32
192.045	-39.08
192.265	14.17
192.484	36.69
192.704	-18.6
192.923	-63.66
193.142	36.69
193.362	79.7
193.581	14.17
193.8	1.88
194.02	8.02
194.239	-2.22
194.458	28.5
194.678	55.12
194.897	-0.17
195.116	18.26
195.335	-61.61
195.555	14.17
195.774	-22.7
195.993	22.36
196.212	-34.99
196.432	3.93
196.651	53.08
196.87	-37.03
197.089	73.56
197.308	-59.56
197.528	-53.42
197.747	-39.08
197.966	38.74
198.185	48.98
198.404	-12.46
198.623	-51.37
198.842	-2.22
199.062	-37.03
199.281	18.26
199.5	48.98
199.719	-30.89
199.938	-71.85
200.157	20.31
200.376	38.74
200.595	40.79
200.814	8.02
201.033	53.08
201.252	5.97
201.471	-22.7
201.69	53.08
201.909	-37.03
202.128	-4.27
202.347	24.4
202.566	-16.55
202.785	-51.37
203.004	8.02
203.223	-22.7
203.442	-18.6
203.661	-30.89
203.879	-6.31
204.098	10.07
204.317	-6.31
204.536	-41.13
204.755	3.93
204.974	26.45
205.193	-20.65
205.411	53.08
205.63	-4.27
205.849	-14.51
206.068	-20.65
206.287	-73.9
206.505	30.55
206.724	59.22
206.943	34.64
207.162	-53.42
207.381	-37.03
207.599	3.93
207.818	55.12
208.037	-39.08
208.255	-30.89
208.474	55.12
208.693	3.93
208.911	-2.22
209.13	12.12
209.349	-26.79
209.567	24.4
209.786	-39.08
210.005	-18.6
210.223	59.22
210.442	-34.99
210.661	-4.27
210.879	-26.79
211.098	-51.37
211.316	28.5
211.535	-32.94
211.753	3.93
211.972	-12.46
212.191	-2.22
212.409	-0.17
212.628	3.93
212.846	20.31
213.065	30.55
213.283	40.79
213.502	44.88
213.72	18.26
213.938	5.97
214.157	81.75
214.375	12.12
214.594	22.36
214.812	-8.36
215.031	-75.95
215.249	-26.79
215.467	16.21
215.686	1.88
215.904	-24.75
216.122	42.84
216.341	73.56
216.559	-14.51
216.778	48.98
216.996	20.31
217.214	12.12
217.432	20.31
217.651	3.93
217.869	36.69
218.087	65.36
218.306	3.93
218.524	1.88
218.742	46.93
218.96	3.93
219.179	-20.65
219.397	-65.71
219.615	40.79
219.833	46.93
220.051	42.84
220.27	-34.99
220.488	16.21
220.706	18.26
220.924	-20.65
221.142	-80.04
221.36	-90.28
221.578	-20.65
221.796	24.4
222.015	71.51
222.233	53.08
222.451	57.17
222.669	-28.84
222.887	-34.99
223.105	16.21
223.323	12.12
223.541	-45.23
223.759	10.07
223.977	-4.27
224.195	8.02
224.413	26.45
224.631	8.02
224.849	18.26
225.067	-4.27
225.285	30.55
225.503	-32.94
225.721	-49.32
225.939	89.94
226.157	-47.27
226.375	-20.65
226.592	-0.17
226.81	40.79
227.028	26.45
227.246	-22.7
227.464	71.51
227.682	-37.03
227.9	-14.51
228.117	28.5
228.335	-20.65
228.553	-6.31
228.771	16.21
228.989	46.93
229.206	61.27
229.424	-39.08
229.642	-53.42
229.86	32.6
230.077	-34.99
230.295	18.26
230.513	53.08
230.731	44.88
230.948	3.93
231.166	26.45
231.384	-18.6
231.601	20.31
231.819	8.02
232.037	12.12
232.254	73.56
232.472	-34.99
232.689	-20.65
232.907	81.75
233.125	-28.84
233.342	40.79
233.56	-16.55
233.777	-77.99
233.995	61.27
234.213	3.93
234.43	-43.18
234.648	81.75
234.865	-39.08
235.083	71.51
235.3	-37.03
235.518	51.03
235.735	77.65
235.953	16.21
236.17	-96.43
236.388	32.6
236.605	12.12
236.822	14.17
237.04	67.41
237.257	24.4
237.475	40.79
237.692	-20.65
237.909	110.42
238.127	18.26
238.344	8.02
238.562	-14.51
238.779	-18.6
238.996	26.45
239.214	-12.46
239.431	104.28
239.648	-26.79
239.865	53.08
240.083	14.17
240.3	-6.31
240.517	-51.37
240.735	8.02
240.952	-2.22
241.169	-6.31
241.386	-26.79
241.603	-18.6
241.821	-6.31
242.038	-32.94
242.255	5.97
242.472	-43.18
242.689	38.74
242.907	18.26
243.124	14.17
243.341	8.02
243.558	1.88
243.775	-114.86
243.992	46.93
244.209	-41.13
244.426	-2.22
244.643	-8.36
244.86	40.79
245.078	20.31
245.295	12.12
245.512	65.36
245.729	-4.27
245.946	-18.6
246.163	-34.99
246.38	-59.56
246.597	8.02
246.814	38.74
247.031	5.97
247.248	3.93
247.464	24.4
247.681	61.27
247.898	1.88
248.115	26.45
248.332	8.02
248.549	14.17
248.766	28.5
248.983	30.55
249.2	-32.94
249.417	53.08
249.633	28.5
249.85	-0.17
250.067	-0.17
250.284	5.97
250.501	81.75
250.717	-6.31
250.934	-47.27
251.151	-28.84
251.368	-59.56
251.585	12.12
251.801	42.84
252.018	-16.55
252.235	12.12
252.451	-0.17
252.668	57.17
252.885	-18.6
253.102	12.12
253.318	10.07
253.535	-28.84
253.752	-55.47
253.968	24.4
254.185	-4.27
254.401	20.31
254.618	1.88
254.835	-65.71
255.051	94.04
255.268	8.02
255.484	53.08
255.701	91.99
255.917	10.07
256.134	44.88
256.351	-26.79
256.567	28.5
256.784	30.55
257	3.93
257.217	5.97
257.433	44.88
257.65	63.32
257.866	61.27
258.082	61.27
258.299	-22.7
258.515	30.55
258.732	20.31
258.948	36.69
259.165	63.32
259.381	36.69
259.597	77.65
259.814	44.88
260.03	-4.27
260.246	3.93
260.463	-37.03
260.679	32.6
260.895	24.4
261.112	-10.41
261.328	-20.65
261.544	-2.22
261.761	8.02
261.977	-75.95
262.193	28.5
262.409	3.93
262.626	20.31
262.842	-41.13
263.058	-37.03
263.274	40.79
263.49	-18.6
263.707	-10.41
263.923	-10.41
264.139	18.26
264.355	-14.51
264.571	53.08
264.787	61.27
265.004	40.79
265.22	-2.22
265.436	5.97
265.652	14.17
265.868	-4.27
266.084	40.79
266.3	-18.6
266.516	-20.65
266.732	22.36
266.948	-12.46
267.164	-2.22
267.38	-57.51
267.596	32.6
267.812	24.4
268.028	3.93
268.244	12.12
268.46	-22.7
268.676	59.22
268.892	55.12
269.108	-63.66
269.324	-10.41
269.54	14.17
269.756	14.17
269.972	-49.32
270.188	-20.65
270.403	12.12
270.619	20.31
270.835	63.32
271.051	36.69
271.267	14.17
271.483	-0.17
271.698	18.26
271.914	38.74
272.13	1.88
272.346	-59.56
272.562	-10.41
272.777	61.27
272.993	12.12
273.209	-34.99
273.425	-4.27
273.64	14.17
273.856	40.79
274.072	26.45
274.287	5.97
274.503	14.17
274.719	-10.41
274.934	32.6
275.15	3.93
275.366	-39.08
275.581	-2.22
275.797	5.97
276.012	24.4
276.228	26.45
276.444	26.45
276.659	53.08
276.875	-37.03
277.09	-47.27
277.306	-41.13
277.521	57.17
277.737	46.93
277.952	-55.47
278.168	-67.75
278.383	10.07
278.599	34.64
278.814	38.74
279.03	18.26
279.245	-6.31
279.461	5.97
279.676	-24.75
279.892	-41.13
280.107	55.12
280.322	14.17
280.538	24.4
280.753	1.88
280.969	-14.51
281.184	-63.66
281.399	-4.27
281.615	-18.6
281.83	16.21
282.045	28.5
282.26	1.88
282.476	-26.79
282.691	42.84
282.906	26.45
283.122	34.64
283.337	67.41
283.552	10.07
283.767	18.26
283.983	42.84
284.198	-14.51
284.413	32.6
284.628	1.88
284.843	8.02
285.058	34.64
285.274	51.03
285.489	28.5
285.704	-28.84
285.919	-90.28
286.134	38.74
286.349	53.08
286.564	32.6
286.779	26.45
286.995	-26.79
287.21	-41.13
287.425	-43.18
287.64	32.6
287.855	42.84
288.07	-71.85
288.285	57.17
288.5	38.74
288.715	61.27
288.93	67.41
289.145	-6.31
289.36	32.6
289.575	44.88
289.79	44.88
290.004	-12.46
290.219	-20.65
290.434	16.21
290.649	-14.51
290.864	10.07
291.079	-24.75
291.294	-34.99
291.509	-45.23
291.724	18.26
291.938	48.98
292.153	20.31
292.368	53.08
292.583	36.69
292.798	-24.75
293.012	-32.94
293.227	5.97
293.442	-18.6
293.657	-45.23
293.871	3.93
294.086	14.17
294.301	-24.75
294.516	-10.41
294.73	75.6
294.945	22.36
295.16	-6.31
295.374	59.22
295.589	10.07
295.804	-59.56
296.018	-26.79
296.233	20.31
296.447	75.6
296.662	-69.8
296.877	55.12
297.091	44.88
297.306	22.36
297.52	-55.47
297.735	51.03
297.949	-14.51
298.164	16.21
298.378	-63.66
298.593	-24.75
298.807	-69.8
299.022	28.5
299.236	-26.79
299.451	-28.84
299.665	12.12
299.88	20.31
300.094	5.97
300.309	30.55
300.523	55.12
300.737	5.97
300.952	16.21
301.166	-37.03
301.381	-34.99
301.595	3.93
301.809	46.93
302.024	-20.65
302.238	-53.42
302.452	-20.65
302.667	-53.42
302.881	-41.13
303.095	14.17
303.309	63.32
303.524	-41.13
303.738	73.56
303.952	24.4
304.166	3.93
304.381	67.41
304.595	77.65
304.809	-4.27
305.023	18.26
305.237	12.12
305.452	46.93
305.666	5.97
305.88	14.17
306.094	38.74
306.308	34.64
306.522	-28.84
306.736	-4.27
306.95	-24.75
307.164	53.08
307.379	-16.55
307.593	-51.37
307.807	75.6
308.021	-8.36
308.235	-24.75
308.449	18.26
308.663	-4.27
308.877	53.08
309.091	30.55
309.305	38.74
309.519	-16.55
309.733	42.84
309.947	-82.09
310.161	16.21
310.374	-8.36
310.588	5.97
310.802	5.97
311.016	-20.65
311.23	-28.84
311.444	55.12
311.658	-67.75
311.872	38.74
312.085	-16.55
312.299	20.31
312.513	-4.27
312.727	-14.51
312.941	40.79
313.154	44.88
313.368	3.93
313.582	-37.03
313.796	67.41
314.009	-39.08
314.223	69.46
314.437	71.51
314.651	-20.65
314.864	12.12
315.078	-8.36
315.292	28.5
315.505	-0.17
315.719	-32.94
315.933	36.69
316.146	-12.46
316.36	10.07
316.573	18.26
316.787	20.31
317.001	-10.41
317.214	-41.13
317.428	65.36
317.641	77.65
317.855	-65.71
318.068	-20.65
318.282	42.84
318.495	55.12
318.709	36.69
318.922	-55.47
319.136	44.88
319.349	-12.46
319.563	-2.22
319.776	46.93
319.99	-8.36
320.203	14.17
320.417	-32.94
320.63	-0.17
320.843	-0.17
321.057	-2.22
321.27	30.55
321.483	28.5
321.697	10.07
321.91	-18.6
322.124	-28.84
322.337	26.45
322.55	-59.56
322.763	24.4
322.977	-24.75
323.19	12.12
323.403	57.17
323.617	-0.17
323.83	-28.84
324.043	32.6
324.256	-20.65
324.469	-24.75
324.683	26.45
324.896	16.21
325.109	-30.89
325.322	12.12
325.535	14.17
325.748	53.08
325.962	-30.89
326.175	34.64
326.388	69.46
326.601	-28.84
326.814	40.79
327.027	40.79
327.24	46.93
327.453	-61.61
327.666	44.88
327.879	-10.41
328.092	22.36
328.305	-2.22
328.518	18.26
328.731	-43.18
328.944	38.74
329.157	40.79
329.37	-24.75
329.583	-4.27
329.796	38.74
330.009	22.36
330.222	55.12
330.435	-12.46
330.648	5.97
330.861	-8.36
331.073	20.31
331.286	46.93
331.499	61.27
331.712	-45.23
331.925	-12.46
332.138	-47.27
332.35	36.69
332.563	20.31
332.776	-61.61
332.989	36.69
333.202	71.51
333.414	10.07
333.627	46.93
333.84	-47.27
334.053	96.08
334.265	-30.89
334.478	26.45
334.691	-8.36
334.903	-45.23
335.116	30.55
335.329	-30.89
335.541	77.65
335.754	-34.99
335.966	-30.89
336.179	51.03
336.392	-26.79
336.604	16.21
336.817	-20.65
337.029	22.36
337.242	34.64
337.454	3.93
337.667	3.93
337.88	8.02
338.092	71.51
338.305	71.51
338.517	51.03
338.729	34.64
338.942	-41.13
339.154	-30.89
339.367	24.4
339.579	46.93
339.792	96.08
340.004	3.93
340.217	-24.75
340.429	5.97
340.641	30.55
340.854	63.32
341.066	-80.04
341.278	24.4
341.491	-6.31
341.703	-20.65
341.915	12.12
342.128	-6.31
342.34	-18.6
342.552	8.02
342.764	16.21
342.977	89.94
343.189	28.5
343.401	-10.41
343.613	-65.71
343.826	55.12
344.038	26.45
344.25	18.26
344.462	30.55
344.674	34.64
344.886	22.36
345.099	14.17
345.311	53.08
345.523	20.31
345.735	-34.99
345.947	69.46
346.159	-75.95
346.371	1.88
346.583	-12.46
346.795	-37.03
347.007	-0.17
347.219	-2.22
347.431	12.12
347.643	44.88
347.855	44.88
348.067	-18.6
348.279	-34.99
348.491	-20.65
348.703	16.21
348.915	20.31
349.127	44.88
349.339	20.31
349.551	-0.17
349.763	12.12
349.975	-43.18
350.187	-8.36
350.399	12.12
350.61	3.93
350.822	3.93
351.034	-14.51
351.246	-59.56
351.458	22.36
351.669	-2.22
351.881	28.5
352.093	16.21
352.305	-2.22
352.517	48.98
352.728	20.31
352.94	-24.75
353.152	10.07
353.363	-55.47
353.575	36.69
353.787	63.32
353.999	61.27
354.21	1.88
354.422	8.02
354.633	-2.22
354.845	-0.17
355.057	-75.95
355.268	48.98
355.48	-12.46
355.692	34.64
355.903	5.97
356.115	-10.41
356.326	24.4
356.538	89.94
356.749	28.5
356.961	38.74
357.172	-6.31
357.384	-61.61
357.595	75.6
357.807	10.07
358.018	24.4
358.23	24.4
358.441	-20.65
358.653	-22.7
358.864	-10.41
359.075	65.36
359.287	16.21
359.498	36.69
359.709	-4.27
359.921	57.17
360.132	48.98
360.344	48.98
360.555	-71.85
360.766	28.5
360.977	20.31
361.189	3.93
361.4	-45.23
361.611	77.65
361.823	10.07
362.034	-94.38
362.245	20.31
362.456	61.27
362.667	59.22
362.879	30.55
363.09	14.17
363.301	57.17
363.512	36.69
363.723	-55.47
363.935	57.17
364.146	42.84
364.357	-24.75
364.568	65.36
364.779	-53.42
364.99	3.93
365.201	18.26
365.412	-12.46
365.623	20.31
365.834	53.08
366.045	5.97
366.256	26.45
366.467	-53.42
366.678	71.51
366.889	34.64
367.1	26.45
367.311	85.84
367.522	-12.46
367.733	-30.89
367.944	-116.9
368.155	-45.23
368.366	10.07
368.577	16.21
368.788	12.12
368.999	14.17
369.209	30.55
369.42	5.97
369.631	65.36
369.842	12.12
370.053	3.93
370.264	-61.61
370.474	-0.17
370.685	61.27
370.896	-0.17
371.107	75.6
371.317	34.64
371.528	-49.32
371.739	61.27
371.95	38.74
372.16	28.5
372.371	-90.28
372.582	59.22
372.792	-20.65
373.003	34.64
373.214	-30.89
373.424	-22.7
373.635	30.55
373.846	20.31
374.056	5.97
374.267	-73.9
374.477	85.84
374.688	-0.17
374.898	32.6
375.109	-67.75
375.319	75.6
375.53	20.31
375.74	36.69
375.951	-0.17
376.161	16.21
376.372	44.88
376.582	10.07
376.793	-2.22
377.003	1.88
377.214	12.12
377.424	30.55
377.635	59.22
377.845	-55.47
378.055	16.21
378.266	28.5
378.476	42.84
378.686	-4.27
378.897	69.46
379.107	67.41
379.317	-10.41
379.528	-6.31
379.738	26.45
379.948	-8.36
380.158	5.97
380.369	12.12
380.579	12.12
380.789	-10.41
380.999	32.6
381.21	-10.41
381.42	59.22
381.63	57.17
381.84	44.88
382.05	-34.99
382.261	63.32
382.471	30.55
382.681	69.46
382.891	-0.17
383.101	24.4
383.311	-6.31
383.521	-28.84
383.731	5.97
383.941	71.51
384.151	22.36
384.361	3.93
384.571	63.32
384.781	-30.89
384.991	61.27
385.201	40.79
385.411	59.22
385.621	87.89
385.831	18.26
386.041	42.84
386.251	53.08
386.461	-26.79
386.671	67.41
386.881	-26.79
387.091	-6.31
387.301	-6.31
387.511	18.26
387.72	-47.27
387.93	53.08
388.14	-0.17
388.35	16.21
388.56	20.31
388.769	28.5
388.979	16.21
389.189	46.93
389.399	-2.22
389.609	18.26
389.818	81.75
390.028	48.98
390.238	12.12
390.447	26.45
390.657	26.45
390.867	-4.27
391.076	-28.84
391.286	-4.27
391.496	36.69
391.705	-0.17
391.915	-32.94
392.125	124.76
392.334	3.93
392.544	8.02
392.753	46.93
392.963	26.45
393.172	-8.36
393.382	44.88
393.591	-2.22
393.801	53.08
394.01	57.17
394.22	16.21
394.429	40.79
394.639	57.17
394.848	32.6
395.058	59.22
395.267	32.6
395.477	36.69
395.686	59.22
395.895	79.7
396.105	-41.13
396.314	46.93
396.524	-49.32
396.733	-28.84
396.942	26.45
397.152	77.65
397.361	38.74
397.57	67.41
397.78	75.6
397.989	48.98
398.198	10.07
398.407	100.18
398.617	57.17
398.826	28.5
399.035	-20.65
399.244	71.51
399.453	36.69
399.663	-26.79
399.872	106.32
400.081	-16.55
400.29	153.43
400.499	-34.99
400.708	36.69
400.917	-10.41
401.127	-14.51
401.336	57.17
401.545	63.32
401.754	98.13
401.963	20.31
402.172	98.13
402.381	110.42
402.59	87.89
402.799	14.17
403.008	67.41
403.217	57.17
403.426	96.08
403.635	34.64
403.844	77.65
404.053	102.23
404.262	-47.27
404.471	61.27
404.68	44.88
404.888	87.89
405.097	106.32
405.306	-24.75
405.515	57.17
405.724	8.02
405.933	59.22
406.142	87.89
406.35	128.85
406.559	104.28
406.768	83.8
406.977	83.8
407.185	100.18
407.394	132.95
407.603	44.88
407.812	69.46
408.02	94.04
408.229	46.93
408.438	106.32
408.646	77.65
408.855	87.89
409.064	149.33
409.272	118.61
409.481	48.98
409.69	126.8
409.898	96.08
410.107	106.32
410.315	159.57
410.524	104.28
410.733	85.84
410.941	151.38
411.15	208.72
411.358	182.1
411.567	175.95
411.775	151.38
411.984	218.96
412.192	204.63
412.401	206.67
412.609	153.43
412.818	235.35
413.026	202.58
413.234	311.12
413.443	245.59
413.651	227.15
413.86	235.35
414.068	304.98
414.276	255.83
414.485	294.74
414.693	288.59
414.901	216.91
415.11	294.74
415.318	374.61
415.526	343.89
415.734	405.33
415.943	421.71
416.151	421.71
416.359	339.79
416.567	350.03
416.776	350.03
416.984	452.43
417.192	440.14
417.4	466.77
417.608	448.33
417.817	511.82
418.025	571.21
418.233	493.39
418.441	534.35
418.649	630.6
418.857	575.31
419.065	610.12
419.273	522.06
419.481	628.56
419.689	657.23
419.897	646.99
420.105	671.56
420.313	677.71
420.521	790.35
420.729	737.1
420.937	720.71
421.145	823.11
421.353	839.5
421.561	796.49
421.769	802.63
421.977	1011.53
422.185	886.6
422.393	978.76
422.601	999.24
422.809	1019.72
423.017	999.24
423.224	1130.31
423.432	1208.13
423.64	1191.75
423.848	1236.8
424.056	1142.6
424.263	1337.15
424.471	1292.1
424.679	1314.63
424.887	1417.02
425.094	1474.37
425.302	1374.02
425.51	1486.65
425.718	1500.99
425.925	1560.38
426.133	1574.72
426.341	1623.87
426.548	1759.03
426.756	1820.47
426.964	1769.27
427.171	1855.29
427.379	2000.69
427.586	1939.26
427.794	2004.79
428.001	2019.13
428.209	2236.21
428.417	2254.64
428.624	2305.84
428.832	2332.47
429.039	2371.38
429.247	2336.56
429.454	2565.93
429.662	2555.69
429.869	2490.16
430.076	2735.92
430.284	2662.19
430.491	2758.44
430.699	2950.95
430.906	2895.66
431.114	3071.78
431.321	3094.31
431.528	3026.73
431.736	3426.08
431.943	3454.75
432.15	3456.8
432.358	3321.63
432.565	3561.25
432.772	3528.48
432.979	3858.2
433.187	3931.93
433.394	3882.78
433.601	4163.35
433.808	4132.63
434.016	4095.77
434.223	4323.09
434.43	4542.22
434.637	4435.73
434.844	4699.92
435.052	4847.37
435.259	4804.36
435.466	4878.09
435.673	4783.88
435.88	5119.75
436.087	5267.2
436.294	5472
436.501	5293.83
436.708	5228.29
436.915	5500.67
437.122	5828.35
437.329	5822.2
437.537	6078.2
437.743	6080.25
437.95	6110.97
438.157	6268.66
438.364	6579.95
438.571	6541.04
438.778	6498.03
438.985	7251.69
439.192	6817.52
439.399	7227.11
439.606	6913.77
439.813	7333.61
440.02	7806.69
440.227	7841.5
440.433	7585.51
440.64	7853.79
440.847	7902.94
441.054	8060.63
441.261	8611.54
441.467	8537.81
441.674	8687.31
441.881	9215.69
442.088	9082.57
442.294	8738.51
442.501	9047.76
442.708	9328.33
442.914	9449.16
443.121	9948.86
443.328	9746.11
443.534	10555.06
443.741	10225.34
443.948	9998.01
444.154	10989.23
444.361	10811.06
444.568	10733.23
444.774	11015.85
444.981	10864.3
445.187	11392.68
445.394	11630.24
445.6	11615.91
445.807	12658.32
446.013	12127.9
446.22	12441.24
446.426	12818.07
446.633	13321.87
446.839	13514.38
447.046	13192.84
447.252	13680.26
447.459	13651.59
447.665	14052.99
447.871	14343.8
448.078	15251.05
448.284	14274.17
448.491	14831.22
448.697	15441.51
448.903	15507.05
449.11	15335.02
449.316	15296.11
449.522	15539.82
449.728	16105.06
449.935	16387.68
450.141	16199.26
450.347	16729.69
450.553	16160.35
450.76	16449.11
450.966	16952.91
451.172	16705.11
451.378	17112.66
451.584	16764.5
451.791	17225.29
451.997	17090.13
452.203	17628.74
452.409	17585.74
452.615	17294.93
452.821	16701.01
453.027	16449.11
453.233	17573.45
453.44	16825.94
453.646	17083.98
453.852	17270.35
454.058	17632.84
454.264	16782.93
454.47	17411.66
454.676	16963.15
454.882	17684.04
455.088	15898.21
455.294	16250.46
455.5	16442.97
455.705	16502.36
455.911	16051.81
456.117	15685.22
456.323	15425.13
456.529	14655.09
456.735	15158.89
456.941	14943.86
457.147	14685.81
457.352	14102.14
457.558	13805.19
457.764	14167.68
457.97	13831.81
458.176	13522.57
458.381	13551.24
458.587	12848.79
458.793	12981.9
458.999	12054.17
459.204	13080.21
459.41	12500.63
459.616	11783.84
459.821	12025.5
460.027	11794.08
460.233	11521.7
460.438	10849.97
460.644	11210.41
460.85	10497.72
461.055	10514.1
461.261	10454.71
461.466	9744.06
461.672	9424.58
461.878	10208.95
462.083	9344.71
462.289	9213.64
462.494	8994.51
462.7	8838.86
462.905	8306.39
463.111	8763.09
463.316	8916.69
463.522	8623.83
463.727	8810.19
463.932	8634.07
464.138	8566.48
464.343	8603.35
464.549	8300.25
464.754	8490.71
464.959	8572.63
465.165	8271.58
465.37	8070.87
465.575	7841.5
465.781	8103.64
465.986	8195.8
466.191	7784.16
466.397	7929.56
466.602	7417.57
466.807	7773.92
467.012	7958.24
467.218	7593.7
467.423	7679.71
467.628	7591.65
467.833	7898.84
