Data from USB4F104151__43__12-59-05-405.txt Node

Date: Fri Mar 14 12:59:05 EDT 2025
User: louis
Spectrometer: USB4F10415
Trigger mode: 4
Integration Time (sec): 1.000000E-2
Scans to average: 1
Electric dark correction enabled: true
Nonlinearity correction enabled: false
Boxcar width: 0
XAxis mode: Wavelengths
Number of Pixels in Spectrum: 3648
>>>>>Begin Spectral Data<<<<<
178.204	-44.37
178.424	-44.37
178.644	-44.37
178.864	-64.85
179.084	-13.65
179.304	-19.8
179.524	-27.99
179.744	4.78
179.964	-27.99
180.184	-15.7
180.404	-15.7
180.624	23.21
180.844	21.16
181.064	-40.28
181.283	60.07
181.503	8.87
181.723	29.35
181.943	-23.89
182.163	0.68
182.383	23.21
182.602	17.07
182.822	17.07
183.042	-9.56
183.262	41.64
183.482	33.45
183.701	-48.47
183.921	-36.18
184.141	15.02
184.361	31.4
184.58	27.31
184.8	35.5
185.02	27.31
185.239	74.41
185.459	-9.56
185.679	17.07
185.898	8.87
186.118	78.51
186.338	2.73
186.557	15.02
186.777	-21.85
186.997	21.16
187.216	113.32
187.436	-27.99
187.655	25.26
187.875	-7.51
188.095	17.07
188.314	6.83
188.534	8.87
188.753	47.79
188.973	31.4
189.192	6.83
189.412	-68.95
189.631	55.98
189.851	35.5
190.07	76.46
190.29	-50.52
190.509	25.26
190.729	6.83
190.948	-13.65
191.168	15.02
191.387	68.27
191.607	23.21
191.826	-15.7
192.045	27.31
192.265	-42.32
192.484	25.26
192.704	6.83
192.923	-23.89
193.142	80.55
193.362	49.83
193.581	58.03
193.8	-19.8
194.02	-1.37
194.239	-1.37
194.458	111.27
194.678	4.78
194.897	-15.7
195.116	86.7
195.335	35.5
195.555	58.03
195.774	-64.85
195.993	45.74
196.212	17.07
196.432	-13.65
196.651	21.16
196.87	35.5
197.089	35.5
197.308	-3.41
197.528	49.83
197.747	-71
197.966	53.93
198.185	-17.75
198.404	23.21
198.623	45.74
198.842	70.31
199.062	10.92
199.281	37.55
199.5	4.78
199.719	29.35
199.938	23.21
200.157	-11.61
200.376	17.07
200.595	90.79
200.814	98.99
201.033	0.68
201.252	101.03
201.471	21.16
201.69	31.4
201.909	15.02
202.128	76.46
202.347	-1.37
202.566	33.45
202.785	-58.71
203.004	-40.28
203.223	74.41
203.442	-42.32
203.661	49.83
203.879	43.69
204.098	45.74
204.317	62.12
204.536	6.83
204.755	47.79
204.974	55.98
205.193	45.74
205.411	51.88
205.63	17.07
205.849	17.07
206.068	43.69
206.287	15.02
206.505	-7.51
206.724	6.83
206.943	25.26
207.162	45.74
207.381	41.64
207.599	-7.51
207.818	17.07
208.037	23.21
208.255	12.97
208.474	-3.41
208.693	8.87
208.911	47.79
209.13	12.97
209.349	12.97
209.567	-17.75
209.786	33.45
210.005	-44.37
210.223	51.88
210.442	37.55
210.661	39.59
210.879	17.07
211.098	49.83
211.316	-7.51
211.535	62.12
211.753	53.93
211.972	90.79
212.191	-15.7
212.409	8.87
212.628	-3.41
212.846	-46.42
213.065	-5.46
213.283	15.02
213.502	35.5
213.72	55.98
213.938	19.11
214.157	64.17
214.375	12.97
214.594	12.97
214.812	21.16
215.031	19.11
215.249	-3.41
215.467	41.64
215.686	80.55
215.904	47.79
216.122	-79.19
216.341	27.31
216.559	6.83
216.778	2.73
216.996	86.7
217.214	35.5
217.432	25.26
217.651	-7.51
217.869	-21.85
218.087	12.97
218.306	4.78
218.524	12.97
218.742	-15.7
218.96	41.64
219.179	21.16
219.397	45.74
219.615	72.36
219.833	-38.23
220.051	21.16
220.27	98.99
220.488	-1.37
220.706	45.74
220.924	-36.18
221.142	-13.65
221.36	53.93
221.578	49.83
221.796	-11.61
222.015	31.4
222.233	0.68
222.451	29.35
222.669	66.22
222.887	-3.41
223.105	4.78
223.323	35.5
223.541	-7.51
223.759	25.26
223.977	-9.56
224.195	8.87
224.413	12.97
224.631	92.84
224.849	12.97
225.067	62.12
225.285	10.92
225.503	82.6
225.721	25.26
225.939	19.11
226.157	10.92
226.375	41.64
226.592	10.92
226.81	45.74
227.028	27.31
227.246	35.5
227.464	8.87
227.682	115.37
227.9	39.59
228.117	31.4
228.335	125.61
228.553	8.87
228.771	43.69
228.989	39.59
229.206	-5.46
229.424	-32.08
229.642	21.16
229.86	-30.04
230.077	105.13
230.295	41.64
230.513	84.65
230.731	2.73
230.948	17.07
231.166	37.55
231.384	68.27
231.601	60.07
231.819	35.5
232.037	-60.76
232.254	58.03
232.472	60.07
232.689	-19.8
232.907	19.11
233.125	78.51
233.342	78.51
233.56	15.02
233.777	15.02
233.995	-1.37
234.213	-19.8
234.43	51.88
234.648	37.55
234.865	8.87
235.083	45.74
235.3	12.97
235.518	29.35
235.735	64.17
235.953	117.42
236.17	12.97
236.388	27.31
236.605	15.02
236.822	33.45
237.04	66.22
237.257	8.87
237.475	47.79
237.692	47.79
237.909	19.11
238.127	2.73
238.344	-11.61
238.562	43.69
238.779	-7.51
238.996	-48.47
239.214	43.69
239.431	-1.37
239.648	15.02
239.865	37.55
240.083	-50.52
240.3	47.79
240.517	29.35
240.735	35.5
240.952	2.73
241.169	80.55
241.386	55.98
241.603	-21.85
241.821	0.68
242.038	21.16
242.255	33.45
242.472	27.31
242.689	103.08
242.907	43.69
243.124	-46.42
243.341	-1.37
243.558	-54.61
243.775	33.45
243.992	-25.94
244.209	-44.37
244.426	62.12
244.643	-15.7
244.86	25.26
245.078	27.31
245.295	19.11
245.512	66.22
245.729	4.78
245.946	49.83
246.163	-23.89
246.38	58.03
246.597	33.45
246.814	29.35
247.031	-48.47
247.248	51.88
247.464	70.31
247.681	-48.47
247.898	-19.8
248.115	4.78
248.332	-25.94
248.549	-19.8
248.766	21.16
248.983	-11.61
249.2	55.98
249.417	4.78
249.633	-52.56
249.85	19.11
250.067	82.6
250.284	8.87
250.501	-13.65
250.717	-19.8
250.934	39.59
251.151	19.11
251.368	60.07
251.585	51.88
251.801	-32.08
252.018	8.87
252.235	45.74
252.451	23.21
252.668	80.55
252.885	66.22
253.102	58.03
253.318	58.03
253.535	-30.04
253.752	-9.56
253.968	29.35
254.185	51.88
254.401	37.55
254.618	-15.7
254.835	-36.18
255.051	62.12
255.268	41.64
255.484	45.74
255.701	19.11
255.917	68.27
256.134	-5.46
256.351	17.07
256.567	115.37
256.784	109.22
257	-3.41
257.217	33.45
257.433	10.92
257.65	66.22
257.866	35.5
258.082	25.26
258.299	-42.32
258.515	19.11
258.732	2.73
258.948	-48.47
259.165	96.94
259.381	72.36
259.597	-9.56
259.814	19.11
260.03	-71
260.246	23.21
260.463	25.26
260.679	25.26
260.895	37.55
261.112	49.83
261.328	33.45
261.544	17.07
261.761	41.64
261.977	21.16
262.193	10.92
262.409	31.4
262.626	-27.99
262.842	33.45
263.058	37.55
263.274	68.27
263.49	-3.41
263.707	68.27
263.923	47.79
264.139	4.78
264.355	55.98
264.571	82.6
264.787	72.36
265.004	51.88
265.22	53.93
265.436	-3.41
265.652	-25.94
265.868	-17.75
266.084	19.11
266.3	35.5
266.516	-50.52
266.732	47.79
266.948	80.55
267.164	-56.66
267.38	19.11
267.596	-48.47
267.812	35.5
268.028	-13.65
268.244	49.83
268.46	49.83
268.676	88.75
268.892	25.26
269.108	8.87
269.324	27.31
269.54	-11.61
269.756	21.16
269.972	-27.99
270.188	-7.51
270.403	-11.61
270.619	33.45
270.835	-15.7
271.051	-13.65
271.267	2.73
271.483	58.03
271.698	8.87
271.914	12.97
272.13	-54.61
272.346	-13.65
272.562	-13.65
272.777	86.7
272.993	-23.89
273.209	17.07
273.425	25.26
273.64	-17.75
273.856	-13.65
274.072	35.5
274.287	55.98
274.503	-30.04
274.719	10.92
274.934	74.41
275.15	-9.56
275.366	129.7
275.581	41.64
275.797	51.88
276.012	72.36
276.228	-15.7
276.444	8.87
276.659	105.13
276.875	19.11
277.09	58.03
277.306	15.02
277.521	60.07
277.737	78.51
277.952	-40.28
278.168	45.74
278.383	-48.47
278.599	58.03
278.814	12.97
279.03	29.35
279.245	17.07
279.461	35.5
279.676	53.93
279.892	-19.8
280.107	33.45
280.322	25.26
280.538	80.55
280.753	58.03
280.969	-5.46
281.184	-13.65
281.399	35.5
281.615	15.02
281.83	115.37
282.045	64.17
282.26	86.7
282.476	-1.37
282.691	117.42
282.906	60.07
283.122	41.64
283.337	8.87
283.552	-23.89
283.767	23.21
283.983	-40.28
284.198	115.37
284.413	55.98
284.628	-34.13
284.843	33.45
285.058	45.74
285.274	49.83
285.489	8.87
285.704	31.4
285.919	47.79
286.134	41.64
286.349	43.69
286.564	53.93
286.779	39.59
286.995	62.12
287.21	10.92
287.425	68.27
287.64	62.12
287.855	68.27
288.07	-3.41
288.285	47.79
288.5	74.41
288.715	8.87
288.93	27.31
289.145	-19.8
289.36	64.17
289.575	31.4
289.79	51.88
290.004	92.84
290.219	33.45
290.434	72.36
290.649	-3.41
290.864	-30.04
291.079	117.42
291.294	-1.37
291.509	-73.04
291.724	98.99
291.938	2.73
292.153	-3.41
292.368	-36.18
292.583	64.17
292.798	45.74
293.012	49.83
293.227	70.31
293.442	62.12
293.657	23.21
293.871	0.68
294.086	-21.85
294.301	70.31
294.516	51.88
294.73	-17.75
294.945	-23.89
295.16	-46.42
295.374	-25.94
295.589	84.65
295.804	-17.75
296.018	35.5
296.233	10.92
296.447	39.59
296.662	21.16
296.877	80.55
297.091	8.87
297.306	62.12
297.52	53.93
297.735	51.88
297.949	-34.13
298.164	98.99
298.378	31.4
298.593	37.55
298.807	66.22
299.022	31.4
299.236	64.17
299.451	-30.04
299.665	39.59
299.88	12.97
300.094	-11.61
300.309	-19.8
300.523	45.74
300.737	35.5
300.952	35.5
301.166	47.79
301.381	-42.32
301.595	27.31
301.809	84.65
302.024	33.45
302.238	4.78
302.452	27.31
302.667	17.07
302.881	51.88
303.095	-27.99
303.309	51.88
303.524	-17.75
303.738	66.22
303.952	6.83
304.166	8.87
304.381	-11.61
304.595	60.07
304.809	12.97
305.023	25.26
305.237	35.5
305.452	-7.51
305.666	53.93
305.88	129.7
306.094	80.55
306.308	27.31
306.522	68.27
306.736	35.5
306.95	-25.94
307.164	2.73
307.379	2.73
307.593	43.69
307.807	25.26
308.021	6.83
308.235	58.03
308.449	-38.23
308.663	33.45
308.877	94.89
309.091	25.26
309.305	39.59
309.519	4.78
309.733	25.26
309.947	-7.51
310.161	17.07
310.374	53.93
310.588	45.74
310.802	60.07
311.016	-25.94
311.23	-13.65
311.444	23.21
311.658	68.27
311.872	43.69
312.085	35.5
312.299	111.27
312.513	-56.66
312.727	8.87
312.941	27.31
313.154	10.92
313.368	45.74
313.582	43.69
313.796	103.08
314.009	-5.46
314.223	101.03
314.437	-7.51
314.651	0.68
314.864	-3.41
315.078	62.12
315.292	29.35
315.505	43.69
315.719	66.22
315.933	90.79
316.146	-38.23
316.36	6.83
316.573	68.27
316.787	49.83
317.001	49.83
317.214	41.64
317.428	66.22
317.641	-3.41
317.855	19.11
318.068	-3.41
318.282	8.87
318.495	53.93
318.709	47.79
318.922	76.46
319.136	12.97
319.349	-9.56
319.563	84.65
319.776	29.35
319.99	4.78
320.203	-9.56
320.417	25.26
320.63	29.35
320.843	35.5
321.057	-15.7
321.27	60.07
321.483	10.92
321.697	51.88
321.91	21.16
322.124	35.5
322.337	-52.56
322.55	-36.18
322.763	49.83
322.977	27.31
323.19	29.35
323.403	35.5
323.617	76.46
323.83	-19.8
324.043	0.68
324.256	45.74
324.469	31.4
324.683	15.02
324.896	21.16
325.109	31.4
325.322	8.87
325.535	4.78
325.748	-44.37
325.962	51.88
326.175	17.07
326.388	49.83
326.601	31.4
326.814	127.66
327.027	35.5
327.24	66.22
327.453	2.73
327.666	17.07
327.879	21.16
328.092	49.83
328.305	41.64
328.518	2.73
328.731	2.73
328.944	123.56
329.157	74.41
329.37	74.41
329.583	58.03
329.796	-5.46
330.009	-3.41
330.222	15.02
330.435	39.59
330.648	0.68
330.861	-13.65
331.073	12.97
331.286	-32.08
331.499	41.64
331.712	27.31
331.925	103.08
332.138	4.78
332.35	27.31
332.563	96.94
332.776	51.88
332.989	-40.28
333.202	105.13
333.414	51.88
333.627	-32.08
333.84	-7.51
334.053	90.79
334.265	4.78
334.478	23.21
334.691	-3.41
334.903	15.02
335.116	-19.8
335.329	4.78
335.541	-85.33
335.754	58.03
335.966	33.45
336.179	35.5
336.392	-38.23
336.604	27.31
336.817	49.83
337.029	41.64
337.242	82.6
337.454	37.55
337.667	-52.56
337.88	115.37
338.092	-36.18
338.305	47.79
338.517	-5.46
338.729	115.37
338.942	39.59
339.154	35.5
339.367	55.98
339.579	58.03
339.792	-17.75
340.004	-15.7
340.217	117.42
340.429	-9.56
340.641	-7.51
340.854	33.45
341.066	23.21
341.278	23.21
341.491	39.59
341.703	-40.28
341.915	43.69
342.128	17.07
342.34	-19.8
342.552	29.35
342.764	23.21
342.977	60.07
343.189	49.83
343.401	15.02
343.613	66.22
343.826	33.45
344.038	51.88
344.25	17.07
344.462	-5.46
344.674	47.79
344.886	35.5
345.099	-3.41
345.311	6.83
345.523	0.68
345.735	76.46
345.947	17.07
346.159	19.11
346.371	25.26
346.583	35.5
346.795	23.21
347.007	-21.85
347.219	98.99
347.431	-3.41
347.643	60.07
347.855	31.4
348.067	12.97
348.279	-7.51
348.491	8.87
348.703	62.12
348.915	90.79
349.127	2.73
349.339	17.07
349.551	96.94
349.763	-46.42
349.975	25.26
350.187	58.03
350.399	10.92
350.61	80.55
350.822	-38.23
351.034	25.26
351.246	58.03
351.458	103.08
351.669	96.94
351.881	68.27
352.093	-44.37
352.305	58.03
352.517	86.7
352.728	25.26
352.94	21.16
353.152	45.74
353.363	-13.65
353.575	45.74
353.787	39.59
353.999	41.64
354.21	43.69
354.422	90.79
354.633	80.55
354.845	17.07
355.057	-38.23
355.268	47.79
355.48	35.5
355.692	4.78
355.903	55.98
356.115	74.41
356.326	-23.89
356.538	66.22
356.749	76.46
356.961	88.75
357.172	86.7
357.384	2.73
357.595	76.46
357.807	76.46
358.018	45.74
358.23	76.46
358.441	47.79
358.653	107.18
358.864	43.69
359.075	53.93
359.287	45.74
359.498	29.35
359.709	27.31
359.921	25.26
360.132	35.5
360.344	-1.37
360.555	10.92
360.766	45.74
360.977	-5.46
361.189	29.35
361.4	70.31
361.611	27.31
361.823	10.92
362.034	-7.51
362.245	-42.32
362.456	47.79
362.667	-13.65
362.879	0.68
363.09	8.87
363.301	29.35
363.512	68.27
363.723	37.55
363.935	49.83
364.146	51.88
364.357	15.02
364.568	29.35
364.779	35.5
364.99	15.02
365.201	21.16
365.412	-7.51
365.623	53.93
365.834	-25.94
366.045	68.27
366.256	68.27
366.467	47.79
366.678	27.31
366.889	12.97
367.1	-15.7
367.311	8.87
367.522	-17.75
367.733	33.45
367.944	74.41
368.155	-17.75
368.366	47.79
368.577	21.16
368.788	25.26
368.999	49.83
369.209	45.74
369.42	35.5
369.631	27.31
369.842	37.55
370.053	33.45
370.264	37.55
370.474	64.17
370.685	-15.7
370.896	64.17
371.107	45.74
371.317	-52.56
371.528	8.87
371.739	0.68
371.95	101.03
372.16	53.93
372.371	68.27
372.582	53.93
372.792	2.73
373.003	98.99
373.214	23.21
373.424	25.26
373.635	4.78
373.846	25.26
374.056	29.35
374.267	-81.24
374.477	15.02
374.688	-32.08
374.898	15.02
375.109	45.74
375.319	45.74
375.53	88.75
375.74	98.99
375.951	-5.46
376.161	51.88
376.372	51.88
376.582	66.22
376.793	-46.42
377.003	-9.56
377.214	117.42
377.424	47.79
377.635	25.26
377.845	15.02
378.055	21.16
378.266	41.64
378.476	21.16
378.686	109.22
378.897	4.78
379.107	37.55
379.317	35.5
379.528	-1.37
379.738	53.93
379.948	37.55
380.158	72.36
380.369	27.31
380.579	10.92
380.789	17.07
380.999	12.97
381.21	10.92
381.42	62.12
381.63	-11.61
381.84	58.03
382.05	29.35
382.261	74.41
382.471	47.79
382.681	90.79
382.891	31.4
383.101	27.31
383.311	82.6
383.521	62.12
383.731	66.22
383.941	25.26
384.151	58.03
384.361	27.31
384.571	49.83
384.781	68.27
384.991	53.93
385.201	41.64
385.411	-44.37
385.621	80.55
385.831	43.69
386.041	94.89
386.251	62.12
386.461	84.65
386.671	12.97
386.881	70.31
387.091	-44.37
387.301	27.31
387.511	-3.41
387.72	45.74
387.93	4.78
388.14	27.31
388.35	53.93
388.56	66.22
388.769	33.45
388.979	41.64
389.189	60.07
389.399	37.55
389.609	8.87
389.818	41.64
390.028	60.07
390.238	49.83
390.447	33.45
390.657	49.83
390.867	2.73
391.076	23.21
391.286	51.88
391.496	70.31
391.705	84.65
391.915	90.79
392.125	55.98
392.334	103.08
392.544	125.61
392.753	-7.51
392.963	109.22
393.172	35.5
393.382	60.07
393.591	47.79
393.801	37.55
394.01	58.03
394.22	25.26
394.429	45.74
394.639	17.07
394.848	55.98
395.058	-32.08
395.267	92.84
395.477	21.16
395.686	74.41
395.895	121.51
396.105	29.35
396.314	-3.41
396.524	12.97
396.733	74.41
396.942	96.94
397.152	-38.23
397.361	6.83
397.57	-13.65
397.78	76.46
397.989	101.03
398.198	82.6
398.407	21.16
398.617	94.89
398.826	35.5
399.035	47.79
399.244	119.46
399.453	123.56
399.663	78.51
399.872	82.6
400.081	6.83
400.29	109.22
400.499	82.6
400.708	80.55
400.917	72.36
401.127	23.21
401.336	29.35
401.545	27.31
401.754	98.99
401.963	146.09
402.172	58.03
402.381	92.84
402.59	109.22
402.799	82.6
403.008	74.41
403.217	43.69
403.426	82.6
403.635	17.07
403.844	178.86
404.053	72.36
404.262	94.89
404.471	146.09
404.68	6.83
404.888	117.42
405.097	29.35
405.306	111.27
405.515	146.09
405.724	141.99
405.933	84.65
406.142	154.28
406.35	78.51
406.559	123.56
406.768	146.09
406.977	141.99
407.185	148.14
407.394	74.41
407.603	101.03
407.812	141.99
408.02	197.29
408.229	129.7
408.438	168.62
408.646	139.94
408.855	162.47
409.064	148.14
409.272	115.37
409.481	158.38
409.69	127.66
409.898	150.18
410.107	139.94
410.315	199.34
410.524	191.14
410.733	195.24
410.941	211.62
411.15	209.58
411.358	172.71
411.567	236.2
411.775	185
411.984	242.34
412.192	264.87
412.401	219.82
412.609	238.25
412.818	336.55
413.026	264.87
413.234	289.45
413.443	352.93
413.651	287.4
413.86	213.67
414.068	256.68
414.276	402.08
414.485	346.79
414.693	393.89
414.901	361.13
415.11	377.51
415.318	338.6
415.526	383.65
415.734	393.89
415.943	369.32
416.151	492.2
416.359	508.58
416.567	533.15
416.776	481.96
416.984	576.16
417.192	545.44
417.4	438.95
417.608	590.5
417.817	610.98
418.025	684.7
418.233	707.23
418.441	703.14
418.649	705.18
418.857	725.66
419.065	746.14
419.273	826.01
419.481	742.05
419.689	705.18
419.897	836.25
420.105	897.69
420.313	811.68
420.521	883.36
420.729	1012.38
420.937	950.94
421.145	1030.81
421.353	1086.11
421.561	1133.21
421.769	1149.59
421.977	1090.2
422.185	1086.11
422.393	1213.08
422.601	1280.66
422.809	1288.85
423.017	1333.91
423.224	1405.59
423.432	1381.01
423.64	1407.64
423.848	1604.24
424.056	1446.55
424.263	1559.19
424.471	1661.59
424.679	1604.24
424.887	1645.2
425.094	1745.55
425.302	1766.03
425.51	1737.36
425.718	1897.1
425.925	1956.49
426.133	2017.93
426.341	2062.99
426.548	2226.82
426.756	2202.25
426.964	2214.54
427.171	2222.73
427.379	2425.48
427.586	2452.1
427.794	2595.46
428.001	2597.51
428.209	2615.94
428.417	2577.03
428.624	2845.31
428.832	2933.37
429.039	2900.61
429.247	2822.78
429.454	3170.94
429.662	3306.1
429.869	3138.17
430.076	3381.88
430.284	3197.56
430.491	3568.24
430.699	3656.31
430.906	3676.79
431.114	3695.22
431.321	3883.63
431.528	3768.95
431.736	4196.97
431.943	4362.86
432.15	4151.92
432.358	4330.09
432.565	4502.12
432.772	4391.53
432.979	4829.79
433.187	4876.9
433.394	4762.21
433.601	5220.95
433.808	5005.92
434.016	5147.23
434.223	5229.15
434.43	5741.14
434.637	5556.82
434.844	5868.11
435.052	5962.32
435.259	5837.39
435.466	5984.85
435.673	5972.56
435.88	6351.43
436.087	6593.09
436.294	6638.15
436.501	6554.18
436.708	6789.7
436.915	6881.86
437.122	7154.24
437.329	7127.61
437.537	7451.19
437.743	7539.26
437.95	7619.13
438.157	7860.79
438.364	8241.71
438.571	8196.65
438.778	8278.57
438.985	9105.95
439.192	8778.28
439.399	8749.61
439.606	8610.34
439.813	9273.89
440.02	9654.81
440.227	9533.98
440.433	9388.57
440.64	9589.27
440.847	9781.78
441.054	10027.54
441.261	10613.26
441.467	10553.87
441.674	10856.97
441.881	11356.67
442.088	11252.22
442.294	11045.38
442.501	11299.33
442.708	11801.08
442.914	12052.98
443.121	12575.21
443.328	12243.44
443.534	13001.19
443.741	12564.97
443.948	12505.58
444.154	13246.94
444.361	13361.63
444.568	13556.19
444.774	13568.48
444.981	13560.28
445.187	14115.28
445.394	14713.29
445.6	14342.61
445.807	15946.17
446.013	15303.11
446.22	15456.7
446.426	16155.06
446.633	16458.16
446.839	16796.07
447.046	16132.53
447.252	17058.21
447.459	17133.99
447.665	17211.81
447.871	17944.98
448.078	18571.66
448.284	17627.55
448.491	18016.66
448.697	19110.28
448.903	19128.71
449.11	19302.79
449.316	19153.29
449.522	19372.42
449.728	19925.37
449.935	20189.56
450.141	19956.09
450.347	20332.92
450.553	19845.5
450.76	20267.38
450.966	20676.98
451.172	20543.86
451.378	21309.8
451.584	20760.94
451.791	21227.88
451.997	21178.73
452.203	21660
452.409	21766.49
452.615	21741.92
452.821	20791.66
453.027	20578.67
453.233	21799.26
453.44	20910.44
453.646	21021.03
453.852	21145.96
454.058	21621.09
454.264	21037.42
454.47	21344.61
454.676	20617.58
454.882	21340.52
455.088	19730.81
455.294	20359.54
455.5	20439.41
455.705	20564.34
455.911	19544.45
456.117	19276.16
456.323	19218.82
456.529	17891.74
456.735	18653.58
456.941	18504.08
457.147	17932.7
457.352	17582.49
457.558	17007.02
457.764	17240.48
457.97	17017.25
458.176	16644.52
458.381	16728.49
458.587	15698.36
458.793	15927.74
458.999	15045.06
459.204	16177.59
459.41	15655.36
459.616	14533.07
459.821	14758.35
460.027	14465.49
460.233	14088.66
460.438	13615.58
460.644	13838.81
460.85	13277.66
461.055	12909.03
461.261	12825.06
461.466	12335.6
461.672	11448.83
461.878	12388.85
462.083	11692.54
462.289	11397.63
462.494	11078.15
462.7	10777.09
462.905	10441.23
463.111	10846.73
463.316	10740.23
463.522	10680.84
463.727	10682.89
463.932	10633.74
464.138	10592.78
464.343	10455.56
464.549	10234.38
464.754	10922.5
464.959	10600.97
465.165	10383.88
465.37	9986.58
465.575	9718.29
465.781	10078.74
465.986	10265.1
466.191	9826.84
466.397	9556.5
466.602	9124.38
466.807	9456.15
467.012	9505.31
467.218	9529.88
467.423	9349.66
467.628	9486.87
467.833	9855.51
468.038	9603.61
468.244	9108
468.449	9581.08
468.654	9273.89
468.859	9124.38
