Data from USB4F104151__60__12-59-22-552.txt Node

Date: Fri Mar 14 12:59:22 EDT 2025
User: louis
Spectrometer: USB4F10415
Trigger mode: 4
Integration Time (sec): 1.000000E-2
Scans to average: 1
Electric dark correction enabled: true
Nonlinearity correction enabled: false
Boxcar width: 0
XAxis mode: Wavelengths
Number of Pixels in Spectrum: 3648
>>>>>Begin Spectral Data<<<<<
178.204	-29.01
178.424	-29.01
178.644	-29.01
178.864	-31.06
179.084	-8.53
179.304	-47.44
179.524	11.95
179.744	7.85
179.964	-24.92
180.184	73.39
180.404	11.95
180.624	-12.63
180.844	16.04
181.064	-8.53
181.283	7.85
181.503	-37.2
181.723	1.71
181.943	89.77
182.163	44.71
182.383	-10.58
182.602	-24.92
182.822	50.86
183.042	122.54
183.262	38.57
183.482	9.9
183.701	-16.73
183.921	18.09
184.141	18.09
184.361	1.71
184.58	-12.63
184.8	44.71
185.02	-31.06
185.239	24.23
185.459	-72.02
185.679	-2.39
185.898	-24.92
186.118	44.71
186.338	87.72
186.557	104.11
186.777	11.95
186.997	57
187.216	1.71
187.436	-2.39
187.655	18.09
187.875	30.38
188.095	-26.96
188.314	5.8
188.534	59.05
188.753	-2.39
188.973	22.19
189.192	1.71
189.412	-63.83
189.631	24.23
189.851	38.57
190.07	46.76
190.29	-45.4
190.509	32.43
190.729	-10.58
190.948	-8.53
191.168	59.05
191.387	67.24
191.607	54.95
191.826	-22.87
192.045	61.1
192.265	-4.44
192.484	69.29
192.704	-80.21
192.923	40.62
193.142	-6.49
193.362	-12.63
193.581	54.95
193.8	18.09
194.02	30.38
194.239	1.71
194.458	-2.39
194.678	13.99
194.897	-8.53
195.116	59.05
195.335	42.67
195.555	22.19
195.774	73.39
195.993	38.57
196.212	91.82
196.432	36.52
196.651	50.86
196.87	26.28
197.089	48.81
197.308	-8.53
197.528	22.19
197.747	11.95
197.966	54.95
198.185	13.99
198.404	40.62
198.623	65.19
198.842	59.05
199.062	28.33
199.281	13.99
199.5	-45.4
199.719	-6.49
199.938	57
200.157	50.86
200.376	5.8
200.595	71.34
200.814	26.28
201.033	95.91
201.252	102.06
201.471	34.47
201.69	-51.54
201.909	42.67
202.128	34.47
202.347	18.09
202.566	48.81
202.785	24.23
203.004	20.14
203.223	22.19
203.442	-4.44
203.661	24.23
203.879	-10.58
204.098	95.91
204.317	75.43
204.536	16.04
204.755	-0.34
204.974	5.8
205.193	73.39
205.411	40.62
205.63	-8.53
205.849	77.48
206.068	-35.16
206.287	-45.4
206.505	65.19
206.724	63.15
206.943	-16.73
207.162	-2.39
207.381	-33.11
207.599	-24.92
207.818	18.09
208.037	22.19
208.255	30.38
208.474	52.91
208.693	-26.96
208.911	52.91
209.13	38.57
209.349	34.47
209.567	48.81
209.786	54.95
210.005	-10.58
210.223	34.47
210.442	-6.49
210.661	3.75
210.879	34.47
211.098	26.28
211.316	65.19
211.535	-57.68
211.753	-4.44
211.972	-37.2
212.191	136.87
212.409	52.91
212.628	11.95
212.846	-24.92
213.065	81.58
213.283	32.43
213.502	-26.96
213.72	50.86
213.938	36.52
214.157	87.72
214.375	-20.82
214.594	-35.16
214.812	85.67
215.031	-18.77
215.249	-26.96
215.467	-8.53
215.686	-43.35
215.904	22.19
216.122	32.43
216.341	18.09
216.559	36.52
216.778	63.15
216.996	54.95
217.214	32.43
217.432	46.76
217.651	18.09
217.869	-0.34
218.087	13.99
218.306	-43.35
218.524	63.15
218.742	3.75
218.96	83.63
219.179	-16.73
219.397	18.09
219.615	57
219.833	-14.68
220.051	-39.25
220.27	52.91
220.488	16.04
220.706	38.57
220.924	67.24
221.142	16.04
221.36	-2.39
221.578	40.62
221.796	18.09
222.015	61.1
222.233	20.14
222.451	95.91
222.669	13.99
222.887	11.95
223.105	83.63
223.323	91.82
223.541	13.99
223.759	40.62
223.977	-4.44
224.195	102.06
224.413	61.1
224.631	-6.49
224.849	-55.64
225.067	13.99
225.285	42.67
225.503	32.43
225.721	42.67
225.939	46.76
226.157	40.62
226.375	104.11
226.592	34.47
226.81	22.19
227.028	1.71
227.246	57
227.464	11.95
227.682	122.54
227.9	48.81
228.117	69.29
228.335	-2.39
228.553	42.67
228.771	87.72
228.989	20.14
229.206	75.43
229.424	-4.44
229.642	9.9
229.86	-0.34
230.077	18.09
230.295	7.85
230.513	44.71
230.731	89.77
230.948	20.14
231.166	108.2
231.384	36.52
231.601	20.14
231.819	24.23
232.037	-0.34
232.254	93.87
232.472	48.81
232.689	79.53
232.907	91.82
233.125	13.99
233.342	-51.54
233.56	112.3
233.777	-69.97
233.995	22.19
234.213	93.87
234.43	-6.49
234.648	69.29
234.865	7.85
235.083	26.28
235.3	-18.77
235.518	5.8
235.735	28.33
235.953	-8.53
236.17	61.1
236.388	-8.53
236.605	93.87
236.822	65.19
237.04	11.95
237.257	59.05
237.475	42.67
237.692	95.91
237.909	28.33
238.127	3.75
238.344	18.09
238.562	-10.58
238.779	7.85
238.996	-10.58
239.214	1.71
239.431	61.1
239.648	-8.53
239.865	52.91
240.083	42.67
240.3	-37.2
240.517	42.67
240.735	-12.63
240.952	11.95
241.169	16.04
241.386	38.57
241.603	18.09
241.821	11.95
242.038	69.29
242.255	79.53
242.472	24.23
242.689	79.53
242.907	38.57
243.124	28.33
243.341	65.19
243.558	50.86
243.775	18.09
243.992	20.14
244.209	54.95
244.426	87.72
244.643	48.81
244.86	-6.49
245.078	95.91
245.295	18.09
245.512	18.09
245.729	9.9
245.946	54.95
246.163	-6.49
246.38	26.28
246.597	-63.83
246.814	46.76
247.031	77.48
247.248	42.67
247.464	18.09
247.681	85.67
247.898	-8.53
248.115	44.71
248.332	-29.01
248.549	20.14
248.766	46.76
248.983	24.23
249.2	-35.16
249.417	36.52
249.633	40.62
249.85	-24.92
250.067	-26.96
250.284	42.67
250.501	-14.68
250.717	79.53
250.934	71.34
251.151	5.8
251.368	-6.49
251.585	16.04
251.801	38.57
252.018	46.76
252.235	34.47
252.451	22.19
252.668	46.76
252.885	65.19
253.102	30.38
253.318	24.23
253.535	7.85
253.752	26.28
253.968	34.47
254.185	30.38
254.401	-8.53
254.618	13.99
254.835	32.43
255.051	5.8
255.268	50.86
255.484	24.23
255.701	-31.06
255.917	22.19
256.134	-35.16
256.351	-8.53
256.567	-84.31
256.784	24.23
257	-57.68
257.217	91.82
257.433	28.33
257.65	97.96
257.866	20.14
258.082	85.67
258.299	7.85
258.515	59.05
258.732	-29.01
258.948	18.09
259.165	79.53
259.381	95.91
259.597	34.47
259.814	52.91
260.03	5.8
260.246	-10.58
260.463	75.43
260.679	-16.73
260.895	-6.49
261.112	26.28
261.328	24.23
261.544	102.06
261.761	28.33
261.977	11.95
262.193	40.62
262.409	79.53
262.626	30.38
262.842	73.39
263.058	59.05
263.274	30.38
263.49	46.76
263.707	-2.39
263.923	-8.53
264.139	1.71
264.355	-31.06
264.571	87.72
264.787	-0.34
265.004	34.47
265.22	48.81
265.436	118.44
265.652	93.87
265.868	-10.58
266.084	-8.53
266.3	-18.77
266.516	-10.58
266.732	3.75
266.948	77.48
267.164	26.28
267.38	-24.92
267.596	44.71
267.812	69.29
268.028	65.19
268.244	13.99
268.46	24.23
268.676	83.63
268.892	50.86
269.108	40.62
269.324	28.33
269.54	59.05
269.756	44.71
269.972	-10.58
270.188	57
270.403	26.28
270.619	-4.44
270.835	46.76
271.051	77.48
271.267	-31.06
271.483	69.29
271.698	46.76
271.914	48.81
272.13	36.52
272.346	-35.16
272.562	-10.58
272.777	50.86
272.993	24.23
273.209	38.57
273.425	-0.34
273.64	50.86
273.856	73.39
274.072	-6.49
274.287	34.47
274.503	46.76
274.719	83.63
274.934	22.19
275.15	-16.73
275.366	38.57
275.581	79.53
275.797	-43.35
276.012	71.34
276.228	30.38
276.444	18.09
276.659	63.15
276.875	36.52
277.09	9.9
277.306	-6.49
277.521	89.77
277.737	67.24
277.952	71.34
278.168	7.85
278.383	30.38
278.599	-20.82
278.814	7.85
279.03	-18.77
279.245	36.52
279.461	46.76
279.676	-4.44
279.892	11.95
280.107	38.57
280.322	-0.34
280.538	20.14
280.753	-29.01
280.969	26.28
281.184	61.1
281.399	52.91
281.615	54.95
281.83	16.04
282.045	36.52
282.26	50.86
282.476	57
282.691	59.05
282.906	-16.73
283.122	71.34
283.337	24.23
283.552	22.19
283.767	-29.01
283.983	11.95
284.198	57
284.413	61.1
284.628	30.38
284.843	26.28
285.058	34.47
285.274	130.73
285.489	28.33
285.704	124.58
285.919	7.85
286.134	13.99
286.349	40.62
286.564	-39.25
286.779	38.57
286.995	83.63
287.21	18.09
287.425	22.19
287.64	-63.83
287.855	24.23
288.07	59.05
288.285	16.04
288.5	112.3
288.715	42.67
288.93	16.04
289.145	54.95
289.36	46.76
289.575	13.99
289.79	71.34
290.004	112.3
290.219	97.96
290.434	48.81
290.649	5.8
290.864	67.24
291.079	18.09
291.294	95.91
291.509	28.33
291.724	67.24
291.938	57
292.153	52.91
292.368	42.67
292.583	38.57
292.798	44.71
293.012	89.77
293.227	5.8
293.442	24.23
293.657	-10.58
293.871	40.62
294.086	30.38
294.301	63.15
294.516	-16.73
294.73	91.82
294.945	-24.92
295.16	40.62
295.374	46.76
295.589	3.75
295.804	-33.11
296.018	18.09
296.233	-4.44
296.447	44.71
296.662	83.63
296.877	83.63
297.091	54.95
297.306	22.19
297.52	44.71
297.735	20.14
297.949	44.71
298.164	65.19
298.378	-31.06
298.593	63.15
298.807	-29.01
299.022	65.19
299.236	7.85
299.451	36.52
299.665	73.39
299.88	65.19
300.094	28.33
300.309	18.09
300.523	85.67
300.737	42.67
300.952	-12.63
301.166	32.43
301.381	38.57
301.595	22.19
301.809	104.11
302.024	112.3
302.238	48.81
302.452	91.82
302.667	-29.01
302.881	26.28
303.095	87.72
303.309	-2.39
303.524	26.28
303.738	32.43
303.952	44.71
304.166	73.39
304.381	1.71
304.595	-6.49
304.809	69.29
305.023	67.24
305.237	30.38
305.452	38.57
305.666	75.43
305.88	-31.06
306.094	67.24
306.308	95.91
306.522	57
306.736	65.19
306.95	42.67
307.164	100.01
307.379	5.8
307.593	-16.73
307.807	38.57
308.021	7.85
308.235	1.71
308.449	48.81
308.663	9.9
308.877	54.95
309.091	24.23
309.305	18.09
309.519	59.05
309.733	63.15
309.947	24.23
310.161	38.57
310.374	79.53
310.588	26.28
310.802	1.71
311.016	9.9
311.23	61.1
311.444	-18.77
311.658	-29.01
311.872	87.72
312.085	16.04
312.299	16.04
312.513	46.76
312.727	65.19
312.941	-18.77
313.154	34.47
313.368	50.86
313.582	22.19
313.796	50.86
314.009	11.95
314.223	-6.49
314.437	87.72
314.651	106.15
314.864	61.1
315.078	1.71
315.292	38.57
315.505	24.23
315.719	22.19
315.933	40.62
316.146	83.63
316.36	-0.34
316.573	87.72
316.787	-8.53
317.001	42.67
317.214	32.43
317.428	7.85
317.641	7.85
317.855	40.62
318.068	1.71
318.282	40.62
318.495	-14.68
318.709	-12.63
318.922	50.86
319.136	40.62
319.349	38.57
319.563	-6.49
319.776	48.81
319.99	54.95
320.203	-18.77
320.417	81.58
320.63	65.19
320.843	61.1
321.057	-8.53
321.27	63.15
321.483	-4.44
321.697	59.05
321.91	1.71
322.124	79.53
322.337	18.09
322.55	-31.06
322.763	9.9
322.977	63.15
323.19	1.71
323.403	114.34
323.617	59.05
323.83	-63.83
324.043	26.28
324.256	38.57
324.469	-8.53
324.683	16.04
324.896	57
325.109	38.57
325.322	38.57
325.535	-35.16
325.748	7.85
325.962	32.43
326.175	-14.68
326.388	16.04
326.601	77.48
326.814	13.99
327.027	48.81
327.24	110.25
327.453	24.23
327.666	67.24
327.879	65.19
328.092	16.04
328.305	42.67
328.518	38.57
328.731	61.1
328.944	34.47
329.157	69.29
329.37	50.86
329.583	118.44
329.796	42.67
330.009	-72.02
330.222	40.62
330.435	-6.49
330.648	42.67
330.861	91.82
331.073	108.2
331.286	155.3
331.499	28.33
331.712	24.23
331.925	46.76
332.138	40.62
332.35	97.96
332.563	30.38
332.776	-31.06
332.989	59.05
333.202	18.09
333.414	95.91
333.627	75.43
333.84	18.09
334.053	-49.49
334.265	-6.49
334.478	30.38
334.691	42.67
334.903	26.28
335.116	-6.49
335.329	71.34
335.541	59.05
335.754	22.19
335.966	32.43
336.179	-2.39
336.392	-6.49
336.604	28.33
336.817	32.43
337.029	46.76
337.242	18.09
337.454	93.87
337.667	-45.4
337.88	106.15
338.092	20.14
338.305	54.95
338.517	-8.53
338.729	91.82
338.942	102.06
339.154	-63.83
339.367	16.04
339.579	28.33
339.792	16.04
340.004	57
340.217	-18.77
340.429	32.43
340.641	42.67
340.854	73.39
341.066	-2.39
341.278	75.43
341.491	36.52
341.703	5.8
341.915	-2.39
342.128	44.71
342.34	81.58
342.552	13.99
342.764	57
342.977	-22.87
343.189	75.43
343.401	85.67
343.613	34.47
343.826	-65.88
344.038	-12.63
344.25	22.19
344.462	-10.58
344.674	79.53
344.886	34.47
345.099	38.57
345.311	5.8
345.523	-26.96
345.735	65.19
345.947	63.15
346.159	-22.87
346.371	38.57
346.583	22.19
346.795	122.54
347.007	67.24
347.219	126.63
347.431	-20.82
347.643	42.67
347.855	-41.3
348.067	9.9
348.279	5.8
348.491	24.23
348.703	-43.35
348.915	59.05
349.127	7.85
349.339	34.47
349.551	69.29
349.763	-2.39
349.975	44.71
350.187	42.67
350.399	44.71
350.61	65.19
350.822	-29.01
351.034	-10.58
351.246	36.52
351.458	71.34
351.669	22.19
351.881	61.1
352.093	13.99
352.305	91.82
352.517	81.58
352.728	9.9
352.94	22.19
353.152	46.76
353.363	38.57
353.575	9.9
353.787	42.67
353.999	-8.53
354.21	69.29
354.422	24.23
354.633	24.23
354.845	22.19
355.057	52.91
355.268	-61.78
355.48	5.8
355.692	69.29
355.903	69.29
356.115	52.91
356.326	-2.39
356.538	102.06
356.749	46.76
356.961	28.33
357.172	79.53
357.384	52.91
357.595	77.48
357.807	65.19
358.018	22.19
358.23	3.75
358.441	63.15
358.653	75.43
358.864	79.53
359.075	69.29
359.287	63.15
359.498	-6.49
359.709	-26.96
359.921	-18.77
360.132	5.8
360.344	11.95
360.555	83.63
360.766	71.34
360.977	40.62
361.189	30.38
361.4	1.71
361.611	106.15
361.823	93.87
362.034	48.81
362.245	13.99
362.456	42.67
362.667	34.47
362.879	18.09
363.09	50.86
363.301	36.52
363.512	48.81
363.723	112.3
363.935	54.95
364.146	13.99
364.357	69.29
364.568	71.34
364.779	16.04
364.99	48.81
365.201	-12.63
365.412	71.34
365.623	44.71
365.834	65.19
366.045	81.58
366.256	63.15
366.467	75.43
366.678	48.81
366.889	-10.58
367.1	16.04
367.311	18.09
367.522	18.09
367.733	69.29
367.944	-0.34
368.155	7.85
368.366	44.71
368.577	38.57
368.788	140.97
368.999	20.14
369.209	40.62
369.42	48.81
369.631	71.34
369.842	-26.96
370.053	22.19
370.264	16.04
370.474	11.95
370.685	83.63
370.896	40.62
371.107	-6.49
371.317	-2.39
371.528	22.19
371.739	-0.34
371.95	38.57
372.16	67.24
372.371	18.09
372.582	24.23
372.792	32.43
373.003	1.71
373.214	-8.53
373.424	95.91
373.635	-14.68
373.846	13.99
374.056	38.57
374.267	63.15
374.477	42.67
374.688	13.99
374.898	42.67
375.109	59.05
375.319	40.62
375.53	145.06
375.74	-2.39
375.951	50.86
376.161	22.19
376.372	-8.53
376.582	54.95
376.793	46.76
377.003	-37.2
377.214	28.33
377.424	-16.73
377.635	-10.58
377.845	-16.73
378.055	67.24
378.266	20.14
378.476	128.68
378.686	40.62
378.897	48.81
379.107	106.15
379.317	22.19
379.528	87.72
379.738	63.15
379.948	44.71
380.158	40.62
380.369	73.39
380.579	120.49
380.789	118.44
380.999	73.39
381.21	36.52
381.42	106.15
381.63	28.33
381.84	52.91
382.05	110.25
382.261	63.15
382.471	24.23
382.681	-31.06
382.891	59.05
383.101	138.92
383.311	11.95
383.521	-51.54
383.731	46.76
383.941	26.28
384.151	112.3
384.361	54.95
384.571	38.57
384.781	-14.68
384.991	-0.34
385.201	26.28
385.411	24.23
385.621	87.72
385.831	67.24
386.041	46.76
386.251	-37.2
386.461	26.28
386.671	54.95
386.881	75.43
387.091	30.38
387.301	-8.53
387.511	61.1
387.72	145.06
387.93	52.91
388.14	26.28
388.35	34.47
388.56	71.34
388.769	73.39
388.979	26.28
389.189	32.43
389.399	38.57
389.609	-20.82
389.818	145.06
390.028	13.99
390.238	79.53
390.447	57
390.657	54.95
390.867	32.43
391.076	95.91
391.286	91.82
391.496	-0.34
391.705	13.99
391.915	145.06
392.125	63.15
392.334	-2.39
392.544	91.82
392.753	57
392.963	42.67
393.172	50.86
393.382	48.81
393.591	65.19
393.801	30.38
394.01	67.24
394.22	67.24
394.429	54.95
394.639	48.81
394.848	63.15
395.058	-0.34
395.267	67.24
395.477	124.58
395.686	61.1
395.895	136.87
396.105	61.1
396.314	91.82
396.524	50.86
396.733	83.63
396.942	79.53
397.152	54.95
397.361	102.06
397.57	100.01
397.78	116.39
397.989	57
398.198	77.48
398.407	106.15
398.617	136.87
398.826	5.8
399.035	106.15
399.244	81.58
399.453	30.38
399.663	73.39
399.872	-2.39
400.081	93.87
400.29	97.96
400.499	9.9
400.708	134.82
400.917	79.53
401.127	112.3
401.336	138.92
401.545	81.58
401.754	85.67
401.963	20.14
402.172	81.58
402.381	95.91
402.59	81.58
402.799	59.05
403.008	79.53
403.217	179.88
403.426	73.39
403.635	95.91
403.844	85.67
404.053	114.34
404.262	110.25
404.471	114.34
404.68	149.16
404.888	126.63
405.097	89.77
405.306	151.21
405.515	67.24
405.724	145.06
405.933	190.12
406.142	149.16
406.35	120.49
406.559	104.11
406.768	104.11
406.977	136.87
407.185	143.02
407.394	173.74
407.603	159.4
407.812	175.78
408.02	147.11
408.229	149.16
408.438	169.64
408.646	100.01
408.855	130.73
409.064	222.89
409.272	173.74
409.481	202.41
409.69	153.26
409.898	231.08
410.107	206.5
410.315	257.7
410.524	159.4
410.733	218.79
410.941	208.55
411.15	200.36
411.358	237.22
411.567	288.42
411.775	284.33
411.984	206.5
412.192	247.46
412.401	353.96
412.609	284.33
412.818	288.42
413.026	200.36
413.234	386.72
413.443	296.61
413.651	284.33
413.86	313
414.068	341.67
414.276	376.48
414.485	437.92
414.693	347.81
414.901	497.32
415.11	442.02
415.318	382.63
415.526	546.47
415.734	423.59
415.943	392.87
416.151	521.89
416.359	464.55
416.567	499.36
416.776	513.7
416.984	536.23
417.192	525.99
417.4	521.89
417.608	634.53
417.817	609.95
418.025	538.27
418.233	636.58
418.441	685.73
418.649	792.22
418.857	673.44
419.065	726.69
419.273	736.93
419.481	726.69
419.689	765.6
419.897	874.14
420.105	880.29
420.313	878.24
420.521	964.25
420.729	1029.79
420.937	1021.6
421.145	1001.12
421.353	1138.33
421.561	1113.75
421.769	1070.75
421.977	1085.08
422.185	1199.77
422.393	1207.96
422.601	1384.09
422.809	1382.04
423.017	1205.91
423.224	1474.2
423.432	1371.8
423.64	1478.29
423.848	1545.88
424.056	1484.44
424.263	1533.59
424.471	1672.85
424.679	1674.9
424.887	1773.2
425.094	1799.82
425.302	1781.39
425.51	1851.02
425.718	1881.74
425.925	1816.21
426.133	2035.34
426.341	2205.32
426.548	2320.01
426.756	2080.39
426.964	2205.32
427.171	2377.35
427.379	2406.02
427.586	2444.93
427.794	2414.21
428.001	2748.03
428.209	2750.08
428.417	2793.09
428.624	2889.34
428.832	2942.59
429.039	2973.31
429.247	2893.44
429.454	3272.31
429.662	3475.06
429.869	3167.87
430.076	3335.8
430.284	3323.51
430.491	3552.88
430.699	3624.56
430.906	3509.88
431.114	3700.34
431.321	3868.27
431.528	3747.44
431.736	4126.32
431.943	4281.96
432.15	4243.05
432.358	4273.77
432.565	4521.57
432.772	4404.84
432.979	4755.04
433.187	4818.53
433.394	4767.33
433.601	5086.81
433.808	5170.78
434.016	5105.24
434.223	5523.03
434.43	5604.95
434.637	5547.61
434.844	5856.85
435.052	6151.76
435.259	5862.99
435.466	6153.8
435.673	5883.47
435.88	6377.03
436.087	6608.45
436.294	6780.48
436.501	6534.73
436.708	6882.88
436.915	6897.22
437.122	7114.3
437.329	7165.5
437.537	7517.75
437.743	7802.42
437.95	7568.95
438.157	7890.48
438.364	8226.35
438.571	8046.13
438.778	8183.34
438.985	8898.08
439.192	8775.2
439.399	8920.61
439.606	8934.95
439.813	9119.26
440.02	9852.44
440.227	9582.1
440.433	9475.61
440.64	9860.63
440.847	9659.93
441.054	9958.93
441.261	10737.16
441.467	10636.81
441.674	10618.38
441.881	11105.79
442.088	11175.42
442.294	10921.48
442.501	11316.73
442.708	11654.65
442.914	11976.18
443.121	12611.05
443.328	12469.74
443.534	13217.25
443.741	12742.12
443.948	12512.75
444.154	13665.75
444.361	13383.13
444.568	13409.76
444.774	13436.38
444.981	13725.15
445.187	14163.41
445.394	14562.76
445.6	14665.16
445.807	15787.45
446.013	15377.86
446.22	15603.13
446.426	16305.59
446.633	16442.8
446.839	16864.68
447.046	16303.54
447.252	17175.97
447.459	17321.38
447.665	17221.03
447.871	17964.44
448.078	18691.47
448.284	17849.75
448.491	18435.47
448.697	19041.67
448.903	19443.07
449.11	19289.48
449.316	19299.72
449.522	19740.03
449.728	19893.63
449.935	20358.52
450.141	20174.2
450.347	20843.88
450.553	20241.78
450.76	20395.38
450.966	21175.66
451.172	20796.78
451.378	21407.08
451.584	21034.35
451.791	21472.61
451.997	21409.12
452.203	22140.25
452.409	22216.02
452.615	21484.9
452.821	21130.6
453.027	20694.38
453.233	21779.81
453.44	20776.3
453.646	21130.6
453.852	21210.47
454.058	21722.46
454.264	21118.31
454.47	21536.1
454.676	21149.03
454.882	21456.23
455.088	19981.69
455.294	20157.82
455.5	20368.76
455.705	21011.82
455.911	20057.46
456.117	19381.63
456.323	19273.09
456.529	18146.71
456.735	18865.55
456.941	18556.3
457.147	18421.14
457.352	17712.54
457.558	17485.22
457.764	17255.84
457.97	17096.1
458.176	16784.81
458.381	16801.19
458.587	16047.54
458.793	16162.23
458.999	15340.99
459.204	16264.63
459.41	15936.95
459.616	14601.68
459.821	14962.12
460.027	14693.83
460.233	14491.09
460.438	13753.82
460.644	13784.54
460.85	13274.59
461.055	13184.48
461.261	12969.44
461.466	11994.61
461.672	11578.87
461.878	12543.47
462.083	11826.68
462.289	11544.06
462.494	11326.97
462.7	10954.24
462.905	10538.51
463.111	11021.83
463.316	10905.09
463.522	10835.46
463.727	11017.73
463.932	10800.65
464.138	10726.92
464.343	10638.86
464.549	10210.83
464.754	10761.73
464.959	10501.64
465.165	10595.85
465.37	10309.13
465.575	9926.16
465.781	10343.95
465.986	10286.61
466.191	10034.71
466.397	9803.29
466.602	9401.88
466.807	9569.82
467.012	9737.75
467.218	9522.71
467.423	9489.95
467.628	9410.08
467.833	9930.26
468.038	9561.62
468.244	9459.23
468.449	9754.13
468.654	9451.03
