Data from USB4F104151__70__12-59-36-542.txt Node

Date: Fri Mar 14 12:59:36 EDT 2025
User: louis
Spectrometer: USB4F10415
Trigger mode: 4
Integration Time (sec): 1.000000E-2
Scans to average: 1
Electric dark correction enabled: true
Nonlinearity correction enabled: false
Boxcar width: 0
XAxis mode: Wavelengths
Number of Pixels in Spectrum: 3648
>>>>>Begin Spectral Data<<<<<
178.204	-47.27
178.424	-47.27
178.644	-47.27
178.864	-18.6
179.084	-39.08
179.304	-41.13
179.524	-26.79
179.744	30.55
179.964	-57.51
180.184	1.88
180.404	-65.71
180.624	42.84
180.844	73.56
181.064	38.74
181.283	-41.13
181.503	16.21
181.723	28.5
181.943	-28.84
182.163	-24.75
182.383	36.69
182.602	-86.19
182.822	-47.27
183.042	1.88
183.262	-51.37
183.482	79.7
183.701	5.97
183.921	-0.17
184.141	-6.31
184.361	48.98
184.58	42.84
184.8	20.31
185.02	-75.95
185.239	51.03
185.459	1.88
185.679	3.93
185.898	-34.99
186.118	91.99
186.338	-26.79
186.557	40.79
186.777	-53.42
186.997	-37.03
187.216	-61.61
187.436	-24.75
187.655	40.79
187.875	-2.22
188.095	14.17
188.314	96.08
188.534	8.02
188.753	36.69
188.973	16.21
189.192	12.12
189.412	-32.94
189.631	20.31
189.851	24.4
190.07	40.79
190.29	12.12
190.509	61.27
190.729	44.88
190.948	81.75
191.168	108.37
191.387	61.27
191.607	-10.41
191.826	48.98
192.045	-39.08
192.265	42.84
192.484	8.02
192.704	59.22
192.923	26.45
193.142	83.8
193.362	-55.47
193.581	32.6
193.8	-4.27
194.02	77.65
194.239	73.56
194.458	-22.7
194.678	16.21
194.897	26.45
195.116	-14.51
195.335	24.4
195.555	-0.17
195.774	8.02
195.993	-4.27
196.212	48.98
196.432	28.5
196.651	20.31
196.87	26.45
197.089	59.22
197.308	-61.61
197.528	28.5
197.747	10.07
197.966	48.98
198.185	108.37
198.404	8.02
198.623	18.26
198.842	61.27
199.062	8.02
199.281	16.21
199.5	-16.55
199.719	34.64
199.938	71.51
200.157	24.4
200.376	46.93
200.595	-22.7
200.814	32.6
201.033	-12.46
201.252	77.65
201.471	-14.51
201.69	24.4
201.909	61.27
202.128	55.12
202.347	1.88
202.566	-8.36
202.785	3.93
203.004	79.7
203.223	61.27
203.442	34.64
203.661	-6.31
203.879	57.17
204.098	-12.46
204.317	53.08
204.536	24.4
204.755	18.26
204.974	42.84
205.193	89.94
205.411	-0.17
205.63	48.98
205.849	22.36
206.068	-22.7
206.287	-0.17
206.505	-26.79
206.724	57.17
206.943	48.98
207.162	57.17
207.381	57.17
207.599	-6.31
207.818	34.64
208.037	16.21
208.255	5.97
208.474	34.64
208.693	-43.18
208.911	1.88
209.13	-18.6
209.349	12.12
209.567	57.17
209.786	12.12
210.005	22.36
210.223	51.03
210.442	48.98
210.661	26.45
210.879	12.12
211.098	73.56
211.316	-20.65
211.535	67.41
211.753	12.12
211.972	89.94
212.191	24.4
212.409	16.21
212.628	32.6
212.846	-14.51
213.065	-0.17
213.283	32.6
213.502	-8.36
213.72	-26.79
213.938	89.94
214.157	36.69
214.375	24.4
214.594	73.56
214.812	42.84
215.031	-49.32
215.249	34.64
215.467	48.98
215.686	-34.99
215.904	85.84
216.122	18.26
216.341	18.26
216.559	24.4
216.778	59.22
216.996	1.88
217.214	10.07
217.432	-20.65
217.651	-16.55
217.869	48.98
218.087	-24.75
218.306	-30.89
218.524	85.84
218.742	55.12
218.96	-18.6
219.179	46.93
219.397	96.08
219.615	44.88
219.833	28.5
220.051	79.7
220.27	114.52
220.488	38.74
220.706	16.21
220.924	-6.31
221.142	67.41
221.36	42.84
221.578	1.88
221.796	-30.89
222.015	53.08
222.233	26.45
222.451	69.46
222.669	5.97
222.887	-20.65
223.105	42.84
223.323	-0.17
223.541	3.93
223.759	46.93
223.977	24.4
224.195	42.84
224.413	18.26
224.631	-30.89
224.849	-0.17
225.067	51.03
225.285	51.03
225.503	-10.41
225.721	73.56
225.939	3.93
226.157	32.6
226.375	100.18
226.592	20.31
226.81	-6.31
227.028	46.93
227.246	73.56
227.464	-24.75
227.682	32.6
227.9	-22.7
228.117	91.99
228.335	106.32
228.553	14.17
228.771	30.55
228.989	48.98
229.206	36.69
229.424	8.02
229.642	-22.7
229.86	-49.32
230.077	10.07
230.295	-16.55
230.513	44.88
230.731	55.12
230.948	57.17
231.166	34.64
231.384	-4.27
231.601	34.64
231.819	91.99
232.037	40.79
232.254	1.88
232.472	18.26
232.689	65.36
232.907	-0.17
233.125	8.02
233.342	61.27
233.56	16.21
233.777	28.5
233.995	44.88
234.213	12.12
234.43	1.88
234.648	112.47
234.865	63.32
235.083	59.22
235.3	-20.65
235.518	69.46
235.735	16.21
235.953	12.12
236.17	83.8
236.388	32.6
236.605	48.98
236.822	24.4
237.04	57.17
237.257	38.74
237.475	-0.17
237.692	-6.31
237.909	5.97
238.127	63.32
238.344	51.03
238.562	20.31
238.779	42.84
238.996	-0.17
239.214	-28.84
239.431	12.12
239.648	-20.65
239.865	-4.27
240.083	53.08
240.3	-4.27
240.517	10.07
240.735	77.65
240.952	24.4
241.169	91.99
241.386	22.36
241.603	16.21
241.821	-30.89
242.038	44.88
242.255	-37.03
242.472	-14.51
242.689	28.5
242.907	28.5
243.124	-30.89
243.341	22.36
243.558	26.45
243.775	51.03
243.992	28.5
244.209	83.8
244.426	65.36
244.643	-8.36
244.86	53.08
245.078	36.69
245.295	28.5
245.512	-28.84
245.729	38.74
245.946	14.17
246.163	-0.17
246.38	46.93
246.597	44.88
246.814	-4.27
247.031	-16.55
247.248	96.08
247.464	38.74
247.681	48.98
247.898	12.12
248.115	14.17
248.332	55.12
248.549	14.17
248.766	24.4
248.983	83.8
249.2	-0.17
249.417	10.07
249.633	18.26
249.85	16.21
250.067	-41.13
250.284	3.93
250.501	10.07
250.717	36.69
250.934	28.5
251.151	57.17
251.368	-26.79
251.585	-26.79
251.801	3.93
252.018	57.17
252.235	20.31
252.451	-6.31
252.668	51.03
252.885	44.88
253.102	-24.75
253.318	51.03
253.535	73.56
253.752	-14.51
253.968	-4.27
254.185	-39.08
254.401	-8.36
254.618	48.98
254.835	73.56
255.051	91.99
255.268	-16.55
255.484	-57.51
255.701	12.12
255.917	40.79
256.134	34.64
256.351	38.74
256.567	5.97
256.784	-8.36
257	-4.27
257.217	1.88
257.433	20.31
257.65	75.6
257.866	96.08
258.082	12.12
258.299	-86.19
258.515	24.4
258.732	36.69
258.948	10.07
259.165	3.93
259.381	-4.27
259.597	-34.99
259.814	10.07
260.03	-10.41
260.246	-24.75
260.463	14.17
260.679	53.08
260.895	40.79
261.112	34.64
261.328	22.36
261.544	85.84
261.761	28.5
261.977	-39.08
262.193	24.4
262.409	44.88
262.626	24.4
262.842	-24.75
263.058	-6.31
263.274	108.37
263.49	44.88
263.707	81.75
263.923	81.75
264.139	10.07
264.355	57.17
264.571	24.4
264.787	42.84
265.004	55.12
265.22	12.12
265.436	40.79
265.652	44.88
265.868	81.75
266.084	48.98
266.3	32.6
266.516	55.12
266.732	-8.36
266.948	8.02
267.164	34.64
267.38	5.97
267.596	53.08
267.812	30.55
268.028	12.12
268.244	-30.89
268.46	-0.17
268.676	-24.75
268.892	1.88
269.108	26.45
269.324	28.5
269.54	1.88
269.756	-24.75
269.972	-18.6
270.188	14.17
270.403	3.93
270.619	-45.23
270.835	-18.6
271.051	1.88
271.267	71.51
271.483	1.88
271.698	36.69
271.914	-32.94
272.13	44.88
272.346	51.03
272.562	63.32
272.777	89.94
272.993	-2.22
273.209	8.02
273.425	20.31
273.64	36.69
273.856	53.08
274.072	1.88
274.287	-6.31
274.503	-12.46
274.719	26.45
274.934	61.27
275.15	-8.36
275.366	-16.55
275.581	8.02
275.797	-10.41
276.012	53.08
276.228	53.08
276.444	34.64
276.659	36.69
276.875	-32.94
277.09	135
277.306	5.97
277.521	83.8
277.737	22.36
277.952	36.69
278.168	26.45
278.383	20.31
278.599	59.22
278.814	28.5
279.03	-39.08
279.245	38.74
279.461	16.21
279.676	34.64
279.892	40.79
280.107	10.07
280.322	-24.75
280.538	98.13
280.753	75.6
280.969	22.36
281.184	-2.22
281.399	16.21
281.615	-2.22
281.83	-4.27
282.045	57.17
282.26	26.45
282.476	89.94
282.691	28.5
282.906	-20.65
283.122	65.36
283.337	14.17
283.552	30.55
283.767	26.45
283.983	38.74
284.198	28.5
284.413	48.98
284.628	34.64
284.843	-6.31
285.058	-18.6
285.274	-0.17
285.489	48.98
285.704	-45.23
285.919	-16.55
286.134	30.55
286.349	-6.31
286.564	-6.31
286.779	42.84
286.995	118.61
287.21	-8.36
287.425	48.98
287.64	26.45
287.855	12.12
288.07	-26.79
288.285	38.74
288.5	20.31
288.715	8.02
288.93	-2.22
289.145	3.93
289.36	-24.75
289.575	42.84
289.79	36.69
290.004	-82.09
290.219	1.88
290.434	5.97
290.649	36.69
290.864	-59.56
291.079	20.31
291.294	-26.79
291.509	-16.55
291.724	26.45
291.938	94.04
292.153	16.21
292.368	-26.79
292.583	-24.75
292.798	46.93
293.012	34.64
293.227	-34.99
293.442	-47.27
293.657	40.79
293.871	57.17
294.086	-39.08
294.301	104.28
294.516	12.12
294.73	-14.51
294.945	-55.47
295.16	57.17
295.374	34.64
295.589	-28.84
295.804	32.6
296.018	-59.56
296.233	1.88
296.447	-30.89
296.662	12.12
296.877	38.74
297.091	36.69
297.306	32.6
297.52	3.93
297.735	36.69
297.949	26.45
298.164	55.12
298.378	71.51
298.593	24.4
298.807	-39.08
299.022	12.12
299.236	51.03
299.451	26.45
299.665	3.93
299.88	-57.51
300.094	71.51
300.309	34.64
300.523	-6.31
300.737	48.98
300.952	-2.22
301.166	-20.65
301.381	-12.46
301.595	-10.41
301.809	-6.31
302.024	24.4
302.238	51.03
302.452	48.98
302.667	-8.36
302.881	48.98
303.095	59.22
303.309	65.36
303.524	22.36
303.738	44.88
303.952	-30.89
304.166	12.12
304.381	-18.6
304.595	57.17
304.809	5.97
305.023	30.55
305.237	12.12
305.452	65.36
305.666	71.51
305.88	3.93
306.094	3.93
306.308	22.36
306.522	-26.79
306.736	73.56
306.95	12.12
307.164	28.5
307.379	51.03
307.593	24.4
307.807	-6.31
308.021	87.89
308.235	51.03
308.449	34.64
308.663	-39.08
308.877	10.07
309.091	24.4
309.305	-0.17
309.519	34.64
309.733	32.6
309.947	44.88
310.161	26.45
310.374	20.31
310.588	-20.65
310.802	79.7
311.016	-14.51
311.23	-18.6
311.444	32.6
311.658	-14.51
311.872	26.45
312.085	-39.08
312.299	30.55
312.513	30.55
312.727	98.13
312.941	-26.79
313.154	114.52
313.368	48.98
313.582	-4.27
313.796	46.93
314.009	3.93
314.223	-8.36
314.437	12.12
314.651	42.84
314.864	26.45
315.078	79.7
315.292	-0.17
315.505	34.64
315.719	24.4
315.933	16.21
316.146	55.12
316.36	28.5
316.573	61.27
316.787	-0.17
317.001	-22.7
317.214	20.31
317.428	65.36
317.641	65.36
317.855	-0.17
318.068	-18.6
318.282	65.36
318.495	30.55
318.709	12.12
318.922	-2.22
319.136	-2.22
319.349	106.32
319.563	83.8
319.776	-28.84
319.99	-20.65
320.203	53.08
320.417	34.64
320.63	48.98
320.843	96.08
321.057	3.93
321.27	-18.6
321.483	3.93
321.697	30.55
321.91	40.79
322.124	20.31
322.337	-0.17
322.55	40.79
322.763	-0.17
322.977	75.6
323.19	-4.27
323.403	8.02
323.617	-2.22
323.83	24.4
324.043	38.74
324.256	-6.31
324.469	34.64
324.683	42.84
324.896	-39.08
325.109	24.4
325.322	3.93
325.535	69.46
325.748	40.79
325.962	-37.03
326.175	1.88
326.388	34.64
326.601	-41.13
326.814	12.12
327.027	16.21
327.24	61.27
327.453	-32.94
327.666	32.6
327.879	-26.79
328.092	73.56
328.305	61.27
328.518	8.02
328.731	14.17
328.944	42.84
329.157	38.74
329.37	-0.17
329.583	65.36
329.796	108.37
330.009	8.02
330.222	8.02
330.435	10.07
330.648	-24.75
330.861	5.97
331.073	-8.36
331.286	53.08
331.499	65.36
331.712	8.02
331.925	42.84
332.138	16.21
332.35	65.36
332.563	12.12
332.776	10.07
332.989	36.69
333.202	-39.08
333.414	18.26
333.627	-0.17
333.84	12.12
334.053	-24.75
334.265	51.03
334.478	14.17
334.691	20.31
334.903	20.31
335.116	32.6
335.329	42.84
335.541	48.98
335.754	89.94
335.966	-34.99
336.179	106.32
336.392	94.04
336.604	-4.27
336.817	46.93
337.029	28.5
337.242	-37.03
337.454	8.02
337.667	30.55
337.88	108.37
338.092	-32.94
338.305	128.85
338.517	-20.65
338.729	67.41
338.942	98.13
339.154	-12.46
339.367	59.22
339.579	20.31
339.792	-6.31
340.004	44.88
340.217	87.89
340.429	-0.17
340.641	-14.51
340.854	8.02
341.066	-14.51
341.278	77.65
341.491	-0.17
341.703	-16.55
341.915	-16.55
342.128	24.4
342.34	53.08
342.552	28.5
342.764	36.69
342.977	51.03
343.189	-8.36
343.401	94.04
343.613	16.21
343.826	8.02
344.038	-2.22
344.25	-51.37
344.462	67.41
344.674	-6.31
344.886	75.6
345.099	-8.36
345.311	30.55
345.523	18.26
345.735	8.02
345.947	30.55
346.159	67.41
346.371	67.41
346.583	53.08
346.795	48.98
347.007	89.94
347.219	8.02
347.431	3.93
347.643	32.6
347.855	34.64
348.067	-2.22
348.279	42.84
348.491	46.93
348.703	42.84
348.915	59.22
349.127	20.31
349.339	65.36
349.551	-14.51
349.763	8.02
349.975	51.03
350.187	-16.55
350.399	12.12
350.61	-37.03
350.822	59.22
351.034	73.56
351.246	-22.7
351.458	1.88
351.669	30.55
351.881	91.99
352.093	36.69
352.305	-8.36
352.517	1.88
352.728	106.32
352.94	-32.94
353.152	75.6
353.363	42.84
353.575	16.21
353.787	36.69
353.999	-47.27
354.21	73.56
354.422	-0.17
354.633	-41.13
354.845	75.6
355.057	-8.36
355.268	30.55
355.48	130.9
355.692	51.03
355.903	22.36
356.115	61.27
356.326	-69.8
356.538	48.98
356.749	-49.32
356.961	48.98
357.172	-10.41
357.384	48.98
357.595	16.21
357.807	24.4
358.018	-20.65
358.23	10.07
358.441	46.93
358.653	38.74
358.864	-2.22
359.075	42.84
359.287	42.84
359.498	12.12
359.709	22.36
359.921	44.88
360.132	22.36
360.344	-28.84
360.555	24.4
360.766	20.31
360.977	28.5
361.189	65.36
361.4	32.6
361.611	69.46
361.823	67.41
362.034	73.56
362.245	63.32
362.456	-18.6
362.667	-30.89
362.879	34.64
363.09	38.74
363.301	94.04
363.512	26.45
363.723	10.07
363.935	18.26
364.146	8.02
364.357	65.36
364.568	-20.65
364.779	14.17
364.99	10.07
365.201	63.32
365.412	12.12
365.623	65.36
365.834	1.88
366.045	26.45
366.256	63.32
366.467	44.88
366.678	87.89
366.889	-26.79
367.1	-12.46
367.311	-24.75
367.522	22.36
367.733	48.98
367.944	89.94
368.155	61.27
368.366	-10.41
368.577	38.74
368.788	16.21
368.999	-12.46
369.209	67.41
369.42	1.88
369.631	-24.75
369.842	14.17
370.053	5.97
370.264	48.98
370.474	73.56
370.685	14.17
370.896	42.84
371.107	36.69
371.317	16.21
371.528	24.4
371.739	65.36
371.95	42.84
372.16	96.08
372.371	65.36
372.582	42.84
372.792	28.5
373.003	118.61
373.214	-0.17
373.424	53.08
373.635	44.88
373.846	81.75
374.056	46.93
374.267	110.42
374.477	-0.17
374.688	38.74
374.898	57.17
375.109	-20.65
375.319	-24.75
375.53	118.61
375.74	26.45
375.951	18.26
376.161	-8.36
376.372	65.36
376.582	-12.46
376.793	143.19
377.003	53.08
377.214	59.22
377.424	53.08
377.635	75.6
377.845	8.02
378.055	-4.27
378.266	71.51
378.476	32.6
378.686	63.32
378.897	8.02
379.107	71.51
379.317	28.5
379.528	51.03
379.738	-6.31
379.948	3.93
380.158	-0.17
380.369	3.93
380.579	59.22
380.789	-8.36
380.999	16.21
381.21	57.17
381.42	28.5
381.63	-67.75
381.84	5.97
382.05	-26.79
382.261	104.28
382.471	-26.79
382.681	61.27
382.891	81.75
383.101	73.56
383.311	10.07
383.521	34.64
383.731	10.07
383.941	59.22
384.151	-20.65
384.361	24.4
384.571	10.07
384.781	48.98
384.991	98.13
385.201	32.6
385.411	28.5
385.621	-8.36
385.831	34.64
386.041	116.56
386.251	-47.27
386.461	40.79
386.671	63.32
386.881	30.55
387.091	3.93
387.301	55.12
387.511	32.6
387.72	44.88
387.93	61.27
388.14	81.75
388.35	42.84
388.56	32.6
388.769	-37.03
388.979	1.88
389.189	-37.03
389.399	89.94
389.609	106.32
389.818	40.79
390.028	28.5
390.238	48.98
390.447	-39.08
390.657	26.45
390.867	28.5
391.076	5.97
391.286	18.26
391.496	8.02
391.705	51.03
391.915	40.79
392.125	40.79
392.334	32.6
392.544	32.6
392.753	67.41
392.963	-10.41
393.172	8.02
393.382	26.45
393.591	163.67
393.801	34.64
394.01	130.9
394.22	71.51
394.429	44.88
394.639	46.93
394.848	38.74
395.058	67.41
395.267	-18.6
395.477	12.12
395.686	81.75
395.895	-22.7
396.105	32.6
396.314	87.89
396.524	75.6
396.733	61.27
396.942	65.36
397.152	46.93
397.361	30.55
397.57	10.07
397.78	-16.55
397.989	75.6
398.198	67.41
398.407	-2.22
398.617	69.46
398.826	32.6
399.035	65.36
399.244	89.94
399.453	-0.17
399.663	8.02
399.872	-24.75
400.081	46.93
400.29	32.6
400.499	-26.79
400.708	26.45
400.917	18.26
401.127	26.45
401.336	-8.36
401.545	91.99
401.754	65.36
401.963	53.08
402.172	10.07
402.381	102.23
402.59	48.98
402.799	32.6
403.008	67.41
403.217	10.07
403.426	77.65
403.635	48.98
403.844	-22.7
404.053	-2.22
404.262	48.98
404.471	38.74
404.68	96.08
404.888	40.79
405.097	73.56
405.306	32.6
405.515	73.56
405.724	28.5
405.933	94.04
406.142	130.9
406.35	94.04
406.559	69.46
406.768	26.45
406.977	73.56
407.185	63.32
407.394	69.46
407.603	59.22
407.812	94.04
408.02	87.89
408.229	75.6
408.438	81.75
408.646	40.79
408.855	98.13
409.064	46.93
409.272	104.28
409.481	79.7
409.69	157.52
409.898	53.08
410.107	79.7
410.315	73.56
410.524	14.17
410.733	147.28
410.941	65.36
411.15	63.32
411.358	104.28
411.567	110.42
411.775	128.85
411.984	151.38
412.192	218.96
412.401	114.52
412.609	132.95
412.818	186.19
413.026	120.66
413.234	120.66
413.443	190.29
413.651	161.62
413.86	100.18
414.068	212.82
414.276	225.11
414.485	124.76
414.693	155.47
414.901	184.15
415.11	167.76
415.318	94.04
415.526	157.52
415.734	135
415.943	190.29
416.151	216.91
416.359	169.81
416.567	214.87
416.776	194.39
416.984	270.16
417.192	253.78
417.4	212.82
417.608	245.59
417.817	292.69
418.025	257.87
418.233	247.63
418.441	276.31
418.649	280.4
418.857	372.56
419.065	356.18
419.273	284.5
419.481	360.27
419.689	331.6
419.897	399.18
420.105	388.94
420.313	352.08
420.521	413.52
420.729	470.86
420.937	448.33
421.145	479.05
421.353	417.61
421.561	460.62
421.769	440.14
421.977	513.87
422.185	472.91
422.393	573.26
422.601	546.64
422.809	655.18
423.017	460.62
423.224	612.17
423.432	573.26
423.64	534.35
423.848	726.86
424.056	761.67
424.263	685.9
424.471	638.8
424.679	720.71
424.887	722.76
425.094	747.34
425.302	778.06
425.51	718.67
425.718	874.31
425.925	804.68
426.133	855.88
426.341	915.27
426.548	931.66
426.756	902.98
426.964	890.7
427.171	862.02
427.379	1005.38
427.586	1050.44
427.794	1161.03
428.001	1113.92
428.209	1126.21
428.417	1077.06
428.624	1236.8
428.832	1255.23
429.039	1216.32
429.247	1320.77
429.454	1304.39
429.662	1408.83
429.869	1363.78
430.076	1390.4
430.284	1380.16
430.491	1388.35
430.699	1642.3
430.906	1564.48
431.114	1638.2
431.321	1642.3
431.528	1646.4
431.736	1701.69
431.943	1799.99
432.15	1724.22
432.358	1673.02
432.565	1859.38
432.772	1797.95
432.979	2035.51
433.187	2023.22
433.394	2060.09
433.601	2203.44
433.808	2084.66
434.016	2115.38
434.223	2193.2
434.43	2383.66
434.637	2225.97
434.844	2496.3
435.052	2545.45
435.259	2445.1
435.466	2531.12
435.673	2629.42
435.88	2823.98
436.087	2699.05
436.294	2832.17
436.501	2748.2
436.708	2746.16
436.915	2981.67
437.122	2987.82
437.329	2983.72
437.537	3170.08
437.743	2987.82
437.95	3079.97
438.157	3278.63
438.364	3309.35
438.571	3489.57
438.778	3530.53
438.985	3694.36
439.192	3493.66
439.399	3563.29
439.606	3641.12
439.813	3841.82
440.02	3931.93
440.227	4124.44
440.433	4048.66
440.64	4030.23
440.847	3989.27
441.054	4157.21
441.261	4362
441.467	4327.19
441.674	4488.98
441.881	4556.56
442.088	4534.03
442.294	4669.2
442.501	4628.24
442.708	4790.03
442.914	4998.92
443.121	5342.98
443.328	4908.81
443.534	5467.91
443.741	5164.81
443.948	5216.01
444.154	5785.34
444.361	5609.22
444.568	5596.93
444.774	5615.36
444.981	5644.03
445.187	5697.28
445.394	6072.06
445.6	5883.64
445.807	6653.68
446.013	6428.4
446.22	6469.36
446.426	6582
446.633	6770.41
446.839	6999.79
447.046	6733.55
447.252	6993.64
447.459	7063.27
447.665	7065.32
447.871	7425.76
448.078	7855.84
448.284	7489.25
448.491	7601.89
448.697	7909.08
448.903	8085.21
449.11	8081.11
449.316	7730.91
449.522	8146.65
449.728	8218.33
449.935	8175.32
450.141	8341.21
450.347	8515.28
450.553	8398.55
450.76	8453.84
450.966	8683.22
451.172	8480.47
451.378	8785.62
451.584	8591.06
451.791	9019.08
451.997	8861.39
452.203	9162.44
452.409	9006.8
452.615	8926.93
452.821	8769.23
453.027	8478.42
453.233	9017.04
453.44	8707.79
453.646	8781.52
453.852	8855.25
454.058	8912.59
454.264	8625.87
454.47	8836.81
454.676	8722.13
454.882	8967.88
455.088	8201.94
455.294	8408.79
455.5	8416.98
455.705	8494.8
455.911	8128.22
456.117	8150.74
456.323	7767.77
456.529	7454.44
456.735	7927.52
456.941	7845.6
457.147	7560.93
457.352	7276.26
457.558	7114.47
457.764	7175.91
457.97	6999.79
458.176	7020.27
458.381	7012.07
458.587	6514.42
458.793	6741.74
458.999	6342.39
459.204	6684.4
459.41	6528.75
459.616	5938.94
459.821	6149.88
460.027	6002.43
460.233	5934.84
460.438	5766.91
460.644	5756.67
460.85	5472
461.055	5242.63
461.261	5361.41
461.466	4890.38
461.672	4663.05
461.878	5240.58
462.083	4800.27
462.289	4777.74
462.494	4654.86
462.7	4577.04
462.905	4362
463.111	4493.07
463.316	4562.7
463.522	4548.37
463.727	4509.46
463.932	4349.71
464.138	4464.4
464.343	4419.35
464.549	4351.76
464.754	4509.46
464.959	4376.34
465.165	4507.41
465.37	4222.74
465.575	4167.45
465.781	4351.76
465.986	4327.19
466.191	4112.15
466.397	4077.34
466.602	3933.98
466.807	4173.59
467.012	4005.66
467.218	3962.65
467.423	3778.33
467.628	3981.08
467.833	4212.5
468.038	3919.64
468.244	3917.59
468.449	3993.37
468.654	3829.53
468.859	3864.35
469.064	3841.82
469.269	3692.32
469.474	3694.36
469.679	3905.31
469.885	3526.43
470.09	3774.24
470.295	3794.72
470.5	3534.62
470.705	3559.2
470.91	3548.96
471.115	3510.05
471.32	3673.89
471.525	3540.77
