Data from USB4F104151__84__12-59-55-000.txt Node

Date: Fri Mar 14 12:59:55 EDT 2025
User: louis
Spectrometer: USB4F10415
Trigger mode: 4
Integration Time (sec): 1.000000E-2
Scans to average: 1
Electric dark correction enabled: true
Nonlinearity correction enabled: false
Boxcar width: 0
XAxis mode: Wavelengths
Number of Pixels in Spectrum: 3648
>>>>>Begin Spectral Data<<<<<
178.204	-25.09
178.424	-25.09
178.644	-25.09
178.864	-111.1
179.084	9.73
179.304	42.5
179.524	28.16
179.744	22.02
179.964	-20.99
180.184	-37.38
180.404	-76.29
180.624	-10.75
180.844	38.4
181.064	-6.66
181.283	-4.61
181.503	-43.52
181.723	69.12
181.943	-25.09
182.163	1.54
182.383	-59.9
182.602	-39.42
182.822	11.78
183.042	44.54
183.262	-51.71
183.482	-4.61
183.701	-2.56
183.921	36.35
184.141	9.73
184.361	32.26
184.58	-29.18
184.8	-4.61
185.02	-64
185.239	44.54
185.459	-4.61
185.679	15.87
185.898	17.92
186.118	120.32
186.338	48.64
186.557	-12.8
186.777	-25.09
186.997	54.78
187.216	19.97
187.436	5.63
187.655	11.78
187.875	-35.33
188.095	-8.7
188.314	-4.61
188.534	5.63
188.753	-37.38
188.973	-6.66
189.192	30.21
189.412	-57.86
189.631	87.55
189.851	15.87
190.07	-37.38
190.29	30.21
190.509	-10.75
190.729	-18.94
190.948	13.82
191.168	3.58
191.387	60.93
191.607	-10.75
191.826	-25.09
192.045	-25.09
192.265	15.87
192.484	30.21
192.704	-20.99
192.923	1.54
193.142	48.64
193.362	-4.61
193.581	-41.47
193.8	22.02
194.02	-0.51
194.239	38.4
194.458	42.5
194.678	30.21
194.897	-4.61
195.116	-76.29
195.335	17.92
195.555	-43.52
195.774	-94.72
195.993	44.54
196.212	62.98
196.432	-35.33
196.651	13.82
196.87	30.21
197.089	5.63
197.308	-0.51
197.528	-29.18
197.747	-27.14
197.966	5.63
198.185	9.73
198.404	26.11
198.623	3.58
198.842	3.58
199.062	95.74
199.281	26.11
199.5	-8.7
199.719	-68.09
199.938	-31.23
200.157	5.63
200.376	-47.62
200.595	38.4
200.814	-53.76
201.033	-33.28
201.252	-12.8
201.471	-6.66
201.69	-61.95
201.909	3.58
202.128	3.58
202.347	-31.23
202.566	-64
202.785	-25.09
203.004	-10.75
203.223	26.11
203.442	28.16
203.661	34.3
203.879	-12.8
204.098	1.54
204.317	44.54
204.536	36.35
204.755	30.21
204.974	-43.52
205.193	36.35
205.411	52.74
205.63	3.58
205.849	24.06
206.068	40.45
206.287	-25.09
206.505	-51.71
206.724	19.97
206.943	-12.8
207.162	-45.57
207.381	-27.14
207.599	-14.85
207.818	-49.66
208.037	22.02
208.255	-10.75
208.474	-16.9
208.693	-0.51
208.911	-29.18
209.13	28.16
209.349	52.74
209.567	32.26
209.786	5.63
210.005	9.73
210.223	54.78
210.442	1.54
210.661	-18.94
210.879	5.63
211.098	81.41
211.316	-2.56
211.535	48.64
211.753	5.63
211.972	38.4
212.191	24.06
212.409	-0.51
212.628	-37.38
212.846	-27.14
213.065	24.06
213.283	60.93
213.502	-0.51
213.72	103.93
213.938	-10.75
214.157	54.78
214.375	40.45
214.594	-27.14
214.812	5.63
215.031	44.54
215.249	34.3
215.467	3.58
215.686	-94.72
215.904	24.06
216.122	-14.85
216.341	11.78
216.559	30.21
216.778	-25.09
216.996	-16.9
217.214	77.31
217.432	22.02
217.651	-43.52
217.869	19.97
218.087	36.35
218.306	19.97
218.524	69.12
218.742	60.93
218.96	5.63
219.179	-0.51
219.397	-47.62
219.615	-16.9
219.833	11.78
220.051	-57.86
220.27	54.78
220.488	32.26
220.706	-43.52
220.924	-0.51
221.142	11.78
221.36	-0.51
221.578	-37.38
221.796	30.21
222.015	30.21
222.233	-27.14
222.451	28.16
222.669	44.54
222.887	19.97
223.105	-14.85
223.323	71.17
223.541	22.02
223.759	-23.04
223.977	-59.9
224.195	32.26
224.413	42.5
224.631	-2.56
224.849	48.64
225.067	65.02
225.285	40.45
225.503	-39.42
225.721	-41.47
225.939	28.16
226.157	58.88
226.375	19.97
226.592	36.35
226.81	83.45
227.028	44.54
227.246	1.54
227.464	-35.33
227.682	-16.9
227.9	116.22
228.117	44.54
228.335	22.02
228.553	-23.04
228.771	46.59
228.989	-41.47
229.206	-39.42
229.424	-61.95
229.642	42.5
229.86	-31.23
230.077	3.58
230.295	11.78
230.513	-4.61
230.731	79.36
230.948	52.74
231.166	77.31
231.384	-66.05
231.601	24.06
231.819	-27.14
232.037	-18.94
232.254	19.97
232.472	-61.95
232.689	7.68
232.907	36.35
233.125	7.68
233.342	-25.09
233.56	42.5
233.777	-55.81
233.995	-25.09
234.213	15.87
234.43	-53.76
234.648	-4.61
234.865	5.63
235.083	22.02
235.3	-18.94
235.518	-27.14
235.735	22.02
235.953	69.12
236.17	-47.62
236.388	34.3
236.605	24.06
236.822	-20.99
237.04	17.92
237.257	-27.14
237.475	9.73
237.692	-10.75
237.909	-37.38
238.127	-29.18
238.344	60.93
238.562	-61.95
238.779	34.3
238.996	-23.04
239.214	15.87
239.431	-37.38
239.648	-61.95
239.865	-12.8
240.083	-37.38
240.3	36.35
240.517	42.5
240.735	54.78
240.952	-23.04
241.169	87.55
241.386	-2.56
241.603	30.21
241.821	-4.61
242.038	-4.61
242.255	-29.18
242.472	-68.09
242.689	-20.99
242.907	60.93
243.124	-20.99
243.341	-2.56
243.558	40.45
243.775	-78.33
243.992	-0.51
244.209	24.06
244.426	62.98
244.643	-2.56
244.86	-12.8
245.078	69.12
245.295	-6.66
245.512	42.5
245.729	22.02
245.946	7.68
246.163	-12.8
246.38	-4.61
246.597	50.69
246.814	-41.47
247.031	46.59
247.248	-27.14
247.464	-4.61
247.681	-31.23
247.898	26.11
248.115	30.21
248.332	-20.99
248.549	46.59
248.766	44.54
248.983	-10.75
249.2	7.68
249.417	28.16
249.633	13.82
249.85	46.59
250.067	5.63
250.284	30.21
250.501	38.4
250.717	26.11
250.934	-53.76
251.151	50.69
251.368	-31.23
251.585	1.54
251.801	15.87
252.018	24.06
252.235	30.21
252.451	-39.42
252.668	30.21
252.885	7.68
253.102	-41.47
253.318	15.87
253.535	58.88
253.752	34.3
253.968	50.69
254.185	3.58
254.401	54.78
254.618	-10.75
254.835	-16.9
255.051	62.98
255.268	3.58
255.484	58.88
255.701	15.87
255.917	46.59
256.134	-18.94
256.351	30.21
256.567	24.06
256.784	46.59
257	-43.52
257.217	77.31
257.433	75.26
257.65	-12.8
257.866	-6.66
258.082	44.54
258.299	-43.52
258.515	34.3
258.732	-4.61
258.948	11.78
259.165	32.26
259.381	38.4
259.597	60.93
259.814	36.35
260.03	-55.81
260.246	-4.61
260.463	-29.18
260.679	-12.8
260.895	-16.9
261.112	-4.61
261.328	46.59
261.544	11.78
261.761	44.54
261.977	-20.99
262.193	91.65
262.409	42.5
262.626	-8.7
262.842	7.68
263.058	-0.51
263.274	-12.8
263.49	-10.75
263.707	-6.66
263.923	-0.51
264.139	11.78
264.355	-4.61
264.571	-16.9
264.787	34.3
265.004	17.92
265.22	22.02
265.436	52.74
265.652	5.63
265.868	-6.66
266.084	71.17
266.3	48.64
266.516	-49.66
266.732	32.26
266.948	58.88
267.164	-51.71
267.38	-14.85
267.596	19.97
267.812	-6.66
268.028	9.73
268.244	-23.04
268.46	11.78
268.676	89.6
268.892	62.98
269.108	54.78
269.324	3.58
269.54	11.78
269.756	13.82
269.972	-2.56
270.188	24.06
270.403	19.97
270.619	-29.18
270.835	3.58
271.051	60.93
271.267	24.06
271.483	50.69
271.698	24.06
271.914	-4.61
272.13	38.4
272.346	71.17
272.562	-57.86
272.777	58.88
272.993	-23.04
273.209	62.98
273.425	-10.75
273.64	-10.75
273.856	-43.52
274.072	-8.7
274.287	38.4
274.503	-25.09
274.719	-2.56
274.934	-27.14
275.15	-14.85
275.366	-25.09
275.581	-41.47
275.797	-2.56
276.012	-53.76
276.228	40.45
276.444	-45.57
276.659	87.55
276.875	46.59
277.09	-10.75
277.306	1.54
277.521	1.54
277.737	-37.38
277.952	-4.61
278.168	3.58
278.383	24.06
278.599	26.11
278.814	7.68
279.03	62.98
279.245	36.35
279.461	75.26
279.676	-10.75
279.892	-49.66
280.107	97.79
280.322	-18.94
280.538	67.07
280.753	36.35
280.969	22.02
281.184	7.68
281.399	50.69
281.615	-10.75
281.83	-4.61
282.045	-0.51
282.26	-23.04
282.476	-37.38
282.691	-10.75
282.906	77.31
283.122	79.36
283.337	-0.51
283.552	44.54
283.767	13.82
283.983	87.55
284.198	-4.61
284.413	38.4
284.628	69.12
284.843	34.3
285.058	56.83
285.274	36.35
285.489	-12.8
285.704	40.45
285.919	1.54
286.134	15.87
286.349	-31.23
286.564	5.63
286.779	79.36
286.995	17.92
287.21	52.74
287.425	13.82
287.64	-2.56
287.855	15.87
288.07	44.54
288.285	5.63
288.5	-8.7
288.715	-4.61
288.93	3.58
289.145	40.45
289.36	22.02
289.575	-16.9
289.79	48.64
290.004	36.35
290.219	65.02
290.434	-4.61
290.649	13.82
290.864	-4.61
291.079	5.63
291.294	11.78
291.509	-57.86
291.724	38.4
291.938	-4.61
292.153	19.97
292.368	-37.38
292.583	5.63
292.798	48.64
293.012	-4.61
293.227	15.87
293.442	5.63
293.657	-20.99
293.871	15.87
294.086	5.63
294.301	30.21
294.516	34.3
294.73	-12.8
294.945	26.11
295.16	22.02
295.374	3.58
295.589	-18.94
295.804	-35.33
296.018	-18.94
296.233	46.59
296.447	-10.75
296.662	-35.33
296.877	13.82
297.091	-25.09
297.306	15.87
297.52	28.16
297.735	34.3
297.949	19.97
298.164	24.06
298.378	3.58
298.593	3.58
298.807	13.82
299.022	28.16
299.236	3.58
299.451	1.54
299.665	11.78
299.88	-23.04
300.094	5.63
300.309	77.31
300.523	54.78
300.737	-10.75
300.952	15.87
301.166	-55.81
301.381	1.54
301.595	3.58
301.809	5.63
302.024	36.35
302.238	7.68
302.452	89.6
302.667	13.82
302.881	22.02
303.095	50.69
303.309	44.54
303.524	-37.38
303.738	42.5
303.952	-6.66
304.166	40.45
304.381	-35.33
304.595	36.35
304.809	24.06
305.023	-2.56
305.237	13.82
305.452	-27.14
305.666	22.02
305.88	24.06
306.094	26.11
306.308	-2.56
306.522	-61.95
306.736	-18.94
306.95	44.54
307.164	9.73
307.379	22.02
307.593	30.21
307.807	-4.61
308.021	46.59
308.235	50.69
308.449	-47.62
308.663	13.82
308.877	-10.75
309.091	118.27
309.305	-27.14
309.519	-29.18
309.733	-23.04
309.947	19.97
310.161	32.26
310.374	-55.81
310.588	7.68
310.802	-0.51
311.016	-10.75
311.23	-18.94
311.444	28.16
311.658	7.68
311.872	69.12
312.085	-53.76
312.299	62.98
312.513	62.98
312.727	5.63
312.941	11.78
313.154	50.69
313.368	75.26
313.582	-2.56
313.796	17.92
314.009	5.63
314.223	-0.51
314.437	19.97
314.651	17.92
314.864	-2.56
315.078	-10.75
315.292	-14.85
315.505	3.58
315.719	30.21
315.933	7.68
316.146	-6.66
316.36	26.11
316.573	-35.33
316.787	3.58
317.001	-16.9
317.214	-102.91
317.428	-25.09
317.641	65.02
317.855	52.74
318.068	24.06
318.282	36.35
318.495	19.97
318.709	-18.94
318.922	65.02
319.136	-10.75
319.349	-18.94
319.563	1.54
319.776	-31.23
319.99	38.4
320.203	52.74
320.417	44.54
320.63	13.82
320.843	105.98
321.057	69.12
321.27	-0.51
321.483	11.78
321.697	-33.28
321.91	30.21
322.124	-20.99
322.337	5.63
322.55	22.02
322.763	-14.85
322.977	56.83
323.19	40.45
323.403	36.35
323.617	-35.33
323.83	42.5
324.043	60.93
324.256	3.58
324.469	-4.61
324.683	15.87
324.896	15.87
325.109	58.88
325.322	-43.52
325.535	7.68
325.748	19.97
325.962	-4.61
326.175	-4.61
326.388	38.4
326.601	-20.99
326.814	28.16
327.027	-39.42
327.24	-37.38
327.453	13.82
327.666	62.98
327.879	1.54
328.092	19.97
328.305	77.31
328.518	-16.9
328.731	60.93
328.944	11.78
329.157	-53.76
329.37	26.11
329.583	5.63
329.796	22.02
330.009	-2.56
330.222	-4.61
330.435	5.63
330.648	38.4
330.861	-4.61
331.073	62.98
331.286	52.74
331.499	36.35
331.712	-27.14
331.925	-20.99
332.138	-27.14
332.35	-6.66
332.563	-16.9
332.776	-12.8
332.989	32.26
333.202	3.58
333.414	-25.09
333.627	-51.71
333.84	-31.23
334.053	34.3
334.265	17.92
334.478	-82.43
334.691	24.06
334.903	48.64
335.116	-10.75
335.329	-6.66
335.541	32.26
335.754	-16.9
335.966	-0.51
336.179	36.35
336.392	-10.75
336.604	-20.99
336.817	85.5
337.029	-18.94
337.242	-12.8
337.454	-37.38
337.667	85.5
337.88	60.93
338.092	-4.61
338.305	46.59
338.517	22.02
338.729	-18.94
338.942	-2.56
339.154	1.54
339.367	-4.61
339.579	28.16
339.792	-12.8
340.004	-10.75
340.217	15.87
340.429	38.4
340.641	24.06
340.854	22.02
341.066	-18.94
341.278	91.65
341.491	19.97
341.703	60.93
341.915	54.78
342.128	-33.28
342.34	26.11
342.552	50.69
342.764	-25.09
342.977	79.36
343.189	-51.71
343.401	34.3
343.613	-10.75
343.826	30.21
344.038	1.54
344.25	-0.51
344.462	103.93
344.674	15.87
344.886	40.45
345.099	91.65
345.311	1.54
345.523	1.54
345.735	1.54
345.947	60.93
346.159	-29.18
346.371	-31.23
346.583	83.45
346.795	15.87
347.007	-39.42
347.219	-16.9
347.431	44.54
347.643	-8.7
347.855	13.82
348.067	-10.75
348.279	-25.09
348.491	52.74
348.703	58.88
348.915	81.41
349.127	7.68
349.339	-43.52
349.551	38.4
349.763	-29.18
349.975	-43.52
350.187	-66.05
350.399	36.35
350.61	11.78
350.822	32.26
351.034	87.55
351.246	38.4
351.458	-29.18
351.669	-35.33
351.881	5.63
352.093	-29.18
352.305	48.64
352.517	50.69
352.728	77.31
352.94	48.64
353.152	5.63
353.363	-25.09
353.575	44.54
353.787	9.73
353.999	22.02
354.21	40.45
354.422	30.21
354.633	-31.23
354.845	-14.85
355.057	-27.14
355.268	54.78
355.48	11.78
355.692	-10.75
355.903	-27.14
356.115	-0.51
356.326	36.35
356.538	-6.66
356.749	40.45
356.961	9.73
357.172	5.63
357.384	15.87
357.595	40.45
357.807	32.26
358.018	-47.62
358.23	-45.57
358.441	97.79
358.653	-16.9
358.864	17.92
359.075	-35.33
359.287	-2.56
359.498	-37.38
359.709	95.74
359.921	-27.14
360.132	-35.33
360.344	36.35
360.555	15.87
360.766	19.97
360.977	-6.66
361.189	15.87
361.4	24.06
361.611	36.35
361.823	50.69
362.034	24.06
362.245	-12.8
362.456	60.93
362.667	36.35
362.879	-76.29
363.09	77.31
363.301	13.82
363.512	34.3
363.723	32.26
363.935	46.59
364.146	11.78
364.357	22.02
364.568	-29.18
364.779	3.58
364.99	15.87
365.201	-4.61
365.412	54.78
365.623	-0.51
365.834	46.59
366.045	38.4
366.256	-0.51
366.467	56.83
366.678	85.5
366.889	-2.56
367.1	-4.61
367.311	30.21
367.522	60.93
367.733	81.41
367.944	52.74
368.155	19.97
368.366	54.78
368.577	40.45
368.788	-12.8
368.999	-53.76
369.209	69.12
369.42	-43.52
369.631	9.73
369.842	42.5
370.053	54.78
370.264	19.97
370.474	46.59
370.685	28.16
370.896	-45.57
371.107	28.16
371.317	97.79
371.528	-29.18
371.739	73.21
371.95	-6.66
372.16	42.5
372.371	7.68
372.582	50.69
372.792	15.87
373.003	101.89
373.214	-37.38
373.424	60.93
373.635	58.88
373.846	28.16
374.056	26.11
374.267	77.31
374.477	-10.75
374.688	36.35
374.898	-6.66
375.109	15.87
375.319	30.21
375.53	34.3
375.74	30.21
375.951	-57.86
376.161	-8.7
376.372	22.02
376.582	-10.75
376.793	71.17
377.003	-29.18
377.214	67.07
377.424	50.69
377.635	40.45
377.845	-6.66
378.055	24.06
378.266	26.11
378.476	77.31
378.686	71.17
378.897	17.92
379.107	28.16
379.317	77.31
379.528	24.06
379.738	3.58
379.948	-6.66
380.158	24.06
380.369	87.55
380.579	-23.04
380.789	-29.18
380.999	56.83
381.21	-4.61
381.42	77.31
381.63	-4.61
381.84	1.54
382.05	-18.94
382.261	-6.66
382.471	-23.04
382.681	7.68
382.891	71.17
383.101	62.98
383.311	-2.56
383.521	3.58
383.731	40.45
383.941	110.08
384.151	-0.51
384.361	52.74
384.571	26.11
384.781	7.68
384.991	58.88
385.201	108.03
385.411	44.54
385.621	-33.28
385.831	36.35
386.041	-2.56
386.251	-29.18
386.461	42.5
386.671	-29.18
386.881	42.5
387.091	-27.14
387.301	69.12
387.511	34.3
387.72	44.54
387.93	-12.8
388.14	-16.9
388.35	-18.94
388.56	30.21
388.769	17.92
388.979	52.74
389.189	77.31
389.399	-8.7
389.609	22.02
389.818	42.5
390.028	3.58
390.238	73.21
390.447	24.06
390.657	-27.14
390.867	50.69
391.076	-12.8
391.286	65.02
391.496	9.73
391.705	54.78
391.915	17.92
392.125	120.32
392.334	15.87
392.544	1.54
392.753	-10.75
392.963	-29.18
393.172	32.26
393.382	46.59
393.591	105.98
393.801	19.97
394.01	32.26
394.22	-12.8
394.429	128.51
394.639	11.78
394.848	60.93
395.058	71.17
395.267	22.02
395.477	7.68
395.686	77.31
395.895	42.5
396.105	89.6
396.314	22.02
396.524	91.65
396.733	38.4
396.942	60.93
397.152	118.27
397.361	81.41
397.57	62.98
397.78	54.78
397.989	85.5
398.198	30.21
398.407	-18.94
398.617	44.54
398.826	48.64
399.035	50.69
399.244	60.93
399.453	77.31
399.663	56.83
399.872	15.87
400.081	-4.61
400.29	108.03
400.499	71.17
400.708	52.74
400.917	44.54
401.127	40.45
401.336	54.78
401.545	62.98
401.754	116.22
401.963	26.11
402.172	28.16
402.381	77.31
402.59	19.97
402.799	38.4
403.008	-4.61
403.217	65.02
403.426	26.11
403.635	36.35
403.844	62.98
404.053	-16.9
404.262	9.73
404.471	50.69
404.68	101.89
404.888	50.69
405.097	114.17
405.306	48.64
405.515	11.78
405.724	118.27
405.933	36.35
406.142	124.41
406.35	97.79
406.559	116.22
406.768	69.12
406.977	173.57
407.185	77.31
407.394	95.74
407.603	58.88
407.812	151.04
408.02	77.31
408.229	169.47
408.438	101.89
408.646	48.64
408.855	83.45
409.064	95.74
409.272	87.55
409.481	175.61
409.69	114.17
409.898	108.03
410.107	118.27
410.315	142.85
410.524	155.13
410.733	204.28
410.941	112.13
411.15	235
411.358	192
411.567	189.95
411.775	214.52
411.984	208.38
412.192	243.2
412.401	142.85
412.609	220.67
412.818	208.38
413.026	206.33
413.234	257.53
413.443	216.57
413.651	292.35
413.86	278.01
414.068	267.77
414.276	271.87
414.485	329.21
414.693	292.35
414.901	259.58
415.11	306.68
415.318	298.49
415.526	323.07
415.734	376.31
415.943	390.65
416.151	411.13
416.359	374.27
416.567	476.66
416.776	392.7
416.984	437.75
417.192	427.51
417.4	454.14
417.608	351.74
417.817	464.38
418.025	497.14
418.233	538.1
418.441	521.72
418.649	562.68
418.857	577.02
419.065	624.12
419.273	617.97
419.481	708.09
419.689	638.45
419.897	703.99
420.105	747
420.313	742.9
420.521	845.3
420.729	824.82
420.937	847.35
421.145	736.76
421.353	878.07
421.561	839.16
421.769	929.27
421.977	976.37
422.185	929.27
422.393	1013.23
422.601	1064.43
422.809	1037.81
423.017	1064.43
423.224	1066.48
423.432	1248.75
423.64	1125.87
423.848	1195.5
424.056	1189.36
424.263	1342.96
424.471	1285.61
424.679	1377.77
424.887	1471.98
425.094	1459.69
425.302	1451.5
425.51	1576.42
425.718	1633.77
425.925	1619.43
426.133	1684.97
426.341	1697.25
426.548	1836.52
426.756	1820.13
426.964	1885.67
427.171	1897.96
427.379	2053.6
427.586	2035.17
427.794	2145.76
428.001	2174.43
428.209	2305.5
428.417	2219.49
428.624	2418.14
428.832	2450.91
429.039	2393.56
429.247	2282.97
429.454	2518.49
429.662	2817.49
429.869	2678.23
430.076	2815.45
430.284	2731.48
430.491	2792.92
430.699	2923.99
430.906	2977.23
431.114	3036.63
431.321	3249.61
431.528	3263.95
431.736	3386.83
431.943	3556.81
432.15	3444.17
432.358	3612.1
432.565	3798.47
432.772	3790.28
432.979	4007.36
433.187	3984.84
433.394	3917.25
433.601	4230.59
433.808	4140.48
434.016	4183.49
434.223	4384.19
434.43	4672.95
434.637	4578.75
434.844	4869.56
435.052	5008.82
435.259	4875.7
435.466	4947.38
435.673	5168.56
435.88	5385.65
436.087	5506.48
436.294	5649.83
436.501	5359.02
436.708	5676.46
436.915	5823.91
437.122	5862.82
437.329	5950.89
437.537	6057.38
437.743	6401.44
437.95	6176.16
438.157	6630.81
438.364	6813.08
438.571	6778.26
438.778	6921.62
438.985	7503.25
439.192	6991.25
439.399	7388.56
439.606	7185.81
439.813	7501.2
440.02	8123.78
440.227	7892.36
440.433	7763.34
440.64	8134.02
440.847	8148.36
441.054	8392.06
441.261	8834.43
441.467	8785.27
441.674	8895.86
441.881	9135.48
442.088	9370.99
442.294	9098.61
442.501	9262.45
442.708	9655.66
442.914	10022.25
443.121	10442.08
443.328	10114.41
443.534	10784.09
443.741	10501.47
443.948	10384.74
444.154	11328.85
444.361	11079
444.568	10966.36
444.774	11404.63
444.981	11375.95
445.187	11758.92
445.394	12000.58
445.6	11949.39
445.807	13419.83
446.013	12830.01
446.22	12838.2
446.426	13438.26
446.633	13665.58
446.839	14023.98
447.046	13190.45
447.252	14286.12
447.459	14155.05
447.665	14171.43
447.871	14810.4
448.078	15648.02
448.284	14724.38
448.491	15146.26
448.697	15670.54
448.903	15877.39
449.11	16020.75
449.316	15836.43
449.522	16192.78
449.728	16823.55
449.935	16917.76
450.141	16725.25
450.347	16995.58
450.553	16542.98
450.76	16753.92
450.966	17483
451.172	17556.72
451.378	17892.59
451.584	17593.59
451.791	17790.19
451.997	17825.01
452.203	18124.01
452.409	18062.57
452.615	17960.17
452.821	17026.3
453.027	17063.16
453.233	17994.99
453.44	17466.61
453.646	17794.29
453.852	17614.07
454.058	18152.68
454.264	17423.61
454.47	17718.51
454.676	17618.16
454.882	17906.93
455.088	16465.16
455.294	16731.39
455.5	16862.46
455.705	17128.7
455.911	16504.07
456.117	16241.93
456.323	15826.19
456.529	15281.43
456.735	16131.34
456.941	15488.28
457.147	14855.45
457.352	14941.47
457.558	14470.44
457.764	14419.24
457.97	14267.69
458.176	13913.39
458.381	14130.47
458.587	13167.93
458.793	13225.27
458.999	12559.68
459.204	13655.34
459.41	13317.43
459.616	12107.08
459.821	12334.4
460.027	12143.94
460.233	12109.13
460.438	11394.39
460.644	11595.09
460.85	11035.99
461.055	10831.19
461.261	10984.79
461.466	10055.01
461.672	9889.13
461.878	10501.47
462.083	9756.01
462.289	9524.59
462.494	9596.27
462.7	8795.51
462.905	8711.55
463.111	9143.67
463.316	9168.24
463.522	9031.03
463.727	8971.64
463.932	9006.45
464.138	8863.1
464.343	8779.13
464.549	8701.31
464.754	9004.41
464.959	8916.34
465.165	8674.68
465.37	8504.7
465.575	8195.46
465.781	8533.37
465.986	8576.38
466.191	8379.78
466.397	8205.7
466.602	7796.11
466.807	7961.99
467.012	7927.18
467.218	8072.58
467.423	7869.83
467.628	7998.85
467.833	8236.42
468.038	7957.89
468.244	7830.92
468.449	7837.06
