Data from USB4F104151__32__12-58-53-067.txt Node

Date: Fri Mar 14 12:58:53 EDT 2025
User: louis
Spectrometer: USB4F10415
Trigger mode: 4
Integration Time (sec): 1.000000E-2
Scans to average: 1
Electric dark correction enabled: true
Nonlinearity correction enabled: false
Boxcar width: 0
XAxis mode: Wavelengths
Number of Pixels in Spectrum: 3648
>>>>>Begin Spectral Data<<<<<
178.204	-55.81
178.424	-55.81
178.644	-55.81
178.864	-57.86
179.084	24.06
179.304	-74.24
179.524	7.68
179.744	5.63
179.964	28.16
180.184	-92.67
180.404	-12.8
180.624	3.58
180.844	34.3
181.064	-4.61
181.283	65.02
181.503	34.3
181.723	5.63
181.943	-8.7
182.163	46.59
182.383	-23.04
182.602	17.92
182.822	1.54
183.042	30.21
183.262	-10.75
183.482	-23.04
183.701	-8.7
183.921	-0.51
184.141	15.87
184.361	81.41
184.58	-61.95
184.8	-16.9
185.02	-2.56
185.239	11.78
185.459	-64
185.679	-16.9
185.898	-10.75
186.118	-49.66
186.338	32.26
186.557	3.58
186.777	5.63
186.997	48.64
187.216	-8.7
187.436	30.21
187.655	-12.8
187.875	30.21
188.095	5.63
188.314	85.5
188.534	-37.38
188.753	9.73
188.973	-49.66
189.192	-6.66
189.412	-2.56
189.631	32.26
189.851	-18.94
190.07	-25.09
190.29	-70.14
190.509	11.78
190.729	-35.33
190.948	24.06
191.168	48.64
191.387	24.06
191.607	13.82
191.826	69.12
192.045	58.88
192.265	50.69
192.484	40.45
192.704	32.26
192.923	-41.47
193.142	1.54
193.362	32.26
193.581	22.02
193.8	-4.61
194.02	-47.62
194.239	-23.04
194.458	22.02
194.678	-31.23
194.897	19.97
195.116	7.68
195.335	-14.85
195.555	-94.72
195.774	-12.8
195.993	-25.09
196.212	30.21
196.432	40.45
196.651	-25.09
196.87	93.69
197.089	1.54
197.308	7.68
197.528	-25.09
197.747	-61.95
197.966	-57.86
198.185	69.12
198.404	9.73
198.623	-29.18
198.842	-59.9
199.062	5.63
199.281	-49.66
199.5	17.92
199.719	-23.04
199.938	48.64
200.157	-14.85
200.376	36.35
200.595	-72.19
200.814	34.3
201.033	48.64
201.252	-16.9
201.471	-12.8
201.69	77.31
201.909	34.3
202.128	9.73
202.347	-0.51
202.566	24.06
202.785	17.92
203.004	13.82
203.223	34.3
203.442	19.97
203.661	-33.28
203.879	52.74
204.098	30.21
204.317	22.02
204.536	42.5
204.755	-43.52
204.974	13.82
205.193	28.16
205.411	3.58
205.63	89.6
205.849	-72.19
206.068	-29.18
206.287	19.97
206.505	7.68
206.724	1.54
206.943	19.97
207.162	5.63
207.381	-23.04
207.599	-0.51
207.818	19.97
208.037	-43.52
208.255	-55.81
208.474	42.5
208.693	11.78
208.911	24.06
209.13	83.45
209.349	32.26
209.567	15.87
209.786	60.93
210.005	-76.29
210.223	-59.9
210.442	-35.33
210.661	22.02
210.879	9.73
211.098	15.87
211.316	-55.81
211.535	52.74
211.753	-29.18
211.972	-4.61
212.191	-16.9
212.409	-16.9
212.628	-6.66
212.846	13.82
213.065	-4.61
213.283	17.92
213.502	40.45
213.72	22.02
213.938	32.26
214.157	44.54
214.375	-29.18
214.594	-10.75
214.812	-6.66
215.031	3.58
215.249	-4.61
215.467	89.6
215.686	-27.14
215.904	3.58
216.122	7.68
216.341	22.02
216.559	-29.18
216.778	7.68
216.996	-25.09
217.214	-6.66
217.432	-20.99
217.651	38.4
217.869	-16.9
218.087	32.26
218.306	-14.85
218.524	13.82
218.742	-41.47
218.96	-6.66
219.179	-43.52
219.397	-4.61
219.615	-31.23
219.833	-6.66
220.051	-53.76
220.27	19.97
220.488	89.6
220.706	9.73
220.924	-33.28
221.142	-6.66
221.36	24.06
221.578	-16.9
221.796	42.5
222.015	-14.85
222.233	9.73
222.451	-12.8
222.669	-0.51
222.887	15.87
223.105	-8.7
223.323	26.11
223.541	-64
223.759	9.73
223.977	-14.85
224.195	60.93
224.413	3.58
224.631	5.63
224.849	93.69
225.067	7.68
225.285	24.06
225.503	-12.8
225.721	22.02
225.939	7.68
226.157	9.73
226.375	17.92
226.592	-39.42
226.81	-23.04
227.028	-16.9
227.246	17.92
227.464	40.45
227.682	50.69
227.9	-23.04
228.117	32.26
228.335	3.58
228.553	52.74
228.771	5.63
228.989	46.59
229.206	56.83
229.424	-6.66
229.642	-0.51
229.86	-23.04
230.077	-16.9
230.295	7.68
230.513	67.07
230.731	-61.95
230.948	38.4
231.166	71.17
231.384	9.73
231.601	30.21
231.819	34.3
232.037	19.97
232.254	32.26
232.472	-29.18
232.689	1.54
232.907	28.16
233.125	-55.81
233.342	-20.99
233.56	50.69
233.777	36.35
233.995	-41.47
234.213	60.93
234.43	1.54
234.648	44.54
234.865	-2.56
235.083	-68.09
235.3	52.74
235.518	19.97
235.735	34.3
235.953	7.68
236.17	36.35
236.388	50.69
236.605	36.35
236.822	-20.99
237.04	56.83
237.257	34.3
237.475	-47.62
237.692	-2.56
237.909	34.3
238.127	-18.94
238.344	-35.33
238.562	22.02
238.779	83.45
238.996	-14.85
239.214	-27.14
239.431	13.82
239.648	3.58
239.865	11.78
240.083	54.78
240.3	-0.51
240.517	-64
240.735	-39.42
240.952	24.06
241.169	-47.62
241.386	9.73
241.603	52.74
241.821	71.17
242.038	-14.85
242.255	-29.18
242.472	24.06
242.689	58.88
242.907	73.21
243.124	-10.75
243.341	-55.81
243.558	5.63
243.775	62.98
243.992	36.35
244.209	17.92
244.426	73.21
244.643	9.73
244.86	-45.57
245.078	81.41
245.295	71.17
245.512	56.83
245.729	-25.09
245.946	-12.8
246.163	30.21
246.38	11.78
246.597	67.07
246.814	30.21
247.031	-27.14
247.248	19.97
247.464	1.54
247.681	32.26
247.898	-39.42
248.115	-31.23
248.332	-25.09
248.549	44.54
248.766	38.4
248.983	-0.51
249.2	7.68
249.417	9.73
249.633	32.26
249.85	-0.51
250.067	-33.28
250.284	26.11
250.501	67.07
250.717	42.5
250.934	-61.95
251.151	-29.18
251.368	28.16
251.585	-39.42
251.801	-6.66
252.018	-4.61
252.235	3.58
252.451	3.58
252.668	-23.04
252.885	13.82
253.102	-6.66
253.318	36.35
253.535	-29.18
253.752	19.97
253.968	-20.99
254.185	-6.66
254.401	-43.52
254.618	-55.81
254.835	30.21
255.051	32.26
255.268	11.78
255.484	17.92
255.701	26.11
255.917	26.11
256.134	-16.9
256.351	24.06
256.567	-4.61
256.784	-0.51
257	-16.9
257.217	95.74
257.433	1.54
257.65	17.92
257.866	-78.33
258.082	-16.9
258.299	-68.09
258.515	69.12
258.732	-29.18
258.948	-37.38
259.165	40.45
259.381	24.06
259.597	17.92
259.814	-31.23
260.03	-66.05
260.246	-2.56
260.463	-0.51
260.679	7.68
260.895	89.6
261.112	26.11
261.328	38.4
261.544	5.63
261.761	-0.51
261.977	50.69
262.193	-96.77
262.409	34.3
262.626	56.83
262.842	-20.99
263.058	-59.9
263.274	28.16
263.49	52.74
263.707	-27.14
263.923	-6.66
264.139	71.17
264.355	24.06
264.571	15.87
264.787	-18.94
265.004	62.98
265.22	5.63
265.436	32.26
265.652	26.11
265.868	26.11
266.084	-27.14
266.3	22.02
266.516	-39.42
266.732	-14.85
266.948	50.69
267.164	40.45
267.38	17.92
267.596	46.59
267.812	-27.14
268.028	-37.38
268.244	15.87
268.46	9.73
268.676	32.26
268.892	40.45
269.108	44.54
269.324	-14.85
269.54	3.58
269.756	26.11
269.972	36.35
270.188	50.69
270.403	15.87
270.619	-0.51
270.835	-12.8
271.051	40.45
271.267	38.4
271.483	15.87
271.698	-20.99
271.914	-37.38
272.13	-53.76
272.346	-33.28
272.562	-4.61
272.777	-0.51
272.993	54.78
273.209	24.06
273.425	52.74
273.64	-0.51
273.856	-70.14
274.072	-74.24
274.287	1.54
274.503	44.54
274.719	-4.61
274.934	17.92
275.15	-47.62
275.366	-61.95
275.581	-10.75
275.797	77.31
276.012	42.5
276.228	44.54
276.444	-37.38
276.659	67.07
276.875	1.54
277.09	-12.8
277.306	19.97
277.521	65.02
277.737	-6.66
277.952	-8.7
278.168	-0.51
278.383	-16.9
278.599	32.26
278.814	73.21
279.03	77.31
279.245	-2.56
279.461	3.58
279.676	-31.23
279.892	-4.61
280.107	32.26
280.322	71.17
280.538	7.68
280.753	17.92
280.969	60.93
281.184	42.5
281.399	58.88
281.615	46.59
281.83	36.35
282.045	30.21
282.26	9.73
282.476	3.58
282.691	-14.85
282.906	1.54
283.122	71.17
283.337	-8.7
283.552	28.16
283.767	26.11
283.983	17.92
284.198	3.58
284.413	-18.94
284.628	15.87
284.843	71.17
285.058	42.5
285.274	-33.28
285.489	65.02
285.704	28.16
285.919	13.82
286.134	22.02
286.349	46.59
286.564	19.97
286.779	15.87
286.995	-47.62
287.21	7.68
287.425	-39.42
287.64	22.02
287.855	24.06
288.07	-4.61
288.285	54.78
288.5	-57.86
288.715	56.83
288.93	48.64
289.145	-39.42
289.36	50.69
289.575	52.74
289.79	40.45
290.004	-61.95
290.219	-31.23
290.434	-4.61
290.649	22.02
290.864	40.45
291.079	7.68
291.294	36.35
291.509	15.87
291.724	-33.28
291.938	32.26
292.153	34.3
292.368	11.78
292.583	-64
292.798	9.73
293.012	-10.75
293.227	7.68
293.442	56.83
293.657	3.58
293.871	3.58
294.086	11.78
294.301	38.4
294.516	-33.28
294.73	-6.66
294.945	3.58
295.16	24.06
295.374	81.41
295.589	-33.28
295.804	24.06
296.018	-10.75
296.233	87.55
296.447	13.82
296.662	-29.18
296.877	85.5
297.091	22.02
297.306	30.21
297.52	5.63
297.735	62.98
297.949	48.64
298.164	-51.71
298.378	15.87
298.593	52.74
298.807	7.68
299.022	48.64
299.236	30.21
299.451	42.5
299.665	26.11
299.88	-31.23
300.094	60.93
300.309	24.06
300.523	-33.28
300.737	-16.9
300.952	-20.99
301.166	-6.66
301.381	-10.75
301.595	-25.09
301.809	7.68
302.024	-16.9
302.238	34.3
302.452	-12.8
302.667	-29.18
302.881	32.26
303.095	9.73
303.309	7.68
303.524	40.45
303.738	3.58
303.952	-25.09
304.166	42.5
304.381	-2.56
304.595	28.16
304.809	-55.81
305.023	50.69
305.237	5.63
305.452	-0.51
305.666	46.59
305.88	46.59
306.094	15.87
306.308	67.07
306.522	-0.51
306.736	9.73
306.95	40.45
307.164	-55.81
307.379	50.69
307.593	56.83
307.807	48.64
308.021	67.07
308.235	-6.66
308.449	-78.33
308.663	15.87
308.877	46.59
309.091	52.74
309.305	-0.51
309.519	-59.9
309.733	44.54
309.947	22.02
310.161	-18.94
310.374	7.68
310.588	11.78
310.802	-96.77
311.016	50.69
311.23	-6.66
311.444	-0.51
311.658	-100.86
311.872	112.13
312.085	34.3
312.299	83.45
312.513	22.02
312.727	62.98
312.941	83.45
313.154	-8.7
313.368	9.73
313.582	11.78
313.796	-25.09
314.009	17.92
314.223	77.31
314.437	24.06
314.651	3.58
314.864	54.78
315.078	-0.51
315.292	38.4
315.505	81.41
315.719	-55.81
315.933	60.93
316.146	71.17
316.36	32.26
316.573	-23.04
316.787	97.79
317.001	58.88
317.214	-14.85
317.428	-29.18
317.641	9.73
317.855	24.06
318.068	-8.7
318.282	22.02
318.495	-8.7
318.709	15.87
318.922	19.97
319.136	17.92
319.349	85.5
319.563	-29.18
319.776	24.06
319.99	-0.51
320.203	3.58
320.417	42.5
320.63	9.73
320.843	24.06
321.057	-55.81
321.27	75.26
321.483	-25.09
321.697	26.11
321.91	7.68
322.124	97.79
322.337	28.16
322.55	-33.28
322.763	-33.28
322.977	26.11
323.19	-8.7
323.403	-6.66
323.617	28.16
323.83	-16.9
324.043	-18.94
324.256	19.97
324.469	-8.7
324.683	-8.7
324.896	11.78
325.109	7.68
325.322	28.16
325.535	44.54
325.748	-33.28
325.962	19.97
326.175	-33.28
326.388	7.68
326.601	11.78
326.814	5.63
327.027	-16.9
327.24	-8.7
327.453	81.41
327.666	75.26
327.879	42.5
328.092	32.26
328.305	-2.56
328.518	24.06
328.731	15.87
328.944	89.6
329.157	52.74
329.37	79.36
329.583	60.93
329.796	91.65
330.009	-68.09
330.222	-25.09
330.435	22.02
330.648	44.54
330.861	-27.14
331.073	91.65
331.286	40.45
331.499	42.5
331.712	-61.95
331.925	67.07
332.138	15.87
332.35	-27.14
332.563	-23.04
332.776	19.97
332.989	3.58
333.202	1.54
333.414	15.87
333.627	44.54
333.84	-51.71
334.053	46.59
334.265	-23.04
334.478	17.92
334.691	-16.9
334.903	-25.09
335.116	5.63
335.329	54.78
335.541	56.83
335.754	7.68
335.966	11.78
336.179	58.88
336.392	-8.7
336.604	11.78
336.817	15.87
337.029	24.06
337.242	36.35
337.454	28.16
337.667	17.92
337.88	79.36
338.092	71.17
338.305	26.11
338.517	-10.75
338.729	85.5
338.942	9.73
339.154	-2.56
339.367	58.88
339.579	15.87
339.792	22.02
340.004	15.87
340.217	11.78
340.429	5.63
340.641	22.02
340.854	15.87
341.066	38.4
341.278	3.58
341.491	26.11
341.703	9.73
341.915	-53.76
342.128	-27.14
342.34	42.5
342.552	15.87
342.764	54.78
342.977	-16.9
343.189	-25.09
343.401	32.26
343.613	108.03
343.826	36.35
344.038	32.26
344.25	24.06
344.462	40.45
344.674	46.59
344.886	-0.51
345.099	52.74
345.311	60.93
345.523	42.5
345.735	-4.61
345.947	26.11
346.159	13.82
346.371	19.97
346.583	7.68
346.795	-10.75
347.007	-25.09
347.219	83.45
347.431	-20.99
347.643	75.26
347.855	-47.62
348.067	-33.28
348.279	24.06
348.491	-55.81
348.703	67.07
348.915	28.16
349.127	-23.04
349.339	19.97
349.551	7.68
349.763	19.97
349.975	19.97
350.187	112.13
350.399	28.16
350.61	48.64
350.822	77.31
351.034	65.02
351.246	36.35
351.458	101.89
351.669	26.11
351.881	42.5
352.093	48.64
352.305	-4.61
352.517	-23.04
352.728	85.5
352.94	-0.51
353.152	5.63
353.363	28.16
353.575	17.92
353.787	-10.75
353.999	1.54
354.21	-2.56
354.422	67.07
354.633	30.21
354.845	-74.24
355.057	-35.33
355.268	108.03
355.48	24.06
355.692	-20.99
355.903	-8.7
356.115	22.02
356.326	-16.9
356.538	11.78
356.749	13.82
356.961	58.88
357.172	11.78
357.384	-6.66
357.595	-45.57
357.807	36.35
358.018	44.54
358.23	26.11
358.441	65.02
358.653	19.97
358.864	-37.38
359.075	-33.28
359.287	44.54
359.498	1.54
359.709	32.26
359.921	-20.99
360.132	60.93
360.344	24.06
360.555	-29.18
360.766	-39.42
360.977	5.63
361.189	75.26
361.4	22.02
361.611	-4.61
361.823	-23.04
362.034	40.45
362.245	-49.66
362.456	81.41
362.667	17.92
362.879	17.92
363.09	24.06
363.301	24.06
363.512	52.74
363.723	40.45
363.935	-14.85
364.146	110.08
364.357	-31.23
364.568	17.92
364.779	81.41
364.99	9.73
365.201	-37.38
365.412	65.02
365.623	-47.62
365.834	28.16
366.045	-10.75
366.256	5.63
366.467	114.17
366.678	34.3
366.889	42.5
367.1	9.73
367.311	50.69
367.522	-8.7
367.733	-41.47
367.944	26.11
368.155	54.78
368.366	-43.52
368.577	58.88
368.788	1.54
368.999	15.87
369.209	11.78
369.42	9.73
369.631	19.97
369.842	-0.51
370.053	48.64
370.264	46.59
370.474	-10.75
370.685	-68.09
370.896	40.45
371.107	7.68
371.317	28.16
371.528	40.45
371.739	44.54
371.95	34.3
372.16	50.69
372.371	50.69
372.582	79.36
372.792	58.88
373.003	17.92
373.214	34.3
373.424	34.3
373.635	-41.47
373.846	24.06
374.056	40.45
374.267	-12.8
374.477	34.3
374.688	32.26
374.898	7.68
375.109	-23.04
375.319	-6.66
375.53	17.92
375.74	46.59
375.951	-10.75
376.161	11.78
376.372	65.02
376.582	-25.09
376.793	38.4
377.003	15.87
377.214	-29.18
377.424	-43.52
377.635	46.59
377.845	15.87
378.055	22.02
378.266	3.58
378.476	22.02
378.686	46.59
378.897	7.68
379.107	42.5
379.317	83.45
379.528	24.06
379.738	32.26
379.948	28.16
380.158	15.87
380.369	38.4
380.579	22.02
380.789	-10.75
380.999	50.69
381.21	-33.28
381.42	81.41
381.63	118.27
381.84	46.59
382.05	-23.04
382.261	75.26
382.471	15.87
382.681	60.93
382.891	13.82
383.101	87.55
383.311	-37.38
383.521	62.98
383.731	7.68
383.941	36.35
384.151	3.58
384.361	3.58
384.571	-43.52
384.781	151.04
384.991	11.78
385.201	58.88
385.411	38.4
385.621	56.83
385.831	22.02
386.041	-8.7
386.251	54.78
386.461	17.92
386.671	38.4
386.881	60.93
387.091	28.16
387.301	46.59
387.511	19.97
387.72	1.54
387.93	-4.61
388.14	9.73
388.35	34.3
388.56	32.26
388.769	81.41
388.979	22.02
389.189	15.87
389.399	32.26
389.609	-2.56
389.818	1.54
390.028	-33.28
390.238	7.68
390.447	81.41
390.657	36.35
390.867	-14.85
391.076	60.93
391.286	40.45
391.496	69.12
391.705	-2.56
391.915	-0.51
392.125	-35.33
392.334	65.02
392.544	24.06
392.753	32.26
392.963	15.87
393.172	50.69
393.382	30.21
393.591	108.03
393.801	32.26
394.01	58.88
394.22	-27.14
394.429	56.83
394.639	75.26
394.848	28.16
395.058	15.87
395.267	-6.66
395.477	-14.85
395.686	32.26
395.895	105.98
396.105	36.35
396.314	71.17
396.524	71.17
396.733	24.06
396.942	34.3
397.152	44.54
397.361	48.64
397.57	48.64
397.78	89.6
397.989	-12.8
398.198	1.54
398.407	28.16
398.617	99.84
398.826	73.21
399.035	65.02
399.244	32.26
399.453	65.02
399.663	91.65
399.872	83.45
400.081	44.54
400.29	83.45
400.499	42.5
400.708	30.21
400.917	69.12
401.127	124.41
401.336	62.98
401.545	46.59
401.754	26.11
401.963	28.16
402.172	65.02
402.381	67.07
402.59	65.02
402.799	28.16
403.008	71.17
403.217	42.5
403.426	44.54
403.635	81.41
403.844	60.93
404.053	67.07
404.262	67.07
404.471	60.93
404.68	89.6
404.888	58.88
405.097	52.74
405.306	32.26
405.515	105.98
405.724	75.26
405.933	110.08
406.142	93.69
406.35	85.5
406.559	60.93
406.768	124.41
406.977	108.03
407.185	65.02
407.394	97.79
407.603	146.94
407.812	83.45
408.02	97.79
408.229	185.85
408.438	140.8
408.646	155.13
408.855	44.54
409.064	161.28
409.272	85.5
409.481	173.57
409.69	52.74
409.898	169.47
410.107	155.13
410.315	177.66
410.524	167.42
410.733	138.75
410.941	134.65
411.15	275.96
411.358	103.93
411.567	161.28
411.775	218.62
411.984	321.02
412.192	177.66
412.401	212.48
412.609	253.44
412.818	235
413.026	245.24
413.234	226.81
413.443	224.76
413.651	153.09
413.86	325.12
414.068	261.63
414.276	302.59
414.485	296.44
414.693	370.17
414.901	429.56
415.11	341.5
415.318	433.66
415.526	388.6
415.734	267.77
415.943	392.7
416.151	343.55
416.359	427.51
416.567	460.28
416.776	433.66
416.984	509.43
417.192	513.53
417.4	534.01
417.608	513.53
417.817	501.24
418.025	456.19
418.233	546.3
418.441	515.58
418.649	544.25
418.857	691.7
419.065	613.88
419.273	656.89
419.481	679.41
419.689	740.85
419.897	783.86
420.105	773.62
420.313	853.49
420.521	779.76
420.729	888.31
420.937	927.22
421.145	964.08
421.353	902.64
421.561	966.13
421.769	937.46
421.977	1050.1
422.185	994.8
422.393	1078.77
422.601	1142.25
422.809	1220.08
423.017	1224.17
423.224	1244.65
423.432	1277.42
423.64	1293.8
423.848	1390.06
424.056	1437.16
424.263	1525.22
424.471	1394.15
424.679	1484.27
424.887	1648.1
425.094	1758.69
425.302	1592.81
425.51	1560.04
425.718	1719.78
425.925	1699.3
426.133	1752.55
426.341	1891.81
426.548	2016.74
426.756	1922.53
426.964	1969.63
427.171	2067.94
427.379	2158.05
427.586	2196.96
427.794	2260.45
428.001	2338.27
428.209	2549.21
428.417	2442.71
428.624	2598.36
428.832	2616.79
429.039	2622.94
429.247	2600.41
429.454	3010
429.662	3038.67
429.869	2776.53
430.076	3032.53
430.284	2897.36
430.491	3124.69
430.699	3329.49
430.906	3231.18
431.114	3315.15
431.321	3458.51
431.528	3540.43
431.736	3696.07
431.943	3976.64
432.15	3732.94
432.358	3814.85
432.565	3945.92
432.772	3947.97
432.979	4214.21
433.187	4345.28
433.394	4167.1
433.601	4660.66
433.808	4683.19
434.016	4586.94
434.223	4859.32
434.43	5115.31
434.637	4976.05
434.844	5299.63
435.052	5334.45
435.259	5287.34
435.466	5395.89
435.673	5393.84
435.88	5785
436.087	6116.77
436.294	6020.52
436.501	5983.65
436.708	5875.11
436.915	6149.54
437.122	6518.17
437.329	6585.76
437.537	6606.24
437.743	6811.03
437.95	6782.36
438.157	7110.04
438.364	7374.22
438.571	7234.96
438.778	7447.95
438.985	8056.2
439.192	7775.63
439.399	7916.94
439.606	7972.23
439.813	8162.69
440.02	8707.45
440.227	8639.87
440.433	8547.71
440.64	8803.71
440.847	8590.72
441.054	9059.7
441.261	9422.19
441.467	9364.85
441.674	9764.2
441.881	9977.19
442.088	9846.12
442.294	10052.97
442.501	10050.92
442.708	10519.9
442.914	10839.39
443.121	11300.18
443.328	10952.02
443.534	11808.08
443.741	11507.02
443.948	11537.74
444.154	11961.67
444.361	12121.42
444.568	12125.51
444.774	12141.89
444.981	12227.91
445.187	12582.21
445.394	13278.52
445.6	12981.56
445.807	13989.16
446.013	13950.25
446.22	13909.29
446.426	14384.42
446.633	14839.07
446.839	15111.45
447.046	14462.24
447.252	15322.39
447.459	15379.73
447.665	15056.15
447.871	16082.19
448.078	16903.42
448.284	15850.77
448.491	16676.1
448.697	16805.12
448.903	17456.37
449.11	17399.03
449.316	17161.47
449.522	17517.81
449.728	18107.63
449.935	17960.17
450.141	18128.11
450.347	18662.63
450.553	17966.32
450.76	17943.79
450.966	18767.07
451.172	18531.56
451.378	19152.09
451.584	18590.95
451.791	19256.54
451.997	19213.53
452.203	19539.16
452.409	19621.08
452.615	19184.86
452.821	18562.28
453.027	18326.76
453.233	19719.38
453.44	18855.14
453.646	19125.47
453.852	19139.8
454.058	19393.75
454.264	18801.89
454.47	19229.91
454.676	18781.41
454.882	19678.42
455.088	17931.5
455.294	18320.62
455.5	18158.83
455.705	18431.21
455.911	17792.24
456.117	17474.81
456.323	17026.3
456.529	16354.57
456.735	16950.53
456.941	16622.85
457.147	16432.39
457.352	15725.84
457.558	15672.59
457.764	15719.7
457.97	15392.02
458.176	15267.1
458.381	14988.57
458.587	14146.86
458.793	14288.17
458.999	13503.79
459.204	14644.51
459.41	13968.68
459.616	13124.92
459.821	13401.4
460.027	13149.5
460.233	12571.97
460.438	12264.77
460.644	12447.04
460.85	11713.87
461.055	11846.99
461.261	11738.44
461.466	10874.2
461.672	10487.14
461.878	11269.46
462.083	10605.92
462.289	10296.67
462.494	10167.65
462.7	9581.93
462.905	9518.45
463.111	9889.13
463.316	9872.75
463.522	9678.19
463.727	9581.93
463.932	9553.26
464.138	9512.3
464.343	9565.55
464.549	9309.55
464.754	9772.39
464.959	9377.14
465.165	9444.72
465.37	9074.04
465.575	8660.35
465.781	9246.07
465.986	9295.22
466.191	8824.19
466.397	8824.19
466.602	8347.01
466.807	8621.44
467.012	8596.86
467.218	8494.46
467.423	8566.14
467.628	8461.69
467.833	8820.09
468.038	8539.52
468.244	8433.02
468.449	8615.29
468.654	8412.54
468.859	8410.5
469.064	8263.04
469.269	7994.76
