Data from USB4F104151__36__12-58-57-807.txt Node

Date: Fri Mar 14 12:58:57 EDT 2025
User: louis
Spectrometer: USB4F10415
Trigger mode: 4
Integration Time (sec): 1.000000E-2
Scans to average: 1
Electric dark correction enabled: true
Nonlinearity correction enabled: false
Boxcar width: 0
XAxis mode: Wavelengths
Number of Pixels in Spectrum: 3648
>>>>>Begin Spectral Data<<<<<
178.204	-82.43
178.424	-82.43
178.644	-82.43
178.864	-74.24
179.084	71.17
179.304	-25.09
179.524	-4.61
179.744	-61.95
179.964	50.69
180.184	-25.09
180.404	52.74
180.624	-10.75
180.844	73.21
181.064	-55.81
181.283	30.21
181.503	-61.95
181.723	38.4
181.943	-10.75
182.163	19.97
182.383	1.54
182.602	69.12
182.822	58.88
183.042	58.88
183.262	103.93
183.482	-12.8
183.701	38.4
183.921	62.98
184.141	24.06
184.361	34.3
184.58	-43.52
184.8	9.73
185.02	-61.95
185.239	17.92
185.459	-43.52
185.679	34.3
185.898	-8.7
186.118	60.93
186.338	7.68
186.557	46.59
186.777	26.11
186.997	83.45
187.216	30.21
187.436	36.35
187.655	44.54
187.875	24.06
188.095	42.5
188.314	58.88
188.534	91.65
188.753	5.63
188.973	110.08
189.192	38.4
189.412	7.68
189.631	5.63
189.851	17.92
190.07	81.41
190.29	-2.56
190.509	79.36
190.729	-4.61
190.948	22.02
191.168	99.84
191.387	73.21
191.607	-16.9
191.826	-2.56
192.045	3.58
192.265	28.16
192.484	71.17
192.704	-14.85
192.923	-10.75
193.142	3.58
193.362	-23.04
193.581	101.89
193.8	1.54
194.02	60.93
194.239	48.64
194.458	-14.85
194.678	36.35
194.897	5.63
195.116	44.54
195.335	11.78
195.555	83.45
195.774	67.07
195.993	11.78
196.212	-41.47
196.432	50.69
196.651	1.54
196.87	-2.56
197.089	83.45
197.308	32.26
197.528	34.3
197.747	-14.85
197.966	67.07
198.185	15.87
198.404	-2.56
198.623	58.88
198.842	22.02
199.062	56.83
199.281	60.93
199.5	71.17
199.719	128.51
199.938	40.45
200.157	7.68
200.376	124.41
200.595	91.65
200.814	26.11
201.033	28.16
201.252	34.3
201.471	34.3
201.69	136.7
201.909	97.79
202.128	42.5
202.347	-23.04
202.566	-37.38
202.785	44.54
203.004	52.74
203.223	85.5
203.442	50.69
203.661	13.82
203.879	99.84
204.098	93.69
204.317	-12.8
204.536	93.69
204.755	22.02
204.974	19.97
205.193	22.02
205.411	87.55
205.63	42.5
205.849	19.97
206.068	32.26
206.287	-14.85
206.505	28.16
206.724	118.27
206.943	87.55
207.162	52.74
207.381	24.06
207.599	-4.61
207.818	17.92
208.037	28.16
208.255	130.56
208.474	44.54
208.693	62.98
208.911	15.87
209.13	-33.28
209.349	46.59
209.567	42.5
209.786	140.8
210.005	89.6
210.223	19.97
210.442	42.5
210.661	52.74
210.879	46.59
211.098	9.73
211.316	93.69
211.535	42.5
211.753	69.12
211.972	-16.9
212.191	38.4
212.409	19.97
212.628	56.83
212.846	67.07
213.065	75.26
213.283	15.87
213.502	-4.61
213.72	85.5
213.938	-4.61
214.157	-14.85
214.375	93.69
214.594	-31.23
214.812	54.78
215.031	36.35
215.249	77.31
215.467	34.3
215.686	95.74
215.904	36.35
216.122	36.35
216.341	60.93
216.559	7.68
216.778	114.17
216.996	110.08
217.214	71.17
217.432	15.87
217.651	-6.66
217.869	-14.85
218.087	-6.66
218.306	-20.99
218.524	93.69
218.742	32.26
218.96	-2.56
219.179	67.07
219.397	75.26
219.615	17.92
219.833	36.35
220.051	5.63
220.27	11.78
220.488	-2.56
220.706	13.82
220.924	-23.04
221.142	-14.85
221.36	32.26
221.578	3.58
221.796	9.73
222.015	60.93
222.233	11.78
222.451	40.45
222.669	69.12
222.887	60.93
223.105	1.54
223.323	24.06
223.541	-2.56
223.759	95.74
223.977	36.35
224.195	75.26
224.413	11.78
224.631	83.45
224.849	75.26
225.067	36.35
225.285	22.02
225.503	-10.75
225.721	52.74
225.939	50.69
226.157	28.16
226.375	52.74
226.592	-41.47
226.81	42.5
227.028	112.13
227.246	5.63
227.464	73.21
227.682	5.63
227.9	7.68
228.117	38.4
228.335	50.69
228.553	69.12
228.771	26.11
228.989	71.17
229.206	15.87
229.424	75.26
229.642	11.78
229.86	-12.8
230.077	9.73
230.295	60.93
230.513	46.59
230.731	42.5
230.948	-35.33
231.166	71.17
231.384	62.98
231.601	38.4
231.819	44.54
232.037	-6.66
232.254	34.3
232.472	67.07
232.689	50.69
232.907	56.83
233.125	22.02
233.342	69.12
233.56	-16.9
233.777	65.02
233.995	65.02
234.213	120.32
234.43	52.74
234.648	24.06
234.865	58.88
235.083	-31.23
235.3	19.97
235.518	-0.51
235.735	54.78
235.953	73.21
236.17	52.74
236.388	44.54
236.605	69.12
236.822	34.3
237.04	13.82
237.257	69.12
237.475	28.16
237.692	67.07
237.909	1.54
238.127	116.22
238.344	54.78
238.562	36.35
238.779	58.88
238.996	42.5
239.214	44.54
239.431	58.88
239.648	-18.94
239.865	30.21
240.083	-33.28
240.3	9.73
240.517	-64
240.735	-6.66
240.952	105.98
241.169	58.88
241.386	1.54
241.603	44.54
241.821	-23.04
242.038	44.54
242.255	42.5
242.472	69.12
242.689	62.98
242.907	1.54
243.124	22.02
243.341	93.69
243.558	26.11
243.775	58.88
243.992	-2.56
244.209	97.79
244.426	42.5
244.643	44.54
244.86	34.3
245.078	1.54
245.295	-18.94
245.512	62.98
245.729	1.54
245.946	46.59
246.163	15.87
246.38	120.32
246.597	89.6
246.814	65.02
247.031	30.21
247.248	24.06
247.464	34.3
247.681	50.69
247.898	60.93
248.115	38.4
248.332	11.78
248.549	26.11
248.766	54.78
248.983	30.21
249.2	50.69
249.417	46.59
249.633	28.16
249.85	52.74
250.067	22.02
250.284	50.69
250.501	105.98
250.717	44.54
250.934	-8.7
251.151	83.45
251.368	24.06
251.585	48.64
251.801	28.16
252.018	28.16
252.235	36.35
252.451	126.46
252.668	3.58
252.885	-29.18
253.102	56.83
253.318	91.65
253.535	60.93
253.752	50.69
253.968	5.63
254.185	-8.7
254.401	110.08
254.618	60.93
254.835	11.78
255.051	54.78
255.268	-18.94
255.484	13.82
255.701	69.12
255.917	99.84
256.134	56.83
256.351	-27.14
256.567	28.16
256.784	46.59
257	13.82
257.217	120.32
257.433	-12.8
257.65	-27.14
257.866	9.73
258.082	1.54
258.299	69.12
258.515	62.98
258.732	58.88
258.948	1.54
259.165	-14.85
259.381	34.3
259.597	9.73
259.814	67.07
260.03	15.87
260.246	32.26
260.463	36.35
260.679	62.98
260.895	56.83
261.112	95.74
261.328	38.4
261.544	65.02
261.761	67.07
261.977	34.3
262.193	40.45
262.409	30.21
262.626	26.11
262.842	95.74
263.058	56.83
263.274	34.3
263.49	-33.28
263.707	1.54
263.923	15.87
264.139	44.54
264.355	85.5
264.571	34.3
264.787	26.11
265.004	60.93
265.22	38.4
265.436	-29.18
265.652	34.3
265.868	-10.75
266.084	48.64
266.3	58.88
266.516	32.26
266.732	-8.7
266.948	19.97
267.164	3.58
267.38	69.12
267.596	83.45
267.812	79.36
268.028	87.55
268.244	93.69
268.46	48.64
268.676	32.26
268.892	122.37
269.108	30.21
269.324	-4.61
269.54	79.36
269.756	44.54
269.972	-18.94
270.188	77.31
270.403	50.69
270.619	48.64
270.835	50.69
271.051	-6.66
271.267	3.58
271.483	95.74
271.698	79.36
271.914	-0.51
272.13	7.68
272.346	89.6
272.562	7.68
272.777	65.02
272.993	75.26
273.209	1.54
273.425	-18.94
273.64	44.54
273.856	71.17
274.072	40.45
274.287	32.26
274.503	89.6
274.719	93.69
274.934	67.07
275.15	-10.75
275.366	122.37
275.581	42.5
275.797	40.45
276.012	54.78
276.228	24.06
276.444	60.93
276.659	-2.56
276.875	24.06
277.09	58.88
277.306	-20.99
277.521	97.79
277.737	-64
277.952	-41.47
278.168	40.45
278.383	34.3
278.599	75.26
278.814	-29.18
279.03	9.73
279.245	19.97
279.461	67.07
279.676	56.83
279.892	71.17
280.107	75.26
280.322	5.63
280.538	15.87
280.753	32.26
280.969	97.79
281.184	-10.75
281.399	40.45
281.615	7.68
281.83	38.4
282.045	-31.23
282.26	-0.51
282.476	108.03
282.691	17.92
282.906	17.92
283.122	42.5
283.337	65.02
283.552	60.93
283.767	87.55
283.983	56.83
284.198	99.84
284.413	5.63
284.628	56.83
284.843	26.11
285.058	58.88
285.274	-4.61
285.489	3.58
285.704	56.83
285.919	-2.56
286.134	46.59
286.349	-59.9
286.564	-41.47
286.779	69.12
286.995	75.26
287.21	32.26
287.425	77.31
287.64	-10.75
287.855	48.64
288.07	93.69
288.285	26.11
288.5	30.21
288.715	26.11
288.93	1.54
289.145	40.45
289.36	-39.42
289.575	22.02
289.79	52.74
290.004	91.65
290.219	67.07
290.434	34.3
290.649	54.78
290.864	75.26
291.079	-18.94
291.294	-14.85
291.509	36.35
291.724	65.02
291.938	50.69
292.153	-4.61
292.368	-37.38
292.583	101.89
292.798	-4.61
293.012	91.65
293.227	-16.9
293.442	60.93
293.657	32.26
293.871	-16.9
294.086	-25.09
294.301	44.54
294.516	77.31
294.73	77.31
294.945	-29.18
295.16	28.16
295.374	48.64
295.589	-8.7
295.804	-51.71
296.018	38.4
296.233	85.5
296.447	60.93
296.662	83.45
296.877	42.5
297.091	17.92
297.306	58.88
297.52	58.88
297.735	87.55
297.949	44.54
298.164	67.07
298.378	81.41
298.593	50.69
298.807	48.64
299.022	56.83
299.236	38.4
299.451	-8.7
299.665	93.69
299.88	15.87
300.094	-35.33
300.309	122.37
300.523	42.5
300.737	79.36
300.952	-64
301.166	34.3
301.381	34.3
301.595	9.73
301.809	26.11
302.024	60.93
302.238	38.4
302.452	77.31
302.667	-25.09
302.881	124.41
303.095	95.74
303.309	48.64
303.524	28.16
303.738	-10.75
303.952	58.88
304.166	83.45
304.381	11.78
304.595	-2.56
304.809	38.4
305.023	22.02
305.237	34.3
305.452	67.07
305.666	60.93
305.88	46.59
306.094	42.5
306.308	17.92
306.522	122.37
306.736	30.21
306.95	22.02
307.164	62.98
307.379	15.87
307.593	116.22
307.807	77.31
308.021	108.03
308.235	26.11
308.449	-43.52
308.663	7.68
308.877	108.03
309.091	30.21
309.305	50.69
309.519	-20.99
309.733	38.4
309.947	65.02
310.161	89.6
310.374	22.02
310.588	79.36
310.802	93.69
311.016	-0.51
311.23	7.68
311.444	56.83
311.658	85.5
311.872	73.21
312.085	36.35
312.299	26.11
312.513	54.78
312.727	114.17
312.941	19.97
313.154	-37.38
313.368	38.4
313.582	83.45
313.796	28.16
314.009	46.59
314.223	75.26
314.437	58.88
314.651	34.3
314.864	44.54
315.078	-10.75
315.292	15.87
315.505	17.92
315.719	36.35
315.933	44.54
316.146	3.58
316.36	32.26
316.573	-6.66
316.787	3.58
317.001	40.45
317.214	-6.66
317.428	42.5
317.641	120.32
317.855	60.93
318.068	79.36
318.282	-23.04
318.495	85.5
318.709	19.97
318.922	13.82
319.136	124.41
319.349	128.51
319.563	36.35
319.776	-37.38
319.99	5.63
320.203	40.45
320.417	5.63
320.63	19.97
320.843	67.07
321.057	52.74
321.27	17.92
321.483	24.06
321.697	-6.66
321.91	24.06
322.124	56.83
322.337	-14.85
322.55	7.68
322.763	40.45
322.977	-12.8
323.19	19.97
323.403	85.5
323.617	36.35
323.83	19.97
324.043	19.97
324.256	116.22
324.469	36.35
324.683	26.11
324.896	24.06
325.109	30.21
325.322	-45.57
325.535	67.07
325.748	40.45
325.962	108.03
326.175	34.3
326.388	62.98
326.601	48.64
326.814	50.69
327.027	71.17
327.24	97.79
327.453	40.45
327.666	75.26
327.879	60.93
328.092	62.98
328.305	32.26
328.518	22.02
328.731	79.36
328.944	128.51
329.157	-0.51
329.37	36.35
329.583	91.65
329.796	-14.85
330.009	9.73
330.222	-0.51
330.435	-10.75
330.648	101.89
330.861	26.11
331.073	-2.56
331.286	46.59
331.499	120.32
331.712	40.45
331.925	81.41
332.138	9.73
332.35	83.45
332.563	65.02
332.776	62.98
332.989	7.68
333.202	50.69
333.414	22.02
333.627	69.12
333.84	13.82
334.053	89.6
334.265	60.93
334.478	69.12
334.691	71.17
334.903	85.5
335.116	58.88
335.329	28.16
335.541	-6.66
335.754	9.73
335.966	44.54
336.179	-53.76
336.392	34.3
336.604	24.06
336.817	36.35
337.029	34.3
337.242	26.11
337.454	44.54
337.667	24.06
337.88	93.69
338.092	-4.61
338.305	69.12
338.517	67.07
338.729	71.17
338.942	122.37
339.154	65.02
339.367	79.36
339.579	50.69
339.792	52.74
340.004	40.45
340.217	-16.9
340.429	32.26
340.641	5.63
340.854	38.4
341.066	-29.18
341.278	153.09
341.491	56.83
341.703	34.3
341.915	34.3
342.128	42.5
342.34	60.93
342.552	67.07
342.764	5.63
342.977	103.93
343.189	22.02
343.401	-4.61
343.613	40.45
343.826	77.31
344.038	60.93
344.25	108.03
344.462	54.78
344.674	50.69
344.886	52.74
345.099	-31.23
345.311	32.26
345.523	34.3
345.735	32.26
345.947	103.93
346.159	50.69
346.371	103.93
346.583	-23.04
346.795	108.03
347.007	62.98
347.219	81.41
347.431	89.6
347.643	71.17
347.855	77.31
348.067	-4.61
348.279	5.63
348.491	48.64
348.703	38.4
348.915	140.8
349.127	42.5
349.339	83.45
349.551	93.69
349.763	91.65
349.975	46.59
350.187	22.02
350.399	93.69
350.61	36.35
350.822	13.82
351.034	58.88
351.246	-4.61
351.458	60.93
351.669	38.4
351.881	26.11
352.093	97.79
352.305	50.69
352.517	116.22
352.728	120.32
352.94	46.59
353.152	-10.75
353.363	24.06
353.575	81.41
353.787	38.4
353.999	24.06
354.21	60.93
354.422	40.45
354.633	-6.66
354.845	99.84
355.057	65.02
355.268	28.16
355.48	5.63
355.692	60.93
355.903	65.02
356.115	83.45
356.326	67.07
356.538	48.64
356.749	34.3
356.961	120.32
357.172	22.02
357.384	34.3
357.595	52.74
357.807	11.78
358.018	-18.94
358.23	40.45
358.441	42.5
358.653	32.26
358.864	81.41
359.075	42.5
359.287	40.45
359.498	-6.66
359.709	56.83
359.921	46.59
360.132	44.54
360.344	46.59
360.555	-41.47
360.766	132.61
360.977	56.83
361.189	32.26
361.4	46.59
361.611	54.78
361.823	9.73
362.034	85.5
362.245	-35.33
362.456	40.45
362.667	65.02
362.879	54.78
363.09	93.69
363.301	126.46
363.512	26.11
363.723	17.92
363.935	15.87
364.146	38.4
364.357	-12.8
364.568	77.31
364.779	15.87
364.99	50.69
365.201	38.4
365.412	105.98
365.623	-31.23
365.834	69.12
366.045	26.11
366.256	28.16
366.467	34.3
366.678	89.6
366.889	36.35
367.1	87.55
367.311	89.6
367.522	52.74
367.733	79.36
367.944	54.78
368.155	-8.7
368.366	52.74
368.577	124.41
368.788	79.36
368.999	30.21
369.209	58.88
369.42	38.4
369.631	81.41
369.842	69.12
370.053	30.21
370.264	28.16
370.474	28.16
370.685	91.65
370.896	38.4
371.107	67.07
371.317	85.5
371.528	46.59
371.739	130.56
371.95	38.4
372.16	9.73
372.371	65.02
372.582	38.4
372.792	-18.94
373.003	67.07
373.214	-33.28
373.424	75.26
373.635	54.78
373.846	151.04
374.056	36.35
374.267	30.21
374.477	15.87
374.688	-4.61
374.898	128.51
375.109	40.45
375.319	44.54
375.53	73.21
375.74	19.97
375.951	40.45
376.161	38.4
376.372	26.11
376.582	87.55
376.793	132.61
377.003	13.82
377.214	44.54
377.424	32.26
377.635	26.11
377.845	79.36
378.055	19.97
378.266	83.45
378.476	3.58
378.686	22.02
378.897	89.6
379.107	85.5
379.317	56.83
379.528	73.21
379.738	-12.8
379.948	58.88
380.158	-6.66
380.369	105.98
380.579	81.41
380.789	24.06
380.999	87.55
381.21	48.64
381.42	-59.9
381.63	75.26
381.84	-31.23
382.05	132.61
382.261	67.07
382.471	65.02
382.681	75.26
382.891	46.59
383.101	-4.61
383.311	69.12
383.521	46.59
383.731	-29.18
383.941	15.87
384.151	-18.94
384.361	97.79
384.571	28.16
384.781	26.11
384.991	83.45
385.201	110.08
385.411	5.63
385.621	69.12
385.831	24.06
386.041	30.21
386.251	69.12
386.461	65.02
386.671	-20.99
386.881	85.5
387.091	58.88
387.301	58.88
387.511	81.41
387.72	71.17
387.93	38.4
388.14	60.93
388.35	60.93
388.56	75.26
388.769	58.88
388.979	112.13
389.189	-2.56
389.399	69.12
389.609	38.4
389.818	65.02
390.028	54.78
390.238	44.54
390.447	97.79
390.657	62.98
390.867	1.54
391.076	58.88
391.286	17.92
391.496	93.69
391.705	44.54
391.915	169.47
392.125	87.55
392.334	112.13
392.544	32.26
392.753	48.64
392.963	60.93
393.172	75.26
393.382	26.11
393.591	85.5
393.801	91.65
394.01	69.12
394.22	52.74
394.429	146.94
394.639	19.97
394.848	65.02
395.058	60.93
395.267	67.07
395.477	126.46
395.686	67.07
395.895	85.5
396.105	56.83
396.314	60.93
396.524	34.3
396.733	67.07
396.942	81.41
397.152	-4.61
397.361	26.11
397.57	73.21
397.78	22.02
397.989	71.17
398.198	167.42
398.407	46.59
398.617	67.07
398.826	75.26
399.035	40.45
399.244	67.07
399.453	140.8
399.663	44.54
399.872	118.27
400.081	67.07
400.29	75.26
400.499	56.83
400.708	103.93
400.917	77.31
401.127	110.08
401.336	22.02
401.545	161.28
401.754	144.89
401.963	75.26
402.172	97.79
402.381	93.69
402.59	75.26
402.799	73.21
403.008	32.26
403.217	71.17
403.426	112.13
403.635	42.5
403.844	103.93
404.053	112.13
404.262	62.98
404.471	13.82
404.68	136.7
404.888	87.55
405.097	146.94
405.306	112.13
405.515	91.65
405.724	122.37
405.933	136.7
406.142	155.13
406.35	56.83
406.559	151.04
406.768	83.45
406.977	157.18
407.185	114.17
407.394	157.18
407.603	146.94
407.812	218.62
408.02	216.57
408.229	146.94
408.438	114.17
408.646	99.84
408.855	177.66
409.064	226.81
409.272	163.33
409.481	132.61
409.69	146.94
409.898	228.86
410.107	220.67
410.315	114.17
410.524	224.76
410.733	230.91
410.941	200.19
411.15	259.58
411.358	275.96
411.567	196.09
411.775	261.63
411.984	294.4
412.192	286.2
412.401	245.24
412.609	241.15
412.818	265.72
413.026	331.26
413.234	249.34
413.443	255.48
413.651	226.81
413.86	302.59
414.068	439.8
414.276	302.59
414.485	388.6
414.693	337.4
414.901	353.79
415.11	370.17
415.318	349.69
415.526	427.51
415.734	447.99
415.943	347.64
416.151	464.38
416.359	529.91
416.567	478.71
416.776	486.9
416.984	437.75
417.192	525.82
417.4	525.82
417.608	581.11
417.817	486.9
418.025	513.53
418.233	591.35
418.441	642.55
418.649	687.61
418.857	712.18
419.065	599.54
419.273	671.22
419.481	716.28
419.689	826.87
419.897	808.44
420.105	757.24
420.313	769.52
420.521	845.3
420.729	943.6
420.937	953.84
421.145	914.93
421.353	968.18
421.561	1060.34
421.769	1052.14
421.977	1033.71
422.185	1046
422.393	1168.88
422.601	1347.05
422.809	1265.13
423.017	1291.76
423.224	1402.35
423.432	1314.28
423.64	1359.34
423.848	1379.82
424.056	1459.69
424.263	1517.03
424.471	1623.53
424.679	1459.69
424.887	1566.18
425.094	1672.68
425.302	1740.26
425.51	1756.65
425.718	1738.21
425.925	1779.17
426.133	1869.28
426.341	1979.87
426.548	2055.65
426.756	2008.55
426.964	2010.59
427.171	2158.05
427.379	2235.87
427.586	2293.21
427.794	2246.11
428.001	2483.67
428.209	2565.59
428.417	2520.54
428.624	2659.8
428.832	2792.92
429.039	2596.31
429.247	2758.1
429.454	2971.09
429.662	3235.28
429.869	2840.02
430.076	3098.06
430.284	3069.39
430.491	3225.04
430.699	3372.49
430.906	3378.64
431.114	3497.42
431.321	3579.34
431.528	3616.2
431.736	3775.94
431.943	3978.69
432.15	3864.01
432.358	3892.68
432.565	4083.14
432.772	4058.56
432.979	4441.53
433.187	4550.07
433.394	4472.25
433.601	4588.99
433.808	4769.21
434.016	4718.01
434.223	5119.41
434.43	5123.51
434.637	5113.27
434.844	5371.31
435.052	5617.07
435.259	5471.66
435.466	5465.52
435.673	5543.34
435.88	5815.72
436.087	6178.21
436.294	6270.37
436.501	6122.91
436.708	6202.79
436.915	6407.58
437.122	6669.72
437.329	6477.21
437.537	6757.78
437.743	7028.12
437.95	7054.74
438.157	7427.47
438.364	7480.72
438.571	7421.33
438.778	7484.81
438.985	8312.19
439.192	7949.7
439.399	8078.72
439.606	8148.36
439.813	8516.99
440.02	8719.74
440.227	8910.2
440.433	8631.68
440.64	9149.81
440.847	9008.5
441.054	9354.61
441.261	9674.09
441.467	9692.52
441.674	9913.7
441.881	10270.05
442.088	10282.34
442.294	10175.84
442.501	10435.94
442.708	10599.77
442.914	10935.64
443.121	11638.09
443.328	11271.51
443.534	12082.5
443.741	11656.53
443.948	11429.2
444.154	12291.4
444.361	12397.89
444.568	12469.57
444.774	12479.81
444.981	12375.36
445.187	12895.55
445.394	13405.49
445.6	13274.42
445.807	14873.89
446.013	14034.22
446.22	14218.54
446.426	14851.36
446.633	15115.55
446.839	15287.57
447.046	14824.73
447.252	15549.71
447.459	15600.91
447.665	15791.38
447.871	16616.71
448.078	17093.88
448.284	16168.2
448.491	16434.44
448.697	17364.22
448.903	17620.21
449.11	17489.14
449.316	17362.17
449.522	17941.74
449.728	18349.29
449.935	18818.27
450.141	18408.68
450.347	18846.94
450.553	18404.58
450.76	18590.95
450.966	19303.64
451.172	18855.14
451.378	19455.19
451.584	19234.01
451.791	19598.55
451.997	19541.21
452.203	19877.07
452.409	20063.44
452.615	19993.81
452.821	18953.44
453.027	18715.87
453.233	20196.56
453.44	19309.79
453.646	19258.59
453.852	19694.8
454.058	20100.3
454.264	19143.9
454.47	19645.65
454.676	19289.31
454.882	19856.59
455.088	17972.46
455.294	18437.35
455.5	18709.73
455.705	18873.57
455.911	18083.05
456.117	17829.1
456.323	17233.15
456.529	16698.63
456.735	17437.94
456.941	16956.67
457.147	16411.91
457.352	16051.47
457.558	15934.73
457.764	16041.23
457.97	15734.03
458.176	15418.64
458.381	15596.82
458.587	14501.15
458.793	14595.36
458.999	13788.46
459.204	14843.17
459.41	14320.93
459.616	13479.22
459.821	13698.35
460.027	13468.98
460.233	13108.54
460.438	12586.3
460.644	12715.33
460.85	12019.02
461.055	11836.75
461.261	11879.75
461.466	11048.28
461.672	10620.25
461.878	11335
462.083	10620.25
462.289	10503.52
462.494	10169.7
462.7	10057.06
462.905	9657.71
463.111	9956.71
463.316	10093.93
463.522	9852.27
463.727	9717.1
463.932	9944.42
464.138	9741.68
464.343	9772.39
464.549	9506.16
464.754	9958.76
464.959	9616.75
465.165	9526.64
465.37	9219.44
465.575	9028.98
465.781	9422.19
465.986	9508.21
466.191	9047.41
466.397	8883.58
466.602	8435.07
466.807	8758.65
467.012	8785.27
467.218	8715.64
467.423	8805.75
467.628	8521.09
467.833	9020.79
468.038	8670.59
468.244	8484.22
468.449	8856.95
468.654	8570.24
468.859	8488.32
469.064	8336.77
469.269	8066.44
469.474	8097.16
469.679	8482.17
