Data from USB4F104151__31__12-58-52-747.txt Node

Date: Fri Mar 14 12:58:52 EDT 2025
User: louis
Spectrometer: USB4F10415
Trigger mode: 4
Integration Time (sec): 1.000000E-2
Scans to average: 1
Electric dark correction enabled: true
Nonlinearity correction enabled: false
Boxcar width: 0
XAxis mode: Wavelengths
Number of Pixels in Spectrum: 3648
>>>>>Begin Spectral Data<<<<<
178.204	-47.44
178.424	-47.44
178.644	-47.44
178.864	-49.49
179.084	-47.44
179.304	30.38
179.524	-39.25
179.744	11.95
179.964	24.23
180.184	46.76
180.404	7.85
180.624	-12.63
180.844	-18.77
181.064	-0.34
181.283	-45.4
181.503	-10.58
181.723	5.8
181.943	-41.3
182.163	7.85
182.383	-31.06
182.602	-6.49
182.822	-22.87
183.042	-18.77
183.262	-90.45
183.482	-115.03
183.701	77.48
183.921	11.95
184.141	-16.73
184.361	-6.49
184.58	18.09
184.8	9.9
185.02	63.15
185.239	-12.63
185.459	-92.5
185.679	-20.82
185.898	-37.2
186.118	32.43
186.338	-4.44
186.557	-10.58
186.777	-84.31
186.997	22.19
187.216	-14.68
187.436	1.71
187.655	-8.53
187.875	-12.63
188.095	-51.54
188.314	7.85
188.534	-0.34
188.753	-35.16
188.973	-14.68
189.192	13.99
189.412	-49.49
189.631	-43.35
189.851	13.99
190.07	-10.58
190.29	-37.2
190.509	-47.44
190.729	-55.64
190.948	24.23
191.168	-39.25
191.387	-20.82
191.607	9.9
191.826	-8.53
192.045	38.57
192.265	-51.54
192.484	38.57
192.704	-41.3
192.923	-35.16
193.142	5.8
193.362	-22.87
193.581	9.9
193.8	50.86
194.02	13.99
194.239	-14.68
194.458	1.71
194.678	-67.92
194.897	-0.34
195.116	-37.2
195.335	38.57
195.555	-24.92
195.774	3.75
195.993	-0.34
196.212	-0.34
196.432	-6.49
196.651	-63.83
196.87	1.71
197.089	-10.58
197.308	-41.3
197.528	-35.16
197.747	-137.56
197.966	34.47
198.185	24.23
198.404	-14.68
198.623	61.1
198.842	22.19
199.062	7.85
199.281	-43.35
199.5	-67.92
199.719	40.62
199.938	-45.4
200.157	-18.77
200.376	-8.53
200.595	-59.73
200.814	-0.34
201.033	32.43
201.252	-53.59
201.471	-0.34
201.69	57
201.909	30.38
202.128	-22.87
202.347	-18.77
202.566	-4.44
202.785	59.05
203.004	3.75
203.223	22.19
203.442	16.04
203.661	44.71
203.879	36.52
204.098	-47.44
204.317	40.62
204.536	-2.39
204.755	-14.68
204.974	30.38
205.193	-20.82
205.411	-24.92
205.63	-67.92
205.849	28.33
206.068	-33.11
206.287	-41.3
206.505	40.62
206.724	-31.06
206.943	-8.53
207.162	3.75
207.381	91.82
207.599	-26.96
207.818	-2.39
208.037	-2.39
208.255	-16.73
208.474	20.14
208.693	28.33
208.911	-47.44
209.13	-2.39
209.349	-45.4
209.567	91.82
209.786	-2.39
210.005	3.75
210.223	16.04
210.442	-14.68
210.661	59.05
210.879	9.9
211.098	57
211.316	5.8
211.535	-35.16
211.753	-35.16
211.972	65.19
212.191	-43.35
212.409	-12.63
212.628	-90.45
212.846	-10.58
213.065	-31.06
213.283	16.04
213.502	-74.07
213.72	67.24
213.938	38.57
214.157	28.33
214.375	-59.73
214.594	16.04
214.812	73.39
215.031	36.52
215.249	-24.92
215.467	-18.77
215.686	-55.64
215.904	1.71
216.122	1.71
216.341	46.76
216.559	5.8
216.778	20.14
216.996	-61.78
217.214	-12.63
217.432	-31.06
217.651	-80.21
217.869	87.72
218.087	-39.25
218.306	-61.78
218.524	28.33
218.742	-33.11
218.96	-18.77
219.179	54.95
219.397	-8.53
219.615	24.23
219.833	9.9
220.051	-41.3
220.27	22.19
220.488	-33.11
220.706	-33.11
220.924	-26.96
221.142	46.76
221.36	1.71
221.578	-33.11
221.796	-16.73
222.015	34.47
222.233	34.47
222.451	40.62
222.669	63.15
222.887	-2.39
223.105	11.95
223.323	22.19
223.541	-6.49
223.759	-14.68
223.977	57
224.195	24.23
224.413	-45.4
224.631	-12.63
224.849	30.38
225.067	-16.73
225.285	7.85
225.503	13.99
225.721	-67.92
225.939	-0.34
226.157	59.05
226.375	40.62
226.592	26.28
226.81	18.09
227.028	-37.2
227.246	18.09
227.464	-18.77
227.682	-33.11
227.9	28.33
228.117	30.38
228.335	-6.49
228.553	7.85
228.771	-33.11
228.989	-14.68
229.206	-45.4
229.424	18.09
229.642	-22.87
229.86	-55.64
230.077	9.9
230.295	-12.63
230.513	-33.11
230.731	-41.3
230.948	-10.58
231.166	32.43
231.384	-115.03
231.601	-49.49
231.819	-22.87
232.037	54.95
232.254	-39.25
232.472	30.38
232.689	-29.01
232.907	9.9
233.125	11.95
233.342	-14.68
233.56	-14.68
233.777	-12.63
233.995	-49.49
234.213	-16.73
234.43	22.19
234.648	-18.77
234.865	46.76
235.083	36.52
235.3	-43.35
235.518	16.04
235.735	79.53
235.953	50.86
236.17	-37.2
236.388	34.47
236.605	7.85
236.822	7.85
237.04	-43.35
237.257	-22.87
237.475	-33.11
237.692	63.15
237.909	61.1
238.127	63.15
238.344	54.95
238.562	-10.58
238.779	-108.88
238.996	16.04
239.214	7.85
239.431	42.67
239.648	-43.35
239.865	57
240.083	-8.53
240.3	11.95
240.517	67.24
240.735	38.57
240.952	-20.82
241.169	9.9
241.386	-26.96
241.603	-0.34
241.821	-8.53
242.038	26.28
242.255	-18.77
242.472	26.28
242.689	3.75
242.907	40.62
243.124	-39.25
243.341	-39.25
243.558	-29.01
243.775	-31.06
243.992	-84.31
244.209	1.71
244.426	-16.73
244.643	3.75
244.86	-61.78
245.078	63.15
245.295	-47.44
245.512	13.99
245.729	-12.63
245.946	7.85
246.163	30.38
246.38	-0.34
246.597	-43.35
246.814	-2.39
247.031	-0.34
247.248	34.47
247.464	18.09
247.681	54.95
247.898	-22.87
248.115	46.76
248.332	-20.82
248.549	50.86
248.766	63.15
248.983	26.28
249.2	11.95
249.417	13.99
249.633	-37.2
249.85	3.75
250.067	-47.44
250.284	16.04
250.501	-10.58
250.717	34.47
250.934	-14.68
251.151	-65.88
251.368	-2.39
251.585	3.75
251.801	-18.77
252.018	32.43
252.235	-26.96
252.451	-18.77
252.668	75.43
252.885	18.09
253.102	26.28
253.318	-39.25
253.535	-45.4
253.752	-16.73
253.968	-12.63
254.185	-33.11
254.401	-49.49
254.618	20.14
254.835	52.91
255.051	-18.77
255.268	40.62
255.484	-6.49
255.701	-29.01
255.917	57
256.134	3.75
256.351	16.04
256.567	-22.87
256.784	-8.53
257	-33.11
257.217	22.19
257.433	-8.53
257.65	-12.63
257.866	5.8
258.082	1.71
258.299	-10.58
258.515	67.24
258.732	-72.02
258.948	13.99
259.165	-24.92
259.381	9.9
259.597	57
259.814	-26.96
260.03	7.85
260.246	-14.68
260.463	7.85
260.679	44.71
260.895	59.05
261.112	-26.96
261.328	3.75
261.544	20.14
261.761	-59.73
261.977	-24.92
262.193	-31.06
262.409	-26.96
262.626	71.34
262.842	-24.92
263.058	46.76
263.274	-29.01
263.49	-10.58
263.707	26.28
263.923	-10.58
264.139	-10.58
264.355	3.75
264.571	-4.44
264.787	-4.44
265.004	-67.92
265.22	11.95
265.436	-0.34
265.652	-41.3
265.868	-10.58
266.084	11.95
266.3	-18.77
266.516	26.28
266.732	-8.53
266.948	-26.96
267.164	-82.26
267.38	-59.73
267.596	83.63
267.812	-16.73
268.028	34.47
268.244	-49.49
268.46	-2.39
268.676	11.95
268.892	-4.44
269.108	42.67
269.324	-31.06
269.54	16.04
269.756	-35.16
269.972	59.05
270.188	-41.3
270.403	-4.44
270.619	-57.68
270.835	20.14
271.051	-31.06
271.267	1.71
271.483	-33.11
271.698	-39.25
271.914	40.62
272.13	77.48
272.346	16.04
272.562	-76.12
272.777	50.86
272.993	11.95
273.209	-2.39
273.425	-4.44
273.64	-41.3
273.856	-4.44
274.072	40.62
274.287	-65.88
274.503	22.19
274.719	-6.49
274.934	-35.16
275.15	-22.87
275.366	42.67
275.581	-26.96
275.797	-35.16
276.012	-47.44
276.228	1.71
276.444	-31.06
276.659	42.67
276.875	-22.87
277.09	50.86
277.306	-0.34
277.521	-31.06
277.737	-96.6
277.952	-33.11
278.168	-53.59
278.383	-10.58
278.599	42.67
278.814	46.76
279.03	20.14
279.245	24.23
279.461	7.85
279.676	-31.06
279.892	24.23
280.107	40.62
280.322	-4.44
280.538	81.58
280.753	1.71
280.969	65.19
281.184	-2.39
281.399	34.47
281.615	-18.77
281.83	5.8
282.045	-4.44
282.26	3.75
282.476	-0.34
282.691	79.53
282.906	-26.96
283.122	11.95
283.337	-45.4
283.552	-4.44
283.767	-6.49
283.983	-57.68
284.198	-18.77
284.413	22.19
284.628	-82.26
284.843	-0.34
285.058	13.99
285.274	32.43
285.489	-35.16
285.704	22.19
285.919	18.09
286.134	-10.58
286.349	9.9
286.564	30.38
286.779	-14.68
286.995	-14.68
287.21	22.19
287.425	34.47
287.64	38.57
287.855	5.8
288.07	-57.68
288.285	7.85
288.5	-10.58
288.715	-61.78
288.93	-26.96
289.145	81.58
289.36	38.57
289.575	-92.5
289.79	-10.58
290.004	95.91
290.219	-18.77
290.434	-96.6
290.649	-4.44
290.864	-8.53
291.079	-59.73
291.294	13.99
291.509	-18.77
291.724	-8.53
291.938	22.19
292.153	102.06
292.368	5.8
292.583	24.23
292.798	-4.44
293.012	42.67
293.227	-59.73
293.442	-26.96
293.657	-0.34
293.871	-22.87
294.086	-6.49
294.301	-10.58
294.516	40.62
294.73	-10.58
294.945	-76.12
295.16	-35.16
295.374	3.75
295.589	-37.2
295.804	20.14
296.018	32.43
296.233	7.85
296.447	7.85
296.662	-39.25
296.877	18.09
297.091	46.76
297.306	-14.68
297.52	-33.11
297.735	18.09
297.949	18.09
298.164	-8.53
298.378	28.33
298.593	-6.49
298.807	-22.87
299.022	-33.11
299.236	3.75
299.451	-2.39
299.665	-31.06
299.88	16.04
300.094	77.48
300.309	11.95
300.523	3.75
300.737	18.09
300.952	-2.39
301.166	-12.63
301.381	9.9
301.595	30.38
301.809	-31.06
302.024	5.8
302.238	54.95
302.452	42.67
302.667	-31.06
302.881	-16.73
303.095	7.85
303.309	-47.44
303.524	5.8
303.738	-35.16
303.952	-14.68
304.166	-59.73
304.381	-8.53
304.595	57
304.809	22.19
305.023	-12.63
305.237	-18.77
305.452	5.8
305.666	-10.58
305.88	46.76
306.094	3.75
306.308	16.04
306.522	-12.63
306.736	7.85
306.95	30.38
307.164	3.75
307.379	-22.87
307.593	-39.25
307.807	9.9
308.021	-18.77
308.235	46.76
308.449	52.91
308.663	13.99
308.877	30.38
309.091	-69.97
309.305	-16.73
309.519	-14.68
309.733	16.04
309.947	-2.39
310.161	16.04
310.374	42.67
310.588	30.38
310.802	81.58
311.016	-31.06
311.23	-55.64
311.444	-65.88
311.658	-51.54
311.872	-4.44
312.085	-14.68
312.299	7.85
312.513	50.86
312.727	30.38
312.941	48.81
313.154	-92.5
313.368	9.9
313.582	-39.25
313.796	-35.16
314.009	18.09
314.223	20.14
314.437	57
314.651	36.52
314.864	7.85
315.078	-6.49
315.292	-55.64
315.505	-2.39
315.719	40.62
315.933	32.43
316.146	-8.53
316.36	-55.64
316.573	-26.96
316.787	-18.77
317.001	44.71
317.214	87.72
317.428	-10.58
317.641	3.75
317.855	95.91
318.068	-47.44
318.282	61.1
318.495	73.39
318.709	30.38
318.922	30.38
319.136	59.05
319.349	40.62
319.563	42.67
319.776	-8.53
319.99	42.67
320.203	-12.63
320.417	91.82
320.63	-37.2
320.843	34.47
321.057	79.53
321.27	18.09
321.483	-26.96
321.697	7.85
321.91	22.19
322.124	67.24
322.337	104.11
322.55	-16.73
322.763	-8.53
322.977	-26.96
323.19	7.85
323.403	-57.68
323.617	-14.68
323.83	13.99
324.043	40.62
324.256	-37.2
324.469	61.1
324.683	1.71
324.896	9.9
325.109	-2.39
325.322	52.91
325.535	-26.96
325.748	20.14
325.962	85.67
326.175	-43.35
326.388	46.76
326.601	-86.36
326.814	40.62
327.027	-35.16
327.24	-6.49
327.453	-18.77
327.666	5.8
327.879	-55.64
328.092	59.05
328.305	71.34
328.518	13.99
328.731	28.33
328.944	-4.44
329.157	87.72
329.37	40.62
329.583	-41.3
329.796	18.09
330.009	5.8
330.222	-55.64
330.435	42.67
330.648	-6.49
330.861	24.23
331.073	18.09
331.286	38.57
331.499	-16.73
331.712	5.8
331.925	48.81
332.138	18.09
332.35	-16.73
332.563	46.76
332.776	-4.44
332.989	-47.44
333.202	38.57
333.414	11.95
333.627	-22.87
333.84	-57.68
334.053	-2.39
334.265	-59.73
334.478	22.19
334.691	40.62
334.903	-24.92
335.116	9.9
335.329	-22.87
335.541	-26.96
335.754	16.04
335.966	-41.3
336.179	-112.98
336.392	-8.53
336.604	-22.87
336.817	93.87
337.029	-51.54
337.242	-8.53
337.454	-47.44
337.667	-8.53
337.88	20.14
338.092	-14.68
338.305	30.38
338.517	26.28
338.729	-74.07
338.942	-18.77
339.154	-22.87
339.367	-33.11
339.579	-6.49
339.792	3.75
340.004	-29.01
340.217	-55.64
340.429	-33.11
340.641	-37.2
340.854	-18.77
341.066	3.75
341.278	120.49
341.491	24.23
341.703	-16.73
341.915	67.24
342.128	50.86
342.34	-18.77
342.552	-6.49
342.764	38.57
342.977	3.75
343.189	38.57
343.401	44.71
343.613	-10.58
343.826	83.63
344.038	-49.49
344.25	-22.87
344.462	-31.06
344.674	63.15
344.886	5.8
345.099	-51.54
345.311	-22.87
345.523	54.95
345.735	30.38
345.947	42.67
346.159	-10.58
346.371	54.95
346.583	28.33
346.795	1.71
347.007	22.19
347.219	65.19
347.431	30.38
347.643	28.33
347.855	-4.44
348.067	3.75
348.279	-8.53
348.491	3.75
348.703	26.28
348.915	-14.68
349.127	-24.92
349.339	-6.49
349.551	65.19
349.763	93.87
349.975	-10.58
350.187	24.23
350.399	13.99
350.61	30.38
350.822	-43.35
351.034	36.52
351.246	20.14
351.458	28.33
351.669	1.71
351.881	-0.34
352.093	42.67
352.305	-10.58
352.517	-14.68
352.728	-8.53
352.94	-72.02
353.152	22.19
353.363	77.48
353.575	-49.49
353.787	-26.96
353.999	-33.11
354.21	11.95
354.422	9.9
354.633	48.81
354.845	1.71
355.057	-10.58
355.268	20.14
355.48	63.15
355.692	-18.77
355.903	-16.73
356.115	22.19
356.326	-115.03
356.538	22.19
356.749	54.95
356.961	67.24
357.172	28.33
357.384	-47.44
357.595	-65.88
357.807	13.99
358.018	-63.83
358.23	-14.68
358.441	-6.49
358.653	73.39
358.864	32.43
359.075	18.09
359.287	3.75
359.498	1.71
359.709	38.57
359.921	-90.45
360.132	9.9
360.344	83.63
360.555	11.95
360.766	48.81
360.977	-22.87
361.189	5.8
361.4	-37.2
361.611	13.99
361.823	1.71
362.034	-33.11
362.245	-20.82
362.456	9.9
362.667	7.85
362.879	-65.88
363.09	-8.53
363.301	83.63
363.512	116.39
363.723	48.81
363.935	22.19
364.146	-6.49
364.357	-24.92
364.568	79.53
364.779	46.76
364.99	46.76
365.201	26.28
365.412	16.04
365.623	-2.39
365.834	16.04
366.045	-10.58
366.256	-18.77
366.467	16.04
366.678	7.85
366.889	30.38
367.1	-43.35
367.311	9.9
367.522	59.05
367.733	-33.11
367.944	-35.16
368.155	16.04
368.366	34.47
368.577	79.53
368.788	40.62
368.999	22.19
369.209	20.14
369.42	-18.77
369.631	-43.35
369.842	-2.39
370.053	24.23
370.264	22.19
370.474	-51.54
370.685	-22.87
370.896	5.8
371.107	67.24
371.317	-14.68
371.528	-14.68
371.739	-4.44
371.95	13.99
372.16	26.28
372.371	-24.92
372.582	-37.2
372.792	-31.06
373.003	38.57
373.214	-4.44
373.424	-14.68
373.635	-96.6
373.846	11.95
374.056	11.95
374.267	-24.92
374.477	36.52
374.688	-8.53
374.898	-24.92
375.109	13.99
375.319	5.8
375.53	48.81
375.74	-8.53
375.951	54.95
376.161	28.33
376.372	16.04
376.582	-39.25
376.793	-72.02
377.003	30.38
377.214	75.43
377.424	30.38
377.635	28.33
377.845	-22.87
378.055	16.04
378.266	-26.96
378.476	-6.49
378.686	-41.3
378.897	16.04
379.107	38.57
379.317	32.43
379.528	-37.2
379.738	28.33
379.948	-6.49
380.158	63.15
380.369	-2.39
380.579	-2.39
380.789	-74.07
380.999	-31.06
381.21	7.85
381.42	50.86
381.63	65.19
381.84	-22.87
382.05	16.04
382.261	50.86
382.471	46.76
382.681	34.47
382.891	28.33
383.101	-6.49
383.311	-35.16
383.521	-57.68
383.731	-0.34
383.941	46.76
384.151	57
384.361	5.8
384.571	3.75
384.781	-6.49
384.991	16.04
385.201	-43.35
385.411	34.47
385.621	95.91
385.831	-12.63
386.041	11.95
386.251	-33.11
386.461	-22.87
386.671	-8.53
386.881	40.62
387.091	-53.59
387.301	5.8
387.511	-39.25
387.72	5.8
387.93	11.95
388.14	-6.49
388.35	-26.96
388.56	63.15
388.769	-39.25
388.979	-0.34
389.189	93.87
389.399	-18.77
389.609	46.76
389.818	11.95
390.028	81.58
390.238	13.99
390.447	75.43
390.657	46.76
390.867	-53.59
391.076	-29.01
391.286	97.96
391.496	106.15
391.705	22.19
391.915	50.86
392.125	-8.53
392.334	-10.58
392.544	9.9
392.753	65.19
392.963	13.99
393.172	38.57
393.382	-16.73
393.591	128.68
393.801	3.75
394.01	42.67
394.22	-53.59
394.429	42.67
394.639	44.71
394.848	73.39
395.058	1.71
395.267	-24.92
395.477	42.67
395.686	106.15
395.895	61.1
396.105	120.49
396.314	-8.53
396.524	-33.11
396.733	13.99
396.942	71.34
397.152	1.71
397.361	38.57
397.57	57
397.78	32.43
397.989	36.52
398.198	52.91
398.407	67.24
398.617	30.38
398.826	81.58
399.035	-8.53
399.244	-39.25
399.453	-0.34
399.663	13.99
399.872	44.71
400.081	75.43
400.29	57
400.499	54.95
400.708	65.19
400.917	30.38
401.127	48.81
401.336	-31.06
401.545	71.34
401.754	9.9
401.963	30.38
402.172	50.86
402.381	11.95
402.59	40.62
402.799	32.43
403.008	87.72
403.217	89.77
403.426	89.77
403.635	85.67
403.844	13.99
404.053	1.71
404.262	91.82
404.471	126.63
404.68	57
404.888	95.91
405.097	38.57
405.306	26.28
405.515	114.34
405.724	106.15
405.933	40.62
406.142	30.38
406.35	112.3
406.559	26.28
406.768	16.04
406.977	93.87
407.185	65.19
407.394	104.11
407.603	69.29
407.812	71.34
408.02	122.54
408.229	87.72
408.438	75.43
408.646	118.44
408.855	114.34
409.064	159.4
409.272	104.11
409.481	147.11
409.69	110.25
409.898	167.59
410.107	106.15
410.315	161.45
410.524	54.95
410.733	157.35
410.941	138.92
411.15	206.5
411.358	183.98
411.567	171.69
411.775	179.88
411.984	159.4
412.192	229.03
412.401	179.88
412.609	282.28
412.818	241.32
413.026	136.87
413.234	218.79
413.443	229.03
413.651	239.27
413.86	294.57
414.068	290.47
414.276	263.85
414.485	306.85
414.693	265.89
414.901	349.86
415.11	335.53
415.318	280.23
415.526	360.1
415.734	417.44
415.943	302.76
416.151	409.25
416.359	409.25
416.567	421.54
416.776	396.96
416.984	439.97
417.192	575.14
417.4	505.51
417.608	493.22
417.817	562.85
418.025	513.7
418.233	575.14
418.441	482.98
418.649	575.14
418.857	593.57
419.065	609.95
419.273	661.15
419.481	648.86
419.689	716.45
419.897	714.4
420.105	796.32
420.313	794.27
420.521	808.61
420.729	702.11
420.937	800.41
421.145	921.24
421.353	841.37
421.561	941.72
421.769	923.29
421.977	1046.17
422.185	1044.12
422.393	1115.8
422.601	1087.13
422.809	1134.23
423.017	1123.99
423.224	1255.06
423.432	1281.69
423.64	1320.6
423.848	1312.41
424.056	1316.5
424.263	1326.74
424.471	1357.46
424.679	1388.18
424.887	1537.68
425.094	1543.83
425.302	1648.27
425.51	1640.08
425.718	1681.04
425.925	1709.71
426.133	1746.58
426.341	1861.26
426.548	1951.37
426.756	1943.18
426.964	1930.89
427.171	2115.21
427.379	2197.13
427.586	2164.36
427.794	2217.61
428.001	2315.91
428.209	2473.6
428.417	2410.12
428.624	2528.9
428.832	2563.72
429.039	2600.58
429.247	2584.2
429.454	2875.01
429.662	3024.51
429.869	2803.33
430.076	3024.51
430.284	2911.87
430.491	3122.81
430.699	3309.18
430.906	3243.64
431.114	3360.38
431.321	3393.14
431.528	3470.97
431.736	3575.41
431.943	3927.66
432.15	3673.71
432.358	3802.74
432.565	3989.1
432.772	3999.34
432.979	4261.48
433.187	4275.82
433.394	4261.48
433.601	4658.79
433.808	4537.96
434.016	4607.59
434.223	4847.2
434.43	5097.05
434.637	5029.47
434.844	5518.93
435.052	5396.06
435.259	5267.03
435.466	5518.93
435.673	5301.85
435.88	5764.69
436.087	6098.51
436.294	5940.82
436.501	5901.9
436.708	6006.35
436.915	6200.91
437.122	6596.17
437.329	6274.63
437.537	6657.61
437.743	6876.74
437.95	6788.68
438.157	7233.08
438.364	7527.99
438.571	7315
438.778	7370.3
438.985	8058.42
439.192	7695.93
439.399	7984.69
439.606	7896.63
439.813	8222.25
440.02	8644.13
440.227	8586.79
440.433	8459.82
440.64	8918.56
440.847	8623.66
441.054	8844.84
441.261	9641.5
441.467	9428.51
441.674	9532.95
441.881	9942.55
442.088	10001.94
442.294	9944.59
442.501	10149.39
442.708	10305.04
442.914	10726.92
443.121	11308.54
443.328	10950.15
443.534	11746.81
443.741	11269.63
443.948	11085.31
444.154	11773.43
444.361	12070.39
444.568	11894.26
444.774	12086.77
444.981	12137.97
445.187	12459.5
445.394	13229.54
445.6	12967.4
445.807	14335.44
446.013	13792.73
446.22	13829.59
446.426	14530
446.633	14575.05
446.839	14874.06
447.046	14294.48
447.252	15525.31
447.459	15144.39
447.665	15230.4
447.871	15930.81
448.078	16430.51
448.284	15758.78
448.491	16516.53
448.697	17028.52
448.903	17159.59
449.11	17190.31
449.316	17370.53
449.522	17391.01
449.728	18040.22
449.935	18079.13
450.141	17974.68
450.347	18290.07
450.553	17710.49
450.76	17933.72
450.966	18414.99
451.172	18494.86
451.378	19316.1
451.584	18689.42
451.791	19088.78
451.997	19074.44
452.203	19303.81
452.409	19443.07
452.615	19297.67
452.821	18800.01
453.027	18359.7
453.233	19557.76
453.44	18548.11
453.646	18902.41
453.852	19127.69
454.058	19309.96
454.264	18580.88
454.47	18976.14
454.676	18591.12
454.882	19477.89
455.088	17651.1
455.294	18159
455.5	18300.31
455.705	18519.44
455.911	17560.99
456.117	17311.14
456.323	17100.2
456.529	16266.67
456.735	17104.29
456.941	16672.17
457.147	16375.22
457.352	15431.1
457.558	15537.6
457.764	15689.15
457.97	15136.2
458.176	14818.76
458.381	15144.39
458.587	14280.14
458.793	14306.77
458.999	13436.38
459.204	14607.82
459.41	14095.83
459.616	13176.29
459.821	13290.98
460.027	13008.36
460.233	12850.66
460.438	12219.89
460.644	12533.23
460.85	11810.29
461.055	11644.41
461.261	11558.39
461.466	10645
461.672	10384.91
461.878	11208.19
462.083	10454.54
462.289	10239.5
462.494	10233.36
462.7	9926.16
462.905	9344.54
463.111	9502.23
463.316	9840.15
463.522	9688.6
463.727	9555.48
463.932	9747.99
464.138	9541.15
464.343	9416.22
464.549	9319.96
464.754	9694.74
464.959	9422.36
465.165	9297.44
465.37	9063.97
465.575	8689.19
465.781	9326.11
465.986	9324.06
466.191	9123.36
466.397	8697.38
466.602	8353.32
466.807	8513.06
467.012	8695.33
467.218	8564.26
