Data from USB4F104151__95__13-00-11-998.txt Node

Date: Fri Mar 14 13:00:11 EDT 2025
User: louis
Spectrometer: USB4F10415
Trigger mode: 4
Integration Time (sec): 1.000000E-2
Scans to average: 1
Electric dark correction enabled: true
Nonlinearity correction enabled: false
Boxcar width: 0
XAxis mode: Wavelengths
Number of Pixels in Spectrum: 3648
>>>>>Begin Spectral Data<<<<<
178.204	-10.41
178.424	-10.41
178.644	-10.41
178.864	24.4
179.084	-28.84
179.304	-51.37
179.524	-22.7
179.744	87.89
179.964	-28.84
180.184	-80.04
180.404	61.27
180.624	12.12
180.844	26.45
181.064	-20.65
181.283	-2.22
181.503	10.07
181.723	8.02
181.943	8.02
182.163	73.56
182.383	-37.03
182.602	22.36
182.822	67.41
183.042	-8.36
183.262	1.88
183.482	36.69
183.701	-12.46
183.921	16.21
184.141	16.21
184.361	108.37
184.58	-6.31
184.8	-14.51
185.02	-16.55
185.239	96.08
185.459	-16.55
185.679	28.5
185.898	24.4
186.118	46.93
186.338	77.65
186.557	104.28
186.777	75.6
186.997	44.88
187.216	-20.65
187.436	75.6
187.655	63.32
187.875	20.31
188.095	5.97
188.314	53.08
188.534	59.22
188.753	67.41
188.973	14.17
189.192	67.41
189.412	12.12
189.631	20.31
189.851	120.66
190.07	87.89
190.29	44.88
190.509	16.21
190.729	-12.46
190.948	73.56
191.168	83.8
191.387	32.6
191.607	69.46
191.826	89.94
192.045	3.93
192.265	8.02
192.484	40.79
192.704	51.03
192.923	-41.13
193.142	53.08
193.362	-10.41
193.581	8.02
193.8	8.02
194.02	61.27
194.239	32.6
194.458	5.97
194.678	1.88
194.897	40.79
195.116	16.21
195.335	65.36
195.555	8.02
195.774	96.08
195.993	30.55
196.212	36.69
196.432	-2.22
196.651	-28.84
196.87	53.08
197.089	65.36
197.308	30.55
197.528	102.23
197.747	28.5
197.966	71.51
198.185	-8.36
198.404	71.51
198.623	100.18
198.842	-51.37
199.062	26.45
199.281	42.84
199.5	14.17
199.719	71.51
199.938	38.74
200.157	96.08
200.376	3.93
200.595	57.17
200.814	-18.6
201.033	16.21
201.252	69.46
201.471	42.84
201.69	36.69
201.909	75.6
202.128	-2.22
202.347	61.27
202.566	48.98
202.785	38.74
203.004	-4.27
203.223	46.93
203.442	91.99
203.661	91.99
203.879	24.4
204.098	59.22
204.317	-10.41
204.536	55.12
204.755	20.31
204.974	53.08
205.193	14.17
205.411	69.46
205.63	32.6
205.849	20.31
206.068	8.02
206.287	28.5
206.505	-22.7
206.724	79.7
206.943	8.02
207.162	8.02
207.381	100.18
207.599	-71.85
207.818	1.88
208.037	79.7
208.255	30.55
208.474	89.94
208.693	77.65
208.911	108.37
209.13	-26.79
209.349	28.5
209.567	75.6
209.786	61.27
210.005	12.12
210.223	85.84
210.442	-28.84
210.661	75.6
210.879	-20.65
211.098	83.8
211.316	-10.41
211.535	3.93
211.753	91.99
211.972	-53.42
212.191	28.5
212.409	91.99
212.628	63.32
212.846	20.31
213.065	51.03
213.283	61.27
213.502	-28.84
213.72	26.45
213.938	100.18
214.157	85.84
214.375	53.08
214.594	94.04
214.812	36.69
215.031	30.55
215.249	-18.6
215.467	85.84
215.686	75.6
215.904	-0.17
216.122	65.36
216.341	14.17
216.559	12.12
216.778	38.74
216.996	51.03
217.214	61.27
217.432	-4.27
217.651	71.51
217.869	30.55
218.087	32.6
218.306	-57.51
218.524	48.98
218.742	77.65
218.96	100.18
219.179	-20.65
219.397	30.55
219.615	63.32
219.833	77.65
220.051	28.5
220.27	94.04
220.488	77.65
220.706	-6.31
220.924	36.69
221.142	53.08
221.36	57.17
221.578	36.69
221.796	61.27
222.015	-8.36
222.233	26.45
222.451	51.03
222.669	114.52
222.887	32.6
223.105	38.74
223.323	73.56
223.541	12.12
223.759	14.17
223.977	110.42
224.195	24.4
224.413	-24.75
224.631	79.7
224.849	36.69
225.067	94.04
225.285	46.93
225.503	-39.08
225.721	-12.46
225.939	-6.31
226.157	59.22
226.375	120.66
226.592	-6.31
226.81	-6.31
227.028	87.89
227.246	57.17
227.464	12.12
227.682	46.93
227.9	46.93
228.117	3.93
228.335	16.21
228.553	32.6
228.771	10.07
228.989	100.18
229.206	-16.55
229.424	-0.17
229.642	-18.6
229.86	-24.75
230.077	-2.22
230.295	22.36
230.513	16.21
230.731	3.93
230.948	8.02
231.166	73.56
231.384	10.07
231.601	-4.27
231.819	53.08
232.037	-2.22
232.254	24.4
232.472	81.75
232.689	10.07
232.907	20.31
233.125	65.36
233.342	-24.75
233.56	38.74
233.777	59.22
233.995	18.26
234.213	5.97
234.43	-6.31
234.648	-4.27
234.865	102.23
235.083	14.17
235.3	100.18
235.518	48.98
235.735	38.74
235.953	141.14
236.17	32.6
236.388	-67.75
236.605	69.46
236.822	132.95
237.04	61.27
237.257	-10.41
237.475	22.36
237.692	30.55
237.909	5.97
238.127	53.08
238.344	48.98
238.562	-8.36
238.779	-2.22
238.996	-2.22
239.214	79.7
239.431	-30.89
239.648	81.75
239.865	30.55
240.083	71.51
240.3	-39.08
240.517	38.74
240.735	75.6
240.952	122.71
241.169	3.93
241.386	67.41
241.603	30.55
241.821	38.74
242.038	30.55
242.255	40.79
242.472	77.65
242.689	112.47
242.907	122.71
243.124	20.31
243.341	67.41
243.558	14.17
243.775	20.31
243.992	18.26
244.209	77.65
244.426	-4.27
244.643	77.65
244.86	61.27
245.078	65.36
245.295	26.45
245.512	30.55
245.729	14.17
245.946	30.55
246.163	14.17
246.38	20.31
246.597	-16.55
246.814	26.45
247.031	46.93
247.248	44.88
247.464	-73.9
247.681	8.02
247.898	57.17
248.115	71.51
248.332	67.41
248.549	28.5
248.766	96.08
248.983	16.21
249.2	-41.13
249.417	71.51
249.633	8.02
249.85	53.08
250.067	48.98
250.284	100.18
250.501	102.23
250.717	44.88
250.934	-8.36
251.151	16.21
251.368	30.55
251.585	40.79
251.801	20.31
252.018	63.32
252.235	30.55
252.451	87.89
252.668	1.88
252.885	-10.41
253.102	18.26
253.318	40.79
253.535	32.6
253.752	55.12
253.968	-12.46
254.185	-61.61
254.401	77.65
254.618	53.08
254.835	59.22
255.051	85.84
255.268	44.88
255.484	63.32
255.701	53.08
255.917	-0.17
256.134	-2.22
256.351	-12.46
256.567	57.17
256.784	79.7
257	38.74
257.217	42.84
257.433	51.03
257.65	94.04
257.866	59.22
258.082	59.22
258.299	83.8
258.515	75.6
258.732	77.65
258.948	10.07
259.165	22.36
259.381	69.46
259.597	28.5
259.814	22.36
260.03	55.12
260.246	79.7
260.463	42.84
260.679	85.84
260.895	44.88
261.112	46.93
261.328	-18.6
261.544	44.88
261.761	34.64
261.977	5.97
262.193	73.56
262.409	42.84
262.626	106.32
262.842	42.84
263.058	94.04
263.274	53.08
263.49	59.22
263.707	118.61
263.923	53.08
264.139	-22.7
264.355	108.37
264.571	85.84
264.787	-10.41
265.004	75.6
265.22	8.02
265.436	112.47
265.652	91.99
265.868	5.97
266.084	-34.99
266.3	55.12
266.516	-24.75
266.732	102.23
266.948	20.31
267.164	79.7
267.38	38.74
267.596	8.02
267.812	77.65
268.028	63.32
268.244	30.55
268.46	51.03
268.676	46.93
268.892	-6.31
269.108	16.21
269.324	-8.36
269.54	55.12
269.756	79.7
269.972	81.75
270.188	3.93
270.403	65.36
270.619	-4.27
270.835	48.98
271.051	-4.27
271.267	61.27
271.483	42.84
271.698	75.6
271.914	67.41
272.13	28.5
272.346	63.32
272.562	38.74
272.777	46.93
272.993	28.5
273.209	59.22
273.425	67.41
273.64	32.6
273.856	-12.46
274.072	26.45
274.287	40.79
274.503	83.8
274.719	114.52
274.934	36.69
275.15	10.07
275.366	14.17
275.581	24.4
275.797	-2.22
276.012	1.88
276.228	108.37
276.444	32.6
276.659	40.79
276.875	69.46
277.09	12.12
277.306	38.74
277.521	118.61
277.737	44.88
277.952	28.5
278.168	30.55
278.383	32.6
278.599	20.31
278.814	75.6
279.03	5.97
279.245	53.08
279.461	57.17
279.676	57.17
279.892	51.03
280.107	-49.32
280.322	-43.18
280.538	34.64
280.753	38.74
280.969	-2.22
281.184	-10.41
281.399	61.27
281.615	-0.17
281.83	-4.27
282.045	79.7
282.26	8.02
282.476	110.42
282.691	3.93
282.906	102.23
283.122	-18.6
283.337	-18.6
283.552	98.13
283.767	22.36
283.983	65.36
284.198	18.26
284.413	57.17
284.628	32.6
284.843	73.56
285.058	5.97
285.274	102.23
285.489	32.6
285.704	106.32
285.919	53.08
286.134	53.08
286.349	46.93
286.564	-45.23
286.779	77.65
286.995	55.12
287.21	-18.6
287.425	61.27
287.64	48.98
287.855	61.27
288.07	18.26
288.285	116.56
288.5	77.65
288.715	87.89
288.93	-102.57
289.145	69.46
289.36	26.45
289.575	16.21
289.79	63.32
290.004	-10.41
290.219	20.31
290.434	67.41
290.649	5.97
290.864	-37.03
291.079	3.93
291.294	46.93
291.509	53.08
291.724	57.17
291.938	20.31
292.153	151.38
292.368	79.7
292.583	91.99
292.798	48.98
293.012	26.45
293.227	42.84
293.442	-0.17
293.657	38.74
293.871	46.93
294.086	57.17
294.301	-26.79
294.516	94.04
294.73	79.7
294.945	38.74
295.16	-28.84
295.374	20.31
295.589	38.74
295.804	-8.36
296.018	28.5
296.233	48.98
296.447	48.98
296.662	42.84
296.877	100.18
297.091	48.98
297.306	55.12
297.52	-16.55
297.735	44.88
297.949	36.69
298.164	53.08
298.378	44.88
298.593	94.04
298.807	-22.7
299.022	-26.79
299.236	83.8
299.451	48.98
299.665	44.88
299.88	65.36
300.094	75.6
300.309	61.27
300.523	3.93
300.737	71.51
300.952	22.36
301.166	28.5
301.381	34.64
301.595	57.17
301.809	46.93
302.024	30.55
302.238	18.26
302.452	63.32
302.667	24.4
302.881	16.21
303.095	38.74
303.309	20.31
303.524	44.88
303.738	3.93
303.952	-24.75
304.166	77.65
304.381	126.8
304.595	55.12
304.809	36.69
305.023	20.31
305.237	48.98
305.452	104.28
305.666	18.26
305.88	87.89
306.094	3.93
306.308	63.32
306.522	14.17
306.736	32.6
306.95	40.79
307.164	61.27
307.379	53.08
307.593	18.26
307.807	108.37
308.021	83.8
308.235	24.4
308.449	34.64
308.663	83.8
308.877	85.84
309.091	34.64
309.305	118.61
309.519	-77.99
309.733	77.65
309.947	-0.17
310.161	36.69
310.374	124.76
310.588	79.7
310.802	38.74
311.016	10.07
311.23	-16.55
311.444	36.69
311.658	1.88
311.872	28.5
312.085	18.26
312.299	-57.51
312.513	75.6
312.727	32.6
312.941	59.22
313.154	24.4
313.368	98.13
313.582	44.88
313.796	34.64
314.009	3.93
314.223	51.03
314.437	34.64
314.651	75.6
314.864	36.69
315.078	38.74
315.292	36.69
315.505	16.21
315.719	81.75
315.933	42.84
316.146	89.94
316.36	48.98
316.573	71.51
316.787	44.88
317.001	22.36
317.214	69.46
317.428	42.84
317.641	12.12
317.855	30.55
318.068	14.17
318.282	53.08
318.495	102.23
318.709	106.32
318.922	98.13
319.136	44.88
319.349	8.02
319.563	10.07
319.776	-4.27
319.99	12.12
320.203	94.04
320.417	55.12
320.63	44.88
320.843	57.17
321.057	71.51
321.27	22.36
321.483	-0.17
321.697	32.6
321.91	59.22
322.124	46.93
322.337	14.17
322.55	20.31
322.763	46.93
322.977	71.51
323.19	77.65
323.403	34.64
323.617	18.26
323.83	42.84
324.043	42.84
324.256	53.08
324.469	32.6
324.683	96.08
324.896	-16.55
325.109	28.5
325.322	34.64
325.535	24.4
325.748	51.03
325.962	-10.41
326.175	32.6
326.388	24.4
326.601	81.75
326.814	32.6
327.027	85.84
327.24	34.64
327.453	12.12
327.666	71.51
327.879	34.64
328.092	81.75
328.305	-26.79
328.518	22.36
328.731	46.93
328.944	44.88
329.157	36.69
329.37	85.84
329.583	18.26
329.796	30.55
330.009	40.79
330.222	104.28
330.435	139.09
330.648	51.03
330.861	-4.27
331.073	118.61
331.286	-20.65
331.499	55.12
331.712	5.97
331.925	-8.36
332.138	24.4
332.35	34.64
332.563	79.7
332.776	79.7
332.989	-57.51
333.202	42.84
333.414	65.36
333.627	48.98
333.84	40.79
334.053	69.46
334.265	46.93
334.478	40.79
334.691	8.02
334.903	36.69
335.116	36.69
335.329	89.94
335.541	91.99
335.754	38.74
335.966	-51.37
336.179	14.17
336.392	34.64
336.604	73.56
336.817	73.56
337.029	59.22
337.242	53.08
337.454	3.93
337.667	5.97
337.88	85.84
338.092	75.6
338.305	44.88
338.517	89.94
338.729	59.22
338.942	32.6
339.154	32.6
339.367	-16.55
339.579	28.5
339.792	40.79
340.004	135
340.217	57.17
340.429	85.84
340.641	-41.13
340.854	63.32
341.066	-10.41
341.278	3.93
341.491	57.17
341.703	77.65
341.915	98.13
342.128	65.36
342.34	102.23
342.552	38.74
342.764	61.27
342.977	69.46
343.189	48.98
343.401	18.26
343.613	89.94
343.826	102.23
344.038	-6.31
344.25	59.22
344.462	36.69
344.674	28.5
344.886	26.45
345.099	55.12
345.311	-12.46
345.523	38.74
345.735	-57.51
345.947	1.88
346.159	3.93
346.371	30.55
346.583	65.36
346.795	106.32
347.007	-51.37
347.219	87.89
347.431	20.31
347.643	147.28
347.855	94.04
348.067	110.42
348.279	10.07
348.491	75.6
348.703	57.17
348.915	32.6
349.127	1.88
349.339	102.23
349.551	48.98
349.763	26.45
349.975	14.17
350.187	20.31
350.399	3.93
350.61	53.08
350.822	30.55
351.034	30.55
351.246	-10.41
351.458	108.37
351.669	63.32
351.881	38.74
352.093	130.9
352.305	40.79
352.517	79.7
352.728	42.84
352.94	32.6
353.152	94.04
353.363	53.08
353.575	26.45
353.787	65.36
353.999	34.64
354.21	40.79
354.422	22.36
354.633	22.36
354.845	44.88
355.057	89.94
355.268	-0.17
355.48	26.45
355.692	69.46
355.903	22.36
356.115	77.65
356.326	48.98
356.538	-37.03
356.749	79.7
356.961	159.57
357.172	30.55
357.384	73.56
357.595	38.74
357.807	81.75
358.018	-34.99
358.23	16.21
358.441	8.02
358.653	48.98
358.864	-2.22
359.075	46.93
359.287	-61.61
359.498	89.94
359.709	22.36
359.921	53.08
360.132	-26.79
360.344	34.64
360.555	44.88
360.766	57.17
360.977	36.69
361.189	61.27
361.4	-41.13
361.611	30.55
361.823	65.36
362.034	118.61
362.245	20.31
362.456	55.12
362.667	94.04
362.879	46.93
363.09	28.5
363.301	48.98
363.512	65.36
363.723	28.5
363.935	-49.32
364.146	48.98
364.357	18.26
364.568	44.88
364.779	-20.65
364.99	-2.22
365.201	16.21
365.412	32.6
365.623	36.69
365.834	57.17
366.045	36.69
366.256	71.51
366.467	14.17
366.678	14.17
366.889	-16.55
367.1	36.69
367.311	14.17
367.522	75.6
367.733	57.17
367.944	14.17
368.155	122.71
368.366	59.22
368.577	67.41
368.788	83.8
368.999	71.51
369.209	85.84
369.42	38.74
369.631	3.93
369.842	18.26
370.053	135
370.264	10.07
370.474	36.69
370.685	46.93
370.896	112.47
371.107	59.22
371.317	20.31
371.528	51.03
371.739	69.46
371.95	46.93
372.16	67.41
372.371	24.4
372.582	14.17
372.792	14.17
373.003	22.36
373.214	71.51
373.424	44.88
373.635	28.5
373.846	91.99
374.056	83.8
374.267	73.56
374.477	40.79
374.688	98.13
374.898	61.27
375.109	5.97
375.319	83.8
375.53	5.97
375.74	73.56
375.951	102.23
376.161	28.5
376.372	87.89
376.582	89.94
376.793	42.84
377.003	8.02
377.214	59.22
377.424	24.4
377.635	44.88
377.845	14.17
378.055	102.23
378.266	75.6
378.476	98.13
378.686	112.47
378.897	40.79
379.107	96.08
379.317	65.36
379.528	55.12
379.738	87.89
379.948	-6.31
380.158	53.08
380.369	26.45
380.579	32.6
380.789	42.84
380.999	61.27
381.21	34.64
381.42	114.52
381.63	63.32
381.84	34.64
382.05	-0.17
382.261	73.56
382.471	36.69
382.681	55.12
382.891	114.52
383.101	-37.03
383.311	1.88
383.521	12.12
383.731	51.03
383.941	69.46
384.151	51.03
384.361	14.17
384.571	71.51
384.781	-51.37
384.991	61.27
385.201	91.99
385.411	81.75
385.621	137.04
385.831	40.79
386.041	28.5
386.251	59.22
386.461	51.03
386.671	51.03
386.881	94.04
387.091	36.69
387.301	-12.46
387.511	48.98
387.72	69.46
387.93	3.93
388.14	42.84
388.35	36.69
388.56	61.27
388.769	102.23
388.979	46.93
389.189	24.4
389.399	24.4
389.609	51.03
389.818	44.88
390.028	69.46
390.238	8.02
390.447	48.98
390.657	73.56
390.867	30.55
391.076	12.12
391.286	75.6
391.496	65.36
391.705	32.6
391.915	143.19
392.125	73.56
392.334	96.08
392.544	73.56
392.753	26.45
392.963	91.99
393.172	85.84
393.382	77.65
393.591	30.55
393.801	83.8
394.01	34.64
394.22	102.23
394.429	48.98
394.639	59.22
394.848	-12.46
395.058	116.56
395.267	67.41
395.477	1.88
395.686	77.65
395.895	34.64
396.105	32.6
396.314	102.23
396.524	10.07
396.733	28.5
396.942	79.7
397.152	59.22
397.361	126.8
397.57	120.66
397.78	98.13
397.989	190.29
398.198	32.6
398.407	63.32
398.617	85.84
398.826	18.26
399.035	132.95
399.244	63.32
399.453	44.88
399.663	57.17
399.872	81.75
400.081	65.36
400.29	112.47
400.499	104.28
400.708	100.18
400.917	-4.27
401.127	135
401.336	102.23
401.545	81.75
401.754	85.84
401.963	120.66
402.172	83.8
402.381	124.76
402.59	16.21
402.799	135
403.008	85.84
403.217	100.18
403.426	135
403.635	132.95
403.844	114.52
404.053	87.89
404.262	32.6
404.471	110.42
404.68	73.56
404.888	141.14
405.097	42.84
405.306	85.84
405.515	69.46
405.724	71.51
405.933	94.04
406.142	126.8
406.35	77.65
406.559	20.31
406.768	116.56
406.977	120.66
407.185	102.23
407.394	108.37
407.603	122.71
407.812	184.15
408.02	100.18
408.229	167.76
408.438	178
408.646	130.9
408.855	212.82
409.064	110.42
409.272	208.72
409.481	194.39
409.69	151.38
409.898	241.49
410.107	200.53
410.315	130.9
410.524	151.38
410.733	198.48
410.941	171.86
411.15	194.39
411.358	223.06
411.567	161.62
411.775	212.82
411.984	214.87
412.192	286.54
412.401	239.44
412.609	274.26
412.818	298.83
413.026	249.68
413.234	307.02
413.443	233.3
413.651	347.98
413.86	243.54
414.068	356.18
414.276	339.79
414.485	335.7
414.693	319.31
414.901	376.66
415.11	321.36
415.318	356.18
415.526	374.61
415.734	427.85
415.943	446.29
416.151	419.66
416.359	429.9
416.567	431.95
416.776	421.71
416.984	567.12
417.192	493.39
417.4	479.05
417.608	511.82
417.817	565.07
418.025	548.68
418.233	614.22
418.441	546.64
418.649	563.02
418.857	638.8
419.065	673.61
419.273	722.76
419.481	769.87
419.689	741.19
419.897	784.2
420.105	790.35
420.313	798.54
420.521	878.41
420.729	911.18
420.937	866.12
421.145	929.61
421.353	864.07
421.561	945.99
421.769	1091.4
421.977	1079.11
422.185	972.61
422.393	1087.3
422.601	1181.51
422.809	1240.9
423.017	1185.6
423.224	1312.58
423.432	1136.45
423.64	1244.99
423.848	1388.35
424.056	1335.1
424.263	1460.03
424.471	1400.64
424.679	1525.57
424.887	1644.35
425.094	1576.77
425.302	1609.53
425.51	1636.16
425.718	1738.55
425.925	1742.65
426.133	1851.19
426.341	1855.29
426.548	2000.69
426.756	1926.97
426.964	1994.55
427.171	2051.89
427.379	2160.44
427.586	2258.74
427.794	2320.18
428.001	2459.44
428.209	2533.17
428.417	2422.58
428.624	2701.1
428.832	2592.56
429.039	2580.27
429.247	2576.17
429.454	2920.23
429.662	3071.78
429.869	2854.7
430.076	3100.45
430.284	2940.71
430.491	3141.41
430.699	3200.8
430.906	3272.48
431.114	3245.86
431.321	3491.62
431.528	3575.58
431.736	3743.52
431.943	4017.94
432.15	3833.63
432.358	3749.66
432.565	3944.22
432.772	4028.18
432.979	4478.74
433.187	4249.36
433.394	4319
433.601	4605.71
433.808	4636.43
434.016	4554.51
434.223	4820.75
434.43	5205.77
434.637	4974.35
434.844	5426.95
435.052	5383.94
435.259	5406.47
435.466	5506.82
435.673	5408.51
435.88	5771.01
436.087	5895.93
436.294	6059.77
436.501	5998.33
436.708	5963.51
436.915	6235.89
437.122	6524.66
437.329	6375.16
437.537	6727.41
437.743	6741.74
437.95	6874.86
438.157	7180.01
438.364	7349.99
438.571	7261.93
438.778	7470.82
438.985	8150.74
439.192	7558.88
439.399	8017.63
439.606	7710.43
439.813	8273.62
440.02	8709.84
440.227	8527.57
440.433	8441.56
440.64	8713.94
440.847	8894.16
441.054	8982.22
441.261	9473.73
441.467	9522.88
441.674	9615.04
441.881	10133.18
442.088	9977.53
442.294	9840.32
442.501	10141.37
442.708	10264.25
442.914	10761.91
443.121	11374.25
443.328	10933.93
443.534	11818.66
443.741	11527.85
443.948	11325.1
444.154	12267.16
444.361	12021.41
444.568	12072.61
444.774	12027.55
444.981	12291.74
445.187	12693.14
445.394	13268.62
445.6	13137.55
445.807	14085.76
446.013	13796.99
446.22	13807.23
446.426	14724.72
446.633	14704.24
446.839	15132.27
447.046	14478.97
447.252	15521.38
447.459	15351.4
447.665	15455.85
447.871	16072.29
448.078	16850.52
448.284	16080.48
448.491	16293.47
448.697	17245.77
448.903	17393.23
449.11	17561.16
449.316	16901.72
449.522	17645.13
449.728	18167.36
449.935	18230.85
450.141	18478.65
450.347	18740.79
450.553	18157.12
450.76	18337.34
450.966	18916.92
451.172	18619.96
451.378	19351.09
451.584	19019.32
451.791	19361.33
451.997	19179.06
452.203	19895.85
452.409	19377.71
452.615	19164.72
452.821	18912.82
453.027	18568.76
453.233	19719.72
453.44	18763.32
453.646	19291.69
453.852	19326.51
454.058	19652.14
454.264	18910.77
454.47	19281.46
454.676	19021.36
454.882	19613.23
455.088	17993.28
455.294	17997.38
455.5	18773.56
455.705	18724.41
455.911	17804.87
456.117	17704.52
456.323	17225.29
456.529	16567.9
456.735	16944.72
456.941	16825.94
457.147	16332.38
457.352	16248.41
457.558	15826.53
457.764	15734.37
457.97	15355.5
458.176	15122.03
458.381	15128.17
458.587	14368.38
458.793	14474.87
458.999	13788.8
459.204	14646.9
459.41	14052.99
459.616	13446.79
459.821	13416.07
460.027	13330.06
460.233	13065.87
460.438	12406.42
460.644	12668.56
460.85	12109.47
461.055	11574.95
461.261	11685.54
461.466	10837.68
461.672	10604.21
461.878	11388.58
462.083	10532.53
462.289	10378.93
462.494	10385.08
462.7	9856.7
462.905	9481.92
463.111	9807.55
463.316	9813.7
463.522	9805.5
463.727	9758.4
463.932	9658.05
464.138	9809.6
464.343	9871.04
464.549	9377.48
464.754	9625.28
464.959	9670.34
465.165	9637.57
465.37	9127.63
465.575	8797.9
465.781	9434.82
465.986	9367.24
466.191	8916.69
466.397	8945.36
466.602	8466.13
466.807	8582.87
467.012	8656.59
467.218	8589.01
467.423	8492.76
467.628	8660.69
467.833	9076.43
468.038	8675.02
468.244	8408.79
468.449	8836.81
468.654	8507.09
468.859	8308.44
469.064	8675.02
469.269	8115.93
469.474	7997.15
469.679	8394.45
