Data from USB4F104151__8__12-58-27-000.txt Node

Date: Fri Mar 14 12:58:27 EDT 2025
User: louis
Spectrometer: USB4F10415
Trigger mode: 4
Integration Time (sec): 1.000000E-2
Scans to average: 1
Electric dark correction enabled: true
Nonlinearity correction enabled: false
Boxcar width: 0
XAxis mode: Wavelengths
Number of Pixels in Spectrum: 3648
>>>>>Begin Spectral Data<<<<<
178.204	-54.61
178.424	-54.61
178.644	-54.61
178.864	2.73
179.084	-56.66
179.304	-38.23
179.524	127.66
179.744	62.12
179.964	-36.18
180.184	-40.28
180.404	-5.46
180.624	33.45
180.844	-17.75
181.064	4.78
181.283	2.73
181.503	-62.8
181.723	-30.04
181.943	-95.57
182.163	88.75
182.383	23.21
182.602	78.51
182.822	53.93
183.042	21.16
183.262	47.79
183.482	4.78
183.701	70.31
183.921	6.83
184.141	43.69
184.361	45.74
184.58	23.21
184.8	-19.8
185.02	-7.51
185.239	-9.56
185.459	-3.41
185.679	41.64
185.898	-50.52
186.118	72.36
186.338	27.31
186.557	86.7
186.777	60.07
186.997	29.35
187.216	-3.41
187.436	53.93
187.655	8.87
187.875	82.6
188.095	15.02
188.314	55.98
188.534	19.11
188.753	64.17
188.973	-56.66
189.192	94.89
189.412	21.16
189.631	70.31
189.851	-21.85
190.07	27.31
190.29	4.78
190.509	8.87
190.729	-5.46
190.948	33.45
191.168	27.31
191.387	31.4
191.607	146.09
191.826	49.83
192.045	31.4
192.265	72.36
192.484	0.68
192.704	-21.85
192.923	43.69
193.142	45.74
193.362	39.59
193.581	29.35
193.8	33.45
194.02	23.21
194.239	-7.51
194.458	-36.18
194.678	2.73
194.897	41.64
195.116	41.64
195.335	0.68
195.555	8.87
195.774	31.4
195.993	41.64
196.212	64.17
196.432	21.16
196.651	43.69
196.87	-60.76
197.089	53.93
197.308	27.31
197.528	21.16
197.747	49.83
197.966	39.59
198.185	39.59
198.404	107.18
198.623	21.16
198.842	27.31
199.062	45.74
199.281	64.17
199.5	-36.18
199.719	-3.41
199.938	53.93
200.157	51.88
200.376	49.83
200.595	17.07
200.814	-11.61
201.033	-83.28
201.252	19.11
201.471	8.87
201.69	68.27
201.909	39.59
202.128	92.84
202.347	37.55
202.566	33.45
202.785	8.87
203.004	25.26
203.223	6.83
203.442	51.88
203.661	-7.51
203.879	68.27
204.098	66.22
204.317	-25.94
204.536	70.31
204.755	-27.99
204.974	-68.95
205.193	82.6
205.411	64.17
205.63	-13.65
205.849	117.42
206.068	29.35
206.287	49.83
206.505	-21.85
206.724	45.74
206.943	-52.56
207.162	41.64
207.381	-44.37
207.599	37.55
207.818	70.31
208.037	21.16
208.255	31.4
208.474	47.79
208.693	2.73
208.911	33.45
209.13	25.26
209.349	127.66
209.567	12.97
209.786	53.93
210.005	10.92
210.223	33.45
210.442	-27.99
210.661	64.17
210.879	80.55
211.098	39.59
211.316	2.73
211.535	72.36
211.753	-23.89
211.972	74.41
212.191	58.03
212.409	96.94
212.628	8.87
212.846	-19.8
213.065	72.36
213.283	94.89
213.502	8.87
213.72	-17.75
213.938	-42.32
214.157	31.4
214.375	8.87
214.594	-11.61
214.812	21.16
215.031	-91.48
215.249	-15.7
215.467	2.73
215.686	-1.37
215.904	23.21
216.122	47.79
216.341	39.59
216.559	37.55
216.778	68.27
216.996	-7.51
217.214	23.21
217.432	41.64
217.651	-25.94
217.869	15.02
218.087	10.92
218.306	70.31
218.524	82.6
218.742	-3.41
218.96	-11.61
219.179	-23.89
219.397	41.64
219.615	10.92
219.833	-1.37
220.051	-60.76
220.27	105.13
220.488	17.07
220.706	39.59
220.924	0.68
221.142	37.55
221.36	19.11
221.578	60.07
221.796	27.31
222.015	4.78
222.233	-9.56
222.451	55.98
222.669	-56.66
222.887	68.27
223.105	-19.8
223.323	37.55
223.541	47.79
223.759	-17.75
223.977	-19.8
224.195	66.22
224.413	29.35
224.631	-11.61
224.849	74.41
225.067	115.37
225.285	43.69
225.503	64.17
225.721	-34.13
225.939	70.31
226.157	51.88
226.375	-1.37
226.592	0.68
226.81	64.17
227.028	58.03
227.246	88.75
227.464	51.88
227.682	8.87
227.9	15.02
228.117	109.22
228.335	12.97
228.553	64.17
228.771	-15.7
228.989	-1.37
229.206	-23.89
229.424	49.83
229.642	-13.65
229.86	15.02
230.077	72.36
230.295	135.85
230.513	12.97
230.731	66.22
230.948	62.12
231.166	98.99
231.384	109.22
231.601	78.51
231.819	-3.41
232.037	-9.56
232.254	45.74
232.472	33.45
232.689	19.11
232.907	68.27
233.125	62.12
233.342	94.89
233.56	55.98
233.777	-1.37
233.995	10.92
234.213	55.98
234.43	-114
234.648	74.41
234.865	21.16
235.083	-19.8
235.3	6.83
235.518	60.07
235.735	64.17
235.953	39.59
236.17	15.02
236.388	86.7
236.605	12.97
236.822	37.55
237.04	78.51
237.257	-30.04
237.475	-9.56
237.692	15.02
237.909	2.73
238.127	0.68
238.344	15.02
238.562	33.45
238.779	43.69
238.996	-11.61
239.214	29.35
239.431	64.17
239.648	45.74
239.865	4.78
240.083	47.79
240.3	55.98
240.517	-3.41
240.735	39.59
240.952	127.66
241.169	-19.8
241.386	25.26
241.603	15.02
241.821	58.03
242.038	-5.46
242.255	51.88
242.472	17.07
242.689	84.65
242.907	55.98
243.124	47.79
243.341	33.45
243.558	33.45
243.775	68.27
243.992	19.11
244.209	72.36
244.426	53.93
244.643	43.69
244.86	21.16
245.078	21.16
245.295	82.6
245.512	90.79
245.729	23.21
245.946	27.31
246.163	10.92
246.38	53.93
246.597	12.97
246.814	72.36
247.031	4.78
247.248	21.16
247.464	25.26
247.681	35.5
247.898	-42.32
248.115	88.75
248.332	-36.18
248.549	107.18
248.766	62.12
248.983	33.45
249.2	80.55
249.417	37.55
249.633	55.98
249.85	47.79
250.067	29.35
250.284	37.55
250.501	31.4
250.717	-9.56
250.934	-77.14
251.151	43.69
251.368	-1.37
251.585	35.5
251.801	-9.56
252.018	-7.51
252.235	66.22
252.451	12.97
252.668	-3.41
252.885	23.21
253.102	-1.37
253.318	19.11
253.535	-17.75
253.752	37.55
253.968	58.03
254.185	33.45
254.401	-5.46
254.618	-30.04
254.835	-27.99
255.051	6.83
255.268	2.73
255.484	-15.7
255.701	-36.18
255.917	39.59
256.134	6.83
256.351	37.55
256.567	2.73
256.784	0.68
257	27.31
257.217	45.74
257.433	-30.04
257.65	86.7
257.866	78.51
258.082	53.93
258.299	-27.99
258.515	-21.85
258.732	10.92
258.948	53.93
259.165	47.79
259.381	-3.41
259.597	39.59
259.814	-62.8
260.03	98.99
260.246	-36.18
260.463	115.37
260.679	70.31
260.895	78.51
261.112	-11.61
261.328	4.78
261.544	60.07
261.761	31.4
261.977	111.27
262.193	76.46
262.409	105.13
262.626	6.83
262.842	60.07
263.058	-5.46
263.274	10.92
263.49	55.98
263.707	-19.8
263.923	58.03
264.139	62.12
264.355	55.98
264.571	94.89
264.787	-7.51
265.004	37.55
265.22	94.89
265.436	64.17
265.652	4.78
265.868	94.89
266.084	-11.61
266.3	-15.7
266.516	43.69
266.732	60.07
266.948	55.98
267.164	6.83
267.38	41.64
267.596	19.11
267.812	58.03
268.028	19.11
268.244	64.17
268.46	72.36
268.676	64.17
268.892	27.31
269.108	4.78
269.324	2.73
269.54	80.55
269.756	4.78
269.972	-11.61
270.188	39.59
270.403	70.31
270.619	35.5
270.835	8.87
271.051	47.79
271.267	37.55
271.483	25.26
271.698	27.31
271.914	43.69
272.13	4.78
272.346	41.64
272.562	53.93
272.777	31.4
272.993	-19.8
273.209	62.12
273.425	-64.85
273.64	127.66
273.856	-54.61
274.072	25.26
274.287	8.87
274.503	33.45
274.719	53.93
274.934	25.26
275.15	70.31
275.366	66.22
275.581	19.11
275.797	31.4
276.012	78.51
276.228	2.73
276.444	74.41
276.659	88.75
276.875	15.02
277.09	33.45
277.306	98.99
277.521	21.16
277.737	29.35
277.952	70.31
278.168	27.31
278.383	35.5
278.599	-19.8
278.814	94.89
279.03	35.5
279.245	113.32
279.461	60.07
279.676	62.12
279.892	66.22
280.107	15.02
280.322	49.83
280.538	37.55
280.753	35.5
280.969	53.93
281.184	29.35
281.399	141.99
281.615	49.83
281.83	53.93
282.045	-81.24
282.26	-23.89
282.476	29.35
282.691	-11.61
282.906	53.93
283.122	-7.51
283.337	53.93
283.552	64.17
283.767	2.73
283.983	33.45
284.198	-7.51
284.413	37.55
284.628	-23.89
284.843	-19.8
285.058	37.55
285.274	-9.56
285.489	-58.71
285.704	105.13
285.919	4.78
286.134	4.78
286.349	23.21
286.564	17.07
286.779	-15.7
286.995	31.4
287.21	-1.37
287.425	-3.41
287.64	-44.37
287.855	55.98
288.07	10.92
288.285	82.6
288.5	0.68
288.715	41.64
288.93	72.36
289.145	23.21
289.36	39.59
289.575	25.26
289.79	121.51
290.004	37.55
290.219	25.26
290.434	64.17
290.649	39.59
290.864	-5.46
291.079	43.69
291.294	8.87
291.509	49.83
291.724	21.16
291.938	29.35
292.153	10.92
292.368	-5.46
292.583	4.78
292.798	35.5
293.012	19.11
293.227	6.83
293.442	-23.89
293.657	12.97
293.871	41.64
294.086	84.65
294.301	31.4
294.516	31.4
294.73	-5.46
294.945	80.55
295.16	-27.99
295.374	72.36
295.589	-13.65
295.804	0.68
296.018	31.4
296.233	74.41
296.447	64.17
296.662	31.4
296.877	8.87
297.091	-21.85
297.306	19.11
297.52	74.41
297.735	39.59
297.949	31.4
298.164	-48.47
298.378	-44.37
298.593	25.26
298.807	-40.28
299.022	43.69
299.236	72.36
299.451	4.78
299.665	-27.99
299.88	68.27
300.094	35.5
300.309	60.07
300.523	12.97
300.737	10.92
300.952	70.31
301.166	60.07
301.381	80.55
301.595	39.59
301.809	-17.75
302.024	-13.65
302.238	62.12
302.452	2.73
302.667	80.55
302.881	82.6
303.095	-15.7
303.309	43.69
303.524	8.87
303.738	25.26
303.952	64.17
304.166	4.78
304.381	64.17
304.595	-50.52
304.809	37.55
305.023	8.87
305.237	23.21
305.452	82.6
305.666	-9.56
305.88	-7.51
306.094	70.31
306.308	2.73
306.522	41.64
306.736	45.74
306.95	53.93
307.164	33.45
307.379	-13.65
307.593	53.93
307.807	-1.37
308.021	62.12
308.235	191.14
308.449	8.87
308.663	39.59
308.877	35.5
309.091	74.41
309.305	-58.71
309.519	23.21
309.733	29.35
309.947	33.45
310.161	64.17
310.374	10.92
310.588	107.18
310.802	17.07
311.016	37.55
311.23	-11.61
311.444	-36.18
311.658	-83.28
311.872	45.74
312.085	43.69
312.299	98.99
312.513	10.92
312.727	84.65
312.941	23.21
313.154	4.78
313.368	-21.85
313.582	-21.85
313.796	29.35
314.009	31.4
314.223	31.4
314.437	-5.46
314.651	49.83
314.864	19.11
315.078	92.84
315.292	45.74
315.505	37.55
315.719	76.46
315.933	78.51
316.146	-27.99
316.36	10.92
316.573	49.83
316.787	121.51
317.001	-1.37
317.214	12.97
317.428	76.46
317.641	-48.47
317.855	49.83
318.068	70.31
318.282	29.35
318.495	84.65
318.709	105.13
318.922	47.79
319.136	47.79
319.349	152.23
319.563	74.41
319.776	12.97
319.99	64.17
320.203	29.35
320.417	62.12
320.63	-58.71
320.843	66.22
321.057	90.79
321.27	41.64
321.483	23.21
321.697	90.79
321.91	70.31
322.124	21.16
322.337	29.35
322.55	88.75
322.763	21.16
322.977	53.93
323.19	19.11
323.403	15.02
323.617	-27.99
323.83	-5.46
324.043	80.55
324.256	62.12
324.469	8.87
324.683	90.79
324.896	8.87
325.109	-5.46
325.322	-23.89
325.535	49.83
325.748	62.12
325.962	92.84
326.175	-13.65
326.388	80.55
326.601	-1.37
326.814	4.78
327.027	31.4
327.24	19.11
327.453	-19.8
327.666	37.55
327.879	37.55
328.092	45.74
328.305	84.65
328.518	4.78
328.731	39.59
328.944	39.59
329.157	12.97
329.37	25.26
329.583	31.4
329.796	90.79
330.009	25.26
330.222	68.27
330.435	33.45
330.648	41.64
330.861	74.41
331.073	76.46
331.286	129.7
331.499	88.75
331.712	58.03
331.925	33.45
332.138	41.64
332.35	90.79
332.563	-1.37
332.776	45.74
332.989	41.64
333.202	-21.85
333.414	68.27
333.627	66.22
333.84	51.88
334.053	6.83
334.265	43.69
334.478	8.87
334.691	31.4
334.903	78.51
335.116	39.59
335.329	80.55
335.541	76.46
335.754	47.79
335.966	-34.13
336.179	25.26
336.392	6.83
336.604	51.88
336.817	41.64
337.029	43.69
337.242	19.11
337.454	101.03
337.667	82.6
337.88	39.59
338.092	0.68
338.305	23.21
338.517	-64.85
338.729	31.4
338.942	-1.37
339.154	55.98
339.367	4.78
339.579	31.4
339.792	64.17
340.004	45.74
340.217	35.5
340.429	29.35
340.641	-25.94
340.854	6.83
341.066	15.02
341.278	119.46
341.491	101.03
341.703	10.92
341.915	29.35
342.128	68.27
342.34	-15.7
342.552	53.93
342.764	8.87
342.977	25.26
343.189	29.35
343.401	29.35
343.613	-27.99
343.826	70.31
344.038	-13.65
344.25	98.99
344.462	0.68
344.674	6.83
344.886	90.79
345.099	41.64
345.311	25.26
345.523	-23.89
345.735	-77.14
345.947	47.79
346.159	0.68
346.371	41.64
346.583	29.35
346.795	80.55
347.007	37.55
347.219	45.74
347.431	88.75
347.643	35.5
347.855	60.07
348.067	-17.75
348.279	-48.47
348.491	15.02
348.703	31.4
348.915	68.27
349.127	-17.75
349.339	58.03
349.551	12.97
349.763	19.11
349.975	39.59
350.187	68.27
350.399	4.78
350.61	29.35
350.822	60.07
351.034	72.36
351.246	8.87
351.458	64.17
351.669	23.21
351.881	51.88
352.093	78.51
352.305	25.26
352.517	45.74
352.728	80.55
352.94	-54.61
353.152	47.79
353.363	-9.56
353.575	72.36
353.787	76.46
353.999	98.99
354.21	127.66
354.422	4.78
354.633	43.69
354.845	33.45
355.057	-27.99
355.268	84.65
355.48	45.74
355.692	12.97
355.903	4.78
356.115	-17.75
356.326	25.26
356.538	105.13
356.749	74.41
356.961	-3.41
357.172	12.97
357.384	53.93
357.595	23.21
357.807	45.74
358.018	4.78
358.23	121.51
358.441	10.92
358.653	31.4
358.864	37.55
359.075	-1.37
359.287	49.83
359.498	12.97
359.709	12.97
359.921	-40.28
360.132	47.79
360.344	-25.94
360.555	66.22
360.766	21.16
360.977	10.92
361.189	-40.28
361.4	-3.41
361.611	78.51
361.823	66.22
362.034	70.31
362.245	105.13
362.456	-32.08
362.667	53.93
362.879	62.12
363.09	101.03
363.301	31.4
363.512	53.93
363.723	74.41
363.935	49.83
364.146	31.4
364.357	-7.51
364.568	8.87
364.779	19.11
364.99	113.32
365.201	101.03
365.412	33.45
365.623	25.26
365.834	78.51
366.045	51.88
366.256	45.74
366.467	31.4
366.678	37.55
366.889	96.94
367.1	-75.09
367.311	25.26
367.522	-3.41
367.733	17.07
367.944	90.79
368.155	70.31
368.366	84.65
368.577	-3.41
368.788	55.98
368.999	19.11
369.209	4.78
369.42	92.84
369.631	103.08
369.842	35.5
370.053	72.36
370.264	107.18
370.474	-1.37
370.685	-48.47
370.896	12.97
371.107	58.03
371.317	60.07
371.528	17.07
371.739	25.26
371.95	45.74
372.16	103.08
372.371	-15.7
372.582	10.92
372.792	94.89
373.003	39.59
373.214	2.73
373.424	119.46
373.635	23.21
373.846	70.31
374.056	12.97
374.267	-3.41
374.477	6.83
374.688	31.4
374.898	29.35
375.109	119.46
375.319	17.07
375.53	8.87
375.74	53.93
375.951	94.89
376.161	41.64
376.372	41.64
376.582	90.79
376.793	39.59
377.003	-23.89
377.214	74.41
377.424	86.7
377.635	72.36
377.845	19.11
378.055	39.59
378.266	47.79
378.476	66.22
378.686	86.7
378.897	90.79
379.107	82.6
379.317	29.35
379.528	15.02
379.738	113.32
379.948	37.55
380.158	10.92
380.369	10.92
380.579	-1.37
380.789	37.55
380.999	47.79
381.21	-15.7
381.42	88.75
381.63	-1.37
381.84	41.64
382.05	70.31
382.261	84.65
382.471	58.03
382.681	47.79
382.891	70.31
383.101	70.31
383.311	-25.94
383.521	-17.75
383.731	60.07
383.941	105.13
384.151	-44.37
384.361	21.16
384.571	-9.56
384.781	55.98
384.991	41.64
385.201	45.74
385.411	2.73
385.621	64.17
385.831	47.79
386.041	29.35
386.251	70.31
386.461	55.98
386.671	68.27
386.881	6.83
387.091	92.84
387.301	31.4
387.511	53.93
387.72	37.55
387.93	43.69
388.14	23.21
388.35	41.64
388.56	144.04
388.769	23.21
388.979	62.12
389.189	39.59
389.399	2.73
389.609	49.83
389.818	49.83
390.028	-1.37
390.238	60.07
390.447	74.41
390.657	51.88
390.867	47.79
391.076	72.36
391.286	45.74
391.496	23.21
391.705	17.07
391.915	62.12
392.125	23.21
392.334	101.03
392.544	68.27
392.753	90.79
392.963	-5.46
393.172	-1.37
393.382	19.11
393.591	49.83
393.801	17.07
394.01	15.02
394.22	72.36
394.429	70.31
394.639	64.17
394.848	39.59
395.058	103.08
395.267	12.97
395.477	88.75
395.686	60.07
395.895	55.98
396.105	23.21
396.314	127.66
396.524	139.94
396.733	51.88
396.942	-1.37
397.152	29.35
397.361	74.41
397.57	109.22
397.78	150.18
397.989	80.55
398.198	133.8
398.407	43.69
398.617	47.79
398.826	115.37
399.035	80.55
399.244	55.98
399.453	17.07
399.663	76.46
399.872	51.88
400.081	35.5
400.29	101.03
400.499	29.35
400.708	-11.61
400.917	92.84
401.127	98.99
401.336	94.89
401.545	107.18
401.754	68.27
401.963	107.18
402.172	62.12
402.381	115.37
402.59	70.31
402.799	96.94
403.008	74.41
403.217	90.79
403.426	105.13
403.635	47.79
403.844	74.41
404.053	92.84
404.262	148.14
404.471	129.7
404.68	123.56
404.888	70.31
405.097	58.03
405.306	84.65
405.515	129.7
405.724	82.6
405.933	127.66
406.142	94.89
406.35	193.19
406.559	141.99
406.768	162.47
406.977	201.38
407.185	187.05
407.394	137.9
407.603	123.56
407.812	180.9
408.02	127.66
408.229	148.14
408.438	105.13
408.646	172.71
408.855	121.51
409.064	166.57
409.272	144.04
409.481	258.73
409.69	223.91
409.898	262.82
410.107	189.1
410.315	185
410.524	232.1
410.733	199.34
410.941	225.96
411.15	166.57
411.358	215.72
411.567	268.97
411.775	201.38
411.984	303.78
412.192	316.07
412.401	328.36
412.609	283.3
412.818	332.45
413.026	414.37
413.234	326.31
413.443	373.41
413.651	367.27
413.86	266.92
414.068	291.49
414.276	414.37
414.485	430.76
414.693	361.13
414.901	498.34
415.11	357.03
415.318	385.7
415.526	457.38
415.734	547.49
415.943	502.43
416.151	516.77
416.359	520.87
416.567	461.48
416.776	629.41
416.984	561.83
417.192	598.69
417.4	639.65
417.608	557.73
417.817	680.61
418.025	688.8
418.233	725.66
418.441	733.86
418.649	752.29
418.857	785.05
419.065	805.53
419.273	795.29
419.481	799.39
419.689	889.5
419.897	903.84
420.105	930.46
420.313	922.27
420.521	1047.19
420.729	1041.05
420.937	993.95
421.145	1022.62
421.353	1122.97
421.561	1176.22
421.769	1145.5
421.977	1280.66
422.185	1241.75
422.393	1462.93
422.601	1362.58
422.809	1243.8
423.017	1460.88
423.224	1505.94
423.432	1467.03
423.64	1581.71
423.848	1735.31
424.056	1702.54
424.263	1718.93
424.471	1710.74
424.679	1802.9
424.887	1804.94
425.094	1968.78
425.302	1911.44
425.51	1921.68
425.718	2042.51
425.925	2017.93
426.133	2146.95
426.341	2271.88
426.548	2349.7
426.756	2376.33
426.964	2413.19
427.171	2550.4
427.379	2577.03
427.586	2691.71
427.794	2628.23
428.001	2892.41
428.209	2925.18
428.417	2945.66
428.624	3050.11
428.832	3121.79
429.039	3052.16
429.247	3215.99
429.454	3398.26
429.662	3537.52
429.869	3396.21
430.076	3474.04
430.284	3433.08
430.491	3619.44
430.699	3955.31
430.906	3951.21
431.114	3953.26
431.321	4160.11
431.528	4127.34
431.736	4369
431.943	4663.91
432.15	4563.56
432.358	4567.65
432.565	4749.92
432.772	4702.82
432.979	4991.58
433.187	5124.7
433.394	5001.82
433.601	5651.03
433.808	5579.35
434.016	5503.57
434.223	5642.84
434.43	6011.47
434.637	5765.71
434.844	6163.02
435.052	6359.63
435.259	6271.56
435.466	6412.87
435.673	6402.63
435.88	6777.41
436.087	7238.2
436.294	7131.71
436.501	7072.32
436.708	7045.7
436.915	7514.68
437.122	7703.09
437.329	7735.86
437.537	7901.75
437.743	8049.2
437.95	8018.48
438.157	8409.64
438.364	8770.08
438.571	8682.02
438.778	8735.27
438.985	9548.31
439.192	9173.53
439.399	9591.32
439.606	9304.6
439.813	9673.24
440.02	10326.54
440.227	10349.07
440.433	10215.95
440.64	10621.45
440.847	10502.67
441.054	10441.23
441.261	11231.74
441.467	11252.22
441.674	11487.74
441.881	11901.43
442.088	11868.66
442.294	11696.63
442.501	12014.07
442.708	12231.15
442.914	12829.16
443.121	13371.87
443.328	12956.13
443.534	13947.35
443.741	13466.08
443.948	13218.27
444.154	14453.2
444.361	14354.9
444.568	14526.92
444.774	14430.67
444.981	14428.62
445.187	15075.78
445.394	15540.67
445.6	15458.75
445.807	16720.3
446.013	16210.36
446.22	16585.13
446.426	17088.93
446.633	17209.76
446.839	18080.15
447.046	17297.83
447.252	18033.05
447.459	18190.74
447.665	18391.44
447.871	19245.44
448.078	19630.46
448.284	18768.27
448.491	19085.7
448.697	20109.69
448.903	20236.66
449.11	20580.72
449.316	20072.82
449.522	20697.45
449.728	21090.66
449.935	21311.85
450.141	21199.21
450.347	21864.8
450.553	21451.11
450.76	21541.22
450.966	22047.07
451.172	21809.5
451.378	22427.99
451.584	21954.91
451.791	22548.82
451.997	22630.74
452.203	22909.26
452.409	22853.97
452.615	22909.26
452.821	22094.17
453.027	21703.01
453.233	22815.05
453.44	21940.57
453.646	22339.93
453.852	22413.65
454.058	23021.9
454.264	22196.57
454.47	22159.7
454.676	21987.68
454.882	22839.63
455.088	20873.58
455.294	20988.27
455.5	21584.23
455.705	21668.19
455.911	20787.57
456.117	20408.69
456.323	20121.98
456.529	19095.94
456.735	20101.5
456.941	19773.82
457.147	19294.6
457.352	18635.15
457.558	18395.54
457.764	18608.53
457.97	17932.7
458.176	17770.91
458.381	17801.63
458.587	16535.98
458.793	16855.47
458.999	15940.02
459.204	17179.04
459.41	16501.17
459.616	15262.15
459.821	15555.01
460.027	15391.17
460.233	14987.72
460.438	14297.55
460.644	14692.81
460.85	13879.77
461.055	13402.59
461.261	13650.39
461.466	12493.29
461.672	12335.6
461.878	13046.24
462.083	12212.72
462.289	12175.86
462.494	11813.37
462.7	11401.72
462.905	11022.85
463.111	11377.15
463.316	11522.55
463.522	11241.98
463.727	11176.45
463.932	11121.15
464.138	11008.51
464.343	11117.06
464.549	10861.06
464.754	11366.91
464.959	11336.19
465.165	10887.68
465.37	10668.55
465.575	10193.42
465.781	10553.87
465.986	10867.2
466.191	10211.85
466.397	10228.24
466.602	9613.85
466.807	9900.56
467.012	10103.31
467.218	9892.37
467.423	9888.28
467.628	9697.81
467.833	10375.69
468.038	9992.72
468.244	9767.45
468.449	10080.78
468.654	9966.1
