Data from USB4F104151__37__12-58-58-186.txt Node

Date: Fri Mar 14 12:58:58 EDT 2025
User: louis
Spectrometer: USB4F10415
Trigger mode: 4
Integration Time (sec): 1.000000E-2
Scans to average: 1
Electric dark correction enabled: true
Nonlinearity correction enabled: false
Boxcar width: 0
XAxis mode: Wavelengths
Number of Pixels in Spectrum: 3648
>>>>>Begin Spectral Data<<<<<
178.204	-17.24
178.424	-17.24
178.644	-17.24
178.864	-15.19
179.084	-11.09
179.304	13.48
179.524	-35.67
179.744	-54.1
179.964	23.72
180.184	19.63
180.404	23.72
180.624	15.53
180.844	-4.95
181.064	-19.29
181.283	40.11
181.503	-39.76
181.723	17.58
181.943	56.49
182.163	9.39
182.383	-43.86
182.602	103.59
182.822	56.49
183.042	-29.52
183.262	60.59
183.482	-11.09
183.701	29.87
183.921	17.58
184.141	36.01
184.361	-19.29
184.58	-17.24
184.8	38.06
185.02	-68.44
185.239	31.91
185.459	25.77
185.679	107.69
185.898	-58.2
186.118	29.87
186.338	3.24
186.557	79.02
186.777	15.53
186.997	74.92
187.216	31.91
187.436	113.83
187.655	19.63
187.875	48.3
188.095	-64.34
188.314	3.24
188.534	83.11
188.753	15.53
188.973	-50
189.192	-9.05
189.412	5.29
189.631	29.87
189.851	74.92
190.07	58.54
190.29	7.34
190.509	81.07
190.729	-25.43
190.948	36.01
191.168	52.39
191.387	25.77
191.607	-60.24
191.826	23.72
192.045	93.35
192.265	-27.48
192.484	60.59
192.704	-0.85
192.923	29.87
193.142	68.78
193.362	54.44
193.581	-33.62
193.8	-21.33
194.02	52.39
194.239	48.3
194.458	-7
194.678	-0.85
194.897	52.39
195.116	-19.29
195.335	-31.57
195.555	5.29
195.774	-19.29
195.993	-45.91
196.212	19.63
196.432	25.77
196.651	46.25
196.87	-17.24
197.089	-15.19
197.308	7.34
197.528	-0.85
197.747	58.54
197.966	-31.57
198.185	9.39
198.404	1.19
198.623	27.82
198.842	105.64
199.062	58.54
199.281	89.26
199.5	68.78
199.719	79.02
199.938	21.67
200.157	21.67
200.376	31.91
200.595	54.44
200.814	-13.14
201.033	56.49
201.252	-62.29
201.471	81.07
201.69	50.35
201.909	-47.96
202.128	-25.43
202.347	72.87
202.566	7.34
202.785	-39.76
203.004	-11.09
203.223	85.16
203.442	11.43
203.661	25.77
203.879	-4.95
204.098	29.87
204.317	27.82
204.536	-2.9
204.755	79.02
204.974	38.06
205.193	70.83
205.411	79.02
205.63	-41.81
205.849	64.68
206.068	87.21
206.287	-31.57
206.505	70.83
206.724	7.34
206.943	68.78
207.162	27.82
207.381	38.06
207.599	38.06
207.818	5.29
208.037	33.96
208.255	-11.09
208.474	79.02
208.693	-13.14
208.911	23.72
209.13	-11.09
209.349	19.63
209.567	50.35
209.786	89.26
210.005	87.21
210.223	46.25
210.442	7.34
210.661	3.24
210.879	-41.81
211.098	27.82
211.316	-13.14
211.535	-9.05
211.753	-39.76
211.972	13.48
212.191	64.68
212.409	7.34
212.628	50.35
212.846	29.87
213.065	91.31
213.283	70.83
213.502	64.68
213.72	17.58
213.938	-4.95
214.157	-82.77
214.375	9.39
214.594	48.3
214.812	33.96
215.031	-15.19
215.249	3.24
215.467	72.87
215.686	46.25
215.904	74.92
216.122	-4.95
216.341	11.43
216.559	9.39
216.778	-19.29
216.996	-33.62
217.214	17.58
217.432	79.02
217.651	33.96
217.869	40.11
218.087	-33.62
218.306	64.68
218.524	44.2
218.742	17.58
218.96	7.34
219.179	1.19
219.397	-25.43
219.615	50.35
219.833	76.97
220.051	15.53
220.27	-52.05
220.488	-43.86
220.706	1.19
220.924	-9.05
221.142	-7
221.36	56.49
221.578	-41.81
221.796	7.34
222.015	-33.62
222.233	70.83
222.451	-11.09
222.669	97.45
222.887	40.11
223.105	79.02
223.323	-50
223.541	13.48
223.759	-31.57
223.977	9.39
224.195	29.87
224.413	21.67
224.631	7.34
224.849	-0.85
225.067	113.83
225.285	-4.95
225.503	13.48
225.721	-7
225.939	50.35
226.157	40.11
226.375	42.15
226.592	52.39
226.81	48.3
227.028	-74.58
227.246	44.2
227.464	40.11
227.682	17.58
227.9	19.63
228.117	31.91
228.335	54.44
228.553	29.87
228.771	66.73
228.989	5.29
229.206	25.77
229.424	5.29
229.642	52.39
229.86	-64.34
230.077	54.44
230.295	62.63
230.513	25.77
230.731	19.63
230.948	-0.85
231.166	91.31
231.384	31.91
231.601	-2.9
231.819	64.68
232.037	-13.14
232.254	17.58
232.472	-35.67
232.689	-31.57
232.907	-0.85
233.125	15.53
233.342	-0.85
233.56	40.11
233.777	-15.19
233.995	-0.85
234.213	15.53
234.43	19.63
234.648	17.58
234.865	72.87
235.083	38.06
235.3	-0.85
235.518	25.77
235.735	25.77
235.953	-27.48
236.17	70.83
236.388	-25.43
236.605	5.29
236.822	44.2
237.04	72.87
237.257	42.15
237.475	1.19
237.692	-19.29
237.909	70.83
238.127	38.06
238.344	-17.24
238.562	91.31
238.779	56.49
238.996	-9.05
239.214	-33.62
239.431	38.06
239.648	19.63
239.865	-23.38
240.083	11.43
240.3	29.87
240.517	-43.86
240.735	25.77
240.952	42.15
241.169	56.49
241.386	38.06
241.603	-0.85
241.821	-0.85
242.038	23.72
242.255	-19.29
242.472	81.07
242.689	5.29
242.907	-19.29
243.124	11.43
243.341	-19.29
243.558	-11.09
243.775	101.55
243.992	-31.57
244.209	62.63
244.426	46.25
244.643	54.44
244.86	-4.95
245.078	70.83
245.295	5.29
245.512	29.87
245.729	-9.05
245.946	21.67
246.163	5.29
246.38	29.87
246.597	46.25
246.814	50.35
247.031	-35.67
247.248	-11.09
247.464	42.15
247.681	5.29
247.898	-43.86
248.115	76.97
248.332	42.15
248.549	79.02
248.766	-2.9
248.983	60.59
249.2	17.58
249.417	-39.76
249.633	38.06
249.85	-4.95
250.067	17.58
250.284	42.15
250.501	19.63
250.717	58.54
250.934	11.43
251.151	-23.38
251.368	-9.05
251.585	72.87
251.801	-27.48
252.018	-7
252.235	19.63
252.451	1.19
252.668	-27.48
252.885	42.15
253.102	3.24
253.318	33.96
253.535	-45.91
253.752	25.77
253.968	52.39
254.185	72.87
254.401	29.87
254.618	7.34
254.835	70.83
255.051	46.25
255.268	36.01
255.484	42.15
255.701	-4.95
255.917	36.01
256.134	-7
256.351	13.48
256.567	19.63
256.784	36.01
257	11.43
257.217	-19.29
257.433	-2.9
257.65	-2.9
257.866	-41.81
258.082	15.53
258.299	23.72
258.515	13.48
258.732	3.24
258.948	1.19
259.165	3.24
259.381	27.82
259.597	-29.52
259.814	5.29
260.03	62.63
260.246	-2.9
260.463	5.29
260.679	107.69
260.895	-13.14
261.112	15.53
261.328	-45.91
261.544	-7
261.761	87.21
261.977	72.87
262.193	13.48
262.409	21.67
262.626	-7
262.842	29.87
263.058	-17.24
263.274	70.83
263.49	54.44
263.707	72.87
263.923	-27.48
264.139	-13.14
264.355	27.82
264.571	29.87
264.787	44.2
265.004	-25.43
265.22	66.73
265.436	-17.24
265.652	50.35
265.868	15.53
266.084	58.54
266.3	38.06
266.516	-23.38
266.732	-4.95
266.948	-50
267.164	50.35
267.38	-15.19
267.596	87.21
267.812	44.2
268.028	56.49
268.244	-27.48
268.46	15.53
268.676	38.06
268.892	25.77
269.108	36.01
269.324	83.11
269.54	23.72
269.756	21.67
269.972	5.29
270.188	3.24
270.403	89.26
270.619	-9.05
270.835	48.3
271.051	93.35
271.267	17.58
271.483	48.3
271.698	31.91
271.914	103.59
272.13	-27.48
272.346	36.01
272.562	25.77
272.777	9.39
272.993	52.39
273.209	60.59
273.425	-41.81
273.64	-43.86
273.856	-9.05
274.072	23.72
274.287	44.2
274.503	-27.48
274.719	-13.14
274.934	40.11
275.15	-25.43
275.366	52.39
275.581	17.58
275.797	-9.05
276.012	48.3
276.228	-66.39
276.444	46.25
276.659	15.53
276.875	-50
277.09	27.82
277.306	48.3
277.521	40.11
277.737	17.58
277.952	23.72
278.168	-0.85
278.383	29.87
278.599	-37.72
278.814	-35.67
279.03	-0.85
279.245	111.78
279.461	25.77
279.676	-13.14
279.892	-27.48
280.107	-23.38
280.322	54.44
280.538	-31.57
280.753	50.35
280.969	5.29
281.184	-13.14
281.399	87.21
281.615	-19.29
281.83	-74.58
282.045	99.5
282.26	-52.05
282.476	-39.76
282.691	48.3
282.906	7.34
283.122	-13.14
283.337	58.54
283.552	17.58
283.767	-19.29
283.983	89.26
284.198	25.77
284.413	33.96
284.628	48.3
284.843	83.11
285.058	66.73
285.274	9.39
285.489	46.25
285.704	-0.85
285.919	-11.09
286.134	54.44
286.349	36.01
286.564	66.73
286.779	-56.15
286.995	74.92
287.21	-43.86
287.425	97.45
287.64	15.53
287.855	33.96
288.07	25.77
288.285	3.24
288.5	48.3
288.715	-7
288.93	7.34
289.145	9.39
289.36	19.63
289.575	70.83
289.79	25.77
290.004	48.3
290.219	62.63
290.434	-11.09
290.649	-13.14
290.864	15.53
291.079	38.06
291.294	31.91
291.509	3.24
291.724	-25.43
291.938	-31.57
292.153	-27.48
292.368	-4.95
292.583	15.53
292.798	64.68
293.012	17.58
293.227	68.78
293.442	60.59
293.657	-29.52
293.871	25.77
294.086	64.68
294.301	60.59
294.516	54.44
294.73	27.82
294.945	38.06
295.16	29.87
295.374	87.21
295.589	-23.38
295.804	-13.14
296.018	33.96
296.233	29.87
296.447	68.78
296.662	21.67
296.877	50.35
297.091	50.35
297.306	46.25
297.52	-4.95
297.735	40.11
297.949	21.67
298.164	1.19
298.378	-47.96
298.593	105.64
298.807	68.78
299.022	36.01
299.236	-9.05
299.451	-2.9
299.665	9.39
299.88	3.24
300.094	27.82
300.309	29.87
300.523	23.72
300.737	15.53
300.952	3.24
301.166	3.24
301.381	48.3
301.595	38.06
301.809	1.19
302.024	-21.33
302.238	27.82
302.452	33.96
302.667	48.3
302.881	-31.57
303.095	58.54
303.309	-21.33
303.524	56.49
303.738	-0.85
303.952	11.43
304.166	58.54
304.381	-43.86
304.595	19.63
304.809	25.77
305.023	-7
305.237	54.44
305.452	-27.48
305.666	48.3
305.88	66.73
306.094	9.39
306.308	107.69
306.522	52.39
306.736	3.24
306.95	33.96
307.164	62.63
307.379	-31.57
307.593	21.67
307.807	66.73
308.021	62.63
308.235	-17.24
308.449	25.77
308.663	5.29
308.877	72.87
309.091	-47.96
309.305	83.11
309.519	50.35
309.733	-29.52
309.947	-45.91
310.161	-25.43
310.374	1.19
310.588	99.5
310.802	21.67
311.016	3.24
311.23	-4.95
311.444	83.11
311.658	-33.62
311.872	31.91
312.085	9.39
312.299	7.34
312.513	19.63
312.727	83.11
312.941	-7
313.154	-7
313.368	48.3
313.582	29.87
313.796	-29.52
314.009	40.11
314.223	-2.9
314.437	-2.9
314.651	17.58
314.864	-41.81
315.078	27.82
315.292	48.3
315.505	52.39
315.719	5.29
315.933	5.29
316.146	-9.05
316.36	-27.48
316.573	50.35
316.787	36.01
317.001	54.44
317.214	-2.9
317.428	31.91
317.641	38.06
317.855	62.63
318.068	56.49
318.282	79.02
318.495	-7
318.709	70.83
318.922	7.34
319.136	-0.85
319.349	23.72
319.563	97.45
319.776	152.74
319.99	-56.15
320.203	31.91
320.417	72.87
320.63	136.36
320.843	23.72
321.057	81.07
321.27	52.39
321.483	50.35
321.697	21.67
321.91	-19.29
322.124	36.01
322.337	76.97
322.55	-0.85
322.763	21.67
322.977	13.48
323.19	25.77
323.403	1.19
323.617	21.67
323.83	17.58
324.043	64.68
324.256	60.59
324.469	23.72
324.683	-41.81
324.896	29.87
325.109	7.34
325.322	36.01
325.535	15.53
325.748	17.58
325.962	62.63
326.175	-4.95
326.388	23.72
326.601	-2.9
326.814	3.24
327.027	25.77
327.24	46.25
327.453	-11.09
327.666	-23.38
327.879	79.02
328.092	85.16
328.305	66.73
328.518	66.73
328.731	33.96
328.944	-0.85
329.157	40.11
329.37	38.06
329.583	50.35
329.796	109.74
330.009	11.43
330.222	36.01
330.435	40.11
330.648	48.3
330.861	54.44
331.073	17.58
331.286	25.77
331.499	21.67
331.712	50.35
331.925	21.67
332.138	21.67
332.35	31.91
332.563	11.43
332.776	79.02
332.989	-74.58
333.202	-0.85
333.414	-9.05
333.627	-37.72
333.84	1.19
334.053	29.87
334.265	-17.24
334.478	29.87
334.691	25.77
334.903	48.3
335.116	-7
335.329	140.46
335.541	36.01
335.754	-0.85
335.966	21.67
336.179	40.11
336.392	115.88
336.604	46.25
336.817	19.63
337.029	70.83
337.242	25.77
337.454	72.87
337.667	54.44
337.88	-39.76
338.092	9.39
338.305	56.49
338.517	101.55
338.729	76.97
338.942	48.3
339.154	79.02
339.367	-17.24
339.579	9.39
339.792	9.39
340.004	29.87
340.217	23.72
340.429	48.3
340.641	31.91
340.854	7.34
341.066	15.53
341.278	62.63
341.491	70.83
341.703	33.96
341.915	-0.85
342.128	17.58
342.34	-0.85
342.552	19.63
342.764	40.11
342.977	56.49
343.189	48.3
343.401	44.2
343.613	1.19
343.826	40.11
344.038	-23.38
344.25	36.01
344.462	1.19
344.674	48.3
344.886	62.63
345.099	95.4
345.311	62.63
345.523	79.02
345.735	74.92
345.947	21.67
346.159	56.49
346.371	11.43
346.583	33.96
346.795	36.01
347.007	-21.33
347.219	11.43
347.431	31.91
347.643	48.3
347.855	-45.91
348.067	40.11
348.279	46.25
348.491	46.25
348.703	-11.09
348.915	70.83
349.127	19.63
349.339	79.02
349.551	-2.9
349.763	-7
349.975	13.48
350.187	87.21
350.399	-31.57
350.61	38.06
350.822	36.01
351.034	101.55
351.246	81.07
351.458	11.43
351.669	52.39
351.881	89.26
352.093	81.07
352.305	31.91
352.517	7.34
352.728	72.87
352.94	29.87
353.152	38.06
353.363	-31.57
353.575	46.25
353.787	54.44
353.999	99.5
354.21	38.06
354.422	62.63
354.633	-4.95
354.845	52.39
355.057	33.96
355.268	-23.38
355.48	-15.19
355.692	-11.09
355.903	13.48
356.115	-0.85
356.326	25.77
356.538	70.83
356.749	17.58
356.961	64.68
357.172	46.25
357.384	64.68
357.595	17.58
357.807	105.64
358.018	-21.33
358.23	17.58
358.441	93.35
358.653	64.68
358.864	-15.19
359.075	50.35
359.287	11.43
359.498	27.82
359.709	13.48
359.921	25.77
360.132	-62.29
360.344	-0.85
360.555	-4.95
360.766	21.67
360.977	15.53
361.189	40.11
361.4	56.49
361.611	9.39
361.823	40.11
362.034	54.44
362.245	25.77
362.456	42.15
362.667	87.21
362.879	23.72
363.09	15.53
363.301	-31.57
363.512	107.69
363.723	66.73
363.935	-15.19
364.146	38.06
364.357	29.87
364.568	115.88
364.779	52.39
364.99	31.91
365.201	74.92
365.412	52.39
365.623	25.77
365.834	13.48
366.045	-39.76
366.256	50.35
366.467	29.87
366.678	23.72
366.889	62.63
367.1	3.24
367.311	9.39
367.522	36.01
367.733	124.07
367.944	83.11
368.155	74.92
368.366	119.98
368.577	46.25
368.788	11.43
368.999	-39.76
369.209	25.77
369.42	36.01
369.631	134.31
369.842	68.78
370.053	31.91
370.264	52.39
370.474	66.73
370.685	1.19
370.896	62.63
371.107	-19.29
371.317	5.29
371.528	27.82
371.739	13.48
371.95	31.91
372.16	-43.86
372.371	-0.85
372.582	58.54
372.792	-4.95
373.003	46.25
373.214	48.3
373.424	31.91
373.635	33.96
373.846	62.63
374.056	27.82
374.267	25.77
374.477	15.53
374.688	-19.29
374.898	33.96
375.109	40.11
375.319	42.15
375.53	19.63
375.74	-11.09
375.951	60.59
376.161	29.87
376.372	9.39
376.582	52.39
376.793	1.19
377.003	33.96
377.214	27.82
377.424	23.72
377.635	83.11
377.845	21.67
378.055	93.35
378.266	21.67
378.476	83.11
378.686	21.67
378.897	136.36
379.107	5.29
379.317	95.4
379.528	52.39
379.738	-25.43
379.948	-29.52
380.158	79.02
380.369	-13.14
380.579	5.29
380.789	58.54
380.999	62.63
381.21	-13.14
381.42	126.12
381.63	87.21
381.84	13.48
382.05	66.73
382.261	62.63
382.471	36.01
382.681	87.21
382.891	-2.9
383.101	115.88
383.311	19.63
383.521	70.83
383.731	113.83
383.941	42.15
384.151	-31.57
384.361	11.43
384.571	7.34
384.781	56.49
384.991	46.25
385.201	29.87
385.411	56.49
385.621	44.2
385.831	-2.9
386.041	-41.81
386.251	79.02
386.461	5.29
386.671	56.49
386.881	7.34
387.091	66.73
387.301	-9.05
387.511	9.39
387.72	25.77
387.93	15.53
388.14	38.06
388.35	7.34
388.56	33.96
388.769	27.82
388.979	40.11
389.189	52.39
389.399	56.49
389.609	27.82
389.818	38.06
390.028	23.72
390.238	89.26
390.447	13.48
390.657	46.25
390.867	15.53
391.076	-2.9
391.286	64.68
391.496	-13.14
391.705	97.45
391.915	79.02
392.125	70.83
392.334	27.82
392.544	23.72
392.753	48.3
392.963	31.91
393.172	97.45
393.382	38.06
393.591	-2.9
393.801	36.01
394.01	83.11
394.22	124.07
394.429	70.83
394.639	119.98
394.848	21.67
395.058	81.07
395.267	99.5
395.477	-13.14
395.686	56.49
395.895	79.02
396.105	103.59
396.314	-9.05
396.524	117.93
396.733	66.73
396.942	81.07
397.152	56.49
397.361	70.83
397.57	38.06
397.78	128.17
397.989	-0.85
398.198	60.59
398.407	72.87
398.617	107.69
398.826	87.21
399.035	52.39
399.244	68.78
399.453	76.97
399.663	44.2
399.872	44.2
400.081	27.82
400.29	130.22
400.499	60.59
400.708	85.16
400.917	68.78
401.127	19.63
401.336	62.63
401.545	119.98
401.754	83.11
401.963	70.83
402.172	31.91
402.381	56.49
402.59	5.29
402.799	148.65
403.008	48.3
403.217	124.07
403.426	105.64
403.635	60.59
403.844	54.44
404.053	56.49
404.262	58.54
404.471	105.64
404.68	7.34
404.888	68.78
405.097	76.97
405.306	54.44
405.515	97.45
405.724	113.83
405.933	146.6
406.142	179.37
406.35	81.07
406.559	138.41
406.768	46.25
406.977	148.65
407.185	185.51
407.394	152.74
407.603	109.74
407.812	122.02
408.02	107.69
408.229	175.27
408.438	175.27
408.646	119.98
408.855	132.26
409.064	119.98
409.272	156.84
409.481	130.22
409.69	234.66
409.898	119.98
410.107	175.27
410.315	169.13
410.524	193.7
410.733	203.94
410.941	179.37
411.15	263.33
411.358	138.41
411.567	236.71
411.775	154.79
411.984	306.34
412.192	271.53
412.401	285.86
412.609	300.2
412.818	257.19
413.026	269.48
413.234	255.14
413.443	230.57
413.651	232.62
413.86	271.53
414.068	351.4
414.276	357.54
414.485	341.16
414.693	449.7
414.901	441.51
415.11	386.21
415.318	408.74
415.526	431.27
415.734	406.69
415.943	423.08
416.151	457.89
416.359	500.9
416.567	453.8
416.776	513.19
416.984	513.19
417.192	593.06
417.4	521.38
417.608	468.13
417.817	562.34
418.025	619.68
418.233	658.59
418.441	496.8
418.649	670.88
418.857	697.5
419.065	709.79
419.273	644.26
419.481	711.84
419.689	705.7
419.897	816.29
420.105	793.76
420.313	816.29
420.521	828.57
420.729	883.87
420.937	883.87
421.145	867.49
421.353	992.41
421.561	1016.99
421.769	1049.75
421.977	928.92
422.185	1002.65
422.393	1037.47
422.601	1305.75
422.809	1262.74
423.017	1186.97
423.224	1301.65
423.432	1369.24
423.64	1348.76
423.848	1473.68
424.056	1424.53
424.263	1442.96
424.471	1465.49
424.679	1563.79
424.887	1658
425.094	1617.04
425.302	1641.62
425.51	1698.96
425.718	1832.08
425.925	1719.44
426.133	1889.42
426.341	1860.75
426.548	1942.67
426.756	2000.01
426.964	2114.7
427.171	2190.47
427.379	2223.24
427.586	2194.57
427.794	2372.74
428.001	2425.99
428.209	2559.11
428.417	2448.52
428.624	2591.88
428.832	2636.93
429.039	2552.96
429.247	2745.47
429.454	2942.08
429.662	3093.63
429.869	2890.88
430.076	3171.45
430.284	3026.04
430.491	3026.04
430.699	3255.42
430.906	3292.28
431.114	3456.12
431.321	3585.14
431.528	3478.65
431.736	3810.42
431.943	3890.29
432.15	3867.76
432.358	3853.42
432.565	4050.03
432.772	4152.43
432.979	4203.63
433.187	4430.95
433.394	4521.06
433.601	4871.26
433.808	4709.47
434.016	4568.16
434.223	4836.45
434.43	5200.99
434.637	5133.4
434.844	5522.52
435.052	5395.54
435.259	5485.65
435.466	5502.04
435.673	5608.53
435.88	6063.18
436.087	6177.87
436.294	6196.3
436.501	5966.93
436.708	6057.04
436.915	6327.37
437.122	6685.76
437.329	6478.92
437.537	6876.23
437.743	6878.27
437.95	6763.59
438.157	7136.32
438.364	7439.42
438.571	7439.42
438.778	7504.95
438.985	8049.71
439.192	7773.24
439.399	8105.01
439.606	7885.87
439.813	8334.38
440.02	8791.08
440.227	8758.31
440.433	8635.43
440.64	8948.77
440.847	8625.19
441.054	8983.59
441.261	9479.19
441.467	9612.31
441.674	9755.67
441.881	10040.34
442.088	10011.67
442.294	10163.22
442.501	10357.77
442.708	10650.63
442.914	11131.9
443.121	11295.74
443.328	10771.46
443.534	11914.23
443.741	11490.3
443.948	11375.61
444.154	12428.27
444.361	12237.81
444.568	12243.95
444.774	12405.74
444.981	12284.91
445.187	12801
445.394	13368.29
445.6	13251.55
445.807	14482.38
446.013	13900.76
446.22	13839.32
446.426	14711.75
446.633	14887.88
446.839	15270.85
447.046	14683.08
447.252	15676.35
447.459	15551.42
447.665	15385.54
447.871	16214.96
448.078	16901.03
448.284	16176.05
448.491	16556.97
448.697	17238.95
448.903	17367.97
449.11	17570.72
449.316	17406.88
449.522	17847.19
449.728	18332.56
449.935	18252.69
450.141	18199.44
450.347	18471.82
450.553	18293.65
450.76	18441.11
450.966	19024.78
451.172	19141.51
451.378	19397.51
451.584	18969.48
451.791	19510.14
451.997	19432.32
452.203	19815.29
452.409	19696.51
452.615	19520.38
452.821	18903.95
453.027	18842.51
453.233	19811.2
453.44	19000.2
453.646	19379.07
453.852	19114.89
454.058	19739.52
454.264	19065.74
454.47	19573.63
454.676	19217.29
454.882	19678.08
455.088	18043.8
455.294	18248.6
455.5	18381.71
455.705	18666.38
455.911	17789.85
456.117	17685.4
456.323	17359.78
456.529	16497.58
456.735	17052.58
456.941	16767.91
457.147	16436.14
457.352	15930.3
457.558	15893.43
457.764	15842.23
457.97	15365.06
458.176	15401.92
458.381	15188.93
458.587	14521.29
458.793	14607.31
458.999	13900.76
459.204	14750.67
459.41	14349.26
459.616	13388.77
459.821	13540.32
460.027	13286.37
460.233	13034.47
460.438	12559.34
460.644	12538.86
460.85	11750.39
461.055	11928.56
461.261	11691
461.466	11129.86
461.672	10488.84
461.878	11369.47
462.083	10560.52
462.289	10505.23
462.494	10105.87
462.7	9860.12
462.905	9528.35
463.111	9813.01
463.316	9913.36
463.522	9681.94
463.727	9866.26
463.932	9509.91
464.138	9720.85
464.343	9616.41
464.549	9239.58
464.754	9571.35
464.959	9583.64
465.165	9649.18
465.37	9163.81
465.575	8930.34
465.781	9210.91
465.986	9163.81
466.191	8905.76
466.397	8842.28
466.602	8442.92
466.807	8688.68
467.012	8682.53
467.218	8627.24
467.423	8492.07
467.628	8569.9
467.833	8997.92
468.038	8657.96
468.244	8254.51
468.449	8760.36
468.654	8281.13
468.859	8350.76
469.064	8387.63
469.269	8006.7
