Data from USB4F104151__24__12-58-38-818.txt Node

Date: Fri Mar 14 12:58:38 EDT 2025
User: louis
Spectrometer: USB4F10415
Trigger mode: 4
Integration Time (sec): 1.000000E-2
Scans to average: 1
Electric dark correction enabled: true
Nonlinearity correction enabled: false
Boxcar width: 0
XAxis mode: Wavelengths
Number of Pixels in Spectrum: 3648
>>>>>Begin Spectral Data<<<<<
178.204	-95.74
178.424	-95.74
178.644	-95.74
178.864	-87.55
179.084	-44.54
179.304	-17.92
179.524	18.94
179.744	16.9
179.964	25.09
180.184	-3.58
180.404	-24.06
180.624	-34.3
180.844	76.29
181.064	-34.3
181.283	6.66
181.503	35.33
181.723	-65.02
181.943	57.86
182.163	4.61
182.383	-48.64
182.602	27.14
182.822	-56.83
183.042	53.76
183.262	-46.59
183.482	-38.4
183.701	94.72
183.921	20.99
184.141	-24.06
184.361	70.14
184.58	-36.35
184.8	18.94
185.02	-38.4
185.239	-13.82
185.459	8.7
185.679	-3.58
185.898	41.47
186.118	-17.92
186.338	-34.3
186.557	-28.16
186.777	-3.58
186.997	72.19
187.216	18.94
187.436	-3.58
187.655	14.85
187.875	51.71
188.095	27.14
188.314	-3.58
188.534	-58.88
188.753	-13.82
188.973	-34.3
189.192	27.14
189.412	-40.45
189.631	72.19
189.851	-38.4
190.07	27.14
190.29	-28.16
190.509	-17.92
190.729	-30.21
190.948	68.09
191.168	51.71
191.387	64
191.607	-15.87
191.826	-5.63
192.045	-58.88
192.265	-56.83
192.484	-30.21
192.704	-30.21
192.923	-5.63
193.142	64
193.362	55.81
193.581	-42.5
193.8	10.75
194.02	-50.69
194.239	-7.68
194.458	53.76
194.678	-13.82
194.897	8.7
195.116	-13.82
195.335	-38.4
195.555	-71.17
195.774	-5.63
195.993	-11.78
196.212	102.91
196.432	-11.78
196.651	18.94
196.87	8.7
197.089	6.66
197.308	-36.35
197.528	-26.11
197.747	-13.82
197.966	31.23
198.185	43.52
198.404	14.85
198.623	-67.07
198.842	-5.63
199.062	-13.82
199.281	61.95
199.5	-22.02
199.719	53.76
199.938	10.75
200.157	-38.4
200.376	-44.54
200.595	23.04
200.814	31.23
201.033	25.09
201.252	4.61
201.471	102.91
201.69	23.04
201.909	53.76
202.128	59.9
202.347	-42.5
202.566	-32.26
202.785	6.66
203.004	45.57
203.223	39.42
203.442	0.51
203.661	27.14
203.879	0.51
204.098	-36.35
204.317	49.66
204.536	29.18
204.755	27.14
204.974	2.56
205.193	-30.21
205.411	29.18
205.63	39.42
205.849	27.14
206.068	18.94
206.287	4.61
206.505	35.33
206.724	43.52
206.943	-54.78
207.162	14.85
207.381	-28.16
207.599	-75.26
207.818	-34.3
208.037	-40.45
208.255	14.85
208.474	39.42
208.693	16.9
208.911	-26.11
209.13	39.42
209.349	82.43
209.567	14.85
209.786	29.18
210.005	49.66
210.223	33.28
210.442	0.51
210.661	2.56
210.879	4.61
211.098	-5.63
211.316	20.99
211.535	45.57
211.753	18.94
211.972	-69.12
212.191	-46.59
212.409	68.09
212.628	0.51
212.846	-22.02
213.065	25.09
213.283	37.38
213.502	-15.87
213.72	-83.45
213.938	12.8
214.157	37.38
214.375	61.95
214.594	-17.92
214.812	12.8
215.031	16.9
215.249	37.38
215.467	88.57
215.686	-17.92
215.904	12.8
216.122	-26.11
216.341	59.9
216.559	31.23
216.778	29.18
216.996	23.04
217.214	37.38
217.432	29.18
217.651	66.05
217.869	-28.16
218.087	-1.54
218.306	6.66
218.524	14.85
218.742	-22.02
218.96	-3.58
219.179	-9.73
219.397	70.14
219.615	10.75
219.833	-3.58
220.051	-46.59
220.27	45.57
220.488	-22.02
220.706	35.33
220.924	-1.54
221.142	23.04
221.36	-54.78
221.578	78.33
221.796	41.47
222.015	-38.4
222.233	-44.54
222.451	20.99
222.669	-48.64
222.887	6.66
223.105	-11.78
223.323	0.51
223.541	-28.16
223.759	43.52
223.977	-17.92
224.195	-11.78
224.413	-65.02
224.631	31.23
224.849	39.42
225.067	27.14
225.285	57.86
225.503	-46.59
225.721	10.75
225.939	51.71
226.157	-36.35
226.375	33.28
226.592	18.94
226.81	2.56
227.028	27.14
227.246	8.7
227.464	-9.73
227.682	23.04
227.9	-44.54
228.117	-69.12
228.335	-28.16
228.553	0.51
228.771	0.51
228.989	0.51
229.206	59.9
229.424	-5.63
229.642	-34.3
229.86	37.38
230.077	29.18
230.295	39.42
230.513	4.61
230.731	29.18
230.948	61.95
231.166	-22.02
231.384	78.33
231.601	-48.64
231.819	10.75
232.037	-22.02
232.254	14.85
232.472	31.23
232.689	-30.21
232.907	-11.78
233.125	-11.78
233.342	-7.68
233.56	27.14
233.777	-38.4
233.995	18.94
234.213	-3.58
234.43	-89.6
234.648	-65.02
234.865	51.71
235.083	-5.63
235.3	-40.45
235.518	-19.97
235.735	78.33
235.953	39.42
236.17	-26.11
236.388	76.29
236.605	0.51
236.822	-77.31
237.04	-22.02
237.257	6.66
237.475	-83.45
237.692	37.38
237.909	-3.58
238.127	2.56
238.344	-26.11
238.562	78.33
238.779	29.18
238.996	-69.12
239.214	4.61
239.431	55.81
239.648	-13.82
239.865	-83.45
240.083	41.47
240.3	12.8
240.517	43.52
240.735	4.61
240.952	-3.58
241.169	-3.58
241.386	-1.54
241.603	-44.54
241.821	20.99
242.038	-5.63
242.255	-65.02
242.472	-77.31
242.689	23.04
242.907	35.33
243.124	6.66
243.341	29.18
243.558	10.75
243.775	-13.82
243.992	-24.06
244.209	-46.59
244.426	6.66
244.643	-46.59
244.86	37.38
245.078	47.62
245.295	31.23
245.512	94.72
245.729	-26.11
245.946	76.29
246.163	-19.97
246.38	-19.97
246.597	20.99
246.814	-1.54
247.031	39.42
247.248	-9.73
247.464	-22.02
247.681	55.81
247.898	-3.58
248.115	-40.45
248.332	29.18
248.549	-1.54
248.766	-38.4
248.983	12.8
249.2	37.38
249.417	53.76
249.633	-17.92
249.85	90.62
250.067	18.94
250.284	0.51
250.501	37.38
250.717	39.42
250.934	6.66
251.151	49.66
251.368	74.24
251.585	-93.69
251.801	23.04
252.018	-30.21
252.235	10.75
252.451	-30.21
252.668	-15.87
252.885	-67.07
253.102	-9.73
253.318	92.67
253.535	2.56
253.752	-1.54
253.968	14.85
254.185	-46.59
254.401	45.57
254.618	84.48
254.835	14.85
255.051	27.14
255.268	23.04
255.484	6.66
255.701	-17.92
255.917	31.23
256.134	55.81
256.351	12.8
256.567	35.33
256.784	88.57
257	-28.16
257.217	61.95
257.433	51.71
257.65	-52.74
257.866	29.18
258.082	-7.68
258.299	31.23
258.515	-19.97
258.732	64
258.948	-3.58
259.165	-30.21
259.381	12.8
259.597	25.09
259.814	61.95
260.03	-30.21
260.246	55.81
260.463	45.57
260.679	41.47
260.895	-9.73
261.112	74.24
261.328	6.66
261.544	70.14
261.761	45.57
261.977	72.19
262.193	12.8
262.409	6.66
262.626	4.61
262.842	-28.16
263.058	39.42
263.274	-5.63
263.49	29.18
263.707	92.67
263.923	-9.73
264.139	39.42
264.355	-54.78
264.571	59.9
264.787	-54.78
265.004	35.33
265.22	12.8
265.436	-15.87
265.652	6.66
265.868	39.42
266.084	-36.35
266.3	20.99
266.516	-9.73
266.732	20.99
266.948	2.56
267.164	14.85
267.38	29.18
267.596	53.76
267.812	45.57
268.028	64
268.244	-17.92
268.46	-5.63
268.676	84.48
268.892	6.66
269.108	-13.82
269.324	-5.63
269.54	23.04
269.756	-13.82
269.972	-24.06
270.188	-9.73
270.403	-36.35
270.619	12.8
270.835	51.71
271.051	-50.69
271.267	39.42
271.483	14.85
271.698	14.85
271.914	-52.74
272.13	-1.54
272.346	0.51
272.562	6.66
272.777	4.61
272.993	0.51
273.209	27.14
273.425	-7.68
273.64	12.8
273.856	53.76
274.072	-5.63
274.287	-19.97
274.503	-54.78
274.719	12.8
274.934	20.99
275.15	-13.82
275.366	29.18
275.581	70.14
275.797	10.75
276.012	-34.3
276.228	49.66
276.444	47.62
276.659	68.09
276.875	51.71
277.09	10.75
277.306	12.8
277.521	-1.54
277.737	-11.78
277.952	-11.78
278.168	-1.54
278.383	-22.02
278.599	31.23
278.814	12.8
279.03	-36.35
279.245	-11.78
279.461	16.9
279.676	-13.82
279.892	-60.93
280.107	-1.54
280.322	55.81
280.538	35.33
280.753	-62.98
280.969	59.9
281.184	8.7
281.399	0.51
281.615	-13.82
281.83	125.44
282.045	-22.02
282.26	68.09
282.476	-26.11
282.691	12.8
282.906	-42.5
283.122	8.7
283.337	2.56
283.552	64
283.767	2.56
283.983	59.9
284.198	41.47
284.413	49.66
284.628	70.14
284.843	25.09
285.058	6.66
285.274	-26.11
285.489	18.94
285.704	-24.06
285.919	-15.87
286.134	-3.58
286.349	-44.54
286.564	70.14
286.779	-9.73
286.995	35.33
287.21	94.72
287.425	6.66
287.64	-13.82
287.855	-1.54
288.07	-56.83
288.285	20.99
288.5	-13.82
288.715	-13.82
288.93	-11.78
289.145	-13.82
289.36	4.61
289.575	-13.82
289.79	123.39
290.004	-50.69
290.219	45.57
290.434	-3.58
290.649	-3.58
290.864	-15.87
291.079	-36.35
291.294	-13.82
291.509	-3.58
291.724	29.18
291.938	-5.63
292.153	27.14
292.368	0.51
292.583	29.18
292.798	-7.68
293.012	-3.58
293.227	-22.02
293.442	-22.02
293.657	20.99
293.871	61.95
294.086	-13.82
294.301	16.9
294.516	-42.5
294.73	-1.54
294.945	-28.16
295.16	37.38
295.374	-36.35
295.589	29.18
295.804	-52.74
296.018	37.38
296.233	-11.78
296.447	35.33
296.662	-11.78
296.877	6.66
297.091	64
297.306	55.81
297.52	12.8
297.735	45.57
297.949	45.57
298.164	59.9
298.378	-24.06
298.593	-13.82
298.807	-32.26
299.022	29.18
299.236	-3.58
299.451	-60.93
299.665	-24.06
299.88	-44.54
300.094	-3.58
300.309	-38.4
300.523	59.9
300.737	-1.54
300.952	-30.21
301.166	23.04
301.381	-3.58
301.595	-36.35
301.809	51.71
302.024	-56.83
302.238	-42.5
302.452	-28.16
302.667	45.57
302.881	2.56
303.095	-44.54
303.309	35.33
303.524	20.99
303.738	39.42
303.952	-22.02
304.166	-26.11
304.381	12.8
304.595	55.81
304.809	-5.63
305.023	68.09
305.237	-73.21
305.452	39.42
305.666	2.56
305.88	23.04
306.094	-48.64
306.308	-13.82
306.522	6.66
306.736	37.38
306.95	90.62
307.164	-40.45
307.379	2.56
307.593	100.86
307.807	2.56
308.021	-1.54
308.235	8.7
308.449	-60.93
308.663	-1.54
308.877	100.86
309.091	-67.07
309.305	51.71
309.519	-1.54
309.733	31.23
309.947	2.56
310.161	29.18
310.374	-34.3
310.588	-40.45
310.802	-56.83
311.016	31.23
311.23	20.99
311.444	25.09
311.658	43.52
311.872	8.7
312.085	29.18
312.299	43.52
312.513	70.14
312.727	25.09
312.941	10.75
313.154	70.14
313.368	-38.4
313.582	8.7
313.796	39.42
314.009	43.52
314.223	0.51
314.437	23.04
314.651	8.7
314.864	-15.87
315.078	-65.02
315.292	6.66
315.505	41.47
315.719	6.66
315.933	31.23
316.146	-38.4
316.36	8.7
316.573	-11.78
316.787	25.09
317.001	2.56
317.214	-34.3
317.428	14.85
317.641	-42.5
317.855	23.04
318.068	16.9
318.282	2.56
318.495	27.14
318.709	4.61
318.922	-15.87
319.136	43.52
319.349	39.42
319.563	39.42
319.776	-56.83
319.99	31.23
320.203	23.04
320.417	-34.3
320.63	-89.6
320.843	-17.92
321.057	-15.87
321.27	41.47
321.483	88.57
321.697	20.99
321.91	18.94
322.124	-3.58
322.337	-36.35
322.55	10.75
322.763	-38.4
322.977	39.42
323.19	-11.78
323.403	35.33
323.617	-32.26
323.83	43.52
324.043	-13.82
324.256	45.57
324.469	53.76
324.683	6.66
324.896	-15.87
325.109	-50.69
325.322	-22.02
325.535	-1.54
325.748	47.62
325.962	43.52
326.175	-22.02
326.388	55.81
326.601	12.8
326.814	0.51
327.027	39.42
327.24	-5.63
327.453	-22.02
327.666	84.48
327.879	-38.4
328.092	-28.16
328.305	49.66
328.518	4.61
328.731	82.43
328.944	88.57
329.157	47.62
329.37	35.33
329.583	-50.69
329.796	35.33
330.009	-69.12
330.222	45.57
330.435	14.85
330.648	59.9
330.861	72.19
331.073	-19.97
331.286	43.52
331.499	27.14
331.712	12.8
331.925	51.71
332.138	49.66
332.35	-13.82
332.563	16.9
332.776	45.57
332.989	16.9
333.202	-52.74
333.414	-24.06
333.627	23.04
333.84	12.8
334.053	-46.59
334.265	55.81
334.478	-48.64
334.691	-9.73
334.903	-71.17
335.116	18.94
335.329	31.23
335.541	-15.87
335.754	10.75
335.966	31.23
336.179	27.14
336.392	-5.63
336.604	-5.63
336.817	14.85
337.029	-24.06
337.242	-56.83
337.454	37.38
337.667	6.66
337.88	6.66
338.092	-17.92
338.305	55.81
338.517	-30.21
338.729	51.71
338.942	-46.59
339.154	4.61
339.367	18.94
339.579	-1.54
339.792	53.76
340.004	-17.92
340.217	10.75
340.429	-19.97
340.641	-22.02
340.854	64
341.066	-65.02
341.278	12.8
341.491	0.51
341.703	53.76
341.915	2.56
342.128	59.9
342.34	-5.63
342.552	20.99
342.764	29.18
342.977	-9.73
343.189	47.62
343.401	-9.73
343.613	64
343.826	-3.58
344.038	-5.63
344.25	0.51
344.462	55.81
344.674	37.38
344.886	14.85
345.099	45.57
345.311	53.76
345.523	-15.87
345.735	6.66
345.947	35.33
346.159	53.76
346.371	-1.54
346.583	-17.92
346.795	76.29
347.007	43.52
347.219	68.09
347.431	20.99
347.643	18.94
347.855	10.75
348.067	18.94
348.279	23.04
348.491	-30.21
348.703	43.52
348.915	6.66
349.127	-11.78
349.339	43.52
349.551	55.81
349.763	43.52
349.975	12.8
350.187	47.62
350.399	12.8
350.61	27.14
350.822	-19.97
351.034	92.67
351.246	20.99
351.458	-13.82
351.669	121.34
351.881	10.75
352.093	-42.5
352.305	74.24
352.517	55.81
352.728	59.9
352.94	27.14
353.152	-36.35
353.363	35.33
353.575	66.05
353.787	29.18
353.999	39.42
354.21	14.85
354.422	-44.54
354.633	-38.4
354.845	12.8
355.057	-11.78
355.268	-5.63
355.48	27.14
355.692	51.71
355.903	39.42
356.115	-42.5
356.326	59.9
356.538	8.7
356.749	-9.73
356.961	59.9
357.172	10.75
357.384	-1.54
357.595	14.85
357.807	4.61
358.018	-11.78
358.23	53.76
358.441	10.75
358.653	-9.73
358.864	16.9
359.075	-32.26
359.287	4.61
359.498	12.8
359.709	-17.92
359.921	18.94
360.132	-34.3
360.344	59.9
360.555	16.9
360.766	29.18
360.977	-42.5
361.189	35.33
361.4	-54.78
361.611	29.18
361.823	76.29
362.034	16.9
362.245	12.8
362.456	-28.16
362.667	-50.69
362.879	-65.02
363.09	-11.78
363.301	2.56
363.512	64
363.723	41.47
363.935	-46.59
364.146	18.94
364.357	8.7
364.568	-22.02
364.779	57.86
364.99	59.9
365.201	-38.4
365.412	41.47
365.623	39.42
365.834	-42.5
366.045	20.99
366.256	59.9
366.467	20.99
366.678	47.62
366.889	-48.64
367.1	-7.68
367.311	12.8
367.522	20.99
367.733	31.23
367.944	-40.45
368.155	2.56
368.366	-5.63
368.577	20.99
368.788	33.28
368.999	29.18
369.209	6.66
369.42	-40.45
369.631	31.23
369.842	18.94
370.053	18.94
370.264	20.99
370.474	-30.21
370.685	74.24
370.896	45.57
371.107	20.99
371.317	39.42
371.528	16.9
371.739	59.9
371.95	51.71
372.16	31.23
372.371	4.61
372.582	20.99
372.792	-28.16
373.003	23.04
373.214	2.56
373.424	-13.82
373.635	53.76
373.846	-3.58
374.056	-71.17
374.267	20.99
374.477	37.38
374.688	37.38
374.898	10.75
375.109	33.28
375.319	-22.02
375.53	33.28
375.74	-34.3
375.951	6.66
376.161	61.95
376.372	2.56
376.582	23.04
376.793	39.42
377.003	-38.4
377.214	20.99
377.424	2.56
377.635	0.51
377.845	33.28
378.055	31.23
378.266	47.62
378.476	88.57
378.686	-13.82
378.897	12.8
379.107	2.56
379.317	-60.93
379.528	18.94
379.738	35.33
379.948	-17.92
380.158	55.81
380.369	-17.92
380.579	0.51
380.789	4.61
380.999	18.94
381.21	27.14
381.42	18.94
381.63	-32.26
381.84	59.9
382.05	-7.68
382.261	43.52
382.471	23.04
382.681	82.43
382.891	57.86
383.101	16.9
383.311	35.33
383.521	20.99
383.731	27.14
383.941	66.05
384.151	39.42
384.361	129.53
384.571	12.8
384.781	14.85
384.991	10.75
385.201	14.85
385.411	49.66
385.621	27.14
385.831	43.52
386.041	-24.06
386.251	-11.78
386.461	47.62
386.671	37.38
386.881	29.18
387.091	14.85
387.301	-50.69
387.511	6.66
387.72	6.66
387.93	47.62
388.14	90.62
388.35	74.24
388.56	102.91
388.769	113.15
388.979	-28.16
389.189	-38.4
389.399	10.75
389.609	27.14
389.818	51.71
390.028	98.81
390.238	92.67
390.447	-17.92
390.657	10.75
390.867	51.71
391.076	59.9
391.286	25.09
391.496	33.28
391.705	53.76
391.915	121.34
392.125	2.56
392.334	86.53
392.544	-36.35
392.753	8.7
392.963	86.53
393.172	27.14
393.382	35.33
393.591	109.05
393.801	33.28
394.01	12.8
394.22	-30.21
394.429	49.66
394.639	-13.82
394.848	31.23
395.058	-24.06
395.267	12.8
395.477	57.86
395.686	16.9
395.895	2.56
396.105	53.76
396.314	72.19
396.524	76.29
396.733	68.09
396.942	27.14
397.152	88.57
397.361	100.86
397.57	12.8
397.78	80.38
397.989	53.76
398.198	119.29
398.407	66.05
398.617	51.71
398.826	66.05
399.035	29.18
399.244	23.04
399.453	64
399.663	72.19
399.872	47.62
400.081	31.23
400.29	59.9
400.499	33.28
400.708	14.85
400.917	-1.54
401.127	49.66
401.336	20.99
401.545	8.7
401.754	51.71
401.963	96.77
402.172	39.42
402.381	92.67
402.59	16.9
402.799	47.62
403.008	51.71
403.217	51.71
403.426	111.1
403.635	-19.97
403.844	76.29
404.053	176.64
404.262	61.95
404.471	70.14
404.68	61.95
404.888	104.96
405.097	57.86
405.306	100.86
405.515	53.76
405.724	78.33
405.933	154.11
406.142	-1.54
406.35	109.05
406.559	84.48
406.768	57.86
406.977	18.94
407.185	180.73
407.394	117.25
407.603	78.33
407.812	117.25
408.02	100.86
408.229	49.66
408.438	143.87
408.646	121.34
408.855	147.97
409.064	145.92
409.272	135.68
409.481	152.06
409.69	94.72
409.898	117.25
410.107	174.59
410.315	141.82
410.524	147.97
410.733	219.64
410.941	143.87
411.15	160.25
411.358	211.45
411.567	207.36
411.775	238.08
411.984	233.98
412.192	240.12
412.401	233.98
412.609	236.03
412.818	281.08
413.026	252.41
413.234	276.99
413.443	244.22
413.651	326.14
413.86	315.9
414.068	340.47
414.276	371.19
414.485	371.19
414.693	354.81
414.901	346.62
415.11	418.3
415.318	346.62
415.526	416.25
415.734	463.35
415.943	424.44
416.151	459.26
416.359	446.97
416.567	485.88
416.776	532.98
416.984	600.57
417.192	514.55
417.4	565.75
417.608	559.61
417.817	707.06
418.025	619
418.233	606.71
418.441	668.15
418.649	727.54
418.857	772.6
419.065	694.77
419.273	788.98
419.481	707.06
419.689	788.98
419.897	899.57
420.105	870.9
420.313	866.8
420.521	897.52
420.729	1030.64
420.937	915.95
421.145	971.25
421.353	1032.69
421.561	1092.08
421.769	1053.17
421.977	1176.05
422.185	1133.04
422.393	1282.54
422.601	1354.22
422.809	1376.75
423.017	1321.45
423.224	1331.69
423.432	1446.38
423.64	1460.71
423.848	1575.4
424.056	1542.63
424.263	1649.13
424.471	1540.58
424.679	1626.6
424.887	1808.87
425.094	1772
425.302	1862.12
425.51	1823.2
425.718	2015.71
425.925	1901.03
426.133	2011.62
426.341	2208.22
426.548	2271.71
426.756	2286.05
426.964	2355.68
427.171	2449.88
427.379	2449.88
427.586	2535.9
427.794	2679.26
428.001	2740.69
428.209	2888.15
428.417	2894.29
428.624	3013.07
428.832	2931.16
429.039	2822.61
429.247	2953.68
429.454	3115.47
429.662	3416.52
429.869	3230.16
430.076	3473.87
430.284	3406.28
430.491	3551.69
430.699	3633.61
430.906	3680.71
431.114	3946.95
431.321	3901.89
431.528	3979.72
431.736	4233.66
431.943	4182.46
432.15	4284.86
432.358	4350.4
432.565	4549.05
432.772	4524.47
432.979	4860.34
433.187	4893.11
433.394	4891.06
433.601	5292.46
433.808	5296.56
434.016	5161.39
434.223	5388.72
434.43	5796.26
434.637	5616.04
434.844	5996.96
435.052	6261.15
435.259	6015.4
435.466	6060.45
435.673	6025.64
435.88	6527.39
436.087	6787.48
436.294	6834.58
436.501	6541.72
436.708	6769.05
436.915	7172.5
437.122	7520.65
437.329	7293.33
437.537	7610.76
437.743	7598.48
437.95	7594.38
438.157	8151.43
438.364	8253.83
438.571	8210.82
438.778	8425.86
438.985	9191.8
439.192	8688
439.399	9183.6
439.606	8753.53
439.813	9408.88
440.02	9703.79
440.227	9703.79
440.433	9566.57
440.64	9980.26
440.847	9877.87
441.054	10021.22
441.261	10807.64
441.467	10631.52
441.674	10682.72
441.881	11350.35
442.088	11225.43
442.294	11237.72
442.501	11403.6
442.708	12038.47
442.914	12042.57
443.121	12726.59
443.328	12409.15
443.534	13252.92
443.741	12978.49
443.948	12824.89
444.154	13873.45
444.361	13545.78
444.568	13687.09
444.774	13760.81
444.981	13783.34
445.187	14035.24
445.394	14768.41
445.6	14489.89
445.807	16140.55
446.013	15335.7
446.22	15780.11
446.426	16265.48
446.633	16625.92
446.839	17240.31
447.046	16544
447.252	17365.24
447.459	17447.16
447.665	17240.31
447.871	18024.68
448.078	19095.77
448.284	17676.53
448.491	18612.45
448.697	19257.56
448.903	19718.36
449.11	19482.84
449.316	19386.58
449.522	19808.47
449.728	20490.44
449.935	20179.15
450.141	20594.89
450.347	21090.49
450.553	20070.61
450.76	20832.45
450.966	21225.66
451.172	21082.3
451.378	21696.69
451.584	21194.94
451.791	21438.65
451.997	21510.33
452.203	22055.09
452.409	21727.41
452.615	21809.33
452.821	21186.75
453.027	20807.87
453.233	21967.02
453.44	21463.22
453.646	21500.09
453.852	21461.18
454.058	21708.98
454.264	21291.2
454.47	21967.02
454.676	21270.72
454.882	21838
455.088	19824.85
455.294	20240.59
455.5	20527.3
455.705	21076.16
455.911	20201.68
456.117	19767.51
456.323	19349.72
456.529	18393.32
456.735	18866.4
456.941	18700.51
457.147	18362.6
457.352	17697.01
457.558	17527.03
457.764	17484.02
457.97	17146.11
458.176	17133.82
458.381	16969.98
458.587	16210.18
458.793	16103.69
458.999	15175.96
459.204	16206.09
459.41	16132.36
459.616	14858.53
459.821	14811.42
460.027	14629.15
460.233	14274.85
460.438	13943.08
460.644	14119.21
460.85	13334.84
461.055	13336.88
461.261	12986.68
461.466	11989.32
461.672	11749.71
461.878	12745.02
462.083	11587.92
462.289	11682.13
462.494	11393.36
462.7	11014.49
462.905	10500.45
463.111	11057.5
463.316	10973.53
463.522	10584.41
463.727	10758.49
463.932	10832.22
464.138	10731.87
464.343	10613.09
464.549	10531.17
464.754	10748.25
464.959	10559.84
465.165	10617.18
465.37	10266.98
465.575	9918.82
465.781	10502.5
465.986	10309.99
466.191	9884.01
466.397	9892.2
466.602	9181.56
466.807	9640.3
467.012	9556.33
467.218	9828.71
467.423	9542
467.628	9619.82
467.833	10078.57
468.038	9566.57
468.244	9705.84
468.449	9861.48
