Data from USB4F104151__0__12-58-20-898.txt Node

Date: Fri Mar 14 12:58:20 EDT 2025
User: louis
Spectrometer: USB4F10415
Trigger mode: 4
Integration Time (sec): 1.000000E-2
Scans to average: 1
Electric dark correction enabled: true
Nonlinearity correction enabled: false
Boxcar width: 0
XAxis mode: Wavelengths
Number of Pixels in Spectrum: 3648
>>>>>Begin Spectral Data<<<<<
178.204	-103.59
178.424	-103.59
178.644	-103.59
178.864	-44.2
179.084	-54.44
179.304	4.95
179.524	-29.87
179.744	21.33
179.964	-5.29
180.184	-44.2
180.404	41.81
180.624	-60.59
180.844	35.67
181.064	-50.35
181.283	21.33
181.503	-25.77
181.723	90.96
181.943	27.48
182.163	17.24
182.383	-9.39
182.602	25.43
182.822	-31.91
183.042	21.33
183.262	-25.77
183.482	-7.34
183.701	-1.19
183.921	11.09
184.141	-42.15
184.361	-15.53
184.58	-5.29
184.8	31.57
185.02	33.62
185.239	7
185.459	90.96
185.679	78.68
185.898	-3.24
186.118	-40.11
186.338	-36.01
186.557	62.29
186.777	33.62
186.997	47.96
187.216	43.86
187.436	70.48
187.655	52.05
187.875	9.05
188.095	-15.53
188.314	15.19
188.534	52.05
188.753	60.24
188.973	9.05
189.192	29.52
189.412	58.2
189.631	47.96
189.851	9.05
190.07	0.85
190.29	-66.73
190.509	-1.19
190.729	15.19
190.948	19.29
191.168	95.06
191.387	0.85
191.607	-9.39
191.826	-21.67
192.045	25.43
192.265	-25.77
192.484	29.52
192.704	4.95
192.923	35.67
193.142	35.67
193.362	-40.11
193.581	97.11
193.8	-3.24
194.02	-19.63
194.239	111.44
194.458	4.95
194.678	25.43
194.897	25.43
195.116	25.43
195.335	27.48
195.555	23.38
195.774	-7.34
195.993	0.85
196.212	-5.29
196.432	-81.07
196.651	80.72
196.87	-5.29
197.089	72.53
197.308	43.86
197.528	25.43
197.747	-5.29
197.966	52.05
198.185	66.39
198.404	74.58
198.623	9.05
198.842	41.81
199.062	23.38
199.281	9.05
199.5	0.85
199.719	-42.15
199.938	11.09
200.157	101.2
200.376	11.09
200.595	60.24
200.814	43.86
201.033	37.72
201.252	93.01
201.471	15.19
201.69	0.85
201.909	27.48
202.128	39.76
202.347	25.43
202.566	64.34
202.785	41.81
203.004	23.38
203.223	17.24
203.442	-74.92
203.661	-13.48
203.879	52.05
204.098	-15.53
204.317	21.33
204.536	45.91
204.755	-11.43
204.974	52.05
205.193	-19.63
205.411	54.1
205.63	29.52
205.849	2.9
206.068	-40.11
206.287	25.43
206.505	52.05
206.724	90.96
206.943	25.43
207.162	-21.67
207.381	41.81
207.599	74.58
207.818	68.44
208.037	-40.11
208.255	39.76
208.474	60.24
208.693	56.15
208.911	41.81
209.13	47.96
209.349	103.25
209.567	43.86
209.786	64.34
210.005	58.2
210.223	17.24
210.442	-7.34
210.661	2.9
210.879	60.24
211.098	21.33
211.316	66.39
211.535	0.85
211.753	25.43
211.972	107.35
212.191	21.33
212.409	-40.11
212.628	45.91
212.846	52.05
213.065	2.9
213.283	60.24
213.502	-36.01
213.72	86.87
213.938	-64.68
214.157	-46.25
214.375	33.62
214.594	64.34
214.812	-52.39
215.031	52.05
215.249	9.05
215.467	-25.77
215.686	33.62
215.904	21.33
216.122	19.29
216.341	64.34
216.559	60.24
216.778	76.63
216.996	-17.58
217.214	-7.34
217.432	2.9
217.651	-9.39
217.869	29.52
218.087	29.52
218.306	66.39
218.524	35.67
218.742	60.24
218.96	70.48
219.179	37.72
219.397	-3.24
219.615	31.57
219.833	-29.87
220.051	-5.29
220.27	95.06
220.488	21.33
220.706	29.52
220.924	-27.82
221.142	37.72
221.36	39.76
221.578	-13.48
221.796	13.14
222.015	-5.29
222.233	-23.72
222.451	43.86
222.669	27.48
222.887	27.48
223.105	72.53
223.323	56.15
223.541	-11.43
223.759	45.91
223.977	31.57
224.195	2.9
224.413	23.38
224.631	25.43
224.849	-48.3
225.067	-9.39
225.285	50
225.503	54.1
225.721	-21.67
225.939	43.86
226.157	101.2
226.375	52.05
226.592	31.57
226.81	31.57
227.028	56.15
227.246	93.01
227.464	-9.39
227.682	-5.29
227.9	15.19
228.117	-9.39
228.335	23.38
228.553	43.86
228.771	13.14
228.989	27.48
229.206	21.33
229.424	47.96
229.642	-23.72
229.86	15.19
230.077	56.15
230.295	23.38
230.513	60.24
230.731	17.24
230.948	80.72
231.166	84.82
231.384	52.05
231.601	-19.63
231.819	76.63
232.037	76.63
232.254	15.19
232.472	33.62
232.689	56.15
232.907	-13.48
233.125	60.24
233.342	50
233.56	39.76
233.777	19.29
233.995	15.19
234.213	86.87
234.43	27.48
234.648	52.05
234.865	50
235.083	33.62
235.3	39.76
235.518	-19.63
235.735	62.29
235.953	99.16
236.17	72.53
236.388	50
236.605	-3.24
236.822	35.67
237.04	-7.34
237.257	-33.96
237.475	76.63
237.692	82.77
237.909	0.85
238.127	13.14
238.344	17.24
238.562	103.25
238.779	-29.87
238.996	-31.91
239.214	19.29
239.431	58.2
239.648	-27.82
239.865	7
240.083	82.77
240.3	-13.48
240.517	70.48
240.735	56.15
240.952	27.48
241.169	4.95
241.386	-9.39
241.603	35.67
241.821	56.15
242.038	45.91
242.255	-48.3
242.472	82.77
242.689	23.38
242.907	68.44
243.124	78.68
243.341	37.72
243.558	29.52
243.775	-48.3
243.992	-19.63
244.209	72.53
244.426	9.05
244.643	117.59
244.86	43.86
245.078	17.24
245.295	41.81
245.512	43.86
245.729	52.05
245.946	0.85
246.163	76.63
246.38	25.43
246.597	0.85
246.814	62.29
247.031	25.43
247.248	64.34
247.464	-42.15
247.681	11.09
247.898	7
248.115	11.09
248.332	9.05
248.549	60.24
248.766	74.58
248.983	-7.34
249.2	54.1
249.417	107.35
249.633	64.34
249.85	17.24
250.067	-5.29
250.284	90.96
250.501	60.24
250.717	52.05
250.934	-56.49
251.151	21.33
251.368	11.09
251.585	47.96
251.801	21.33
252.018	-11.43
252.235	90.96
252.451	-29.87
252.668	19.29
252.885	19.29
253.102	7
253.318	70.48
253.535	37.72
253.752	33.62
253.968	66.39
254.185	-29.87
254.401	60.24
254.618	25.43
254.835	29.52
255.051	93.01
255.268	64.34
255.484	99.16
255.701	39.76
255.917	52.05
256.134	-15.53
256.351	50
256.567	-15.53
256.784	74.58
257	56.15
257.217	64.34
257.433	60.24
257.65	43.86
257.866	25.43
258.082	4.95
258.299	-25.77
258.515	45.91
258.732	-42.15
258.948	2.9
259.165	43.86
259.381	33.62
259.597	64.34
259.814	41.81
260.03	86.87
260.246	62.29
260.463	68.44
260.679	19.29
260.895	15.19
261.112	45.91
261.328	72.53
261.544	19.29
261.761	37.72
261.977	82.77
262.193	90.96
262.409	-1.19
262.626	33.62
262.842	47.96
263.058	0.85
263.274	0.85
263.49	-38.06
263.707	64.34
263.923	74.58
264.139	-7.34
264.355	43.86
264.571	131.92
264.787	-15.53
265.004	11.09
265.22	45.91
265.436	-1.19
265.652	19.29
265.868	37.72
266.084	-21.67
266.3	17.24
266.516	31.57
266.732	54.1
266.948	-46.25
267.164	60.24
267.38	7
267.596	123.73
267.812	37.72
268.028	70.48
268.244	-5.29
268.46	21.33
268.676	43.86
268.892	68.44
269.108	39.76
269.324	23.38
269.54	101.2
269.756	47.96
269.972	9.05
270.188	50
270.403	74.58
270.619	76.63
270.835	74.58
271.051	43.86
271.267	52.05
271.483	52.05
271.698	-13.48
271.914	31.57
272.13	13.14
272.346	-33.96
272.562	95.06
272.777	-7.34
272.993	93.01
273.209	37.72
273.425	52.05
273.64	-7.34
273.856	15.19
274.072	-44.2
274.287	-5.29
274.503	39.76
274.719	31.57
274.934	41.81
275.15	-11.43
275.366	52.05
275.581	-31.91
275.797	35.67
276.012	0.85
276.228	45.91
276.444	29.52
276.659	52.05
276.875	-21.67
277.09	76.63
277.306	23.38
277.521	19.29
277.737	13.14
277.952	-3.24
278.168	-29.87
278.383	74.58
278.599	-1.19
278.814	17.24
279.03	43.86
279.245	76.63
279.461	37.72
279.676	-5.29
279.892	21.33
280.107	39.76
280.322	-42.15
280.538	-29.87
280.753	29.52
280.969	2.9
281.184	50
281.399	35.67
281.615	29.52
281.83	148.31
282.045	86.87
282.26	0.85
282.476	41.81
282.691	-25.77
282.906	-97.45
283.122	35.67
283.337	-27.82
283.552	68.44
283.767	39.76
283.983	131.92
284.198	2.9
284.413	88.92
284.628	19.29
284.843	21.33
285.058	-29.87
285.274	74.58
285.489	23.38
285.704	50
285.919	27.48
286.134	13.14
286.349	35.67
286.564	58.2
286.779	11.09
286.995	-15.53
287.21	-13.48
287.425	41.81
287.64	76.63
287.855	-5.29
288.07	2.9
288.285	17.24
288.5	-19.63
288.715	52.05
288.93	4.95
289.145	80.72
289.36	31.57
289.575	21.33
289.79	86.87
290.004	37.72
290.219	68.44
290.434	2.9
290.649	4.95
290.864	25.43
291.079	25.43
291.294	35.67
291.509	39.76
291.724	-33.96
291.938	54.1
292.153	66.39
292.368	2.9
292.583	-15.53
292.798	76.63
293.012	66.39
293.227	56.15
293.442	27.48
293.657	45.91
293.871	2.9
294.086	52.05
294.301	78.68
294.516	29.52
294.73	43.86
294.945	-40.11
295.16	45.91
295.374	58.2
295.589	60.24
295.804	2.9
296.018	93.01
296.233	-48.3
296.447	82.77
296.662	111.44
296.877	54.1
297.091	-5.29
297.306	72.53
297.52	-52.39
297.735	17.24
297.949	105.3
298.164	43.86
298.378	58.2
298.593	41.81
298.807	54.1
299.022	62.29
299.236	31.57
299.451	2.9
299.665	-64.68
299.88	11.09
300.094	109.4
300.309	47.96
300.523	25.43
300.737	-27.82
300.952	-1.19
301.166	50
301.381	52.05
301.595	109.4
301.809	25.43
302.024	-33.96
302.238	76.63
302.452	45.91
302.667	-54.44
302.881	21.33
303.095	99.16
303.309	35.67
303.524	-5.29
303.738	-25.77
303.952	33.62
304.166	56.15
304.381	7
304.595	82.77
304.809	2.9
305.023	133.97
305.237	-31.91
305.452	19.29
305.666	56.15
305.88	-11.43
306.094	33.62
306.308	2.9
306.522	82.77
306.736	90.96
306.95	27.48
307.164	25.43
307.379	-21.67
307.593	109.4
307.807	7
308.021	90.96
308.235	41.81
308.449	27.48
308.663	33.62
308.877	101.2
309.091	-19.63
309.305	129.88
309.519	50
309.733	74.58
309.947	-38.06
310.161	41.81
310.374	-44.2
310.588	-15.53
310.802	-21.67
311.016	54.1
311.23	29.52
311.444	-15.53
311.658	84.82
311.872	84.82
312.085	7
312.299	62.29
312.513	74.58
312.727	56.15
312.941	-7.34
313.154	50
313.368	58.2
313.582	99.16
313.796	43.86
314.009	35.67
314.223	60.24
314.437	39.76
314.651	47.96
314.864	-5.29
315.078	11.09
315.292	41.81
315.505	19.29
315.719	95.06
315.933	80.72
316.146	23.38
316.36	45.91
316.573	37.72
316.787	-13.48
317.001	-31.91
317.214	54.1
317.428	93.01
317.641	-29.87
317.855	23.38
318.068	50
318.282	35.67
318.495	43.86
318.709	47.96
318.922	13.14
319.136	21.33
319.349	0.85
319.563	-38.06
319.776	-29.87
319.99	-3.24
320.203	17.24
320.417	39.76
320.63	43.86
320.843	9.05
321.057	74.58
321.27	35.67
321.483	140.12
321.697	113.49
321.91	-23.72
322.124	35.67
322.337	68.44
322.55	17.24
322.763	-25.77
322.977	-13.48
323.19	78.68
323.403	9.05
323.617	115.54
323.83	68.44
324.043	29.52
324.256	4.95
324.469	97.11
324.683	35.67
324.896	-5.29
325.109	7
325.322	68.44
325.535	-9.39
325.748	-17.58
325.962	105.3
326.175	35.67
326.388	76.63
326.601	-3.24
326.814	43.86
327.027	37.72
327.24	78.68
327.453	50
327.666	78.68
327.879	-13.48
328.092	45.91
328.305	74.58
328.518	99.16
328.731	29.52
328.944	9.05
329.157	27.48
329.37	4.95
329.583	13.14
329.796	66.39
330.009	25.43
330.222	23.38
330.435	13.14
330.648	60.24
330.861	60.24
331.073	-1.19
331.286	0.85
331.499	129.88
331.712	13.14
331.925	78.68
332.138	2.9
332.35	9.05
332.563	11.09
332.776	11.09
332.989	47.96
333.202	43.86
333.414	62.29
333.627	2.9
333.84	35.67
334.053	25.43
334.265	41.81
334.478	35.67
334.691	37.72
334.903	17.24
335.116	31.57
335.329	58.2
335.541	105.3
335.754	60.24
335.966	25.43
336.179	25.43
336.392	47.96
336.604	23.38
336.817	19.29
337.029	-11.43
337.242	60.24
337.454	56.15
337.667	21.33
337.88	101.2
338.092	-17.58
338.305	9.05
338.517	58.2
338.729	43.86
338.942	60.24
339.154	50
339.367	72.53
339.579	45.91
339.792	-58.54
340.004	29.52
340.217	0.85
340.429	86.87
340.641	27.48
340.854	0.85
341.066	-31.91
341.278	-1.19
341.491	103.25
341.703	23.38
341.915	-25.77
342.128	54.1
342.34	-19.63
342.552	27.48
342.764	50
342.977	11.09
343.189	37.72
343.401	4.95
343.613	35.67
343.826	9.05
344.038	41.81
344.25	-7.34
344.462	97.11
344.674	82.77
344.886	-7.34
345.099	76.63
345.311	95.06
345.523	84.82
345.735	72.53
345.947	25.43
346.159	70.48
346.371	33.62
346.583	23.38
346.795	56.15
347.007	-7.34
347.219	50
347.431	15.19
347.643	41.81
347.855	25.43
348.067	74.58
348.279	76.63
348.491	70.48
348.703	-13.48
348.915	54.1
349.127	21.33
349.339	35.67
349.551	50
349.763	72.53
349.975	60.24
350.187	50
350.399	76.63
350.61	23.38
350.822	25.43
351.034	60.24
351.246	95.06
351.458	115.54
351.669	41.81
351.881	45.91
352.093	109.4
352.305	39.76
352.517	101.2
352.728	-13.48
352.94	0.85
353.152	39.76
353.363	-52.39
353.575	11.09
353.787	21.33
353.999	35.67
354.21	60.24
354.422	117.59
354.633	103.25
354.845	52.05
355.057	4.95
355.268	33.62
355.48	58.2
355.692	33.62
355.903	2.9
356.115	64.34
356.326	27.48
356.538	50
356.749	41.81
356.961	66.39
357.172	84.82
357.384	41.81
357.595	109.4
357.807	56.15
358.018	76.63
358.23	9.05
358.441	43.86
358.653	68.44
358.864	72.53
359.075	9.05
359.287	29.52
359.498	17.24
359.709	19.29
359.921	-1.19
360.132	15.19
360.344	54.1
360.555	25.43
360.766	27.48
360.977	21.33
361.189	37.72
361.4	41.81
361.611	47.96
361.823	101.2
362.034	50
362.245	50
362.456	39.76
362.667	50
362.879	62.29
363.09	0.85
363.301	74.58
363.512	66.39
363.723	-27.82
363.935	31.57
364.146	0.85
364.357	-17.58
364.568	82.77
364.779	60.24
364.99	66.39
365.201	82.77
365.412	142.16
365.623	90.96
365.834	9.05
366.045	27.48
366.256	2.9
366.467	62.29
366.678	4.95
366.889	15.19
367.1	78.68
367.311	76.63
367.522	56.15
367.733	66.39
367.944	88.92
368.155	33.62
368.366	37.72
368.577	93.01
368.788	66.39
368.999	-11.43
369.209	21.33
369.42	39.76
369.631	127.83
369.842	43.86
370.053	60.24
370.264	78.68
370.474	-13.48
370.685	90.96
370.896	70.48
371.107	17.24
371.317	84.82
371.528	72.53
371.739	56.15
371.95	13.14
372.16	64.34
372.371	45.91
372.582	25.43
372.792	29.52
373.003	54.1
373.214	60.24
373.424	41.81
373.635	37.72
373.846	74.58
374.056	9.05
374.267	-21.67
374.477	11.09
374.688	58.2
374.898	64.34
375.109	99.16
375.319	27.48
375.53	43.86
375.74	68.44
375.951	35.67
376.161	68.44
376.372	78.68
376.582	-17.58
376.793	-29.87
377.003	84.82
377.214	74.58
377.424	60.24
377.635	33.62
377.845	52.05
378.055	117.59
378.266	0.85
378.476	11.09
378.686	-19.63
378.897	111.44
379.107	31.57
379.317	13.14
379.528	41.81
379.738	60.24
379.948	7
380.158	76.63
380.369	82.77
380.579	95.06
380.789	33.62
380.999	76.63
381.21	133.97
381.42	39.76
381.63	68.44
381.84	60.24
382.05	35.67
382.261	107.35
382.471	47.96
382.681	21.33
382.891	33.62
383.101	103.25
383.311	-25.77
383.521	4.95
383.731	45.91
383.941	41.81
384.151	27.48
384.361	17.24
384.571	-66.73
384.781	23.38
384.991	99.16
385.201	17.24
385.411	107.35
385.621	29.52
385.831	9.05
386.041	-9.39
386.251	93.01
386.461	15.19
386.671	-19.63
386.881	47.96
387.091	58.2
387.301	-15.53
387.511	-15.53
387.72	17.24
387.93	54.1
388.14	4.95
388.35	68.44
388.56	50
388.769	-23.72
388.979	58.2
389.189	-11.43
389.399	76.63
389.609	78.68
389.818	41.81
390.028	43.86
390.238	76.63
390.447	62.29
390.657	21.33
390.867	29.52
391.076	23.38
391.286	66.39
391.496	47.96
391.705	-29.87
391.915	101.2
392.125	74.58
392.334	109.4
392.544	97.11
392.753	60.24
392.963	111.44
393.172	66.39
393.382	21.33
393.591	72.53
393.801	70.48
394.01	50
394.22	86.87
394.429	80.72
394.639	101.2
394.848	95.06
395.058	9.05
395.267	133.97
395.477	58.2
395.686	54.1
395.895	127.83
396.105	109.4
396.314	17.24
396.524	80.72
396.733	93.01
396.942	82.77
397.152	99.16
397.361	64.34
397.57	123.73
397.78	29.52
397.989	82.77
398.198	142.16
398.407	0.85
398.617	70.48
398.826	70.48
399.035	62.29
399.244	93.01
399.453	123.73
399.663	29.52
399.872	72.53
400.081	95.06
400.29	86.87
400.499	90.96
400.708	123.73
400.917	109.4
401.127	131.92
401.336	2.9
401.545	119.64
401.754	74.58
401.963	99.16
402.172	-3.24
402.381	136.02
402.59	95.06
402.799	158.55
403.008	156.5
403.217	93.01
403.426	62.29
403.635	119.64
403.844	111.44
404.053	90.96
404.262	207.7
404.471	86.87
404.68	138.07
404.888	144.21
405.097	107.35
405.306	146.26
405.515	107.35
405.724	154.45
405.933	183.12
406.142	195.41
406.35	103.25
406.559	115.54
406.768	152.4
406.977	209.75
407.185	142.16
407.394	160.59
407.603	138.07
407.812	97.11
408.02	187.22
408.229	197.46
408.438	207.7
408.646	78.68
408.855	154.45
409.064	205.65
409.272	174.93
409.481	262.99
409.69	271.19
409.898	232.27
410.107	242.51
410.315	260.95
410.524	269.14
410.733	279.38
410.941	303.95
411.15	291.66
411.358	285.52
411.567	285.52
411.775	269.14
411.984	338.77
412.192	308.05
412.401	338.77
412.609	408.4
412.818	383.82
413.026	441.17
413.234	400.21
413.443	398.16
413.651	428.88
413.86	447.31
414.068	475.98
414.276	441.17
414.485	473.93
414.693	465.74
414.901	516.94
415.11	523.09
415.318	521.04
415.526	574.28
415.734	672.59
415.943	605
416.151	674.64
416.359	613.2
416.567	693.07
416.776	643.92
416.984	783.18
417.192	717.64
417.4	787.27
417.608	846.66
417.817	830.28
418.025	858.95
418.233	865.1
418.441	867.14
418.649	940.87
418.857	914.25
419.065	1030.98
419.273	973.64
419.481	1033.03
419.689	1139.52
419.897	1248.07
420.105	1241.92
420.313	1182.53
420.521	1260.35
420.729	1348.42
420.937	1360.7
421.145	1252.16
421.353	1356.61
421.561	1526.59
421.769	1532.73
421.977	1532.73
422.185	1487.68
422.393	1596.22
422.601	1698.62
422.809	1739.58
423.017	1661.76
423.224	1813.31
423.432	1960.76
423.64	2020.15
423.848	2038.58
424.056	2112.31
424.263	2214.71
424.471	2116.41
424.679	2278.19
424.887	2360.11
425.094	2337.59
425.302	2386.74
425.51	2472.75
425.718	2573.1
425.925	2523.95
426.133	2708.27
426.341	2839.34
426.548	2902.83
426.756	3009.32
426.964	3119.91
427.171	3154.73
427.379	3246.88
427.586	3179.3
427.794	3359.52
428.001	3601.18
428.209	3738.4
428.417	3652.38
428.624	3992.34
428.832	3906.33
429.039	3965.72
429.247	3973.91
429.454	4320.02
429.662	4512.53
429.869	4360.98
430.076	4709.13
430.284	4412.18
430.491	4596.5
430.699	4942.6
430.906	4856.59
431.114	5075.72
431.321	5204.74
431.528	5212.93
431.736	5499.65
431.943	5956.35
432.15	5696.25
432.358	5864.19
432.565	6040.31
432.772	6132.47
432.979	6372.08
433.187	6343.41
433.394	6523.63
433.601	6982.38
433.808	6955.76
434.016	6865.64
434.223	7297.77
434.43	7805.66
434.637	7518.95
434.844	7889.63
435.052	8383.19
435.259	8080.09
435.466	8217.3
435.673	8104.67
435.88	8569.55
436.087	9085.64
436.294	9054.92
436.501	8737.49
436.708	9071.31
436.915	9470.66
437.122	9685.7
437.329	9816.77
437.537	10212.03
437.743	10207.93
437.95	10187.45
438.157	10719.92
438.364	11117.23
438.571	10871.47
438.778	11072.17
438.985	12143.26
439.192	11543.21
439.399	12010.14
439.606	11809.44
439.813	12253.85
440.02	13116.05
440.227	12890.77
440.433	12724.88
440.64	13089.42
440.847	12937.87
441.054	13724.29
441.261	14154.37
441.467	14330.49
441.674	14566.01
441.881	14948.98
442.088	14955.12
442.294	14994.03
442.501	15215.21
442.708	15596.14
442.914	16321.12
443.121	16603.74
443.328	16484.95
443.534	17363.53
443.741	17052.24
443.948	16933.46
444.154	18074.18
444.361	17932.87
444.568	18264.64
444.774	18086.47
444.981	18170.43
445.187	18788.92
445.394	19786.28
445.6	19315.25
445.807	21453.33
446.013	20062.76
446.22	20945.43
446.426	21621.26
446.633	21828.1
446.839	22659.58
447.046	21744.14
447.252	22864.38
447.459	22891
447.665	22698.49
447.871	24146.4
448.078	24971.74
448.284	23783.91
448.491	24162.79
448.697	25295.32
448.903	26026.44
449.11	25815.5
449.316	25588.17
449.522	25944.52
449.728	26622.4
449.935	27146.68
450.141	26986.94
450.347	27877.8
450.553	26847.68
450.76	27259.32
450.966	27931.05
451.172	27576.75
451.378	28266.92
451.584	27703.73
451.791	28459.43
451.997	28307.88
452.203	28899.74
452.409	29016.47
452.615	28586.4
452.821	27808.17
453.027	27384.24
453.233	28920.22
453.44	28027.31
453.646	28123.56
453.852	28127.66
454.058	29079.96
454.264	27984.3
454.47	28496.29
454.676	27417.01
454.882	29114.78
455.088	26126.79
455.294	26601.92
455.5	26999.23
455.705	27294.13
455.911	25868.75
456.117	25780.68
456.323	25293.27
456.529	23978.47
456.735	25178.58
456.941	24795.61
457.147	24166.88
457.352	23204.34
457.558	23020.02
457.764	22964.73
457.97	22385.15
458.176	22123.01
458.381	22288.9
458.587	21277.2
458.793	21711.37
458.999	19790.38
459.204	21574.16
459.41	20806.17
459.616	19438.12
459.821	19530.28
460.027	19745.32
460.233	19073.59
460.438	18168.38
460.644	18764.34
460.85	17711.69
461.055	17345.1
461.261	17197.65
461.466	15827.56
461.672	15510.12
461.878	16345.69
462.083	15368.81
462.289	15034.99
462.494	14846.58
462.7	14312.06
462.905	14111.36
463.111	14463.61
463.316	14467.7
463.522	14137.98
463.727	14180.99
463.932	14131.84
464.138	14248.57
464.343	14148.22
464.549	13685.38
464.754	14199.42
464.959	13961.86
465.165	13818.5
465.37	13226.64
465.575	13077.13
465.781	13548.17
465.986	13613.7
466.191	13116.05
466.397	12714.64
466.602	12014.24
466.807	12655.25
467.012	12704.4
467.218	12655.25
467.423	12436.12
467.628	12626.58
467.833	12976.78
468.038	12389.02
468.244	12081.82
468.449	12784.27
468.654	12259.99
468.859	12020.38
469.064	11907.74
469.269	11526.82
