Data from USB4F104151__65__12-59-28-423.txt Node

Date: Fri Mar 14 12:59:28 EDT 2025
User: louis
Spectrometer: USB4F10415
Trigger mode: 4
Integration Time (sec): 1.000000E-2
Scans to average: 1
Electric dark correction enabled: true
Nonlinearity correction enabled: false
Boxcar width: 0
XAxis mode: Wavelengths
Number of Pixels in Spectrum: 3648
>>>>>Begin Spectral Data<<<<<
178.204	21.67
178.424	21.67
178.644	21.67
178.864	27.82
179.084	-45.91
179.304	1.19
179.524	-43.86
179.744	48.3
179.964	74.92
180.184	-82.77
180.404	-21.33
180.624	-15.19
180.844	-13.14
181.064	38.06
181.283	-2.9
181.503	23.72
181.723	-7
181.943	-7
182.163	-21.33
182.383	19.63
182.602	19.63
182.822	-13.14
183.042	-11.09
183.262	19.63
183.482	97.45
183.701	-25.43
183.921	52.39
184.141	21.67
184.361	48.3
184.58	72.87
184.8	-17.24
185.02	46.25
185.239	5.29
185.459	11.43
185.679	29.87
185.898	-21.33
186.118	3.24
186.338	38.06
186.557	115.88
186.777	-23.38
186.997	-2.9
187.216	48.3
187.436	17.58
187.655	23.72
187.875	85.16
188.095	-2.9
188.314	119.98
188.534	68.78
188.753	21.67
188.973	87.21
189.192	60.59
189.412	-19.29
189.631	15.53
189.851	38.06
190.07	54.44
190.29	-4.95
190.509	13.48
190.729	103.59
190.948	11.43
191.168	62.63
191.387	79.02
191.607	9.39
191.826	3.24
192.045	-27.48
192.265	25.77
192.484	95.4
192.704	13.48
192.923	-37.72
193.142	101.55
193.362	36.01
193.581	56.49
193.8	85.16
194.02	85.16
194.239	7.34
194.458	27.82
194.678	-19.29
194.897	-60.24
195.116	21.67
195.335	13.48
195.555	111.78
195.774	-27.48
195.993	-37.72
196.212	-35.67
196.432	36.01
196.651	13.48
196.87	-9.05
197.089	36.01
197.308	-2.9
197.528	15.53
197.747	-17.24
197.966	7.34
198.185	79.02
198.404	21.67
198.623	31.91
198.842	-7
199.062	74.92
199.281	38.06
199.5	-13.14
199.719	40.11
199.938	5.29
200.157	66.73
200.376	62.63
200.595	-2.9
200.814	7.34
201.033	-29.52
201.252	17.58
201.471	-21.33
201.69	-15.19
201.909	33.96
202.128	38.06
202.347	-4.95
202.566	68.78
202.785	42.15
203.004	-33.62
203.223	52.39
203.442	23.72
203.661	-0.85
203.879	-13.14
204.098	-4.95
204.317	15.53
204.536	68.78
204.755	-29.52
204.974	9.39
205.193	89.26
205.411	79.02
205.63	42.15
205.849	44.2
206.068	29.87
206.287	23.72
206.505	38.06
206.724	50.35
206.943	7.34
207.162	-17.24
207.381	9.39
207.599	52.39
207.818	-23.38
208.037	3.24
208.255	17.58
208.474	31.91
208.693	36.01
208.911	68.78
209.13	52.39
209.349	-33.62
209.567	46.25
209.786	83.11
210.005	17.58
210.223	31.91
210.442	5.29
210.661	9.39
210.879	31.91
211.098	1.19
211.316	68.78
211.535	89.26
211.753	29.87
211.972	48.3
212.191	72.87
212.409	56.49
212.628	13.48
212.846	109.74
213.065	11.43
213.283	64.68
213.502	60.59
213.72	15.53
213.938	56.49
214.157	-9.05
214.375	46.25
214.594	36.01
214.812	-19.29
215.031	38.06
215.249	-58.2
215.467	44.2
215.686	54.44
215.904	-41.81
216.122	-33.62
216.341	44.2
216.559	-27.48
216.778	29.87
216.996	64.68
217.214	74.92
217.432	-78.68
217.651	-2.9
217.869	9.39
218.087	46.25
218.306	36.01
218.524	1.19
218.742	85.16
218.96	-2.9
219.179	29.87
219.397	83.11
219.615	31.91
219.833	-2.9
220.051	44.2
220.27	-17.24
220.488	113.83
220.706	76.97
220.924	25.77
221.142	52.39
221.36	81.07
221.578	38.06
221.796	15.53
222.015	36.01
222.233	93.35
222.451	-31.57
222.669	-27.48
222.887	115.88
223.105	33.96
223.323	-13.14
223.541	36.01
223.759	44.2
223.977	-15.19
224.195	9.39
224.413	46.25
224.631	93.35
224.849	-43.86
225.067	91.31
225.285	11.43
225.503	29.87
225.721	19.63
225.939	-39.76
226.157	19.63
226.375	60.59
226.592	-11.09
226.81	44.2
227.028	79.02
227.246	42.15
227.464	29.87
227.682	-0.85
227.9	29.87
228.117	119.98
228.335	-72.53
228.553	93.35
228.771	3.24
228.989	48.3
229.206	9.39
229.424	-9.05
229.642	3.24
229.86	-4.95
230.077	85.16
230.295	48.3
230.513	64.68
230.731	27.82
230.948	27.82
231.166	15.53
231.384	46.25
231.601	56.49
231.819	54.44
232.037	60.59
232.254	-31.57
232.472	23.72
232.689	76.97
232.907	25.77
233.125	-11.09
233.342	44.2
233.56	33.96
233.777	85.16
233.995	-25.43
234.213	40.11
234.43	85.16
234.648	11.43
234.865	83.11
235.083	31.91
235.3	54.44
235.518	-7
235.735	40.11
235.953	19.63
236.17	3.24
236.388	27.82
236.605	-21.33
236.822	11.43
237.04	17.58
237.257	-4.95
237.475	1.19
237.692	70.83
237.909	21.67
238.127	-0.85
238.344	-11.09
238.562	9.39
238.779	9.39
238.996	17.58
239.214	76.97
239.431	72.87
239.648	48.3
239.865	23.72
240.083	52.39
240.3	-17.24
240.517	5.29
240.735	62.63
240.952	1.19
241.169	76.97
241.386	-0.85
241.603	9.39
241.821	44.2
242.038	56.49
242.255	23.72
242.472	11.43
242.689	-29.52
242.907	3.24
243.124	62.63
243.341	23.72
243.558	36.01
243.775	-29.52
243.992	29.87
244.209	48.3
244.426	99.5
244.643	87.21
244.86	21.67
245.078	68.78
245.295	52.39
245.512	40.11
245.729	40.11
245.946	-0.85
246.163	11.43
246.38	-29.52
246.597	-45.91
246.814	13.48
247.031	52.39
247.248	91.31
247.464	27.82
247.681	87.21
247.898	36.01
248.115	42.15
248.332	23.72
248.549	27.82
248.766	36.01
248.983	46.25
249.2	142.5
249.417	50.35
249.633	74.92
249.85	31.91
250.067	60.59
250.284	-7
250.501	-7
250.717	44.2
250.934	11.43
251.151	62.63
251.368	66.73
251.585	68.78
251.801	13.48
252.018	44.2
252.235	-37.72
252.451	-15.19
252.668	81.07
252.885	3.24
253.102	93.35
253.318	50.35
253.535	33.96
253.752	15.53
253.968	31.91
254.185	3.24
254.401	-78.68
254.618	36.01
254.835	40.11
255.051	62.63
255.268	76.97
255.484	48.3
255.701	-9.05
255.917	25.77
256.134	36.01
256.351	15.53
256.567	17.58
256.784	7.34
257	-39.76
257.217	17.58
257.433	13.48
257.65	44.2
257.866	-7
258.082	56.49
258.299	48.3
258.515	56.49
258.732	17.58
258.948	48.3
259.165	21.67
259.381	101.55
259.597	76.97
259.814	64.68
260.03	105.64
260.246	5.29
260.463	93.35
260.679	19.63
260.895	-4.95
261.112	52.39
261.328	-19.29
261.544	7.34
261.761	50.35
261.977	-21.33
262.193	54.44
262.409	-9.05
262.626	29.87
262.842	11.43
263.058	5.29
263.274	83.11
263.49	48.3
263.707	83.11
263.923	25.77
264.139	19.63
264.355	44.2
264.571	13.48
264.787	74.92
265.004	33.96
265.22	36.01
265.436	70.83
265.652	13.48
265.868	62.63
266.084	17.58
266.3	3.24
266.516	66.73
266.732	-33.62
266.948	56.49
267.164	89.26
267.38	115.88
267.596	62.63
267.812	19.63
268.028	5.29
268.244	107.69
268.46	-35.67
268.676	9.39
268.892	48.3
269.108	42.15
269.324	87.21
269.54	62.63
269.756	36.01
269.972	76.97
270.188	72.87
270.403	27.82
270.619	40.11
270.835	-17.24
271.051	13.48
271.267	-35.67
271.483	21.67
271.698	-4.95
271.914	58.54
272.13	89.26
272.346	74.92
272.562	-15.19
272.777	99.5
272.993	79.02
273.209	36.01
273.425	36.01
273.64	-0.85
273.856	-11.09
274.072	48.3
274.287	3.24
274.503	7.34
274.719	58.54
274.934	3.24
275.15	66.73
275.366	111.78
275.581	7.34
275.797	23.72
276.012	36.01
276.228	-0.85
276.444	19.63
276.659	3.24
276.875	46.25
277.09	-29.52
277.306	5.29
277.521	27.82
277.737	44.2
277.952	38.06
278.168	36.01
278.383	42.15
278.599	40.11
278.814	13.48
279.03	50.35
279.245	27.82
279.461	-19.29
279.676	91.31
279.892	-23.38
280.107	11.43
280.322	7.34
280.538	85.16
280.753	54.44
280.969	46.25
281.184	-11.09
281.399	23.72
281.615	38.06
281.83	58.54
282.045	-11.09
282.26	13.48
282.476	38.06
282.691	54.44
282.906	-15.19
283.122	56.49
283.337	-2.9
283.552	119.98
283.767	13.48
283.983	76.97
284.198	-4.95
284.413	25.77
284.628	44.2
284.843	38.06
285.058	46.25
285.274	36.01
285.489	17.58
285.704	122.02
285.919	23.72
286.134	25.77
286.349	-25.43
286.564	42.15
286.779	60.59
286.995	52.39
287.21	21.67
287.425	76.97
287.64	-2.9
287.855	66.73
288.07	95.4
288.285	46.25
288.5	42.15
288.715	21.67
288.93	81.07
289.145	25.77
289.36	13.48
289.575	25.77
289.79	40.11
290.004	25.77
290.219	9.39
290.434	68.78
290.649	40.11
290.864	-9.05
291.079	42.15
291.294	44.2
291.509	101.55
291.724	15.53
291.938	60.59
292.153	46.25
292.368	19.63
292.583	56.49
292.798	23.72
293.012	42.15
293.227	-4.95
293.442	44.2
293.657	-54.1
293.871	81.07
294.086	58.54
294.301	101.55
294.516	19.63
294.73	-13.14
294.945	87.21
295.16	64.68
295.374	72.87
295.589	23.72
295.804	-7
296.018	46.25
296.233	101.55
296.447	62.63
296.662	101.55
296.877	42.15
297.091	15.53
297.306	42.15
297.52	42.15
297.735	113.83
297.949	62.63
298.164	58.54
298.378	38.06
298.593	13.48
298.807	56.49
299.022	111.78
299.236	-0.85
299.451	79.02
299.665	7.34
299.88	29.87
300.094	27.82
300.309	44.2
300.523	52.39
300.737	11.43
300.952	60.59
301.166	27.82
301.381	64.68
301.595	9.39
301.809	-41.81
302.024	13.48
302.238	-0.85
302.452	36.01
302.667	7.34
302.881	44.2
303.095	52.39
303.309	38.06
303.524	44.2
303.738	46.25
303.952	1.19
304.166	27.82
304.381	-56.15
304.595	-0.85
304.809	58.54
305.023	-9.05
305.237	-13.14
305.452	29.87
305.666	42.15
305.88	60.59
306.094	48.3
306.308	46.25
306.522	33.96
306.736	21.67
306.95	72.87
307.164	85.16
307.379	-0.85
307.593	17.58
307.807	44.2
308.021	29.87
308.235	19.63
308.449	54.44
308.663	52.39
308.877	91.31
309.091	128.17
309.305	46.25
309.519	15.53
309.733	46.25
309.947	31.91
310.161	42.15
310.374	60.59
310.588	23.72
310.802	68.78
311.016	62.63
311.23	27.82
311.444	27.82
311.658	31.91
311.872	19.63
312.085	-41.81
312.299	33.96
312.513	-37.72
312.727	97.45
312.941	62.63
313.154	19.63
313.368	36.01
313.582	31.91
313.796	29.87
314.009	60.59
314.223	3.24
314.437	-39.76
314.651	50.35
314.864	11.43
315.078	72.87
315.292	42.15
315.505	-29.52
315.719	52.39
315.933	66.73
316.146	148.65
316.36	17.58
316.573	85.16
316.787	89.26
317.001	17.58
317.214	15.53
317.428	91.31
317.641	27.82
317.855	70.83
318.068	54.44
318.282	44.2
318.495	-45.91
318.709	56.49
318.922	56.49
319.136	-7
319.349	91.31
319.563	136.36
319.776	109.74
319.99	-15.19
320.203	-11.09
320.417	66.73
320.63	99.5
320.843	52.39
321.057	-37.72
321.27	52.39
321.483	81.07
321.697	42.15
321.91	62.63
322.124	113.83
322.337	40.11
322.55	36.01
322.763	-4.95
322.977	56.49
323.19	68.78
323.403	42.15
323.617	-64.34
323.83	38.06
324.043	58.54
324.256	27.82
324.469	23.72
324.683	81.07
324.896	-37.72
325.109	48.3
325.322	46.25
325.535	70.83
325.748	56.49
325.962	40.11
326.175	52.39
326.388	58.54
326.601	-45.91
326.814	124.07
327.027	48.3
327.24	48.3
327.453	38.06
327.666	29.87
327.879	-31.57
328.092	101.55
328.305	38.06
328.518	-13.14
328.731	3.24
328.944	72.87
329.157	17.58
329.37	19.63
329.583	-17.24
329.796	66.73
330.009	-29.52
330.222	89.26
330.435	-9.05
330.648	40.11
330.861	64.68
331.073	85.16
331.286	103.59
331.499	19.63
331.712	3.24
331.925	-4.95
332.138	52.39
332.35	19.63
332.563	48.3
332.776	115.88
332.989	3.24
333.202	-4.95
333.414	36.01
333.627	107.69
333.84	-7
334.053	103.59
334.265	27.82
334.478	64.68
334.691	13.48
334.903	50.35
335.116	29.87
335.329	5.29
335.541	31.91
335.754	72.87
335.966	99.5
336.179	56.49
336.392	-25.43
336.604	62.63
336.817	93.35
337.029	95.4
337.242	13.48
337.454	-7
337.667	89.26
337.88	68.78
338.092	1.19
338.305	23.72
338.517	31.91
338.729	93.35
338.942	-9.05
339.154	27.82
339.367	-4.95
339.579	70.83
339.792	27.82
340.004	44.2
340.217	-0.85
340.429	60.59
340.641	5.29
340.854	70.83
341.066	3.24
341.278	111.78
341.491	60.59
341.703	38.06
341.915	95.4
342.128	52.39
342.34	64.68
342.552	11.43
342.764	23.72
342.977	95.4
343.189	36.01
343.401	31.91
343.613	54.44
343.826	13.48
344.038	31.91
344.25	11.43
344.462	109.74
344.674	52.39
344.886	7.34
345.099	46.25
345.311	36.01
345.523	54.44
345.735	-9.05
345.947	-19.29
346.159	29.87
346.371	89.26
346.583	50.35
346.795	46.25
347.007	91.31
347.219	60.59
347.431	11.43
347.643	23.72
347.855	68.78
348.067	52.39
348.279	29.87
348.491	44.2
348.703	-15.19
348.915	87.21
349.127	70.83
349.339	70.83
349.551	31.91
349.763	83.11
349.975	38.06
350.187	11.43
350.399	50.35
350.61	46.25
350.822	-21.33
351.034	38.06
351.246	3.24
351.458	38.06
351.669	64.68
351.881	72.87
352.093	46.25
352.305	64.68
352.517	62.63
352.728	138.41
352.94	83.11
353.152	46.25
353.363	9.39
353.575	54.44
353.787	38.06
353.999	136.36
354.21	42.15
354.422	95.4
354.633	-23.38
354.845	93.35
355.057	-25.43
355.268	48.3
355.48	87.21
355.692	48.3
355.903	19.63
356.115	19.63
356.326	-17.24
356.538	76.97
356.749	48.3
356.961	66.73
357.172	44.2
357.384	72.87
357.595	17.58
357.807	27.82
358.018	74.92
358.23	81.07
358.441	62.63
358.653	40.11
358.864	85.16
359.075	56.49
359.287	42.15
359.498	44.2
359.709	-35.67
359.921	42.15
360.132	19.63
360.344	52.39
360.555	13.48
360.766	38.06
360.977	85.16
361.189	11.43
361.4	-13.14
361.611	52.39
361.823	62.63
362.034	5.29
362.245	42.15
362.456	29.87
362.667	38.06
362.879	64.68
363.09	13.48
363.301	79.02
363.512	76.97
363.723	33.96
363.935	21.67
364.146	109.74
364.357	97.45
364.568	87.21
364.779	36.01
364.99	52.39
365.201	23.72
365.412	54.44
365.623	56.49
365.834	60.59
366.045	-39.76
366.256	56.49
366.467	-19.29
366.678	103.59
366.889	-39.76
367.1	19.63
367.311	7.34
367.522	7.34
367.733	13.48
367.944	-2.9
368.155	21.67
368.366	31.91
368.577	44.2
368.788	5.29
368.999	72.87
369.209	27.82
369.42	117.93
369.631	113.83
369.842	13.48
370.053	85.16
370.264	54.44
370.474	36.01
370.685	-11.09
370.896	72.87
371.107	19.63
371.317	79.02
371.528	36.01
371.739	87.21
371.95	93.35
372.16	-4.95
372.371	-29.52
372.582	27.82
372.792	40.11
373.003	70.83
373.214	5.29
373.424	54.44
373.635	-31.57
373.846	74.92
374.056	-21.33
374.267	23.72
374.477	40.11
374.688	33.96
374.898	-2.9
375.109	87.21
375.319	23.72
375.53	29.87
375.74	11.43
375.951	13.48
376.161	38.06
376.372	76.97
376.582	74.92
376.793	38.06
377.003	50.35
377.214	74.92
377.424	40.11
377.635	1.19
377.845	38.06
378.055	29.87
378.266	5.29
378.476	40.11
378.686	48.3
378.897	99.5
379.107	38.06
379.317	56.49
379.528	93.35
379.738	52.39
379.948	85.16
380.158	128.17
380.369	1.19
380.579	70.83
380.789	83.11
380.999	1.19
381.21	33.96
381.42	46.25
381.63	58.54
381.84	36.01
382.05	42.15
382.261	46.25
382.471	66.73
382.681	54.44
382.891	11.43
383.101	105.64
383.311	101.55
383.521	68.78
383.731	81.07
383.941	85.16
384.151	40.11
384.361	48.3
384.571	19.63
384.781	54.44
384.991	99.5
385.201	134.31
385.411	33.96
385.621	62.63
385.831	50.35
386.041	93.35
386.251	40.11
386.461	44.2
386.671	54.44
386.881	52.39
387.091	21.67
387.301	95.4
387.511	44.2
387.72	52.39
387.93	144.55
388.14	68.78
388.35	46.25
388.56	40.11
388.769	31.91
388.979	122.02
389.189	17.58
389.399	58.54
389.609	-25.43
389.818	40.11
390.028	76.97
390.238	42.15
390.447	42.15
390.657	85.16
390.867	19.63
391.076	109.74
391.286	50.35
391.496	50.35
391.705	85.16
391.915	62.63
392.125	119.98
392.334	134.31
392.544	99.5
392.753	60.59
392.963	-25.43
393.172	83.11
393.382	42.15
393.591	7.34
393.801	126.12
394.01	81.07
394.22	107.69
394.429	95.4
394.639	-0.85
394.848	85.16
395.058	76.97
395.267	56.49
395.477	95.4
395.686	62.63
395.895	83.11
396.105	60.59
396.314	38.06
396.524	56.49
396.733	46.25
396.942	70.83
397.152	-23.38
397.361	119.98
397.57	44.2
397.78	62.63
397.989	46.25
398.198	72.87
398.407	117.93
398.617	52.39
398.826	72.87
399.035	52.39
399.244	144.55
399.453	111.78
399.663	109.74
399.872	70.83
400.081	91.31
400.29	50.35
400.499	132.26
400.708	140.46
400.917	101.55
401.127	105.64
401.336	54.44
401.545	97.45
401.754	111.78
401.963	87.21
402.172	87.21
402.381	91.31
402.59	87.21
402.799	85.16
403.008	62.63
403.217	122.02
403.426	103.59
403.635	76.97
403.844	122.02
404.053	93.35
404.262	156.84
404.471	99.5
404.68	85.16
404.888	167.08
405.097	160.94
405.306	117.93
405.515	97.45
405.724	76.97
405.933	66.73
406.142	62.63
406.35	72.87
406.559	103.59
406.768	79.02
406.977	171.18
407.185	144.55
407.394	162.98
407.603	144.55
407.812	150.7
408.02	154.79
408.229	171.18
408.438	167.08
408.646	142.5
408.855	212.14
409.064	216.23
409.272	144.55
409.481	158.89
409.69	191.66
409.898	240.81
410.107	281.77
410.315	195.75
410.524	142.5
410.733	158.89
410.941	232.62
411.15	183.46
411.358	267.43
411.567	193.7
411.775	179.37
411.984	318.63
412.192	298.15
412.401	275.62
412.609	335.01
412.818	332.97
413.026	351.4
413.234	302.25
413.443	373.92
413.651	351.4
413.86	335.01
414.068	437.41
414.276	429.22
414.485	388.26
414.693	410.79
414.901	410.79
415.11	308.39
415.318	468.13
415.526	468.13
415.734	492.71
415.943	437.41
416.151	527.52
416.359	525.47
416.567	529.57
416.776	597.15
416.984	578.72
417.192	564.39
417.4	560.29
417.608	550.05
417.817	777.37
418.025	685.22
418.233	679.07
418.441	660.64
418.649	707.74
418.857	806.05
419.065	689.31
419.273	711.84
419.481	828.57
419.689	842.91
419.897	869.53
420.105	902.3
420.313	941.21
420.521	1029.27
420.729	945.31
420.937	990.36
421.145	1105.05
421.353	1076.38
421.561	1127.58
421.769	1193.11
421.977	1219.74
422.185	1201.3
422.393	1311.89
422.601	1385.62
422.809	1344.66
423.017	1436.82
423.224	1371.29
423.432	1422.48
423.64	1416.34
423.848	1590.42
424.056	1514.64
424.263	1662.1
424.471	1655.95
424.679	1608.85
424.887	1725.58
425.094	1895.57
425.302	1789.07
425.51	1973.39
425.718	2024.59
425.925	2047.12
426.133	2163.85
426.341	2165.9
426.548	2235.53
426.756	2237.58
426.964	2264.2
427.171	2469
427.379	2524.29
427.586	2544.77
427.794	2579.59
428.001	2870.4
428.209	2864.25
428.417	2790.53
428.624	3017.85
428.832	3110.01
429.039	3036.28
429.247	3071.1
429.454	3329.14
429.662	3456.12
429.869	3333.24
430.076	3544.18
430.284	3353.72
430.491	3554.42
430.699	3746.93
430.906	3765.36
431.114	3736.69
431.321	3884.14
431.528	3990.64
431.736	4283.5
431.943	4519.01
432.15	4310.12
432.358	4338.79
432.565	4496.49
432.772	4447.33
432.979	4789.35
433.187	4895.84
433.394	4899.94
433.601	5383.26
433.808	5155.93
434.016	5368.92
434.223	5450.84
434.43	5772.37
434.637	5616.72
434.844	6165.58
435.052	6224.97
435.259	6288.46
435.466	6138.96
435.673	6204.49
435.88	6485.06
436.087	6837.31
436.294	7005.25
436.501	6794.31
436.708	6970.43
436.915	6964.29
437.122	7648.31
437.329	7539.77
437.537	7640.12
437.743	7777.33
437.95	7660.6
438.157	8109.1
438.364	8371.24
438.571	8545.32
438.778	8391.72
438.985	9327.64
439.192	8967.2
439.399	9163.81
439.606	8944.67
439.813	9446.43
440.02	10140.69
440.227	9919.51
440.433	9876.5
440.64	10036.24
440.847	10261.52
441.054	10333.2
441.261	10966.02
441.467	10761.22
441.674	11037.7
441.881	11443.2
442.088	11400.19
442.294	11392
442.501	11604.99
442.708	11824.12
442.914	12489.71
443.121	12903.4
443.328	12508.14
443.534	13212.64
443.741	12798.95
443.948	12968.93
444.154	13831.13
444.361	13730.78
444.568	13661.15
444.774	13771.74
444.981	14021.59
445.187	14459.85
445.394	15127.49
445.6	14971.85
445.807	16350.13
446.013	15819.71
446.22	15967.16
446.426	16708.52
446.633	16839.59
446.839	17318.82
447.046	16702.38
447.252	17752.99
447.459	17689.5
447.665	17800.09
447.871	18680.72
448.078	19299.2
448.284	18398.1
448.491	18942.86
448.697	19630.98
448.903	20073.34
449.11	19962.75
449.316	19739.52
449.522	20472.69
449.728	20575.09
449.935	21009.26
450.141	20982.63
450.347	21181.29
450.553	20722.54
450.76	21113.7
450.966	21594.98
451.172	21449.57
451.378	21826.4
451.584	21394.28
451.791	22203.22
451.997	22143.83
452.203	22582.1
452.409	22762.32
452.615	22428.5
452.821	21678.94
453.027	21531.49
453.233	22465.36
453.44	21719.9
453.646	21943.13
453.852	22070.11
454.058	22358.87
454.264	21623.65
454.47	22281.05
454.676	21869.4
454.882	22307.67
455.088	20360.05
455.294	20929.39
455.5	21011.31
455.705	21248.87
455.911	20499.31
456.117	19850.11
456.323	19749.76
456.529	18969.48
456.735	19655.55
456.941	19178.37
457.147	19069.83
457.352	18246.55
457.558	18037.66
457.764	18097.05
457.97	17849.24
458.176	17460.13
458.381	17529.76
458.587	16370.61
458.793	16688.04
458.999	15700.92
459.204	16675.76
459.41	16397.23
459.616	15293.38
459.821	15573.95
460.027	15057.86
460.233	14785.48
460.438	14101.46
460.644	14509.01
460.85	13874.13
461.055	13632.47
461.261	13702.11
461.466	12499.95
461.672	12024.82
461.878	13161.44
462.083	12096.5
462.289	11727.86
462.494	11813.88
462.7	11521.02
462.905	10951.68
463.111	11385.85
463.316	11492.35
463.522	11236.35
463.727	11232.26
463.932	11068.42
464.138	11088.9
464.343	10886.15
464.549	10767.37
464.754	10941.44
464.959	11179.01
465.165	10918.92
465.37	10507.27
465.575	10259.47
465.781	10564.62
465.986	10554.38
466.191	10351.63
466.397	10150.93
466.602	9659.42
466.807	9921.56
467.012	9911.32
467.218	9790.49
467.423	9808.92
467.628	9884.69
467.833	10384.4
468.038	9882.64
468.244	9524.25
468.449	9909.27
468.654	9751.57
468.859	9731.09
469.064	9522.2
469.269	9311.26
