Data from USB4F104151__76__12-59-41-681.txt Node

Date: Fri Mar 14 12:59:41 EDT 2025
User: louis
Spectrometer: USB4F10415
Trigger mode: 4
Integration Time (sec): 1.000000E-2
Scans to average: 1
Electric dark correction enabled: true
Nonlinearity correction enabled: false
Boxcar width: 0
XAxis mode: Wavelengths
Number of Pixels in Spectrum: 3648
>>>>>Begin Spectral Data<<<<<
178.204	-17.75
178.424	-17.75
178.644	-17.75
178.864	-77.14
179.084	-15.7
179.304	19.11
179.524	-46.42
179.744	-13.65
179.964	105.13
180.184	12.97
180.404	-9.56
180.624	-7.51
180.844	-89.43
181.064	8.87
181.283	49.83
181.503	-19.8
181.723	-9.56
181.943	62.12
182.163	0.68
182.383	-7.51
182.602	53.93
182.822	84.65
183.042	37.55
183.262	49.83
183.482	12.97
183.701	39.59
183.921	78.51
184.141	55.98
184.361	119.46
184.58	-48.47
184.8	-1.37
185.02	-15.7
185.239	70.31
185.459	19.11
185.679	53.93
185.898	25.26
186.118	39.59
186.338	90.79
186.557	94.89
186.777	49.83
186.997	55.98
187.216	-32.08
187.436	88.75
187.655	31.4
187.875	90.79
188.095	58.03
188.314	80.55
188.534	25.26
188.753	-50.52
188.973	76.46
189.192	86.7
189.412	45.74
189.631	33.45
189.851	76.46
190.07	80.55
190.29	17.07
190.509	47.79
190.729	15.02
190.948	90.79
191.168	162.47
191.387	86.7
191.607	35.5
191.826	15.02
192.045	-7.51
192.265	39.59
192.484	80.55
192.704	60.07
192.923	58.03
193.142	58.03
193.362	0.68
193.581	25.26
193.8	37.55
194.02	62.12
194.239	15.02
194.458	113.32
194.678	0.68
194.897	-30.04
195.116	62.12
195.335	0.68
195.555	123.56
195.774	43.69
195.993	70.31
196.212	35.5
196.432	-30.04
196.651	31.4
196.87	43.69
197.089	27.31
197.308	55.98
197.528	84.65
197.747	-21.85
197.966	15.02
198.185	-11.61
198.404	29.35
198.623	-13.65
198.842	23.21
199.062	6.83
199.281	58.03
199.5	-1.37
199.719	41.64
199.938	-19.8
200.157	39.59
200.376	39.59
200.595	-5.46
200.814	51.88
201.033	-15.7
201.252	43.69
201.471	72.36
201.69	119.46
201.909	37.55
202.128	31.4
202.347	53.93
202.566	-3.41
202.785	19.11
203.004	66.22
203.223	96.94
203.442	35.5
203.661	17.07
203.879	62.12
204.098	39.59
204.317	82.6
204.536	15.02
204.755	15.02
204.974	21.16
205.193	84.65
205.411	78.51
205.63	15.02
205.849	53.93
206.068	29.35
206.287	72.36
206.505	-34.13
206.724	60.07
206.943	82.6
207.162	58.03
207.381	94.89
207.599	64.17
207.818	103.08
208.037	35.5
208.255	60.07
208.474	49.83
208.693	62.12
208.911	12.97
209.13	47.79
209.349	49.83
209.567	101.03
209.786	66.22
210.005	25.26
210.223	86.7
210.442	80.55
210.661	-5.46
210.879	-34.13
211.098	76.46
211.316	12.97
211.535	21.16
211.753	35.5
211.972	23.21
212.191	139.94
212.409	33.45
212.628	-9.56
212.846	45.74
213.065	8.87
213.283	35.5
213.502	21.16
213.72	82.6
213.938	-17.75
214.157	74.41
214.375	2.73
214.594	12.97
214.812	-17.75
215.031	76.46
215.249	39.59
215.467	78.51
215.686	29.35
215.904	84.65
216.122	4.78
216.341	6.83
216.559	86.7
216.778	80.55
216.996	47.79
217.214	49.83
217.432	-23.89
217.651	23.21
217.869	66.22
218.087	88.75
218.306	51.88
218.524	66.22
218.742	49.83
218.96	12.97
219.179	8.87
219.397	90.79
219.615	47.79
219.833	49.83
220.051	19.11
220.27	86.7
220.488	25.26
220.706	43.69
220.924	25.26
221.142	123.56
221.36	49.83
221.578	70.31
221.796	37.55
222.015	-13.65
222.233	37.55
222.451	146.09
222.669	70.31
222.887	19.11
223.105	103.08
223.323	15.02
223.541	4.78
223.759	-5.46
223.977	47.79
224.195	76.46
224.413	80.55
224.631	101.03
224.849	-46.42
225.067	111.27
225.285	21.16
225.503	72.36
225.721	-52.56
225.939	27.31
226.157	37.55
226.375	74.41
226.592	4.78
226.81	-54.61
227.028	64.17
227.246	111.27
227.464	80.55
227.682	64.17
227.9	62.12
228.117	107.18
228.335	33.45
228.553	23.21
228.771	88.75
228.989	72.36
229.206	17.07
229.424	90.79
229.642	78.51
229.86	39.59
230.077	27.31
230.295	-71
230.513	29.35
230.731	53.93
230.948	8.87
231.166	25.26
231.384	23.21
231.601	103.08
231.819	92.84
232.037	74.41
232.254	-1.37
232.472	17.07
232.689	70.31
232.907	62.12
233.125	51.88
233.342	-1.37
233.56	21.16
233.777	19.11
233.995	31.4
234.213	-66.9
234.43	4.78
234.648	88.75
234.865	62.12
235.083	148.14
235.3	2.73
235.518	19.11
235.735	-7.51
235.953	62.12
236.17	51.88
236.388	41.64
236.605	19.11
236.822	62.12
237.04	111.27
237.257	60.07
237.475	62.12
237.692	31.4
237.909	39.59
238.127	82.6
238.344	51.88
238.562	78.51
238.779	53.93
238.996	49.83
239.214	82.6
239.431	23.21
239.648	27.31
239.865	107.18
240.083	70.31
240.3	137.9
240.517	17.07
240.735	94.89
240.952	35.5
241.169	127.66
241.386	31.4
241.603	109.22
241.821	27.31
242.038	92.84
242.255	107.18
242.472	4.78
242.689	119.46
242.907	78.51
243.124	53.93
243.341	47.79
243.558	45.74
243.775	37.55
243.992	-34.13
244.209	156.33
244.426	72.36
244.643	115.37
244.86	58.03
245.078	70.31
245.295	45.74
245.512	101.03
245.729	53.93
245.946	41.64
246.163	78.51
246.38	41.64
246.597	-48.47
246.814	25.26
247.031	39.59
247.248	41.64
247.464	41.64
247.681	33.45
247.898	74.41
248.115	76.46
248.332	15.02
248.549	27.31
248.766	49.83
248.983	80.55
249.2	49.83
249.417	-7.51
249.633	-27.99
249.85	51.88
250.067	51.88
250.284	-11.61
250.501	60.07
250.717	76.46
250.934	-7.51
251.151	29.35
251.368	25.26
251.585	72.36
251.801	6.83
252.018	72.36
252.235	70.31
252.451	31.4
252.668	15.02
252.885	62.12
253.102	19.11
253.318	86.7
253.535	58.03
253.752	45.74
253.968	62.12
254.185	64.17
254.401	10.92
254.618	55.98
254.835	43.69
255.051	37.55
255.268	33.45
255.484	80.55
255.701	86.7
255.917	96.94
256.134	2.73
256.351	53.93
256.567	68.27
256.784	62.12
257	58.03
257.217	10.92
257.433	70.31
257.65	6.83
257.866	64.17
258.082	78.51
258.299	19.11
258.515	8.87
258.732	-1.37
258.948	45.74
259.165	-5.46
259.381	31.4
259.597	-25.94
259.814	88.75
260.03	96.94
260.246	84.65
260.463	125.61
260.679	92.84
260.895	-7.51
261.112	80.55
261.328	74.41
261.544	88.75
261.761	90.79
261.977	2.73
262.193	19.11
262.409	70.31
262.626	64.17
262.842	129.7
263.058	60.07
263.274	62.12
263.49	33.45
263.707	25.26
263.923	-11.61
264.139	76.46
264.355	55.98
264.571	33.45
264.787	29.35
265.004	94.89
265.22	33.45
265.436	98.99
265.652	84.65
265.868	80.55
266.084	-7.51
266.3	2.73
266.516	15.02
266.732	107.18
266.948	82.6
267.164	64.17
267.38	31.4
267.596	33.45
267.812	19.11
268.028	-5.46
268.244	74.41
268.46	-27.99
268.676	-7.51
268.892	135.85
269.108	35.5
269.324	66.22
269.54	58.03
269.756	45.74
269.972	0.68
270.188	82.6
270.403	39.59
270.619	94.89
270.835	-3.41
271.051	-5.46
271.267	2.73
271.483	19.11
271.698	6.83
271.914	60.07
272.13	23.21
272.346	19.11
272.562	74.41
272.777	47.79
272.993	86.7
273.209	-17.75
273.425	-15.7
273.64	-1.37
273.856	31.4
274.072	35.5
274.287	55.98
274.503	8.87
274.719	86.7
274.934	45.74
275.15	27.31
275.366	15.02
275.581	41.64
275.797	60.07
276.012	21.16
276.228	25.26
276.444	86.7
276.659	96.94
276.875	68.27
277.09	53.93
277.306	21.16
277.521	53.93
277.737	72.36
277.952	-13.65
278.168	-30.04
278.383	78.51
278.599	29.35
278.814	49.83
279.03	23.21
279.245	70.31
279.461	96.94
279.676	98.99
279.892	12.97
280.107	72.36
280.322	-11.61
280.538	66.22
280.753	37.55
280.969	31.4
281.184	82.6
281.399	-11.61
281.615	8.87
281.83	27.31
282.045	78.51
282.26	-23.89
282.476	-15.7
282.691	115.37
282.906	47.79
283.122	74.41
283.337	2.73
283.552	21.16
283.767	-11.61
283.983	98.99
284.198	37.55
284.413	70.31
284.628	-7.51
284.843	70.31
285.058	64.17
285.274	51.88
285.489	-44.37
285.704	92.84
285.919	-23.89
286.134	23.21
286.349	29.35
286.564	80.55
286.779	51.88
286.995	70.31
287.21	39.59
287.425	17.07
287.64	72.36
287.855	70.31
288.07	12.97
288.285	94.89
288.5	72.36
288.715	27.31
288.93	31.4
289.145	70.31
289.36	119.46
289.575	-50.52
289.79	0.68
290.004	-9.56
290.219	68.27
290.434	64.17
290.649	29.35
290.864	86.7
291.079	12.97
291.294	37.55
291.509	62.12
291.724	41.64
291.938	33.45
292.153	58.03
292.368	21.16
292.583	12.97
292.798	88.75
293.012	10.92
293.227	90.79
293.442	70.31
293.657	-40.28
293.871	101.03
294.086	45.74
294.301	29.35
294.516	66.22
294.73	33.45
294.945	37.55
295.16	0.68
295.374	35.5
295.589	64.17
295.804	31.4
296.018	-30.04
296.233	4.78
296.447	2.73
296.662	37.55
296.877	58.03
297.091	39.59
297.306	74.41
297.52	-40.28
297.735	66.22
297.949	33.45
298.164	23.21
298.378	-17.75
298.593	25.26
298.807	37.55
299.022	17.07
299.236	15.02
299.451	101.03
299.665	-62.8
299.88	72.36
300.094	80.55
300.309	4.78
300.523	-21.85
300.737	43.69
300.952	94.89
301.166	-5.46
301.381	27.31
301.595	88.75
301.809	53.93
302.024	47.79
302.238	82.6
302.452	64.17
302.667	49.83
302.881	103.08
303.095	51.88
303.309	39.59
303.524	80.55
303.738	115.37
303.952	15.02
304.166	53.93
304.381	41.64
304.595	74.41
304.809	31.4
305.023	21.16
305.237	17.07
305.452	25.26
305.666	-5.46
305.88	152.23
306.094	35.5
306.308	105.13
306.522	17.07
306.736	15.02
306.95	74.41
307.164	-40.28
307.379	60.07
307.593	47.79
307.807	29.35
308.021	-5.46
308.235	6.83
308.449	8.87
308.663	17.07
308.877	88.75
309.091	92.84
309.305	47.79
309.519	27.31
309.733	12.97
309.947	21.16
310.161	94.89
310.374	27.31
310.588	29.35
310.802	45.74
311.016	-1.37
311.23	-7.51
311.444	37.55
311.658	127.66
311.872	62.12
312.085	53.93
312.299	29.35
312.513	70.31
312.727	-27.99
312.941	62.12
313.154	68.27
313.368	45.74
313.582	62.12
313.796	53.93
314.009	78.51
314.223	72.36
314.437	58.03
314.651	31.4
314.864	76.46
315.078	119.46
315.292	27.31
315.505	53.93
315.719	98.99
315.933	12.97
316.146	51.88
316.36	72.36
316.573	66.22
316.787	64.17
317.001	66.22
317.214	6.83
317.428	80.55
317.641	105.13
317.855	160.42
318.068	68.27
318.282	19.11
318.495	105.13
318.709	-9.56
318.922	86.7
319.136	49.83
319.349	41.64
319.563	70.31
319.776	66.22
319.99	55.98
320.203	-21.85
320.417	41.64
320.63	19.11
320.843	70.31
321.057	94.89
321.27	129.7
321.483	62.12
321.697	88.75
321.91	37.55
322.124	-36.18
322.337	62.12
322.55	68.27
322.763	88.75
322.977	19.11
323.19	35.5
323.403	90.79
323.617	29.35
323.83	66.22
324.043	31.4
324.256	12.97
324.469	12.97
324.683	12.97
324.896	45.74
325.109	78.51
325.322	35.5
325.535	43.69
325.748	15.02
325.962	84.65
326.175	66.22
326.388	111.27
326.601	82.6
326.814	58.03
327.027	29.35
327.24	72.36
327.453	25.26
327.666	72.36
327.879	70.31
328.092	64.17
328.305	15.02
328.518	27.31
328.731	88.75
328.944	31.4
329.157	-17.75
329.37	98.99
329.583	51.88
329.796	21.16
330.009	-13.65
330.222	84.65
330.435	113.32
330.648	25.26
330.861	80.55
331.073	43.69
331.286	45.74
331.499	31.4
331.712	127.66
331.925	27.31
332.138	45.74
332.35	80.55
332.563	45.74
332.776	41.64
332.989	35.5
333.202	27.31
333.414	80.55
333.627	8.87
333.84	-13.65
334.053	43.69
334.265	94.89
334.478	111.27
334.691	-15.7
334.903	19.11
335.116	0.68
335.329	98.99
335.541	64.17
335.754	27.31
335.966	49.83
336.179	15.02
336.392	94.89
336.604	15.02
336.817	23.21
337.029	141.99
337.242	43.69
337.454	88.75
337.667	58.03
337.88	51.88
338.092	70.31
338.305	41.64
338.517	55.98
338.729	119.46
338.942	107.18
339.154	43.69
339.367	39.59
339.579	84.65
339.792	94.89
340.004	103.08
340.217	94.89
340.429	8.87
340.641	-1.37
340.854	53.93
341.066	90.79
341.278	103.08
341.491	58.03
341.703	94.89
341.915	8.87
342.128	55.98
342.34	41.64
342.552	105.13
342.764	62.12
342.977	82.6
343.189	4.78
343.401	6.83
343.613	-11.61
343.826	74.41
344.038	19.11
344.25	6.83
344.462	31.4
344.674	94.89
344.886	27.31
345.099	25.26
345.311	68.27
345.523	-1.37
345.735	-34.13
345.947	84.65
346.159	-11.61
346.371	19.11
346.583	47.79
346.795	78.51
347.007	72.36
347.219	-3.41
347.431	146.09
347.643	45.74
347.855	6.83
348.067	33.45
348.279	21.16
348.491	66.22
348.703	6.83
348.915	41.64
349.127	-3.41
349.339	31.4
349.551	19.11
349.763	66.22
349.975	51.88
350.187	103.08
350.399	41.64
350.61	103.08
350.822	58.03
351.034	37.55
351.246	53.93
351.458	31.4
351.669	58.03
351.881	-1.37
352.093	31.4
352.305	88.75
352.517	94.89
352.728	17.07
352.94	51.88
353.152	146.09
353.363	33.45
353.575	72.36
353.787	31.4
353.999	-3.41
354.21	60.07
354.422	47.79
354.633	62.12
354.845	76.46
355.057	105.13
355.268	60.07
355.48	49.83
355.692	37.55
355.903	-23.89
356.115	-27.99
356.326	21.16
356.538	-15.7
356.749	6.83
356.961	80.55
357.172	37.55
357.384	62.12
357.595	111.27
357.807	29.35
358.018	23.21
358.23	70.31
358.441	64.17
358.653	103.08
358.864	82.6
359.075	17.07
359.287	23.21
359.498	15.02
359.709	72.36
359.921	31.4
360.132	17.07
360.344	80.55
360.555	58.03
360.766	70.31
360.977	70.31
361.189	39.59
361.4	86.7
361.611	27.31
361.823	58.03
362.034	82.6
362.245	55.98
362.456	88.75
362.667	96.94
362.879	15.02
363.09	74.41
363.301	133.8
363.512	41.64
363.723	6.83
363.935	23.21
364.146	115.37
364.357	101.03
364.568	90.79
364.779	103.08
364.99	64.17
365.201	-19.8
365.412	41.64
365.623	88.75
365.834	66.22
366.045	64.17
366.256	6.83
366.467	53.93
366.678	76.46
366.889	12.97
367.1	17.07
367.311	19.11
367.522	70.31
367.733	43.69
367.944	88.75
368.155	41.64
368.366	64.17
368.577	62.12
368.788	84.65
368.999	70.31
369.209	25.26
369.42	53.93
369.631	131.75
369.842	58.03
370.053	47.79
370.264	70.31
370.474	39.59
370.685	39.59
370.896	70.31
371.107	-23.89
371.317	41.64
371.528	58.03
371.739	45.74
371.95	37.55
372.16	119.46
372.371	35.5
372.582	115.37
372.792	4.78
373.003	103.08
373.214	-9.56
373.424	133.8
373.635	12.97
373.846	23.21
374.056	2.73
374.267	39.59
374.477	45.74
374.688	58.03
374.898	49.83
375.109	70.31
375.319	45.74
375.53	6.83
375.74	21.16
375.951	-30.04
376.161	51.88
376.372	101.03
376.582	47.79
376.793	41.64
377.003	-27.99
377.214	68.27
377.424	131.75
377.635	88.75
377.845	37.55
378.055	49.83
378.266	76.46
378.476	15.02
378.686	-15.7
378.897	4.78
379.107	51.88
379.317	62.12
379.528	49.83
379.738	58.03
379.948	-3.41
380.158	-36.18
380.369	45.74
380.579	82.6
380.789	39.59
380.999	21.16
381.21	8.87
381.42	82.6
381.63	90.79
381.84	117.42
382.05	39.59
382.261	88.75
382.471	21.16
382.681	111.27
382.891	82.6
383.101	86.7
383.311	47.79
383.521	31.4
383.731	86.7
383.941	58.03
384.151	4.78
384.361	-40.28
384.571	62.12
384.781	121.51
384.991	60.07
385.201	98.99
385.411	49.83
385.621	47.79
385.831	-7.51
386.041	74.41
386.251	33.45
386.461	84.65
386.671	35.5
386.881	62.12
387.091	27.31
387.301	70.31
387.511	53.93
387.72	94.89
387.93	-11.61
388.14	58.03
388.35	90.79
388.56	2.73
388.769	19.11
388.979	98.99
389.189	-34.13
389.399	74.41
389.609	25.26
389.818	101.03
390.028	113.32
390.238	96.94
390.447	17.07
390.657	47.79
390.867	33.45
391.076	51.88
391.286	17.07
391.496	86.7
391.705	47.79
391.915	103.08
392.125	137.9
392.334	98.99
392.544	101.03
392.753	66.22
392.963	49.83
393.172	90.79
393.382	19.11
393.591	72.36
393.801	27.31
394.01	62.12
394.22	127.66
394.429	55.98
394.639	64.17
394.848	47.79
395.058	80.55
395.267	127.66
395.477	125.61
395.686	51.88
395.895	49.83
396.105	72.36
396.314	-13.65
396.524	107.18
396.733	76.46
396.942	68.27
397.152	8.87
397.361	84.65
397.57	29.35
397.78	62.12
397.989	72.36
398.198	62.12
398.407	45.74
398.617	101.03
398.826	12.97
399.035	19.11
399.244	66.22
399.453	47.79
399.663	23.21
399.872	133.8
400.081	-3.41
400.29	10.92
400.499	10.92
400.708	72.36
400.917	90.79
401.127	74.41
401.336	53.93
401.545	41.64
401.754	76.46
401.963	70.31
402.172	58.03
402.381	64.17
402.59	76.46
402.799	76.46
403.008	64.17
403.217	123.56
403.426	33.45
403.635	15.02
403.844	66.22
404.053	43.69
404.262	43.69
404.471	160.42
404.68	66.22
404.888	29.35
405.097	31.4
405.306	88.75
405.515	45.74
405.724	64.17
405.933	107.18
406.142	80.55
406.35	133.8
406.559	101.03
406.768	86.7
406.977	127.66
407.185	154.28
407.394	156.33
407.603	121.51
407.812	129.7
408.02	170.66
408.229	86.7
408.438	150.18
408.646	78.51
408.855	76.46
409.064	78.51
409.272	121.51
409.481	72.36
409.69	115.37
409.898	113.32
410.107	103.08
410.315	121.51
410.524	158.38
410.733	176.81
410.941	146.09
411.15	148.14
411.358	84.65
411.567	144.04
411.775	139.94
411.984	174.76
412.192	162.47
412.401	189.1
412.609	164.52
412.818	217.77
413.026	219.82
413.234	234.15
413.443	205.48
413.651	193.19
413.86	252.58
414.068	213.67
414.276	236.2
414.485	250.53
414.693	252.58
414.901	258.73
415.11	197.29
415.318	283.3
415.526	244.39
415.734	221.86
415.943	309.93
416.151	326.31
416.359	260.77
416.567	244.39
416.776	289.45
416.984	371.36
417.192	309.93
417.4	369.32
417.608	322.21
417.817	373.41
418.025	410.28
418.233	326.31
418.441	383.65
418.649	332.45
418.857	484
419.065	400.04
419.273	410.28
419.481	463.52
419.689	410.28
419.897	498.34
420.105	541.35
420.313	469.67
420.521	459.43
420.729	504.48
420.937	529.06
421.145	649.89
421.353	610.98
421.561	567.97
421.769	662.18
421.977	653.98
422.185	643.74
422.393	621.22
422.601	762.53
422.809	717.47
423.017	594.59
423.224	752.29
423.432	768.67
423.64	711.33
423.848	787.1
424.056	821.92
424.263	815.77
424.471	811.68
424.679	942.75
424.887	866.97
425.094	1047.19
425.302	948.89
425.51	1045.15
425.718	1008.28
425.925	1006.24
426.133	1106.59
426.341	1110.68
426.548	1133.21
426.756	1110.68
426.964	1270.42
427.171	1266.33
427.379	1282.71
427.586	1329.81
427.794	1292.95
428.001	1454.74
428.209	1391.25
428.417	1471.12
428.624	1602.19
428.832	1555.09
429.039	1526.42
429.247	1559.19
429.454	1653.39
429.662	1772.18
429.869	1739.41
430.076	1856.14
430.284	1784.46
430.491	1792.66
430.699	1899.15
430.906	1938.06
431.114	1964.68
431.321	1970.83
431.528	2093.71
431.736	2136.71
431.943	2290.31
432.15	2208.39
432.358	2232.97
432.565	2370.18
432.772	2405
432.979	2335.37
433.187	2544.26
433.394	2474.63
433.601	2675.33
433.808	2667.14
434.016	2665.09
434.223	2779.78
434.43	3011.2
434.637	2734.72
434.844	3158.65
435.052	2937.47
435.259	3060.35
435.466	3185.27
435.673	3111.55
435.88	3156.6
436.087	3521.14
436.294	3510.9
436.501	3367.54
436.708	3316.34
436.915	3377.78
437.122	3621.49
437.329	3672.69
437.537	3871.34
437.743	3900.02
437.95	3824.24
438.157	4149.87
438.364	4129.39
438.571	4260.46
438.778	4250.22
438.985	4629.09
439.192	4436.58
439.399	4569.7
439.606	4508.26
439.813	4760.16
440.02	5110.36
440.227	4952.67
440.433	4854.37
440.64	5225.05
440.847	4885.09
441.054	5120.6
441.261	5378.65
441.467	5380.7
441.674	5474.9
441.881	5610.07
442.088	5603.93
442.294	5642.84
442.501	5780.05
442.708	5921.36
442.914	5935.7
443.121	6367.82
443.328	6117.97
443.534	6660.68
443.741	6494.79
443.948	6472.26
444.154	6783.56
444.361	6814.27
444.568	6853.19
444.774	6924.86
444.981	6990.4
445.187	7354.94
445.394	7475.77
445.6	7365.18
445.807	7889.46
446.013	7901.75
446.22	8049.2
446.426	8270.38
446.633	8333.87
446.839	8636.97
447.046	8223.28
447.252	8716.84
447.459	8800.8
447.665	8698.41
447.871	9108
448.078	9513.5
448.284	9194.01
448.491	9255.45
448.697	9845.27
448.903	9775.64
449.11	9869.84
449.316	9855.51
449.522	9863.7
449.728	10211.85
449.935	10344.97
450.141	10387.98
450.347	10484.23
450.553	10240.53
450.76	10156.56
450.966	10562.06
451.172	10525.19
451.378	10764.81
451.584	10654.22
451.791	10924.55
451.997	10883.59
452.203	11239.94
452.409	11045.38
452.615	11137.54
452.821	10580.49
453.027	10555.91
453.233	10895.88
453.44	10719.75
453.646	10940.93
453.852	10852.87
454.058	11153.92
454.264	10621.45
454.47	10897.92
454.676	10498.57
454.882	11121.15
455.088	10009.11
455.294	10111.5
455.5	10519.05
455.705	10527.24
455.911	10045.97
456.117	10023.44
456.323	9689.62
456.529	9136.67
456.735	9824.79
456.941	9574.94
457.147	9382.43
457.352	9021.98
457.558	9116.19
457.764	8704.55
457.97	8811.04
458.176	8516.14
458.381	8690.21
458.587	8000.05
458.793	8131.12
458.999	7854.64
459.204	8376.87
459.41	8161.84
459.616	7565.88
459.821	7572.02
460.027	7629.37
460.233	7514.68
460.438	7094.85
460.644	7248.44
460.85	7062.08
461.055	6746.69
461.261	6705.73
461.466	6234.7
461.672	5861.97
461.878	6369.87
462.083	6064.72
462.289	5857.87
462.494	6029.9
462.7	5429.85
462.905	5479
463.111	5591.64
463.316	5784.15
463.522	5565.01
463.727	5560.92
463.932	5651.03
464.138	5591.64
464.343	5532.25
464.549	5370.46
464.754	5540.44
464.959	5468.76
465.165	5413.46
465.37	5259.87
465.575	5042.78
465.781	5464.66
465.986	5163.61
466.191	5157.47
466.397	5108.32
466.602	4661.86
466.807	5067.36
467.012	4913.76
467.218	4962.91
467.423	4891.23
467.628	4831.84
467.833	5216.86
468.038	5206.62
468.244	4731.49
468.449	5022.3
468.654	4944.48
468.859	4852.32
469.064	4758.11
469.269	4538.98
469.474	4602.47
469.679	4608.61
469.885	4586.08
470.09	4604.52
470.295	4571.75
470.5	4448.87
