Data from USB4F104151__52__12-59-14-124.txt Node

Date: Fri Mar 14 12:59:14 EDT 2025
User: louis
Spectrometer: USB4F10415
Trigger mode: 4
Integration Time (sec): 1.000000E-2
Scans to average: 1
Electric dark correction enabled: true
Nonlinearity correction enabled: false
Boxcar width: 0
XAxis mode: Wavelengths
Number of Pixels in Spectrum: 3648
>>>>>Begin Spectral Data<<<<<
178.204	-50.35
178.424	-50.35
178.644	-50.35
178.864	-70.83
179.084	-64.68
179.304	-5.29
179.524	0.85
179.744	7
179.964	-1.19
180.184	-21.67
180.404	37.72
180.624	-3.24
180.844	2.9
181.064	-42.15
181.283	-13.48
181.503	68.44
181.723	-29.87
181.943	-38.06
182.163	0.85
182.383	-13.48
182.602	-21.67
182.822	15.19
183.042	11.09
183.262	11.09
183.482	70.48
183.701	2.9
183.921	25.43
184.141	9.05
184.361	99.16
184.58	-13.48
184.8	23.38
185.02	-1.19
185.239	43.86
185.459	52.05
185.679	72.53
185.898	9.05
186.118	-31.91
186.338	-7.34
186.557	9.05
186.777	17.24
186.997	-33.96
187.216	80.72
187.436	58.2
187.655	-23.72
187.875	7
188.095	66.39
188.314	-19.63
188.534	27.48
188.753	-1.19
188.973	25.43
189.192	95.06
189.412	58.2
189.631	9.05
189.851	50
190.07	15.19
190.29	33.62
190.509	2.9
190.729	-15.53
190.948	56.15
191.168	15.19
191.387	25.43
191.607	27.48
191.826	58.2
192.045	-15.53
192.265	-1.19
192.484	7
192.704	25.43
192.923	-15.53
193.142	68.44
193.362	-31.91
193.581	4.95
193.8	62.29
194.02	41.81
194.239	21.33
194.458	0.85
194.678	19.29
194.897	27.48
195.116	-7.34
195.335	66.39
195.555	72.53
195.774	-7.34
195.993	13.14
196.212	29.52
196.432	25.43
196.651	41.81
196.87	-9.39
197.089	39.76
197.308	-29.87
197.528	-17.58
197.747	-23.72
197.966	19.29
198.185	35.67
198.404	27.48
198.623	35.67
198.842	-54.44
199.062	78.68
199.281	29.52
199.5	60.24
199.719	60.24
199.938	88.92
200.157	86.87
200.376	47.96
200.595	13.14
200.814	64.34
201.033	39.76
201.252	31.57
201.471	27.48
201.69	17.24
201.909	45.91
202.128	35.67
202.347	50
202.566	54.1
202.785	37.72
203.004	56.15
203.223	25.43
203.442	80.72
203.661	68.44
203.879	2.9
204.098	31.57
204.317	74.58
204.536	62.29
204.755	-17.58
204.974	50
205.193	39.76
205.411	52.05
205.63	13.14
205.849	58.2
206.068	-58.54
206.287	-19.63
206.505	-3.24
206.724	146.26
206.943	-25.77
207.162	15.19
207.381	47.96
207.599	17.24
207.818	-1.19
208.037	54.1
208.255	37.72
208.474	0.85
208.693	74.58
208.911	66.39
209.13	-113.83
209.349	27.48
209.567	29.52
209.786	60.24
210.005	-64.68
210.223	25.43
210.442	11.09
210.661	80.72
210.879	50
211.098	50
211.316	-7.34
211.535	31.57
211.753	-36.01
211.972	-21.67
212.191	13.14
212.409	4.95
212.628	-25.77
212.846	-3.24
213.065	68.44
213.283	29.52
213.502	13.14
213.72	-21.67
213.938	29.52
214.157	60.24
214.375	4.95
214.594	-25.77
214.812	-3.24
215.031	70.48
215.249	2.9
215.467	68.44
215.686	29.52
215.904	0.85
216.122	-13.48
216.341	127.83
216.559	23.38
216.778	-42.15
216.996	78.68
217.214	-50.35
217.432	31.57
217.651	9.05
217.869	-21.67
218.087	19.29
218.306	7
218.524	33.62
218.742	-3.24
218.96	-9.39
219.179	47.96
219.397	60.24
219.615	54.1
219.833	66.39
220.051	15.19
220.27	76.63
220.488	31.57
220.706	50
220.924	52.05
221.142	25.43
221.36	21.33
221.578	35.67
221.796	125.78
222.015	60.24
222.233	-3.24
222.451	7
222.669	25.43
222.887	43.86
223.105	-15.53
223.323	21.33
223.541	-21.67
223.759	45.91
223.977	-3.24
224.195	7
224.413	39.76
224.631	-5.29
224.849	-5.29
225.067	45.91
225.285	4.95
225.503	78.68
225.721	15.19
225.939	66.39
226.157	13.14
226.375	15.19
226.592	47.96
226.81	29.52
227.028	23.38
227.246	66.39
227.464	15.19
227.682	93.01
227.9	31.57
228.117	80.72
228.335	-13.48
228.553	-1.19
228.771	11.09
228.989	19.29
229.206	11.09
229.424	-9.39
229.642	-19.63
229.86	0.85
230.077	-36.01
230.295	35.67
230.513	7
230.731	88.92
230.948	25.43
231.166	58.2
231.384	21.33
231.601	-1.19
231.819	21.33
232.037	31.57
232.254	-5.29
232.472	7
232.689	66.39
232.907	60.24
233.125	0.85
233.342	64.34
233.56	33.62
233.777	2.9
233.995	-29.87
234.213	41.81
234.43	-17.58
234.648	-21.67
234.865	52.05
235.083	-46.25
235.3	-25.77
235.518	31.57
235.735	39.76
235.953	78.68
236.17	52.05
236.388	-33.96
236.605	15.19
236.822	47.96
237.04	33.62
237.257	-48.3
237.475	19.29
237.692	74.58
237.909	-33.96
238.127	37.72
238.344	19.29
238.562	-3.24
238.779	-11.43
238.996	56.15
239.214	-48.3
239.431	80.72
239.648	23.38
239.865	43.86
240.083	-7.34
240.3	-62.63
240.517	15.19
240.735	56.15
240.952	62.29
241.169	31.57
241.386	-48.3
241.603	13.14
241.821	60.24
242.038	84.82
242.255	33.62
242.472	-48.3
242.689	43.86
242.907	23.38
243.124	23.38
243.341	9.05
243.558	43.86
243.775	19.29
243.992	33.62
244.209	31.57
244.426	-23.72
244.643	15.19
244.86	15.19
245.078	68.44
245.295	54.1
245.512	15.19
245.729	-1.19
245.946	29.52
246.163	35.67
246.38	9.05
246.597	33.62
246.814	17.24
247.031	-11.43
247.248	-9.39
247.464	15.19
247.681	-17.58
247.898	-40.11
248.115	33.62
248.332	17.24
248.549	-5.29
248.766	-1.19
248.983	-46.25
249.2	76.63
249.417	-11.43
249.633	37.72
249.85	54.1
250.067	19.29
250.284	25.43
250.501	66.39
250.717	21.33
250.934	50
251.151	-31.91
251.368	-1.19
251.585	23.38
251.801	-31.91
252.018	50
252.235	45.91
252.451	-50.35
252.668	-36.01
252.885	19.29
253.102	-3.24
253.318	54.1
253.535	39.76
253.752	52.05
253.968	-27.82
254.185	-7.34
254.401	90.96
254.618	62.29
254.835	21.33
255.051	4.95
255.268	19.29
255.484	2.9
255.701	33.62
255.917	31.57
256.134	27.48
256.351	21.33
256.567	2.9
256.784	58.2
257	76.63
257.217	-33.96
257.433	68.44
257.65	101.2
257.866	21.33
258.082	-13.48
258.299	7
258.515	-1.19
258.732	-27.82
258.948	4.95
259.165	70.48
259.381	47.96
259.597	31.57
259.814	39.76
260.03	88.92
260.246	50
260.463	-11.43
260.679	9.05
260.895	-17.58
261.112	-46.25
261.328	-13.48
261.544	117.59
261.761	21.33
261.977	-31.91
262.193	-9.39
262.409	-50.35
262.626	13.14
262.842	58.2
263.058	74.58
263.274	60.24
263.49	7
263.707	-5.29
263.923	0.85
264.139	15.19
264.355	13.14
264.571	45.91
264.787	-25.77
265.004	93.01
265.22	-13.48
265.436	88.92
265.652	21.33
265.868	11.09
266.084	43.86
266.3	58.2
266.516	41.81
266.732	35.67
266.948	9.05
267.164	-3.24
267.38	-27.82
267.596	-29.87
267.812	19.29
268.028	21.33
268.244	27.48
268.46	-58.54
268.676	21.33
268.892	-9.39
269.108	-1.19
269.324	39.76
269.54	0.85
269.756	56.15
269.972	4.95
270.188	0.85
270.403	-21.67
270.619	39.76
270.835	-1.19
271.051	-9.39
271.267	-29.87
271.483	43.86
271.698	25.43
271.914	29.52
272.13	31.57
272.346	9.05
272.562	62.29
272.777	9.05
272.993	72.53
273.209	27.48
273.425	60.24
273.64	9.05
273.856	35.67
274.072	47.96
274.287	21.33
274.503	47.96
274.719	66.39
274.934	31.57
275.15	39.76
275.366	15.19
275.581	-11.43
275.797	19.29
276.012	2.9
276.228	80.72
276.444	15.19
276.659	-3.24
276.875	-11.43
277.09	127.83
277.306	0.85
277.521	39.76
277.737	-48.3
277.952	43.86
278.168	-19.63
278.383	93.01
278.599	15.19
278.814	45.91
279.03	58.2
279.245	21.33
279.461	21.33
279.676	76.63
279.892	80.72
280.107	-7.34
280.322	-23.72
280.538	52.05
280.753	7
280.969	2.9
281.184	-7.34
281.399	29.52
281.615	15.19
281.83	43.86
282.045	13.14
282.26	15.19
282.476	62.29
282.691	17.24
282.906	-23.72
283.122	11.09
283.337	7
283.552	33.62
283.767	93.01
283.983	27.48
284.198	33.62
284.413	29.52
284.628	33.62
284.843	68.44
285.058	78.68
285.274	-1.19
285.489	31.57
285.704	23.38
285.919	47.96
286.134	62.29
286.349	27.48
286.564	-27.82
286.779	27.48
286.995	7
287.21	-46.25
287.425	45.91
287.64	-3.24
287.855	33.62
288.07	66.39
288.285	33.62
288.5	70.48
288.715	21.33
288.93	27.48
289.145	11.09
289.36	21.33
289.575	0.85
289.79	-13.48
290.004	62.29
290.219	-54.44
290.434	78.68
290.649	-21.67
290.864	52.05
291.079	-9.39
291.294	86.87
291.509	-17.58
291.724	72.53
291.938	93.01
292.153	52.05
292.368	41.81
292.583	27.48
292.798	31.57
293.012	15.19
293.227	76.63
293.442	15.19
293.657	86.87
293.871	27.48
294.086	31.57
294.301	-23.72
294.516	80.72
294.73	9.05
294.945	27.48
295.16	19.29
295.374	31.57
295.589	37.72
295.804	-46.25
296.018	7
296.233	-3.24
296.447	19.29
296.662	-7.34
296.877	-11.43
297.091	31.57
297.306	-25.77
297.52	9.05
297.735	17.24
297.949	39.76
298.164	-3.24
298.378	-19.63
298.593	-7.34
298.807	43.86
299.022	4.95
299.236	54.1
299.451	31.57
299.665	80.72
299.88	35.67
300.094	25.43
300.309	4.95
300.523	-15.53
300.737	27.48
300.952	-19.63
301.166	56.15
301.381	33.62
301.595	-25.77
301.809	50
302.024	-40.11
302.238	-13.48
302.452	0.85
302.667	-42.15
302.881	9.05
303.095	-21.67
303.309	70.48
303.524	7
303.738	25.43
303.952	39.76
304.166	31.57
304.381	-5.29
304.595	47.96
304.809	-3.24
305.023	37.72
305.237	-9.39
305.452	19.29
305.666	41.81
305.88	7
306.094	4.95
306.308	15.19
306.522	-7.34
306.736	7
306.95	47.96
307.164	80.72
307.379	-13.48
307.593	23.38
307.807	-42.15
308.021	-25.77
308.235	39.76
308.449	33.62
308.663	17.24
308.877	99.16
309.091	93.01
309.305	17.24
309.519	-3.24
309.733	58.2
309.947	50
310.161	58.2
310.374	21.33
310.588	74.58
310.802	25.43
311.016	41.81
311.23	50
311.444	31.57
311.658	-25.77
311.872	41.81
312.085	50
312.299	9.05
312.513	39.76
312.727	35.67
312.941	23.38
313.154	60.24
313.368	7
313.582	25.43
313.796	29.52
314.009	15.19
314.223	50
314.437	-23.72
314.651	15.19
314.864	2.9
315.078	68.44
315.292	13.14
315.505	23.38
315.719	93.01
315.933	-1.19
316.146	47.96
316.36	-48.3
316.573	17.24
316.787	-3.24
317.001	56.15
317.214	27.48
317.428	80.72
317.641	-7.34
317.855	60.24
318.068	54.1
318.282	115.54
318.495	64.34
318.709	43.86
318.922	33.62
319.136	35.67
319.349	70.48
319.563	0.85
319.776	-21.67
319.99	21.33
320.203	74.58
320.417	-1.19
320.63	86.87
320.843	-11.43
321.057	13.14
321.27	113.49
321.483	17.24
321.697	43.86
321.91	4.95
322.124	43.86
322.337	47.96
322.55	0.85
322.763	54.1
322.977	11.09
323.19	31.57
323.403	13.14
323.617	97.11
323.83	66.39
324.043	-1.19
324.256	39.76
324.469	27.48
324.683	80.72
324.896	33.62
325.109	60.24
325.322	43.86
325.535	-19.63
325.748	72.53
325.962	31.57
326.175	76.63
326.388	64.34
326.601	-1.19
326.814	64.34
327.027	39.76
327.24	111.44
327.453	25.43
327.666	15.19
327.879	31.57
328.092	43.86
328.305	27.48
328.518	25.43
328.731	56.15
328.944	0.85
329.157	-15.53
329.37	31.57
329.583	86.87
329.796	115.54
330.009	-3.24
330.222	41.81
330.435	41.81
330.648	88.92
330.861	4.95
331.073	9.05
331.286	-13.48
331.499	88.92
331.712	33.62
331.925	62.29
332.138	84.82
332.35	31.57
332.563	39.76
332.776	27.48
332.989	17.24
333.202	31.57
333.414	-38.06
333.627	-38.06
333.84	60.24
334.053	140.12
334.265	-9.39
334.478	17.24
334.691	95.06
334.903	52.05
335.116	19.29
335.329	66.39
335.541	-9.39
335.754	45.91
335.966	-33.96
336.179	9.05
336.392	-31.91
336.604	50
336.817	123.73
337.029	25.43
337.242	50
337.454	4.95
337.667	17.24
337.88	2.9
338.092	-44.2
338.305	17.24
338.517	21.33
338.729	-7.34
338.942	27.48
339.154	31.57
339.367	31.57
339.579	43.86
339.792	0.85
340.004	105.3
340.217	78.68
340.429	-21.67
340.641	-48.3
340.854	39.76
341.066	47.96
341.278	11.09
341.491	25.43
341.703	80.72
341.915	-15.53
342.128	-9.39
342.34	54.1
342.552	11.09
342.764	72.53
342.977	15.19
343.189	-48.3
343.401	-1.19
343.613	17.24
343.826	13.14
344.038	-27.82
344.25	19.29
344.462	17.24
344.674	78.68
344.886	54.1
345.099	25.43
345.311	-13.48
345.523	9.05
345.735	19.29
345.947	78.68
346.159	-11.43
346.371	33.62
346.583	15.19
346.795	13.14
347.007	19.29
347.219	90.96
347.431	58.2
347.643	88.92
347.855	-42.15
348.067	43.86
348.279	41.81
348.491	-25.77
348.703	52.05
348.915	113.49
349.127	23.38
349.339	-40.11
349.551	-66.73
349.763	72.53
349.975	90.96
350.187	15.19
350.399	58.2
350.61	35.67
350.822	60.24
351.034	15.19
351.246	17.24
351.458	117.59
351.669	56.15
351.881	-1.19
352.093	111.44
352.305	31.57
352.517	33.62
352.728	84.82
352.94	-15.53
353.152	93.01
353.363	35.67
353.575	9.05
353.787	-29.87
353.999	66.39
354.21	58.2
354.422	7
354.633	21.33
354.845	-29.87
355.057	17.24
355.268	11.09
355.48	-17.58
355.692	0.85
355.903	23.38
356.115	76.63
356.326	33.62
356.538	-1.19
356.749	13.14
356.961	39.76
357.172	72.53
357.384	13.14
357.595	74.58
357.807	39.76
358.018	129.88
358.23	45.91
358.441	23.38
358.653	-1.19
358.864	27.48
359.075	56.15
359.287	-36.01
359.498	101.2
359.709	74.58
359.921	-31.91
360.132	0.85
360.344	-11.43
360.555	105.3
360.766	37.72
360.977	-27.82
361.189	4.95
361.4	103.25
361.611	7
361.823	47.96
362.034	72.53
362.245	19.29
362.456	86.87
362.667	-25.77
362.879	-21.67
363.09	11.09
363.301	15.19
363.512	29.52
363.723	72.53
363.935	80.72
364.146	47.96
364.357	17.24
364.568	78.68
364.779	50
364.99	7
365.201	23.38
365.412	-9.39
365.623	-29.87
365.834	58.2
366.045	-54.44
366.256	60.24
366.467	56.15
366.678	-1.19
366.889	66.39
367.1	52.05
367.311	70.48
367.522	58.2
367.733	50
367.944	31.57
368.155	-29.87
368.366	35.67
368.577	13.14
368.788	88.92
368.999	19.29
369.209	62.29
369.42	60.24
369.631	31.57
369.842	-13.48
370.053	56.15
370.264	-19.63
370.474	13.14
370.685	62.29
370.896	-42.15
371.107	-13.48
371.317	50
371.528	35.67
371.739	13.14
371.95	52.05
372.16	64.34
372.371	-50.35
372.582	45.91
372.792	64.34
373.003	43.86
373.214	33.62
373.424	-5.29
373.635	31.57
373.846	58.2
374.056	68.44
374.267	78.68
374.477	43.86
374.688	33.62
374.898	21.33
375.109	45.91
375.319	78.68
375.53	-7.34
375.74	19.29
375.951	17.24
376.161	23.38
376.372	17.24
376.582	31.57
376.793	47.96
377.003	37.72
377.214	50
377.424	33.62
377.635	70.48
377.845	-7.34
378.055	-23.72
378.266	76.63
378.476	11.09
378.686	17.24
378.897	43.86
379.107	66.39
379.317	60.24
379.528	47.96
379.738	35.67
379.948	45.91
380.158	-27.82
380.369	33.62
380.579	35.67
380.789	31.57
380.999	33.62
381.21	88.92
381.42	31.57
381.63	54.1
381.84	23.38
382.05	-38.06
382.261	45.91
382.471	45.91
382.681	21.33
382.891	0.85
383.101	39.76
383.311	-9.39
383.521	27.48
383.731	25.43
383.941	86.87
384.151	74.58
384.361	82.77
384.571	-42.15
384.781	80.72
384.991	88.92
385.201	41.81
385.411	37.72
385.621	76.63
385.831	88.92
386.041	-40.11
386.251	72.53
386.461	78.68
386.671	31.57
386.881	43.86
387.091	-3.24
387.301	78.68
387.511	97.11
387.72	7
387.93	45.91
388.14	68.44
388.35	7
388.56	84.82
388.769	93.01
388.979	88.92
389.189	35.67
389.399	66.39
389.609	41.81
389.818	58.2
390.028	93.01
390.238	64.34
390.447	64.34
390.657	9.05
390.867	50
391.076	76.63
391.286	45.91
391.496	7
391.705	56.15
391.915	105.3
392.125	17.24
392.334	90.96
392.544	54.1
392.753	50
392.963	86.87
393.172	-5.29
393.382	74.58
393.591	33.62
393.801	31.57
394.01	64.34
394.22	74.58
394.429	80.72
394.639	74.58
394.848	66.39
395.058	47.96
395.267	68.44
395.477	35.67
395.686	56.15
395.895	31.57
396.105	-7.34
396.314	105.3
396.524	37.72
396.733	-1.19
396.942	21.33
397.152	54.1
397.361	127.83
397.57	90.96
397.78	39.76
397.989	35.67
398.198	93.01
398.407	93.01
398.617	97.11
398.826	80.72
399.035	90.96
399.244	58.2
399.453	93.01
399.663	50
399.872	162.64
400.081	66.39
400.29	97.11
400.499	76.63
400.708	150.36
400.917	138.07
401.127	17.24
401.336	64.34
401.545	105.3
401.754	60.24
401.963	113.49
402.172	56.15
402.381	123.73
402.59	74.58
402.799	82.77
403.008	93.01
403.217	88.92
403.426	131.92
403.635	31.57
403.844	115.54
404.053	74.58
404.262	90.96
404.471	80.72
404.68	93.01
404.888	78.68
405.097	35.67
405.306	123.73
405.515	93.01
405.724	133.97
405.933	113.49
406.142	193.36
406.35	148.31
406.559	95.06
406.768	107.35
406.977	205.65
407.185	103.25
407.394	138.07
407.603	99.16
407.812	197.46
408.02	45.91
408.229	119.64
408.438	109.4
408.646	125.78
408.855	158.55
409.064	78.68
409.272	154.45
409.481	140.12
409.69	162.64
409.898	138.07
410.107	150.36
410.315	162.64
410.524	179.03
410.733	142.16
410.941	174.93
411.15	160.59
411.358	269.14
411.567	226.13
411.775	271.19
411.984	246.61
412.192	213.84
412.401	275.28
412.609	197.46
412.818	260.95
413.026	273.23
413.234	301.9
413.443	351.06
413.651	281.43
413.86	344.91
414.068	295.76
414.276	326.48
414.485	418.64
414.693	381.78
414.901	375.63
415.11	449.36
415.318	326.48
415.526	480.08
415.734	494.41
415.943	473.93
416.151	422.73
416.359	488.27
416.567	484.17
416.776	543.57
416.984	545.61
417.192	533.33
417.4	555.85
417.608	541.52
417.817	609.1
418.025	588.62
418.233	611.15
418.441	605
418.649	682.83
418.857	738.12
419.065	713.55
419.273	670.54
419.481	793.42
419.689	813.9
419.897	850.76
420.105	875.34
420.313	912.2
420.521	912.2
420.729	979.78
420.937	990.02
421.145	1106.76
421.353	1041.22
421.561	1094.47
421.769	1106.76
421.977	1190.72
422.185	1119.04
422.393	1229.63
422.601	1332.03
422.809	1266.5
423.017	1164.1
423.224	1413.95
423.432	1420.1
423.64	1442.62
423.848	1551.17
424.056	1397.57
424.263	1614.65
424.471	1626.94
424.679	1590.08
424.887	1778.49
425.094	1796.92
425.302	1794.87
425.51	1889.08
425.718	1905.46
425.925	1954.62
426.133	1987.38
426.341	2054.97
426.548	2173.75
426.756	2110.26
426.964	2143.03
427.171	2378.55
427.379	2411.31
427.586	2448.18
427.794	2612.01
428.001	2560.81
428.209	2704.17
428.417	2743.08
428.624	2884.39
428.832	2941.74
429.039	2935.59
429.247	2954.02
429.454	3095.33
429.662	3410.72
429.869	3214.12
430.076	3457.82
430.284	3394.34
430.491	3410.72
430.699	3691.29
430.906	3605.28
431.114	3818.27
431.321	3863.32
431.528	3914.52
431.736	4186.9
431.943	4383.51
432.15	4049.69
432.358	4291.35
432.565	4614.93
432.772	4453.14
432.979	4610.83
433.187	4875.02
433.394	4805.39
433.601	5186.31
433.808	5274.37
434.016	5114.63
434.223	5290.76
434.43	5698.3
434.637	5595.9
434.844	6013.69
435.052	6181.62
435.259	5921.53
435.466	5968.63
435.673	6087.42
435.88	6443.76
436.087	6677.23
436.294	6652.66
436.501	6677.23
436.708	6843.12
436.915	6818.54
437.122	7193.32
437.329	7105.26
437.537	7539.43
437.743	7568.1
437.95	7508.71
438.157	7920.35
438.364	8381.14
438.571	7926.49
438.778	8356.57
438.985	9128.65
439.192	8577.75
439.399	8975.05
439.606	8831.69
439.813	9202.38
440.02	9685.7
440.227	9720.51
440.433	9433.8
440.64	9878.21
440.847	9702.08
441.054	10181.31
441.261	10861.23
441.467	10597.04
441.674	10838.7
441.881	11303.59
442.088	11160.24
442.294	11127.47
442.501	11508.39
442.708	11592.36
442.914	11903.65
443.121	12513.94
443.328	12368.54
443.534	13114
443.741	12677.78
443.948	12788.37
444.154	13554.31
444.361	13480.58
444.568	13390.47
444.774	13486.73
444.981	13681.28
445.187	14246.52
445.394	14678.65
445.6	14748.28
445.807	15970.91
446.013	15231.6
446.22	15653.48
446.426	16198.24
446.633	16151.13
446.839	16968.27
447.046	16202.33
447.252	17205.84
447.459	17386.06
447.665	17326.67
447.871	18027.07
448.078	18790.97
448.284	18115.14
448.491	18344.51
448.697	18860.6
448.903	19343.92
449.11	19626.54
449.316	19300.91
449.522	19468.84
449.728	19952.16
449.935	20068.9
450.141	20034.08
450.347	21037.59
450.553	20126.24
450.76	20634.14
450.966	21029.4
451.172	21064.21
451.378	21580.3
451.584	21049.88
451.791	21748.23
451.997	21555.72
452.203	22137.35
452.409	21969.41
452.615	21936.65
452.821	20838.94
453.027	21013.01
453.233	22039.05
453.44	21137.94
453.646	21420.56
453.852	21635.6
454.058	22225.41
454.264	21049.88
454.47	21729.8
454.676	21182.99
454.882	22102.53
455.088	19943.97
455.294	20183.59
455.5	20462.11
455.705	20972.05
455.911	19905.06
456.117	19630.63
456.323	19081.78
456.529	18278.97
456.735	19024.44
456.941	18909.75
457.147	18457.15
457.352	17771.08
457.558	17801.8
457.764	17392.2
457.97	17328.72
458.176	16972.37
458.381	16718.42
458.587	16466.52
458.793	16011.87
458.999	15387.24
459.204	16370.27
459.41	15882.85
459.616	15045.23
459.821	14867.06
460.027	15024.75
460.233	14510.71
460.438	13890.18
460.644	14062.21
460.85	13281.93
461.055	13120.14
461.261	13021.84
461.466	12280.47
461.672	11858.59
461.878	12722.84
462.083	11944.61
462.289	11492.01
462.494	11303.59
462.7	10812.08
462.905	10529.46
463.111	10869.42
463.316	11203.24
463.522	10640.05
463.727	10914.48
463.932	10971.82
464.138	10558.13
464.343	10603.19
464.549	10261.18
464.754	11127.47
464.959	10685.11
465.165	10613.43
465.37	10105.53
465.575	9906.88
465.781	10287.8
465.986	10314.42
466.191	10011.32
466.397	9904.83
466.602	9290.44
466.807	9745.09
467.012	9738.94
467.218	9724.61
467.423	9634.5
467.628	9564.87
467.833	10050.24
468.038	9648.83
468.244	9425.61
468.449	9923.26
468.654	9261.77
468.859	9274.06
469.064	9194.19
469.269	9077.45
469.474	9052.88
469.679	9102.03
469.885	9040.59
470.09	9020.11
470.295	9022.16
470.5	8983.24
