Data from USB4F104151__102__13-00-26-617.txt Node

Date: Fri Mar 14 13:00:26 EDT 2025
User: louis
Spectrometer: USB4F10415
Trigger mode: 4
Integration Time (sec): 1.000000E-2
Scans to average: 1
Electric dark correction enabled: true
Nonlinearity correction enabled: false
Boxcar width: 0
XAxis mode: Wavelengths
Number of Pixels in Spectrum: 3648
>>>>>Begin Spectral Data<<<<<
178.204	-68.95
178.424	-68.95
178.644	-68.95
178.864	-58.71
179.084	-93.52
179.304	-54.61
179.524	-11.61
179.744	45.74
179.964	80.55
180.184	19.11
180.404	6.83
180.624	-68.95
180.844	-40.28
181.064	41.64
181.283	-34.13
181.503	23.21
181.723	-7.51
181.943	-66.9
182.163	-42.32
182.383	-1.37
182.602	19.11
182.822	31.4
183.042	-11.61
183.262	-30.04
183.482	-1.37
183.701	-17.75
183.921	-15.7
184.141	-58.71
184.361	19.11
184.58	10.92
184.8	33.45
185.02	-42.32
185.239	70.31
185.459	-17.75
185.679	94.89
185.898	-19.8
186.118	6.83
186.338	-15.7
186.557	0.68
186.777	-46.42
186.997	-66.9
187.216	-19.8
187.436	15.02
187.655	27.31
187.875	23.21
188.095	21.16
188.314	15.02
188.534	0.68
188.753	-17.75
188.973	23.21
189.192	37.55
189.412	-56.66
189.631	-66.9
189.851	-15.7
190.07	-34.13
190.29	-42.32
190.509	29.35
190.729	6.83
190.948	15.02
191.168	-13.65
191.387	8.87
191.607	49.83
191.826	55.98
192.045	-60.76
192.265	2.73
192.484	-48.47
192.704	-30.04
192.923	2.73
193.142	-25.94
193.362	25.26
193.581	-23.89
193.8	-38.23
194.02	-1.37
194.239	-7.51
194.458	-9.56
194.678	-23.89
194.897	8.87
195.116	-7.51
195.335	31.4
195.555	-11.61
195.774	43.69
195.993	-5.46
196.212	15.02
196.432	-58.71
196.651	19.11
196.87	-7.51
197.089	33.45
197.308	25.26
197.528	-34.13
197.747	39.59
197.966	-44.37
198.185	60.07
198.404	-19.8
198.623	72.36
198.842	-52.56
199.062	107.18
199.281	47.79
199.5	-21.85
199.719	47.79
199.938	-11.61
200.157	-23.89
200.376	-17.75
200.595	-91.48
200.814	-60.76
201.033	19.11
201.252	8.87
201.471	-15.7
201.69	43.69
201.909	15.02
202.128	-42.32
202.347	15.02
202.566	-25.94
202.785	-9.56
203.004	51.88
203.223	-13.65
203.442	12.97
203.661	-48.47
203.879	-15.7
204.098	-5.46
204.317	25.26
204.536	37.55
204.755	-68.95
204.974	35.5
205.193	-7.51
205.411	-9.56
205.63	19.11
205.849	68.27
206.068	23.21
206.287	-44.37
206.505	12.97
206.724	4.78
206.943	72.36
207.162	23.21
207.381	15.02
207.599	-38.23
207.818	15.02
208.037	-23.89
208.255	74.41
208.474	15.02
208.693	-81.24
208.911	-34.13
209.13	21.16
209.349	-19.8
209.567	-25.94
209.786	39.59
210.005	72.36
210.223	2.73
210.442	0.68
210.661	35.5
210.879	41.64
211.098	33.45
211.316	2.73
211.535	6.83
211.753	2.73
211.972	84.65
212.191	-27.99
212.409	-7.51
212.628	-5.46
212.846	8.87
213.065	74.41
213.283	19.11
213.502	43.69
213.72	15.02
213.938	-27.99
214.157	6.83
214.375	-9.56
214.594	-56.66
214.812	6.83
215.031	27.31
215.249	-13.65
215.467	-11.61
215.686	-73.04
215.904	19.11
216.122	49.83
216.341	49.83
216.559	-46.42
216.778	64.17
216.996	19.11
217.214	-60.76
217.432	25.26
217.651	-42.32
217.869	0.68
218.087	51.88
218.306	-11.61
218.524	6.83
218.742	21.16
218.96	78.51
219.179	-46.42
219.397	47.79
219.615	0.68
219.833	-15.7
220.051	-58.71
220.27	66.22
220.488	55.98
220.706	33.45
220.924	-58.71
221.142	6.83
221.36	10.92
221.578	92.84
221.796	17.07
222.015	31.4
222.233	35.5
222.451	10.92
222.669	-11.61
222.887	-36.18
223.105	-19.8
223.323	-32.08
223.541	2.73
223.759	29.35
223.977	2.73
224.195	53.93
224.413	-71
224.631	-9.56
224.849	-30.04
225.067	-30.04
225.285	15.02
225.503	-1.37
225.721	25.26
225.939	41.64
226.157	-36.18
226.375	84.65
226.592	-23.89
226.81	-9.56
227.028	64.17
227.246	0.68
227.464	35.5
227.682	25.26
227.9	15.02
228.117	49.83
228.335	-21.85
228.553	47.79
228.771	19.11
228.989	8.87
229.206	47.79
229.424	51.88
229.642	29.35
229.86	25.26
230.077	-23.89
230.295	-17.75
230.513	37.55
230.731	-38.23
230.948	-85.33
231.166	15.02
231.384	27.31
231.601	70.31
231.819	-34.13
232.037	-42.32
232.254	-15.7
232.472	0.68
232.689	-56.66
232.907	-7.51
233.125	-60.76
233.342	-21.85
233.56	43.69
233.777	-11.61
233.995	15.02
234.213	49.83
234.43	-36.18
234.648	23.21
234.865	41.64
235.083	51.88
235.3	103.08
235.518	-9.56
235.735	6.83
235.953	0.68
236.17	-50.52
236.388	6.83
236.605	0.68
236.822	23.21
237.04	-7.51
237.257	23.21
237.475	-17.75
237.692	4.78
237.909	8.87
238.127	-1.37
238.344	-42.32
238.562	33.45
238.779	31.4
238.996	33.45
239.214	25.26
239.431	-1.37
239.648	-42.32
239.865	53.93
240.083	-68.95
240.3	-17.75
240.517	19.11
240.735	-50.52
240.952	31.4
241.169	62.12
241.386	29.35
241.603	-5.46
241.821	21.16
242.038	29.35
242.255	-42.32
242.472	2.73
242.689	-19.8
242.907	8.87
243.124	-25.94
243.341	-42.32
243.558	-44.37
243.775	-30.04
243.992	23.21
244.209	-15.7
244.426	80.55
244.643	8.87
244.86	-38.23
245.078	-34.13
245.295	6.83
245.512	-56.66
245.729	23.21
245.946	107.18
246.163	12.97
246.38	-25.94
246.597	-79.19
246.814	23.21
247.031	-40.28
247.248	23.21
247.464	21.16
247.681	-19.8
247.898	-15.7
248.115	55.98
248.332	-66.9
248.549	27.31
248.766	98.99
248.983	49.83
249.2	-15.7
249.417	43.69
249.633	39.59
249.85	19.11
250.067	43.69
250.284	-11.61
250.501	49.83
250.717	-48.47
250.934	-21.85
251.151	17.07
251.368	-21.85
251.585	27.31
251.801	19.11
252.018	51.88
252.235	10.92
252.451	-36.18
252.668	-1.37
252.885	27.31
253.102	-25.94
253.318	12.97
253.535	-93.52
253.752	23.21
253.968	-3.41
254.185	-3.41
254.401	29.35
254.618	-7.51
254.835	37.55
255.051	49.83
255.268	0.68
255.484	31.4
255.701	25.26
255.917	51.88
256.134	6.83
256.351	-34.13
256.567	-32.08
256.784	-13.65
257	-21.85
257.217	-54.61
257.433	-25.94
257.65	-15.7
257.866	-42.32
258.082	-99.67
258.299	-5.46
258.515	23.21
258.732	43.69
258.948	37.55
259.165	-62.8
259.381	62.12
259.597	-48.47
259.814	-23.89
260.03	12.97
260.246	15.02
260.463	37.55
260.679	19.11
260.895	-13.65
261.112	53.93
261.328	47.79
261.544	23.21
261.761	86.7
261.977	39.59
262.193	35.5
262.409	25.26
262.626	0.68
262.842	35.5
263.058	41.64
263.274	39.59
263.49	43.69
263.707	-34.13
263.923	43.69
264.139	-23.89
264.355	45.74
264.571	27.31
264.787	23.21
265.004	2.73
265.22	-21.85
265.436	60.07
265.652	-21.85
265.868	-30.04
266.084	25.26
266.3	15.02
266.516	-25.94
266.732	25.26
266.948	-34.13
267.164	12.97
267.38	-17.75
267.596	27.31
267.812	-44.37
268.028	-9.56
268.244	12.97
268.46	25.26
268.676	39.59
268.892	-1.37
269.108	25.26
269.324	15.02
269.54	53.93
269.756	51.88
269.972	15.02
270.188	15.02
270.403	-19.8
270.619	17.07
270.835	-11.61
271.051	-32.08
271.267	31.4
271.483	-30.04
271.698	19.11
271.914	25.26
272.13	76.46
272.346	6.83
272.562	33.45
272.777	-25.94
272.993	23.21
273.209	-56.66
273.425	47.79
273.64	-71
273.856	37.55
274.072	23.21
274.287	-19.8
274.503	72.36
274.719	39.59
274.934	-38.23
275.15	-83.28
275.366	64.17
275.581	-27.99
275.797	47.79
276.012	51.88
276.228	2.73
276.444	12.97
276.659	23.21
276.875	-48.47
277.09	10.92
277.306	12.97
277.521	-21.85
277.737	2.73
277.952	62.12
278.168	4.78
278.383	41.64
278.599	-1.37
278.814	15.02
279.03	-17.75
279.245	29.35
279.461	-5.46
279.676	33.45
279.892	-3.41
280.107	70.31
280.322	-11.61
280.538	31.4
280.753	-19.8
280.969	49.83
281.184	72.36
281.399	39.59
281.615	55.98
281.83	-48.47
282.045	21.16
282.26	-7.51
282.476	2.73
282.691	90.79
282.906	115.37
283.122	33.45
283.337	-44.37
283.552	45.74
283.767	6.83
283.983	-1.37
284.198	41.64
284.413	-1.37
284.628	17.07
284.843	37.55
285.058	-3.41
285.274	8.87
285.489	15.02
285.704	45.74
285.919	27.31
286.134	-13.65
286.349	2.73
286.564	27.31
286.779	55.98
286.995	47.79
287.21	-52.56
287.425	98.99
287.64	4.78
287.855	-32.08
288.07	-32.08
288.285	15.02
288.5	105.13
288.715	-30.04
288.93	47.79
289.145	-5.46
289.36	21.16
289.575	-36.18
289.79	21.16
290.004	47.79
290.219	29.35
290.434	-25.94
290.649	6.83
290.864	27.31
291.079	-46.42
291.294	31.4
291.509	-27.99
291.724	-1.37
291.938	31.4
292.153	53.93
292.368	-21.85
292.583	-17.75
292.798	19.11
293.012	86.7
293.227	-66.9
293.442	-15.7
293.657	53.93
293.871	15.02
294.086	15.02
294.301	-17.75
294.516	27.31
294.73	10.92
294.945	23.21
295.16	6.83
295.374	82.6
295.589	19.11
295.804	-7.51
296.018	-32.08
296.233	-15.7
296.447	33.45
296.662	4.78
296.877	6.83
297.091	23.21
297.306	68.27
297.52	21.16
297.735	39.59
297.949	80.55
298.164	-34.13
298.378	15.02
298.593	17.07
298.807	-40.28
299.022	-9.56
299.236	2.73
299.451	-25.94
299.665	15.02
299.88	0.68
300.094	15.02
300.309	4.78
300.523	25.26
300.737	8.87
300.952	-56.66
301.166	35.5
301.381	-54.61
301.595	58.03
301.809	-21.85
302.024	-66.9
302.238	27.31
302.452	43.69
302.667	43.69
302.881	78.51
303.095	23.21
303.309	-15.7
303.524	-7.51
303.738	-52.56
303.952	33.45
304.166	60.07
304.381	64.17
304.595	6.83
304.809	17.07
305.023	82.6
305.237	66.22
305.452	27.31
305.666	72.36
305.88	68.27
306.094	33.45
306.308	47.79
306.522	6.83
306.736	76.46
306.95	-38.23
307.164	37.55
307.379	-34.13
307.593	15.02
307.807	-34.13
308.021	55.98
308.235	-91.48
308.449	19.11
308.663	-40.28
308.877	12.97
309.091	-46.42
309.305	90.79
309.519	-101.72
309.733	-25.94
309.947	-34.13
310.161	25.26
310.374	-1.37
310.588	10.92
310.802	-17.75
311.016	29.35
311.23	-9.56
311.444	72.36
311.658	17.07
311.872	0.68
312.085	15.02
312.299	-50.52
312.513	-5.46
312.727	21.16
312.941	23.21
313.154	64.17
313.368	105.13
313.582	-42.32
313.796	39.59
314.009	43.69
314.223	15.02
314.437	-13.65
314.651	49.83
314.864	76.46
315.078	37.55
315.292	-3.41
315.505	-1.37
315.719	41.64
315.933	55.98
316.146	31.4
316.36	15.02
316.573	88.75
316.787	10.92
317.001	29.35
317.214	-19.8
317.428	-5.46
317.641	10.92
317.855	4.78
318.068	-19.8
318.282	39.59
318.495	72.36
318.709	53.93
318.922	-17.75
319.136	23.21
319.349	60.07
319.563	33.45
319.776	-79.19
319.99	-97.62
320.203	72.36
320.417	-54.61
320.63	31.4
320.843	92.84
321.057	55.98
321.27	-3.41
321.483	23.21
321.697	0.68
321.91	51.88
322.124	31.4
322.337	-17.75
322.55	-25.94
322.763	25.26
322.977	27.31
323.19	-11.61
323.403	12.97
323.617	-1.37
323.83	43.69
324.043	74.41
324.256	39.59
324.469	17.07
324.683	64.17
324.896	-1.37
325.109	41.64
325.322	47.79
325.535	66.22
325.748	-5.46
325.962	92.84
326.175	2.73
326.388	107.18
326.601	0.68
326.814	10.92
327.027	45.74
327.24	76.46
327.453	8.87
327.666	21.16
327.879	39.59
328.092	45.74
328.305	41.64
328.518	53.93
328.731	92.84
328.944	17.07
329.157	10.92
329.37	55.98
329.583	45.74
329.796	92.84
330.009	12.97
330.222	-64.85
330.435	21.16
330.648	70.31
330.861	-9.56
331.073	33.45
331.286	-32.08
331.499	-23.89
331.712	51.88
331.925	25.26
332.138	-5.46
332.35	31.4
332.563	27.31
332.776	-15.7
332.989	2.73
333.202	72.36
333.414	41.64
333.627	23.21
333.84	37.55
334.053	60.07
334.265	78.51
334.478	53.93
334.691	10.92
334.903	-5.46
335.116	19.11
335.329	-48.47
335.541	55.98
335.754	0.68
335.966	41.64
336.179	23.21
336.392	-48.47
336.604	6.83
336.817	27.31
337.029	-9.56
337.242	15.02
337.454	-32.08
337.667	17.07
337.88	105.13
338.092	45.74
338.305	31.4
338.517	-23.89
338.729	76.46
338.942	-13.65
339.154	39.59
339.367	-13.65
339.579	8.87
339.792	-9.56
340.004	98.99
340.217	-5.46
340.429	-27.99
340.641	10.92
340.854	15.02
341.066	23.21
341.278	43.69
341.491	19.11
341.703	-17.75
341.915	-5.46
342.128	-3.41
342.34	23.21
342.552	-5.46
342.764	72.36
342.977	12.97
343.189	27.31
343.401	15.02
343.613	-15.7
343.826	29.35
344.038	12.97
344.25	-5.46
344.462	23.21
344.674	0.68
344.886	-13.65
345.099	23.21
345.311	10.92
345.523	19.11
345.735	12.97
345.947	-44.37
346.159	45.74
346.371	-25.94
346.583	12.97
346.795	19.11
347.007	19.11
347.219	-17.75
347.431	64.17
347.643	8.87
347.855	17.07
348.067	19.11
348.279	19.11
348.491	35.5
348.703	27.31
348.915	-15.7
349.127	55.98
349.339	33.45
349.551	-58.71
349.763	-30.04
349.975	17.07
350.187	41.64
350.399	58.03
350.61	35.5
350.822	-34.13
351.034	-71
351.246	10.92
351.458	17.07
351.669	43.69
351.881	29.35
352.093	0.68
352.305	33.45
352.517	-17.75
352.728	-9.56
352.94	33.45
353.152	29.35
353.363	35.5
353.575	25.26
353.787	55.98
353.999	37.55
354.21	25.26
354.422	15.02
354.633	31.4
354.845	53.93
355.057	25.26
355.268	12.97
355.48	-21.85
355.692	12.97
355.903	-36.18
356.115	4.78
356.326	-1.37
356.538	8.87
356.749	62.12
356.961	80.55
357.172	82.6
357.384	8.87
357.595	8.87
357.807	-32.08
358.018	-54.61
358.23	37.55
358.441	-1.37
358.653	6.83
358.864	12.97
359.075	27.31
359.287	17.07
359.498	8.87
359.709	37.55
359.921	10.92
360.132	-9.56
360.344	2.73
360.555	25.26
360.766	62.12
360.977	35.5
361.189	12.97
361.4	-3.41
361.611	51.88
361.823	19.11
362.034	39.59
362.245	70.31
362.456	-17.75
362.667	-3.41
362.879	-19.8
363.09	45.74
363.301	-3.41
363.512	12.97
363.723	35.5
363.935	23.21
364.146	-1.37
364.357	-9.56
364.568	31.4
364.779	-81.24
364.99	27.31
365.201	-25.94
365.412	19.11
365.623	-25.94
365.834	-36.18
366.045	15.02
366.256	6.83
366.467	115.37
366.678	62.12
366.889	51.88
367.1	86.7
367.311	96.94
367.522	76.46
367.733	-40.28
367.944	10.92
368.155	2.73
368.366	51.88
368.577	35.5
368.788	39.59
368.999	-5.46
369.209	90.79
369.42	10.92
369.631	58.03
369.842	70.31
370.053	-81.24
370.264	4.78
370.474	15.02
370.685	8.87
370.896	29.35
371.107	-42.32
371.317	33.45
371.528	0.68
371.739	15.02
371.95	76.46
372.16	43.69
372.371	41.64
372.582	-17.75
372.792	6.83
373.003	66.22
373.214	-13.65
373.424	0.68
373.635	-58.71
373.846	41.64
374.056	27.31
374.267	19.11
374.477	-11.61
374.688	80.55
374.898	17.07
375.109	-30.04
375.319	39.59
375.53	-42.32
375.74	49.83
375.951	-122.2
376.161	55.98
376.372	15.02
376.582	58.03
376.793	17.07
377.003	23.21
377.214	6.83
377.424	-1.37
377.635	19.11
377.845	-1.37
378.055	80.55
378.266	-19.8
378.476	55.98
378.686	-17.75
378.897	51.88
379.107	62.12
379.317	35.5
379.528	43.69
379.738	53.93
379.948	17.07
380.158	8.87
380.369	19.11
380.579	17.07
380.789	53.93
380.999	64.17
381.21	4.78
381.42	43.69
381.63	49.83
381.84	-5.46
382.05	31.4
382.261	37.55
382.471	4.78
382.681	96.94
382.891	64.17
383.101	-3.41
383.311	33.45
383.521	-13.65
383.731	-15.7
383.941	23.21
384.151	4.78
384.361	-5.46
384.571	-9.56
384.781	-46.42
384.991	66.22
385.201	84.65
385.411	-32.08
385.621	4.78
385.831	17.07
386.041	29.35
386.251	31.4
386.461	37.55
386.671	15.02
386.881	-19.8
387.091	-56.66
387.301	47.79
387.511	2.73
387.72	0.68
387.93	-23.89
388.14	31.4
388.35	-3.41
388.56	47.79
388.769	39.59
388.979	41.64
389.189	-34.13
389.399	90.79
389.609	-52.56
389.818	84.65
390.028	37.55
390.238	-7.51
390.447	51.88
390.657	47.79
390.867	60.07
391.076	-15.7
391.286	47.79
391.496	45.74
391.705	-5.46
391.915	15.02
392.125	29.35
392.334	92.84
392.544	90.79
392.753	66.22
392.963	15.02
393.172	29.35
393.382	6.83
393.591	66.22
393.801	-5.46
394.01	105.13
394.22	31.4
394.429	31.4
394.639	-17.75
394.848	76.46
395.058	4.78
395.267	60.07
395.477	80.55
395.686	55.98
395.895	82.6
396.105	107.18
396.314	58.03
396.524	98.99
396.733	23.21
396.942	0.68
397.152	121.51
397.361	58.03
397.57	45.74
397.78	39.59
397.989	33.45
398.198	98.99
398.407	58.03
398.617	58.03
398.826	-7.51
399.035	33.45
399.244	74.41
399.453	-1.37
399.663	29.35
399.872	103.08
400.081	37.55
400.29	49.83
400.499	68.27
400.708	109.22
400.917	-15.7
401.127	-42.32
401.336	49.83
401.545	66.22
401.754	125.61
401.963	27.31
402.172	103.08
402.381	82.6
402.59	109.22
402.799	90.79
403.008	25.26
403.217	82.6
403.426	152.23
403.635	53.93
403.844	15.02
404.053	88.75
404.262	58.03
404.471	19.11
404.68	119.46
404.888	33.45
405.097	53.93
405.306	113.32
405.515	25.26
405.724	86.7
405.933	113.32
406.142	101.03
406.35	64.17
406.559	101.03
406.768	92.84
406.977	92.84
407.185	109.22
407.394	109.22
407.603	133.8
407.812	94.89
408.02	123.56
408.229	187.05
408.438	201.38
408.646	131.75
408.855	150.18
409.064	148.14
409.272	172.71
409.481	76.46
409.69	164.52
409.898	182.95
410.107	187.05
410.315	176.81
410.524	217.77
410.733	248.49
410.941	205.48
411.15	180.9
411.358	154.28
411.567	268.97
411.775	215.72
411.984	219.82
412.192	164.52
412.401	297.64
412.609	232.1
412.818	318.12
413.026	238.25
413.234	291.49
413.443	344.74
413.651	334.5
413.86	305.83
414.068	336.55
414.276	350.89
414.485	375.46
414.693	416.42
414.901	463.52
415.11	418.47
415.318	441
415.526	402.08
415.734	416.42
415.943	430.76
416.151	496.29
416.359	543.39
416.567	559.78
416.776	606.88
416.984	584.35
417.192	537.25
417.4	627.36
417.608	594.59
417.817	580.26
418.025	711.33
418.233	653.98
418.441	653.98
418.649	723.62
418.857	746.14
419.065	740
419.273	801.44
419.481	807.58
419.689	809.63
419.897	842.4
420.105	952.99
420.313	965.28
420.521	952.99
420.729	1006.24
420.937	1022.62
421.145	1055.39
421.353	1063.58
421.561	1133.21
421.769	1145.5
421.977	1180.31
422.185	1151.64
422.393	1186.46
422.601	1383.06
422.809	1397.4
423.017	1372.82
423.224	1307.29
423.432	1546.9
423.64	1518.23
423.848	1507.99
424.056	1643.15
424.263	1753.74
424.471	1735.31
424.679	1780.37
424.887	1710.74
425.094	1858.19
425.302	1940.11
425.51	1985.16
425.718	2017.93
425.925	1976.97
426.133	2083.47
426.341	2136.71
426.548	2384.52
426.756	2347.65
426.964	2398.85
427.171	2525.83
427.379	2656.9
427.586	2620.03
427.794	2693.76
428.001	2818.69
428.209	2994.81
428.417	2857.6
428.624	3064.44
428.832	3193.47
429.039	3160.7
429.247	3086.97
429.454	3363.45
429.662	3545.72
429.869	3420.79
430.076	3680.88
430.284	3461.75
430.491	3730.03
430.699	3779.18
430.906	3918.45
431.114	3869.3
431.321	3945.07
431.528	4201.07
431.736	4395.62
431.943	4680.29
432.15	4426.34
432.358	4602.47
432.565	4690.53
432.772	4584.04
432.979	4876.9
433.187	5208.67
433.394	5024.35
433.601	5513.81
433.808	5530.2
434.016	5444.18
434.223	5689.94
434.43	5986.9
434.637	5941.84
434.844	6392.39
435.052	6459.98
435.259	6402.63
435.466	6482.5
435.673	6373.96
435.88	6873.67
436.087	7047.74
436.294	7207.48
436.501	7025.22
436.708	7049.79
436.915	7332.41
437.122	7782.96
437.329	7637.56
437.537	8043.06
437.743	7983.66
437.95	8024.62
438.157	8426.03
438.364	8954.4
438.571	8614.44
438.778	8862.24
438.985	9511.45
439.192	9228.83
439.399	9630.23
439.606	9085.47
439.813	9714.2
440.02	10320.4
440.227	10226.19
440.433	10060.31
440.64	10447.37
440.847	10261.01
441.054	10732.04
441.261	11321.85
441.467	11098.63
441.674	11569.66
441.881	12005.88
442.088	11987.44
442.294	11805.17
442.501	11805.17
442.708	12354.03
442.914	12790.25
443.121	13165.03
443.328	12917.22
443.534	13898.2
443.741	13533.66
443.948	13361.63
444.154	14389.71
444.361	14172.63
444.568	14336.46
444.774	14485.97
444.981	14617.04
445.187	14877.13
445.394	15530.43
445.6	15546.81
445.807	16931.24
446.013	16177.59
446.22	16497.07
446.426	17090.98
446.633	17719.71
446.839	17856.92
447.046	17088.93
447.252	18108.82
447.459	18084.25
447.665	18080.15
447.871	19122.57
448.078	19806.59
448.284	18919.82
448.491	19399.04
448.697	20072.82
448.903	20457.84
449.11	20617.58
449.316	20371.83
449.522	20734.32
449.728	21391.72
449.935	21457.25
450.141	21604.7
450.347	21768.54
450.553	21111.14
450.76	21498.21
450.966	22456.66
451.172	22135.13
451.378	22626.64
451.584	22063.45
451.791	23079.24
451.997	22866.25
452.203	22909.26
452.409	23210.31
452.615	22632.79
452.821	22067.55
453.027	22002.01
453.233	23130.44
453.44	22182.23
453.646	22335.83
453.852	22540.63
454.058	22808.91
454.264	22241.62
454.47	22837.58
454.676	22266.2
454.882	22856.01
455.088	21182.82
455.294	21188.97
455.5	21907.8
455.705	21637.47
455.911	21053.8
456.117	20324.72
456.323	20593.01
456.529	19382.66
456.735	20453.75
456.941	19638.65
457.147	19319.17
457.352	18835.85
457.558	18452.88
457.764	18463.12
457.97	17973.66
458.176	17901.98
458.381	17637.79
458.587	16804.27
458.793	16947.62
458.999	15966.65
459.204	17254.82
459.41	16820.65
459.616	15628.73
459.821	15800.76
460.027	15462.85
460.233	15288.77
460.438	14516.69
460.644	14412.24
460.85	14062.04
461.055	13875.67
461.261	13910.49
461.466	12593.64
461.672	12630.51
461.878	13277.66
462.083	12362.22
462.289	12075.51
462.494	12016.12
462.7	11352.57
462.905	11248.13
463.111	11334.14
463.316	11371.01
463.522	11463.16
463.727	11227.65
463.932	11133.44
464.138	11256.32
464.343	11471.36
464.549	10983.94
464.754	11377.15
464.959	11211.26
465.165	11063.81
465.37	10734.09
465.575	10430.99
465.781	11010.56
465.986	10988.03
466.191	10519.05
466.397	10170.9
466.602	9642.52
466.807	10152.46
467.012	10093.07
467.218	10183.18
467.423	10000.91
467.628	9914.9
