Data from USB4F104151__12__12-58-29-580.txt Node

Date: Fri Mar 14 12:58:29 EDT 2025
User: louis
Spectrometer: USB4F10415
Trigger mode: 4
Integration Time (sec): 1.000000E-2
Scans to average: 1
Electric dark correction enabled: true
Nonlinearity correction enabled: false
Boxcar width: 0
XAxis mode: Wavelengths
Number of Pixels in Spectrum: 3648
>>>>>Begin Spectral Data<<<<<
178.204	-25.43
178.424	-25.43
178.644	-25.43
178.864	-21.33
179.084	-27.48
179.304	-131.92
179.524	-23.38
179.744	50.35
179.964	19.63
180.184	-9.05
180.404	19.63
180.624	-21.33
180.844	33.96
181.064	-29.52
181.283	11.43
181.503	54.44
181.723	25.77
181.943	-33.62
182.163	15.53
182.383	-41.81
182.602	52.39
182.822	3.24
183.042	-58.2
183.262	-15.19
183.482	-13.14
183.701	-78.68
183.921	19.63
184.141	25.77
184.361	23.72
184.58	-33.62
184.8	-13.14
185.02	15.53
185.239	-17.24
185.459	9.39
185.679	-0.85
185.898	-62.29
186.118	31.91
186.338	38.06
186.557	-23.38
186.777	-4.95
186.997	42.15
187.216	13.48
187.436	54.44
187.655	19.63
187.875	54.44
188.095	-25.43
188.314	31.91
188.534	42.15
188.753	27.82
188.973	62.63
189.192	48.3
189.412	54.44
189.631	21.67
189.851	25.77
190.07	-11.09
190.29	-47.96
190.509	23.72
190.729	-2.9
190.948	48.3
191.168	42.15
191.387	62.63
191.607	-21.33
191.826	93.35
192.045	-27.48
192.265	46.25
192.484	21.67
192.704	21.67
192.923	-50
193.142	27.82
193.362	-25.43
193.581	70.83
193.8	-17.24
194.02	-4.95
194.239	-43.86
194.458	93.35
194.678	60.59
194.897	31.91
195.116	-31.57
195.335	-4.95
195.555	29.87
195.774	-11.09
195.993	-15.19
196.212	38.06
196.432	-11.09
196.651	-27.48
196.87	-9.05
197.089	-13.14
197.308	-2.9
197.528	38.06
197.747	-41.81
197.966	36.01
198.185	-45.91
198.404	-0.85
198.623	-29.52
198.842	7.34
199.062	17.58
199.281	-35.67
199.5	89.26
199.719	56.49
199.938	40.11
200.157	13.48
200.376	-66.39
200.595	-7
200.814	-4.95
201.033	-9.05
201.252	64.68
201.471	-11.09
201.69	-9.05
201.909	5.29
202.128	-27.48
202.347	54.44
202.566	7.34
202.785	-9.05
203.004	9.39
203.223	56.49
203.442	13.48
203.661	5.29
203.879	42.15
204.098	-33.62
204.317	25.77
204.536	36.01
204.755	-35.67
204.974	-72.53
205.193	-72.53
205.411	38.06
205.63	42.15
205.849	50.35
206.068	36.01
206.287	13.48
206.505	3.24
206.724	-37.72
206.943	5.29
207.162	-25.43
207.381	17.58
207.599	68.78
207.818	46.25
208.037	36.01
208.255	-0.85
208.474	70.83
208.693	29.87
208.911	-33.62
209.13	38.06
209.349	-2.9
209.567	-58.2
209.786	13.48
210.005	23.72
210.223	13.48
210.442	-66.39
210.661	66.73
210.879	3.24
211.098	-35.67
211.316	9.39
211.535	46.25
211.753	13.48
211.972	9.39
212.191	31.91
212.409	7.34
212.628	1.19
212.846	23.72
213.065	31.91
213.283	74.92
213.502	46.25
213.72	27.82
213.938	23.72
214.157	44.2
214.375	48.3
214.594	15.53
214.812	56.49
215.031	19.63
215.249	-7
215.467	31.91
215.686	27.82
215.904	27.82
216.122	-0.85
216.341	52.39
216.559	3.24
216.778	31.91
216.996	38.06
217.214	36.01
217.432	-27.48
217.651	1.19
217.869	-35.67
218.087	19.63
218.306	-9.05
218.524	-4.95
218.742	-21.33
218.96	27.82
219.179	74.92
219.397	-19.29
219.615	25.77
219.833	89.26
220.051	-7
220.27	33.96
220.488	17.58
220.706	7.34
220.924	-35.67
221.142	-13.14
221.36	-25.43
221.578	40.11
221.796	13.48
222.015	17.58
222.233	21.67
222.451	29.87
222.669	31.91
222.887	46.25
223.105	-45.91
223.323	93.35
223.541	-35.67
223.759	-37.72
223.977	1.19
224.195	-11.09
224.413	33.96
224.631	-27.48
224.849	52.39
225.067	76.97
225.285	-27.48
225.503	85.16
225.721	-7
225.939	-4.95
226.157	83.11
226.375	3.24
226.592	58.54
226.81	109.74
227.028	-37.72
227.246	54.44
227.464	1.19
227.682	60.59
227.9	27.82
228.117	-11.09
228.335	44.2
228.553	15.53
228.771	23.72
228.989	48.3
229.206	-7
229.424	-27.48
229.642	5.29
229.86	54.44
230.077	5.29
230.295	52.39
230.513	-19.29
230.731	-9.05
230.948	50.35
231.166	38.06
231.384	-13.14
231.601	-21.33
231.819	42.15
232.037	5.29
232.254	-11.09
232.472	60.59
232.689	-76.63
232.907	48.3
233.125	3.24
233.342	42.15
233.56	46.25
233.777	36.01
233.995	7.34
234.213	68.78
234.43	60.59
234.648	-0.85
234.865	33.96
235.083	87.21
235.3	17.58
235.518	29.87
235.735	50.35
235.953	-13.14
236.17	-60.24
236.388	13.48
236.605	-19.29
236.822	25.77
237.04	74.92
237.257	-9.05
237.475	-35.67
237.692	-9.05
237.909	21.67
238.127	13.48
238.344	-29.52
238.562	60.59
238.779	29.87
238.996	17.58
239.214	23.72
239.431	54.44
239.648	-21.33
239.865	-21.33
240.083	9.39
240.3	5.29
240.517	46.25
240.735	-0.85
240.952	21.67
241.169	-35.67
241.386	60.59
241.603	1.19
241.821	-47.96
242.038	60.59
242.255	7.34
242.472	-21.33
242.689	-11.09
242.907	42.15
243.124	-39.76
243.341	-29.52
243.558	-60.24
243.775	31.91
243.992	38.06
244.209	42.15
244.426	40.11
244.643	-80.72
244.86	-27.48
245.078	-11.09
245.295	-41.81
245.512	-2.9
245.729	-25.43
245.946	7.34
246.163	-66.39
246.38	-2.9
246.597	52.39
246.814	33.96
247.031	36.01
247.248	46.25
247.464	25.77
247.681	21.67
247.898	-0.85
248.115	95.4
248.332	27.82
248.549	81.07
248.766	62.63
248.983	113.83
249.2	46.25
249.417	46.25
249.633	38.06
249.85	-13.14
250.067	-13.14
250.284	-9.05
250.501	9.39
250.717	-0.85
250.934	-41.81
251.151	40.11
251.368	-13.14
251.585	7.34
251.801	-27.48
252.018	81.07
252.235	-41.81
252.451	-4.95
252.668	3.24
252.885	15.53
253.102	31.91
253.318	1.19
253.535	-25.43
253.752	-29.52
253.968	-0.85
254.185	-66.39
254.401	23.72
254.618	48.3
254.835	-70.48
255.051	36.01
255.268	31.91
255.484	44.2
255.701	7.34
255.917	-68.44
256.134	-2.9
256.351	-17.24
256.567	25.77
256.784	-41.81
257	-45.91
257.217	31.91
257.433	-19.29
257.65	52.39
257.866	-11.09
258.082	5.29
258.299	-0.85
258.515	68.78
258.732	-13.14
258.948	-13.14
259.165	31.91
259.381	-7
259.597	-62.29
259.814	36.01
260.03	40.11
260.246	44.2
260.463	-27.48
260.679	38.06
260.895	23.72
261.112	-33.62
261.328	44.2
261.544	23.72
261.761	72.87
261.977	29.87
262.193	-9.05
262.409	-2.9
262.626	-52.05
262.842	-52.05
263.058	91.31
263.274	29.87
263.49	7.34
263.707	62.63
263.923	25.77
264.139	23.72
264.355	42.15
264.571	50.35
264.787	1.19
265.004	17.58
265.22	-9.05
265.436	72.87
265.652	7.34
265.868	-76.63
266.084	54.44
266.3	62.63
266.516	19.63
266.732	36.01
266.948	19.63
267.164	31.91
267.38	11.43
267.596	27.82
267.812	81.07
268.028	52.39
268.244	58.54
268.46	3.24
268.676	-19.29
268.892	81.07
269.108	23.72
269.324	-19.29
269.54	31.91
269.756	-4.95
269.972	-11.09
270.188	54.44
270.403	3.24
270.619	23.72
270.835	-13.14
271.051	-47.96
271.267	-19.29
271.483	27.82
271.698	3.24
271.914	60.59
272.13	-50
272.346	36.01
272.562	21.67
272.777	-21.33
272.993	36.01
273.209	21.67
273.425	19.63
273.64	-9.05
273.856	42.15
274.072	-13.14
274.287	-2.9
274.503	-47.96
274.719	-43.86
274.934	21.67
275.15	-13.14
275.366	48.3
275.581	-11.09
275.797	56.49
276.012	-17.24
276.228	-11.09
276.444	38.06
276.659	-41.81
276.875	-9.05
277.09	36.01
277.306	9.39
277.521	-7
277.737	-9.05
277.952	46.25
278.168	56.49
278.383	21.67
278.599	11.43
278.814	21.67
279.03	19.63
279.245	42.15
279.461	-31.57
279.676	27.82
279.892	-41.81
280.107	36.01
280.322	-39.76
280.538	5.29
280.753	19.63
280.969	48.3
281.184	95.4
281.399	83.11
281.615	23.72
281.83	-31.57
282.045	-66.39
282.26	21.67
282.476	50.35
282.691	66.73
282.906	29.87
283.122	36.01
283.337	11.43
283.552	-0.85
283.767	-0.85
283.983	13.48
284.198	62.63
284.413	89.26
284.628	-58.2
284.843	15.53
285.058	19.63
285.274	27.82
285.489	23.72
285.704	60.59
285.919	-13.14
286.134	60.59
286.349	-19.29
286.564	29.87
286.779	142.5
286.995	23.72
287.21	31.91
287.425	15.53
287.64	27.82
287.855	21.67
288.07	13.48
288.285	29.87
288.5	-19.29
288.715	-4.95
288.93	-19.29
289.145	62.63
289.36	56.49
289.575	9.39
289.79	54.44
290.004	-74.58
290.219	42.15
290.434	-4.95
290.649	-35.67
290.864	-19.29
291.079	-29.52
291.294	11.43
291.509	13.48
291.724	11.43
291.938	21.67
292.153	-15.19
292.368	1.19
292.583	74.92
292.798	81.07
293.012	-25.43
293.227	62.63
293.442	-27.48
293.657	-13.14
293.871	33.96
294.086	3.24
294.301	128.17
294.516	-56.15
294.73	-56.15
294.945	1.19
295.16	1.19
295.374	54.44
295.589	-58.2
295.804	-54.1
296.018	-11.09
296.233	117.93
296.447	52.39
296.662	36.01
296.877	-13.14
297.091	29.87
297.306	44.2
297.52	3.24
297.735	7.34
297.949	25.77
298.164	7.34
298.378	79.02
298.593	7.34
298.807	-31.57
299.022	79.02
299.236	60.59
299.451	19.63
299.665	-4.95
299.88	-45.91
300.094	-4.95
300.309	23.72
300.523	23.72
300.737	15.53
300.952	13.48
301.166	23.72
301.381	3.24
301.595	9.39
301.809	-68.44
302.024	68.78
302.238	-7
302.452	5.29
302.667	52.39
302.881	21.67
303.095	19.63
303.309	91.31
303.524	13.48
303.738	44.2
303.952	-45.91
304.166	44.2
304.381	25.77
304.595	44.2
304.809	38.06
305.023	15.53
305.237	-13.14
305.452	111.78
305.666	74.92
305.88	46.25
306.094	-4.95
306.308	9.39
306.522	-9.05
306.736	70.83
306.95	-39.76
307.164	85.16
307.379	-2.9
307.593	-23.38
307.807	-4.95
308.021	-11.09
308.235	68.78
308.449	-17.24
308.663	13.48
308.877	50.35
309.091	-17.24
309.305	31.91
309.519	40.11
309.733	42.15
309.947	23.72
310.161	-13.14
310.374	60.59
310.588	95.4
310.802	46.25
311.016	15.53
311.23	-4.95
311.444	66.73
311.658	15.53
311.872	29.87
312.085	66.73
312.299	13.48
312.513	1.19
312.727	5.29
312.941	-45.91
313.154	70.83
313.368	17.58
313.582	-50
313.796	23.72
314.009	44.2
314.223	-70.48
314.437	11.43
314.651	19.63
314.864	36.01
315.078	-11.09
315.292	46.25
315.505	-2.9
315.719	-4.95
315.933	-2.9
316.146	23.72
316.36	-2.9
316.573	21.67
316.787	31.91
317.001	54.44
317.214	-37.72
317.428	15.53
317.641	-125.78
317.855	1.19
318.068	23.72
318.282	101.55
318.495	7.34
318.709	7.34
318.922	-43.86
319.136	29.87
319.349	17.58
319.563	40.11
319.776	-56.15
319.99	38.06
320.203	50.35
320.417	29.87
320.63	11.43
320.843	60.59
321.057	72.87
321.27	-21.33
321.483	36.01
321.697	-7
321.91	-11.09
322.124	3.24
322.337	-23.38
322.55	21.67
322.763	-52.05
322.977	-9.05
323.19	56.49
323.403	46.25
323.617	-25.43
323.83	42.15
324.043	19.63
324.256	46.25
324.469	29.87
324.683	1.19
324.896	7.34
325.109	7.34
325.322	5.29
325.535	60.59
325.748	3.24
325.962	29.87
326.175	9.39
326.388	25.77
326.601	50.35
326.814	85.16
327.027	62.63
327.24	83.11
327.453	38.06
327.666	17.58
327.879	-9.05
328.092	66.73
328.305	7.34
328.518	-9.05
328.731	-60.24
328.944	15.53
329.157	17.58
329.37	3.24
329.583	79.02
329.796	46.25
330.009	46.25
330.222	-68.44
330.435	-13.14
330.648	68.78
330.861	-11.09
331.073	36.01
331.286	7.34
331.499	19.63
331.712	5.29
331.925	54.44
332.138	-13.14
332.35	17.58
332.563	33.96
332.776	29.87
332.989	-29.52
333.202	62.63
333.414	1.19
333.627	-15.19
333.84	101.55
334.053	-0.85
334.265	-2.9
334.478	56.49
334.691	40.11
334.903	99.5
335.116	-66.39
335.329	5.29
335.541	31.91
335.754	27.82
335.966	27.82
336.179	31.91
336.392	-23.38
336.604	1.19
336.817	-19.29
337.029	-19.29
337.242	-23.38
337.454	7.34
337.667	-41.81
337.88	52.39
338.092	70.83
338.305	42.15
338.517	15.53
338.729	15.53
338.942	48.3
339.154	42.15
339.367	-15.19
339.579	79.02
339.792	-29.52
340.004	85.16
340.217	-62.29
340.429	76.97
340.641	93.35
340.854	5.29
341.066	3.24
341.278	-9.05
341.491	-15.19
341.703	13.48
341.915	-11.09
342.128	21.67
342.34	33.96
342.552	40.11
342.764	-37.72
342.977	66.73
343.189	76.97
343.401	42.15
343.613	-27.48
343.826	-19.29
344.038	-0.85
344.25	70.83
344.462	-11.09
344.674	-4.95
344.886	42.15
345.099	36.01
345.311	-15.19
345.523	7.34
345.735	66.73
345.947	62.63
346.159	7.34
346.371	23.72
346.583	23.72
346.795	74.92
347.007	23.72
347.219	60.59
347.431	46.25
347.643	21.67
347.855	81.07
348.067	50.35
348.279	15.53
348.491	54.44
348.703	-9.05
348.915	3.24
349.127	50.35
349.339	76.97
349.551	66.73
349.763	27.82
349.975	19.63
350.187	70.83
350.399	-9.05
350.61	60.59
350.822	19.63
351.034	38.06
351.246	31.91
351.458	-2.9
351.669	-0.85
351.881	-15.19
352.093	5.29
352.305	40.11
352.517	54.44
352.728	76.97
352.94	46.25
353.152	33.96
353.363	-35.67
353.575	38.06
353.787	52.39
353.999	-15.19
354.21	56.49
354.422	52.39
354.633	11.43
354.845	21.67
355.057	60.59
355.268	68.78
355.48	54.44
355.692	-11.09
355.903	-76.63
356.115	-35.67
356.326	-2.9
356.538	68.78
356.749	25.77
356.961	105.64
357.172	13.48
357.384	81.07
357.595	68.78
357.807	29.87
358.018	17.58
358.23	-35.67
358.441	19.63
358.653	-19.29
358.864	95.4
359.075	21.67
359.287	-19.29
359.498	21.67
359.709	-68.44
359.921	23.72
360.132	15.53
360.344	46.25
360.555	-0.85
360.766	33.96
360.977	25.77
361.189	42.15
361.4	36.01
361.611	76.97
361.823	50.35
362.034	99.5
362.245	-64.34
362.456	42.15
362.667	-37.72
362.879	40.11
363.09	-60.24
363.301	87.21
363.512	-43.86
363.723	85.16
363.935	-45.91
364.146	70.83
364.357	-7
364.568	-4.95
364.779	-13.14
364.99	126.12
365.201	19.63
365.412	44.2
365.623	-13.14
365.834	72.87
366.045	54.44
366.256	31.91
366.467	9.39
366.678	52.39
366.889	66.73
367.1	-31.57
367.311	11.43
367.522	70.83
367.733	52.39
367.944	50.35
368.155	23.72
368.366	-4.95
368.577	-23.38
368.788	113.83
368.999	25.77
369.209	-33.62
369.42	91.31
369.631	42.15
369.842	50.35
370.053	-2.9
370.264	66.73
370.474	3.24
370.685	89.26
370.896	70.83
371.107	-9.05
371.317	95.4
371.528	-47.96
371.739	-2.9
371.95	17.58
372.16	109.74
372.371	36.01
372.582	107.69
372.792	124.07
373.003	-21.33
373.214	-17.24
373.424	-27.48
373.635	15.53
373.846	52.39
374.056	15.53
374.267	21.67
374.477	105.64
374.688	3.24
374.898	91.31
375.109	-4.95
375.319	44.2
375.53	62.63
375.74	85.16
375.951	52.39
376.161	-25.43
376.372	31.91
376.582	-41.81
376.793	7.34
377.003	-11.09
377.214	36.01
377.424	17.58
377.635	15.53
377.845	17.58
378.055	44.2
378.266	-2.9
378.476	74.92
378.686	79.02
378.897	21.67
379.107	5.29
379.317	-11.09
379.528	-15.19
379.738	-0.85
379.948	36.01
380.158	-0.85
380.369	50.35
380.579	36.01
380.789	-19.29
380.999	23.72
381.21	-13.14
381.42	17.58
381.63	76.97
381.84	21.67
382.05	-39.76
382.261	101.55
382.471	3.24
382.681	17.58
382.891	38.06
383.101	27.82
383.311	-33.62
383.521	38.06
383.731	72.87
383.941	42.15
384.151	-19.29
384.361	27.82
384.571	-62.29
384.781	29.87
384.991	40.11
385.201	17.58
385.411	54.44
385.621	-23.38
385.831	-21.33
386.041	7.34
386.251	-9.05
386.461	95.4
386.671	-9.05
386.881	23.72
387.091	46.25
387.301	68.78
387.511	1.19
387.72	46.25
387.93	50.35
388.14	9.39
388.35	85.16
388.56	62.63
388.769	105.64
388.979	25.77
389.189	-80.72
389.399	36.01
389.609	23.72
389.818	70.83
390.028	44.2
390.238	29.87
390.447	83.11
390.657	83.11
390.867	-33.62
391.076	21.67
391.286	19.63
391.496	-21.33
391.705	40.11
391.915	68.78
392.125	76.97
392.334	109.74
392.544	38.06
392.753	13.48
392.963	7.34
393.172	13.48
393.382	3.24
393.591	54.44
393.801	46.25
394.01	60.59
394.22	11.43
394.429	44.2
394.639	-17.24
394.848	33.96
395.058	38.06
395.267	19.63
395.477	38.06
395.686	60.59
395.895	91.31
396.105	130.22
396.314	58.54
396.524	64.68
396.733	29.87
396.942	48.3
397.152	56.49
397.361	42.15
397.57	52.39
397.78	19.63
397.989	13.48
398.198	62.63
398.407	48.3
398.617	36.01
398.826	27.82
399.035	-23.38
399.244	60.59
399.453	7.34
399.663	7.34
399.872	42.15
400.081	48.3
400.29	62.63
400.499	81.07
400.708	105.64
400.917	62.63
401.127	23.72
401.336	81.07
401.545	105.64
401.754	36.01
401.963	128.17
402.172	15.53
402.381	1.19
402.59	85.16
402.799	111.78
403.008	13.48
403.217	62.63
403.426	79.02
403.635	119.98
403.844	11.43
404.053	-7
404.262	50.35
404.471	40.11
404.68	103.59
404.888	85.16
405.097	76.97
405.306	48.3
405.515	64.68
405.724	99.5
405.933	167.08
406.142	130.22
406.35	81.07
406.559	138.41
406.768	85.16
406.977	140.46
407.185	56.49
407.394	171.18
407.603	56.49
407.812	177.32
408.02	85.16
408.229	189.61
408.438	136.36
408.646	103.59
408.855	66.73
409.064	197.8
409.272	56.49
409.481	175.27
409.69	203.94
409.898	171.18
410.107	111.78
410.315	193.7
410.524	263.33
410.733	224.42
410.941	224.42
411.15	240.81
411.358	187.56
411.567	216.23
411.775	199.85
411.984	302.25
412.192	242.85
412.401	242.85
412.609	220.33
412.818	261.29
413.026	281.77
413.234	271.53
413.443	265.38
413.651	287.91
413.86	304.29
414.068	326.82
414.276	273.57
414.485	330.92
414.693	355.49
414.901	382.12
415.11	443.56
415.318	300.2
415.526	375.97
415.734	421.03
415.943	496.8
416.151	486.56
416.359	412.84
416.567	414.88
416.776	447.65
416.984	490.66
417.192	523.43
417.4	472.23
417.608	507.04
417.817	613.54
418.025	486.56
418.233	627.87
418.441	617.63
418.649	654.5
418.857	646.3
419.065	791.71
419.273	713.89
419.481	707.74
419.689	713.89
419.897	879.77
420.105	795.81
420.313	832.67
420.521	832.67
420.729	810.14
420.937	873.63
421.145	908.44
421.353	992.41
421.561	1035.42
421.769	1041.56
421.977	1180.82
422.185	1033.37
422.393	1174.68
422.601	1127.58
422.809	1299.61
423.017	1186.97
423.224	1205.4
423.432	1334.42
423.64	1313.94
423.848	1451.16
424.056	1461.4
424.263	1410.2
424.471	1471.64
424.679	1543.32
424.887	1576.08
425.094	1744.02
425.302	1655.95
425.51	1807.5
425.718	1862.8
425.925	1838.22
426.133	1914
426.341	2006.16
426.548	2018.44
426.756	2135.18
426.964	2153.61
427.171	2362.5
427.379	2245.77
427.586	2358.41
427.794	2364.55
428.001	2518.15
428.209	2483.33
428.417	2555.01
428.624	2811.01
428.832	2761.86
429.039	2808.96
429.247	2872.45
429.454	3009.66
429.662	3130.49
429.869	3028.09
430.076	3177.59
430.284	3198.07
430.491	3253.37
430.699	3478.65
430.906	3460.21
431.114	3296.38
431.321	3667.06
431.528	3728.5
431.736	3796.08
431.943	4066.41
432.15	3968.11
432.358	4191.34
432.565	4289.64
432.772	4238.44
432.979	4578.4
433.187	4625.51
433.394	4584.55
433.601	4861.02
433.808	4852.83
434.016	4834.4
434.223	5121.12
434.43	5385.3
434.637	5139.55
434.844	5620.82
435.052	5700.69
435.259	5696.6
435.466	5684.31
435.673	5710.93
435.88	6108.24
436.087	6343.75
436.294	6364.23
436.501	6190.16
436.708	6333.51
436.915	6663.24
437.122	6839.36
437.329	6843.46
437.537	7119.93
437.743	7146.56
437.95	7064.64
438.157	7595.06
438.364	7621.69
438.571	7734.32
438.778	7640.12
438.985	8477.74
439.192	8270.89
439.399	8471.59
439.606	8154.16
439.813	8586.28
440.02	9219.1
440.227	9012.26
440.433	9258.01
440.64	9360.41
440.847	9204.77
441.054	9325.6
441.261	10028.05
441.467	10019.86
441.674	10036.24
441.881	10374.16
442.088	10441.74
442.294	10398.73
442.501	10699.78
442.708	10869.76
442.914	11277.31
443.121	11809.78
443.328	11488.25
443.534	12424.17
443.741	11934.71
443.948	11840.5
444.154	12608.49
444.361	12651.5
444.568	12700.65
444.774	12659.69
444.981	13034.47
445.187	13257.7
445.394	13620.19
445.6	13790.17
445.807	14828.49
446.013	14379.98
446.22	14552.01
446.426	15242.18
446.633	15322.05
446.839	15905.72
447.046	15092.68
447.252	16278.45
447.459	16241.59
447.665	15836.09
447.871	16851.88
448.078	17578.91
448.284	16696.24
448.491	17140.65
448.697	17834.91
448.903	18174.87
449.11	18328.47
449.316	18060.18
449.522	18279.32
449.728	18922.38
449.935	18809.74
450.141	19084.17
450.347	19399.55
450.553	18826.12
450.76	19182.47
450.966	19829.63
451.172	19655.55
451.378	20073.34
451.584	19608.45
451.791	20056.95
451.997	19950.46
452.203	20235.13
452.409	20073.34
452.615	20294.52
452.821	19526.53
453.027	19239.81
453.233	20368.24
453.44	19760
453.646	19864.44
453.852	20261.75
454.058	20491.12
454.264	19583.87
454.47	20183.93
454.676	19708.8
454.882	20192.12
455.088	18494.35
455.294	19032.97
455.5	19192.71
455.705	19295.11
455.911	18606.99
456.117	17859.48
456.323	17775.52
456.529	16960.42
456.735	17871.77
456.941	17284
457.147	17173.41
457.352	16444.34
457.558	16325.55
457.764	16300.98
457.97	16122.8
458.176	15780.79
458.381	15834.04
458.587	15184.83
458.793	15117.25
458.999	14052.31
459.204	15215.55
459.41	14945.22
459.616	13855.7
459.821	13902.81
460.027	13726.68
460.233	13546.46
460.438	12604.39
460.644	12805.1
460.85	12114.93
461.055	12110.83
461.261	11926.52
461.466	11088.9
461.672	10929.16
461.878	11803.64
462.083	10902.53
462.289	10673.16
462.494	10652.68
462.7	10040.34
462.905	9919.51
463.111	10101.78
463.316	10284.05
463.522	9868.31
463.727	10060.82
463.932	9888.79
464.138	9905.17
464.343	10054.67
464.549	9706.52
464.754	10013.71
464.959	9731.09
465.165	9778.2
465.37	9446.43
465.575	9124.9
465.781	9483.29
465.986	9471
466.191	9120.8
466.397	9051.17
466.602	8551.46
466.807	9065.5
467.012	9200.67
467.218	8942.63
467.423	8756.26
467.628	8774.69
467.833	9221.15
468.038	9008.16
468.244	8686.63
468.449	8850.47
