Data from USB4F104151__79__12-59-50-180.txt Node

Date: Fri Mar 14 12:59:50 EDT 2025
User: louis
Spectrometer: USB4F10415
Trigger mode: 4
Integration Time (sec): 1.000000E-2
Scans to average: 1
Electric dark correction enabled: true
Nonlinearity correction enabled: false
Boxcar width: 0
XAxis mode: Wavelengths
Number of Pixels in Spectrum: 3648
>>>>>Begin Spectral Data<<<<<
178.204	-57.17
178.424	-57.17
178.644	-57.17
178.864	-14.17
179.084	-57.17
179.304	-20.31
179.524	-8.02
179.744	26.79
179.964	39.08
180.184	24.75
180.404	-26.45
180.624	32.94
180.844	-32.6
181.064	-48.98
181.283	61.61
181.503	-57.17
181.723	8.36
181.943	-55.12
182.163	-34.64
182.383	12.46
182.602	8.36
182.822	28.84
183.042	69.8
183.262	-3.93
183.482	10.41
183.701	26.79
183.921	59.56
184.141	-61.27
184.361	84.14
184.58	-40.79
184.8	55.47
185.02	45.23
185.239	30.89
185.459	12.46
185.679	-28.5
185.898	34.99
186.118	37.03
186.338	-48.98
186.557	59.56
186.777	-89.94
186.997	39.08
187.216	-10.07
187.436	32.94
187.655	-59.22
187.875	90.28
188.095	32.94
188.314	41.13
188.534	20.65
188.753	8.36
188.973	-79.7
189.192	26.79
189.412	45.23
189.631	75.95
189.851	-3.93
190.07	67.75
190.29	14.51
190.509	22.7
190.729	34.99
190.948	-8.02
191.168	-36.69
191.387	51.37
191.607	45.23
191.826	20.65
192.045	32.94
192.265	34.99
192.484	-22.36
192.704	67.75
192.923	-30.55
193.142	108.71
193.362	98.47
193.581	80.04
193.8	-24.4
194.02	-3.93
194.239	59.56
194.458	67.75
194.678	0.17
194.897	37.03
195.116	39.08
195.335	63.66
195.555	47.27
195.774	26.79
195.993	-1.88
196.212	32.94
196.432	18.6
196.651	-16.21
196.87	12.46
197.089	34.99
197.308	-57.17
197.528	-30.55
197.747	18.6
197.966	24.75
198.185	18.6
198.404	-55.12
198.623	12.46
198.842	59.56
199.062	-16.21
199.281	32.94
199.5	57.51
199.719	57.51
199.938	-5.97
200.157	28.84
200.376	65.71
200.595	20.65
200.814	6.31
201.033	-20.31
201.252	34.99
201.471	28.84
201.69	39.08
201.909	61.61
202.128	0.17
202.347	-14.17
202.566	20.65
202.785	18.6
203.004	8.36
203.223	55.47
203.442	-30.55
203.661	-16.21
203.879	24.75
204.098	-10.07
204.317	-36.69
204.536	14.51
204.755	18.6
204.974	59.56
205.193	6.31
205.411	116.9
205.63	-48.98
205.849	18.6
206.068	39.08
206.287	-46.93
206.505	-1.88
206.724	24.75
206.943	37.03
207.162	34.99
207.381	0.17
207.599	26.79
207.818	-1.88
208.037	102.57
208.255	65.71
208.474	51.37
208.693	-77.65
208.911	12.46
209.13	43.18
209.349	-16.21
209.567	22.7
209.786	24.75
210.005	22.7
210.223	67.75
210.442	65.71
210.661	67.75
210.879	24.75
211.098	-69.46
211.316	43.18
211.535	18.6
211.753	-53.08
211.972	-57.17
212.191	-77.65
212.409	-8.02
212.628	-16.21
212.846	24.75
213.065	30.89
213.283	86.19
213.502	-34.64
213.72	-3.93
213.938	-22.36
214.157	34.99
214.375	24.75
214.594	28.84
214.812	-30.55
215.031	-16.21
215.249	-14.17
215.467	18.6
215.686	43.18
215.904	20.65
216.122	77.99
216.341	55.47
216.559	-1.88
216.778	49.32
216.996	-14.17
217.214	12.46
217.432	22.7
217.651	51.37
217.869	16.55
218.087	-40.79
218.306	-18.26
218.524	4.27
218.742	51.37
218.96	8.36
219.179	-32.6
219.397	41.13
219.615	86.19
219.833	2.22
220.051	8.36
220.27	73.9
220.488	-14.17
220.706	-40.79
220.924	-18.26
221.142	34.99
221.36	55.47
221.578	26.79
221.796	-32.6
222.015	59.56
222.233	100.52
222.451	37.03
222.669	47.27
222.887	90.28
223.105	-16.21
223.323	73.9
223.541	0.17
223.759	39.08
223.977	-32.6
224.195	-3.93
224.413	-5.97
224.631	61.61
224.849	37.03
225.067	8.36
225.285	57.51
225.503	41.13
225.721	-38.74
225.939	28.84
226.157	-20.31
226.375	88.23
226.592	-24.4
226.81	-3.93
227.028	41.13
227.246	61.61
227.464	0.17
227.682	45.23
227.9	-24.4
228.117	-18.26
228.335	-8.02
228.553	8.36
228.771	63.66
228.989	-14.17
229.206	53.42
229.424	41.13
229.642	-14.17
229.86	-28.5
230.077	73.9
230.295	-30.55
230.513	28.84
230.731	53.42
230.948	-26.45
231.166	143.53
231.384	28.84
231.601	10.41
231.819	39.08
232.037	-30.55
232.254	-51.03
232.472	43.18
232.689	49.32
232.907	26.79
233.125	34.99
233.342	-38.74
233.56	22.7
233.777	14.51
233.995	-24.4
234.213	47.27
234.43	24.75
234.648	-22.36
234.865	49.32
235.083	14.51
235.3	22.7
235.518	92.33
235.735	-10.07
235.953	-26.45
236.17	16.55
236.388	-1.88
236.605	-26.45
236.822	69.8
237.04	-5.97
237.257	63.66
237.475	-3.93
237.692	4.27
237.909	18.6
238.127	41.13
238.344	-10.07
238.562	-5.97
238.779	-26.45
238.996	8.36
239.214	-18.26
239.431	10.41
239.648	28.84
239.865	45.23
240.083	-20.31
240.3	133.29
240.517	41.13
240.735	4.27
240.952	39.08
241.169	37.03
241.386	-18.26
241.603	10.41
241.821	47.27
242.038	2.22
242.255	-42.84
242.472	-46.93
242.689	53.42
242.907	-16.21
243.124	-22.36
243.341	114.86
243.558	55.47
243.775	12.46
243.992	2.22
244.209	-67.41
244.426	-22.36
244.643	26.79
244.86	12.46
245.078	57.51
245.295	90.28
245.512	-1.88
245.729	43.18
245.946	-5.97
246.163	43.18
246.38	65.71
246.597	61.61
246.814	71.85
247.031	24.75
247.248	47.27
247.464	41.13
247.681	49.32
247.898	-3.93
248.115	-24.4
248.332	-46.93
248.549	51.37
248.766	-5.97
248.983	10.41
249.2	14.51
249.417	24.75
249.633	57.51
249.85	20.65
250.067	53.42
250.284	-46.93
250.501	61.61
250.717	41.13
250.934	-24.4
251.151	92.33
251.368	45.23
251.585	55.47
251.801	32.94
252.018	18.6
252.235	51.37
252.451	-73.56
252.668	37.03
252.885	59.56
253.102	4.27
253.318	0.17
253.535	34.99
253.752	32.94
253.968	-16.21
254.185	-73.56
254.401	26.79
254.618	63.66
254.835	2.22
255.051	57.51
255.268	43.18
255.484	34.99
255.701	-40.79
255.917	41.13
256.134	80.04
256.351	-1.88
256.567	2.22
256.784	32.94
257	16.55
257.217	-36.69
257.433	90.28
257.65	-3.93
257.866	4.27
258.082	10.41
258.299	-28.5
258.515	65.71
258.732	43.18
258.948	45.23
259.165	53.42
259.381	6.31
259.597	20.65
259.814	51.37
260.03	-22.36
260.246	-51.03
260.463	-48.98
260.679	14.51
260.895	34.99
261.112	84.14
261.328	41.13
261.544	65.71
261.761	-48.98
261.977	-10.07
262.193	43.18
262.409	10.41
262.626	-1.88
262.842	-59.22
263.058	77.99
263.274	24.75
263.49	65.71
263.707	-22.36
263.923	-24.4
264.139	-16.21
264.355	41.13
264.571	-26.45
264.787	49.32
265.004	110.76
265.22	16.55
265.436	-48.98
265.652	6.31
265.868	49.32
266.084	-14.17
266.3	12.46
266.516	8.36
266.732	-12.12
266.948	-3.93
267.164	96.43
267.38	8.36
267.596	20.65
267.812	-16.21
268.028	90.28
268.244	34.99
268.46	41.13
268.676	-18.26
268.892	28.84
269.108	88.23
269.324	30.89
269.54	26.79
269.756	59.56
269.972	8.36
270.188	12.46
270.403	-30.55
270.619	-40.79
270.835	-14.17
271.051	-12.12
271.267	-14.17
271.483	24.75
271.698	-14.17
271.914	55.47
272.13	37.03
272.346	67.75
272.562	30.89
272.777	28.84
272.993	8.36
273.209	2.22
273.425	53.42
273.64	-16.21
273.856	92.33
274.072	100.52
274.287	37.03
274.503	61.61
274.719	65.71
274.934	14.51
275.15	-8.02
275.366	43.18
275.581	6.31
275.797	2.22
276.012	41.13
276.228	61.61
276.444	28.84
276.659	49.32
276.875	18.6
277.09	2.22
277.306	-1.88
277.521	24.75
277.737	-3.93
277.952	49.32
278.168	10.41
278.383	34.99
278.599	10.41
278.814	57.51
279.03	-3.93
279.245	57.51
279.461	-24.4
279.676	-48.98
279.892	14.51
280.107	12.46
280.322	67.75
280.538	-28.5
280.753	67.75
280.969	12.46
281.184	57.51
281.399	16.55
281.615	59.56
281.83	49.32
282.045	-8.02
282.26	16.55
282.476	43.18
282.691	34.99
282.906	-24.4
283.122	39.08
283.337	-12.12
283.552	-12.12
283.767	20.65
283.983	-12.12
284.198	6.31
284.413	90.28
284.628	30.89
284.843	84.14
285.058	-14.17
285.274	-5.97
285.489	14.51
285.704	8.36
285.919	10.41
286.134	4.27
286.349	6.31
286.564	-1.88
286.779	-26.45
286.995	65.71
287.21	6.31
287.425	55.47
287.64	2.22
287.855	28.84
288.07	-10.07
288.285	39.08
288.5	49.32
288.715	49.32
288.93	45.23
289.145	61.61
289.36	39.08
289.575	30.89
289.79	12.46
290.004	16.55
290.219	-1.88
290.434	100.52
290.649	-22.36
290.864	28.84
291.079	20.65
291.294	57.51
291.509	57.51
291.724	18.6
291.938	94.38
292.153	49.32
292.368	-18.26
292.583	-55.12
292.798	82.09
293.012	-55.12
293.227	32.94
293.442	37.03
293.657	0.17
293.871	51.37
294.086	32.94
294.301	65.71
294.516	8.36
294.73	37.03
294.945	22.7
295.16	41.13
295.374	14.51
295.589	8.36
295.804	39.08
296.018	-30.55
296.233	22.7
296.447	41.13
296.662	-46.93
296.877	100.52
297.091	16.55
297.306	-22.36
297.52	65.71
297.735	0.17
297.949	61.61
298.164	139.43
298.378	49.32
298.593	47.27
298.807	14.51
299.022	77.99
299.236	61.61
299.451	4.27
299.665	-5.97
299.88	-16.21
300.094	-3.93
300.309	55.47
300.523	53.42
300.737	-3.93
300.952	-3.93
301.166	-12.12
301.381	47.27
301.595	20.65
301.809	-18.26
302.024	63.66
302.238	18.6
302.452	-38.74
302.667	-20.31
302.881	-20.31
303.095	-1.88
303.309	-8.02
303.524	-28.5
303.738	6.31
303.952	0.17
304.166	0.17
304.381	34.99
304.595	84.14
304.809	10.41
305.023	-46.93
305.237	41.13
305.452	-38.74
305.666	4.27
305.88	34.99
306.094	80.04
306.308	4.27
306.522	45.23
306.736	-24.4
306.95	47.27
307.164	37.03
307.379	82.09
307.593	-44.88
307.807	59.56
308.021	10.41
308.235	6.31
308.449	8.36
308.663	-1.88
308.877	67.75
309.091	0.17
309.305	88.23
309.519	12.46
309.733	28.84
309.947	-8.02
310.161	30.89
310.374	-18.26
310.588	12.46
310.802	39.08
311.016	-14.17
311.23	-14.17
311.444	90.28
311.658	0.17
311.872	-1.88
312.085	12.46
312.299	100.52
312.513	63.66
312.727	118.95
312.941	-38.74
313.154	12.46
313.368	34.99
313.582	32.94
313.796	73.9
314.009	-5.97
314.223	34.99
314.437	41.13
314.651	61.61
314.864	45.23
315.078	-14.17
315.292	-71.51
315.505	49.32
315.719	-12.12
315.933	34.99
316.146	18.6
316.36	16.55
316.573	8.36
316.787	61.61
317.001	-8.02
317.214	-3.93
317.428	18.6
317.641	30.89
317.855	-24.4
318.068	-3.93
318.282	8.36
318.495	45.23
318.709	49.32
318.922	63.66
319.136	127.14
319.349	-8.02
319.563	-12.12
319.776	28.84
319.99	12.46
320.203	55.47
320.417	69.8
320.63	41.13
320.843	-8.02
321.057	63.66
321.27	18.6
321.483	-3.93
321.697	37.03
321.91	4.27
322.124	34.99
322.337	20.65
322.55	-5.97
322.763	-20.31
322.977	-12.12
323.19	-53.08
323.403	-12.12
323.617	22.7
323.83	30.89
324.043	18.6
324.256	2.22
324.469	22.7
324.683	22.7
324.896	2.22
325.109	73.9
325.322	32.94
325.535	-5.97
325.748	37.03
325.962	73.9
326.175	90.28
326.388	63.66
326.601	55.47
326.814	-8.02
327.027	6.31
327.24	96.43
327.453	6.31
327.666	41.13
327.879	-20.31
328.092	8.36
328.305	16.55
328.518	28.84
328.731	12.46
328.944	77.99
329.157	10.41
329.37	47.27
329.583	-1.88
329.796	10.41
330.009	57.51
330.222	-18.26
330.435	20.65
330.648	65.71
330.861	-14.17
331.073	20.65
331.286	123.05
331.499	-38.74
331.712	2.22
331.925	24.75
332.138	8.36
332.35	51.37
332.563	26.79
332.776	59.56
332.989	8.36
333.202	8.36
333.414	82.09
333.627	4.27
333.84	18.6
334.053	-1.88
334.265	73.9
334.478	75.95
334.691	2.22
334.903	-53.08
335.116	-36.69
335.329	-20.31
335.541	67.75
335.754	4.27
335.966	-3.93
336.179	41.13
336.392	-16.21
336.604	24.75
336.817	-5.97
337.029	73.9
337.242	0.17
337.454	-12.12
337.667	39.08
337.88	20.65
338.092	-20.31
338.305	10.41
338.517	-12.12
338.729	2.22
338.942	61.61
339.154	41.13
339.367	-10.07
339.579	-24.4
339.792	49.32
340.004	22.7
340.217	51.37
340.429	75.95
340.641	47.27
340.854	18.6
341.066	-8.02
341.278	6.31
341.491	51.37
341.703	22.7
341.915	34.99
342.128	75.95
342.34	-8.02
342.552	16.55
342.764	-94.04
342.977	59.56
343.189	-10.07
343.401	26.79
343.613	-55.12
343.826	14.51
344.038	-10.07
344.25	-24.4
344.462	-5.97
344.674	-10.07
344.886	20.65
345.099	4.27
345.311	-18.26
345.523	18.6
345.735	0.17
345.947	20.65
346.159	-30.55
346.371	45.23
346.583	26.79
346.795	43.18
347.007	47.27
347.219	37.03
347.431	-12.12
347.643	-5.97
347.855	45.23
348.067	84.14
348.279	-32.6
348.491	0.17
348.703	53.42
348.915	-12.12
349.127	-59.22
349.339	45.23
349.551	32.94
349.763	59.56
349.975	98.47
350.187	86.19
350.399	22.7
350.61	12.46
350.822	30.89
351.034	63.66
351.246	-59.22
351.458	-44.88
351.669	-32.6
351.881	-18.26
352.093	114.86
352.305	16.55
352.517	51.37
352.728	73.9
352.94	59.56
353.152	20.65
353.363	-8.02
353.575	-8.02
353.787	61.61
353.999	45.23
354.21	53.42
354.422	32.94
354.633	24.75
354.845	90.28
355.057	88.23
355.268	82.09
355.48	-51.03
355.692	32.94
355.903	55.47
356.115	37.03
356.326	67.75
356.538	47.27
356.749	59.56
356.961	4.27
357.172	18.6
357.384	61.61
357.595	75.95
357.807	41.13
358.018	0.17
358.23	24.75
358.441	22.7
358.653	43.18
358.864	-18.26
359.075	77.99
359.287	43.18
359.498	73.9
359.709	4.27
359.921	51.37
360.132	-24.4
360.344	10.41
360.555	0.17
360.766	34.99
360.977	8.36
361.189	8.36
361.4	-8.02
361.611	34.99
361.823	26.79
362.034	26.79
362.245	0.17
362.456	73.9
362.667	30.89
362.879	30.89
363.09	28.84
363.301	34.99
363.512	61.61
363.723	43.18
363.935	-12.12
364.146	-22.36
364.357	65.71
364.568	-5.97
364.779	14.51
364.99	57.51
365.201	55.47
365.412	-24.4
365.623	28.84
365.834	20.65
366.045	-8.02
366.256	37.03
366.467	39.08
366.678	22.7
366.889	86.19
367.1	12.46
367.311	37.03
367.522	2.22
367.733	34.99
367.944	20.65
368.155	6.31
368.366	34.99
368.577	57.51
368.788	43.18
368.999	53.42
369.209	34.99
369.42	73.9
369.631	18.6
369.842	-3.93
370.053	8.36
370.264	-1.88
370.474	61.61
370.685	32.94
370.896	32.94
371.107	14.51
371.317	-8.02
371.528	6.31
371.739	8.36
371.95	-3.93
372.16	90.28
372.371	-65.36
372.582	8.36
372.792	53.42
373.003	10.41
373.214	6.31
373.424	32.94
373.635	18.6
373.846	-104.28
374.056	-34.64
374.267	37.03
374.477	24.75
374.688	-18.26
374.898	53.42
375.109	-18.26
375.319	-63.32
375.53	-1.88
375.74	49.32
375.951	0.17
376.161	57.51
376.372	2.22
376.582	49.32
376.793	6.31
377.003	47.27
377.214	-20.31
377.424	0.17
377.635	10.41
377.845	-24.4
378.055	30.89
378.266	-22.36
378.476	28.84
378.686	-28.5
378.897	59.56
379.107	18.6
379.317	20.65
379.528	34.99
379.738	24.75
379.948	18.6
380.158	90.28
380.369	-16.21
380.579	-3.93
380.789	10.41
380.999	-3.93
381.21	32.94
381.42	2.22
381.63	32.94
381.84	18.6
382.05	32.94
382.261	34.99
382.471	57.51
382.681	4.27
382.891	16.55
383.101	53.42
383.311	28.84
383.521	57.51
383.731	28.84
383.941	-5.97
384.151	0.17
384.361	80.04
384.571	37.03
384.781	47.27
384.991	39.08
385.201	127.14
385.411	-8.02
385.621	34.99
385.831	96.43
386.041	26.79
386.251	73.9
386.461	0.17
386.671	67.75
386.881	24.75
387.091	8.36
387.301	61.61
387.511	28.84
387.72	-10.07
387.93	-22.36
388.14	-14.17
388.35	26.79
388.56	-20.31
388.769	98.47
388.979	34.99
389.189	22.7
389.399	18.6
389.609	57.51
389.818	34.99
390.028	28.84
390.238	20.65
390.447	61.61
390.657	51.37
390.867	18.6
391.076	94.38
391.286	0.17
391.496	57.51
391.705	28.84
391.915	116.9
392.125	34.99
392.334	8.36
392.544	104.62
392.753	57.51
392.963	2.22
393.172	47.27
393.382	-12.12
393.591	12.46
393.801	0.17
394.01	67.75
394.22	34.99
394.429	57.51
394.639	65.71
394.848	100.52
395.058	-96.08
395.267	8.36
395.477	32.94
395.686	12.46
395.895	67.75
396.105	0.17
396.314	-3.93
396.524	-28.5
396.733	94.38
396.942	61.61
397.152	65.71
397.361	22.7
397.57	-1.88
397.78	82.09
397.989	53.42
398.198	127.14
398.407	98.47
398.617	45.23
398.826	57.51
399.035	69.8
399.244	-16.21
399.453	16.55
399.663	55.47
399.872	26.79
400.081	49.32
400.29	59.56
400.499	41.13
400.708	69.8
400.917	47.27
401.127	65.71
401.336	28.84
401.545	22.7
401.754	133.29
401.963	166.06
402.172	26.79
402.381	51.37
402.59	47.27
402.799	73.9
403.008	4.27
403.217	102.57
403.426	-24.4
403.635	59.56
403.844	0.17
404.053	141.48
404.262	110.76
404.471	57.51
404.68	24.75
404.888	108.71
405.097	24.75
405.306	110.76
405.515	10.41
405.724	106.67
405.933	82.09
406.142	57.51
406.35	172.2
406.559	127.14
406.768	51.37
406.977	61.61
407.185	80.04
407.394	57.51
407.603	147.62
407.812	129.19
408.02	118.95
408.229	73.9
408.438	121
408.646	174.25
408.855	135.34
409.064	174.25
409.272	69.8
409.481	114.86
409.69	170.15
409.898	86.19
410.107	147.62
410.315	133.29
410.524	129.19
410.733	139.43
410.941	188.58
411.15	143.53
411.358	131.24
411.567	229.54
411.775	161.96
411.984	186.54
412.192	311.46
412.401	245.93
412.609	186.54
412.818	229.54
413.026	247.97
413.234	247.97
413.443	213.16
413.651	250.02
413.86	180.39
414.068	209.06
414.276	219.3
414.485	184.49
414.693	276.65
414.901	297.13
415.11	366.76
415.318	217.26
415.526	358.57
415.734	301.22
415.943	391.33
416.151	409.76
416.359	385.19
416.567	389.28
416.776	393.38
416.984	383.14
417.192	436.39
417.4	387.24
417.608	399.52
417.817	438.44
418.025	506.02
418.233	460.96
418.441	499.88
418.649	544.93
418.857	583.84
419.065	616.61
419.273	549.03
419.481	635.04
419.689	649.38
419.897	575.65
420.105	649.38
420.313	688.29
420.521	608.42
420.729	680.1
420.937	735.39
421.145	737.44
421.353	729.25
421.561	798.88
421.769	749.73
421.977	913.56
422.185	821.41
422.393	870.56
422.601	921.76
422.809	854.17
423.017	956.57
423.224	1069.21
423.432	1050.78
423.64	1075.35
423.848	1147.03
424.056	1106.07
424.263	1108.12
424.471	1243.29
424.679	1198.23
424.887	1269.91
425.094	1339.54
425.302	1368.21
425.51	1419.41
425.718	1398.93
425.925	1384.6
426.133	1538.2
426.341	1661.07
426.548	1605.78
426.756	1587.35
426.964	1697.94
427.171	1654.93
427.379	1788.05
427.586	1835.15
427.794	1786
428.001	1976.46
428.209	1966.22
428.417	1960.08
428.624	2132.11
428.832	2048.14
429.039	2066.57
429.247	2271.37
429.454	2343.05
429.662	2482.31
429.869	2257.03
430.076	2627.71
430.284	2449.54
430.491	2556.04
430.699	2676.87
430.906	2662.53
431.114	2644.1
431.321	2764.93
431.528	2752.64
431.736	2963.58
431.943	3172.47
432.15	3006.59
432.358	3098.75
432.565	3324.02
432.772	3305.59
432.979	3440.76
433.187	3565.68
433.394	3496.05
433.601	3848.3
433.808	3780.72
434.016	3719.28
434.223	3954.8
434.43	4339.82
434.637	4057.2
434.844	4229.23
435.052	4380.78
435.259	4438.12
435.466	4362.34
435.673	4366.44
435.88	4587.62
436.087	4847.71
436.294	5091.42
436.501	4665.44
436.708	4905.06
436.915	5161.05
437.122	5310.55
437.329	5218.4
437.537	5415
437.743	5537.88
437.95	5548.12
438.157	5781.59
438.364	6002.77
438.571	6027.34
438.778	6080.59
438.985	6594.63
439.192	6367.31
439.399	6393.93
439.606	6404.17
439.813	6723.65
440.02	7206.97
440.227	6946.88
440.433	6938.69
440.64	7202.88
440.847	6998.08
441.054	7159.87
441.261	7915.57
441.467	7817.27
441.674	7809.08
441.881	8192.05
442.088	8259.63
442.294	7944.24
442.501	8407.08
442.708	8439.85
442.914	8634.41
443.121	9109.54
443.328	8841.25
443.534	9388.06
443.741	9291.8
443.948	9150.5
444.154	9904.15
444.361	9703.45
444.568	9701.4
444.774	9596.95
444.981	10090.51
445.187	10295.31
445.394	10651.66
445.6	10348.56
445.807	11587.58
446.013	11317.25
446.22	11339.77
446.426	11737.08
446.633	12013.56
446.839	12054.51
447.046	11767.8
447.252	12455.92
447.459	12447.72
447.665	12406.77
447.871	12912.61
448.078	13447.13
448.284	12789.74
448.491	13162.47
448.697	13610.97
448.903	13819.86
449.11	14082
449.316	13881.3
449.522	14022.61
449.728	14692.3
449.935	14729.16
450.141	14780.36
450.347	15001.54
450.553	14456.78
450.76	14493.65
450.966	15189.95
451.172	15019.97
451.378	15478.72
451.584	15024.07
451.791	15640.51
451.997	15355.84
452.203	15781.82
452.409	16003
452.615	15898.55
452.821	15237.06
453.027	15067.08
453.233	15617.98
453.44	15269.83
453.646	15355.84
453.852	15656.89
454.058	15792.06
454.264	15179.72
454.47	15478.72
454.676	15128.52
454.882	15878.07
455.088	14460.88
455.294	14630.86
455.5	14747.59
455.705	14845.9
455.911	14325.71
456.117	13922.26
456.323	13883.35
456.529	13113.31
456.735	13801.43
456.941	13524.96
457.147	13172.71
457.352	12648.43
457.558	12560.36
457.764	12636.14
457.97	12492.78
458.176	12304.37
458.381	12283.89
458.587	11563
458.793	11685.88
458.999	10944.52
459.204	11800.57
459.41	11481.08
459.616	10625.03
459.821	10831.88
460.027	10698.76
460.233	10428.43
460.438	9926.68
460.644	10012.69
460.85	9381.92
461.055	9549.85
461.261	9519.13
461.466	8941.6
461.672	8489
461.878	9093.15
462.083	8503.34
462.289	8304.68
462.494	8228.91
462.7	7864.37
462.905	7649.33
463.111	8048.69
463.316	7972.91
463.522	7784.5
463.727	7800.88
463.932	7850.03
464.138	7802.93
464.343	7675.96
464.549	7514.17
464.754	7839.8
464.959	7671.86
465.165	7678.01
465.37	7299.13
465.575	7098.43
465.781	7471.16
465.986	7215.16
466.191	7096.38
466.397	7045.18
466.602	6709.32
466.807	7088.19
467.012	6967.36
467.218	6854.72
467.423	6975.55
467.628	6776.9
467.833	7323.71
468.038	6981.7
468.244	6801.47
468.449	7024.7
468.654	6754.37
468.859	6801.47
469.064	6756.42
469.269	6422.6
469.474	6312.01
