Data from USB4F104151__81__12-59-50-881.txt Node

Date: Fri Mar 14 12:59:50 EDT 2025
User: louis
Spectrometer: USB4F10415
Trigger mode: 4
Integration Time (sec): 1.000000E-2
Scans to average: 1
Electric dark correction enabled: true
Nonlinearity correction enabled: false
Boxcar width: 0
XAxis mode: Wavelengths
Number of Pixels in Spectrum: 3648
>>>>>Begin Spectral Data<<<<<
178.204	-41.3
178.424	-41.3
178.644	-41.3
178.864	-80.21
179.084	-47.44
179.304	-67.92
179.524	-18.77
179.744	-0.34
179.964	-20.82
180.184	-6.49
180.404	13.99
180.624	52.91
180.844	-10.58
181.064	3.75
181.283	67.24
181.503	7.85
181.723	-20.82
181.943	16.04
182.163	-6.49
182.383	32.43
182.602	7.85
182.822	50.86
183.042	34.47
183.262	89.77
183.482	11.95
183.701	83.63
183.921	48.81
184.141	20.14
184.361	-8.53
184.58	81.58
184.8	-4.44
185.02	-31.06
185.239	26.28
185.459	106.15
185.679	28.33
185.898	-12.63
186.118	9.9
186.338	9.9
186.557	13.99
186.777	16.04
186.997	40.62
187.216	-8.53
187.436	97.96
187.655	67.24
187.875	16.04
188.095	-20.82
188.314	89.77
188.534	24.23
188.753	-26.96
188.973	-4.44
189.192	61.1
189.412	26.28
189.631	16.04
189.851	-20.82
190.07	110.25
190.29	-33.11
190.509	-26.96
190.729	1.71
190.948	48.81
191.168	124.58
191.387	114.34
191.607	3.75
191.826	-4.44
192.045	-4.44
192.265	-2.39
192.484	46.76
192.704	-0.34
192.923	1.71
193.142	48.81
193.362	83.63
193.581	42.67
193.8	57
194.02	34.47
194.239	28.33
194.458	65.19
194.678	65.19
194.897	65.19
195.116	26.28
195.335	77.48
195.555	9.9
195.774	34.47
195.993	7.85
196.212	89.77
196.432	40.62
196.651	13.99
196.87	67.24
197.089	36.52
197.308	36.52
197.528	5.8
197.747	34.47
197.966	48.81
198.185	63.15
198.404	75.43
198.623	75.43
198.842	34.47
199.062	7.85
199.281	71.34
199.5	-24.92
199.719	26.28
199.938	32.43
200.157	110.25
200.376	-6.49
200.595	24.23
200.814	-2.39
201.033	118.44
201.252	44.71
201.471	97.96
201.69	93.87
201.909	67.24
202.128	26.28
202.347	-8.53
202.566	57
202.785	26.28
203.004	-39.25
203.223	81.58
203.442	-8.53
203.661	93.87
203.879	63.15
204.098	36.52
204.317	63.15
204.536	57
204.755	-16.73
204.974	95.91
205.193	20.14
205.411	24.23
205.63	65.19
205.849	38.57
206.068	83.63
206.287	48.81
206.505	28.33
206.724	59.05
206.943	44.71
207.162	7.85
207.381	46.76
207.599	18.09
207.818	-10.58
208.037	22.19
208.255	52.91
208.474	-2.39
208.693	-6.49
208.911	11.95
209.13	40.62
209.349	108.2
209.567	13.99
209.786	30.38
210.005	3.75
210.223	100.01
210.442	-0.34
210.661	38.57
210.879	77.48
211.098	18.09
211.316	24.23
211.535	-33.11
211.753	-24.92
211.972	7.85
212.191	-41.3
212.409	-24.92
212.628	57
212.846	28.33
213.065	9.9
213.283	69.29
213.502	100.01
213.72	-39.25
213.938	18.09
214.157	24.23
214.375	3.75
214.594	118.44
214.812	20.14
215.031	91.82
215.249	-22.87
215.467	69.29
215.686	-26.96
215.904	71.34
216.122	-18.77
216.341	73.39
216.559	-6.49
216.778	30.38
216.996	40.62
217.214	-0.34
217.432	18.09
217.651	65.19
217.869	63.15
218.087	-33.11
218.306	16.04
218.524	18.09
218.742	34.47
218.96	-33.11
219.179	-4.44
219.397	5.8
219.615	32.43
219.833	38.57
220.051	-2.39
220.27	95.91
220.488	18.09
220.706	57
220.924	46.76
221.142	38.57
221.36	40.62
221.578	-31.06
221.796	-51.54
222.015	38.57
222.233	20.14
222.451	-4.44
222.669	91.82
222.887	30.38
223.105	-0.34
223.323	81.58
223.541	48.81
223.759	93.87
223.977	34.47
224.195	22.19
224.413	54.95
224.631	7.85
224.849	-39.25
225.067	42.67
225.285	87.72
225.503	42.67
225.721	30.38
225.939	26.28
226.157	-20.82
226.375	61.1
226.592	30.38
226.81	32.43
227.028	44.71
227.246	54.95
227.464	83.63
227.682	-12.63
227.9	44.71
228.117	30.38
228.335	93.87
228.553	57
228.771	81.58
228.989	44.71
229.206	-2.39
229.424	46.76
229.642	-12.63
229.86	-0.34
230.077	81.58
230.295	38.57
230.513	7.85
230.731	-20.82
230.948	65.19
231.166	57
231.384	7.85
231.601	30.38
231.819	22.19
232.037	40.62
232.254	1.71
232.472	48.81
232.689	102.06
232.907	120.49
233.125	-14.68
233.342	18.09
233.56	-39.25
233.777	97.96
233.995	1.71
234.213	38.57
234.43	-12.63
234.648	145.06
234.865	40.62
235.083	-16.73
235.3	46.76
235.518	-29.01
235.735	44.71
235.953	48.81
236.17	20.14
236.388	100.01
236.605	34.47
236.822	40.62
237.04	59.05
237.257	32.43
237.475	-14.68
237.692	42.67
237.909	18.09
238.127	83.63
238.344	138.92
238.562	77.48
238.779	-57.68
238.996	83.63
239.214	44.71
239.431	57
239.648	81.58
239.865	-43.35
240.083	-12.63
240.3	57
240.517	71.34
240.735	65.19
240.952	-37.2
241.169	50.86
241.386	69.29
241.603	32.43
241.821	132.78
242.038	112.3
242.255	44.71
242.472	57
242.689	30.38
242.907	32.43
243.124	-39.25
243.341	-18.77
243.558	18.09
243.775	85.67
243.992	65.19
244.209	69.29
244.426	91.82
244.643	-2.39
244.86	44.71
245.078	79.53
245.295	22.19
245.512	7.85
245.729	13.99
245.946	34.47
246.163	-6.49
246.38	28.33
246.597	13.99
246.814	50.86
247.031	18.09
247.248	108.2
247.464	44.71
247.681	52.91
247.898	83.63
248.115	7.85
248.332	-26.96
248.549	73.39
248.766	-14.68
248.983	-22.87
249.2	3.75
249.417	18.09
249.633	-8.53
249.85	124.58
250.067	-12.63
250.284	75.43
250.501	77.48
250.717	59.05
250.934	-20.82
251.151	57
251.368	32.43
251.585	20.14
251.801	61.1
252.018	50.86
252.235	75.43
252.451	46.76
252.668	46.76
252.885	32.43
253.102	81.58
253.318	-29.01
253.535	52.91
253.752	83.63
253.968	38.57
254.185	83.63
254.401	44.71
254.618	44.71
254.835	42.67
255.051	44.71
255.268	42.67
255.484	93.87
255.701	44.71
255.917	32.43
256.134	26.28
256.351	75.43
256.567	-16.73
256.784	67.24
257	-31.06
257.217	30.38
257.433	46.76
257.65	87.72
257.866	63.15
258.082	-26.96
258.299	32.43
258.515	1.71
258.732	34.47
258.948	7.85
259.165	65.19
259.381	26.28
259.597	7.85
259.814	120.49
260.03	63.15
260.246	22.19
260.463	36.52
260.679	46.76
260.895	38.57
261.112	73.39
261.328	-29.01
261.544	30.38
261.761	77.48
261.977	46.76
262.193	54.95
262.409	-16.73
262.626	73.39
262.842	106.15
263.058	40.62
263.274	3.75
263.49	85.67
263.707	65.19
263.923	61.1
264.139	42.67
264.355	52.91
264.571	114.34
264.787	67.24
265.004	67.24
265.22	40.62
265.436	-22.87
265.652	-4.44
265.868	40.62
266.084	50.86
266.3	91.82
266.516	26.28
266.732	67.24
266.948	85.67
267.164	-69.97
267.38	52.91
267.596	102.06
267.812	-4.44
268.028	32.43
268.244	16.04
268.46	97.96
268.676	-26.96
268.892	42.67
269.108	42.67
269.324	44.71
269.54	48.81
269.756	118.44
269.972	16.04
270.188	93.87
270.403	112.3
270.619	77.48
270.835	40.62
271.051	61.1
271.267	77.48
271.483	73.39
271.698	-12.63
271.914	-22.87
272.13	59.05
272.346	81.58
272.562	-37.2
272.777	83.63
272.993	11.95
273.209	-12.63
273.425	-8.53
273.64	83.63
273.856	11.95
274.072	52.91
274.287	77.48
274.503	85.67
274.719	18.09
274.934	-37.2
275.15	16.04
275.366	44.71
275.581	48.81
275.797	67.24
276.012	11.95
276.228	-12.63
276.444	3.75
276.659	91.82
276.875	24.23
277.09	42.67
277.306	48.81
277.521	102.06
277.737	57
277.952	59.05
278.168	18.09
278.383	40.62
278.599	-0.34
278.814	36.52
279.03	11.95
279.245	48.81
279.461	-29.01
279.676	67.24
279.892	59.05
280.107	44.71
280.322	32.43
280.538	149.16
280.753	-16.73
280.969	89.77
281.184	20.14
281.399	30.38
281.615	20.14
281.83	40.62
282.045	-4.44
282.26	9.9
282.476	61.1
282.691	75.43
282.906	5.8
283.122	18.09
283.337	26.28
283.552	34.47
283.767	52.91
283.983	54.95
284.198	5.8
284.413	67.24
284.628	24.23
284.843	67.24
285.058	34.47
285.274	46.76
285.489	46.76
285.704	3.75
285.919	46.76
286.134	26.28
286.349	65.19
286.564	46.76
286.779	-6.49
286.995	32.43
287.21	24.23
287.425	18.09
287.64	57
287.855	57
288.07	-2.39
288.285	97.96
288.5	63.15
288.715	61.1
288.93	-2.39
289.145	-10.58
289.36	73.39
289.575	9.9
289.79	16.04
290.004	52.91
290.219	59.05
290.434	1.71
290.649	7.85
290.864	73.39
291.079	112.3
291.294	83.63
291.509	34.47
291.724	-12.63
291.938	54.95
292.153	61.1
292.368	67.24
292.583	-20.82
292.798	50.86
293.012	40.62
293.227	77.48
293.442	18.09
293.657	9.9
293.871	65.19
294.086	9.9
294.301	26.28
294.516	-20.82
294.73	40.62
294.945	-24.92
295.16	50.86
295.374	71.34
295.589	73.39
295.804	67.24
296.018	38.57
296.233	50.86
296.447	44.71
296.662	57
296.877	52.91
297.091	28.33
297.306	26.28
297.52	18.09
297.735	34.47
297.949	46.76
298.164	7.85
298.378	34.47
298.593	34.47
298.807	40.62
299.022	-8.53
299.236	165.54
299.451	50.86
299.665	-18.77
299.88	36.52
300.094	-4.44
300.309	-6.49
300.523	38.57
300.737	-6.49
300.952	-2.39
301.166	54.95
301.381	147.11
301.595	32.43
301.809	93.87
302.024	89.77
302.238	50.86
302.452	-4.44
302.667	1.71
302.881	81.58
303.095	40.62
303.309	48.81
303.524	24.23
303.738	20.14
303.952	83.63
304.166	83.63
304.381	34.47
304.595	42.67
304.809	93.87
305.023	36.52
305.237	54.95
305.452	-41.3
305.666	-53.59
305.88	59.05
306.094	85.67
306.308	87.72
306.522	26.28
306.736	110.25
306.95	87.72
307.164	57
307.379	-0.34
307.593	18.09
307.807	-14.68
308.021	87.72
308.235	89.77
308.449	87.72
308.663	13.99
308.877	3.75
309.091	40.62
309.305	28.33
309.519	20.14
309.733	57
309.947	1.71
310.161	-0.34
310.374	32.43
310.588	104.11
310.802	87.72
311.016	24.23
311.23	69.29
311.444	40.62
311.658	73.39
311.872	11.95
312.085	34.47
312.299	79.53
312.513	32.43
312.727	44.71
312.941	61.1
313.154	22.19
313.368	18.09
313.582	30.38
313.796	-18.77
314.009	87.72
314.223	57
314.437	9.9
314.651	-0.34
314.864	18.09
315.078	1.71
315.292	61.1
315.505	95.91
315.719	-31.06
315.933	42.67
316.146	91.82
316.36	-16.73
316.573	-6.49
316.787	110.25
317.001	42.67
317.214	106.15
317.428	100.01
317.641	32.43
317.855	65.19
318.068	61.1
318.282	89.77
318.495	77.48
318.709	69.29
318.922	40.62
319.136	167.59
319.349	93.87
319.563	75.43
319.776	54.95
319.99	81.58
320.203	24.23
320.417	26.28
320.63	69.29
320.843	46.76
321.057	102.06
321.27	73.39
321.483	13.99
321.697	91.82
321.91	28.33
322.124	118.44
322.337	34.47
322.55	69.29
322.763	124.58
322.977	44.71
323.19	42.67
323.403	67.24
323.617	34.47
323.83	36.52
324.043	7.85
324.256	38.57
324.469	34.47
324.683	36.52
324.896	73.39
325.109	89.77
325.322	-22.87
325.535	36.52
325.748	61.1
325.962	48.81
326.175	104.11
326.388	38.57
326.601	128.68
326.814	65.19
327.027	-10.58
327.24	18.09
327.453	95.91
327.666	40.62
327.879	5.8
328.092	7.85
328.305	83.63
328.518	93.87
328.731	77.48
328.944	61.1
329.157	24.23
329.37	61.1
329.583	20.14
329.796	57
330.009	7.85
330.222	48.81
330.435	-41.3
330.648	16.04
330.861	40.62
331.073	50.86
331.286	9.9
331.499	75.43
331.712	40.62
331.925	36.52
332.138	7.85
332.35	30.38
332.563	26.28
332.776	-6.49
332.989	-20.82
333.202	32.43
333.414	-18.77
333.627	89.77
333.84	-4.44
334.053	-55.64
334.265	9.9
334.478	36.52
334.691	9.9
334.903	48.81
335.116	-37.2
335.329	100.01
335.541	48.81
335.754	69.29
335.966	-18.77
336.179	-24.92
336.392	65.19
336.604	102.06
336.817	128.68
337.029	-10.58
337.242	61.1
337.454	40.62
337.667	42.67
337.88	71.34
338.092	50.86
338.305	75.43
338.517	69.29
338.729	91.82
338.942	-18.77
339.154	36.52
339.367	18.09
339.579	34.47
339.792	52.91
340.004	83.63
340.217	63.15
340.429	102.06
340.641	28.33
340.854	36.52
341.066	89.77
341.278	28.33
341.491	97.96
341.703	69.29
341.915	5.8
342.128	95.91
342.34	44.71
342.552	26.28
342.764	11.95
342.977	69.29
343.189	-12.63
343.401	11.95
343.613	50.86
343.826	48.81
344.038	-2.39
344.25	59.05
344.462	1.71
344.674	22.19
344.886	46.76
345.099	13.99
345.311	-8.53
345.523	1.71
345.735	3.75
345.947	32.43
346.159	79.53
346.371	65.19
346.583	26.28
346.795	122.54
347.007	32.43
347.219	7.85
347.431	65.19
347.643	36.52
347.855	-14.68
348.067	122.54
348.279	16.04
348.491	85.67
348.703	-53.59
348.915	40.62
349.127	36.52
349.339	116.39
349.551	110.25
349.763	32.43
349.975	5.8
350.187	128.68
350.399	-10.58
350.61	44.71
350.822	38.57
351.034	89.77
351.246	54.95
351.458	11.95
351.669	-20.82
351.881	42.67
352.093	42.67
352.305	87.72
352.517	73.39
352.728	7.85
352.94	5.8
353.152	85.67
353.363	34.47
353.575	-6.49
353.787	77.48
353.999	11.95
354.21	44.71
354.422	32.43
354.633	-35.16
354.845	24.23
355.057	34.47
355.268	-18.77
355.48	44.71
355.692	108.2
355.903	67.24
356.115	7.85
356.326	83.63
356.538	48.81
356.749	38.57
356.961	20.14
357.172	-0.34
357.384	57
357.595	110.25
357.807	-12.63
358.018	32.43
358.23	116.39
358.441	77.48
358.653	40.62
358.864	50.86
359.075	83.63
359.287	32.43
359.498	69.29
359.709	52.91
359.921	102.06
360.132	69.29
360.344	11.95
360.555	38.57
360.766	32.43
360.977	3.75
361.189	69.29
361.4	7.85
361.611	52.91
361.823	34.47
362.034	128.68
362.245	13.99
362.456	13.99
362.667	59.05
362.879	57
363.09	-22.87
363.301	104.11
363.512	32.43
363.723	118.44
363.935	44.71
364.146	89.77
364.357	-2.39
364.568	57
364.779	65.19
364.99	124.58
365.201	61.1
365.412	75.43
365.623	18.09
365.834	104.11
366.045	-20.82
366.256	16.04
366.467	7.85
366.678	104.11
366.889	1.71
367.1	61.1
367.311	30.38
367.522	7.85
367.733	52.91
367.944	-18.77
368.155	36.52
368.366	67.24
368.577	97.96
368.788	22.19
368.999	79.53
369.209	-10.58
369.42	30.38
369.631	95.91
369.842	1.71
370.053	7.85
370.264	81.58
370.474	59.05
370.685	-26.96
370.896	91.82
371.107	67.24
371.317	71.34
371.528	-20.82
371.739	52.91
371.95	54.95
372.16	32.43
372.371	48.81
372.582	-4.44
372.792	95.91
373.003	89.77
373.214	97.96
373.424	40.62
373.635	48.81
373.846	112.3
374.056	54.95
374.267	30.38
374.477	40.62
374.688	69.29
374.898	65.19
375.109	100.01
375.319	-0.34
375.53	36.52
375.74	42.67
375.951	30.38
376.161	-35.16
376.372	38.57
376.582	-0.34
376.793	-8.53
377.003	50.86
377.214	108.2
377.424	36.52
377.635	61.1
377.845	-4.44
378.055	42.67
378.266	61.1
378.476	-0.34
378.686	65.19
378.897	89.77
379.107	-33.11
379.317	-16.73
379.528	42.67
379.738	44.71
379.948	20.14
380.158	50.86
380.369	63.15
380.579	75.43
380.789	38.57
380.999	59.05
381.21	13.99
381.42	63.15
381.63	61.1
381.84	32.43
382.05	-12.63
382.261	46.76
382.471	16.04
382.681	7.85
382.891	-20.82
383.101	40.62
383.311	79.53
383.521	67.24
383.731	-2.39
383.941	59.05
384.151	-59.73
384.361	59.05
384.571	71.34
384.781	11.95
384.991	-20.82
385.201	75.43
385.411	5.8
385.621	87.72
385.831	110.25
386.041	73.39
386.251	7.85
386.461	89.77
386.671	50.86
386.881	102.06
387.091	32.43
387.301	54.95
387.511	40.62
387.72	63.15
387.93	75.43
388.14	34.47
388.35	54.95
388.56	52.91
388.769	48.81
388.979	-16.73
389.189	34.47
389.399	65.19
389.609	59.05
389.818	-0.34
390.028	-45.4
390.238	40.62
390.447	93.87
390.657	44.71
390.867	18.09
391.076	7.85
391.286	38.57
391.496	171.69
391.705	77.48
391.915	79.53
392.125	3.75
392.334	26.28
392.544	73.39
392.753	40.62
392.963	65.19
393.172	42.67
393.382	32.43
393.591	75.43
393.801	34.47
394.01	85.67
394.22	63.15
394.429	102.06
394.639	34.47
394.848	91.82
395.058	75.43
395.267	18.09
395.477	77.48
395.686	57
395.895	116.39
396.105	116.39
396.314	120.49
396.524	177.83
396.733	79.53
396.942	44.71
397.152	48.81
397.361	77.48
397.57	77.48
397.78	59.05
397.989	87.72
398.198	59.05
398.407	26.28
398.617	91.82
398.826	52.91
399.035	110.25
399.244	42.67
399.453	24.23
399.663	42.67
399.872	126.63
400.081	22.19
400.29	100.01
400.499	65.19
400.708	100.01
400.917	59.05
401.127	79.53
401.336	110.25
401.545	79.53
401.754	95.91
401.963	100.01
402.172	95.91
402.381	67.24
402.59	97.96
402.799	85.67
403.008	65.19
403.217	114.34
403.426	-16.73
403.635	81.58
403.844	91.82
404.053	67.24
404.262	26.28
404.471	61.1
404.68	44.71
404.888	118.44
405.097	38.57
405.306	48.81
405.515	95.91
405.724	52.91
405.933	104.11
406.142	36.52
406.35	124.58
406.559	100.01
406.768	65.19
406.977	177.83
407.185	130.73
407.394	79.53
407.603	20.14
407.812	186.02
408.02	138.92
408.229	116.39
408.438	169.64
408.646	128.68
408.855	132.78
409.064	106.15
409.272	200.36
409.481	188.07
409.69	134.82
409.898	136.87
410.107	192.17
410.315	165.54
410.524	159.4
410.733	188.07
410.941	122.54
411.15	159.4
411.358	167.59
411.567	198.31
411.775	247.46
411.984	196.26
412.192	177.83
412.401	278.18
412.609	196.26
412.818	286.37
413.026	253.61
413.234	249.51
413.443	241.32
413.651	241.32
413.86	263.85
414.068	315.05
414.276	243.37
414.485	245.41
414.693	308.9
414.901	337.57
415.11	296.61
415.318	267.94
415.526	317.09
415.734	286.37
415.943	317.09
416.151	435.88
416.359	370.34
416.567	411.3
416.776	376.48
416.984	495.27
417.192	392.87
417.4	403.11
417.608	485.03
417.817	425.64
418.025	503.46
418.233	550.56
418.441	388.77
418.649	532.13
418.857	581.28
419.065	528.03
419.273	591.52
419.481	620.19
419.689	609.95
419.897	659.1
420.105	702.11
420.313	708.26
420.521	700.06
420.729	706.21
420.937	693.92
421.145	882.33
421.353	831.13
421.561	837.28
421.769	847.52
421.977	837.28
422.185	847.52
422.393	956.06
422.601	1050.27
422.809	994.97
423.017	958.11
423.224	958.11
423.432	1160.86
423.64	1113.75
423.848	1072.79
424.056	1132.19
424.263	1175.19
424.471	1332.89
424.679	1214.1
424.887	1359.51
425.094	1306.26
425.302	1474.2
425.51	1390.23
425.718	1492.63
425.925	1398.42
426.133	1552.02
426.341	1603.22
426.548	1556.11
426.756	1607.31
426.964	1674.9
427.171	1779.34
427.379	1879.69
427.586	1820.3
427.794	1787.54
428.001	2078.35
428.209	2057.87
428.417	1963.66
428.624	2201.23
428.832	2160.27
429.039	2164.36
429.247	2086.54
429.454	2371.21
429.662	2571.91
429.869	2320.01
430.076	2565.76
430.284	2383.49
430.491	2649.73
430.699	2678.4
430.906	2674.31
431.114	2801.28
431.321	2858.62
431.528	2983.55
431.736	3165.82
431.943	3233.4
432.15	3120.76
432.358	3008.12
432.565	3473.01
432.772	3276.41
432.979	3509.88
433.187	3638.9
433.394	3599.99
433.601	3880.56
433.808	3862.13
434.016	3718.77
434.223	4075.12
434.43	4374.12
434.637	4087.4
434.844	4374.12
435.052	4607.59
435.259	4458.09
435.466	4441.7
435.673	4453.99
435.88	4652.64
436.087	5004.89
436.294	5068.38
436.501	4904.54
436.708	5043.81
436.915	5078.62
437.122	5236.31
437.329	5316.19
437.537	5570.13
437.743	5643.86
437.95	5559.89
438.157	5936.72
438.364	6055.5
438.571	6061.65
438.778	6198.86
438.985	6805.06
439.192	6491.72
439.399	6557.25
439.606	6567.49
439.813	6981.18
440.02	7218.75
440.227	7327.29
440.433	7042.62
440.64	7353.91
440.847	7306.81
441.054	7466.55
441.261	7824.95
441.467	7833.14
441.674	7884.34
441.881	8232.49
442.088	8363.56
442.294	8209.97
442.501	8281.64
442.708	8635.94
442.914	9018.91
443.121	9197.09
443.328	8906.27
443.534	9727.51
443.741	9514.52
443.948	9166.37
444.154	10104.34
444.361	9758.23
444.568	10114.58
444.774	9946.64
444.981	10159.63
445.187	10415.63
445.394	10833.41
445.6	10681.86
445.807	11929.08
446.013	11154.94
446.22	11509.24
446.426	12074.48
446.633	12185.07
446.839	12496.36
447.046	12006.9
447.252	12541.42
447.459	12643.82
447.665	12727.78
447.871	12996.07
448.078	13827.54
448.284	13245.92
448.491	13434.33
448.697	14130.64
448.903	14331.34
449.11	14384.59
449.316	13929.94
449.522	14171.6
449.728	14841.29
449.935	14867.91
450.141	14812.62
450.347	15179.2
450.553	14833.1
450.76	15119.81
450.966	15418.82
451.172	15384
451.378	15508.93
451.584	15523.26
451.791	15779.26
451.997	15715.77
452.203	15984.05
452.409	15973.81
452.615	15979.96
452.821	15445.44
453.027	15224.26
453.233	16008.63
453.44	15494.59
453.646	15611.32
453.852	15662.52
454.058	15898.04
454.264	15545.79
454.47	15945.14
454.676	15285.7
454.882	16090.55
455.088	14634.44
455.294	14738.89
455.5	15107.52
455.705	15254.98
455.911	14521.81
456.117	14409.17
456.323	14208.47
456.529	13485.53
456.735	13868.5
456.941	13749.72
457.147	13469.15
457.352	12840.42
457.558	12879.33
457.764	13059.56
457.97	12623.34
458.176	12340.72
458.381	12377.58
458.587	11757.05
458.793	11877.88
458.999	11032.07
459.204	12148.21
459.41	11730.42
459.616	10941.96
459.821	10862.08
460.027	11009.54
460.233	10739.21
460.438	10190.35
460.644	10202.64
460.85	9930.26
461.055	9637.4
461.261	9627.16
461.466	8920.61
461.672	8625.7
461.878	9061.92
462.083	8599.08
462.289	8515.11
462.494	8351.28
462.7	8099.38
462.905	7870
463.111	8101.42
463.316	8042.03
463.522	7872.05
463.727	8005.17
463.932	7970.35
464.138	7755.32
464.343	7806.52
464.549	7544.38
464.754	7798.32
464.959	7765.56
465.165	7962.16
465.37	7421.5
465.575	7163.45
465.781	7599.67
465.986	7775.8
466.191	7353.91
466.397	7128.64
466.602	6903.36
466.807	7104.06
467.012	7200.32
467.218	7079.49
467.423	7040.58
467.628	7030.34
467.833	7347.77
468.038	7061.05
468.244	6815.3
468.449	7255.61
468.654	6835.78
468.859	6991.42
469.064	6948.42
469.269	6526.54
469.474	6655.56
469.679	6772.29
469.885	6450.76
