Data from USB4F104151__41__12-59-04-585.txt Node

Date: Fri Mar 14 12:59:04 EDT 2025
User: louis
Spectrometer: USB4F10415
Trigger mode: 4
Integration Time (sec): 1.000000E-2
Scans to average: 1
Electric dark correction enabled: true
Nonlinearity correction enabled: false
Boxcar width: 0
XAxis mode: Wavelengths
Number of Pixels in Spectrum: 3648
>>>>>Begin Spectral Data<<<<<
178.204	-37.03
178.424	-37.03
178.644	-37.03
178.864	-41.13
179.084	-90.28
179.304	22.36
179.524	32.6
179.744	-49.32
179.964	-8.36
180.184	-59.56
180.404	-86.19
180.624	1.88
180.844	36.69
181.064	-24.75
181.283	16.21
181.503	67.41
181.723	51.03
181.943	-55.47
182.163	28.5
182.383	-47.27
182.602	8.02
182.822	8.02
183.042	32.6
183.262	34.64
183.482	-8.36
183.701	8.02
183.921	-4.27
184.141	48.98
184.361	51.03
184.58	-24.75
184.8	51.03
185.02	30.55
185.239	-2.22
185.459	59.22
185.679	-0.17
185.898	3.93
186.118	69.46
186.338	26.45
186.557	87.89
186.777	-41.13
186.997	22.36
187.216	-2.22
187.436	59.22
187.655	3.93
187.875	81.75
188.095	32.6
188.314	-32.94
188.534	24.4
188.753	-16.55
188.973	42.84
189.192	36.69
189.412	-26.79
189.631	16.21
189.851	-24.75
190.07	-30.89
190.29	8.02
190.509	-16.55
190.729	12.12
190.948	-2.22
191.168	132.95
191.387	67.41
191.607	34.64
191.826	8.02
192.045	38.74
192.265	75.6
192.484	16.21
192.704	20.31
192.923	5.97
193.142	20.31
193.362	-4.27
193.581	42.84
193.8	40.79
194.02	24.4
194.239	-4.27
194.458	48.98
194.678	48.98
194.897	-28.84
195.116	14.17
195.335	5.97
195.555	28.5
195.774	12.12
195.993	65.36
196.212	22.36
196.432	61.27
196.651	34.64
196.87	24.4
197.089	10.07
197.308	48.98
197.528	48.98
197.747	-41.13
197.966	3.93
198.185	10.07
198.404	-30.89
198.623	-32.94
198.842	34.64
199.062	28.5
199.281	-4.27
199.5	46.93
199.719	-43.18
199.938	38.74
200.157	24.4
200.376	42.84
200.595	-2.22
200.814	14.17
201.033	42.84
201.252	32.6
201.471	3.93
201.69	1.88
201.909	18.26
202.128	20.31
202.347	-6.31
202.566	10.07
202.785	-6.31
203.004	36.69
203.223	100.18
203.442	-26.79
203.661	81.75
203.879	22.36
204.098	32.6
204.317	-55.47
204.536	44.88
204.755	3.93
204.974	-30.89
205.193	-6.31
205.411	96.08
205.63	-28.84
205.849	32.6
206.068	89.94
206.287	-26.79
206.505	24.4
206.724	16.21
206.943	-6.31
207.162	114.52
207.381	71.51
207.599	71.51
207.818	65.36
208.037	69.46
208.255	22.36
208.474	75.6
208.693	-20.65
208.911	98.13
209.13	38.74
209.349	22.36
209.567	18.26
209.786	20.31
210.005	24.4
210.223	-37.03
210.442	-47.27
210.661	14.17
210.879	-63.66
211.098	-24.75
211.316	-2.22
211.535	28.5
211.753	-30.89
211.972	28.5
212.191	-39.08
212.409	42.84
212.628	-4.27
212.846	-28.84
213.065	24.4
213.283	69.46
213.502	3.93
213.72	44.88
213.938	28.5
214.157	34.64
214.375	36.69
214.594	67.41
214.812	65.36
215.031	34.64
215.249	51.03
215.467	16.21
215.686	24.4
215.904	5.97
216.122	5.97
216.341	18.26
216.559	-39.08
216.778	40.79
216.996	-34.99
217.214	1.88
217.432	24.4
217.651	-16.55
217.869	-34.99
218.087	38.74
218.306	42.84
218.524	48.98
218.742	34.64
218.96	71.51
219.179	57.17
219.397	26.45
219.615	20.31
219.833	26.45
220.051	61.27
220.27	48.98
220.488	-26.79
220.706	30.55
220.924	16.21
221.142	10.07
221.36	3.93
221.578	53.08
221.796	63.32
222.015	-14.51
222.233	46.93
222.451	124.76
222.669	77.65
222.887	30.55
223.105	114.52
223.323	18.26
223.541	53.08
223.759	1.88
223.977	-51.37
224.195	12.12
224.413	38.74
224.631	26.45
224.849	-125.1
225.067	20.31
225.285	53.08
225.503	5.97
225.721	-14.51
225.939	-2.22
226.157	16.21
226.375	57.17
226.592	16.21
226.81	40.79
227.028	34.64
227.246	32.6
227.464	1.88
227.682	44.88
227.9	36.69
228.117	36.69
228.335	-16.55
228.553	-22.7
228.771	51.03
228.989	3.93
229.206	44.88
229.424	-14.51
229.642	71.51
229.86	51.03
230.077	16.21
230.295	-24.75
230.513	18.26
230.731	36.69
230.948	8.02
231.166	106.32
231.384	-18.6
231.601	-14.51
231.819	100.18
232.037	-24.75
232.254	40.79
232.472	85.84
232.689	14.17
232.907	20.31
233.125	-10.41
233.342	22.36
233.56	3.93
233.777	3.93
233.995	85.84
234.213	-34.99
234.43	8.02
234.648	28.5
234.865	77.65
235.083	-2.22
235.3	-4.27
235.518	48.98
235.735	38.74
235.953	61.27
236.17	81.75
236.388	-8.36
236.605	42.84
236.822	-8.36
237.04	-63.66
237.257	16.21
237.475	8.02
237.692	67.41
237.909	48.98
238.127	8.02
238.344	26.45
238.562	-2.22
238.779	51.03
238.996	46.93
239.214	-16.55
239.431	65.36
239.648	-37.03
239.865	-0.17
240.083	16.21
240.3	-6.31
240.517	-34.99
240.735	36.69
240.952	1.88
241.169	75.6
241.386	-37.03
241.603	32.6
241.821	-14.51
242.038	55.12
242.255	28.5
242.472	-0.17
242.689	51.03
242.907	69.46
243.124	40.79
243.341	-8.36
243.558	-39.08
243.775	55.12
243.992	-37.03
244.209	73.56
244.426	-0.17
244.643	-0.17
244.86	-39.08
245.078	-22.7
245.295	48.98
245.512	59.22
245.729	-0.17
245.946	48.98
246.163	-4.27
246.38	5.97
246.597	14.17
246.814	44.88
247.031	12.12
247.248	18.26
247.464	18.26
247.681	8.02
247.898	24.4
248.115	40.79
248.332	14.17
248.549	32.6
248.766	85.84
248.983	79.7
249.2	3.93
249.417	59.22
249.633	-28.84
249.85	100.18
250.067	48.98
250.284	59.22
250.501	14.17
250.717	-6.31
250.934	-6.31
251.151	-16.55
251.368	5.97
251.585	57.17
251.801	12.12
252.018	28.5
252.235	36.69
252.451	16.21
252.668	-0.17
252.885	30.55
253.102	12.12
253.318	12.12
253.535	-10.41
253.752	57.17
253.968	38.74
254.185	16.21
254.401	-22.7
254.618	57.17
254.835	40.79
255.051	16.21
255.268	61.27
255.484	63.32
255.701	-32.94
255.917	26.45
256.134	-8.36
256.351	-26.79
256.567	-22.7
256.784	44.88
257	12.12
257.217	67.41
257.433	-4.27
257.65	-28.84
257.866	28.5
258.082	-22.7
258.299	30.55
258.515	28.5
258.732	5.97
258.948	48.98
259.165	-47.27
259.381	-6.31
259.597	28.5
259.814	63.32
260.03	12.12
260.246	-69.8
260.463	-22.7
260.679	28.5
260.895	36.69
261.112	34.64
261.328	-69.8
261.544	112.47
261.761	-4.27
261.977	-0.17
262.193	53.08
262.409	53.08
262.626	53.08
262.842	44.88
263.058	44.88
263.274	94.04
263.49	8.02
263.707	44.88
263.923	44.88
264.139	20.31
264.355	67.41
264.571	79.7
264.787	69.46
265.004	-0.17
265.22	14.17
265.436	48.98
265.652	34.64
265.868	-14.51
266.084	-6.31
266.3	51.03
266.516	-0.17
266.732	-47.27
266.948	-20.65
267.164	48.98
267.38	34.64
267.596	34.64
267.812	-4.27
268.028	-18.6
268.244	28.5
268.46	-2.22
268.676	12.12
268.892	69.46
269.108	-6.31
269.324	-47.27
269.54	12.12
269.756	40.79
269.972	-8.36
270.188	-6.31
270.403	-12.46
270.619	18.26
270.835	30.55
271.051	40.79
271.267	-10.41
271.483	63.32
271.698	-2.22
271.914	-2.22
272.13	114.52
272.346	34.64
272.562	5.97
272.777	30.55
272.993	55.12
273.209	73.56
273.425	-4.27
273.64	8.02
273.856	24.4
274.072	46.93
274.287	30.55
274.503	16.21
274.719	51.03
274.934	-24.75
275.15	36.69
275.366	46.93
275.581	10.07
275.797	91.99
276.012	30.55
276.228	55.12
276.444	63.32
276.659	75.6
276.875	-26.79
277.09	40.79
277.306	30.55
277.521	18.26
277.737	-2.22
277.952	61.27
278.168	5.97
278.383	-14.51
278.599	12.12
278.814	-18.6
279.03	26.45
279.245	3.93
279.461	10.07
279.676	104.28
279.892	5.97
280.107	3.93
280.322	-6.31
280.538	3.93
280.753	-16.55
280.969	40.79
281.184	96.08
281.399	65.36
281.615	22.36
281.83	8.02
282.045	-20.65
282.26	108.37
282.476	-22.7
282.691	-0.17
282.906	34.64
283.122	-4.27
283.337	24.4
283.552	5.97
283.767	1.88
283.983	28.5
284.198	-26.79
284.413	20.31
284.628	-2.22
284.843	55.12
285.058	38.74
285.274	34.64
285.489	59.22
285.704	-8.36
285.919	-6.31
286.134	-4.27
286.349	61.27
286.564	83.8
286.779	57.17
286.995	-10.41
287.21	51.03
287.425	8.02
287.64	-24.75
287.855	-8.36
288.07	-10.41
288.285	-16.55
288.5	22.36
288.715	-30.89
288.93	30.55
289.145	-63.66
289.36	83.8
289.575	36.69
289.79	44.88
290.004	28.5
290.219	-26.79
290.434	38.74
290.649	-8.36
290.864	-6.31
291.079	20.31
291.294	16.21
291.509	20.31
291.724	-49.32
291.938	40.79
292.153	14.17
292.368	98.13
292.583	46.93
292.798	-2.22
293.012	26.45
293.227	44.88
293.442	18.26
293.657	34.64
293.871	28.5
294.086	42.84
294.301	55.12
294.516	8.02
294.73	59.22
294.945	46.93
295.16	30.55
295.374	16.21
295.589	1.88
295.804	-6.31
296.018	-51.37
296.233	71.51
296.447	51.03
296.662	83.8
296.877	98.13
297.091	55.12
297.306	32.6
297.52	24.4
297.735	-16.55
297.949	63.32
298.164	46.93
298.378	48.98
298.593	57.17
298.807	67.41
299.022	24.4
299.236	102.23
299.451	42.84
299.665	32.6
299.88	-12.46
300.094	-12.46
300.309	46.93
300.523	3.93
300.737	22.36
300.952	-0.17
301.166	5.97
301.381	16.21
301.595	-4.27
301.809	71.51
302.024	-6.31
302.238	46.93
302.452	30.55
302.667	65.36
302.881	16.21
303.095	-16.55
303.309	-14.51
303.524	26.45
303.738	46.93
303.952	-16.55
304.166	51.03
304.381	3.93
304.595	48.98
304.809	-41.13
305.023	28.5
305.237	10.07
305.452	42.84
305.666	22.36
305.88	8.02
306.094	79.7
306.308	24.4
306.522	34.64
306.736	91.99
306.95	69.46
307.164	87.89
307.379	5.97
307.593	40.79
307.807	-55.47
308.021	16.21
308.235	-8.36
308.449	-61.61
308.663	1.88
308.877	65.36
309.091	40.79
309.305	79.7
309.519	34.64
309.733	40.79
309.947	-34.99
310.161	83.8
310.374	38.74
310.588	44.88
310.802	8.02
311.016	40.79
311.23	1.88
311.444	1.88
311.658	40.79
311.872	20.31
312.085	-2.22
312.299	-16.55
312.513	128.85
312.727	-12.46
312.941	16.21
313.154	110.42
313.368	36.69
313.582	73.56
313.796	26.45
314.009	32.6
314.223	63.32
314.437	38.74
314.651	-49.32
314.864	53.08
315.078	-12.46
315.292	18.26
315.505	36.69
315.719	24.4
315.933	61.27
316.146	73.56
316.36	10.07
316.573	20.31
316.787	32.6
317.001	14.17
317.214	12.12
317.428	36.69
317.641	46.93
317.855	34.64
318.068	65.36
318.282	44.88
318.495	-16.55
318.709	-0.17
318.922	20.31
319.136	42.84
319.349	5.97
319.563	-8.36
319.776	69.46
319.99	34.64
320.203	57.17
320.417	57.17
320.63	51.03
320.843	-14.51
321.057	28.5
321.27	94.04
321.483	65.36
321.697	83.8
321.91	83.8
322.124	8.02
322.337	63.32
322.55	32.6
322.763	65.36
322.977	42.84
323.19	-39.08
323.403	40.79
323.617	55.12
323.83	110.42
324.043	89.94
324.256	-0.17
324.469	34.64
324.683	53.08
324.896	5.97
325.109	30.55
325.322	-6.31
325.535	57.17
325.748	34.64
325.962	42.84
326.175	30.55
326.388	57.17
326.601	75.6
326.814	20.31
327.027	87.89
327.24	147.28
327.453	8.02
327.666	-0.17
327.879	28.5
328.092	3.93
328.305	-10.41
328.518	48.98
328.731	91.99
328.944	20.31
329.157	46.93
329.37	-4.27
329.583	40.79
329.796	30.55
330.009	18.26
330.222	46.93
330.435	8.02
330.648	14.17
330.861	10.07
331.073	59.22
331.286	53.08
331.499	63.32
331.712	34.64
331.925	26.45
332.138	12.12
332.35	57.17
332.563	26.45
332.776	18.26
332.989	57.17
333.202	14.17
333.414	28.5
333.627	-2.22
333.84	8.02
334.053	-10.41
334.265	-2.22
334.478	44.88
334.691	42.84
334.903	59.22
335.116	126.8
335.329	-49.32
335.541	-30.89
335.754	75.6
335.966	10.07
336.179	100.18
336.392	28.5
336.604	75.6
336.817	-4.27
337.029	12.12
337.242	22.36
337.454	34.64
337.667	63.32
337.88	14.17
338.092	-6.31
338.305	16.21
338.517	-8.36
338.729	1.88
338.942	-30.89
339.154	-4.27
339.367	26.45
339.579	67.41
339.792	1.88
340.004	55.12
340.217	120.66
340.429	51.03
340.641	20.31
340.854	55.12
341.066	16.21
341.278	91.99
341.491	-41.13
341.703	18.26
341.915	5.97
342.128	48.98
342.34	83.8
342.552	-0.17
342.764	-4.27
342.977	79.7
343.189	32.6
343.401	77.65
343.613	12.12
343.826	81.75
344.038	-8.36
344.25	12.12
344.462	14.17
344.674	63.32
344.886	55.12
345.099	36.69
345.311	96.08
345.523	8.02
345.735	89.94
345.947	65.36
346.159	-14.51
346.371	57.17
346.583	81.75
346.795	1.88
347.007	1.88
347.219	73.56
347.431	-34.99
347.643	106.32
347.855	34.64
348.067	-49.32
348.279	-22.7
348.491	114.52
348.703	12.12
348.915	73.56
349.127	-16.55
349.339	34.64
349.551	18.26
349.763	30.55
349.975	14.17
350.187	12.12
350.399	57.17
350.61	36.69
350.822	83.8
351.034	48.98
351.246	59.22
351.458	16.21
351.669	-26.79
351.881	36.69
352.093	61.27
352.305	-30.89
352.517	-0.17
352.728	5.97
352.94	22.36
353.152	-24.75
353.363	75.6
353.575	42.84
353.787	81.75
353.999	57.17
354.21	30.55
354.422	65.36
354.633	83.8
354.845	77.65
355.057	32.6
355.268	5.97
355.48	48.98
355.692	10.07
355.903	3.93
356.115	51.03
356.326	8.02
356.538	16.21
356.749	-10.41
356.961	57.17
357.172	-41.13
357.384	-14.51
357.595	96.08
357.807	51.03
358.018	42.84
358.23	67.41
358.441	38.74
358.653	14.17
358.864	8.02
359.075	36.69
359.287	46.93
359.498	24.4
359.709	12.12
359.921	-8.36
360.132	-14.51
360.344	53.08
360.555	34.64
360.766	40.79
360.977	16.21
361.189	10.07
361.4	-16.55
361.611	12.12
361.823	-8.36
362.034	53.08
362.245	-53.42
362.456	24.4
362.667	26.45
362.879	-63.66
363.09	-39.08
363.301	67.41
363.512	65.36
363.723	-18.6
363.935	63.32
364.146	36.69
364.357	22.36
364.568	53.08
364.779	-71.85
364.99	8.02
365.201	44.88
365.412	36.69
365.623	16.21
365.834	8.02
366.045	-28.84
366.256	55.12
366.467	69.46
366.678	-0.17
366.889	36.69
367.1	77.65
367.311	65.36
367.522	51.03
367.733	34.64
367.944	69.46
368.155	32.6
368.366	3.93
368.577	110.42
368.788	-20.65
368.999	-30.89
369.209	61.27
369.42	75.6
369.631	106.32
369.842	57.17
370.053	-10.41
370.264	57.17
370.474	5.97
370.685	-30.89
370.896	-32.94
371.107	94.04
371.317	20.31
371.528	83.8
371.739	-53.42
371.95	40.79
372.16	75.6
372.371	10.07
372.582	48.98
372.792	-6.31
373.003	55.12
373.214	-20.65
373.424	18.26
373.635	36.69
373.846	24.4
374.056	34.64
374.267	16.21
374.477	36.69
374.688	32.6
374.898	26.45
375.109	34.64
375.319	44.88
375.53	24.4
375.74	63.32
375.951	46.93
376.161	75.6
376.372	57.17
376.582	-4.27
376.793	16.21
377.003	114.52
377.214	5.97
377.424	-41.13
377.635	63.32
377.845	42.84
378.055	57.17
378.266	83.8
378.476	5.97
378.686	71.51
378.897	83.8
379.107	40.79
379.317	44.88
379.528	10.07
379.738	-18.6
379.948	-4.27
380.158	57.17
380.369	46.93
380.579	48.98
380.789	8.02
380.999	24.4
381.21	28.5
381.42	38.74
381.63	-30.89
381.84	61.27
382.05	73.56
382.261	18.26
382.471	120.66
382.681	30.55
382.891	81.75
383.101	71.51
383.311	20.31
383.521	40.79
383.731	73.56
383.941	46.93
384.151	-14.51
384.361	1.88
384.571	34.64
384.781	36.69
384.991	-2.22
385.201	77.65
385.411	38.74
385.621	36.69
385.831	16.21
386.041	30.55
386.251	-37.03
386.461	96.08
386.671	61.27
386.881	75.6
387.091	46.93
387.301	63.32
387.511	63.32
387.72	77.65
387.93	40.79
388.14	51.03
388.35	5.97
388.56	-8.36
388.769	75.6
388.979	28.5
389.189	20.31
389.399	71.51
389.609	32.6
389.818	34.64
390.028	30.55
390.238	34.64
390.447	48.98
390.657	102.23
390.867	1.88
391.076	48.98
391.286	3.93
391.496	59.22
391.705	-10.41
391.915	67.41
392.125	126.8
392.334	63.32
392.544	34.64
392.753	73.56
392.963	26.45
393.172	18.26
393.382	30.55
393.591	42.84
393.801	120.66
394.01	57.17
394.22	67.41
394.429	38.74
394.639	67.41
394.848	67.41
395.058	46.93
395.267	122.71
395.477	1.88
395.686	69.46
395.895	24.4
396.105	71.51
396.314	77.65
396.524	94.04
396.733	57.17
396.942	18.26
397.152	73.56
397.361	114.52
397.57	-30.89
397.78	40.79
397.989	81.75
398.198	59.22
398.407	87.89
398.617	81.75
398.826	40.79
399.035	42.84
399.244	46.93
399.453	67.41
399.663	26.45
399.872	65.36
400.081	-24.75
400.29	40.79
400.499	75.6
400.708	51.03
400.917	53.08
401.127	10.07
401.336	120.66
401.545	75.6
401.754	81.75
401.963	85.84
402.172	8.02
402.381	91.99
402.59	53.08
402.799	102.23
403.008	91.99
403.217	126.8
403.426	69.46
403.635	65.36
403.844	36.69
404.053	165.71
404.262	24.4
404.471	104.28
404.68	42.84
404.888	61.27
405.097	34.64
405.306	91.99
405.515	106.32
405.724	135
405.933	130.9
406.142	157.52
406.35	163.67
406.559	100.18
406.768	122.71
406.977	178
407.185	87.89
407.394	73.56
407.603	87.89
407.812	85.84
408.02	159.57
408.229	173.91
408.438	218.96
408.646	139.09
408.855	151.38
409.064	204.63
409.272	157.52
409.481	159.57
409.69	188.24
409.898	212.82
410.107	251.73
410.315	206.67
410.524	192.34
410.733	178
410.941	206.67
411.15	159.57
411.358	198.48
411.567	188.24
411.775	261.97
411.984	231.25
412.192	245.59
412.401	210.77
412.609	257.87
412.818	313.17
413.026	249.68
413.234	294.74
413.443	227.15
413.651	327.5
413.86	374.61
414.068	327.5
414.276	401.23
414.485	352.08
414.693	403.28
414.901	436.05
415.11	405.33
415.318	364.37
415.526	434
415.734	462.67
415.943	431.95
416.151	474.96
416.359	497.49
416.567	632.65
416.776	477.01
416.984	458.57
417.192	544.59
417.4	571.21
417.608	614.22
417.817	536.4
418.025	628.56
418.233	632.65
418.441	599.88
418.649	626.51
418.857	790.35
419.065	784.2
419.273	661.32
419.481	821.06
419.689	849.74
419.897	763.72
420.105	812.87
420.313	919.37
420.521	943.94
420.729	931.66
420.937	1032.01
421.145	982.85
421.353	1062.73
421.561	1130.31
421.769	1064.77
421.977	1222.47
422.185	1171.27
422.393	1191.75
422.601	1347.39
422.809	1277.76
423.017	1310.53
423.224	1378.11
423.432	1457.98
423.64	1384.26
423.848	1640.25
424.056	1560.38
424.263	1568.57
424.471	1486.65
424.679	1603.39
424.887	1681.21
425.094	1802.04
425.302	1847.1
425.51	1802.04
425.718	1849.15
425.925	1912.63
426.133	2019.13
426.341	2047.8
426.548	2197.3
426.756	2187.06
426.964	2176.82
427.171	2379.57
427.379	2408.24
427.586	2412.34
427.794	2608.94
428.001	2783.02
428.209	2752.3
428.417	2668.33
428.624	2834.22
428.832	2819.88
429.039	2862.89
429.247	2969.38
429.454	3252
429.662	3366.69
429.869	3315.49
430.076	3454.75
430.284	3190.56
430.491	3501.86
430.699	3610.4
430.906	3665.69
431.114	3653.41
431.321	3899.16
431.528	3821.34
431.736	4253.46
431.943	4423.44
432.15	4251.41
432.358	4122.39
432.565	4419.35
432.772	4464.4
432.979	4794.12
433.187	4785.93
433.394	4693.77
433.601	5146.37
433.808	5211.91
434.016	5099.27
434.223	5328.64
434.43	5687.04
434.637	5318.4
434.844	5955.32
435.052	5844.73
435.259	5820.16
435.466	6049.53
435.673	6121.21
435.88	6457.07
436.087	6774.51
436.294	6745.84
436.501	6588.14
436.708	6719.21
436.915	6928.11
437.122	7423.72
437.329	7175.91
437.537	7431.91
437.743	7696.1
437.95	7462.63
438.157	7954.14
438.364	8189.66
438.571	8156.89
438.778	8265.43
438.985	8900.3
439.192	8550.1
439.399	8994.51
439.606	8752.85
439.813	9232.07
440.02	9647.81
440.227	9426.63
440.433	9230.02
440.64	9834.18
440.847	9830.08
441.054	9948.86
441.261	10833.58
441.467	10528.44
441.674	10696.37
441.881	10935.98
442.088	11155.12
442.294	11103.92
442.501	11411.11
442.708	11832.99
442.914	11984.54
443.121	12574.36
443.328	12199.58
443.534	13092.49
443.741	12723.86
443.948	12609.17
444.154	13713.03
444.361	13364.87
444.568	13342.35
444.774	13389.45
444.981	13735.56
445.187	14087.81
445.394	14802.55
445.6	14225.02
445.807	15752.8
446.013	15181.42
446.22	15769.19
446.426	16160.35
446.633	16361.05
446.839	16844.37
447.046	16143.97
447.252	16760.41
447.459	16922.2
447.665	16926.29
447.871	18062.91
448.078	18628.15
448.284	17733.19
448.491	18159.17
448.697	18751.03
448.903	19424.81
449.11	19355.18
449.316	18961.97
449.522	19549.74
449.728	19830.31
449.935	19832.36
450.141	20088.35
450.347	20289.06
450.553	19889.7
450.76	20366.88
450.966	20856.34
451.172	20497.95
451.378	21061.14
451.584	20727.32
451.791	21253.65
451.997	21179.92
452.203	21779.98
452.409	21558.8
452.615	21681.67
452.821	20686.36
453.027	20467.23
453.233	21425.68
453.44	20680.22
453.646	21071.38
453.852	21280.27
454.058	21456.4
454.264	20700.7
454.47	21061.14
454.676	20891.16
454.882	21337.62
455.088	19719.72
455.294	20041.25
455.5	20155.94
455.705	20368.93
455.911	19349.04
456.117	19236.4
456.323	19177.01
456.529	18175.55
456.735	18804.28
456.941	18339.39
457.147	18052.67
457.352	17464.91
457.558	17305.17
457.764	17256.01
457.97	16977.49
458.176	16748.12
458.381	16455.26
458.587	15711.85
458.793	15855.2
458.999	14945.91
459.204	16248.41
459.41	15715.94
459.616	14597.75
459.821	14335.61
460.027	14571.13
460.233	14268.03
460.438	13579.91
460.644	13919.87
460.85	13072.01
461.055	12779.15
461.261	12914.32
461.466	11884.19
461.672	11501.22
461.878	12508.82
462.083	11808.42
462.289	11298.47
462.494	11267.75
462.7	10608.31
462.905	10565.3
463.111	10956.46
463.316	10616.5
463.522	10833.58
463.727	10888.88
463.932	10663.6
464.138	10487.48
464.343	10581.68
464.549	10198.71
464.754	10610.36
464.959	10596.02
465.165	10503.86
465.37	9973.44
465.575	9832.13
465.781	10110.65
465.986	10237.63
466.191	9955.01
466.397	9633.47
466.602	9193.16
466.807	9623.23
467.012	9649.86
467.218	9582.28
467.423	9422.53
467.628	9486.02
467.833	9787.07
468.038	9340.61
468.244	9176.78
468.449	9520.84
468.654	9295.56
468.859	9225.93
469.064	9168.59
469.269	8670.93
