Data from USB4F104151__2__11-29-28-869.txt Node

Date: Fri Mar 14 11:29:28 EDT 2025
User: louis
Spectrometer: USB4F10415
Trigger mode: 4
Integration Time (sec): 5.000000E-2
Scans to average: 1
Electric dark correction enabled: true
Nonlinearity correction enabled: false
Boxcar width: 0
XAxis mode: Wavelengths
Number of Pixels in Spectrum: 3648
>>>>>Begin Spectral Data<<<<<
178.204	-20.31
178.424	-20.31
178.644	-20.31
178.864	-147.28
179.084	-83.8
179.304	30.89
179.524	-16.21
179.744	-71.51
179.964	67.75
180.184	-1.88
180.404	8.36
180.624	16.55
180.844	43.18
181.064	-87.89
181.283	-14.17
181.503	16.55
181.723	8.36
181.943	-10.07
182.163	22.7
182.383	8.36
182.602	-1.88
182.822	73.9
183.042	106.67
183.262	43.18
183.482	37.03
183.701	75.95
183.921	32.94
184.141	-8.02
184.361	96.43
184.58	84.14
184.8	41.13
185.02	10.41
185.239	112.81
185.459	14.51
185.679	80.04
185.898	45.23
186.118	51.37
186.338	92.33
186.557	104.62
186.777	57.51
186.997	80.04
187.216	6.31
187.436	92.33
187.655	112.81
187.875	59.56
188.095	-12.12
188.314	125.1
188.534	106.67
188.753	37.03
188.973	18.6
189.192	82.09
189.412	69.8
189.631	102.57
189.851	26.79
190.07	34.99
190.29	127.14
190.509	16.55
190.729	116.9
190.948	98.47
191.168	245.93
191.387	69.8
191.607	63.66
191.826	28.84
192.045	75.95
192.265	106.67
192.484	30.89
192.704	53.42
192.923	59.56
193.142	141.48
193.362	-34.64
193.581	61.61
193.8	96.43
194.02	75.95
194.239	-42.84
194.458	59.56
194.678	2.22
194.897	75.95
195.116	55.47
195.335	47.27
195.555	26.79
195.774	73.9
195.993	61.61
196.212	65.71
196.432	10.41
196.651	22.7
196.87	63.66
197.089	108.71
197.308	63.66
197.528	127.14
197.747	-14.17
197.966	18.6
198.185	106.67
198.404	67.75
198.623	41.13
198.842	24.75
199.062	92.33
199.281	100.52
199.5	77.99
199.719	34.99
199.938	43.18
200.157	41.13
200.376	77.99
200.595	133.29
200.814	4.27
201.033	80.04
201.252	125.1
201.471	71.85
201.69	166.06
201.909	71.85
202.128	34.99
202.347	59.56
202.566	34.99
202.785	67.75
203.004	26.79
203.223	190.63
203.442	-16.21
203.661	26.79
203.879	59.56
204.098	88.23
204.317	8.36
204.536	112.81
204.755	84.14
204.974	88.23
205.193	34.99
205.411	90.28
205.63	22.7
205.849	24.75
206.068	84.14
206.287	-14.17
206.505	51.37
206.724	53.42
206.943	32.94
207.162	18.6
207.381	90.28
207.599	100.52
207.818	10.41
208.037	26.79
208.255	55.47
208.474	43.18
208.693	98.47
208.911	47.27
209.13	8.36
209.349	51.37
209.567	24.75
209.786	47.27
210.005	30.89
210.223	90.28
210.442	41.13
210.661	108.71
210.879	24.75
211.098	92.33
211.316	-26.45
211.535	116.9
211.753	-14.17
211.972	59.56
212.191	59.56
212.409	-5.97
212.628	110.76
212.846	30.89
213.065	84.14
213.283	104.62
213.502	16.55
213.72	67.75
213.938	67.75
214.157	90.28
214.375	80.04
214.594	-5.97
214.812	-12.12
215.031	30.89
215.249	55.47
215.467	26.79
215.686	88.23
215.904	88.23
216.122	26.79
216.341	112.81
216.559	63.66
216.778	100.52
216.996	100.52
217.214	65.71
217.432	-8.02
217.651	39.08
217.869	63.66
218.087	94.38
218.306	45.23
218.524	57.51
218.742	26.79
218.96	59.56
219.179	18.6
219.397	121
219.615	92.33
219.833	94.38
220.051	22.7
220.27	98.47
220.488	55.47
220.706	80.04
220.924	8.36
221.142	20.65
221.36	34.99
221.578	41.13
221.796	-1.88
222.015	92.33
222.233	43.18
222.451	8.36
222.669	10.41
222.887	63.66
223.105	4.27
223.323	43.18
223.541	75.95
223.759	-5.97
223.977	-42.84
224.195	98.47
224.413	43.18
224.631	26.79
224.849	82.09
225.067	88.23
225.285	0.17
225.503	147.62
225.721	-1.88
225.939	34.99
226.157	100.52
226.375	178.34
226.592	8.36
226.81	84.14
227.028	112.81
227.246	118.95
227.464	14.51
227.682	41.13
227.9	18.6
228.117	51.37
228.335	18.6
228.553	98.47
228.771	80.04
228.989	2.22
229.206	-18.26
229.424	8.36
229.642	2.22
229.86	114.86
230.077	104.62
230.295	51.37
230.513	-14.17
230.731	-30.55
230.948	116.9
231.166	69.8
231.384	8.36
231.601	-3.93
231.819	123.05
232.037	-5.97
232.254	12.46
232.472	30.89
232.689	71.85
232.907	45.23
233.125	59.56
233.342	65.71
233.56	-38.74
233.777	55.47
233.995	121
234.213	104.62
234.43	84.14
234.648	98.47
234.865	100.52
235.083	106.67
235.3	47.27
235.518	39.08
235.735	108.71
235.953	108.71
236.17	98.47
236.388	92.33
236.605	43.18
236.822	90.28
237.04	98.47
237.257	12.46
237.475	65.71
237.692	57.51
237.909	80.04
238.127	-8.02
238.344	28.84
238.562	-48.98
238.779	-34.64
238.996	67.75
239.214	41.13
239.431	96.43
239.648	18.6
239.865	-5.97
240.083	108.71
240.3	47.27
240.517	41.13
240.735	39.08
240.952	65.71
241.169	80.04
241.386	55.47
241.603	96.43
241.821	41.13
242.038	67.75
242.255	92.33
242.472	55.47
242.689	86.19
242.907	80.04
243.124	106.67
243.341	80.04
243.558	88.23
243.775	90.28
243.992	22.7
244.209	47.27
244.426	51.37
244.643	98.47
244.86	51.37
245.078	37.03
245.295	61.61
245.512	10.41
245.729	41.13
245.946	30.89
246.163	34.99
246.38	16.55
246.597	106.67
246.814	-8.02
247.031	57.51
247.248	18.6
247.464	43.18
247.681	34.99
247.898	24.75
248.115	96.43
248.332	24.75
248.549	77.99
248.766	84.14
248.983	129.19
249.2	98.47
249.417	98.47
249.633	43.18
249.85	112.81
250.067	-38.74
250.284	112.81
250.501	80.04
250.717	37.03
250.934	-51.03
251.151	80.04
251.368	6.31
251.585	22.7
251.801	47.27
252.018	12.46
252.235	59.56
252.451	51.37
252.668	47.27
252.885	80.04
253.102	127.14
253.318	65.71
253.535	51.37
253.752	71.85
253.968	65.71
254.185	-89.94
254.401	22.7
254.618	125.1
254.835	10.41
255.051	59.56
255.268	67.75
255.484	43.18
255.701	-89.94
255.917	22.7
256.134	-40.79
256.351	51.37
256.567	84.14
256.784	75.95
257	-32.6
257.217	8.36
257.433	159.91
257.65	75.95
257.866	61.61
258.082	49.32
258.299	57.51
258.515	55.47
258.732	88.23
258.948	41.13
259.165	141.48
259.381	43.18
259.597	10.41
259.814	73.9
260.03	73.9
260.246	82.09
260.463	127.14
260.679	10.41
260.895	34.99
261.112	94.38
261.328	24.75
261.544	2.22
261.761	116.9
261.977	-63.32
262.193	49.32
262.409	51.37
262.626	-24.4
262.842	112.81
263.058	41.13
263.274	102.57
263.49	26.79
263.707	82.09
263.923	28.84
264.139	-85.84
264.355	39.08
264.571	51.37
264.787	2.22
265.004	67.75
265.22	59.56
265.436	16.55
265.652	30.89
265.868	75.95
266.084	0.17
266.3	98.47
266.516	80.04
266.732	47.27
266.948	73.9
267.164	100.52
267.38	-38.74
267.596	88.23
267.812	178.34
268.028	80.04
268.244	26.79
268.46	65.71
268.676	-3.93
268.892	67.75
269.108	32.94
269.324	12.46
269.54	67.75
269.756	80.04
269.972	8.36
270.188	30.89
270.403	57.51
270.619	47.27
270.835	121
271.051	88.23
271.267	47.27
271.483	45.23
271.698	47.27
271.914	108.71
272.13	57.51
272.346	55.47
272.562	71.85
272.777	121
272.993	43.18
273.209	37.03
273.425	32.94
273.64	-34.64
273.856	100.52
274.072	34.99
274.287	55.47
274.503	114.86
274.719	43.18
274.934	80.04
275.15	49.32
275.366	104.62
275.581	26.79
275.797	32.94
276.012	51.37
276.228	41.13
276.444	39.08
276.659	133.29
276.875	34.99
277.09	34.99
277.306	-1.88
277.521	104.62
277.737	57.51
277.952	73.9
278.168	59.56
278.383	63.66
278.599	63.66
278.814	65.71
279.03	67.75
279.245	80.04
279.461	57.51
279.676	14.51
279.892	84.14
280.107	96.43
280.322	26.79
280.538	32.94
280.753	8.36
280.969	43.18
281.184	73.9
281.399	82.09
281.615	18.6
281.83	43.18
282.045	26.79
282.26	43.18
282.476	84.14
282.691	92.33
282.906	41.13
283.122	75.95
283.337	43.18
283.552	80.04
283.767	24.75
283.983	18.6
284.198	108.71
284.413	80.04
284.628	69.8
284.843	20.65
285.058	57.51
285.274	43.18
285.489	41.13
285.704	133.29
285.919	59.56
286.134	106.67
286.349	73.9
286.564	121
286.779	71.85
286.995	28.84
287.21	77.99
287.425	32.94
287.64	75.95
287.855	92.33
288.07	18.6
288.285	-42.84
288.5	45.23
288.715	90.28
288.93	-36.69
289.145	30.89
289.36	18.6
289.575	141.48
289.79	110.76
290.004	4.27
290.219	30.89
290.434	14.51
290.649	24.75
290.864	43.18
291.079	41.13
291.294	49.32
291.509	32.94
291.724	57.51
291.938	-24.4
292.153	145.58
292.368	92.33
292.583	133.29
292.798	96.43
293.012	-30.55
293.227	8.36
293.442	41.13
293.657	100.52
293.871	67.75
294.086	49.32
294.301	80.04
294.516	114.86
294.73	-22.36
294.945	18.6
295.16	34.99
295.374	157.86
295.589	92.33
295.804	-22.36
296.018	41.13
296.233	96.43
296.447	80.04
296.662	43.18
296.877	67.75
297.091	22.7
297.306	129.19
297.52	116.9
297.735	-32.6
297.949	67.75
298.164	73.9
298.378	6.31
298.593	47.27
298.807	49.32
299.022	90.28
299.236	67.75
299.451	80.04
299.665	57.51
299.88	65.71
300.094	8.36
300.309	28.84
300.523	51.37
300.737	37.03
300.952	47.27
301.166	90.28
301.381	41.13
301.595	43.18
301.809	-87.89
302.024	82.09
302.238	32.94
302.452	98.47
302.667	84.14
302.881	125.1
303.095	92.33
303.309	10.41
303.524	-67.41
303.738	80.04
303.952	92.33
304.166	108.71
304.381	22.7
304.595	100.52
304.809	6.31
305.023	51.37
305.237	39.08
305.452	73.9
305.666	94.38
305.88	39.08
306.094	24.75
306.308	102.57
306.522	118.95
306.736	41.13
306.95	26.79
307.164	98.47
307.379	34.99
307.593	186.54
307.807	75.95
308.021	57.51
308.235	90.28
308.449	4.27
308.663	63.66
308.877	80.04
309.091	18.6
309.305	65.71
309.519	-1.88
309.733	53.42
309.947	-57.17
310.161	100.52
310.374	88.23
310.588	112.81
310.802	-22.36
311.016	43.18
311.23	-32.6
311.444	67.75
311.658	8.36
311.872	69.8
312.085	77.99
312.299	108.71
312.513	116.9
312.727	65.71
312.941	41.13
313.154	75.95
313.368	41.13
313.582	55.47
313.796	24.75
314.009	106.67
314.223	172.2
314.437	20.65
314.651	63.66
314.864	26.79
315.078	59.56
315.292	2.22
315.505	73.9
315.719	106.67
315.933	77.99
316.146	43.18
316.36	-26.45
316.573	114.86
316.787	47.27
317.001	59.56
317.214	82.09
317.428	37.03
317.641	43.18
317.855	98.47
318.068	6.31
318.282	90.28
318.495	59.56
318.709	75.95
318.922	63.66
319.136	114.86
319.349	73.9
319.563	34.99
319.776	73.9
319.99	-44.88
320.203	51.37
320.417	-1.88
320.63	100.52
320.843	100.52
321.057	67.75
321.27	-16.21
321.483	47.27
321.697	14.51
321.91	65.71
322.124	49.32
322.337	104.62
322.55	34.99
322.763	73.9
322.977	2.22
323.19	45.23
323.403	59.56
323.617	59.56
323.83	65.71
324.043	125.1
324.256	43.18
324.469	24.75
324.683	8.36
324.896	43.18
325.109	16.55
325.322	26.79
325.535	75.95
325.748	100.52
325.962	30.89
326.175	121
326.388	75.95
326.601	67.75
326.814	77.99
327.027	43.18
327.24	86.19
327.453	57.51
327.666	69.8
327.879	155.82
328.092	100.52
328.305	39.08
328.518	67.75
328.731	53.42
328.944	-18.26
329.157	32.94
329.37	73.9
329.583	125.1
329.796	80.04
330.009	-5.97
330.222	100.52
330.435	14.51
330.648	86.19
330.861	32.94
331.073	80.04
331.286	123.05
331.499	16.55
331.712	59.56
331.925	71.85
332.138	43.18
332.35	59.56
332.563	39.08
332.776	118.95
332.989	20.65
333.202	67.75
333.414	43.18
333.627	80.04
333.84	59.56
334.053	24.75
334.265	55.47
334.478	26.79
334.691	75.95
334.903	106.67
335.116	59.56
335.329	51.37
335.541	80.04
335.754	73.9
335.966	26.79
336.179	92.33
336.392	-22.36
336.604	43.18
336.817	108.71
337.029	34.99
337.242	41.13
337.454	67.75
337.667	18.6
337.88	131.24
338.092	84.14
338.305	57.51
338.517	39.08
338.729	104.62
338.942	114.86
339.154	37.03
339.367	73.9
339.579	73.9
339.792	24.75
340.004	53.42
340.217	32.94
340.429	59.56
340.641	12.46
340.854	37.03
341.066	73.9
341.278	86.19
341.491	110.76
341.703	88.23
341.915	45.23
342.128	116.9
342.34	8.36
342.552	61.61
342.764	-51.03
342.977	84.14
343.189	30.89
343.401	53.42
343.613	22.7
343.826	47.27
344.038	39.08
344.25	59.56
344.462	2.22
344.674	53.42
344.886	106.67
345.099	41.13
345.311	108.71
345.523	102.57
345.735	22.7
345.947	114.86
346.159	86.19
346.371	-20.31
346.583	-30.55
346.795	131.24
347.007	14.51
347.219	96.43
347.431	51.37
347.643	129.19
347.855	30.89
348.067	39.08
348.279	18.6
348.491	82.09
348.703	24.75
348.915	123.05
349.127	49.32
349.339	90.28
349.551	-8.02
349.763	86.19
349.975	20.65
350.187	34.99
350.399	59.56
350.61	24.75
350.822	43.18
351.034	73.9
351.246	59.56
351.458	143.53
351.669	67.75
351.881	116.9
352.093	67.75
352.305	98.47
352.517	139.43
352.728	168.1
352.94	114.86
353.152	84.14
353.363	-8.02
353.575	8.36
353.787	75.95
353.999	69.8
354.21	75.95
354.422	61.61
354.633	26.79
354.845	108.71
355.057	82.09
355.268	57.51
355.48	118.95
355.692	41.13
355.903	98.47
356.115	129.19
356.326	37.03
356.538	75.95
356.749	133.29
356.961	141.48
357.172	34.99
357.384	67.75
357.595	194.73
357.807	8.36
358.018	-38.74
358.23	84.14
358.441	67.75
358.653	123.05
358.864	139.43
359.075	41.13
359.287	49.32
359.498	-1.88
359.709	53.42
359.921	49.32
360.132	59.56
360.344	100.52
360.555	90.28
360.766	55.47
360.977	10.41
361.189	82.09
361.4	63.66
361.611	84.14
361.823	108.71
362.034	94.38
362.245	18.6
362.456	20.65
362.667	51.37
362.879	2.22
363.09	-22.36
363.301	75.95
363.512	84.14
363.723	-14.17
363.935	67.75
364.146	112.81
364.357	84.14
364.568	104.62
364.779	0.17
364.99	149.67
365.201	63.66
365.412	69.8
365.623	26.79
365.834	34.99
366.045	34.99
366.256	108.71
366.467	86.19
366.678	-18.26
366.889	43.18
367.1	30.89
367.311	73.9
367.522	4.27
367.733	51.37
367.944	106.67
368.155	59.56
368.366	67.75
368.577	92.33
368.788	114.86
368.999	-10.07
369.209	55.47
369.42	164.01
369.631	125.1
369.842	47.27
370.053	37.03
370.264	108.71
370.474	51.37
370.685	129.19
370.896	92.33
371.107	84.14
371.317	82.09
371.528	26.79
371.739	145.58
371.95	49.32
372.16	100.52
372.371	67.75
372.582	26.79
372.792	96.43
373.003	28.84
373.214	-34.64
373.424	82.09
373.635	49.32
373.846	90.28
374.056	129.19
374.267	145.58
374.477	0.17
374.688	73.9
374.898	147.62
375.109	73.9
375.319	92.33
375.53	118.95
375.74	145.58
375.951	47.27
376.161	67.75
376.372	37.03
376.582	75.95
376.793	53.42
377.003	39.08
377.214	59.56
377.424	20.65
377.635	100.52
377.845	59.56
378.055	112.81
378.266	43.18
378.476	30.89
378.686	100.52
378.897	153.77
379.107	141.48
379.317	43.18
379.528	26.79
379.738	116.9
379.948	63.66
380.158	112.81
380.369	80.04
380.579	69.8
380.789	57.51
380.999	86.19
381.21	84.14
381.42	71.85
381.63	98.47
381.84	121
382.05	182.44
382.261	112.81
382.471	-16.21
382.681	67.75
382.891	112.81
383.101	108.71
383.311	-63.32
383.521	88.23
383.731	71.85
383.941	137.38
384.151	59.56
384.361	141.48
384.571	149.67
384.781	55.47
384.991	49.32
385.201	34.99
385.411	75.95
385.621	90.28
385.831	34.99
386.041	69.8
386.251	14.51
386.461	147.62
386.671	49.32
386.881	59.56
387.091	100.52
387.301	139.43
387.511	116.9
387.72	10.41
387.93	123.05
388.14	67.75
388.35	145.58
388.56	67.75
388.769	67.75
388.979	108.71
389.189	73.9
389.399	63.66
389.609	133.29
389.818	104.62
390.028	59.56
390.238	57.51
390.447	63.66
390.657	84.14
390.867	63.66
391.076	98.47
391.286	116.9
391.496	75.95
391.705	92.33
391.915	98.47
392.125	145.58
392.334	-18.26
392.544	82.09
392.753	129.19
392.963	88.23
393.172	139.43
393.382	49.32
393.591	164.01
393.801	114.86
394.01	172.2
394.22	106.67
394.429	75.95
394.639	143.53
394.848	141.48
395.058	49.32
395.267	106.67
395.477	143.53
395.686	114.86
395.895	174.25
396.105	116.9
396.314	75.95
396.524	96.43
396.733	32.94
396.942	180.39
397.152	141.48
397.361	139.43
397.57	92.33
397.78	114.86
397.989	65.71
398.198	164.01
398.407	125.1
398.617	51.37
398.826	141.48
399.035	125.1
399.244	116.9
399.453	92.33
399.663	114.86
399.872	98.47
400.081	194.73
400.29	131.24
400.499	92.33
400.708	149.67
400.917	147.62
401.127	100.52
401.336	26.79
401.545	204.97
401.754	237.74
401.963	112.81
402.172	129.19
402.381	51.37
402.59	172.2
402.799	112.81
403.008	90.28
403.217	145.58
403.426	231.59
403.635	141.48
403.844	192.68
404.053	157.86
404.262	172.2
404.471	159.91
404.68	153.77
404.888	51.37
405.097	133.29
405.306	106.67
405.515	157.86
405.724	153.77
405.933	188.58
406.142	174.25
406.35	247.97
406.559	190.63
406.768	260.26
406.977	288.93
407.185	184.49
407.394	278.69
407.603	217.26
407.812	295.08
408.02	256.17
408.229	178.34
408.438	254.12
408.646	106.67
408.855	229.54
409.064	272.55
409.272	227.5
409.481	358.57
409.69	319.65
409.898	270.5
410.107	362.66
410.315	327.85
410.524	223.4
410.733	319.65
410.941	350.37
411.15	329.89
411.358	440.48
411.567	460.96
411.775	387.24
411.984	424.1
412.192	493.73
412.401	438.44
412.609	546.98
412.818	454.82
413.026	442.53
413.234	491.68
413.443	469.16
413.651	481.44
413.86	579.75
414.068	571.55
414.276	575.65
414.485	542.88
414.693	614.56
414.901	637.09
415.11	600.23
415.318	755.87
415.526	721.06
415.734	694.43
415.943	776.35
416.151	731.3
416.359	719.01
416.567	796.83
416.776	747.68
416.984	966.81
417.192	950.43
417.4	923.8
417.608	975
417.817	958.62
418.025	1026.2
418.233	1132.7
418.441	1126.55
418.649	1118.36
418.857	1144.99
419.065	1155.23
419.273	1247.38
419.481	1253.53
419.689	1222.81
419.897	1286.3
420.105	1460.37
420.313	1474.71
420.521	1534.1
420.729	1591.44
420.937	1525.91
421.145	1702.03
421.353	1685.65
421.561	1802.38
421.769	1734.8
421.977	1896.59
422.185	1908.88
422.393	2136.2
422.601	2101.39
422.809	2078.86
423.017	2082.95
423.224	2246.79
423.432	2250.89
423.64	2326.66
423.848	2572.42
424.056	2373.77
424.263	2615.43
424.471	2703.49
424.679	2672.77
424.887	2779.26
425.094	2875.52
425.302	2885.76
425.51	3039.36
425.718	3137.66
425.925	3145.85
426.133	3262.58
426.341	3401.85
426.548	3655.79
426.756	3561.59
426.964	3614.84
427.171	3704.95
427.379	3995.76
427.586	3907.7
427.794	4063.34
428.001	4466.79
428.209	4606.05
428.417	4513.89
428.624	4792.42
428.832	4769.89
429.039	4659.3
429.247	4696.16
429.454	5099.61
429.662	5451.86
429.869	5216.35
430.076	5634.13
430.284	5415
430.491	5630.04
430.699	6185.04
430.906	5974.1
431.114	6045.77
431.321	6256.72
431.528	6385.74
431.736	6840.39
431.943	7120.96
432.15	6817.86
432.358	6948.93
432.565	7440.44
432.772	7405.63
432.979	7649.33
433.187	7743.54
433.394	7915.57
433.601	8243.24
433.808	8491.05
434.016	8247.34
434.223	8661.03
434.43	9308.19
434.637	9009.19
434.844	9723.93
435.052	9848.85
435.259	9934.87
435.466	10027.03
435.673	9725.97
435.88	10344.46
436.087	10776.58
436.294	10995.71
436.501	10557.45
436.708	10790.92
436.915	11405.31
437.122	11905.01
437.329	11689.98
437.537	12091.38
437.743	12238.83
437.95	12109.81
438.157	12939.24
438.364	13273.06
438.571	13244.38
438.778	13477.85
438.985	14604.24
439.192	14090.2
439.399	14565.32
439.606	14032.85
439.813	14958.53
440.02	16011.19
440.227	15587.26
440.433	15554.49
440.64	16037.81
440.847	15591.36
441.054	16412.59
441.261	17319.84
441.467	17104.81
441.674	17721.24
441.881	18048.92
442.088	17690.52
442.294	17903.51
442.501	18397.07
442.708	18691.98
442.914	19466.11
443.121	20219.77
443.328	19867.52
443.534	21143.4
443.741	20660.08
443.948	20424.56
444.154	21876.57
444.361	21768.03
444.568	22198.1
444.774	21909.34
444.981	22107.99
445.187	22923.08
445.394	23775.04
445.6	23199.56
445.807	25614.12
446.013	24760.11
446.22	24909.61
446.426	25859.87
446.633	26359.58
446.839	27236.11
447.046	26507.03
447.252	27377.42
447.459	27500.3
447.665	27447.05
447.871	28679.93
448.078	29902.56
448.284	28417.79
448.491	29658.85
448.697	30086.88
448.903	31084.24
449.11	30801.62
449.316	30308.06
449.522	31186.64
449.728	31653.58
449.935	31977.15
450.141	31960.77
450.347	32702.14
450.553	31686.34
450.76	31979.2
450.966	32898.74
451.172	32540.35
451.378	33480.36
451.584	32710.33
451.791	33429.16
451.997	33380.01
452.203	33642.15
452.409	33605.29
452.615	33316.53
452.821	32403.13
453.027	32042.69
453.233	33623.72
453.44	32317.12
453.646	32382.65
453.852	32794.29
454.058	33705.64
454.264	31827.65
454.47	32759.48
454.676	31936.2
454.882	32677.56
455.088	30105.31
455.294	30357.21
455.5	31063.76
455.705	31203.02
455.911	30043.87
456.117	29288.17
456.323	28847.86
456.529	27428.62
456.735	28964.59
456.941	27922.18
457.147	27596.55
457.352	26513.17
457.558	25995.04
457.764	26165.02
457.97	25734.95
458.176	25030.44
458.381	25333.54
458.587	23994.17
458.793	23971.64
458.999	22724.43
459.204	24221.5
459.41	23406.41
459.616	21768.03
459.821	22083.42
460.027	21981.02
460.233	21710.69
460.438	20311.92
460.644	20592.5
460.85	19861.37
461.055	19347.33
461.261	19373.96
461.466	17938.33
461.672	17201.06
461.878	18780.04
462.083	17192.87
462.289	17156
462.494	16805.8
462.7	15959.99
462.905	15673.28
463.111	16207.8
463.316	16273.33
463.522	15906.74
463.727	15773.63
463.932	15712.19
464.138	15773.63
464.343	15736.76
464.549	15519.68
464.754	16043.96
464.959	15765.43
465.165	15837.11
465.37	14886.86
465.575	14735.31
465.781	15149
465.986	15046.6
466.191	14688.2
466.397	14430.16
466.602	13946.84
466.807	14161.87
