Data from USB4F104151__29__11-30-05-614.txt Node

Date: Fri Mar 14 11:30:05 EDT 2025
User: louis
Spectrometer: USB4F10415
Trigger mode: 4
Integration Time (sec): 5.000000E-2
Scans to average: 1
Electric dark correction enabled: true
Nonlinearity correction enabled: false
Boxcar width: 0
XAxis mode: Wavelengths
Number of Pixels in Spectrum: 3648
>>>>>Begin Spectral Data<<<<<
178.204	-202.92
178.424	-202.92
178.644	-202.92
178.864	-196.78
179.084	-104.62
179.304	-80.04
179.524	18.26
179.744	16.21
179.964	30.55
180.184	18.26
180.404	32.6
180.624	-2.22
180.844	-51.37
181.064	-34.99
181.283	-8.36
181.503	14.17
181.723	46.93
181.943	-6.31
182.163	34.64
182.383	-43.18
182.602	81.75
182.822	14.17
183.042	12.12
183.262	63.32
183.482	32.6
183.701	32.6
183.921	34.64
184.141	8.02
184.361	16.21
184.58	16.21
184.8	30.55
185.02	-30.89
185.239	40.79
185.459	87.89
185.679	79.7
185.898	-51.37
186.118	-16.55
186.338	26.45
186.557	-24.75
186.777	40.79
186.997	-39.08
187.216	67.41
187.436	137.04
187.655	89.94
187.875	57.17
188.095	-69.8
188.314	46.93
188.534	139.09
188.753	-22.7
188.973	40.79
189.192	18.26
189.412	3.93
189.631	-30.89
189.851	-24.75
190.07	28.5
190.29	26.45
190.509	10.07
190.729	59.22
190.948	18.26
191.168	208.72
191.387	91.99
191.607	40.79
191.826	20.31
192.045	20.31
192.265	10.07
192.484	65.36
192.704	-4.27
192.923	-0.17
193.142	120.66
193.362	87.89
193.581	75.6
193.8	124.76
194.02	55.12
194.239	-2.22
194.458	51.03
194.678	18.26
194.897	20.31
195.116	42.84
195.335	5.97
195.555	59.22
195.774	14.17
195.993	34.64
196.212	-14.51
196.432	16.21
196.651	38.74
196.87	24.4
197.089	79.7
197.308	59.22
197.528	30.55
197.747	-10.41
197.966	67.41
198.185	137.04
198.404	38.74
198.623	51.03
198.842	124.76
199.062	57.17
199.281	100.18
199.5	-39.08
199.719	42.84
199.938	-24.75
200.157	55.12
200.376	16.21
200.595	122.71
200.814	69.46
201.033	-20.65
201.252	85.84
201.471	34.64
201.69	75.6
201.909	24.4
202.128	51.03
202.347	116.56
202.566	-32.94
202.785	-39.08
203.004	-10.41
203.223	145.24
203.442	87.89
203.661	-26.79
203.879	12.12
204.098	75.6
204.317	-0.17
204.536	126.8
204.755	5.97
204.974	16.21
205.193	-0.17
205.411	71.51
205.63	67.41
205.849	42.84
206.068	73.56
206.287	-24.75
206.505	83.8
206.724	28.5
206.943	100.18
207.162	24.4
207.381	57.17
207.599	30.55
207.818	1.88
208.037	18.26
208.255	-16.55
208.474	30.55
208.693	65.36
208.911	20.31
209.13	100.18
209.349	51.03
209.567	57.17
209.786	51.03
210.005	61.27
210.223	3.93
210.442	22.36
210.661	12.12
210.879	42.84
211.098	75.6
211.316	24.4
211.535	3.93
211.753	24.4
211.972	30.55
212.191	8.02
212.409	-22.7
212.628	18.26
212.846	44.88
213.065	40.79
213.283	67.41
213.502	14.17
213.72	34.64
213.938	22.36
214.157	46.93
214.375	48.98
214.594	55.12
214.812	71.51
215.031	55.12
215.249	98.13
215.467	59.22
215.686	-49.32
215.904	48.98
216.122	53.08
216.341	75.6
216.559	46.93
216.778	26.45
216.996	102.23
217.214	53.08
217.432	40.79
217.651	3.93
217.869	-8.36
218.087	22.36
218.306	57.17
218.524	12.12
218.742	-30.89
218.96	20.31
219.179	91.99
219.397	-12.46
219.615	96.08
219.833	46.93
220.051	30.55
220.27	96.08
220.488	130.9
220.706	42.84
220.924	-8.36
221.142	24.4
221.36	14.17
221.578	63.32
221.796	116.56
222.015	102.23
222.233	1.88
222.451	57.17
222.669	51.03
222.887	55.12
223.105	16.21
223.323	48.98
223.541	14.17
223.759	42.84
223.977	34.64
224.195	98.13
224.413	46.93
224.631	53.08
224.849	81.75
225.067	110.42
225.285	51.03
225.503	40.79
225.721	-75.95
225.939	12.12
226.157	20.31
226.375	59.22
226.592	-22.7
226.81	24.4
227.028	100.18
227.246	18.26
227.464	59.22
227.682	55.12
227.9	24.4
228.117	16.21
228.335	-8.36
228.553	26.45
228.771	34.64
228.989	24.4
229.206	63.32
229.424	48.98
229.642	38.74
229.86	18.26
230.077	73.56
230.295	-8.36
230.513	106.32
230.731	55.12
230.948	108.37
231.166	81.75
231.384	34.64
231.601	-22.7
231.819	26.45
232.037	-51.37
232.254	-32.94
232.472	26.45
232.689	96.08
232.907	34.64
233.125	34.64
233.342	46.93
233.56	-28.84
233.777	18.26
233.995	-47.27
234.213	79.7
234.43	34.64
234.648	42.84
234.865	-24.75
235.083	59.22
235.3	59.22
235.518	22.36
235.735	98.13
235.953	96.08
236.17	53.08
236.388	38.74
236.605	20.31
236.822	141.14
237.04	73.56
237.257	75.6
237.475	-4.27
237.692	38.74
237.909	8.02
238.127	77.65
238.344	73.56
238.562	65.36
238.779	-2.22
238.996	14.17
239.214	73.56
239.431	65.36
239.648	-55.47
239.865	61.27
240.083	34.64
240.3	-86.19
240.517	-34.99
240.735	-6.31
240.952	51.03
241.169	51.03
241.386	-8.36
241.603	-14.51
241.821	-59.56
242.038	51.03
242.255	57.17
242.472	24.4
242.689	-12.46
242.907	28.5
243.124	104.28
243.341	32.6
243.558	42.84
243.775	26.45
243.992	26.45
244.209	100.18
244.426	20.31
244.643	18.26
244.86	38.74
245.078	130.9
245.295	59.22
245.512	-2.22
245.729	32.6
245.946	26.45
246.163	51.03
246.38	147.28
246.597	83.8
246.814	-73.9
247.031	-43.18
247.248	57.17
247.464	100.18
247.681	34.64
247.898	5.97
248.115	104.28
248.332	30.55
248.549	137.04
248.766	42.84
248.983	57.17
249.2	38.74
249.417	57.17
249.633	-2.22
249.85	30.55
250.067	57.17
250.284	59.22
250.501	98.13
250.717	61.27
250.934	38.74
251.151	51.03
251.368	75.6
251.585	128.85
251.801	32.6
252.018	69.46
252.235	32.6
252.451	-47.27
252.668	32.6
252.885	120.66
253.102	-22.7
253.318	26.45
253.535	-4.27
253.752	12.12
253.968	44.88
254.185	-75.95
254.401	28.5
254.618	116.56
254.835	-18.6
255.051	155.47
255.268	1.88
255.484	-71.85
255.701	46.93
255.917	79.7
256.134	-43.18
256.351	-24.75
256.567	-14.51
256.784	5.97
257	-12.46
257.217	32.6
257.433	42.84
257.65	-49.32
257.866	59.22
258.082	42.84
258.299	26.45
258.515	1.88
258.732	1.88
258.948	-39.08
259.165	34.64
259.381	-63.66
259.597	34.64
259.814	-51.37
260.03	16.21
260.246	-47.27
260.463	16.21
260.679	48.98
260.895	83.8
261.112	44.88
261.328	-57.51
261.544	46.93
261.761	59.22
261.977	40.79
262.193	24.4
262.409	116.56
262.626	59.22
262.842	46.93
263.058	22.36
263.274	71.51
263.49	79.7
263.707	16.21
263.923	32.6
264.139	-45.23
264.355	-4.27
264.571	83.8
264.787	87.89
265.004	87.89
265.22	20.31
265.436	65.36
265.652	48.98
265.868	-55.47
266.084	-6.31
266.3	57.17
266.516	-18.6
266.732	-22.7
266.948	-4.27
267.164	-41.13
267.38	65.36
267.596	18.26
267.812	104.28
268.028	75.6
268.244	63.32
268.46	42.84
268.676	-20.65
268.892	32.6
269.108	-37.03
269.324	-14.51
269.54	24.4
269.756	65.36
269.972	-28.84
270.188	55.12
270.403	44.88
270.619	44.88
270.835	30.55
271.051	24.4
271.267	14.17
271.483	-6.31
271.698	83.8
271.914	-41.13
272.13	48.98
272.346	30.55
272.562	46.93
272.777	48.98
272.993	102.23
273.209	-10.41
273.425	10.07
273.64	26.45
273.856	73.56
274.072	10.07
274.287	-10.41
274.503	14.17
274.719	59.22
274.934	3.93
275.15	-34.99
275.366	-14.51
275.581	-14.51
275.797	28.5
276.012	75.6
276.228	-14.51
276.444	87.89
276.659	42.84
276.875	22.36
277.09	5.97
277.306	10.07
277.521	79.7
277.737	10.07
277.952	18.26
278.168	81.75
278.383	75.6
278.599	46.93
278.814	48.98
279.03	24.4
279.245	26.45
279.461	65.36
279.676	63.32
279.892	-22.7
280.107	-8.36
280.322	-20.65
280.538	10.07
280.753	-32.94
280.969	-2.22
281.184	38.74
281.399	67.41
281.615	65.36
281.83	96.08
282.045	-53.42
282.26	63.32
282.476	67.41
282.691	8.02
282.906	18.26
283.122	10.07
283.337	34.64
283.552	24.4
283.767	-6.31
283.983	46.93
284.198	1.88
284.413	87.89
284.628	3.93
284.843	-12.46
285.058	124.76
285.274	-4.27
285.489	30.55
285.704	59.22
285.919	-6.31
286.134	-8.36
286.349	5.97
286.564	-26.79
286.779	104.28
286.995	-14.51
287.21	67.41
287.425	79.7
287.64	65.36
287.855	51.03
288.07	-47.27
288.285	149.33
288.5	75.6
288.715	61.27
288.93	20.31
289.145	26.45
289.36	24.4
289.575	42.84
289.79	116.56
290.004	42.84
290.219	83.8
290.434	-84.14
290.649	40.79
290.864	8.02
291.079	65.36
291.294	73.56
291.509	112.47
291.724	34.64
291.938	91.99
292.153	81.75
292.368	24.4
292.583	26.45
292.798	26.45
293.012	71.51
293.227	44.88
293.442	26.45
293.657	-20.65
293.871	128.85
294.086	59.22
294.301	34.64
294.516	98.13
294.73	-39.08
294.945	24.4
295.16	59.22
295.374	108.37
295.589	73.56
295.804	-22.7
296.018	51.03
296.233	51.03
296.447	8.02
296.662	-30.89
296.877	59.22
297.091	44.88
297.306	12.12
297.52	63.32
297.735	104.28
297.949	132.95
298.164	8.02
298.378	26.45
298.593	40.79
298.807	108.37
299.022	5.97
299.236	55.12
299.451	48.98
299.665	-24.75
299.88	-22.7
300.094	42.84
300.309	34.64
300.523	57.17
300.737	26.45
300.952	63.32
301.166	20.31
301.381	65.36
301.595	36.69
301.809	38.74
302.024	63.32
302.238	-12.46
302.452	63.32
302.667	30.55
302.881	81.75
303.095	51.03
303.309	10.07
303.524	91.99
303.738	57.17
303.952	18.26
304.166	42.84
304.381	-16.55
304.595	12.12
304.809	18.26
305.023	30.55
305.237	42.84
305.452	55.12
305.666	-14.51
305.88	83.8
306.094	18.26
306.308	-4.27
306.522	91.99
306.736	67.41
306.95	79.7
307.164	46.93
307.379	32.6
307.593	1.88
307.807	40.79
308.021	12.12
308.235	67.41
308.449	-24.75
308.663	-2.22
308.877	190.29
309.091	30.55
309.305	16.21
309.519	10.07
309.733	18.26
309.947	34.64
310.161	81.75
310.374	116.56
310.588	102.23
310.802	-8.36
311.016	1.88
311.23	40.79
311.444	-4.27
311.658	42.84
311.872	22.36
312.085	-10.41
312.299	73.56
312.513	59.22
312.727	38.74
312.941	10.07
313.154	83.8
313.368	-22.7
313.582	-2.22
313.796	36.69
314.009	22.36
314.223	63.32
314.437	-4.27
314.651	67.41
314.864	10.07
315.078	26.45
315.292	48.98
315.505	51.03
315.719	26.45
315.933	10.07
316.146	-8.36
316.36	10.07
316.573	130.9
316.787	44.88
317.001	69.46
317.214	38.74
317.428	51.03
317.641	46.93
317.855	-4.27
318.068	91.99
318.282	-6.31
318.495	120.66
318.709	14.17
318.922	-6.31
319.136	145.24
319.349	83.8
319.563	-0.17
319.776	-16.55
319.99	-6.31
320.203	122.71
320.417	59.22
320.63	116.56
320.843	-63.66
321.057	10.07
321.27	26.45
321.483	-2.22
321.697	89.94
321.91	73.56
322.124	40.79
322.337	5.97
322.55	30.55
322.763	18.26
322.977	57.17
323.19	-6.31
323.403	16.21
323.617	63.32
323.83	-0.17
324.043	32.6
324.256	89.94
324.469	38.74
324.683	22.36
324.896	18.26
325.109	71.51
325.322	26.45
325.535	61.27
325.748	-16.55
325.962	75.6
326.175	55.12
326.388	124.76
326.601	124.76
326.814	87.89
327.027	16.21
327.24	112.47
327.453	-39.08
327.666	151.38
327.879	22.36
328.092	30.55
328.305	112.47
328.518	51.03
328.731	36.69
328.944	-20.65
329.157	89.94
329.37	-47.27
329.583	108.37
329.796	-14.51
330.009	14.17
330.222	38.74
330.435	106.32
330.648	3.93
330.861	42.84
331.073	44.88
331.286	32.6
331.499	108.37
331.712	32.6
331.925	8.02
332.138	67.41
332.35	53.08
332.563	26.45
332.776	126.8
332.989	30.55
333.202	3.93
333.414	18.26
333.627	59.22
333.84	30.55
334.053	59.22
334.265	-51.37
334.478	42.84
334.691	24.4
334.903	10.07
335.116	-14.51
335.329	57.17
335.541	42.84
335.754	51.03
335.966	55.12
336.179	59.22
336.392	34.64
336.604	135
336.817	8.02
337.029	38.74
337.242	-51.37
337.454	83.8
337.667	-30.89
337.88	57.17
338.092	67.41
338.305	91.99
338.517	14.17
338.729	-16.55
338.942	63.32
339.154	63.32
339.367	46.93
339.579	116.56
339.792	-80.04
340.004	42.84
340.217	-12.46
340.429	67.41
340.641	67.41
340.854	3.93
341.066	-22.7
341.278	1.88
341.491	83.8
341.703	57.17
341.915	-75.95
342.128	73.56
342.34	-0.17
342.552	-82.09
342.764	63.32
342.977	-2.22
343.189	79.7
343.401	83.8
343.613	1.88
343.826	48.98
344.038	83.8
344.25	40.79
344.462	42.84
344.674	10.07
344.886	-4.27
345.099	-8.36
345.311	149.33
345.523	69.46
345.735	-14.51
345.947	79.7
346.159	63.32
346.371	14.17
346.583	57.17
346.795	135
347.007	-0.17
347.219	91.99
347.431	28.5
347.643	71.51
347.855	-45.23
348.067	79.7
348.279	-6.31
348.491	71.51
348.703	38.74
348.915	-14.51
349.127	32.6
349.339	71.51
349.551	81.75
349.763	75.6
349.975	34.64
350.187	42.84
350.399	63.32
350.61	42.84
350.822	71.51
351.034	149.33
351.246	-34.99
351.458	12.12
351.669	8.02
351.881	24.4
352.093	51.03
352.305	30.55
352.517	89.94
352.728	98.13
352.94	59.22
353.152	63.32
353.363	-16.55
353.575	46.93
353.787	42.84
353.999	91.99
354.21	116.56
354.422	14.17
354.633	16.21
354.845	34.64
355.057	106.32
355.268	38.74
355.48	87.89
355.692	48.98
355.903	-2.22
356.115	118.61
356.326	-75.95
356.538	59.22
356.749	10.07
356.961	94.04
357.172	55.12
357.384	1.88
357.595	46.93
357.807	75.6
358.018	1.88
358.23	26.45
358.441	59.22
358.653	48.98
358.864	53.08
359.075	-24.75
359.287	-22.7
359.498	69.46
359.709	75.6
359.921	24.4
360.132	34.64
360.344	53.08
360.555	67.41
360.766	46.93
360.977	-16.55
361.189	85.84
361.4	-39.08
361.611	12.12
361.823	155.47
362.034	85.84
362.245	-22.7
362.456	89.94
362.667	73.56
362.879	98.13
363.09	20.31
363.301	57.17
363.512	63.32
363.723	71.51
363.935	67.41
364.146	14.17
364.357	16.21
364.568	63.32
364.779	-47.27
364.99	83.8
365.201	10.07
365.412	79.7
365.623	-12.46
365.834	-2.22
366.045	81.75
366.256	98.13
366.467	91.99
366.678	67.41
366.889	106.32
367.1	10.07
367.311	28.5
367.522	18.26
367.733	38.74
367.944	81.75
368.155	-14.51
368.366	71.51
368.577	120.66
368.788	87.89
368.999	16.21
369.209	-10.41
369.42	57.17
369.631	71.51
369.842	51.03
370.053	-18.6
370.264	61.27
370.474	51.03
370.685	51.03
370.896	-8.36
371.107	192.34
371.317	48.98
371.528	85.84
371.739	153.43
371.95	-30.89
372.16	44.88
372.371	-2.22
372.582	63.32
372.792	79.7
373.003	26.45
373.214	44.88
373.424	51.03
373.635	91.99
373.846	63.32
374.056	75.6
374.267	98.13
374.477	42.84
374.688	-55.47
374.898	-32.94
375.109	81.75
375.319	65.36
375.53	89.94
375.74	14.17
375.951	5.97
376.161	40.79
376.372	67.41
376.582	-22.7
376.793	106.32
377.003	87.89
377.214	59.22
377.424	116.56
377.635	10.07
377.845	26.45
378.055	87.89
378.266	-16.55
378.476	-22.7
378.686	10.07
378.897	51.03
379.107	36.69
379.317	63.32
379.528	116.56
379.738	36.69
379.948	-0.17
380.158	26.45
380.369	32.6
380.579	87.89
380.789	18.26
380.999	73.56
381.21	67.41
381.42	75.6
381.63	89.94
381.84	59.22
382.05	10.07
382.261	63.32
382.471	10.07
382.681	67.41
382.891	114.52
383.101	63.32
383.311	91.99
383.521	75.6
383.731	69.46
383.941	87.89
384.151	55.12
384.361	128.85
384.571	71.51
384.781	18.26
384.991	87.89
385.201	141.14
385.411	1.88
385.621	157.52
385.831	67.41
386.041	120.66
386.251	67.41
386.461	42.84
386.671	51.03
386.881	87.89
387.091	8.02
387.301	83.8
387.511	75.6
387.72	24.4
387.93	59.22
388.14	-20.65
388.35	120.66
388.56	100.18
388.769	55.12
388.979	51.03
389.189	40.79
389.399	75.6
389.609	91.99
389.818	94.04
390.028	94.04
390.238	114.52
390.447	98.13
390.657	77.65
390.867	67.41
391.076	-14.51
391.286	57.17
391.496	89.94
391.705	59.22
391.915	65.36
392.125	112.47
392.334	55.12
392.544	104.28
392.753	61.27
392.963	3.93
393.172	94.04
393.382	96.08
393.591	89.94
393.801	42.84
394.01	91.99
394.22	85.84
394.429	8.02
394.639	59.22
394.848	34.64
395.058	145.24
395.267	51.03
395.477	34.64
395.686	18.26
395.895	153.43
396.105	118.61
396.314	94.04
396.524	122.71
396.733	87.89
396.942	108.37
397.152	110.42
397.361	190.29
397.57	42.84
397.78	81.75
397.989	51.03
398.198	165.71
398.407	100.18
398.617	120.66
398.826	106.32
399.035	42.84
399.244	112.47
399.453	91.99
399.663	40.79
399.872	155.47
400.081	91.99
400.29	149.33
400.499	145.24
400.708	108.37
400.917	114.52
401.127	55.12
401.336	48.98
401.545	122.71
401.754	81.75
401.963	73.56
402.172	132.95
402.381	96.08
402.59	153.43
402.799	157.52
403.008	81.75
403.217	81.75
403.426	139.09
403.635	59.22
403.844	26.45
404.053	100.18
404.262	73.56
404.471	126.8
404.68	137.04
404.888	116.56
405.097	102.23
405.306	141.14
405.515	108.37
405.724	218.96
405.933	182.1
406.142	149.33
406.35	200.53
406.559	139.09
406.768	128.85
406.977	128.85
407.185	278.35
407.394	139.09
407.603	132.95
407.812	206.67
408.02	288.59
408.229	221.01
408.438	167.76
408.646	91.99
408.855	186.19
409.064	272.21
409.272	278.35
409.481	313.17
409.69	204.63
409.898	251.73
410.107	178
410.315	280.4
410.524	290.64
410.733	292.69
410.941	296.78
411.15	382.8
411.358	374.61
411.567	304.98
411.775	354.13
411.984	364.37
412.192	448.33
412.401	403.28
412.609	362.32
412.818	489.29
413.026	485.2
413.234	470.86
413.443	466.77
413.651	462.67
413.86	427.85
414.068	534.35
414.276	530.25
414.485	460.62
414.693	542.54
414.901	640.84
415.11	554.83
415.318	538.45
415.526	581.45
415.734	612.17
415.943	558.92
416.151	673.61
416.359	657.23
416.567	825.16
416.776	778.06
416.984	847.69
417.192	788.3
417.4	829.26
417.608	837.45
417.817	866.12
418.025	939.85
418.233	993.09
418.441	878.41
418.649	1052.49
418.857	1066.82
419.065	1050.44
419.273	931.66
419.481	1126.21
419.689	1122.12
419.897	1142.6
420.105	1222.47
420.313	1384.26
420.521	1367.87
420.729	1343.3
420.937	1394.5
421.145	1509.18
421.353	1578.81
421.561	1582.91
421.769	1607.48
421.977	1705.79
422.185	1693.5
422.393	1855.29
422.601	1826.62
422.809	1916.73
423.017	1785.66
423.224	2041.65
423.432	2021.17
423.64	2094.9
423.848	2250.55
424.056	2230.07
424.263	2377.52
424.471	2371.38
424.679	2524.97
424.887	2637.61
425.094	2512.69
425.302	2709.29
425.51	2760.49
425.718	2762.54
425.925	2834.22
426.133	2942.76
426.341	3155.75
426.548	3270.44
426.756	3272.48
426.964	3262.24
427.171	3350.31
427.379	3569.44
427.586	3716.89
427.794	3845.91
428.001	4040.47
428.209	4149.01
428.417	4028.18
428.624	4228.88
428.832	4175.64
429.039	4144.92
429.247	4171.54
429.454	4626.19
429.662	4949.77
429.869	4679.44
430.076	4955.91
430.284	4892.43
430.491	5021.45
430.699	5424.9
430.906	5431.04
431.114	5431.04
431.321	5785.34
431.528	5805.82
431.736	6094.58
431.943	6315.76
432.15	6293.24
432.358	6338.29
432.565	6684.4
432.772	6573.81
432.979	6987.5
433.187	7141.1
433.394	7016.17
433.601	7591.65
433.808	7659.23
434.016	7456.48
434.223	7800.54
434.43	8365.78
434.637	8128.22
434.844	8836.81
435.052	8849.1
435.259	8924.88
435.466	8902.35
435.673	8736.46
435.88	9305.8
436.087	9797.31
436.294	9772.74
436.501	9612.99
436.708	9914.05
436.915	10127.03
437.122	10716.85
437.329	10593.97
437.537	10929.84
437.743	11179.69
437.95	10786.48
438.157	11546.28
438.364	11880.1
438.571	12093.08
438.778	11974.3
438.985	13155.98
439.192	12549.78
439.399	13006.48
439.606	12691.09
439.813	13448.84
440.02	14173.82
440.227	13942.4
440.433	13835.91
440.64	14546.55
440.847	14327.42
441.054	14954.1
441.261	15529.58
441.467	15484.52
441.674	15648.36
441.881	16166.49
442.088	16111.2
442.294	15998.56
442.501	16709.21
442.708	16719.45
442.914	17509.96
443.121	18099.78
443.328	17835.59
443.534	19023.41
443.741	18554.43
443.948	18171.46
444.154	19895.85
444.361	19428.91
444.568	19672.62
444.774	19492.4
444.981	19813.93
445.187	20538.91
445.394	21319.18
445.6	20801.05
445.807	22902.26
446.013	22119.94
446.22	22418.94
446.426	23352.82
446.633	23408.11
446.839	24372.71
447.046	23117.3
447.252	24684
447.459	24557.02
447.665	24663.52
447.871	25224.66
448.078	26639.81
448.284	25331.15
448.491	26150.34
448.697	27352.5
448.903	27600.3
449.11	27405.75
449.316	27026.87
449.522	27657.65
449.728	28415.4
449.935	28652.96
450.141	28423.59
450.347	29285.78
450.553	28700.06
450.76	28546.47
450.966	29822.35
451.172	29207.96
451.378	29724.05
451.584	29261.21
451.791	30006.67
451.997	29734.29
452.203	30135.69
452.409	30248.33
452.615	29992.33
452.821	29388.18
453.027	28691.87
453.233	30340.49
453.44	29031.83
453.646	29250.97
453.852	29459.86
454.058	30207.37
454.264	28743.07
454.47	29683.09
454.676	28827.04
454.882	29568.4
455.088	27139.51
455.294	27995.56
455.5	28151.21
455.705	28327.33
455.911	27139.51
456.117	26170.82
456.323	26066.38
456.529	24753.63
456.735	25863.63
456.941	25505.23
457.147	24716.76
457.352	24135.14
457.558	23807.47
457.764	23926.25
457.97	23535.09
458.176	22699.51
458.381	22943.22
458.587	21655.05
458.793	21581.32
458.999	20368.93
459.204	21947.91
459.41	21202.45
459.616	19805.74
459.821	20063.78
460.027	19703.34
460.233	19252.78
460.438	18411.07
460.644	18624.06
460.85	17612.36
461.055	17454.67
461.261	17004.11
461.466	16500.31
461.672	15689.32
461.878	16762.45
462.083	15740.52
462.289	15480.43
462.494	15519.34
462.7	14536.31
462.905	14079.61
463.111	14906.99
463.316	14782.07
463.522	14308.99
463.727	14419.58
463.932	14528.12
464.138	14059.13
464.343	14018.18
464.549	13772.42
464.754	14249.6
464.959	14179.96
465.165	13897.35
465.37	13639.3
465.575	13285
465.781	13692.55
465.986	13639.3
466.191	13207.18
466.397	13057.68
466.602	12517.01
466.807	12918.42
467.012	12873.36
467.218	12850.83
467.423	12363.42
