Data from USB4F104151__104__11-32-23-500.txt Node

Date: Fri Mar 14 11:32:23 EDT 2025
User: louis
Spectrometer: USB4F10415
Trigger mode: 4
Integration Time (sec): 5.000000E-2
Scans to average: 1
Electric dark correction enabled: true
Nonlinearity correction enabled: false
Boxcar width: 0
XAxis mode: Wavelengths
Number of Pixels in Spectrum: 3648
>>>>>Begin Spectral Data<<<<<
178.204	-197.29
178.424	-197.29
178.644	-197.29
178.864	-146.09
179.084	-129.7
179.304	-92.84
179.524	9.56
179.744	58.71
179.964	-8.87
180.184	-2.73
180.404	17.75
180.624	-51.88
180.844	19.8
181.064	-64.17
181.283	15.7
181.503	-41.64
181.723	140.63
181.943	-47.79
182.163	66.9
182.383	13.65
182.602	42.32
182.822	-19.11
183.042	30.04
183.262	17.75
183.482	-6.83
183.701	9.56
183.921	13.65
184.141	23.89
184.361	42.32
184.58	-47.79
184.8	50.52
185.02	-41.64
185.239	75.09
185.459	75.09
185.679	68.95
185.898	-12.97
186.118	9.56
186.338	23.89
186.557	95.57
186.777	-0.68
186.997	21.85
187.216	-19.11
187.436	97.62
187.655	87.38
187.875	-29.35
188.095	116.05
188.314	103.76
188.534	52.56
188.753	-29.35
188.973	40.28
189.192	150.87
189.412	27.99
189.631	60.76
189.851	56.66
190.07	58.71
190.29	7.51
190.509	-23.21
190.729	40.28
190.948	83.28
191.168	91.48
191.387	44.37
191.607	-6.83
191.826	1.37
192.045	54.61
192.265	25.94
192.484	-23.21
192.704	-31.4
192.923	-31.4
193.142	111.96
193.362	58.71
193.581	-6.83
193.8	56.66
194.02	107.86
194.239	1.37
194.458	-0.68
194.678	71
194.897	34.13
195.116	17.75
195.335	-19.11
195.555	9.56
195.774	-35.5
195.993	60.76
196.212	58.71
196.432	-4.78
196.651	-6.83
196.87	-49.83
197.089	85.33
197.308	32.08
197.528	89.43
197.747	-41.64
197.966	30.04
198.185	105.81
198.404	-55.98
198.623	44.37
198.842	21.85
199.062	103.76
199.281	25.94
199.5	54.61
199.719	77.14
199.938	32.08
200.157	124.24
200.376	15.7
200.595	42.32
200.814	-4.78
201.033	15.7
201.252	68.95
201.471	34.13
201.69	50.52
201.909	40.28
202.128	34.13
202.347	101.72
202.566	62.8
202.785	-58.03
203.004	-15.02
203.223	187.73
203.442	81.24
203.661	-0.68
203.879	105.81
204.098	64.85
204.317	-35.5
204.536	50.52
204.755	42.32
204.974	56.66
205.193	58.71
205.411	95.57
205.63	42.32
205.849	83.28
206.068	44.37
206.287	79.19
206.505	5.46
206.724	-15.02
206.943	77.14
207.162	19.8
207.381	40.28
207.599	56.66
207.818	46.42
208.037	32.08
208.255	-10.92
208.474	103.76
208.693	-15.02
208.911	7.51
209.13	48.47
209.349	56.66
209.567	32.08
209.786	25.94
210.005	64.85
210.223	118.1
210.442	17.75
210.661	46.42
210.879	38.23
211.098	9.56
211.316	-2.73
211.535	34.13
211.753	46.42
211.972	66.9
212.191	15.7
212.409	83.28
212.628	9.56
212.846	30.04
213.065	97.62
213.283	99.67
213.502	13.65
213.72	83.28
213.938	48.47
214.157	-12.97
214.375	50.52
214.594	-0.68
214.812	21.85
215.031	146.77
215.249	34.13
215.467	126.29
215.686	-10.92
215.904	66.9
216.122	-6.83
216.341	99.67
216.559	38.23
216.778	87.38
216.996	44.37
217.214	-29.35
217.432	-6.83
217.651	-47.79
217.869	83.28
218.087	116.05
218.306	27.99
218.524	17.75
218.742	25.94
218.96	66.9
219.179	-4.78
219.397	1.37
219.615	99.67
219.833	62.8
220.051	1.37
220.27	66.9
220.488	44.37
220.706	30.04
220.924	15.7
221.142	15.7
221.36	83.28
221.578	-27.31
221.796	68.95
222.015	-2.73
222.233	-6.83
222.451	42.32
222.669	36.18
222.887	126.29
223.105	130.39
223.323	38.23
223.541	15.7
223.759	97.62
223.977	66.9
224.195	93.52
224.413	54.61
224.631	101.72
224.849	50.52
225.067	97.62
225.285	25.94
225.503	71
225.721	-33.45
225.939	154.96
226.157	40.28
226.375	165.2
226.592	-51.88
226.81	50.52
227.028	50.52
227.246	34.13
227.464	5.46
227.682	66.9
227.9	15.7
228.117	25.94
228.335	114
228.553	23.89
228.771	-15.02
228.989	91.48
229.206	163.15
229.424	-43.69
229.642	-0.68
229.86	44.37
230.077	44.37
230.295	91.48
230.513	75.09
230.731	48.47
230.948	9.56
231.166	50.52
231.384	23.89
231.601	13.65
231.819	64.85
232.037	58.71
232.254	44.37
232.472	83.28
232.689	-8.87
232.907	1.37
233.125	25.94
233.342	15.7
233.56	15.7
233.777	-10.92
233.995	25.94
234.213	1.37
234.43	83.28
234.648	48.47
234.865	46.42
235.083	111.96
235.3	1.37
235.518	25.94
235.735	97.62
235.953	58.71
236.17	85.33
236.388	-25.26
236.605	17.75
236.822	40.28
237.04	62.8
237.257	-0.68
237.475	-2.73
237.692	42.32
237.909	58.71
238.127	-0.68
238.344	62.8
238.562	1.37
238.779	58.71
238.996	32.08
239.214	40.28
239.431	105.81
239.648	9.56
239.865	30.04
240.083	75.09
240.3	-51.88
240.517	25.94
240.735	50.52
240.952	103.76
241.169	34.13
241.386	-23.21
241.603	-27.31
241.821	-2.73
242.038	83.28
242.255	58.71
242.472	9.56
242.689	40.28
242.907	79.19
243.124	-31.4
243.341	30.04
243.558	42.32
243.775	-47.79
243.992	15.7
244.209	46.42
244.426	95.57
244.643	109.91
244.86	-10.92
245.078	56.66
245.295	40.28
245.512	-39.59
245.729	64.85
245.946	77.14
246.163	-25.26
246.38	50.52
246.597	3.41
246.814	13.65
247.031	50.52
247.248	52.56
247.464	64.85
247.681	3.41
247.898	34.13
248.115	38.23
248.332	-15.02
248.549	101.72
248.766	132.44
248.983	83.28
249.2	9.56
249.417	91.48
249.633	-55.98
249.85	64.85
250.067	-31.4
250.284	89.43
250.501	97.62
250.717	105.81
250.934	-15.02
251.151	62.8
251.368	-19.11
251.585	1.37
251.801	-23.21
252.018	-10.92
252.235	9.56
252.451	30.04
252.668	-27.31
252.885	107.86
253.102	83.28
253.318	56.66
253.535	17.75
253.752	46.42
253.968	73.04
254.185	21.85
254.401	64.85
254.618	-8.87
254.835	40.28
255.051	85.33
255.268	38.23
255.484	42.32
255.701	7.51
255.917	91.48
256.134	23.89
256.351	-17.07
256.567	-12.97
256.784	34.13
257	15.7
257.217	79.19
257.433	42.32
257.65	56.66
257.866	54.61
258.082	-131.75
258.299	38.23
258.515	30.04
258.732	34.13
258.948	30.04
259.165	27.99
259.381	66.9
259.597	44.37
259.814	-2.73
260.03	66.9
260.246	-43.69
260.463	19.8
260.679	9.56
260.895	11.61
261.112	58.71
261.328	15.7
261.544	9.56
261.761	81.24
261.977	-27.31
262.193	-4.78
262.409	75.09
262.626	38.23
262.842	25.94
263.058	62.8
263.274	107.86
263.49	42.32
263.707	19.8
263.923	56.66
264.139	21.85
264.355	77.14
264.571	30.04
264.787	75.09
265.004	50.52
265.22	91.48
265.436	30.04
265.652	25.94
265.868	85.33
266.084	-107.18
266.3	11.61
266.516	38.23
266.732	40.28
266.948	66.9
267.164	17.75
267.38	54.61
267.596	-33.45
267.812	111.96
268.028	52.56
268.244	79.19
268.46	40.28
268.676	9.56
268.892	25.94
269.108	91.48
269.324	-25.26
269.54	36.18
269.756	87.38
269.972	13.65
270.188	9.56
270.403	48.47
270.619	13.65
270.835	1.37
271.051	60.76
271.267	42.32
271.483	30.04
271.698	111.96
271.914	56.66
272.13	77.14
272.346	44.37
272.562	66.9
272.777	15.7
272.993	48.47
273.209	38.23
273.425	58.71
273.64	17.75
273.856	73.04
274.072	66.9
274.287	-17.07
274.503	48.47
274.719	1.37
274.934	9.56
275.15	-31.4
275.366	25.94
275.581	25.94
275.797	64.85
276.012	13.65
276.228	-12.97
276.444	75.09
276.659	81.24
276.875	23.89
277.09	73.04
277.306	36.18
277.521	50.52
277.737	3.41
277.952	138.58
278.168	89.43
278.383	60.76
278.599	25.94
278.814	19.8
279.03	56.66
279.245	81.24
279.461	71
279.676	48.47
279.892	-17.07
280.107	-19.11
280.322	58.71
280.538	75.09
280.753	25.94
280.969	91.48
281.184	-29.35
281.399	85.33
281.615	62.8
281.83	75.09
282.045	-2.73
282.26	-6.83
282.476	89.43
282.691	68.95
282.906	-25.26
283.122	75.09
283.337	13.65
283.552	25.94
283.767	48.47
283.983	97.62
284.198	75.09
284.413	111.96
284.628	-72.36
284.843	27.99
285.058	79.19
285.274	27.99
285.489	-8.87
285.704	-29.35
285.919	1.37
286.134	13.65
286.349	34.13
286.564	23.89
286.779	75.09
286.995	11.61
287.21	-29.35
287.425	46.42
287.64	79.19
287.855	34.13
288.07	-8.87
288.285	89.43
288.5	101.72
288.715	50.52
288.93	25.94
289.145	25.94
289.36	-0.68
289.575	23.89
289.79	-41.64
290.004	66.9
290.219	81.24
290.434	9.56
290.649	48.47
290.864	1.37
291.079	81.24
291.294	97.62
291.509	138.58
291.724	-6.83
291.938	-2.73
292.153	30.04
292.368	48.47
292.583	77.14
292.798	9.56
293.012	32.08
293.227	-23.21
293.442	42.32
293.657	9.56
293.871	3.41
294.086	64.85
294.301	19.8
294.516	56.66
294.73	91.48
294.945	-41.64
295.16	32.08
295.374	124.24
295.589	9.56
295.804	-31.4
296.018	30.04
296.233	36.18
296.447	38.23
296.662	17.75
296.877	101.72
297.091	42.32
297.306	-2.73
297.52	71
297.735	56.66
297.949	62.8
298.164	66.9
298.378	42.32
298.593	38.23
298.807	27.99
299.022	79.19
299.236	75.09
299.451	48.47
299.665	40.28
299.88	83.28
300.094	-6.83
300.309	19.8
300.523	-33.45
300.737	66.9
300.952	13.65
301.166	68.95
301.381	25.94
301.595	-8.87
301.809	75.09
302.024	-2.73
302.238	-0.68
302.452	79.19
302.667	73.04
302.881	32.08
303.095	54.61
303.309	-21.16
303.524	34.13
303.738	21.85
303.952	-41.64
304.166	87.38
304.381	50.52
304.595	91.48
304.809	-6.83
305.023	75.09
305.237	-0.68
305.452	-23.21
305.666	120.15
305.88	91.48
306.094	71
306.308	44.37
306.522	40.28
306.736	68.95
306.95	81.24
307.164	87.38
307.379	30.04
307.593	62.8
307.807	83.28
308.021	42.32
308.235	46.42
308.449	-15.02
308.663	3.41
308.877	40.28
309.091	17.75
309.305	93.52
309.519	1.37
309.733	42.32
309.947	62.8
310.161	25.94
310.374	85.33
310.588	87.38
310.802	46.42
311.016	36.18
311.23	118.1
311.444	71
311.658	1.37
311.872	40.28
312.085	30.04
312.299	73.04
312.513	62.8
312.727	66.9
312.941	-31.4
313.154	58.71
313.368	1.37
313.582	58.71
313.796	42.32
314.009	44.37
314.223	66.9
314.437	73.04
314.651	83.28
314.864	-8.87
315.078	25.94
315.292	48.47
315.505	13.65
315.719	50.52
315.933	54.61
316.146	30.04
316.36	1.37
316.573	81.24
316.787	81.24
317.001	66.9
317.214	15.7
317.428	56.66
317.641	-0.68
317.855	44.37
318.068	13.65
318.282	44.37
318.495	54.61
318.709	54.61
318.922	25.94
319.136	99.67
319.349	52.56
319.563	-51.88
319.776	46.42
319.99	-17.07
320.203	44.37
320.417	58.71
320.63	23.89
320.843	89.43
321.057	54.61
321.27	73.04
321.483	50.52
321.697	95.57
321.91	46.42
322.124	97.62
322.337	81.24
322.55	83.28
322.763	40.28
322.977	32.08
323.19	95.57
323.403	25.94
323.617	93.52
323.83	107.86
324.043	107.86
324.256	7.51
324.469	-33.45
324.683	89.43
324.896	23.89
325.109	95.57
325.322	3.41
325.535	122.2
325.748	73.04
325.962	13.65
326.175	62.8
326.388	91.48
326.601	130.39
326.814	1.37
327.027	50.52
327.24	62.8
327.453	-17.07
327.666	52.56
327.879	85.33
328.092	23.89
328.305	42.32
328.518	73.04
328.731	103.76
328.944	-2.73
329.157	-21.16
329.37	58.71
329.583	83.28
329.796	124.24
330.009	-55.98
330.222	144.72
330.435	58.71
330.648	89.43
330.861	46.42
331.073	58.71
331.286	52.56
331.499	64.85
331.712	91.48
331.925	54.61
332.138	75.09
332.35	91.48
332.563	-6.83
332.776	75.09
332.989	36.18
333.202	56.66
333.414	-8.87
333.627	97.62
333.84	-39.59
334.053	97.62
334.265	46.42
334.478	73.04
334.691	58.71
334.903	17.75
335.116	-88.75
335.329	17.75
335.541	50.52
335.754	138.58
335.966	44.37
336.179	42.32
336.392	66.9
336.604	120.15
336.817	71
337.029	66.9
337.242	66.9
337.454	85.33
337.667	58.71
337.88	146.77
338.092	40.28
338.305	132.44
338.517	42.32
338.729	126.29
338.942	58.71
339.154	-19.11
339.367	-0.68
339.579	107.86
339.792	-43.69
340.004	17.75
340.217	11.61
340.429	32.08
340.641	97.62
340.854	23.89
341.066	46.42
341.278	79.19
341.491	107.86
341.703	30.04
341.915	36.18
342.128	79.19
342.34	64.85
342.552	30.04
342.764	13.65
342.977	87.38
343.189	54.61
343.401	40.28
343.613	-29.35
343.826	62.8
344.038	-29.35
344.25	101.72
344.462	-2.73
344.674	124.24
344.886	54.61
345.099	46.42
345.311	75.09
345.523	23.89
345.735	-6.83
345.947	124.24
346.159	81.24
346.371	34.13
346.583	66.9
346.795	75.09
347.007	48.47
347.219	97.62
347.431	91.48
347.643	58.71
347.855	7.51
348.067	50.52
348.279	1.37
348.491	109.91
348.703	-27.31
348.915	5.46
349.127	56.66
349.339	54.61
349.551	64.85
349.763	34.13
349.975	83.28
350.187	146.77
350.399	77.14
350.61	42.32
350.822	3.41
351.034	46.42
351.246	42.32
351.458	34.13
351.669	73.04
351.881	122.2
352.093	60.76
352.305	107.86
352.517	64.85
352.728	42.32
352.94	15.7
353.152	46.42
353.363	32.08
353.575	7.51
353.787	75.09
353.999	58.71
354.21	97.62
354.422	62.8
354.633	21.85
354.845	75.09
355.057	99.67
355.268	17.75
355.48	116.05
355.692	25.94
355.903	103.76
356.115	-41.64
356.326	-17.07
356.538	46.42
356.749	34.13
356.961	44.37
357.172	52.56
357.384	73.04
357.595	62.8
357.807	73.04
358.018	54.61
358.23	91.48
358.441	79.19
358.653	66.9
358.864	-23.21
359.075	46.42
359.287	42.32
359.498	136.53
359.709	105.81
359.921	42.32
360.132	111.96
360.344	60.76
360.555	56.66
360.766	124.24
360.977	56.66
361.189	68.95
361.4	73.04
361.611	7.51
361.823	32.08
362.034	60.76
362.245	81.24
362.456	25.94
362.667	111.96
362.879	-25.26
363.09	62.8
363.301	40.28
363.512	85.33
363.723	-4.78
363.935	-19.11
364.146	64.85
364.357	66.9
364.568	30.04
364.779	9.56
364.99	138.58
365.201	66.9
365.412	148.82
365.623	9.56
365.834	167.25
366.045	34.13
366.256	89.43
366.467	62.8
366.678	64.85
366.889	34.13
367.1	107.86
367.311	124.24
367.522	-27.31
367.733	132.44
367.944	83.28
368.155	38.23
368.366	44.37
368.577	66.9
368.788	58.71
368.999	58.71
369.209	60.76
369.42	103.76
369.631	132.44
369.842	105.81
370.053	83.28
370.264	56.66
370.474	5.46
370.685	32.08
370.896	52.56
371.107	36.18
371.317	124.24
371.528	52.56
371.739	93.52
371.95	101.72
372.16	11.61
372.371	-25.26
372.582	5.46
372.792	15.7
373.003	81.24
373.214	107.86
373.424	107.86
373.635	7.51
373.846	75.09
374.056	25.94
374.267	124.24
374.477	101.72
374.688	79.19
374.898	30.04
375.109	58.71
375.319	48.47
375.53	66.9
375.74	81.24
375.951	75.09
376.161	36.18
376.372	120.15
376.582	7.51
376.793	52.56
377.003	64.85
377.214	58.71
377.424	60.76
377.635	83.28
377.845	58.71
378.055	148.82
378.266	58.71
378.476	48.47
378.686	58.71
378.897	-0.68
379.107	97.62
379.317	62.8
379.528	21.85
379.738	107.86
379.948	83.28
380.158	87.38
380.369	46.42
380.579	7.51
380.789	50.52
380.999	79.19
381.21	62.8
381.42	116.05
381.63	122.2
381.84	73.04
382.05	75.09
382.261	81.24
382.471	138.58
382.681	-25.26
382.891	140.63
383.101	64.85
383.311	60.76
383.521	58.71
383.731	87.38
383.941	103.76
384.151	150.87
384.361	9.56
384.571	34.13
384.781	91.48
384.991	79.19
385.201	154.96
385.411	79.19
385.621	101.72
385.831	87.38
386.041	79.19
386.251	40.28
386.461	101.72
386.671	75.09
386.881	50.52
387.091	52.56
387.301	91.48
387.511	25.94
387.72	111.96
387.93	48.47
388.14	-0.68
388.35	148.82
388.56	95.57
388.769	75.09
388.979	93.52
389.189	-39.59
389.399	81.24
389.609	99.67
389.818	126.29
390.028	13.65
390.238	48.47
390.447	42.32
390.657	114
390.867	95.57
391.076	73.04
391.286	114
391.496	36.18
391.705	15.7
391.915	71
392.125	83.28
392.334	32.08
392.544	122.2
392.753	99.67
392.963	36.18
393.172	25.94
393.382	56.66
393.591	66.9
393.801	62.8
394.01	66.9
394.22	116.05
394.429	30.04
394.639	167.25
394.848	111.96
395.058	34.13
395.267	109.91
395.477	107.86
395.686	95.57
395.895	99.67
396.105	161.11
396.314	101.72
396.524	97.62
396.733	81.24
396.942	124.24
397.152	118.1
397.361	114
397.57	48.47
397.78	54.61
397.989	181.59
398.198	152.92
398.407	58.71
398.617	144.72
398.826	58.71
399.035	-8.87
399.244	161.11
399.453	114
399.663	148.82
399.872	146.77
400.081	50.52
400.29	75.09
400.499	124.24
400.708	165.2
400.917	81.24
401.127	103.76
401.336	95.57
401.545	197.97
401.754	91.48
401.963	58.71
402.172	-15.02
402.381	165.2
402.59	97.62
402.799	58.71
403.008	103.76
403.217	120.15
403.426	163.15
403.635	66.9
403.844	142.68
404.053	111.96
404.262	75.09
404.471	218.45
404.68	163.15
404.888	171.35
405.097	187.73
405.306	165.2
405.515	185.68
405.724	177.49
405.933	177.49
406.142	193.87
406.35	124.24
406.559	157.01
406.768	144.72
406.977	292.18
407.185	238.93
407.394	214.35
407.603	157.01
407.812	157.01
408.02	271.7
408.229	157.01
408.438	134.48
408.646	183.63
408.855	271.7
409.064	255.31
409.272	255.31
409.481	304.46
409.69	267.6
409.898	251.22
410.107	275.79
410.315	331.09
410.524	310.61
410.733	253.27
410.941	265.55
411.15	349.52
411.358	388.43
411.567	447.82
411.775	456.01
411.984	376.14
412.192	406.86
412.401	382.29
412.609	478.54
412.818	582.99
413.026	544.08
413.234	529.74
413.443	513.36
413.651	490.83
413.86	507.21
414.068	533.84
414.276	568.65
414.485	519.5
414.693	673.1
414.901	746.83
415.11	695.63
415.318	705.87
415.526	675.15
415.734	765.26
415.943	777.55
416.151	793.93
416.359	845.13
416.567	773.45
416.776	847.18
416.984	918.86
417.192	943.43
417.4	963.91
417.608	927.05
417.817	990.53
418.025	1070.4
418.233	1172.8
418.441	1043.78
418.649	1064.26
418.857	1238.34
419.065	1285.44
419.273	1301.83
419.481	1244.48
419.689	1367.36
419.897	1393.98
420.105	1432.9
420.313	1400.13
420.521	1566.01
420.729	1574.21
420.937	1580.35
421.145	1561.92
421.353	1727.8
421.561	1842.49
421.769	1803.58
421.977	1887.54
422.185	1926.46
422.393	2080.05
422.601	2190.64
422.809	2194.74
423.017	2129.2
423.224	2297.14
423.432	2409.78
423.64	2383.15
423.848	2532.65
424.056	2340.15
424.263	2630.96
424.471	2489.65
424.679	2811.18
424.887	2958.63
425.094	2899.24
425.302	2983.21
425.51	2964.78
425.718	2995.5
425.925	3177.76
426.133	3409.19
426.341	3532.06
426.548	3599.65
426.756	3595.55
426.964	3783.96
427.171	3847.45
427.379	4078.87
427.586	4087.06
427.794	4375.83
428.001	4474.13
428.209	4519.18
428.417	4369.68
428.624	4863.24
428.832	4928.78
429.039	4910.35
429.247	4893.96
429.454	5283.08
429.662	5643.52
429.869	5346.56
430.076	5719.29
430.284	5547.26
430.491	5821.69
430.699	6096.12
430.906	6079.74
431.114	6186.23
431.321	6386.93
431.528	6479.09
431.736	6790.38
431.943	7232.74
432.15	6997.23
432.358	7017.71
432.565	7511.27
432.772	7648.48
432.979	7697.63
433.187	7906.52
433.394	7967.96
433.601	8547.54
433.808	8488.15
434.016	8488.15
434.223	8834.25
434.43	9336.01
434.637	9227.46
434.844	9813.18
435.052	10110.14
435.259	9837.76
435.466	10124.47
435.673	9983.16
435.88	10521.78
436.087	10992.81
436.294	11150.51
436.501	10933.42
436.708	11111.6
436.915	11541.67
437.122	11932.83
437.329	11871.39
437.537	12352.66
437.743	12528.79
437.95	12506.26
438.157	13028.49
438.364	13442.18
438.571	13634.69
438.778	13835.39
438.985	14873.71
439.192	14171.26
439.399	14773.36
439.606	14511.22
439.813	15027.31
440.02	16184.41
440.227	15912.03
440.433	15697
440.64	16114.78
440.847	16198.75
441.054	16628.82
441.261	17507.4
441.467	17390.67
441.674	17744.97
441.881	18451.52
442.088	18000.96
442.294	18123.84
442.501	18682.94
442.708	19100.72
442.914	19547.18
443.121	20644.89
443.328	20065.32
443.534	21728.27
443.741	20620.31
443.948	20673.56
444.154	22356.99
444.361	22000.65
444.568	22375.42
444.774	22281.22
444.981	22273.03
445.187	23145.46
445.394	24007.65
445.6	23716.84
445.807	26129.35
446.013	24787.93
446.22	25416.66
446.426	25936.84
446.633	26647.49
446.839	27321.27
447.046	26172.36
447.252	27739.05
447.459	28130.22
447.665	27503.54
447.871	28728.22
448.078	30094.22
448.284	28814.24
448.491	29631.38
448.697	30628.74
448.903	31460.21
449.11	31472.5
449.316	30651.27
449.522	31181.69
449.728	32090.99
449.935	32535.4
450.141	31697.78
450.347	33143.64
450.553	31880.05
450.76	32639.84
450.966	33463.13
451.172	33096.54
451.378	33876.82
451.584	33375.06
451.791	33854.29
451.997	33622.87
452.203	34212.68
452.409	34528.07
452.615	34282.31
452.821	32865.12
453.027	32705.38
453.233	34423.62
453.44	32797.54
453.646	33221.47
453.852	33676.12
454.058	34179.92
454.264	32590.69
454.47	33590.1
454.676	32639.84
454.882	33829.71
455.088	31064.96
455.294	31542.13
455.5	32054.12
455.705	32328.55
455.911	30753.66
456.117	30739.33
456.323	29690.77
456.529	28212.13
456.735	29522.83
456.941	28756.89
457.147	28335.01
457.352	27673.52
457.558	27091.9
457.764	27100.09
457.97	26622.91
458.176	25840.59
458.381	26209.22
458.587	24712.16
458.793	24957.91
458.999	23481.33
459.204	25066.45
459.41	24382.43
459.616	22643.71
459.821	23325.68
460.027	22848.5
460.233	22332.42
460.438	21187.6
460.644	21359.63
460.85	20327.46
461.055	20165.67
461.261	20399.13
461.466	18500.67
461.672	17910.85
461.878	19698.73
462.083	18205.76
462.289	17744.97
462.494	17441.87
462.7	16837.72
462.905	16610.39
463.111	16843.86
463.316	17171.54
463.522	16655.45
463.727	16342.11
463.932	16311.39
464.138	16387.16
464.343	16563.29
464.549	15823.97
464.754	16491.61
464.959	16694.36
465.165	16325.72
465.37	15879.27
465.575	15189.1
465.781	15836.26
465.986	16069.73
466.191	15125.61
466.397	14924.91
466.602	14498.94
466.807	15006.83
467.012	14763.12
467.218	14617.72
467.423	14670.97
467.628	14685.3
