Data from USB4F104151__37__11-30-18-513.txt Node

Date: Fri Mar 14 11:30:18 EDT 2025
User: louis
Spectrometer: USB4F10415
Trigger mode: 4
Integration Time (sec): 5.000000E-2
Scans to average: 1
Electric dark correction enabled: true
Nonlinearity correction enabled: false
Boxcar width: 0
XAxis mode: Wavelengths
Number of Pixels in Spectrum: 3648
>>>>>Begin Spectral Data<<<<<
178.204	-49.83
178.424	-49.83
178.644	-49.83
178.864	-172.71
179.084	-156.33
179.304	-49.83
179.524	52.56
179.744	-62.12
179.964	71
180.184	-29.35
180.404	15.7
180.624	11.61
180.844	13.65
181.064	-31.4
181.283	-6.83
181.503	-21.16
181.723	36.18
181.943	25.94
182.163	105.81
182.383	101.72
182.602	124.24
182.822	107.86
183.042	44.37
183.262	-53.93
183.482	19.8
183.701	83.28
183.921	66.9
184.141	40.28
184.361	95.57
184.58	91.48
184.8	9.56
185.02	17.75
185.239	52.56
185.459	15.7
185.679	34.13
185.898	62.8
186.118	-12.97
186.338	40.28
186.557	27.99
186.777	-31.4
186.997	56.66
187.216	-39.59
187.436	75.09
187.655	11.61
187.875	64.85
188.095	42.32
188.314	-31.4
188.534	54.61
188.753	46.42
188.973	75.09
189.192	122.2
189.412	3.41
189.631	-29.35
189.851	44.37
190.07	23.89
190.29	-15.02
190.509	15.7
190.729	48.47
190.948	44.37
191.168	144.72
191.387	109.91
191.607	-15.02
191.826	19.8
192.045	66.9
192.265	-6.83
192.484	3.41
192.704	34.13
192.923	11.61
193.142	118.1
193.362	95.57
193.581	146.77
193.8	101.72
194.02	44.37
194.239	42.32
194.458	91.48
194.678	-17.07
194.897	73.04
195.116	-33.45
195.335	91.48
195.555	23.89
195.774	3.41
195.993	56.66
196.212	3.41
196.432	60.76
196.651	60.76
196.87	36.18
197.089	62.8
197.308	91.48
197.528	91.48
197.747	11.61
197.966	50.52
198.185	99.67
198.404	7.51
198.623	95.57
198.842	27.99
199.062	93.52
199.281	77.14
199.5	19.8
199.719	7.51
199.938	134.48
200.157	44.37
200.376	40.28
200.595	25.94
200.814	44.37
201.033	36.18
201.252	130.39
201.471	81.24
201.69	50.52
201.909	5.46
202.128	101.72
202.347	142.68
202.566	79.19
202.785	-66.22
203.004	-6.83
203.223	163.15
203.442	27.99
203.661	19.8
203.879	27.99
204.098	101.72
204.317	9.56
204.536	66.9
204.755	-0.68
204.974	85.33
205.193	77.14
205.411	146.77
205.63	42.32
205.849	124.24
206.068	109.91
206.287	66.9
206.505	118.1
206.724	1.37
206.943	-0.68
207.162	36.18
207.381	-4.78
207.599	-31.4
207.818	48.47
208.037	48.47
208.255	105.81
208.474	99.67
208.693	66.9
208.911	66.9
209.13	11.61
209.349	60.76
209.567	-21.16
209.786	107.86
210.005	32.08
210.223	3.41
210.442	-33.45
210.661	19.8
210.879	107.86
211.098	77.14
211.316	19.8
211.535	114
211.753	44.37
211.972	48.47
212.191	54.61
212.409	44.37
212.628	23.89
212.846	-33.45
213.065	97.62
213.283	89.43
213.502	66.9
213.72	34.13
213.938	48.47
214.157	11.61
214.375	56.66
214.594	7.51
214.812	44.37
215.031	50.52
215.249	15.7
215.467	42.32
215.686	9.56
215.904	154.96
216.122	-60.07
216.341	81.24
216.559	38.23
216.778	107.86
216.996	48.47
217.214	140.63
217.432	118.1
217.651	36.18
217.869	50.52
218.087	36.18
218.306	64.85
218.524	36.18
218.742	-0.68
218.96	77.14
219.179	19.8
219.397	52.56
219.615	73.04
219.833	21.84
220.051	-41.64
220.27	142.68
220.488	60.76
220.706	73.04
220.924	-0.68
221.142	107.86
221.36	44.37
221.578	79.19
221.796	-10.92
222.015	56.66
222.233	-21.16
222.451	91.48
222.669	56.66
222.887	15.7
223.105	-31.4
223.323	-43.69
223.541	-45.74
223.759	73.04
223.977	44.37
224.195	132.44
224.413	25.94
224.631	19.8
224.849	11.61
225.067	132.44
225.285	95.57
225.503	56.66
225.721	68.95
225.939	116.05
226.157	3.41
226.375	144.72
226.592	-37.55
226.81	48.47
227.028	60.76
227.246	101.72
227.464	73.04
227.682	25.94
227.9	93.52
228.117	50.52
228.335	52.56
228.553	13.65
228.771	85.33
228.989	73.04
229.206	52.56
229.424	17.75
229.642	9.56
229.86	17.75
230.077	107.86
230.295	9.56
230.513	27.99
230.731	40.28
230.948	116.05
231.166	71
231.384	77.14
231.601	23.89
231.819	89.43
232.037	-2.73
232.254	27.99
232.472	46.42
232.689	-37.55
232.907	25.94
233.125	-4.78
233.342	46.42
233.56	68.95
233.777	7.51
233.995	7.51
234.213	77.14
234.43	62.8
234.648	73.04
234.865	11.61
235.083	58.71
235.3	27.99
235.518	36.18
235.735	97.62
235.953	87.38
236.17	23.89
236.388	3.41
236.605	73.04
236.822	52.56
237.04	83.28
237.257	56.66
237.475	27.99
237.692	56.66
237.909	101.72
238.127	-19.11
238.344	87.38
238.562	89.43
238.779	-47.79
238.996	9.56
239.214	58.71
239.431	15.7
239.648	5.46
239.865	97.62
240.083	56.66
240.3	56.66
240.517	19.8
240.735	73.04
240.952	23.89
241.169	109.91
241.386	105.81
241.603	3.41
241.821	1.37
242.038	34.13
242.255	126.29
242.472	118.1
242.689	50.52
242.907	93.52
243.124	-12.97
243.341	3.41
243.558	-12.97
243.775	-70.31
243.992	11.61
244.209	75.09
244.426	64.85
244.643	27.99
244.86	103.76
245.078	-8.87
245.295	83.28
245.512	21.84
245.729	52.56
245.946	77.14
246.163	-2.73
246.38	77.14
246.597	50.52
246.814	146.77
247.031	-10.92
247.248	91.48
247.464	11.61
247.681	11.61
247.898	60.76
248.115	19.8
248.332	-6.83
248.549	114
248.766	64.85
248.983	95.57
249.2	25.94
249.417	118.1
249.633	64.85
249.85	-4.78
250.067	79.19
250.284	73.04
250.501	15.7
250.717	101.72
250.934	11.61
251.151	62.8
251.368	-0.68
251.585	120.15
251.801	27.99
252.018	68.95
252.235	60.76
252.451	34.13
252.668	-62.12
252.885	30.04
253.102	146.77
253.318	116.05
253.535	36.18
253.752	52.56
253.968	-17.07
254.185	-4.78
254.401	75.09
254.618	81.24
254.835	75.09
255.051	36.18
255.268	27.99
255.484	77.14
255.701	27.99
255.917	56.66
256.134	89.43
256.351	75.09
256.567	-0.68
256.784	150.87
257	44.37
257.217	42.32
257.433	27.99
257.65	48.47
257.866	73.04
258.082	-62.12
258.299	56.66
258.515	15.7
258.732	44.37
258.948	-53.93
259.165	19.8
259.381	34.13
259.597	68.95
259.814	44.37
260.03	73.04
260.246	7.51
260.463	64.85
260.679	30.04
260.895	32.08
261.112	73.04
261.328	50.52
261.544	40.28
261.761	99.67
261.977	-4.78
262.193	48.47
262.409	91.48
262.626	32.08
262.842	-15.02
263.058	25.94
263.274	-8.87
263.49	60.76
263.707	68.95
263.923	99.67
264.139	-49.83
264.355	-17.07
264.571	34.13
264.787	27.99
265.004	116.05
265.22	17.75
265.436	128.34
265.652	-8.87
265.868	77.14
266.084	36.18
266.3	66.9
266.516	17.75
266.732	118.1
266.948	77.14
267.164	52.56
267.38	103.76
267.596	17.75
267.812	68.95
268.028	58.71
268.244	50.52
268.46	27.99
268.676	3.41
268.892	15.7
269.108	54.61
269.324	60.76
269.54	17.75
269.756	40.28
269.972	52.56
270.188	-6.83
270.403	21.84
270.619	68.95
270.835	85.33
271.051	-31.4
271.267	13.65
271.483	46.42
271.698	17.75
271.914	150.87
272.13	30.04
272.346	116.05
272.562	-62.12
272.777	79.19
272.993	-19.11
273.209	11.61
273.425	27.99
273.64	42.32
273.856	118.1
274.072	44.37
274.287	60.76
274.503	40.28
274.719	1.37
274.934	58.71
275.15	-0.68
275.366	56.66
275.581	19.8
275.797	85.33
276.012	34.13
276.228	34.13
276.444	27.99
276.659	89.43
276.875	36.18
277.09	85.33
277.306	-0.68
277.521	64.85
277.737	34.13
277.952	44.37
278.168	105.81
278.383	89.43
278.599	-17.07
278.814	3.41
279.03	58.71
279.245	85.33
279.461	25.94
279.676	56.66
279.892	-23.21
280.107	15.7
280.322	83.28
280.538	73.04
280.753	-4.78
280.969	150.87
281.184	32.08
281.399	99.67
281.615	9.56
281.83	52.56
282.045	-8.87
282.26	17.75
282.476	-4.78
282.691	101.72
282.906	48.47
283.122	27.99
283.337	77.14
283.552	56.66
283.767	50.52
283.983	58.71
284.198	30.04
284.413	71
284.628	-41.64
284.843	19.8
285.058	91.48
285.274	85.33
285.489	-29.35
285.704	19.8
285.919	23.89
286.134	83.28
286.349	44.37
286.564	68.95
286.779	46.42
286.995	101.72
287.21	-39.59
287.425	15.7
287.64	27.99
287.855	38.23
288.07	32.08
288.285	140.63
288.5	32.08
288.715	52.56
288.93	-29.35
289.145	11.61
289.36	85.33
289.575	-0.68
289.79	64.85
290.004	42.32
290.219	19.8
290.434	52.56
290.649	89.43
290.864	13.65
291.079	36.18
291.294	68.95
291.509	27.99
291.724	-17.07
291.938	107.86
292.153	73.04
292.368	-12.97
292.583	34.13
292.798	32.08
293.012	150.87
293.227	75.09
293.442	-15.02
293.657	83.28
293.871	101.72
294.086	11.61
294.301	58.71
294.516	93.52
294.73	-15.02
294.945	11.61
295.16	64.85
295.374	42.32
295.589	40.28
295.804	58.71
296.018	56.66
296.233	17.75
296.447	122.2
296.662	97.62
296.877	75.09
297.091	44.37
297.306	25.94
297.52	1.37
297.735	-17.07
297.949	19.8
298.164	93.52
298.378	64.85
298.593	3.41
298.807	23.89
299.022	71
299.236	85.33
299.451	71
299.665	50.52
299.88	85.33
300.094	99.67
300.309	21.84
300.523	-4.78
300.737	17.75
300.952	19.8
301.166	91.48
301.381	32.08
301.595	27.99
301.809	58.71
302.024	34.13
302.238	-2.73
302.452	30.04
302.667	40.28
302.881	60.76
303.095	85.33
303.309	75.09
303.524	25.94
303.738	34.13
303.952	15.7
304.166	-0.68
304.381	-37.55
304.595	126.29
304.809	1.37
305.023	68.95
305.237	-4.78
305.452	89.43
305.666	44.37
305.88	132.44
306.094	60.76
306.308	89.43
306.522	40.28
306.736	1.37
306.95	85.33
307.164	-25.26
307.379	64.85
307.593	97.62
307.807	50.52
308.021	103.76
308.235	52.56
308.449	27.99
308.663	62.8
308.877	136.53
309.091	116.05
309.305	15.7
309.519	-58.03
309.733	146.77
309.947	-39.59
310.161	-6.83
310.374	68.95
310.588	85.33
310.802	3.41
311.016	-12.97
311.23	-41.64
311.444	7.51
311.658	27.99
311.872	87.38
312.085	101.72
312.299	42.32
312.513	68.95
312.727	114
312.941	27.99
313.154	44.37
313.368	148.82
313.582	3.41
313.796	75.09
314.009	79.19
314.223	109.91
314.437	68.95
314.651	52.56
314.864	107.86
315.078	13.65
315.292	58.71
315.505	15.7
315.719	101.72
315.933	85.33
316.146	-12.97
316.36	42.32
316.573	68.95
316.787	71
317.001	71
317.214	-17.07
317.428	11.61
317.641	40.28
317.855	85.33
318.068	13.65
318.282	44.37
318.495	79.19
318.709	81.24
318.922	3.41
319.136	-4.78
319.349	111.96
319.563	75.09
319.776	91.48
319.99	-66.22
320.203	27.99
320.417	130.39
320.63	60.76
320.843	44.37
321.057	42.32
321.27	-6.83
321.483	60.76
321.697	77.14
321.91	27.99
322.124	109.91
322.337	-12.97
322.55	34.13
322.763	75.09
322.977	81.24
323.19	52.56
323.403	25.94
323.617	62.8
323.83	64.85
324.043	95.57
324.256	60.76
324.469	44.37
324.683	58.71
324.896	79.19
325.109	95.57
325.322	-17.07
325.535	77.14
325.748	52.56
325.962	34.13
326.175	77.14
326.388	56.66
326.601	134.48
326.814	50.52
327.027	-4.78
327.24	101.72
327.453	-35.5
327.666	62.8
327.879	30.04
328.092	-15.02
328.305	42.32
328.518	15.7
328.731	50.52
328.944	27.99
329.157	68.95
329.37	73.04
329.583	73.04
329.796	93.52
330.009	50.52
330.222	19.8
330.435	134.48
330.648	-2.73
330.861	91.48
331.073	30.04
331.286	64.85
331.499	60.76
331.712	58.71
331.925	-12.97
332.138	27.99
332.35	79.19
332.563	105.81
332.776	111.96
332.989	19.8
333.202	71
333.414	58.71
333.627	62.8
333.84	44.37
334.053	116.05
334.265	54.61
334.478	44.37
334.691	75.09
334.903	50.52
335.116	-12.97
335.329	25.94
335.541	44.37
335.754	91.48
335.966	120.15
336.179	118.1
336.392	9.56
336.604	3.41
336.817	60.76
337.029	79.19
337.242	107.86
337.454	34.13
337.667	17.75
337.88	52.56
338.092	42.32
338.305	3.41
338.517	23.89
338.729	79.19
338.942	124.24
339.154	27.99
339.367	71
339.579	27.99
339.792	40.28
340.004	44.37
340.217	68.95
340.429	17.75
340.641	36.18
340.854	36.18
341.066	52.56
341.278	44.37
341.491	89.43
341.703	122.2
341.915	27.99
342.128	73.04
342.34	36.18
342.552	44.37
342.764	64.85
342.977	19.8
343.189	19.8
343.401	30.04
343.613	-64.17
343.826	7.51
344.038	7.51
344.25	77.14
344.462	-4.78
344.674	60.76
344.886	83.28
345.099	138.58
345.311	93.52
345.523	36.18
345.735	-43.69
345.947	30.04
346.159	52.56
346.371	7.51
346.583	-19.11
346.795	101.72
347.007	-64.17
347.219	17.75
347.431	36.18
347.643	25.94
347.855	44.37
348.067	99.67
348.279	-15.02
348.491	40.28
348.703	109.91
348.915	3.41
349.127	44.37
349.339	17.75
349.551	79.19
349.763	66.9
349.975	95.57
350.187	126.29
350.399	81.24
350.61	111.96
350.822	44.37
351.034	-4.78
351.246	48.47
351.458	-23.21
351.669	-15.02
351.881	93.52
352.093	109.91
352.305	19.8
352.517	50.52
352.728	79.19
352.94	68.95
353.152	52.56
353.363	-17.07
353.575	71
353.787	118.1
353.999	64.85
354.21	109.91
354.422	40.28
354.633	19.8
354.845	99.67
355.057	99.67
355.268	101.72
355.48	68.95
355.692	-0.68
355.903	48.47
356.115	85.33
356.326	-84.65
356.538	116.05
356.749	109.91
356.961	97.62
357.172	105.81
357.384	77.14
357.595	134.48
357.807	42.32
358.018	30.04
358.23	68.95
358.441	109.91
358.653	68.95
358.864	109.91
359.075	77.14
359.287	21.84
359.498	85.33
359.709	-2.73
359.921	56.66
360.132	52.56
360.344	73.04
360.555	68.95
360.766	99.67
360.977	23.89
361.189	95.57
361.4	64.85
361.611	19.8
361.823	85.33
362.034	81.24
362.245	52.56
362.456	77.14
362.667	77.14
362.879	81.24
363.09	89.43
363.301	40.28
363.512	79.19
363.723	-17.07
363.935	42.32
364.146	159.06
364.357	3.41
364.568	25.94
364.779	23.89
364.99	101.72
365.201	36.18
365.412	7.51
365.623	68.95
365.834	60.76
366.045	56.66
366.256	68.95
366.467	81.24
366.678	48.47
366.889	64.85
367.1	83.28
367.311	77.14
367.522	64.85
367.733	-8.87
367.944	23.89
368.155	77.14
368.366	44.37
368.577	19.8
368.788	167.25
368.999	91.48
369.209	114
369.42	165.2
369.631	25.94
369.842	56.66
370.053	-4.78
370.264	54.61
370.474	81.24
370.685	52.56
370.896	97.62
371.107	77.14
371.317	58.71
371.528	17.75
371.739	66.9
371.95	38.23
372.16	3.41
372.371	30.04
372.582	56.66
372.792	48.47
373.003	-0.68
373.214	15.7
373.424	77.14
373.635	-12.97
373.846	73.04
374.056	25.94
374.267	1.37
374.477	66.9
374.688	58.71
374.898	19.8
375.109	71
375.319	71
375.53	83.28
375.74	27.99
375.951	27.99
376.161	60.76
376.372	91.48
376.582	32.08
376.793	77.14
377.003	15.7
377.214	79.19
377.424	60.76
377.635	-70.31
377.845	-19.11
378.055	85.33
378.266	68.95
378.476	60.76
378.686	11.61
378.897	68.95
379.107	97.62
379.317	60.76
379.528	19.8
379.738	101.72
379.948	52.56
380.158	136.53
380.369	73.04
380.579	105.81
380.789	38.23
380.999	73.04
381.21	77.14
381.42	89.43
381.63	32.08
381.84	66.9
382.05	124.24
382.261	118.1
382.471	23.89
382.681	52.56
382.891	116.05
383.101	54.61
383.311	32.08
383.521	101.72
383.731	148.82
383.941	-6.83
384.151	7.51
384.361	50.52
384.571	27.99
384.781	52.56
384.991	116.05
385.201	126.29
385.411	87.38
385.621	66.9
385.831	77.14
386.041	-4.78
386.251	60.76
386.461	50.52
386.671	-29.35
386.881	7.51
387.091	42.32
387.301	122.2
387.511	42.32
387.72	68.95
387.93	30.04
388.14	-29.35
388.35	19.8
388.56	19.8
388.769	73.04
388.979	9.56
389.189	-0.68
389.399	56.66
389.609	46.42
389.818	85.33
390.028	50.52
390.238	44.37
390.447	3.41
390.657	130.39
390.867	142.68
391.076	71
391.286	36.18
391.496	48.47
391.705	52.56
391.915	44.37
392.125	60.76
392.334	99.67
392.544	109.91
392.753	77.14
392.963	73.04
393.172	58.71
393.382	50.52
393.591	77.14
393.801	81.24
394.01	116.05
394.22	107.86
394.429	19.8
394.639	54.61
394.848	75.09
395.058	109.91
395.267	52.56
395.477	36.18
395.686	101.72
395.895	200.02
396.105	163.15
396.314	150.87
396.524	118.1
396.733	109.91
396.942	36.18
397.152	83.28
397.361	105.81
397.57	91.48
397.78	66.9
397.989	19.8
398.198	130.39
398.407	91.48
398.617	126.29
398.826	66.9
399.035	54.61
399.244	93.52
399.453	93.52
399.663	85.33
399.872	171.35
400.081	73.04
400.29	142.68
400.499	60.76
400.708	114
400.917	157.01
401.127	3.41
401.336	89.43
401.545	105.81
401.754	52.56
401.963	146.77
402.172	23.89
402.381	17.75
402.59	136.53
402.799	79.19
403.008	85.33
403.217	167.25
403.426	87.38
403.635	56.66
403.844	138.58
404.053	54.61
404.262	40.28
404.471	163.15
404.68	103.76
404.888	40.28
405.097	97.62
405.306	99.67
405.515	85.33
405.724	136.53
405.933	181.59
406.142	134.48
406.35	144.72
406.559	163.15
406.768	230.74
406.977	181.59
407.185	109.91
407.394	249.17
407.603	87.38
407.812	146.77
408.02	167.25
408.229	195.92
408.438	191.83
408.646	161.11
408.855	224.59
409.064	247.12
409.272	204.11
409.481	212.31
409.69	197.97
409.898	175.44
410.107	261.46
410.315	181.59
410.524	177.49
410.733	277.84
410.941	220.5
411.15	337.23
411.358	351.57
411.567	363.86
411.775	322.9
411.984	312.66
412.192	310.61
412.401	312.66
412.609	427.34
412.818	361.81
413.026	349.52
413.234	339.28
413.443	404.82
413.651	302.42
413.86	320.85
414.068	466.25
414.276	423.25
414.485	388.43
414.693	384.34
414.901	542.03
415.11	468.3
415.318	396.62
415.526	535.89
415.734	591.18
415.943	515.41
416.151	605.52
416.359	519.5
416.567	683.34
416.776	550.22
416.984	623.95
417.192	718.15
417.4	716.11
417.608	730.44
417.817	744.78
418.025	757.07
418.233	830.79
418.441	771.4
418.649	853.32
418.857	879.94
419.065	941.38
419.273	861.51
419.481	910.66
419.689	1076.55
419.897	996.68
420.105	978.25
420.313	1051.97
420.521	1125.7
420.729	1164.61
420.937	1076.55
421.145	1240.39
421.353	1213.76
421.561	1350.98
421.769	1371.46
421.977	1375.55
422.185	1475.9
422.393	1494.33
422.601	1584.45
422.809	1668.41
423.017	1486.14
423.224	1707.32
423.432	1819.96
423.64	1686.84
423.848	1807.67
424.056	1840.44
424.263	1946.94
424.471	1944.89
424.679	1940.79
424.887	2039.09
425.094	2116.92
425.302	2125.11
425.51	2266.42
425.718	2370.87
425.925	2395.44
426.133	2473.26
426.341	2540.85
426.548	2624.81
426.756	2678.06
426.964	2622.77
427.171	2706.73
427.379	2845.99
427.586	3071.27
427.794	3181.86
428.001	3327.27
428.209	3306.79
428.417	3405.09
428.624	3648.8
428.832	3613.98
429.039	3509.54
429.247	3429.66
429.454	3714.33
429.662	4082.97
429.869	3837.21
430.076	4015.38
430.284	3927.32
430.491	4183.32
430.699	4230.42
430.906	4357.39
431.114	4295.96
431.321	4560.14
431.528	4713.74
431.736	4988.17
431.943	5238.02
432.15	5057.8
432.358	5111.05
432.565	5459.2
432.772	5188.87
432.979	5647.62
433.187	5639.42
433.394	5760.25
433.601	6149.37
433.808	6122.74
434.016	6053.11
434.223	6438.13
434.43	6722.8
434.637	6753.52
434.844	7052.52
435.052	7087.34
435.259	7269.61
435.466	7324.9
435.673	7093.48
435.88	7646.43
436.087	7941.34
436.294	8031.45
436.501	7773.41
436.708	8025.31
436.915	8221.91
437.122	8555.73
437.329	8619.22
437.537	8897.74
437.743	9184.46
437.95	8991.95
438.157	9592
438.364	9635.01
438.571	9647.3
438.778	9596.1
438.985	10736.82
439.192	10341.56
439.399	10669.23
439.606	10536.12
439.813	10908.85
440.02	11633.83
440.227	11431.08
440.433	11289.77
440.64	11594.92
440.847	11381.93
441.054	11986.08
441.261	12881.04
441.467	12676.24
441.674	12829.84
441.881	13022.35
442.088	13110.41
442.294	13157.52
442.501	13501.58
442.708	13683.84
442.914	14111.87
443.121	15010.93
443.328	14570.61
443.534	15453.29
443.741	15117.42
443.948	14732.4
444.154	15649.89
444.361	15899.75
444.568	15926.37
444.774	16079.97
444.981	16141.41
445.187	16581.72
445.394	17245.26
445.6	17073.23
445.807	18601.02
446.013	18089.03
446.22	18283.58
446.426	18965.56
446.633	18900.02
446.839	19645.48
447.046	18715.7
447.252	20098.08
447.459	19837.99
447.665	20122.66
447.871	20880.41
448.078	21652.49
448.284	20687.9
448.491	20968.47
448.697	21849.1
448.903	22678.52
449.11	22694.91
449.316	21916.68
449.522	22287.36
449.728	23147.51
449.935	23116.79
450.141	23059.45
450.347	23661.55
450.553	22932.47
450.76	23393.26
450.966	23954.41
451.172	23718.89
451.378	24503.26
451.584	23970.79
451.791	24374.24
451.997	24224.74
452.203	24765.4
452.409	24636.38
452.615	24556.51
452.821	23542.77
453.027	23491.57
453.233	24734.68
453.44	23436.27
453.646	23796.71
453.852	23778.28
454.058	24183.78
454.264	23473.14
454.47	24241.12
454.676	23522.29
454.882	24294.37
455.088	22096.9
455.294	22445.05
455.5	22729.72
455.705	22981.62
455.911	21933.06
456.117	21593.1
456.323	21287.95
456.529	20139.04
456.735	20995.09
456.941	20466.72
457.147	19946.53
457.352	19428.4
457.558	19047.47
457.764	19393.58
457.97	18838.58
458.176	18226.24
458.381	18422.84
458.587	17796.17
458.793	17337.42
458.999	16673.88
459.204	17990.72
459.41	17275.98
459.616	16235.61
459.821	16227.42
460.027	16409.69
460.233	15854.69
460.438	15232.11
460.644	15299.69
460.85	14539.9
461.055	14269.56
461.261	14318.71
461.466	13237.39
461.672	12835.99
461.878	13681.8
462.083	12885.14
462.289	12565.65
462.494	12475.54
462.7	11998.37
462.905	11422.89
463.111	12035.23
463.316	11881.63
463.522	11826.34
463.727	11717.79
463.932	11590.82
464.138	11564.2
464.343	11697.31
464.549	11170.99
464.754	11644.07
464.959	11635.88
465.165	11467.94
465.37	10968.24
465.575	10724.53
465.781	11209.9
465.986	11267.24
466.191	10652.85
466.397	10511.54
466.602	10157.24
466.807	10548.4
467.012	10439.86
467.218	10237.11
467.423	10343.61
467.628	10140.86
467.833	10583.22
468.038	10267.83
468.244	10216.63
