Data from USB4F104151__4__11-29-30-669.txt Node

Date: Fri Mar 14 11:29:30 EDT 2025
User: louis
Spectrometer: USB4F10415
Trigger mode: 4
Integration Time (sec): 5.000000E-2
Scans to average: 1
Electric dark correction enabled: true
Nonlinearity correction enabled: false
Boxcar width: 0
XAxis mode: Wavelengths
Number of Pixels in Spectrum: 3648
>>>>>Begin Spectral Data<<<<<
178.204	-128
178.424	-128
178.644	-128
178.864	-189.44
179.084	-140.29
179.304	-7.17
179.524	-41.98
179.744	15.36
179.964	13.31
180.184	31.74
180.404	39.94
180.624	7.17
180.844	-35.84
181.064	-54.27
181.283	33.79
181.503	-58.37
181.723	56.32
181.943	-29.7
182.163	89.09
182.383	70.65
182.602	50.18
182.822	41.98
183.042	19.46
183.262	44.03
183.482	105.47
183.701	-13.31
183.921	52.22
184.141	58.37
184.361	37.89
184.58	27.65
184.8	-48.13
185.02	-15.36
185.239	17.41
185.459	1.02
185.679	27.65
185.898	-21.5
186.118	130.05
186.338	93.18
186.557	52.22
186.777	-5.12
186.997	35.84
187.216	-31.74
187.436	58.37
187.655	-13.31
187.875	84.99
188.095	50.18
188.314	99.33
188.534	89.09
188.753	-5.12
188.973	109.57
189.192	41.98
189.412	17.41
189.631	9.22
189.851	72.7
190.07	80.89
190.29	11.26
190.509	-29.7
190.729	15.36
190.948	-3.07
191.168	232.44
191.387	99.33
191.607	44.03
191.826	93.18
192.045	23.55
192.265	-29.7
192.484	35.84
192.704	35.84
192.923	-5.12
193.142	64.51
193.362	58.37
193.581	72.7
193.8	74.75
194.02	3.07
194.239	48.13
194.458	74.75
194.678	33.79
194.897	35.84
195.116	23.55
195.335	68.61
195.555	-25.6
195.774	115.71
195.993	44.03
196.212	27.65
196.432	132.09
196.651	-35.84
196.87	-31.74
197.089	166.91
197.308	52.22
197.528	27.65
197.747	-50.18
197.966	72.7
198.185	107.52
198.404	27.65
198.623	87.04
198.842	99.33
199.062	52.22
199.281	19.46
199.5	-39.94
199.719	9.22
199.938	-1.02
200.157	84.99
200.376	19.46
200.595	113.66
200.814	15.36
201.033	17.41
201.252	191.49
201.471	7.17
201.69	91.13
201.909	39.94
202.128	66.56
202.347	-25.6
202.566	23.55
202.785	-25.6
203.004	74.75
203.223	72.7
203.442	52.22
203.661	23.55
203.879	1.02
204.098	117.76
204.317	-7.17
204.536	101.37
204.755	52.22
204.974	70.65
205.193	19.46
205.411	113.66
205.63	17.41
205.849	41.98
206.068	84.99
206.287	48.13
206.505	76.8
206.724	80.89
206.943	76.8
207.162	1.02
207.381	19.46
207.599	1.02
207.818	105.47
208.037	76.8
208.255	19.46
208.474	113.66
208.693	50.18
208.911	125.95
209.13	70.65
209.349	23.55
209.567	82.94
209.786	68.61
210.005	17.41
210.223	27.65
210.442	39.94
210.661	46.08
210.879	31.74
211.098	84.99
211.316	48.13
211.535	164.86
211.753	72.7
211.972	9.22
212.191	-7.17
212.409	52.22
212.628	68.61
212.846	44.03
213.065	109.57
213.283	117.76
213.502	27.65
213.72	58.37
213.938	1.02
214.157	60.42
214.375	80.89
214.594	17.41
214.812	70.65
215.031	48.13
215.249	66.56
215.467	11.26
215.686	23.55
215.904	52.22
216.122	52.22
216.341	62.46
216.559	13.31
216.778	119.81
216.996	3.07
217.214	35.84
217.432	17.41
217.651	84.99
217.869	93.18
218.087	-13.31
218.306	80.89
218.524	72.7
218.742	66.56
218.96	101.37
219.179	-1.02
219.397	66.56
219.615	125.95
219.833	39.94
220.051	-46.08
220.27	35.84
220.488	23.55
220.706	107.52
220.924	31.74
221.142	35.84
221.36	93.18
221.578	91.13
221.796	48.13
222.015	-9.22
222.233	-5.12
222.451	99.33
222.669	-9.22
222.887	48.13
223.105	-15.36
223.323	50.18
223.541	1.02
223.759	60.42
223.977	76.8
224.195	89.09
224.413	109.57
224.631	35.84
224.849	52.22
225.067	105.47
225.285	52.22
225.503	54.27
225.721	-33.79
225.939	3.07
226.157	105.47
226.375	166.91
226.592	93.18
226.81	37.89
227.028	68.61
227.246	84.99
227.464	-29.7
227.682	46.08
227.9	84.99
228.117	52.22
228.335	115.71
228.553	44.03
228.771	-9.22
228.989	-5.12
229.206	15.36
229.424	1.02
229.642	31.74
229.86	60.42
230.077	101.37
230.295	87.04
230.513	117.76
230.731	179.2
230.948	97.28
231.166	84.99
231.384	25.6
231.601	-13.31
231.819	101.37
232.037	11.26
232.254	19.46
232.472	44.03
232.689	-1.02
232.907	64.51
233.125	27.65
233.342	78.85
233.56	25.6
233.777	35.84
233.995	-13.31
234.213	82.94
234.43	128
234.648	-1.02
234.865	76.8
235.083	15.36
235.3	39.94
235.518	138.24
235.735	101.37
235.953	66.56
236.17	27.65
236.388	78.85
236.605	21.5
236.822	89.09
237.04	130.05
237.257	3.07
237.475	25.6
237.692	17.41
237.909	64.51
238.127	50.18
238.344	5.12
238.562	-9.22
238.779	7.17
238.996	-54.27
239.214	3.07
239.431	37.89
239.648	-7.17
239.865	89.09
240.083	89.09
240.3	44.03
240.517	15.36
240.735	76.8
240.952	54.27
241.169	82.94
241.386	11.26
241.603	25.6
241.821	15.36
242.038	105.47
242.255	23.55
242.472	84.99
242.689	44.03
242.907	121.85
243.124	3.07
243.341	9.22
243.558	11.26
243.775	68.61
243.992	-11.26
244.209	35.84
244.426	138.24
244.643	48.13
244.86	17.41
245.078	60.42
245.295	76.8
245.512	99.33
245.729	60.42
245.946	87.04
246.163	35.84
246.38	37.89
246.597	7.17
246.814	50.18
247.031	48.13
247.248	64.51
247.464	35.84
247.681	7.17
247.898	150.53
248.115	93.18
248.332	-48.13
248.549	11.26
248.766	60.42
248.983	82.94
249.2	17.41
249.417	72.7
249.633	50.18
249.85	68.61
250.067	23.55
250.284	84.99
250.501	7.17
250.717	78.85
250.934	7.17
251.151	41.98
251.368	-17.41
251.585	101.37
251.801	82.94
252.018	72.7
252.235	41.98
252.451	68.61
252.668	121.85
252.885	89.09
253.102	74.75
253.318	58.37
253.535	44.03
253.752	35.84
253.968	9.22
254.185	41.98
254.401	107.52
254.618	39.94
254.835	11.26
255.051	99.33
255.268	37.89
255.484	31.74
255.701	48.13
255.917	109.57
256.134	39.94
256.351	-5.12
256.567	60.42
256.784	89.09
257	52.22
257.217	35.84
257.433	84.99
257.65	60.42
257.866	125.95
258.082	19.46
258.299	76.8
258.515	35.84
258.732	23.55
258.948	17.41
259.165	105.47
259.381	31.74
259.597	60.42
259.814	44.03
260.03	41.98
260.246	39.94
260.463	41.98
260.679	115.71
260.895	39.94
261.112	31.74
261.328	41.98
261.544	21.5
261.761	60.42
261.977	48.13
262.193	29.7
262.409	140.29
262.626	62.46
262.842	-1.02
263.058	-21.5
263.274	99.33
263.49	44.03
263.707	48.13
263.923	-29.7
264.139	35.84
264.355	23.55
264.571	101.37
264.787	56.32
265.004	89.09
265.22	95.23
265.436	-3.07
265.652	-58.37
265.868	68.61
266.084	9.22
266.3	76.8
266.516	37.89
266.732	19.46
266.948	74.75
267.164	1.02
267.38	72.7
267.596	80.89
267.812	101.37
268.028	37.89
268.244	52.22
268.46	56.32
268.676	76.8
268.892	35.84
269.108	-1.02
269.324	17.41
269.54	35.84
269.756	66.56
269.972	-3.07
270.188	60.42
270.403	39.94
270.619	107.52
270.835	72.7
271.051	87.04
271.267	31.74
271.483	27.65
271.698	-17.41
271.914	76.8
272.13	5.12
272.346	66.56
272.562	-25.6
272.777	78.85
272.993	35.84
273.209	48.13
273.425	9.22
273.64	15.36
273.856	62.46
274.072	-15.36
274.287	84.99
274.503	72.7
274.719	27.65
274.934	44.03
275.15	46.08
275.366	44.03
275.581	17.41
275.797	27.65
276.012	95.23
276.228	60.42
276.444	68.61
276.659	105.47
276.875	60.42
277.09	54.27
277.306	-31.74
277.521	101.37
277.737	25.6
277.952	44.03
278.168	39.94
278.383	68.61
278.599	37.89
278.814	-1.02
279.03	17.41
279.245	68.61
279.461	-17.41
279.676	50.18
279.892	1.02
280.107	3.07
280.322	3.07
280.538	76.8
280.753	60.42
280.969	101.37
281.184	9.22
281.399	74.75
281.615	58.37
281.83	1.02
282.045	58.37
282.26	17.41
282.476	82.94
282.691	93.18
282.906	78.85
283.122	52.22
283.337	11.26
283.552	125.95
283.767	44.03
283.983	140.29
284.198	27.65
284.413	62.46
284.628	27.65
284.843	113.66
285.058	52.22
285.274	25.6
285.489	3.07
285.704	19.46
285.919	44.03
286.134	31.74
286.349	25.6
286.564	97.28
286.779	56.32
286.995	130.05
287.21	11.26
287.425	89.09
287.64	9.22
287.855	76.8
288.07	19.46
288.285	78.85
288.5	41.98
288.715	35.84
288.93	19.46
289.145	19.46
289.36	15.36
289.575	52.22
289.79	74.75
290.004	60.42
290.219	111.61
290.434	13.31
290.649	-13.31
290.864	121.85
291.079	-13.31
291.294	3.07
291.509	-13.31
291.724	-25.6
291.938	15.36
292.153	54.27
292.368	44.03
292.583	56.32
292.798	97.28
293.012	29.7
293.227	52.22
293.442	-11.26
293.657	103.42
293.871	64.51
294.086	84.99
294.301	93.18
294.516	44.03
294.73	-31.74
294.945	74.75
295.16	80.89
295.374	150.53
295.589	89.09
295.804	44.03
296.018	48.13
296.233	140.29
296.447	29.7
296.662	23.55
296.877	9.22
297.091	52.22
297.306	76.8
297.52	70.65
297.735	64.51
297.949	72.7
298.164	11.26
298.378	31.74
298.593	56.32
298.807	11.26
299.022	68.61
299.236	76.8
299.451	50.18
299.665	89.09
299.88	66.56
300.094	150.53
300.309	-13.31
300.523	44.03
300.737	64.51
300.952	95.23
301.166	68.61
301.381	-5.12
301.595	-5.12
301.809	91.13
302.024	13.31
302.238	60.42
302.452	130.05
302.667	27.65
302.881	74.75
303.095	142.33
303.309	76.8
303.524	80.89
303.738	11.26
303.952	84.99
304.166	52.22
304.381	-33.79
304.595	101.37
304.809	66.56
305.023	11.26
305.237	39.94
305.452	17.41
305.666	58.37
305.88	11.26
306.094	72.7
306.308	56.32
306.522	125.95
306.736	76.8
306.95	50.18
307.164	156.67
307.379	33.79
307.593	76.8
307.807	41.98
308.021	64.51
308.235	-31.74
308.449	-13.31
308.663	58.37
308.877	117.76
309.091	41.98
309.305	107.52
309.519	-46.08
309.733	-41.98
309.947	19.46
310.161	15.36
310.374	103.42
310.588	101.37
310.802	-48.13
311.016	-19.46
311.23	76.8
311.444	-1.02
311.658	76.8
311.872	54.27
312.085	134.14
312.299	48.13
312.513	101.37
312.727	93.18
312.941	23.55
313.154	5.12
313.368	13.31
313.582	115.71
313.796	76.8
314.009	-13.31
314.223	125.95
314.437	48.13
314.651	109.57
314.864	52.22
315.078	27.65
315.292	-11.26
315.505	74.75
315.719	1.02
315.933	78.85
316.146	-21.5
316.36	19.46
316.573	105.47
316.787	62.46
317.001	70.65
317.214	64.51
317.428	9.22
317.641	11.26
317.855	84.99
318.068	46.08
318.282	50.18
318.495	93.18
318.709	25.6
318.922	35.84
319.136	50.18
319.349	52.22
319.563	23.55
319.776	-21.5
319.99	-19.46
320.203	60.42
320.417	35.84
320.63	25.6
320.843	105.47
321.057	107.52
321.27	66.56
321.483	113.66
321.697	89.09
321.91	58.37
322.124	89.09
322.337	44.03
322.55	50.18
322.763	-21.5
322.977	17.41
323.19	35.84
323.403	60.42
323.617	60.42
323.83	97.28
324.043	80.89
324.256	115.71
324.469	35.84
324.683	68.61
324.896	17.41
325.109	60.42
325.322	-27.65
325.535	103.42
325.748	60.42
325.962	84.99
326.175	-17.41
326.388	89.09
326.601	64.51
326.814	91.13
327.027	3.07
327.24	68.61
327.453	-29.7
327.666	56.32
327.879	9.22
328.092	52.22
328.305	93.18
328.518	-7.17
328.731	68.61
328.944	62.46
329.157	44.03
329.37	72.7
329.583	107.52
329.796	91.13
330.009	19.46
330.222	37.89
330.435	134.14
330.648	97.28
330.861	76.8
331.073	84.99
331.286	19.46
331.499	138.24
331.712	-1.02
331.925	52.22
332.138	109.57
332.35	44.03
332.563	66.56
332.776	44.03
332.989	107.52
333.202	70.65
333.414	60.42
333.627	17.41
333.84	-46.08
334.053	33.79
334.265	11.26
334.478	-11.26
334.691	-5.12
334.903	17.41
335.116	15.36
335.329	99.33
335.541	58.37
335.754	125.95
335.966	41.98
336.179	17.41
336.392	-19.46
336.604	50.18
336.817	91.13
337.029	58.37
337.242	27.65
337.454	103.42
337.667	58.37
337.88	62.46
338.092	9.22
338.305	93.18
338.517	-17.41
338.729	107.52
338.942	91.13
339.154	31.74
339.367	-44.03
339.579	48.13
339.792	35.84
340.004	9.22
340.217	37.89
340.429	76.8
340.641	80.89
340.854	-7.17
341.066	27.65
341.278	62.46
341.491	84.99
341.703	123.9
341.915	19.46
342.128	78.85
342.34	76.8
342.552	44.03
342.764	107.52
342.977	50.18
343.189	52.22
343.401	58.37
343.613	-54.27
343.826	25.6
344.038	11.26
344.25	121.85
344.462	72.7
344.674	89.09
344.886	109.57
345.099	44.03
345.311	44.03
345.523	52.22
345.735	-13.31
345.947	52.22
346.159	76.8
346.371	91.13
346.583	27.65
346.795	93.18
347.007	80.89
347.219	44.03
347.431	80.89
347.643	74.75
347.855	3.07
348.067	93.18
348.279	35.84
348.491	13.31
348.703	52.22
348.915	-29.7
349.127	-25.6
349.339	13.31
349.551	-17.41
349.763	91.13
349.975	13.31
350.187	91.13
350.399	101.37
350.61	37.89
350.822	27.65
351.034	103.42
351.246	54.27
351.458	17.41
351.669	44.03
351.881	60.42
352.093	21.5
352.305	50.18
352.517	89.09
352.728	11.26
352.94	62.46
353.152	56.32
353.363	27.65
353.575	58.37
353.787	74.75
353.999	89.09
354.21	68.61
354.422	93.18
354.633	142.33
354.845	37.89
355.057	74.75
355.268	101.37
355.48	82.94
355.692	21.5
355.903	-31.74
356.115	50.18
356.326	48.13
356.538	97.28
356.749	41.98
356.961	158.72
357.172	3.07
357.384	68.61
357.595	148.48
357.807	82.94
358.018	48.13
358.23	105.47
358.441	128
358.653	80.89
358.864	70.65
359.075	-15.36
359.287	11.26
359.498	37.89
359.709	121.85
359.921	121.85
360.132	103.42
360.344	84.99
360.555	74.75
360.766	134.14
360.977	52.22
361.189	27.65
361.4	9.22
361.611	84.99
361.823	74.75
362.034	35.84
362.245	72.7
362.456	3.07
362.667	132.09
362.879	-48.13
363.09	64.51
363.301	44.03
363.512	84.99
363.723	44.03
363.935	-54.27
364.146	74.75
364.357	-15.36
364.568	68.61
364.779	-5.12
364.99	91.13
365.201	11.26
365.412	134.14
365.623	1.02
365.834	72.7
366.045	72.7
366.256	84.99
366.467	66.56
366.678	-13.31
366.889	44.03
367.1	-19.46
367.311	140.29
367.522	-5.12
367.733	142.33
367.944	60.42
368.155	25.6
368.366	93.18
368.577	91.13
368.788	48.13
368.999	84.99
369.209	76.8
369.42	93.18
369.631	152.57
369.842	150.53
370.053	68.61
370.264	91.13
370.474	68.61
370.685	109.57
370.896	84.99
371.107	134.14
371.317	99.33
371.528	31.74
371.739	27.65
371.95	84.99
372.16	48.13
372.371	1.02
372.582	87.04
372.792	97.28
373.003	41.98
373.214	82.94
373.424	50.18
373.635	80.89
373.846	56.32
374.056	52.22
374.267	101.37
374.477	58.37
374.688	-33.79
374.898	72.7
375.109	68.61
375.319	31.74
375.53	171.01
375.74	58.37
375.951	109.57
376.161	33.79
376.372	121.85
376.582	-21.5
376.793	74.75
377.003	99.33
377.214	66.56
377.424	74.75
377.635	46.08
377.845	19.46
378.055	125.95
378.266	23.55
378.476	15.36
378.686	60.42
378.897	134.14
379.107	115.71
379.317	91.13
379.528	52.22
379.738	11.26
379.948	-9.22
380.158	68.61
380.369	41.98
380.579	113.66
380.789	3.07
380.999	76.8
381.21	70.65
381.42	189.44
381.63	72.7
381.84	84.99
382.05	82.94
382.261	76.8
382.471	76.8
382.681	27.65
382.891	117.76
383.101	35.84
383.311	5.12
383.521	97.28
383.731	103.42
383.941	146.43
384.151	60.42
384.361	72.7
384.571	58.37
384.781	58.37
384.991	134.14
385.201	93.18
385.411	150.53
385.621	41.98
385.831	21.5
386.041	17.41
386.251	-5.12
386.461	132.09
386.671	33.79
386.881	60.42
387.091	9.22
387.301	152.57
387.511	-5.12
387.72	27.65
387.93	68.61
388.14	19.46
388.35	125.95
388.56	87.04
388.769	89.09
388.979	35.84
389.189	44.03
389.399	66.56
389.609	52.22
389.818	64.51
390.028	70.65
390.238	44.03
390.447	58.37
390.657	166.91
390.867	19.46
391.076	19.46
391.286	5.12
391.496	89.09
391.705	72.7
391.915	117.76
392.125	113.66
392.334	60.42
392.544	68.61
392.753	27.65
392.963	58.37
393.172	84.99
393.382	68.61
393.591	99.33
393.801	93.18
394.01	168.96
394.22	25.6
394.429	109.57
394.639	74.75
394.848	150.53
395.058	29.7
395.267	121.85
395.477	93.18
395.686	91.13
395.895	89.09
396.105	128
396.314	101.37
396.524	113.66
396.733	160.77
396.942	144.38
397.152	101.37
397.361	91.13
397.57	52.22
397.78	148.48
397.989	84.99
398.198	183.29
398.407	109.57
398.617	60.42
398.826	113.66
399.035	171.01
399.244	173.05
399.453	72.7
399.663	87.04
399.872	166.91
400.081	99.33
400.29	140.29
400.499	33.79
400.708	109.57
400.917	101.37
401.127	87.04
401.336	162.81
401.545	154.62
401.754	144.38
401.963	105.47
402.172	103.42
402.381	60.42
402.59	134.14
402.799	109.57
403.008	158.72
403.217	136.19
403.426	150.53
403.635	95.23
403.844	166.91
404.053	179.2
404.262	125.95
404.471	158.72
404.68	158.72
404.888	93.18
405.097	134.14
405.306	183.29
405.515	142.33
405.724	179.2
405.933	166.91
406.142	189.44
406.35	166.91
406.559	164.86
406.768	201.72
406.977	181.25
407.185	179.2
407.394	244.73
407.603	128
407.812	257.02
408.02	279.55
408.229	232.44
408.438	277.5
408.646	222.2
408.855	224.25
409.064	297.98
409.272	250.88
409.481	287.74
409.69	267.26
409.898	236.54
410.107	322.56
410.315	351.23
410.524	283.64
410.733	328.7
410.941	295.93
411.15	318.46
411.358	365.56
411.567	400.38
411.775	353.27
411.984	379.9
412.192	412.67
412.401	416.76
412.609	488.44
412.818	461.82
413.026	486.39
413.234	453.63
413.443	459.77
413.651	484.34
413.86	553.98
414.068	648.18
414.276	576.5
414.485	527.35
414.693	654.33
414.901	584.7
415.11	599.03
415.318	678.9
415.526	717.81
415.734	715.77
415.943	691.19
416.151	691.19
416.359	689.14
416.567	777.2
416.776	822.26
416.984	928.75
417.192	955.38
417.4	982
417.608	920.56
417.817	945.14
418.025	943.09
418.233	1100.78
418.441	965.62
418.649	1031.15
418.857	1197.04
419.065	1174.51
419.273	1133.55
419.481	1336.3
419.689	1281
419.897	1354.73
420.105	1270.76
420.313	1555.43
420.521	1459.18
420.729	1565.67
420.937	1631.21
421.145	1584.1
421.353	1682.41
421.561	1706.98
421.769	1649.64
421.977	1897.44
422.185	1754.09
422.393	1985.51
422.601	2153.44
422.809	2161.63
423.017	2048.99
423.224	2157.54
423.432	2253.79
423.64	2186.21
423.848	2474.97
424.056	2366.43
424.263	2659.29
424.471	2702.29
424.679	2722.77
424.887	2808.79
425.094	2876.37
425.302	2972.63
425.51	2976.72
425.718	3140.56
425.925	3130.32
426.133	3341.26
426.341	3609.54
426.548	3498.95
426.756	3529.67
426.964	3521.48
427.171	3951.56
427.379	4029.38
427.586	4033.47
427.794	4074.43
428.001	4352.96
428.209	4504.51
428.417	4340.67
428.624	4721.59
428.832	4828.09
429.039	4897.72
429.247	4744.12
429.454	5155.76
429.662	5456.81
429.869	5129.14
430.076	5585.83
430.284	5399.47
430.491	5751.72
430.699	5921.7
430.906	5868.45
431.114	6024.1
431.321	6427.55
431.528	6392.73
431.736	6744.99
431.943	6929.3
432.15	6837.14
432.358	6790.04
432.565	7381.9
432.772	7275.41
432.979	7889.8
433.187	7660.43
433.394	7768.97
433.601	8330.11
433.808	8405.89
434.016	8252.29
434.223	8772.47
434.43	9347.95
434.637	9012.09
434.844	9657.2
435.052	9888.62
435.259	10017.64
435.466	9700.2
435.673	9669.48
435.88	10503.01
436.087	10814.3
436.294	10863.45
436.501	10634.08
436.708	11023.19
436.915	11242.32
437.122	11782.99
437.329	11539.28
437.537	12223.3
437.743	12159.81
437.95	12268.36
438.157	12813.12
438.364	13296.44
438.571	13259.57
438.778	13497.14
438.985	14605.09
439.192	14029.61
439.399	14570.27
439.606	14031.66
439.813	15092.51
440.02	16147.21
440.227	15676.18
440.433	15362.84
440.64	15948.56
440.847	16059.15
441.054	16179.98
441.261	17580.79
441.467	17275.64
441.674	17576.69
441.881	18123.5
442.088	17984.24
442.294	17842.93
442.501	18191.08
442.708	18834.14
442.914	19327.71
443.121	20314.83
443.328	19661.52
443.534	21177.02
443.741	20742.85
443.948	20294.35
444.154	21858.99
444.361	21703.35
444.568	21988.02
444.774	22031.02
444.981	22174.38
445.187	22776.48
445.394	23808.66
445.6	23356.06
445.807	25748.09
446.013	24263.31
446.22	25078.4
446.426	26026.61
446.633	26014.32
446.839	27017.83
447.046	26038.9
447.252	27292.26
447.459	27294.3
447.665	27353.69
447.871	28715.59
448.078	30018.1
448.284	28346.96
448.491	29334.08
448.697	30431.79
448.903	30964.26
449.11	30716.46
449.316	30300.72
449.522	30526
449.728	31715.87
449.935	32039.45
450.141	31529.5
450.347	32655.89
450.553	31388.19
450.76	31601.18
450.966	32889.35
451.172	32397.84
451.378	33337.86
451.584	32383.51
451.791	33688.06
451.997	33165.83
452.203	33751.55
452.409	33483.27
452.615	33673.73
452.821	32219.67
453.027	31918.62
453.233	33825.28
453.44	32848.39
453.646	32625.17
453.852	32674.32
454.058	33079.82
454.264	31810.07
454.47	32789
454.676	31654.43
454.882	33108.49
455.088	30423.6
455.294	30911.02
455.5	31277.6
455.705	31314.47
455.911	29966.9
456.117	29301.31
456.323	28838.47
456.529	27656.79
456.735	28385.87
456.941	27560.54
457.147	27349.6
457.352	26600.04
457.558	26120.82
457.764	26253.94
457.97	25479.8
458.176	25123.46
458.381	24945.28
458.587	23792.28
458.793	23931.54
458.999	22710.95
459.204	24380.04
459.41	23657.11
459.616	21981.87
459.821	22037.17
460.027	21951.15
460.233	21310.14
460.438	20200.14
460.644	20591.3
460.85	19512.02
461.055	19206.87
461.261	19428.06
461.466	17974
461.672	17541.88
461.878	18649.83
462.083	17298.17
462.289	17124.09
462.494	16775.94
462.7	16190.22
462.905	15579.92
463.111	16370.44
463.316	16173.83
463.522	15938.32
463.727	15934.22
463.932	16091.91
464.138	15655.7
464.343	15760.14
464.549	15121.18
464.754	15799.05
464.959	15702.8
465.165	15702.8
465.37	15123.23
465.575	14605.09
465.781	15340.31
465.986	15307.54
466.191	14631.71
466.397	14369.57
466.602	13628.21
466.807	14365.48
467.012	14140.2
467.218	14002.99
467.423	14000.94
