Data from USB4F104151__0__11-29-27-690.txt Node

Date: Fri Mar 14 11:29:27 EDT 2025
User: louis
Spectrometer: USB4F10415
Trigger mode: 4
Integration Time (sec): 5.000000E-2
Scans to average: 1
Electric dark correction enabled: true
Nonlinearity correction enabled: false
Boxcar width: 0
XAxis mode: Wavelengths
Number of Pixels in Spectrum: 3648
>>>>>Begin Spectral Data<<<<<
178.204	-97.45
178.424	-97.45
178.644	-97.45
178.864	-113.83
179.084	-144.55
179.304	-27.82
179.524	-19.63
179.744	39.76
179.964	60.24
180.184	-64.68
180.404	43.86
180.624	-17.58
180.844	37.72
181.064	-54.44
181.283	13.14
181.503	-36.01
181.723	25.43
181.943	-91.31
182.163	60.24
182.383	-36.01
182.602	23.38
182.822	41.81
183.042	31.57
183.262	23.38
183.482	-3.24
183.701	21.33
183.921	86.87
184.141	29.52
184.361	19.29
184.58	13.14
184.8	-5.29
185.02	-5.29
185.239	58.2
185.459	-1.19
185.679	113.49
185.898	-54.44
186.118	72.53
186.338	-50.35
186.557	21.33
186.777	-5.29
186.997	-33.96
187.216	9.05
187.436	43.86
187.655	50
187.875	29.52
188.095	-38.06
188.314	72.53
188.534	56.15
188.753	101.2
188.973	101.2
189.192	97.11
189.412	29.52
189.631	86.87
189.851	2.9
190.07	129.88
190.29	-25.77
190.509	-1.19
190.729	-11.43
190.948	76.63
191.168	133.97
191.387	95.06
191.607	80.72
191.826	23.38
192.045	-21.67
192.265	37.72
192.484	-1.19
192.704	-31.91
192.923	4.95
193.142	54.1
193.362	74.58
193.581	29.52
193.8	80.72
194.02	97.11
194.239	23.38
194.458	43.86
194.678	-21.67
194.897	37.72
195.116	-66.73
195.335	-33.96
195.555	39.76
195.774	54.1
195.993	-9.39
196.212	-3.24
196.432	62.29
196.651	-95.4
196.87	-19.63
197.089	101.2
197.308	76.63
197.528	95.06
197.747	-42.15
197.966	27.48
198.185	109.4
198.404	78.68
198.623	19.29
198.842	52.05
199.062	29.52
199.281	103.25
199.5	80.72
199.719	43.86
199.938	21.33
200.157	39.76
200.376	41.81
200.595	64.34
200.814	23.38
201.033	56.15
201.252	109.4
201.471	52.05
201.69	101.2
201.909	76.63
202.128	74.58
202.347	39.76
202.566	-9.39
202.785	13.14
203.004	37.72
203.223	97.11
203.442	15.19
203.661	-25.77
203.879	72.53
204.098	-13.48
204.317	-62.63
204.536	64.34
204.755	13.14
204.974	111.44
205.193	54.1
205.411	64.34
205.63	47.96
205.849	62.29
206.068	93.01
206.287	-48.3
206.505	66.39
206.724	-7.34
206.943	58.2
207.162	-13.48
207.381	56.15
207.599	47.96
207.818	-11.43
208.037	-1.19
208.255	60.24
208.474	47.96
208.693	15.19
208.911	7
209.13	-9.39
209.349	-1.19
209.567	9.05
209.786	93.01
210.005	58.2
210.223	23.38
210.442	-9.39
210.661	56.15
210.879	-9.39
211.098	60.24
211.316	11.09
211.535	70.48
211.753	-17.58
211.972	9.05
212.191	-50.35
212.409	-27.82
212.628	66.39
212.846	15.19
213.065	45.91
213.283	52.05
213.502	70.48
213.72	-33.96
213.938	25.43
214.157	74.58
214.375	-25.77
214.594	45.91
214.812	105.3
215.031	15.19
215.249	60.24
215.467	78.68
215.686	4.95
215.904	19.29
216.122	31.57
216.341	113.49
216.559	54.1
216.778	27.48
216.996	52.05
217.214	-36.01
217.432	45.91
217.651	-46.25
217.869	80.72
218.087	66.39
218.306	4.95
218.524	45.91
218.742	7
218.96	-9.39
219.179	62.29
219.397	21.33
219.615	117.59
219.833	-25.77
220.051	-31.91
220.27	33.62
220.488	129.88
220.706	105.3
220.924	23.38
221.142	-31.91
221.36	13.14
221.578	70.48
221.796	-23.72
222.015	-21.67
222.233	17.24
222.451	76.63
222.669	23.38
222.887	56.15
223.105	15.19
223.323	17.24
223.541	29.52
223.759	62.29
223.977	4.95
224.195	9.05
224.413	84.82
224.631	11.09
224.849	21.33
225.067	109.4
225.285	31.57
225.503	-60.59
225.721	-29.87
225.939	101.2
226.157	7
226.375	76.63
226.592	-1.19
226.81	45.91
227.028	21.33
227.246	56.15
227.464	9.05
227.682	25.43
227.9	29.52
228.117	25.43
228.335	31.57
228.553	121.68
228.771	93.01
228.989	31.57
229.206	-3.24
229.424	19.29
229.642	15.19
229.86	15.19
230.077	123.73
230.295	-5.29
230.513	25.43
230.731	80.72
230.948	60.24
231.166	41.81
231.384	19.29
231.601	39.76
231.819	90.96
232.037	0.85
232.254	-33.96
232.472	7
232.689	-21.67
232.907	72.53
233.125	-1.19
233.342	-17.58
233.56	68.44
233.777	15.19
233.995	23.38
234.213	56.15
234.43	37.72
234.648	15.19
234.865	17.24
235.083	39.76
235.3	-64.68
235.518	60.24
235.735	29.52
235.953	31.57
236.17	15.19
236.388	19.29
236.605	-52.39
236.822	86.87
237.04	-42.15
237.257	60.24
237.475	-21.67
237.692	64.34
237.909	7
238.127	7
238.344	-1.19
238.562	125.78
238.779	7
238.996	7
239.214	-23.72
239.431	72.53
239.648	31.57
239.865	23.38
240.083	66.39
240.3	21.33
240.517	47.96
240.735	7
240.952	-11.43
241.169	99.16
241.386	2.9
241.603	-25.77
241.821	-9.39
242.038	58.2
242.255	39.76
242.472	11.09
242.689	111.44
242.907	33.62
243.124	72.53
243.341	84.82
243.558	-3.24
243.775	-25.77
243.992	-17.58
244.209	52.05
244.426	68.44
244.643	27.48
244.86	-19.63
245.078	68.44
245.295	45.91
245.512	4.95
245.729	-9.39
245.946	121.68
246.163	39.76
246.38	21.33
246.597	13.14
246.814	47.96
247.031	11.09
247.248	70.48
247.464	39.76
247.681	31.57
247.898	23.38
248.115	19.29
248.332	-3.24
248.549	62.29
248.766	101.2
248.983	80.72
249.2	23.38
249.417	88.92
249.633	62.29
249.85	113.49
250.067	-27.82
250.284	-13.48
250.501	64.34
250.717	62.29
250.934	-5.29
251.151	15.19
251.368	13.14
251.585	-25.77
251.801	-13.48
252.018	70.48
252.235	133.97
252.451	-58.54
252.668	7
252.885	62.29
253.102	62.29
253.318	35.67
253.535	68.44
253.752	0.85
253.968	-27.82
254.185	2.9
254.401	7
254.618	70.48
254.835	-74.92
255.051	60.24
255.268	60.24
255.484	97.11
255.701	60.24
255.917	31.57
256.134	105.3
256.351	111.44
256.567	60.24
256.784	60.24
257	4.95
257.217	52.05
257.433	115.54
257.65	64.34
257.866	45.91
258.082	72.53
258.299	-58.54
258.515	76.63
258.732	-19.63
258.948	-11.43
259.165	107.35
259.381	17.24
259.597	13.14
259.814	47.96
260.03	-1.19
260.246	70.48
260.463	74.58
260.679	76.63
260.895	84.82
261.112	2.9
261.328	74.58
261.544	4.95
261.761	140.12
261.977	11.09
262.193	43.86
262.409	13.14
262.626	93.01
262.842	17.24
263.058	7
263.274	76.63
263.49	50
263.707	86.87
263.923	39.76
264.139	7
264.355	-33.96
264.571	37.72
264.787	54.1
265.004	23.38
265.22	2.9
265.436	-13.48
265.652	4.95
265.868	4.95
266.084	15.19
266.3	70.48
266.516	-5.29
266.732	23.38
266.948	23.38
267.164	7
267.38	60.24
267.596	35.67
267.812	86.87
268.028	84.82
268.244	-15.53
268.46	101.2
268.676	52.05
268.892	25.43
269.108	39.76
269.324	-17.58
269.54	-9.39
269.756	39.76
269.972	76.63
270.188	27.48
270.403	-74.92
270.619	45.91
270.835	43.86
271.051	13.14
271.267	4.95
271.483	15.19
271.698	-1.19
271.914	25.43
272.13	35.67
272.346	52.05
272.562	66.39
272.777	90.96
272.993	-50.35
273.209	-9.39
273.425	-3.24
273.64	-17.58
273.856	52.05
274.072	-3.24
274.287	15.19
274.503	54.1
274.719	201.55
274.934	-19.63
275.15	-42.15
275.366	-42.15
275.581	37.72
275.797	31.57
276.012	39.76
276.228	39.76
276.444	97.11
276.659	88.92
276.875	9.05
277.09	-17.58
277.306	60.24
277.521	47.96
277.737	0.85
277.952	52.05
278.168	99.16
278.383	86.87
278.599	47.96
278.814	58.2
279.03	17.24
279.245	76.63
279.461	-5.29
279.676	-19.63
279.892	35.67
280.107	43.86
280.322	-1.19
280.538	58.2
280.753	13.14
280.969	21.33
281.184	78.68
281.399	-5.29
281.615	21.33
281.83	23.38
282.045	23.38
282.26	0.85
282.476	-33.96
282.691	101.2
282.906	78.68
283.122	25.43
283.337	15.19
283.552	54.1
283.767	35.67
283.983	93.01
284.198	11.09
284.413	88.92
284.628	-5.29
284.843	-13.48
285.058	-66.73
285.274	47.96
285.489	4.95
285.704	164.69
285.919	2.9
286.134	31.57
286.349	31.57
286.564	31.57
286.779	43.86
286.995	-60.59
287.21	15.19
287.425	95.06
287.64	64.34
287.855	9.05
288.07	-15.53
288.285	19.29
288.5	113.49
288.715	39.76
288.93	11.09
289.145	-33.96
289.36	60.24
289.575	56.15
289.79	68.44
290.004	23.38
290.219	54.1
290.434	-52.39
290.649	39.76
290.864	-15.53
291.079	88.92
291.294	62.29
291.509	-52.39
291.724	62.29
291.938	-3.24
292.153	-1.19
292.368	72.53
292.583	2.9
292.798	101.2
293.012	2.9
293.227	-9.39
293.442	17.24
293.657	43.86
293.871	60.24
294.086	25.43
294.301	60.24
294.516	62.29
294.73	136.02
294.945	13.14
295.16	-33.96
295.374	72.53
295.589	9.05
295.804	47.96
296.018	27.48
296.233	52.05
296.447	43.86
296.662	54.1
296.877	117.59
297.091	45.91
297.306	37.72
297.52	7
297.735	29.52
297.949	-25.77
298.164	35.67
298.378	29.52
298.593	23.38
298.807	7
299.022	-15.53
299.236	127.83
299.451	-9.39
299.665	-1.19
299.88	-42.15
300.094	64.34
300.309	72.53
300.523	72.53
300.737	97.11
300.952	41.81
301.166	97.11
301.381	-19.63
301.595	66.39
301.809	58.2
302.024	19.29
302.238	68.44
302.452	27.48
302.667	27.48
302.881	62.29
303.095	17.24
303.309	-33.96
303.524	-3.24
303.738	17.24
303.952	-5.29
304.166	60.24
304.381	15.19
304.595	97.11
304.809	78.68
305.023	37.72
305.237	43.86
305.452	74.58
305.666	37.72
305.88	60.24
306.094	121.68
306.308	105.3
306.522	47.96
306.736	101.2
306.95	70.48
307.164	39.76
307.379	97.11
307.593	56.15
307.807	7
308.021	95.06
308.235	54.1
308.449	-25.77
308.663	39.76
308.877	21.33
309.091	62.29
309.305	80.72
309.519	-54.44
309.733	39.76
309.947	-29.87
310.161	105.3
310.374	31.57
310.588	86.87
310.802	-1.19
311.016	-5.29
311.23	39.76
311.444	66.39
311.658	15.19
311.872	56.15
312.085	-50.35
312.299	121.68
312.513	-21.67
312.727	19.29
312.941	-17.58
313.154	95.06
313.368	86.87
313.582	25.43
313.796	-7.34
314.009	-1.19
314.223	105.3
314.437	39.76
314.651	56.15
314.864	21.33
315.078	-5.29
315.292	64.34
315.505	21.33
315.719	45.91
315.933	-1.19
316.146	39.76
316.36	-36.01
316.573	11.09
316.787	74.58
317.001	86.87
317.214	93.01
317.428	13.14
317.641	9.05
317.855	33.62
318.068	29.52
318.282	90.96
318.495	121.68
318.709	37.72
318.922	74.58
319.136	56.15
319.349	144.21
319.563	64.34
319.776	45.91
319.99	78.68
320.203	47.96
320.417	72.53
320.63	62.29
320.843	97.11
321.057	15.19
321.27	-1.19
321.483	43.86
321.697	76.63
321.91	31.57
322.124	99.16
322.337	-9.39
322.55	43.86
322.763	74.58
322.977	21.33
323.19	-9.39
323.403	39.76
323.617	88.92
323.83	52.05
324.043	21.33
324.256	121.68
324.469	23.38
324.683	56.15
324.896	54.1
325.109	72.53
325.322	-3.24
325.535	45.91
325.748	121.68
325.962	-1.19
326.175	35.67
326.388	43.86
326.601	70.48
326.814	-42.15
327.027	62.29
327.24	95.06
327.453	-36.01
327.666	39.76
327.879	15.19
328.092	31.57
328.305	138.07
328.518	76.63
328.731	11.09
328.944	23.38
329.157	64.34
329.37	45.91
329.583	146.26
329.796	103.25
330.009	52.05
330.222	47.96
330.435	70.48
330.648	88.92
330.861	117.59
331.073	78.68
331.286	43.86
331.499	113.49
331.712	50
331.925	0.85
332.138	23.38
332.35	101.2
332.563	31.57
332.776	56.15
332.989	64.34
333.202	-50.35
333.414	66.39
333.627	11.09
333.84	-21.67
334.053	25.43
334.265	47.96
334.478	15.19
334.691	-9.39
334.903	7
335.116	54.1
335.329	37.72
335.541	19.29
335.754	90.96
335.966	56.15
336.179	47.96
336.392	31.57
336.604	-25.77
336.817	140.12
337.029	13.14
337.242	90.96
337.454	90.96
337.667	74.58
337.88	78.68
338.092	39.76
338.305	47.96
338.517	11.09
338.729	2.9
338.942	29.52
339.154	35.67
339.367	-27.82
339.579	58.2
339.792	56.15
340.004	76.63
340.217	54.1
340.429	13.14
340.641	-15.53
340.854	41.81
341.066	29.52
341.278	76.63
341.491	154.45
341.703	7
341.915	-9.39
342.128	66.39
342.34	-31.91
342.552	64.34
342.764	60.24
342.977	107.35
343.189	43.86
343.401	86.87
343.613	-25.77
343.826	80.72
344.038	9.05
344.25	45.91
344.462	43.86
344.674	54.1
344.886	35.67
345.099	15.19
345.311	27.48
345.523	-36.01
345.735	-42.15
345.947	47.96
346.159	97.11
346.371	43.86
346.583	4.95
346.795	84.82
347.007	13.14
347.219	-44.2
347.431	-9.39
347.643	27.48
347.855	64.34
348.067	86.87
348.279	-29.87
348.491	45.91
348.703	-1.19
348.915	123.73
349.127	35.67
349.339	31.57
349.551	88.92
349.763	31.57
349.975	-42.15
350.187	117.59
350.399	86.87
350.61	99.16
350.822	62.29
351.034	39.76
351.246	62.29
351.458	109.4
351.669	7
351.881	117.59
352.093	86.87
352.305	31.57
352.517	68.44
352.728	-3.24
352.94	23.38
353.152	23.38
353.363	-36.01
353.575	107.35
353.787	47.96
353.999	47.96
354.21	68.44
354.422	58.2
354.633	29.52
354.845	47.96
355.057	37.72
355.268	37.72
355.48	121.68
355.692	-19.63
355.903	2.9
356.115	-17.58
356.326	41.81
356.538	15.19
356.749	95.06
356.961	7
357.172	31.57
357.384	21.33
357.595	125.78
357.807	72.53
358.018	31.57
358.23	127.83
358.441	29.52
358.653	60.24
358.864	27.48
359.075	15.19
359.287	54.1
359.498	84.82
359.709	33.62
359.921	54.1
360.132	21.33
360.344	7
360.555	64.34
360.766	-9.39
360.977	45.91
361.189	60.24
361.4	47.96
361.611	103.25
361.823	64.34
362.034	45.91
362.245	29.52
362.456	117.59
362.667	54.1
362.879	29.52
363.09	56.15
363.301	4.95
363.512	13.14
363.723	-19.63
363.935	-11.43
364.146	72.53
364.357	121.68
364.568	21.33
364.779	-36.01
364.99	78.68
365.201	29.52
365.412	101.2
365.623	-25.77
365.834	64.34
366.045	23.38
366.256	105.3
366.467	150.36
366.678	105.3
366.889	43.86
367.1	19.29
367.311	74.58
367.522	35.67
367.733	138.07
367.944	80.72
368.155	31.57
368.366	70.48
368.577	72.53
368.788	-21.67
368.999	27.48
369.209	-46.25
369.42	86.87
369.631	74.58
369.842	97.11
370.053	107.35
370.264	27.48
370.474	19.29
370.685	72.53
370.896	15.19
371.107	80.72
371.317	64.34
371.528	56.15
371.739	56.15
371.95	80.72
372.16	7
372.371	29.52
372.582	56.15
372.792	47.96
373.003	56.15
373.214	45.91
373.424	72.53
373.635	31.57
373.846	80.72
374.056	72.53
374.267	150.36
374.477	-38.06
374.688	56.15
374.898	80.72
375.109	43.86
375.319	50
375.53	54.1
375.74	-5.29
375.951	19.29
376.161	15.19
376.372	25.43
376.582	52.05
376.793	19.29
377.003	-44.2
377.214	31.57
377.424	84.82
377.635	72.53
377.845	80.72
378.055	80.72
378.266	62.29
378.476	-1.19
378.686	-9.39
378.897	88.92
379.107	56.15
379.317	146.26
379.528	78.68
379.738	88.92
379.948	56.15
380.158	121.68
380.369	72.53
380.579	136.02
380.789	86.87
380.999	78.68
381.21	97.11
381.42	133.97
381.63	39.76
381.84	72.53
382.05	95.06
382.261	109.4
382.471	76.63
382.681	54.1
382.891	109.4
383.101	58.2
383.311	21.33
383.521	52.05
383.731	144.21
383.941	33.62
384.151	76.63
384.361	9.05
384.571	52.05
384.781	105.3
384.991	60.24
385.201	109.4
385.411	72.53
385.621	52.05
385.831	7
386.041	84.82
386.251	47.96
386.461	29.52
386.671	47.96
386.881	119.64
387.091	-3.24
387.301	60.24
387.511	56.15
387.72	31.57
387.93	0.85
388.14	29.52
388.35	56.15
388.56	97.11
388.769	84.82
388.979	47.96
389.189	72.53
389.399	31.57
389.609	146.26
389.818	136.02
390.028	43.86
390.238	60.24
390.447	72.53
390.657	27.48
390.867	-3.24
391.076	54.1
391.286	43.86
391.496	45.91
391.705	29.52
391.915	113.49
392.125	109.4
392.334	43.86
392.544	97.11
392.753	45.91
392.963	21.33
393.172	72.53
393.382	111.44
393.591	45.91
393.801	60.24
394.01	90.96
394.22	82.77
394.429	68.44
394.639	88.92
394.848	64.34
395.058	84.82
395.267	74.58
395.477	64.34
395.686	103.25
395.895	117.59
396.105	117.59
396.314	-11.43
396.524	113.49
396.733	-1.19
396.942	72.53
397.152	86.87
397.361	45.91
397.57	84.82
397.78	136.02
397.989	23.38
398.198	121.68
398.407	97.11
398.617	56.15
398.826	111.44
399.035	99.16
399.244	72.53
399.453	35.67
399.663	54.1
399.872	138.07
400.081	101.2
400.29	72.53
400.499	64.34
400.708	113.49
400.917	39.76
401.127	111.44
401.336	113.49
401.545	121.68
401.754	119.64
401.963	168.79
402.172	62.29
402.381	21.33
402.59	23.38
402.799	150.36
403.008	78.68
403.217	47.96
403.426	142.16
403.635	64.34
403.844	125.78
404.053	103.25
404.262	95.06
404.471	119.64
404.68	127.83
404.888	52.05
405.097	119.64
405.306	103.25
405.515	176.98
405.724	162.64
405.933	156.5
406.142	217.94
406.35	203.6
406.559	121.68
406.768	152.4
406.977	234.32
407.185	224.08
407.394	199.51
407.603	125.78
407.812	203.6
408.02	269.14
408.229	195.41
408.438	244.56
408.646	199.51
408.855	236.37
409.064	228.18
409.272	201.55
409.481	289.62
409.69	271.19
409.898	193.36
410.107	234.32
410.315	383.82
410.524	308.05
410.733	310.1
410.941	252.75
411.15	353.1
411.358	367.44
411.567	455.5
411.775	342.86
411.984	332.62
412.192	432.97
412.401	392.02
412.609	543.57
412.818	480.08
413.026	387.92
413.234	428.88
413.443	535.37
413.651	428.88
413.86	496.46
414.068	609.1
414.276	559.95
414.485	529.23
414.693	676.68
414.901	670.54
415.11	695.11
415.318	615.24
415.526	678.73
415.734	631.63
415.943	686.92
416.151	760.65
416.359	682.83
416.567	781.13
416.776	824.14
416.984	809.8
417.192	867.14
417.4	848.71
417.608	842.57
417.817	990.02
418.025	969.54
418.233	1135.43
418.441	1028.93
418.649	1059.65
418.857	1160
419.065	1235.78
419.273	1260.35
419.481	1198.92
419.689	1350.46
419.897	1456.96
420.105	1424.19
420.313	1387.33
420.521	1481.53
420.729	1487.68
420.937	1502.01
421.145	1641.28
421.353	1596.22
421.561	1741.63
421.769	1850.17
421.977	1805.11
422.185	1825.59
422.393	1966.9
422.601	2179.89
422.809	2126.64
423.017	2171.7
423.224	2153.27
423.432	2272.05
423.64	2265.91
423.848	2489.14
424.056	2390.83
424.263	2689.84
424.471	2603.82
424.679	2693.93
424.887	2810.67
425.094	2923.3
425.302	2870.06
425.51	3070.76
425.718	3093.29
425.925	3160.87
426.133	3226.4
426.341	3433.25
426.548	3451.68
426.756	3627.81
426.964	3646.24
427.171	3687.2
427.379	3891.99
427.586	3869.47
427.794	4113.17
428.001	4348.69
428.209	4537.1
428.417	4403.99
428.624	4770.57
428.832	4713.23
429.039	4614.93
429.247	4672.27
429.454	5233.41
429.662	5573.38
429.869	5260.04
430.076	5634.82
430.284	5372.68
430.491	5466.88
430.699	6116.09
430.906	6009.59
431.114	5976.83
431.321	6279.93
431.528	6331.12
431.736	6650.61
431.943	7043.82
432.15	7011.05
432.358	7090.92
432.565	7338.73
432.772	7197.42
432.979	7670.5
433.187	7879.39
433.394	7938.78
433.601	8184.54
433.808	8604.37
434.016	8469.2
434.223	8743.63
434.43	9253.58
434.637	9040.59
434.844	9964.22
435.052	9882.3
435.259	9657.03
435.466	9837.25
435.673	9927.36
435.88	10162.87
436.087	11184.81
436.294	10891.95
436.501	10756.79
436.708	10900.14
436.915	11428.52
437.122	11930.27
437.329	11881.12
437.537	11934.37
437.743	12440.22
437.95	12257.95
438.157	12835.47
438.364	13425.29
438.571	13271.69
438.778	13374.09
438.985	14621.3
439.192	13990.53
439.399	14432.89
439.606	14439.03
439.813	15012.46
440.02	16073.31
440.227	15432.3
440.433	15538.79
440.64	15825.51
440.847	15917.67
441.054	16341.6
441.261	17218.13
441.467	17142.35
441.674	17623.62
441.881	18137.66
442.088	18117.18
442.294	18201.15
442.501	18707
442.708	18592.31
442.914	19462.7
443.121	20347.42
443.328	20095.52
443.534	21076.5
443.741	20703.77
443.948	20347.42
444.154	22014.47
444.361	21793.29
444.568	21713.42
444.774	21867.02
444.981	22542.85
445.187	22903.29
445.394	24119.78
445.6	23736.81
445.807	25680.33
446.013	24760.8
446.22	25170.39
446.426	25889.23
446.633	25995.72
446.839	27003.32
447.046	25971.15
447.252	27314.61
447.459	27130.3
447.665	27351.48
447.871	28559.78
448.078	29514.13
448.284	28565.92
448.491	29374.87
448.697	30650.75
448.903	30779.78
449.11	31074.68
449.316	30359.94
449.522	30929.28
449.728	31668.59
449.935	31887.73
450.141	31736.18
450.347	32483.69
450.553	31506.8
450.76	32051.56
450.966	32688.48
451.172	32776.55
451.378	33255.77
451.584	32596.32
451.791	33579.35
451.997	33261.91
452.203	33929.55
452.409	33884.5
452.615	33745.23
452.821	32631.14
453.027	32039.28
453.233	33894.74
453.44	32145.77
453.646	32579.94
453.852	32692.58
454.058	33368.41
454.264	32178.54
454.47	32891.23
454.676	31871.34
454.882	33323.35
455.088	30114.19
455.294	30927.23
455.5	31170.94
455.705	31517.04
455.911	29917.58
456.117	29454.74
456.323	29153.69
456.529	27394.48
456.735	28744.09
456.941	27953.58
457.147	27599.28
457.352	26589.63
457.558	26116.55
457.764	26229.19
457.97	25885.13
458.176	25055.7
458.381	25178.58
458.587	23837.16
458.793	23802.35
458.999	22481.41
459.204	24306.15
459.41	23575.02
459.616	22147.59
459.821	22254.08
460.027	22010.37
460.233	21574.16
460.438	20118.05
460.644	20847.13
460.85	19608.11
461.055	19114.55
461.261	19216.94
461.466	17764.93
461.672	17398.35
461.878	18620.99
462.083	17367.63
462.289	16964.18
462.494	16808.53
462.7	16177.76
462.905	15759.97
463.111	16134.75
463.316	16259.68
463.522	15958.63
463.727	15880.8
463.932	15919.71
464.138	15882.85
464.343	15618.66
464.549	15276.65
464.754	15995.49
464.959	15759.97
465.165	15649.38
465.37	15237.74
465.575	14649.97
465.781	15096.43
465.986	15211.12
466.191	14735.99
466.397	14316.15
466.602	13912.71
466.807	14355.07
467.012	14267
467.218	14215.8
467.423	14056.06
467.628	14064.25
467.833	14627.45
468.038	14000.77
468.244	14060.16
