Data from USB4F104151__88__11-32-02-152.txt Node

Date: Fri Mar 14 11:32:02 EDT 2025
User: louis
Spectrometer: USB4F10415
Trigger mode: 4
Integration Time (sec): 5.000000E-2
Scans to average: 1
Electric dark correction enabled: true
Nonlinearity correction enabled: false
Boxcar width: 0
XAxis mode: Wavelengths
Number of Pixels in Spectrum: 3648
>>>>>Begin Spectral Data<<<<<
178.204	-113.15
178.424	-113.15
178.644	-113.15
178.864	-168.45
179.084	-225.79
179.304	-23.04
179.524	-29.18
179.744	-49.66
179.964	-0.51
180.184	3.58
180.404	65.02
180.624	30.21
180.844	58.88
181.064	-59.9
181.283	24.06
181.503	7.68
181.723	-27.14
181.943	3.58
182.163	73.21
182.383	-61.95
182.602	9.73
182.822	-10.75
183.042	110.08
183.262	-33.28
183.482	1.54
183.701	67.07
183.921	44.54
184.141	-18.94
184.361	19.97
184.58	-6.66
184.8	30.21
185.02	-41.47
185.239	46.59
185.459	69.12
185.679	56.83
185.898	-4.61
186.118	56.83
186.338	65.02
186.557	99.84
186.777	-27.14
186.997	85.5
187.216	52.74
187.436	101.89
187.655	17.92
187.875	44.54
188.095	36.35
188.314	71.17
188.534	30.21
188.753	-2.56
188.973	28.16
189.192	71.17
189.412	11.78
189.631	73.21
189.851	40.45
190.07	15.87
190.29	17.92
190.509	-10.75
190.729	44.54
190.948	75.26
191.168	177.66
191.387	58.88
191.607	56.83
191.826	52.74
192.045	42.5
192.265	34.3
192.484	48.64
192.704	38.4
192.923	19.97
193.142	142.85
193.362	40.45
193.581	44.54
193.8	42.5
194.02	46.59
194.239	-0.51
194.458	-6.66
194.678	22.02
194.897	11.78
195.116	5.63
195.335	30.21
195.555	99.84
195.774	71.17
195.993	-16.9
196.212	30.21
196.432	24.06
196.651	42.5
196.87	-2.56
197.089	89.6
197.308	48.64
197.528	36.35
197.747	46.59
197.966	40.45
198.185	50.69
198.404	46.59
198.623	15.87
198.842	89.6
199.062	40.45
199.281	138.75
199.5	62.98
199.719	-31.23
199.938	50.69
200.157	5.63
200.376	138.75
200.595	120.32
200.814	89.6
201.033	7.68
201.252	40.45
201.471	60.93
201.69	56.83
201.909	83.45
202.128	7.68
202.347	105.98
202.566	38.4
202.785	-117.25
203.004	-20.99
203.223	126.46
203.442	36.35
203.661	5.63
203.879	-43.52
204.098	-16.9
204.317	-66.05
204.536	89.6
204.755	28.16
204.974	97.79
205.193	-0.51
205.411	42.5
205.63	36.35
205.849	73.21
206.068	73.21
206.287	-0.51
206.505	22.02
206.724	28.16
206.943	54.78
207.162	13.82
207.381	69.12
207.599	5.63
207.818	9.73
208.037	-14.85
208.255	-33.28
208.474	42.5
208.693	19.97
208.911	19.97
209.13	42.5
209.349	38.4
209.567	24.06
209.786	19.97
210.005	56.83
210.223	-55.81
210.442	-57.86
210.661	15.87
210.879	32.26
211.098	13.82
211.316	13.82
211.535	148.99
211.753	52.74
211.972	34.3
212.191	-0.51
212.409	13.82
212.628	44.54
212.846	-0.51
213.065	3.58
213.283	192
213.502	81.41
213.72	36.35
213.938	40.45
214.157	7.68
214.375	9.73
214.594	-6.66
214.812	36.35
215.031	56.83
215.249	-0.51
215.467	17.92
215.686	22.02
215.904	87.55
216.122	-14.85
216.341	103.93
216.559	54.78
216.778	136.7
216.996	99.84
217.214	-0.51
217.432	28.16
217.651	-14.85
217.869	114.17
218.087	110.08
218.306	19.97
218.524	-10.75
218.742	26.11
218.96	-33.28
219.179	99.84
219.397	5.63
219.615	81.41
219.833	62.98
220.051	-23.04
220.27	-20.99
220.488	87.55
220.706	17.92
220.924	-18.94
221.142	48.64
221.36	32.26
221.578	60.93
221.796	15.87
222.015	-0.51
222.233	-33.28
222.451	32.26
222.669	-10.75
222.887	28.16
223.105	105.98
223.323	44.54
223.541	42.5
223.759	3.58
223.977	32.26
224.195	54.78
224.413	9.73
224.631	11.78
224.849	15.87
225.067	140.8
225.285	5.63
225.503	36.35
225.721	-70.14
225.939	-6.66
226.157	44.54
226.375	97.79
226.592	-51.71
226.81	3.58
227.028	114.17
227.246	114.17
227.464	15.87
227.682	11.78
227.9	40.45
228.117	30.21
228.335	48.64
228.553	-8.7
228.771	7.68
228.989	26.11
229.206	11.78
229.424	-18.94
229.642	38.4
229.86	30.21
230.077	65.02
230.295	24.06
230.513	148.99
230.731	79.36
230.948	67.07
231.166	26.11
231.384	-0.51
231.601	36.35
231.819	103.93
232.037	46.59
232.254	-92.67
232.472	42.5
232.689	-25.09
232.907	60.93
233.125	-2.56
233.342	19.97
233.56	-16.9
233.777	1.54
233.995	-23.04
234.213	153.09
234.43	36.35
234.648	28.16
234.865	38.4
235.083	40.45
235.3	38.4
235.518	11.78
235.735	32.26
235.953	83.45
236.17	73.21
236.388	15.87
236.605	126.46
236.822	118.27
237.04	19.97
237.257	56.83
237.475	24.06
237.692	38.4
237.909	73.21
238.127	65.02
238.344	-10.75
238.562	48.64
238.779	-35.33
238.996	28.16
239.214	7.68
239.431	46.59
239.648	-64
239.865	134.65
240.083	103.93
240.3	73.21
240.517	3.58
240.735	24.06
240.952	81.41
241.169	62.98
241.386	-43.52
241.603	-27.14
241.821	58.88
242.038	77.31
242.255	-29.18
242.472	-12.8
242.689	81.41
242.907	19.97
243.124	26.11
243.341	46.59
243.558	-2.56
243.775	7.68
243.992	-74.24
244.209	85.5
244.426	101.89
244.643	87.55
244.86	36.35
245.078	114.17
245.295	13.82
245.512	85.5
245.729	81.41
245.946	19.97
246.163	42.5
246.38	77.31
246.597	40.45
246.814	22.02
247.031	19.97
247.248	-33.28
247.464	93.69
247.681	93.69
247.898	1.54
248.115	52.74
248.332	19.97
248.549	89.6
248.766	89.6
248.983	52.74
249.2	13.82
249.417	89.6
249.633	48.64
249.85	-16.9
250.067	13.82
250.284	48.64
250.501	62.98
250.717	81.41
250.934	3.58
251.151	24.06
251.368	9.73
251.585	46.59
251.801	48.64
252.018	15.87
252.235	56.83
252.451	-57.86
252.668	11.78
252.885	114.17
253.102	15.87
253.318	-8.7
253.535	-61.95
253.752	28.16
253.968	105.98
254.185	-12.8
254.401	73.21
254.618	73.21
254.835	62.98
255.051	5.63
255.268	75.26
255.484	48.64
255.701	38.4
255.917	65.02
256.134	-18.94
256.351	-16.9
256.567	11.78
256.784	73.21
257	-53.76
257.217	175.61
257.433	28.16
257.65	46.59
257.866	71.17
258.082	-39.42
258.299	-49.66
258.515	81.41
258.732	36.35
258.948	-27.14
259.165	138.75
259.381	22.02
259.597	15.87
259.814	58.88
260.03	40.45
260.246	-0.51
260.463	85.5
260.679	87.55
260.895	30.21
261.112	19.97
261.328	48.64
261.544	22.02
261.761	54.78
261.977	85.5
262.193	15.87
262.409	48.64
262.626	60.93
262.842	58.88
263.058	7.68
263.274	28.16
263.49	38.4
263.707	110.08
263.923	44.54
264.139	-25.09
264.355	7.68
264.571	87.55
264.787	30.21
265.004	77.31
265.22	42.5
265.436	67.07
265.652	30.21
265.868	-20.99
266.084	42.5
266.3	-20.99
266.516	56.83
266.732	46.59
266.948	24.06
267.164	32.26
267.38	44.54
267.596	46.59
267.812	95.74
268.028	15.87
268.244	-29.18
268.46	-10.75
268.676	7.68
268.892	-29.18
269.108	32.26
269.324	-6.66
269.54	-20.99
269.756	46.59
269.972	-8.7
270.188	7.68
270.403	46.59
270.619	-37.38
270.835	65.02
271.051	40.45
271.267	77.31
271.483	3.58
271.698	36.35
271.914	52.74
272.13	38.4
272.346	7.68
272.562	28.16
272.777	54.78
272.993	36.35
273.209	-12.8
273.425	-0.51
273.64	54.78
273.856	54.78
274.072	28.16
274.287	46.59
274.503	19.97
274.719	91.65
274.934	97.79
275.15	-82.43
275.366	11.78
275.581	-33.28
275.797	15.87
276.012	50.69
276.228	3.58
276.444	60.93
276.659	65.02
276.875	-16.9
277.09	97.79
277.306	-12.8
277.521	1.54
277.737	56.83
277.952	54.78
278.168	81.41
278.383	24.06
278.599	36.35
278.814	48.64
279.03	-12.8
279.245	69.12
279.461	34.3
279.676	-12.8
279.892	30.21
280.107	-10.75
280.322	32.26
280.538	22.02
280.753	11.78
280.969	60.93
281.184	-12.8
281.399	101.89
281.615	56.83
281.83	81.41
282.045	1.54
282.26	65.02
282.476	-61.95
282.691	132.61
282.906	89.6
283.122	56.83
283.337	34.3
283.552	44.54
283.767	13.82
283.983	67.07
284.198	-16.9
284.413	95.74
284.628	-8.7
284.843	122.37
285.058	30.21
285.274	62.98
285.489	40.45
285.704	17.92
285.919	-4.61
286.134	73.21
286.349	73.21
286.564	65.02
286.779	79.36
286.995	95.74
287.21	-29.18
287.425	50.69
287.64	3.58
287.855	5.63
288.07	-25.09
288.285	19.97
288.5	48.64
288.715	71.17
288.93	17.92
289.145	19.97
289.36	58.88
289.575	-31.23
289.79	56.83
290.004	-41.47
290.219	-25.09
290.434	5.63
290.649	38.4
290.864	28.16
291.079	13.82
291.294	46.59
291.509	73.21
291.724	52.74
291.938	71.17
292.153	54.78
292.368	3.58
292.583	3.58
292.798	105.98
293.012	73.21
293.227	-59.9
293.442	11.78
293.657	22.02
293.871	87.55
294.086	32.26
294.301	85.5
294.516	34.3
294.73	26.11
294.945	15.87
295.16	32.26
295.374	44.54
295.589	73.21
295.804	-0.51
296.018	120.32
296.233	44.54
296.447	46.59
296.662	28.16
296.877	56.83
297.091	114.17
297.306	52.74
297.52	1.54
297.735	48.64
297.949	40.45
298.164	36.35
298.378	118.27
298.593	-29.18
298.807	-39.42
299.022	30.21
299.236	83.45
299.451	-25.09
299.665	5.63
299.88	15.87
300.094	1.54
300.309	73.21
300.523	-27.14
300.737	52.74
300.952	-2.56
301.166	56.83
301.381	-0.51
301.595	3.58
301.809	69.12
302.024	17.92
302.238	54.78
302.452	75.26
302.667	73.21
302.881	58.88
303.095	77.31
303.309	97.79
303.524	11.78
303.738	56.83
303.952	-39.42
304.166	95.74
304.381	17.92
304.595	132.61
304.809	38.4
305.023	142.85
305.237	34.3
305.452	19.97
305.666	24.06
305.88	81.41
306.094	22.02
306.308	97.79
306.522	97.79
306.736	40.45
306.95	-12.8
307.164	58.88
307.379	75.26
307.593	81.41
307.807	40.45
308.021	46.59
308.235	65.02
308.449	5.63
308.663	60.93
308.877	60.93
309.091	36.35
309.305	-6.66
309.519	38.4
309.733	75.26
309.947	36.35
310.161	77.31
310.374	42.5
310.588	81.41
310.802	-18.94
311.016	38.4
311.23	7.68
311.444	24.06
311.658	87.55
311.872	146.94
312.085	71.17
312.299	120.32
312.513	81.41
312.727	65.02
312.941	44.54
313.154	81.41
313.368	103.93
313.582	42.5
313.796	69.12
314.009	103.93
314.223	89.6
314.437	52.74
314.651	69.12
314.864	-6.66
315.078	95.74
315.292	-37.38
315.505	48.64
315.719	65.02
315.933	28.16
316.146	-23.04
316.36	17.92
316.573	71.17
316.787	46.59
317.001	83.45
317.214	15.87
317.428	22.02
317.641	-2.56
317.855	42.5
318.068	52.74
318.282	19.97
318.495	81.41
318.709	105.98
318.922	46.59
319.136	79.36
319.349	73.21
319.563	62.98
319.776	28.16
319.99	24.06
320.203	134.65
320.417	-53.76
320.63	-2.56
320.843	71.17
321.057	87.55
321.27	99.84
321.483	97.79
321.697	73.21
321.91	85.5
322.124	108.03
322.337	32.26
322.55	65.02
322.763	-16.9
322.977	46.59
323.19	7.68
323.403	32.26
323.617	19.97
323.83	120.32
324.043	-0.51
324.256	99.84
324.469	24.06
324.683	30.21
324.896	30.21
325.109	13.82
325.322	50.69
325.535	48.64
325.748	-16.9
325.962	62.98
326.175	52.74
326.388	1.54
326.601	44.54
326.814	19.97
327.027	56.83
327.24	71.17
327.453	54.78
327.666	65.02
327.879	105.98
328.092	67.07
328.305	105.98
328.518	148.99
328.731	5.63
328.944	77.31
329.157	38.4
329.37	-25.09
329.583	122.37
329.796	99.84
330.009	3.58
330.222	38.4
330.435	153.09
330.648	40.45
330.861	30.21
331.073	73.21
331.286	40.45
331.499	93.69
331.712	26.11
331.925	-37.38
332.138	-16.9
332.35	79.36
332.563	-49.66
332.776	118.27
332.989	46.59
333.202	38.4
333.414	19.97
333.627	5.63
333.84	34.3
334.053	7.68
334.265	13.82
334.478	54.78
334.691	28.16
334.903	22.02
335.116	-49.66
335.329	65.02
335.541	54.78
335.754	28.16
335.966	-0.51
336.179	40.45
336.392	30.21
336.604	13.82
336.817	65.02
337.029	-12.8
337.242	48.64
337.454	44.54
337.667	85.5
337.88	56.83
338.092	62.98
338.305	22.02
338.517	-8.7
338.729	122.37
338.942	-20.99
339.154	26.11
339.367	-33.28
339.579	60.93
339.792	54.78
340.004	42.5
340.217	3.58
340.429	77.31
340.641	44.54
340.854	60.93
341.066	-43.52
341.278	79.36
341.491	56.83
341.703	38.4
341.915	-23.04
342.128	-41.47
342.34	97.79
342.552	54.78
342.764	71.17
342.977	3.58
343.189	73.21
343.401	62.98
343.613	28.16
343.826	60.93
344.038	-18.94
344.25	105.98
344.462	17.92
344.674	40.45
344.886	60.93
345.099	58.88
345.311	48.64
345.523	-29.18
345.735	-0.51
345.947	110.08
346.159	46.59
346.371	-98.81
346.583	40.45
346.795	122.37
347.007	7.68
347.219	-0.51
347.431	32.26
347.643	56.83
347.855	-23.04
348.067	69.12
348.279	32.26
348.491	62.98
348.703	24.06
348.915	58.88
349.127	15.87
349.339	112.13
349.551	-64
349.763	146.94
349.975	19.97
350.187	81.41
350.399	146.94
350.61	81.41
350.822	48.64
351.034	40.45
351.246	77.31
351.458	114.17
351.669	71.17
351.881	-0.51
352.093	24.06
352.305	40.45
352.517	56.83
352.728	32.26
352.94	126.46
353.152	136.7
353.363	13.82
353.575	44.54
353.787	71.17
353.999	71.17
354.21	148.99
354.422	30.21
354.633	15.87
354.845	-4.61
355.057	22.02
355.268	7.68
355.48	46.59
355.692	42.5
355.903	22.02
356.115	28.16
356.326	-37.38
356.538	85.5
356.749	50.69
356.961	89.6
357.172	46.59
357.384	15.87
357.595	114.17
357.807	87.55
358.018	5.63
358.23	71.17
358.441	83.45
358.653	56.83
358.864	3.58
359.075	7.68
359.287	52.74
359.498	116.22
359.709	50.69
359.921	40.45
360.132	38.4
360.344	52.74
360.555	-10.75
360.766	26.11
360.977	73.21
361.189	91.65
361.4	50.69
361.611	161.28
361.823	122.37
362.034	9.73
362.245	56.83
362.456	-18.94
362.667	77.31
362.879	40.45
363.09	-27.14
363.301	65.02
363.512	69.12
363.723	-0.51
363.935	83.45
364.146	95.74
364.357	-29.18
364.568	120.32
364.779	5.63
364.99	110.08
365.201	48.64
365.412	26.11
365.623	38.4
365.834	44.54
366.045	15.87
366.256	71.17
366.467	24.06
366.678	69.12
366.889	-0.51
367.1	42.5
367.311	-14.85
367.522	11.78
367.733	15.87
367.944	54.78
368.155	38.4
368.366	99.84
368.577	73.21
368.788	26.11
368.999	15.87
369.209	9.73
369.42	52.74
369.631	38.4
369.842	118.27
370.053	112.13
370.264	40.45
370.474	44.54
370.685	56.83
370.896	75.26
371.107	87.55
371.317	81.41
371.528	24.06
371.739	62.98
371.95	36.35
372.16	62.98
372.371	-14.85
372.582	22.02
372.792	-2.56
373.003	73.21
373.214	22.02
373.424	101.89
373.635	3.58
373.846	93.69
374.056	54.78
374.267	81.41
374.477	97.79
374.688	40.45
374.898	60.93
375.109	85.5
375.319	155.13
375.53	105.98
375.74	40.45
375.951	32.26
376.161	134.65
376.372	77.31
376.582	48.64
376.793	130.56
377.003	-59.9
377.214	44.54
377.424	77.31
377.635	50.69
377.845	-14.85
378.055	26.11
378.266	73.21
378.476	34.3
378.686	97.79
378.897	58.88
379.107	-12.8
379.317	71.17
379.528	97.79
379.738	36.35
379.948	11.78
380.158	69.12
380.369	48.64
380.579	62.98
380.789	44.54
380.999	22.02
381.21	-14.85
381.42	48.64
381.63	62.98
381.84	87.55
382.05	-23.04
382.261	89.6
382.471	89.6
382.681	30.21
382.891	146.94
383.101	89.6
383.311	46.59
383.521	87.55
383.731	110.08
383.941	85.5
384.151	38.4
384.361	40.45
384.571	71.17
384.781	54.78
384.991	97.79
385.201	116.22
385.411	83.45
385.621	73.21
385.831	40.45
386.041	46.59
386.251	44.54
386.461	79.36
386.671	85.5
386.881	77.31
387.091	42.5
387.301	120.32
387.511	7.68
387.72	62.98
387.93	40.45
388.14	1.54
388.35	62.98
388.56	24.06
388.769	73.21
388.979	40.45
389.189	15.87
389.399	128.51
389.609	77.31
389.818	-27.14
390.028	17.92
390.238	60.93
390.447	7.68
390.657	32.26
390.867	17.92
391.076	73.21
391.286	5.63
391.496	105.98
391.705	36.35
391.915	130.56
392.125	62.98
392.334	3.58
392.544	130.56
392.753	85.5
392.963	-12.8
393.172	89.6
393.382	-33.28
393.591	177.66
393.801	56.83
394.01	196.09
394.22	132.61
394.429	124.41
394.639	105.98
394.848	101.89
395.058	73.21
395.267	134.65
395.477	71.17
395.686	114.17
395.895	151.04
396.105	118.27
396.314	62.98
396.524	81.41
396.733	15.87
396.942	101.89
397.152	130.56
397.361	83.45
397.57	114.17
397.78	60.93
397.989	144.89
398.198	144.89
398.407	56.83
398.617	65.02
398.826	79.36
399.035	114.17
399.244	122.37
399.453	134.65
399.663	128.51
399.872	97.79
400.081	48.64
400.29	105.98
400.499	52.74
400.708	56.83
400.917	46.59
401.127	56.83
401.336	120.32
401.545	138.75
401.754	130.56
401.963	198.14
402.172	97.79
402.381	73.21
402.59	146.94
402.799	167.42
403.008	155.13
403.217	169.47
403.426	118.27
403.635	81.41
403.844	171.52
404.053	132.61
404.262	105.98
404.471	200.19
404.68	159.23
404.888	130.56
405.097	159.23
405.306	235
405.515	210.43
405.724	185.85
405.933	192
406.142	161.28
406.35	214.52
406.559	130.56
406.768	212.48
406.977	253.44
407.185	230.91
407.394	335.35
407.603	136.7
407.812	175.61
408.02	228.86
408.229	286.2
408.438	116.22
408.646	173.57
408.855	194.05
409.064	232.96
409.272	284.16
409.481	302.59
409.69	263.68
409.898	222.72
410.107	376.31
410.315	347.64
410.524	333.31
410.733	347.64
410.941	210.43
411.15	423.42
411.358	423.42
411.567	417.27
411.775	278.01
411.984	415.23
412.192	402.94
412.401	388.6
412.609	466.42
412.818	421.37
413.026	488.95
413.234	523.77
413.443	447.99
413.651	624.12
413.86	617.97
414.068	552.44
414.276	550.39
414.485	540.15
414.693	577.02
414.901	687.61
415.11	751.09
415.318	630.26
415.526	693.75
415.734	667.13
415.943	732.66
416.151	802.29
416.359	779.76
416.567	749.04
416.776	853.49
416.984	908.79
417.192	949.75
417.4	935.41
417.608	880.11
417.817	978.42
418.025	964.08
418.233	1105.39
418.441	1146.35
418.649	1109.49
418.857	1103.34
419.065	1263.08
419.273	1248.75
419.481	1189.36
419.689	1400.3
419.897	1338.86
420.105	1478.12
420.313	1461.74
420.521	1506.79
420.729	1560.04
420.937	1508.84
421.145	1641.96
421.353	1701.35
421.561	1807.84
421.769	1803.75
421.977	1904.1
422.185	1840.61
422.393	1887.72
422.601	2078.18
422.809	2078.18
423.017	2082.27
423.224	2209.25
423.432	2342.36
423.64	2254.3
423.848	2610.65
424.056	2473.43
424.263	2670.04
424.471	2602.46
424.679	2731.48
424.887	2864.6
425.094	3022.29
425.302	2993.62
425.51	3061.2
425.718	3257.81
425.925	3155.41
426.133	3235.28
426.341	3427.79
426.548	3653.06
426.756	3476.94
426.964	3534.28
427.171	3874.24
427.379	3849.67
427.586	3921.35
427.794	4027.84
428.001	4445.63
428.209	4419
428.417	4523.45
428.624	4769.21
428.832	4675
429.039	4709.82
429.247	4707.77
429.454	5234.1
429.662	5504.43
429.869	5162.42
430.076	5598.63
430.284	5477.8
430.491	5627.31
430.699	5864.87
430.906	5873.06
431.114	5914.02
431.321	6260.13
431.528	6421.92
431.736	6716.83
431.943	7087.51
432.15	6854.04
432.358	6868.38
432.565	7136.66
432.772	7200.15
432.979	7773.58
433.187	7716.23
433.394	7691.66
433.601	8201.6
433.808	8519.04
434.016	8297.86
434.223	8707.45
434.43	9104.76
434.637	9174.39
434.844	9493.87
435.052	9706.86
435.259	9803.11
435.466	9573.74
435.673	9878.89
435.88	10149.22
436.087	10863.96
436.294	10851.67
436.501	10681.69
436.708	10773.85
436.915	11201.88
437.122	11746.64
437.329	11629.9
437.537	12172.61
437.743	12168.52
437.95	12195.14
438.157	12916.03
438.364	13192.5
438.571	13083.96
438.778	13229.37
438.985	14449.96
439.192	13829.42
439.399	14267.69
439.606	13966.63
439.813	15011.1
440.02	15373.59
440.227	15527.19
440.433	15486.23
440.64	15695.12
440.847	15842.57
441.054	16043.28
441.261	17466.61
441.467	16686.34
441.674	17292.54
441.881	17929.45
442.088	17761.52
442.294	17655.03
442.501	18547.94
442.708	18498.79
442.914	19084.51
443.121	19961.04
443.328	19659.99
443.534	20753.6
443.741	20372.68
443.948	20176.08
444.154	21531.83
444.361	21490.87
444.568	21468.34
444.774	21652.66
444.981	21738.68
445.187	22705.32
445.394	23489.69
445.6	22881.44
445.807	25660.54
446.013	24063.12
446.22	24386.7
446.426	25666.68
446.633	25611.39
446.839	26602.6
447.046	25412.73
447.252	27190.37
447.459	27130.98
447.665	26979.43
447.871	28034.13
448.078	29215.81
448.284	27819.1
448.491	28578.89
448.697	29668.41
448.903	30706.73
449.11	30196.79
449.316	29834.3
449.522	30321.71
449.728	31282.21
449.935	31241.25
450.141	31417.38
450.347	32386.07
450.553	31091.75
450.76	31206.44
450.966	32396.31
451.172	32109.59
451.378	32939.02
451.584	32384.02
451.791	32850.95
451.997	33117.19
452.203	33682.43
452.409	33565.7
452.615	33442.82
452.821	32042.01
453.027	31771.68
453.233	33494.02
453.44	32091.16
453.646	32414.74
453.852	32719.88
454.058	33207.3
454.264	32541.71
454.47	32597.01
454.676	31702.04
454.882	32984.07
455.088	30366.77
455.294	30460.98
455.5	30856.23
455.705	31353.89
455.911	30284.85
456.117	29561.92
456.323	29176.9
456.529	27575.39
456.735	28863.56
456.941	28134.48
457.147	27479.13
457.352	26627.18
457.558	26311.79
457.764	26416.24
457.97	25691.26
458.176	25267.33
458.381	25134.21
458.587	24042.64
458.793	24218.77
458.999	22803.62
459.204	24321.16
459.41	23657.62
459.616	22146.22
459.821	22273.2
460.027	21865.65
460.233	21386.43
460.438	20477.13
460.644	20516.04
460.85	19858.64
461.055	19401.94
461.261	19403.99
461.466	18068.72
461.672	17532.15
461.878	18549.99
462.083	17622.26
462.289	17011.96
462.494	17108.22
462.7	16149.77
462.905	15695.12
463.111	16487.68
463.316	16450.82
463.522	15863.05
463.727	16119.05
463.932	15947.02
464.138	15867.15
464.343	15949.07
464.549	15230.23
464.754	16014.6
464.959	15605.01
465.165	15676.69
465.37	15283.48
465.575	14636.32
465.781	15129.88
465.986	15428.88
466.191	14855.45
466.397	14439.72
466.602	13880.62
466.807	14349.61
467.012	14470.44
467.218	14191.91
467.423	13999.4
467.628	14085.42
