Data from USB4F104151__83__11-31-48-804.txt Node

Date: Fri Mar 14 11:31:48 EDT 2025
User: louis
Spectrometer: USB4F10415
Trigger mode: 4
Integration Time (sec): 5.000000E-2
Scans to average: 1
Electric dark correction enabled: true
Nonlinearity correction enabled: false
Boxcar width: 0
XAxis mode: Wavelengths
Number of Pixels in Spectrum: 3648
>>>>>Begin Spectral Data<<<<<
178.204	-132.44
178.424	-132.44
178.644	-132.44
178.864	-150.87
179.084	-165.2
179.304	-52.56
179.524	55.98
179.744	-50.52
179.964	15.02
180.184	64.17
180.404	2.73
180.624	12.97
180.844	-27.99
181.064	-15.7
181.283	4.78
181.503	-56.66
181.723	47.79
181.943	-77.14
182.163	29.35
182.383	-19.8
182.602	23.21
182.822	68.27
183.042	6.83
183.262	-32.08
183.482	-30.04
183.701	-5.46
183.921	43.69
184.141	-25.94
184.361	55.98
184.58	19.11
184.8	-58.71
185.02	74.41
185.239	39.59
185.459	6.83
185.679	58.03
185.898	-38.23
186.118	-42.32
186.338	-3.41
186.557	90.79
186.777	2.73
186.997	-25.94
187.216	21.16
187.436	80.55
187.655	90.79
187.875	8.87
188.095	4.78
188.314	31.4
188.534	74.41
188.753	21.16
188.973	82.6
189.192	47.79
189.412	19.11
189.631	-71
189.851	86.7
190.07	78.51
190.29	6.83
190.509	31.4
190.729	-19.8
190.948	33.45
191.168	207.53
191.387	76.46
191.607	-44.37
191.826	39.59
192.045	64.17
192.265	25.26
192.484	8.87
192.704	-17.75
192.923	-25.94
193.142	158.38
193.362	23.21
193.581	70.31
193.8	80.55
194.02	68.27
194.239	35.5
194.458	15.02
194.678	-27.99
194.897	53.93
195.116	27.31
195.335	-42.32
195.555	-25.94
195.774	66.22
195.993	127.66
196.212	-25.94
196.432	-25.94
196.651	41.64
196.87	0.68
197.089	80.55
197.308	92.84
197.528	70.31
197.747	35.5
197.966	49.83
198.185	119.46
198.404	80.55
198.623	-7.51
198.842	23.21
199.062	-1.37
199.281	35.5
199.5	-21.85
199.719	10.92
199.938	103.08
200.157	35.5
200.376	-11.61
200.595	60.07
200.814	-9.56
201.033	-9.56
201.252	84.65
201.471	12.97
201.69	19.11
201.909	78.51
202.128	-11.61
202.347	2.73
202.566	55.98
202.785	-32.08
203.004	-1.37
203.223	39.59
203.442	47.79
203.661	-17.75
203.879	-9.56
204.098	-38.23
204.317	23.21
204.536	-3.41
204.755	-62.8
204.974	35.5
205.193	47.79
205.411	88.75
205.63	-9.56
205.849	2.73
206.068	35.5
206.287	12.97
206.505	60.07
206.724	29.35
206.943	39.59
207.162	12.97
207.381	-9.56
207.599	64.17
207.818	25.26
208.037	12.97
208.255	21.16
208.474	60.07
208.693	49.83
208.911	68.27
209.13	4.78
209.349	-19.8
209.567	45.74
209.786	49.83
210.005	35.5
210.223	6.83
210.442	-50.52
210.661	62.12
210.879	10.92
211.098	8.87
211.316	-21.85
211.535	55.98
211.753	-68.95
211.972	-13.65
212.191	19.11
212.409	29.35
212.628	109.22
212.846	21.16
213.065	-36.18
213.283	55.98
213.502	4.78
213.72	84.65
213.938	82.6
214.157	-17.75
214.375	-46.42
214.594	31.4
214.812	15.02
215.031	-5.46
215.249	10.92
215.467	43.69
215.686	25.26
215.904	60.07
216.122	49.83
216.341	64.17
216.559	45.74
216.778	51.88
216.996	37.55
217.214	-9.56
217.432	-1.37
217.651	12.97
217.869	6.83
218.087	-17.75
218.306	-25.94
218.524	60.07
218.742	6.83
218.96	64.17
219.179	0.68
219.397	-30.04
219.615	90.79
219.833	47.79
220.051	39.59
220.27	92.84
220.488	49.83
220.706	25.26
220.924	-11.61
221.142	6.83
221.36	45.74
221.578	62.12
221.796	47.79
222.015	53.93
222.233	39.59
222.451	62.12
222.669	10.92
222.887	51.88
223.105	-40.28
223.323	21.16
223.541	10.92
223.759	37.55
223.977	-60.76
224.195	12.97
224.413	25.26
224.631	47.79
224.849	6.83
225.067	39.59
225.285	-3.41
225.503	23.21
225.721	-75.09
225.939	27.31
226.157	43.69
226.375	94.89
226.592	10.92
226.81	47.79
227.028	64.17
227.246	144.04
227.464	-40.28
227.682	64.17
227.9	70.31
228.117	-34.13
228.335	15.02
228.553	-23.89
228.771	51.88
228.989	0.68
229.206	-5.46
229.424	-3.41
229.642	-17.75
229.86	-21.85
230.077	53.93
230.295	53.93
230.513	55.98
230.731	88.75
230.948	8.87
231.166	101.03
231.384	19.11
231.601	29.35
231.819	92.84
232.037	21.16
232.254	-42.32
232.472	-34.13
232.689	-71
232.907	51.88
233.125	-97.62
233.342	-9.56
233.56	23.21
233.777	-21.85
233.995	-38.23
234.213	35.5
234.43	96.94
234.648	68.27
234.865	-32.08
235.083	-23.89
235.3	47.79
235.518	15.02
235.735	72.36
235.953	101.03
236.17	39.59
236.388	-50.52
236.605	94.89
236.822	-9.56
237.04	64.17
237.257	6.83
237.475	-1.37
237.692	-5.46
237.909	45.74
238.127	47.79
238.344	53.93
238.562	-17.75
238.779	-11.61
238.996	55.98
239.214	6.83
239.431	43.69
239.648	15.02
239.865	90.79
240.083	27.31
240.3	-9.56
240.517	-15.7
240.735	12.97
240.952	76.46
241.169	47.79
241.386	35.5
241.603	37.55
241.821	-1.37
242.038	96.94
242.255	-1.37
242.472	35.5
242.689	-17.75
242.907	70.31
243.124	84.65
243.341	39.59
243.558	6.83
243.775	21.16
243.992	72.36
244.209	-21.85
244.426	29.35
244.643	53.93
244.86	-19.8
245.078	-1.37
245.295	39.59
245.512	10.92
245.729	-15.7
245.946	-5.46
246.163	43.69
246.38	10.92
246.597	33.45
246.814	60.07
247.031	49.83
247.248	55.98
247.464	45.74
247.681	25.26
247.898	2.73
248.115	17.07
248.332	41.64
248.549	12.97
248.766	49.83
248.983	41.64
249.2	-15.7
249.417	-56.66
249.633	64.17
249.85	-46.42
250.067	21.16
250.284	70.31
250.501	25.26
250.717	49.83
250.934	-58.71
251.151	-25.94
251.368	-27.99
251.585	-3.41
251.801	31.4
252.018	-52.56
252.235	60.07
252.451	-44.37
252.668	2.73
252.885	51.88
253.102	53.93
253.318	94.89
253.535	-19.8
253.752	-3.41
253.968	2.73
254.185	2.73
254.401	60.07
254.618	78.51
254.835	-38.23
255.051	133.8
255.268	-25.94
255.484	37.55
255.701	-46.42
255.917	43.69
256.134	37.55
256.351	-3.41
256.567	29.35
256.784	17.07
257	-79.19
257.217	31.4
257.433	12.97
257.65	125.61
257.866	29.35
258.082	-52.56
258.299	39.59
258.515	68.27
258.732	78.51
258.948	58.03
259.165	43.69
259.381	-17.75
259.597	6.83
259.814	-7.51
260.03	12.97
260.246	4.78
260.463	39.59
260.679	70.31
260.895	35.5
261.112	53.93
261.328	-30.04
261.544	6.83
261.761	84.65
261.977	10.92
262.193	-25.94
262.409	135.85
262.626	35.5
262.842	-38.23
263.058	37.55
263.274	80.55
263.49	-9.56
263.707	-3.41
263.923	78.51
264.139	-46.42
264.355	6.83
264.571	78.51
264.787	33.45
265.004	86.7
265.22	27.31
265.436	-58.71
265.652	-58.71
265.868	98.99
266.084	-5.46
266.3	17.07
266.516	17.07
266.732	139.94
266.948	2.73
267.164	2.73
267.38	0.68
267.596	103.08
267.812	115.37
268.028	23.21
268.244	6.83
268.46	19.11
268.676	62.12
268.892	74.41
269.108	-34.13
269.324	31.4
269.54	6.83
269.756	72.36
269.972	-50.52
270.188	-7.51
270.403	53.93
270.619	31.4
270.835	37.55
271.051	0.68
271.267	23.21
271.483	0.68
271.698	45.74
271.914	21.16
272.13	19.11
272.346	29.35
272.562	-13.65
272.777	105.13
272.993	-58.71
273.209	27.31
273.425	37.55
273.64	-3.41
273.856	15.02
274.072	2.73
274.287	-34.13
274.503	25.26
274.719	31.4
274.934	35.5
275.15	6.83
275.366	-5.46
275.581	94.89
275.797	47.79
276.012	-34.13
276.228	64.17
276.444	25.26
276.659	84.65
276.875	-58.71
277.09	-27.99
277.306	43.69
277.521	17.07
277.737	-1.37
277.952	41.64
278.168	2.73
278.383	27.31
278.599	-19.8
278.814	35.5
279.03	-11.61
279.245	53.93
279.461	23.21
279.676	12.97
279.892	-17.75
280.107	8.87
280.322	-40.28
280.538	35.5
280.753	-13.65
280.969	53.93
281.184	27.31
281.399	47.79
281.615	47.79
281.83	60.07
282.045	76.46
282.26	-3.41
282.476	10.92
282.691	76.46
282.906	70.31
283.122	45.74
283.337	37.55
283.552	43.69
283.767	55.98
283.983	39.59
284.198	-9.56
284.413	47.79
284.628	0.68
284.843	-11.61
285.058	-27.99
285.274	19.11
285.489	10.92
285.704	35.5
285.919	-36.18
286.134	60.07
286.349	39.59
286.564	-66.9
286.779	2.73
286.995	55.98
287.21	-15.7
287.425	39.59
287.64	-27.99
287.855	53.93
288.07	-42.32
288.285	-19.8
288.5	8.87
288.715	-30.04
288.93	-30.04
289.145	-15.7
289.36	27.31
289.575	-9.56
289.79	94.89
290.004	-21.85
290.219	119.46
290.434	80.55
290.649	-23.89
290.864	23.21
291.079	35.5
291.294	55.98
291.509	51.88
291.724	47.79
291.938	17.07
292.153	41.64
292.368	-50.52
292.583	12.97
292.798	53.93
293.012	78.51
293.227	2.73
293.442	74.41
293.657	51.88
293.871	23.21
294.086	53.93
294.301	150.18
294.516	103.08
294.73	47.79
294.945	10.92
295.16	0.68
295.374	23.21
295.589	35.5
295.804	41.64
296.018	2.73
296.233	96.94
296.447	31.4
296.662	0.68
296.877	29.35
297.091	96.94
297.306	37.55
297.52	-3.41
297.735	35.5
297.949	12.97
298.164	53.93
298.378	-1.37
298.593	15.02
298.807	55.98
299.022	21.16
299.236	84.65
299.451	23.21
299.665	33.45
299.88	68.27
300.094	88.75
300.309	-42.32
300.523	17.07
300.737	-25.94
300.952	31.4
301.166	6.83
301.381	17.07
301.595	-17.75
301.809	101.03
302.024	70.31
302.238	-68.95
302.452	72.36
302.667	-36.18
302.881	-17.75
303.095	105.13
303.309	-38.23
303.524	6.83
303.738	-60.76
303.952	49.83
304.166	4.78
304.381	-99.67
304.595	45.74
304.809	-3.41
305.023	41.64
305.237	4.78
305.452	-7.51
305.666	2.73
305.88	45.74
306.094	45.74
306.308	-34.13
306.522	-44.37
306.736	4.78
306.95	-17.75
307.164	78.51
307.379	27.31
307.593	107.18
307.807	55.98
308.021	27.31
308.235	35.5
308.449	-25.94
308.663	-9.56
308.877	94.89
309.091	-36.18
309.305	55.98
309.519	-42.32
309.733	37.55
309.947	-27.99
310.161	60.07
310.374	23.21
310.588	115.37
310.802	-68.95
311.016	-73.04
311.23	58.03
311.444	-5.46
311.658	23.21
311.872	35.5
312.085	8.87
312.299	19.11
312.513	82.6
312.727	27.31
312.941	58.03
313.154	76.46
313.368	90.79
313.582	45.74
313.796	47.79
314.009	29.35
314.223	45.74
314.437	88.75
314.651	-1.37
314.864	0.68
315.078	47.79
315.292	6.83
315.505	15.02
315.719	-17.75
315.933	33.45
316.146	35.5
316.36	-34.13
316.573	55.98
316.787	31.4
317.001	78.51
317.214	2.73
317.428	29.35
317.641	2.73
317.855	35.5
318.068	51.88
318.282	-13.65
318.495	111.27
318.709	-9.56
318.922	-5.46
319.136	43.69
319.349	27.31
319.563	-30.04
319.776	15.02
319.99	-105.81
320.203	72.36
320.417	10.92
320.63	55.98
320.843	39.59
321.057	98.99
321.27	-25.94
321.483	82.6
321.697	27.31
321.91	88.75
322.124	45.74
322.337	27.31
322.55	-11.61
322.763	21.16
322.977	10.92
323.19	6.83
323.403	-50.52
323.617	-17.75
323.83	-5.46
324.043	-3.41
324.256	107.18
324.469	-9.56
324.683	80.55
324.896	-5.46
325.109	12.97
325.322	15.02
325.535	43.69
325.748	4.78
325.962	19.11
326.175	-9.56
326.388	98.99
326.601	49.83
326.814	-5.46
327.027	-66.9
327.24	64.17
327.453	-30.04
327.666	41.64
327.879	53.93
328.092	4.78
328.305	25.26
328.518	27.31
328.731	-44.37
328.944	84.65
329.157	35.5
329.37	4.78
329.583	55.98
329.796	74.41
330.009	-52.56
330.222	31.4
330.435	37.55
330.648	66.22
330.861	31.4
331.073	64.17
331.286	39.59
331.499	8.87
331.712	-5.46
331.925	51.88
332.138	51.88
332.35	47.79
332.563	-1.37
332.776	51.88
332.989	37.55
333.202	64.17
333.414	-30.04
333.627	68.27
333.84	51.88
334.053	2.73
334.265	-38.23
334.478	-38.23
334.691	27.31
334.903	29.35
335.116	17.07
335.329	-36.18
335.541	43.69
335.754	31.4
335.966	-27.99
336.179	-52.56
336.392	-23.89
336.604	27.31
336.817	70.31
337.029	43.69
337.242	8.87
337.454	-34.13
337.667	-1.37
337.88	84.65
338.092	-50.52
338.305	-3.41
338.517	-32.08
338.729	111.27
338.942	53.93
339.154	15.02
339.367	-25.94
339.579	33.45
339.792	31.4
340.004	23.21
340.217	12.97
340.429	39.59
340.641	-54.61
340.854	19.11
341.066	2.73
341.278	51.88
341.491	15.02
341.703	10.92
341.915	-15.7
342.128	70.31
342.34	19.11
342.552	27.31
342.764	60.07
342.977	25.26
343.189	27.31
343.401	-1.37
343.613	-17.75
343.826	-32.08
344.038	2.73
344.25	94.89
344.462	39.59
344.674	70.31
344.886	68.27
345.099	53.93
345.311	60.07
345.523	-23.89
345.735	17.07
345.947	88.75
346.159	-9.56
346.371	55.98
346.583	45.74
346.795	39.59
347.007	37.55
347.219	35.5
347.431	-13.65
347.643	125.61
347.855	35.5
348.067	45.74
348.279	-91.48
348.491	31.4
348.703	47.79
348.915	-42.32
349.127	-32.08
349.339	33.45
349.551	-21.85
349.763	37.55
349.975	-68.95
350.187	74.41
350.399	107.18
350.61	45.74
350.822	62.12
351.034	58.03
351.246	-9.56
351.458	35.5
351.669	29.35
351.881	129.7
352.093	43.69
352.305	6.83
352.517	78.51
352.728	129.7
352.94	60.07
353.152	4.78
353.363	-3.41
353.575	23.21
353.787	55.98
353.999	31.4
354.21	94.89
354.422	25.26
354.633	15.02
354.845	6.83
355.057	45.74
355.268	-13.65
355.48	78.51
355.692	-11.61
355.903	4.78
356.115	60.07
356.326	-27.99
356.538	-3.41
356.749	39.59
356.961	146.09
357.172	68.27
357.384	27.31
357.595	43.69
357.807	62.12
358.018	49.83
358.23	-19.8
358.441	51.88
358.653	37.55
358.864	10.92
359.075	19.11
359.287	68.27
359.498	-3.41
359.709	43.69
359.921	80.55
360.132	53.93
360.344	23.21
360.555	-52.56
360.766	39.59
360.977	-36.18
361.189	23.21
361.4	51.88
361.611	53.93
361.823	21.16
362.034	80.55
362.245	-34.13
362.456	55.98
362.667	137.9
362.879	-25.94
363.09	6.83
363.301	51.88
363.512	-75.09
363.723	12.97
363.935	-21.85
364.146	70.31
364.357	101.03
364.568	27.31
364.779	-83.28
364.99	78.51
365.201	21.16
365.412	27.31
365.623	-71
365.834	45.74
366.045	6.83
366.256	23.21
366.467	80.55
366.678	6.83
366.889	39.59
367.1	4.78
367.311	-44.37
367.522	43.69
367.733	15.02
367.944	-21.85
368.155	47.79
368.366	31.4
368.577	39.59
368.788	78.51
368.999	-17.75
369.209	27.31
369.42	53.93
369.631	92.84
369.842	19.11
370.053	39.59
370.264	45.74
370.474	2.73
370.685	19.11
370.896	76.46
371.107	31.4
371.317	66.22
371.528	23.21
371.739	62.12
371.95	2.73
372.16	55.98
372.371	-40.28
372.582	23.21
372.792	111.27
373.003	12.97
373.214	33.45
373.424	113.32
373.635	51.88
373.846	2.73
374.056	-1.37
374.267	39.59
374.477	94.89
374.688	72.36
374.898	80.55
375.109	-5.46
375.319	43.69
375.53	90.79
375.74	45.74
375.951	-9.56
376.161	45.74
376.372	109.22
376.582	47.79
376.793	111.27
377.003	-21.85
377.214	-34.13
377.424	94.89
377.635	82.6
377.845	21.16
378.055	86.7
378.266	35.5
378.476	-9.56
378.686	-9.56
378.897	86.7
379.107	43.69
379.317	76.46
379.528	21.16
379.738	51.88
379.948	-83.28
380.158	64.17
380.369	55.98
380.579	60.07
380.789	78.51
380.999	58.03
381.21	109.22
381.42	84.65
381.63	84.65
381.84	86.7
382.05	35.5
382.261	117.42
382.471	80.55
382.681	-99.67
382.891	113.32
383.101	-21.85
383.311	76.46
383.521	49.83
383.731	105.13
383.941	43.69
384.151	76.46
384.361	25.26
384.571	144.04
384.781	64.17
384.991	72.36
385.201	84.65
385.411	68.27
385.621	70.31
385.831	-19.8
386.041	66.22
386.251	72.36
386.461	131.75
386.671	-15.7
386.881	-3.41
387.091	66.22
387.301	105.13
387.511	47.79
387.72	84.65
387.93	64.17
388.14	21.16
388.35	51.88
388.56	27.31
388.769	103.08
388.979	58.03
389.189	43.69
389.399	37.55
389.609	21.16
389.818	78.51
390.028	115.37
390.238	29.35
390.447	78.51
390.657	72.36
390.867	53.93
391.076	64.17
391.286	31.4
391.496	37.55
391.705	125.61
391.915	60.07
392.125	68.27
392.334	15.02
392.544	137.9
392.753	23.21
392.963	58.03
393.172	74.41
393.382	-21.85
393.591	55.98
393.801	25.26
394.01	88.75
394.22	111.27
394.429	23.21
394.639	78.51
394.848	60.07
395.058	72.36
395.267	127.66
395.477	70.31
395.686	31.4
395.895	164.52
396.105	176.81
396.314	60.07
396.524	88.75
396.733	62.12
396.942	92.84
397.152	70.31
397.361	217.77
397.57	53.93
397.78	101.03
397.989	49.83
398.198	121.51
398.407	98.99
398.617	62.12
398.826	105.13
399.035	51.88
399.244	137.9
399.453	51.88
399.663	135.85
399.872	146.09
400.081	70.31
400.29	193.19
400.499	74.41
400.708	82.6
400.917	45.74
401.127	121.51
401.336	107.18
401.545	158.38
401.754	127.66
401.963	133.8
402.172	121.51
402.381	105.13
402.59	107.18
402.799	76.46
403.008	133.8
403.217	162.47
403.426	103.08
403.635	193.19
403.844	133.8
404.053	191.14
404.262	141.99
404.471	156.33
404.68	105.13
404.888	101.03
405.097	113.32
405.306	168.62
405.515	197.29
405.724	70.31
405.933	125.61
406.142	146.09
406.35	129.7
406.559	178.86
406.768	156.33
406.977	262.82
407.185	164.52
407.394	205.48
407.603	92.84
407.812	115.37
408.02	223.91
408.229	148.14
408.438	203.43
408.646	172.71
408.855	162.47
409.064	236.2
409.272	178.86
409.481	240.29
409.69	238.25
409.898	223.91
410.107	248.49
410.315	268.97
410.524	217.77
410.733	256.68
410.941	316.07
411.15	289.45
411.358	344.74
411.567	369.32
411.775	365.22
411.984	387.75
412.192	389.8
412.401	379.56
412.609	357.03
412.818	502.43
413.026	402.08
413.234	387.75
413.443	467.62
413.651	496.29
413.86	475.81
414.068	508.58
414.276	527.01
414.485	457.38
414.693	555.68
414.901	631.46
415.11	567.97
415.318	578.21
415.526	578.21
415.734	696.99
415.943	711.33
416.151	703.14
416.359	613.03
416.567	742.05
416.776	744.1
416.984	875.17
417.192	836.25
417.4	846.49
417.608	852.64
417.817	981.66
418.025	932.51
418.233	1030.81
418.441	973.47
418.649	1034.91
418.857	1129.11
419.065	1079.96
419.273	1188.5
419.481	1254.04
419.689	1211.03
419.897	1170.07
420.105	1315.48
420.313	1282.71
420.521	1381.01
420.729	1432.21
420.937	1411.73
421.145	1444.5
421.353	1464.98
421.561	1677.97
421.769	1692.3
421.977	1686.16
422.185	1669.78
422.393	1729.17
422.601	1923.73
422.809	1989.26
423.017	1952.4
423.224	2040.46
423.432	2112.14
423.64	2075.27
423.848	2370.18
424.056	2194.06
424.263	2398.85
424.471	2419.33
424.679	2497.16
424.887	2566.79
425.094	2671.23
425.302	2632.32
425.51	2751.1
425.718	2972.29
425.925	2923.13
426.133	2919.04
426.341	3005.05
426.548	3338.87
426.756	3353.21
426.964	3365.5
427.171	3500.66
427.379	3779.19
427.586	3621.49
427.794	3791.47
428.001	3920.49
428.209	4303.47
428.417	3988.08
428.624	4225.64
428.832	4393.58
429.039	4438.63
429.247	4532.84
429.454	4758.11
429.662	5165.66
429.869	4717.15
430.076	5132.89
430.284	4962.91
430.491	5204.57
430.699	5648.98
430.906	5448.28
431.114	5552.73
431.321	5945.94
431.528	5853.78
431.736	6173.26
431.943	6490.7
432.15	6201.93
432.358	6496.84
432.565	6580.81
432.772	6767.17
432.979	7014.98
433.187	7117.37
433.394	7270.97
433.601	7815.73
433.808	7760.44
434.016	7639.61
434.223	8016.43
434.43	8264.24
434.637	8170.03
434.844	8671.78
435.052	9122.34
435.259	8950.31
435.466	9021.98
435.673	8903.2
435.88	9583.13
436.087	9962
436.294	10086.93
436.501	9632.28
436.708	9908.76
436.915	10328.59
437.122	10934.79
437.329	10744.33
437.537	11225.6
437.743	11170.3
437.95	11141.63
438.157	11827.7
438.364	12153.33
438.571	12325.36
438.778	12220.91
438.985	13509.08
439.192	12712.42
439.399	13504.99
439.606	12823.01
439.813	13699.55
440.02	14557.64
440.227	14158.29
440.433	14109.14
440.64	14805.45
440.847	14389.71
441.054	14733.77
441.261	15722.94
441.467	15483.33
441.674	15929.78
441.881	16585.13
442.088	16214.45
442.294	16304.56
442.501	16705.96
442.708	16910.76
442.914	17783.2
443.121	18561.42
443.328	17887.64
443.534	19366.28
443.741	18874.76
443.948	18385.3
444.154	19888.51
444.361	19818.88
444.568	19982.71
444.774	20085.11
444.981	20027.77
445.187	20593.01
445.394	21522.79
445.6	21424.48
445.807	23329.09
446.013	22425.94
446.22	22776.14
446.426	23808.32
446.633	23925.05
446.839	24557.88
447.046	23349.57
447.252	24992.05
447.459	24817.97
447.665	24820.02
447.871	26020.13
448.078	27162.89
448.284	25893.15
448.491	26773.78
448.697	27808
448.903	27853.06
449.11	28107.01
449.316	27769.09
449.522	28360.95
449.728	28991.73
449.935	29223.15
450.141	29227.24
450.347	30284
450.553	28635.38
450.76	29157.61
450.966	30200.03
451.172	29731.04
451.378	30626.01
451.584	29837.54
451.791	30480.6
451.997	30505.18
452.203	31045.84
452.409	30791.89
452.615	30830.8
452.821	29692.13
453.027	29645.03
453.233	30998.74
453.44	29462.76
453.646	29980.9
453.852	30195.93
454.058	30464.22
454.264	29776.1
454.47	29997.28
454.676	29608.17
454.882	30576.86
455.088	27889.92
455.294	27998.46
455.5	28688.63
455.705	28944.62
455.911	27875.59
456.117	27142.41
456.323	26880.27
456.529	25323.82
456.735	26538.26
456.941	25770.27
457.147	25332.01
457.352	24590.64
457.558	24217.91
457.764	24480.05
457.97	23832.9
458.176	23277.9
458.381	23421.25
458.587	22190.42
458.793	22249.82
458.999	21008.75
459.204	22585.68
459.41	21614.94
459.616	20330.87
459.821	20566.38
460.027	20371.83
460.233	20017.53
460.438	19085.7
460.644	19270.02
460.85	18551.18
461.055	18139.54
461.261	18000.28
461.466	16699.82
461.672	16513.45
461.878	17220
462.083	16300.47
462.289	16005.56
462.494	15610.3
462.7	15208.9
462.905	14621.13
463.111	15088.07
463.316	15016.39
463.522	14897.61
463.727	14905.8
463.932	15012.29
464.138	14588.36
464.343	14653.9
464.549	14213.59
464.754	14881.22
464.959	14473.68
465.165	14440.91
465.37	13830.62
465.575	13511.13
465.781	14162.39
465.986	14076.37
466.191	13642.2
466.397	13267.42
466.602	12644.84
466.807	13044.2
467.012	13242.85
467.218	13203.94
467.423	12902.89
