Data from USB4F104151__49__11-30-31-262.txt Node

Date: Fri Mar 14 11:30:31 EDT 2025
User: louis
Spectrometer: USB4F10415
Trigger mode: 4
Integration Time (sec): 5.000000E-2
Scans to average: 1
Electric dark correction enabled: true
Nonlinearity correction enabled: false
Boxcar width: 0
XAxis mode: Wavelengths
Number of Pixels in Spectrum: 3648
>>>>>Begin Spectral Data<<<<<
178.204	-217.77
178.424	-217.77
178.644	-217.77
178.864	-176.81
179.084	-96.94
179.304	52.56
179.524	15.7
179.744	-12.97
179.964	40.28
180.184	50.52
180.404	-17.07
180.624	1.37
180.844	-43.69
181.064	-29.35
181.283	-47.79
181.503	-31.4
181.723	21.85
181.943	-47.79
182.163	-17.07
182.383	-8.87
182.602	19.8
182.822	40.28
183.042	38.23
183.262	-53.93
183.482	-15.02
183.701	13.65
183.921	-8.87
184.141	23.89
184.361	1.37
184.58	60.76
184.8	54.61
185.02	3.41
185.239	44.37
185.459	-39.59
185.679	-8.87
185.898	-12.97
186.118	-0.68
186.338	3.41
186.557	-39.59
186.777	-23.21
186.997	15.7
187.216	-10.92
187.436	105.81
187.655	52.56
187.875	97.62
188.095	7.51
188.314	109.91
188.534	19.8
188.753	-19.11
188.973	-29.35
189.192	81.24
189.412	83.28
189.631	-29.35
189.851	40.28
190.07	15.7
190.29	-60.07
190.509	-4.78
190.729	-23.21
190.948	27.99
191.168	130.39
191.387	81.24
191.607	19.8
191.826	-70.31
192.045	-21.16
192.265	27.99
192.484	44.37
192.704	60.76
192.923	-45.74
193.142	85.33
193.362	34.13
193.581	101.72
193.8	3.41
194.02	-6.83
194.239	66.9
194.458	62.8
194.678	-33.45
194.897	19.8
195.116	34.13
195.335	11.61
195.555	126.29
195.774	-37.55
195.993	-15.02
196.212	3.41
196.432	-4.78
196.651	44.37
196.87	17.75
197.089	126.29
197.308	97.62
197.528	-31.4
197.747	-6.83
197.966	75.09
198.185	25.94
198.404	-25.26
198.623	89.43
198.842	-4.78
199.062	60.76
199.281	85.33
199.5	25.94
199.719	38.23
199.938	30.04
200.157	81.24
200.376	-23.21
200.595	56.66
200.814	17.75
201.033	-33.45
201.252	42.32
201.471	-31.4
201.69	38.23
201.909	15.7
202.128	23.89
202.347	52.56
202.566	17.75
202.785	-47.79
203.004	-39.59
203.223	83.28
203.442	58.71
203.661	50.52
203.879	75.09
204.098	50.52
204.317	-62.12
204.536	44.37
204.755	-15.02
204.974	-21.16
205.193	19.8
205.411	97.62
205.63	25.94
205.849	1.37
206.068	-4.78
206.287	3.41
206.505	81.24
206.724	3.41
206.943	21.85
207.162	-12.97
207.381	89.43
207.599	9.56
207.818	-37.55
208.037	-19.11
208.255	11.61
208.474	-47.79
208.693	-12.97
208.911	30.04
209.13	-0.68
209.349	34.13
209.567	3.41
209.786	138.58
210.005	34.13
210.223	36.18
210.442	25.94
210.661	27.99
210.879	42.32
211.098	34.13
211.316	23.89
211.535	-23.21
211.753	11.61
211.972	60.76
212.191	13.65
212.409	3.41
212.628	19.8
212.846	-29.35
213.065	-23.21
213.283	60.76
213.502	-25.26
213.72	11.61
213.938	25.94
214.157	60.76
214.375	-25.26
214.594	42.32
214.812	60.76
215.031	-55.98
215.249	-39.59
215.467	-8.87
215.686	48.47
215.904	44.37
216.122	-23.21
216.341	-8.87
216.559	11.61
216.778	44.37
216.996	91.48
217.214	9.56
217.432	52.56
217.651	3.41
217.869	-45.74
218.087	30.04
218.306	11.61
218.524	17.75
218.742	-31.4
218.96	64.85
219.179	7.51
219.397	-35.5
219.615	60.76
219.833	1.37
220.051	27.99
220.27	50.52
220.488	52.56
220.706	-49.83
220.924	52.56
221.142	-23.21
221.36	9.56
221.578	-8.87
221.796	-4.78
222.015	62.8
222.233	36.18
222.451	85.33
222.669	1.37
222.887	85.33
223.105	3.41
223.323	36.18
223.541	19.8
223.759	25.94
223.977	19.8
224.195	120.15
224.413	13.65
224.631	48.47
224.849	36.18
225.067	58.71
225.285	-15.02
225.503	99.67
225.721	-0.68
225.939	-4.78
226.157	36.18
226.375	116.05
226.592	11.61
226.81	-37.55
227.028	68.95
227.246	25.94
227.464	25.94
227.682	73.04
227.9	-31.4
228.117	95.57
228.335	77.14
228.553	38.23
228.771	34.13
228.989	-53.93
229.206	-4.78
229.424	-66.22
229.642	23.89
229.86	9.56
230.077	3.41
230.295	11.61
230.513	77.14
230.731	38.23
230.948	85.33
231.166	23.89
231.384	-23.21
231.601	-27.31
231.819	-29.35
232.037	-41.64
232.254	-31.4
232.472	15.7
232.689	27.99
232.907	58.71
233.125	-37.55
233.342	1.37
233.56	60.76
233.777	15.7
233.995	3.41
234.213	81.24
234.43	15.7
234.648	3.41
234.865	52.56
235.083	19.8
235.3	42.32
235.518	66.9
235.735	68.95
235.953	3.41
236.17	116.05
236.388	81.24
236.605	-21.16
236.822	75.09
237.04	38.23
237.257	52.56
237.475	-21.16
237.692	17.75
237.909	23.89
238.127	-15.02
238.344	40.28
238.562	107.86
238.779	-2.73
238.996	-47.79
239.214	21.85
239.431	73.04
239.648	-62.12
239.865	23.89
240.083	114
240.3	-33.45
240.517	-33.45
240.735	9.56
240.952	40.28
241.169	27.99
241.386	-49.83
241.603	-8.87
241.821	-29.35
242.038	77.14
242.255	17.75
242.472	-17.07
242.689	27.99
242.907	85.33
243.124	9.56
243.341	3.41
243.558	25.94
243.775	-62.12
243.992	-2.73
244.209	25.94
244.426	114
244.643	36.18
244.86	7.51
245.078	-17.07
245.295	-12.97
245.512	-4.78
245.729	-39.59
245.946	1.37
246.163	52.56
246.38	-12.97
246.597	32.08
246.814	44.37
247.031	-70.31
247.248	34.13
247.464	-21.16
247.681	19.8
247.898	17.75
248.115	25.94
248.332	19.8
248.549	95.57
248.766	114
248.983	23.89
249.2	-21.16
249.417	73.04
249.633	-15.02
249.85	19.8
250.067	-6.83
250.284	36.18
250.501	66.9
250.717	-33.45
250.934	-29.35
251.151	42.32
251.368	97.62
251.585	122.2
251.801	54.61
252.018	3.41
252.235	-25.26
252.451	-31.4
252.668	52.56
252.885	161.11
253.102	-6.83
253.318	-23.21
253.535	19.8
253.752	38.23
253.968	-45.74
254.185	-21.16
254.401	3.41
254.618	21.85
254.835	9.56
255.051	75.09
255.268	68.95
255.484	23.89
255.701	99.67
255.917	120.15
256.134	-4.78
256.351	1.37
256.567	-37.55
256.784	-25.26
257	-64.17
257.217	44.37
257.433	3.41
257.65	17.75
257.866	19.8
258.082	-8.87
258.299	-62.12
258.515	101.72
258.732	-60.07
258.948	25.94
259.165	27.99
259.381	-12.97
259.597	-47.79
259.814	13.65
260.03	-12.97
260.246	56.66
260.463	-0.68
260.679	66.9
260.895	83.28
261.112	-2.73
261.328	-12.97
261.544	17.75
261.761	32.08
261.977	-6.83
262.193	-47.79
262.409	83.28
262.626	32.08
262.842	25.94
263.058	-37.55
263.274	46.42
263.49	40.28
263.707	50.52
263.923	77.14
264.139	-37.55
264.355	15.7
264.571	9.56
264.787	77.14
265.004	-6.83
265.22	23.89
265.436	71
265.652	68.95
265.868	36.18
266.084	-15.02
266.3	38.23
266.516	-10.92
266.732	42.32
266.948	5.46
267.164	40.28
267.38	101.72
267.596	-12.97
267.812	52.56
268.028	-37.55
268.244	-47.79
268.46	-25.26
268.676	34.13
268.892	36.18
269.108	3.41
269.324	-45.74
269.54	-68.27
269.756	34.13
269.972	11.61
270.188	38.23
270.403	23.89
270.619	19.8
270.835	17.75
271.051	-53.93
271.267	60.76
271.483	52.56
271.698	-4.78
271.914	21.85
272.13	-33.45
272.346	-23.21
272.562	-12.97
272.777	42.32
272.993	30.04
273.209	-27.31
273.425	48.47
273.64	-25.26
273.856	71
274.072	-21.16
274.287	-62.12
274.503	-35.5
274.719	36.18
274.934	-12.97
275.15	9.56
275.366	-4.78
275.581	-21.16
275.797	83.28
276.012	19.8
276.228	21.85
276.444	52.56
276.659	60.76
276.875	-37.55
277.09	-78.51
277.306	11.61
277.521	91.48
277.737	15.7
277.952	27.99
278.168	40.28
278.383	3.41
278.599	3.41
278.814	44.37
279.03	64.85
279.245	11.61
279.461	85.33
279.676	52.56
279.892	-17.07
280.107	62.8
280.322	13.65
280.538	68.95
280.753	-29.35
280.969	-23.21
281.184	-15.02
281.399	58.71
281.615	1.37
281.83	97.62
282.045	19.8
282.26	120.15
282.476	71
282.691	13.65
282.906	3.41
283.122	50.52
283.337	3.41
283.552	36.18
283.767	46.42
283.983	77.14
284.198	-15.02
284.413	13.65
284.628	-4.78
284.843	11.61
285.058	13.65
285.274	32.08
285.489	-39.59
285.704	-74.41
285.919	7.51
286.134	34.13
286.349	64.85
286.564	-72.36
286.779	42.32
286.995	19.8
287.21	60.76
287.425	27.99
287.64	32.08
287.855	38.23
288.07	36.18
288.285	56.66
288.5	85.33
288.715	-15.02
288.93	83.28
289.145	11.61
289.36	66.9
289.575	-21.16
289.79	44.37
290.004	-8.87
290.219	15.7
290.434	62.8
290.649	-4.78
290.864	-4.78
291.079	44.37
291.294	64.85
291.509	27.99
291.724	-17.07
291.938	-6.83
292.153	11.61
292.368	25.94
292.583	36.18
292.798	36.18
293.012	77.14
293.227	44.37
293.442	-17.07
293.657	148.82
293.871	1.37
294.086	-43.69
294.301	91.48
294.516	50.52
294.73	19.8
294.945	38.23
295.16	85.33
295.374	27.99
295.589	40.28
295.804	-39.59
296.018	-2.73
296.233	68.95
296.447	-21.16
296.662	-4.78
296.877	95.57
297.091	-10.92
297.306	27.99
297.52	-37.55
297.735	-68.27
297.949	-15.02
298.164	91.48
298.378	-66.22
298.593	44.37
298.807	60.76
299.022	52.56
299.236	109.91
299.451	68.95
299.665	19.8
299.88	64.85
300.094	-60.07
300.309	-21.16
300.523	3.41
300.737	73.04
300.952	48.47
301.166	-10.92
301.381	-8.87
301.595	19.8
301.809	95.57
302.024	11.61
302.238	-31.4
302.452	13.65
302.667	-47.79
302.881	68.95
303.095	48.47
303.309	46.42
303.524	48.47
303.738	7.51
303.952	23.89
304.166	154.96
304.381	-53.93
304.595	64.85
304.809	77.14
305.023	9.56
305.237	9.56
305.452	-4.78
305.666	34.13
305.88	50.52
306.094	56.66
306.308	-21.16
306.522	73.04
306.736	27.99
306.95	40.28
307.164	-58.03
307.379	17.75
307.593	-17.07
307.807	58.71
308.021	58.71
308.235	34.13
308.449	5.46
308.663	7.51
308.877	148.82
309.091	32.08
309.305	21.85
309.519	-21.16
309.733	30.04
309.947	-39.59
310.161	62.8
310.374	-12.97
310.588	60.76
310.802	-47.79
311.016	1.37
311.23	27.99
311.444	15.7
311.658	17.75
311.872	111.96
312.085	17.75
312.299	73.04
312.513	27.99
312.727	11.61
312.941	-37.55
313.154	44.37
313.368	1.37
313.582	-25.26
313.796	36.18
314.009	-8.87
314.223	93.52
314.437	-8.87
314.651	27.99
314.864	44.37
315.078	64.85
315.292	54.61
315.505	3.41
315.719	71
315.933	44.37
316.146	58.71
316.36	-29.35
316.573	23.89
316.787	-29.35
317.001	-53.93
317.214	13.65
317.428	3.41
317.641	-33.45
317.855	-25.26
318.068	-33.45
318.282	19.8
318.495	17.75
318.709	56.66
318.922	-15.02
319.136	101.72
319.349	68.95
319.563	48.47
319.776	-35.5
319.99	-23.21
320.203	7.51
320.417	-15.02
320.63	50.52
320.843	91.48
321.057	25.94
321.27	73.04
321.483	-6.83
321.697	25.94
321.91	17.75
322.124	93.52
322.337	23.89
322.55	-8.87
322.763	48.47
322.977	-8.87
323.19	44.37
323.403	-10.92
323.617	46.42
323.83	36.18
324.043	36.18
324.256	38.23
324.469	25.94
324.683	60.76
324.896	-51.88
325.109	44.37
325.322	36.18
325.535	32.08
325.748	77.14
325.962	48.47
326.175	3.41
326.388	25.94
326.601	11.61
326.814	-29.35
327.027	73.04
327.24	73.04
327.453	-21.16
327.666	85.33
327.879	62.8
328.092	101.72
328.305	23.89
328.518	7.51
328.731	-17.07
328.944	77.14
329.157	1.37
329.37	-29.35
329.583	95.57
329.796	83.28
330.009	7.51
330.222	42.32
330.435	9.56
330.648	60.76
330.861	-29.35
331.073	40.28
331.286	13.65
331.499	-27.31
331.712	-27.31
331.925	27.99
332.138	21.85
332.35	114
332.563	-37.55
332.776	52.56
332.989	21.85
333.202	-37.55
333.414	44.37
333.627	52.56
333.84	-43.69
334.053	64.85
334.265	52.56
334.478	19.8
334.691	64.85
334.903	11.61
335.116	60.76
335.329	52.56
335.541	36.18
335.754	77.14
335.966	11.61
336.179	7.51
336.392	-53.93
336.604	7.51
336.817	21.85
337.029	30.04
337.242	42.32
337.454	75.09
337.667	-6.83
337.88	44.37
338.092	19.8
338.305	42.32
338.517	13.65
338.729	77.14
338.942	19.8
339.154	17.75
339.367	-29.35
339.579	73.04
339.792	-58.03
340.004	32.08
340.217	3.41
340.429	93.52
340.641	-12.97
340.854	-17.07
341.066	-51.88
341.278	68.95
341.491	27.99
341.703	36.18
341.915	19.8
342.128	77.14
342.34	52.56
342.552	30.04
342.764	-0.68
342.977	87.38
343.189	40.28
343.401	-4.78
343.613	17.75
343.826	75.09
344.038	-23.21
344.25	75.09
344.462	19.8
344.674	-0.68
344.886	52.56
345.099	21.85
345.311	11.61
345.523	-17.07
345.735	-12.97
345.947	58.71
346.159	19.8
346.371	40.28
346.583	144.72
346.795	122.2
347.007	-25.26
347.219	11.61
347.431	-6.83
347.643	-49.83
347.855	-12.97
348.067	50.52
348.279	11.61
348.491	34.13
348.703	54.61
348.915	-0.68
349.127	15.7
349.339	52.56
349.551	-12.97
349.763	48.47
349.975	56.66
350.187	81.24
350.399	83.28
350.61	46.42
350.822	-4.78
351.034	15.7
351.246	27.99
351.458	73.04
351.669	77.14
351.881	77.14
352.093	68.95
352.305	44.37
352.517	120.15
352.728	-10.92
352.94	30.04
353.152	-19.11
353.363	-78.51
353.575	134.48
353.787	58.71
353.999	-6.83
354.21	79.19
354.422	23.89
354.633	34.13
354.845	11.61
355.057	101.72
355.268	15.7
355.48	91.48
355.692	25.94
355.903	27.99
356.115	81.24
356.326	-33.45
356.538	101.72
356.749	-12.97
356.961	83.28
357.172	9.56
357.384	97.62
357.595	77.14
357.807	11.61
358.018	-33.45
358.23	36.18
358.441	91.48
358.653	3.41
358.864	60.76
359.075	5.46
359.287	27.99
359.498	25.94
359.709	11.61
359.921	83.28
360.132	50.52
360.344	23.89
360.555	15.7
360.766	19.8
360.977	77.14
361.189	93.52
361.4	19.8
361.611	68.95
361.823	134.48
362.034	79.19
362.245	-37.55
362.456	105.81
362.667	48.47
362.879	11.61
363.09	107.86
363.301	7.51
363.512	27.99
363.723	85.33
363.935	23.89
364.146	83.28
364.357	66.9
364.568	87.38
364.779	-2.73
364.99	93.52
365.201	19.8
365.412	-6.83
365.623	52.56
365.834	-33.45
366.045	19.8
366.256	89.43
366.467	36.18
366.678	1.37
366.889	54.61
367.1	19.8
367.311	-15.02
367.522	27.99
367.733	54.61
367.944	27.99
368.155	40.28
368.366	116.05
368.577	19.8
368.788	36.18
368.999	19.8
369.209	44.37
369.42	83.28
369.631	103.76
369.842	17.75
370.053	30.04
370.264	48.47
370.474	3.41
370.685	27.99
370.896	64.85
371.107	27.99
371.317	-21.16
371.528	-23.21
371.739	46.42
371.95	68.95
372.16	52.56
372.371	3.41
372.582	1.37
372.792	50.52
373.003	1.37
373.214	85.33
373.424	-0.68
373.635	91.48
373.846	58.71
374.056	19.8
374.267	23.89
374.477	23.89
374.688	68.95
374.898	83.28
375.109	17.75
375.319	68.95
375.53	101.72
375.74	60.76
375.951	27.99
376.161	91.48
376.372	60.76
376.582	83.28
376.793	34.13
377.003	27.99
377.214	66.9
377.424	87.38
377.635	34.13
377.845	36.18
378.055	97.62
378.266	7.51
378.476	-15.02
378.686	9.56
378.897	15.7
379.107	83.28
379.317	27.99
379.528	11.61
379.738	118.1
379.948	-12.97
380.158	15.7
380.369	89.43
380.579	68.95
380.789	-0.68
380.999	23.89
381.21	30.04
381.42	68.95
381.63	79.19
381.84	1.37
382.05	23.89
382.261	85.33
382.471	85.33
382.681	-10.92
382.891	179.54
383.101	11.61
383.311	66.9
383.521	-47.79
383.731	93.52
383.941	81.24
384.151	122.2
384.361	25.94
384.571	38.23
384.781	66.9
384.991	50.52
385.201	62.8
385.411	140.63
385.621	44.37
385.831	27.99
386.041	-6.83
386.251	34.13
386.461	-4.78
386.671	5.46
386.881	48.47
387.091	38.23
387.301	101.72
387.511	23.89
387.72	91.48
387.93	21.85
388.14	-58.03
388.35	48.47
388.56	44.37
388.769	50.52
388.979	116.05
389.189	60.76
389.399	40.28
389.609	52.56
389.818	71
390.028	19.8
390.238	25.94
390.447	11.61
390.657	32.08
390.867	23.89
391.076	-29.35
391.286	23.89
391.496	85.33
391.705	32.08
391.915	32.08
392.125	11.61
392.334	-12.97
392.544	95.57
392.753	93.52
392.963	66.9
393.172	56.66
393.382	-25.26
393.591	181.59
393.801	81.24
394.01	134.48
394.22	107.86
394.429	73.04
394.639	99.67
394.848	85.33
395.058	97.62
395.267	44.37
395.477	77.14
395.686	140.63
395.895	71
396.105	122.2
396.314	85.33
396.524	38.23
396.733	44.37
396.942	144.72
397.152	60.76
397.361	64.85
397.57	32.08
397.78	97.62
397.989	144.72
398.198	64.85
398.407	46.42
398.617	120.15
398.826	101.72
399.035	1.37
399.244	58.71
399.453	93.52
399.663	77.14
399.872	97.62
400.081	81.24
400.29	175.44
400.499	27.99
400.708	163.15
400.917	85.33
401.127	114
401.336	118.1
401.545	181.59
401.754	148.82
401.963	111.96
402.172	40.28
402.381	68.95
402.59	52.56
402.799	62.8
403.008	105.81
403.217	124.24
403.426	60.76
403.635	73.04
403.844	77.14
404.053	140.63
404.262	83.28
404.471	157.01
404.68	109.91
404.888	212.31
405.097	134.48
405.306	181.59
405.515	154.96
405.724	163.15
405.933	189.78
406.142	95.57
406.35	163.15
406.559	157.01
406.768	107.86
406.977	232.79
407.185	197.97
407.394	224.59
407.603	75.09
407.812	165.2
408.02	218.45
408.229	161.11
408.438	255.31
408.646	97.62
408.855	177.49
409.064	200.02
409.272	181.59
409.481	271.7
409.69	232.79
409.898	228.69
410.107	312.66
410.315	277.84
410.524	216.4
410.733	263.51
410.941	271.7
411.15	275.79
411.358	277.84
411.567	339.28
411.775	378.19
411.984	269.65
412.192	296.27
412.401	355.66
412.609	478.54
412.818	431.44
413.026	394.58
413.234	353.62
413.443	392.53
413.651	396.62
413.86	509.26
414.068	501.07
414.276	525.65
414.485	462.16
414.693	546.13
414.901	615.76
415.11	617.8
415.318	527.69
415.526	593.23
415.734	591.18
415.943	656.72
416.151	705.87
416.359	628.04
416.567	775.5
416.776	804.17
416.984	824.65
417.192	798.03
417.4	793.93
417.608	871.75
417.817	847.18
418.025	816.46
418.233	986.44
418.441	869.7
418.649	957.77
418.857	1109.32
419.065	1035.59
419.273	1105.22
419.481	1062.21
419.689	1289.54
419.897	1166.66
420.105	1240.39
420.313	1269.06
420.521	1318.21
420.729	1322.31
420.937	1453.38
421.145	1563.97
421.353	1580.35
421.561	1537.34
421.769	1666.36
421.977	1676.6
422.185	1690.94
422.393	1754.43
422.601	1953.08
422.809	1879.35
423.017	1846.59
423.224	2073.91
423.432	2133.3
423.64	2174.26
423.848	2448.69
424.056	2176.31
424.263	2426.16
424.471	2454.83
424.679	2452.78
424.887	2534.7
425.094	2594.09
425.302	2682.16
425.51	2731.31
425.718	2868.52
425.925	2827.56
426.133	3022.12
426.341	3120.42
426.548	3239.2
426.756	3247.4
426.964	3423.52
427.171	3394.85
427.379	3706.14
427.586	3685.66
427.794	3869.98
428.001	3974.42
428.209	3994.9
428.417	4132.12
428.624	4357.39
428.832	4275.48
429.039	4349.2
429.247	4427.03
429.454	4621.58
429.662	5160.2
429.869	4672.78
430.076	5004.55
430.284	4904.2
430.491	5190.92
430.699	5446.91
430.906	5332.23
431.114	5438.72
431.321	5598.46
431.528	5950.71
431.736	6225.14
431.943	6495.47
432.15	6399.22
432.358	6327.54
432.565	6745.33
432.772	6558.96
432.979	6921.45
433.187	7052.52
433.394	7040.23
433.601	7603.43
433.808	7797.98
434.016	7544.03
434.223	7802.08
434.43	8408.28
434.637	8287.45
434.844	8838.35
435.052	9008.33
435.259	8744.14
435.466	9006.28
435.673	8918.22
435.88	9514.18
436.087	10249.4
436.294	9964.73
436.501	9682.11
436.708	9993.4
436.915	10341.56
437.122	10773.68
437.329	10765.49
437.537	11044.01
437.743	11263.15
437.95	11234.47
438.157	11721.89
438.364	11877.54
438.571	12270.75
438.778	12330.14
438.985	13415.56
439.192	12854.42
439.399	13276.3
439.606	12917.9
439.813	13677.7
440.02	14732.4
440.227	14138.49
440.433	14240.89
440.64	14576.76
440.847	14582.9
441.054	14900.34
441.261	15969.38
441.467	15746.15
441.674	15778.92
441.881	16364.64
442.088	16686.17
442.294	16409.69
442.501	16741.46
442.708	16997.46
442.914	17804.36
443.121	18519.1
443.328	17927.24
443.534	19184.69
443.741	18846.77
443.948	18465.85
444.154	19616.81
444.361	19831.85
444.568	20208.67
444.774	19799.08
444.981	20063.27
445.187	20634.65
445.394	21451.79
445.6	21396.49
445.807	23340.02
446.013	22459.39
446.22	22699
446.426	23690.22
446.633	23835.63
446.839	24550.37
447.046	23514.09
447.252	25099.22
447.459	25277.4
447.665	24787.93
447.871	25807.82
448.078	27030.46
448.284	25723.85
448.491	26674.11
448.697	27614.13
448.903	28136.36
449.11	28240.81
449.316	27628.46
449.522	28089.26
449.728	28928.92
449.935	29076.38
450.141	29139.86
450.347	30141.32
450.553	28916.64
450.76	29072.28
450.966	30071.69
451.172	29684.62
451.378	30307.21
451.584	29690.77
451.791	30641.03
451.997	30366.6
452.203	31091.58
452.409	31112.06
452.615	30858.11
452.821	29596.56
453.027	29203.35
453.233	30702.46
453.44	29580.18
453.646	29844.37
453.852	30227.34
454.058	30507.91
454.264	29541.27
454.47	30262.15
454.676	29213.59
454.882	30251.91
455.088	27880.36
455.294	28390.31
455.5	28697.5
455.705	28441.51
455.911	27745.2
456.117	27073.46
456.323	26739.65
456.529	25222.1
456.735	26297.28
456.941	25805.77
457.147	25392.08
457.352	24640.48
457.558	24101.86
457.764	24015.85
457.97	23782.38
458.176	23374.83
458.381	23038.97
458.587	22133.76
458.793	22006.79
458.999	20882.45
459.204	22469.63
459.41	21783.56
459.616	20298.78
459.821	20380.7
460.027	20390.94
460.233	19741.74
460.438	18922.55
460.644	19151.92
460.85	18148.42
461.055	17835.08
461.261	17843.27
461.466	16657.5
461.672	16088.16
461.878	17337.42
462.083	16405.59
462.289	15549.54
462.494	15623.27
462.7	14849.14
462.905	14517.37
463.111	15096.94
463.316	15162.48
463.522	14640.25
463.727	14916.72
463.932	14716.02
464.138	14380.15
464.343	14656.63
464.549	14171.26
464.754	14658.68
464.959	14535.8
465.165	14503.03
465.37	13786.24
465.575	13542.53
465.781	13945.98
465.986	14113.92
466.191	13513.86
466.397	13274.25
466.602	12715.16
466.807	13241.48
467.012	13161.61
467.218	13264.01
467.423	12911.76
