Data from USB4F104151__39__11-30-19-564.txt Node

Date: Fri Mar 14 11:30:19 EDT 2025
User: louis
Spectrometer: USB4F10415
Trigger mode: 4
Integration Time (sec): 5.000000E-2
Scans to average: 1
Electric dark correction enabled: true
Nonlinearity correction enabled: false
Boxcar width: 0
XAxis mode: Wavelengths
Number of Pixels in Spectrum: 3648
>>>>>Begin Spectral Data<<<<<
178.204	-113.15
178.424	-113.15
178.644	-113.15
178.864	-145.92
179.084	-158.21
179.304	-29.18
179.524	-53.76
179.744	28.16
179.964	65.02
180.184	-8.7
180.404	69.12
180.624	-37.38
180.844	34.3
181.064	-43.52
181.283	36.35
181.503	-41.47
181.723	-18.94
181.943	11.78
182.163	110.08
182.383	-41.47
182.602	24.06
182.822	52.74
183.042	7.68
183.262	-37.38
183.482	34.3
183.701	1.54
183.921	73.21
184.141	9.73
184.361	110.08
184.58	34.3
184.8	50.69
185.02	120.32
185.239	36.35
185.459	13.82
185.679	132.61
185.898	-6.66
186.118	-14.85
186.338	-12.8
186.557	62.98
186.777	-8.7
186.997	44.54
187.216	-0.51
187.436	56.83
187.655	58.88
187.875	138.75
188.095	105.98
188.314	34.3
188.534	167.42
188.753	-23.04
188.973	87.55
189.192	138.75
189.412	26.11
189.631	-12.8
189.851	36.35
190.07	75.26
190.29	17.92
190.509	38.4
190.729	97.79
190.948	73.21
191.168	232.96
191.387	52.74
191.607	79.36
191.826	85.5
192.045	42.5
192.265	-12.8
192.484	81.41
192.704	-16.9
192.923	-27.14
193.142	124.41
193.362	19.97
193.581	155.13
193.8	44.54
194.02	77.31
194.239	110.08
194.458	112.13
194.678	-20.99
194.897	85.5
195.116	65.02
195.335	36.35
195.555	36.35
195.774	34.3
195.993	105.98
196.212	7.68
196.432	-27.14
196.651	19.97
196.87	-25.09
197.089	163.33
197.308	36.35
197.528	77.31
197.747	-82.43
197.966	17.92
198.185	-0.51
198.404	22.02
198.623	26.11
198.842	22.02
199.062	146.94
199.281	69.12
199.5	-20.99
199.719	97.79
199.938	77.31
200.157	-12.8
200.376	17.92
200.595	142.85
200.814	138.75
201.033	24.06
201.252	157.18
201.471	48.64
201.69	83.45
201.909	52.74
202.128	110.08
202.347	151.04
202.566	-6.66
202.785	3.58
203.004	-45.57
203.223	142.85
203.442	13.82
203.661	67.07
203.879	11.78
204.098	77.31
204.317	50.69
204.536	58.88
204.755	56.83
204.974	42.5
205.193	54.78
205.411	110.08
205.63	69.12
205.849	19.97
206.068	28.16
206.287	85.5
206.505	52.74
206.724	99.84
206.943	36.35
207.162	81.41
207.381	-4.61
207.599	-20.99
207.818	13.82
208.037	17.92
208.255	5.63
208.474	52.74
208.693	69.12
208.911	56.83
209.13	44.54
209.349	67.07
209.567	7.68
209.786	44.54
210.005	73.21
210.223	3.58
210.442	15.87
210.661	11.78
210.879	91.65
211.098	11.78
211.316	56.83
211.535	-14.85
211.753	85.5
211.972	52.74
212.191	87.55
212.409	19.97
212.628	48.64
212.846	3.58
213.065	75.26
213.283	101.89
213.502	26.11
213.72	7.68
213.938	36.35
214.157	56.83
214.375	83.45
214.594	11.78
214.812	89.6
215.031	50.69
215.249	3.58
215.467	69.12
215.686	58.88
215.904	65.02
216.122	-20.99
216.341	81.41
216.559	28.16
216.778	60.93
216.996	48.64
217.214	48.64
217.432	44.54
217.651	56.83
217.869	108.03
218.087	40.45
218.306	48.64
218.524	15.87
218.742	-53.76
218.96	71.17
219.179	-47.62
219.397	24.06
219.615	95.74
219.833	130.56
220.051	34.3
220.27	116.22
220.488	30.21
220.706	1.54
220.924	60.93
221.142	81.41
221.36	34.3
221.578	116.22
221.796	56.83
222.015	65.02
222.233	62.98
222.451	60.93
222.669	38.4
222.887	77.31
223.105	85.5
223.323	17.92
223.541	65.02
223.759	105.98
223.977	17.92
224.195	48.64
224.413	60.93
224.631	17.92
224.849	-37.38
225.067	77.31
225.285	34.3
225.503	19.97
225.721	-2.56
225.939	77.31
226.157	146.94
226.375	105.98
226.592	7.68
226.81	15.87
227.028	28.16
227.246	116.22
227.464	26.11
227.682	28.16
227.9	15.87
228.117	17.92
228.335	-6.66
228.553	67.07
228.771	40.45
228.989	99.84
229.206	40.45
229.424	32.26
229.642	93.69
229.86	1.54
230.077	67.07
230.295	5.63
230.513	93.69
230.731	118.27
230.948	116.22
231.166	69.12
231.384	19.97
231.601	36.35
231.819	163.33
232.037	52.74
232.254	9.73
232.472	-4.61
232.689	36.35
232.907	17.92
233.125	38.4
233.342	-23.04
233.56	13.82
233.777	81.41
233.995	42.5
234.213	151.04
234.43	58.88
234.648	181.76
234.865	85.5
235.083	93.69
235.3	77.31
235.518	67.07
235.735	60.93
235.953	81.41
236.17	-57.86
236.388	48.64
236.605	52.74
236.822	60.93
237.04	67.07
237.257	-10.75
237.475	26.11
237.692	30.21
237.909	13.82
238.127	-14.85
238.344	44.54
238.562	75.26
238.779	85.5
238.996	34.3
239.214	105.98
239.431	81.41
239.648	32.26
239.865	42.5
240.083	36.35
240.3	44.54
240.517	69.12
240.735	28.16
240.952	-0.51
241.169	56.83
241.386	93.69
241.603	99.84
241.821	58.88
242.038	110.08
242.255	114.17
242.472	36.35
242.689	81.41
242.907	112.13
243.124	52.74
243.341	-2.56
243.558	-18.94
243.775	3.58
243.992	36.35
244.209	75.26
244.426	89.6
244.643	99.84
244.86	44.54
245.078	34.3
245.295	28.16
245.512	48.64
245.729	-35.33
245.946	48.64
246.163	36.35
246.38	17.92
246.597	34.3
246.814	114.17
247.031	11.78
247.248	79.36
247.464	69.12
247.681	48.64
247.898	75.26
248.115	48.64
248.332	30.21
248.549	56.83
248.766	105.98
248.983	69.12
249.2	93.69
249.417	83.45
249.633	36.35
249.85	118.27
250.067	40.45
250.284	110.08
250.501	85.5
250.717	3.58
250.934	28.16
251.151	101.89
251.368	3.58
251.585	97.79
251.801	28.16
252.018	40.45
252.235	89.6
252.451	30.21
252.668	1.54
252.885	126.46
253.102	81.41
253.318	36.35
253.535	36.35
253.752	7.68
253.968	11.78
254.185	-0.51
254.401	9.73
254.618	36.35
254.835	-4.61
255.051	50.69
255.268	17.92
255.484	7.68
255.701	28.16
255.917	105.98
256.134	77.31
256.351	101.89
256.567	52.74
256.784	-37.38
257	24.06
257.217	73.21
257.433	28.16
257.65	36.35
257.866	130.56
258.082	40.45
258.299	15.87
258.515	91.65
258.732	91.65
258.948	24.06
259.165	-43.52
259.381	48.64
259.597	97.79
259.814	26.11
260.03	44.54
260.246	77.31
260.463	42.5
260.679	85.5
260.895	67.07
261.112	9.73
261.328	71.17
261.544	13.82
261.761	101.89
261.977	71.17
262.193	-43.52
262.409	30.21
262.626	40.45
262.842	71.17
263.058	56.83
263.274	69.12
263.49	-4.61
263.707	85.5
263.923	65.02
264.139	7.68
264.355	62.98
264.571	110.08
264.787	50.69
265.004	89.6
265.22	32.26
265.436	69.12
265.652	28.16
265.868	69.12
266.084	26.11
266.3	15.87
266.516	-57.86
266.732	75.26
266.948	44.54
267.164	60.93
267.38	95.74
267.596	52.74
267.812	60.93
268.028	48.64
268.244	89.6
268.46	40.45
268.676	5.63
268.892	3.58
269.108	9.73
269.324	22.02
269.54	19.97
269.756	81.41
269.972	54.78
270.188	-4.61
270.403	17.92
270.619	11.78
270.835	65.02
271.051	28.16
271.267	44.54
271.483	-61.95
271.698	65.02
271.914	114.17
272.13	-18.94
272.346	60.93
272.562	75.26
272.777	69.12
272.993	110.08
273.209	54.78
273.425	69.12
273.64	-12.8
273.856	101.89
274.072	52.74
274.287	3.58
274.503	75.26
274.719	118.27
274.934	36.35
275.15	69.12
275.366	11.78
275.581	28.16
275.797	81.41
276.012	19.97
276.228	36.35
276.444	95.74
276.659	110.08
276.875	44.54
277.09	65.02
277.306	34.3
277.521	89.6
277.737	44.54
277.952	110.08
278.168	26.11
278.383	91.65
278.599	3.58
278.814	60.93
279.03	110.08
279.245	87.55
279.461	-20.99
279.676	26.11
279.892	-14.85
280.107	44.54
280.322	19.97
280.538	105.98
280.753	-6.66
280.969	91.65
281.184	50.69
281.399	77.31
281.615	60.93
281.83	52.74
282.045	-6.66
282.26	11.78
282.476	83.45
282.691	58.88
282.906	32.26
283.122	5.63
283.337	48.64
283.552	-4.61
283.767	-0.51
283.983	177.66
284.198	26.11
284.413	54.78
284.628	-33.28
284.843	69.12
285.058	81.41
285.274	85.5
285.489	1.54
285.704	5.63
285.919	89.6
286.134	108.03
286.349	26.11
286.564	50.69
286.779	112.13
286.995	89.6
287.21	-92.67
287.425	144.89
287.64	36.35
287.855	75.26
288.07	-68.09
288.285	87.55
288.5	85.5
288.715	85.5
288.93	69.12
289.145	-29.18
289.36	134.65
289.575	7.68
289.79	91.65
290.004	-25.09
290.219	46.59
290.434	-20.99
290.649	34.3
290.864	-57.86
291.079	22.02
291.294	44.54
291.509	42.5
291.724	-8.7
291.938	77.31
292.153	83.45
292.368	-66.05
292.583	3.58
292.798	85.5
293.012	-33.28
293.227	50.69
293.442	11.78
293.657	134.65
293.871	36.35
294.086	87.55
294.301	44.54
294.516	122.37
294.73	38.4
294.945	17.92
295.16	40.45
295.374	159.23
295.589	48.64
295.804	-0.51
296.018	3.58
296.233	124.41
296.447	34.3
296.662	42.5
296.877	24.06
297.091	67.07
297.306	9.73
297.52	19.97
297.735	24.06
297.949	110.08
298.164	75.26
298.378	50.69
298.593	34.3
298.807	83.45
299.022	42.5
299.236	7.68
299.451	15.87
299.665	69.12
299.88	-29.18
300.094	52.74
300.309	69.12
300.523	30.21
300.737	89.6
300.952	60.93
301.166	95.74
301.381	-14.85
301.595	69.12
301.809	11.78
302.024	9.73
302.238	15.87
302.452	99.84
302.667	32.26
302.881	69.12
303.095	40.45
303.309	28.16
303.524	-51.71
303.738	93.69
303.952	-2.56
304.166	46.59
304.381	-0.51
304.595	105.98
304.809	-27.14
305.023	48.64
305.237	3.58
305.452	52.74
305.666	40.45
305.88	93.69
306.094	77.31
306.308	85.5
306.522	48.64
306.736	56.83
306.95	118.27
307.164	38.4
307.379	58.88
307.593	105.98
307.807	73.21
308.021	28.16
308.235	11.78
308.449	85.5
308.663	15.87
308.877	142.85
309.091	50.69
309.305	77.31
309.519	-33.28
309.733	114.17
309.947	15.87
310.161	56.83
310.374	56.83
310.588	89.6
310.802	5.63
311.016	-4.61
311.23	-20.99
311.444	34.3
311.658	-8.7
311.872	93.69
312.085	56.83
312.299	122.37
312.513	132.61
312.727	79.36
312.941	58.88
313.154	99.84
313.368	56.83
313.582	24.06
313.796	-49.66
314.009	75.26
314.223	19.97
314.437	26.11
314.651	93.69
314.864	36.35
315.078	40.45
315.292	-47.62
315.505	-53.76
315.719	24.06
315.933	73.21
316.146	40.45
316.36	60.93
316.573	60.93
316.787	-43.52
317.001	-18.94
317.214	19.97
317.428	69.12
317.641	-12.8
317.855	71.17
318.068	71.17
318.282	112.13
318.495	75.26
318.709	67.07
318.922	52.74
319.136	95.74
319.349	1.54
319.563	-20.99
319.776	73.21
319.99	-20.99
320.203	42.5
320.417	71.17
320.63	65.02
320.843	-43.52
321.057	19.97
321.27	36.35
321.483	101.89
321.697	87.55
321.91	52.74
322.124	83.45
322.337	30.21
322.55	54.78
322.763	44.54
322.977	93.69
323.19	-2.56
323.403	44.54
323.617	67.07
323.83	97.79
324.043	50.69
324.256	-8.7
324.469	19.97
324.683	54.78
324.896	9.73
325.109	79.36
325.322	7.68
325.535	52.74
325.748	28.16
325.962	40.45
326.175	28.16
326.388	58.88
326.601	77.31
326.814	50.69
327.027	48.64
327.24	108.03
327.453	-33.28
327.666	97.79
327.879	91.65
328.092	93.69
328.305	-12.8
328.518	81.41
328.731	30.21
328.944	67.07
329.157	-27.14
329.37	15.87
329.583	120.32
329.796	60.93
330.009	34.3
330.222	1.54
330.435	56.83
330.648	48.64
330.861	114.17
331.073	56.83
331.286	11.78
331.499	67.07
331.712	11.78
331.925	52.74
332.138	13.82
332.35	77.31
332.563	56.83
332.776	97.79
332.989	-20.99
333.202	75.26
333.414	-2.56
333.627	40.45
333.84	77.31
334.053	56.83
334.265	62.98
334.478	52.74
334.691	44.54
334.903	120.32
335.116	-0.51
335.329	9.73
335.541	124.41
335.754	36.35
335.966	-6.66
336.179	19.97
336.392	28.16
336.604	54.78
336.817	73.21
337.029	60.93
337.242	99.84
337.454	99.84
337.667	48.64
337.88	42.5
338.092	77.31
338.305	42.5
338.517	101.89
338.729	81.41
338.942	54.78
339.154	9.73
339.367	56.83
339.579	89.6
339.792	46.59
340.004	93.69
340.217	85.5
340.429	-0.51
340.641	7.68
340.854	40.45
341.066	46.59
341.278	60.93
341.491	99.84
341.703	101.89
341.915	-20.99
342.128	134.65
342.34	75.26
342.552	89.6
342.764	89.6
342.977	67.07
343.189	56.83
343.401	30.21
343.613	-29.18
343.826	15.87
344.038	71.17
344.25	19.97
344.462	58.88
344.674	24.06
344.886	19.97
345.099	60.93
345.311	22.02
345.523	34.3
345.735	-37.38
345.947	81.41
346.159	114.17
346.371	58.88
346.583	19.97
346.795	142.85
347.007	52.74
347.219	50.69
347.431	50.69
347.643	114.17
347.855	56.83
348.067	36.35
348.279	58.88
348.491	93.69
348.703	60.93
348.915	-2.56
349.127	-29.18
349.339	146.94
349.551	71.17
349.763	105.98
349.975	24.06
350.187	167.42
350.399	65.02
350.61	89.6
350.822	34.3
351.034	65.02
351.246	48.64
351.458	-12.8
351.669	-20.99
351.881	17.92
352.093	44.54
352.305	73.21
352.517	58.88
352.728	67.07
352.94	81.41
353.152	44.54
353.363	73.21
353.575	65.02
353.787	128.51
353.999	67.07
354.21	60.93
354.422	17.92
354.633	9.73
354.845	-6.66
355.057	75.26
355.268	126.46
355.48	48.64
355.692	9.73
355.903	44.54
356.115	50.69
356.326	42.5
356.538	128.51
356.749	-10.75
356.961	13.82
357.172	44.54
357.384	28.16
357.595	116.22
357.807	34.3
358.018	36.35
358.23	54.78
358.441	140.8
358.653	144.89
358.864	69.12
359.075	28.16
359.287	11.78
359.498	11.78
359.709	69.12
359.921	28.16
360.132	52.74
360.344	65.02
360.555	58.88
360.766	75.26
360.977	34.3
361.189	54.78
361.4	75.26
361.611	192
361.823	40.45
362.034	73.21
362.245	34.3
362.456	5.63
362.667	-39.42
362.879	58.88
363.09	67.07
363.301	15.87
363.512	-12.8
363.723	58.88
363.935	83.45
364.146	132.61
364.357	52.74
364.568	30.21
364.779	71.17
364.99	105.98
365.201	26.11
365.412	42.5
365.623	17.92
365.834	-10.75
366.045	101.89
366.256	50.69
366.467	81.41
366.678	50.69
366.889	73.21
367.1	26.11
367.311	67.07
367.522	95.74
367.733	77.31
367.944	48.64
368.155	91.65
368.366	67.07
368.577	67.07
368.788	58.88
368.999	-4.61
369.209	-12.8
369.42	155.13
369.631	122.37
369.842	32.26
370.053	56.83
370.264	87.55
370.474	-18.94
370.685	85.5
370.896	13.82
371.107	36.35
371.317	91.65
371.528	32.26
371.739	97.79
371.95	-0.51
372.16	77.31
372.371	-37.38
372.582	40.45
372.792	46.59
373.003	-12.8
373.214	-39.42
373.424	58.88
373.635	56.83
373.846	163.33
374.056	60.93
374.267	99.84
374.477	67.07
374.688	65.02
374.898	-4.61
375.109	26.11
375.319	93.69
375.53	140.8
375.74	7.68
375.951	60.93
376.161	85.5
376.372	75.26
376.582	42.5
376.793	85.5
377.003	42.5
377.214	17.92
377.424	85.5
377.635	24.06
377.845	-4.61
378.055	110.08
378.266	-47.62
378.476	81.41
378.686	48.64
378.897	118.27
379.107	157.18
379.317	91.65
379.528	65.02
379.738	85.5
379.948	22.02
380.158	77.31
380.369	54.78
380.579	17.92
380.789	97.79
380.999	11.78
381.21	93.69
381.42	138.75
381.63	1.54
381.84	85.5
382.05	73.21
382.261	17.92
382.471	114.17
382.681	58.88
382.891	146.94
383.101	-37.38
383.311	67.07
383.521	116.22
383.731	99.84
383.941	148.99
384.151	50.69
384.361	58.88
384.571	54.78
384.781	58.88
384.991	112.13
385.201	101.89
385.411	69.12
385.621	58.88
385.831	93.69
386.041	67.07
386.251	101.89
386.461	75.26
386.671	75.26
386.881	91.65
387.091	40.45
387.301	105.98
387.511	140.8
387.72	118.27
387.93	11.78
388.14	-10.75
388.35	126.46
388.56	24.06
388.769	116.22
388.979	89.6
389.189	71.17
389.399	26.11
389.609	44.54
389.818	142.85
390.028	60.93
390.238	116.22
390.447	40.45
390.657	30.21
390.867	9.73
391.076	-10.75
391.286	130.56
391.496	157.18
391.705	24.06
391.915	116.22
392.125	50.69
392.334	67.07
392.544	69.12
392.753	-12.8
392.963	91.65
393.172	134.65
393.382	91.65
393.591	165.37
393.801	30.21
394.01	130.56
394.22	38.4
394.429	112.13
394.639	118.27
394.848	101.89
395.058	101.89
395.267	26.11
395.477	67.07
395.686	44.54
395.895	165.37
396.105	142.85
396.314	85.5
396.524	110.08
396.733	93.69
396.942	130.56
397.152	89.6
397.361	118.27
397.57	9.73
397.78	22.02
397.989	30.21
398.198	167.42
398.407	112.13
398.617	69.12
398.826	17.92
399.035	148.99
399.244	36.35
399.453	62.98
399.663	122.37
399.872	122.37
400.081	69.12
400.29	167.42
400.499	124.41
400.708	91.65
400.917	118.27
401.127	151.04
401.336	36.35
401.545	146.94
401.754	155.13
401.963	146.94
402.172	69.12
402.381	56.83
402.59	134.65
402.799	126.46
403.008	134.65
403.217	124.41
403.426	132.61
403.635	32.26
403.844	155.13
404.053	114.17
404.262	110.08
404.471	140.8
404.68	134.65
404.888	175.61
405.097	138.75
405.306	189.95
405.515	169.47
405.724	93.69
405.933	208.38
406.142	202.24
406.35	189.95
406.559	110.08
406.768	153.09
406.977	224.76
407.185	136.7
407.394	192
407.603	179.71
407.812	214.52
408.02	271.87
408.229	196.09
408.438	165.37
408.646	122.37
408.855	198.14
409.064	183.81
409.272	151.04
409.481	228.86
409.69	210.43
409.898	282.11
410.107	241.15
410.315	247.29
410.524	271.87
410.733	224.76
410.941	251.39
411.15	284.16
411.358	265.72
411.567	366.07
411.775	298.49
411.984	294.4
412.192	347.64
412.401	355.83
412.609	378.36
412.818	400.89
413.026	384.51
413.234	308.73
413.443	392.7
413.651	380.41
413.86	331.26
414.068	454.14
414.276	488.95
414.485	415.23
414.693	515.58
414.901	523.77
415.11	531.96
415.318	495.1
415.526	527.86
415.734	558.58
415.943	542.2
416.151	536.06
416.359	544.25
416.567	613.88
416.776	622.07
416.984	648.69
417.192	724.47
417.4	683.51
417.608	769.52
417.817	740.85
418.025	765.43
418.233	869.87
418.441	691.7
418.649	839.16
418.857	859.63
419.065	919.03
419.273	845.3
419.481	933.36
419.689	984.56
419.897	1023.47
420.105	1072.62
420.313	1134.06
420.521	1232.37
420.729	1181.17
420.937	1146.35
421.145	1263.08
421.353	1275.37
421.561	1369.58
421.769	1277.42
421.977	1394.15
422.185	1379.82
422.393	1377.77
422.601	1545.7
422.809	1514.98
423.017	1666.53
423.224	1656.29
423.432	1682.92
423.64	1740.26
423.848	1830.37
424.056	1746.41
424.263	1928.67
424.471	1994.21
424.679	1934.82
424.887	2133.47
425.094	2125.28
425.302	2172.38
425.51	2268.64
425.718	2272.73
425.925	2215.39
426.133	2448.86
426.341	2715.09
426.548	2670.04
426.756	2663.9
426.964	2788.82
427.171	2936.28
427.379	2932.18
427.586	2837.97
427.794	3034.58
428.001	3177.94
428.209	3245.52
428.417	3227.09
428.624	3489.23
428.832	3567.05
429.039	3395.02
429.247	3417.55
429.454	3960.26
429.662	3972.55
429.869	3804.61
430.076	4023.75
430.284	3919.3
430.491	4203.97
430.699	4337.09
430.906	4345.28
431.114	4394.43
431.321	4631.99
431.528	4697.53
431.736	4883.89
431.943	5160.37
432.15	5041.59
432.358	5131.7
432.565	5412.27
432.772	5340.59
432.979	5647.79
433.187	5662.12
433.394	5711.27
433.601	6120.87
433.808	6057.38
434.016	6108.58
434.223	6376.86
434.43	6860.18
434.637	6815.13
434.844	7024.02
435.052	7249.3
435.259	7067.03
435.466	7294.35
435.673	7259.54
435.88	7564.68
436.087	8158.6
436.294	8168.84
436.501	7845.26
436.708	8015.24
436.915	8340.86
437.122	8646.01
437.329	8574.33
437.537	8955.26
437.743	8981.88
437.95	8916.34
438.157	9313.65
438.364	9524.59
438.571	9596.27
438.778	9745.77
438.985	10710.36
439.192	10112.36
439.399	10845.53
439.606	10239.33
439.813	10816.86
440.02	11552.08
440.227	11451.73
440.433	11291.99
440.64	11677.01
440.847	11609.42
441.054	11898.19
441.261	12475.71
441.467	12451.14
441.674	12602.69
441.881	13196.6
442.088	12922.17
442.294	13331.76
442.501	13614.38
442.708	13911.34
442.914	14142.76
443.121	14787.87
443.328	14484.77
443.534	15529.24
443.741	15101.21
443.948	14841.12
444.154	16033.04
444.361	15852.81
444.568	15944.97
444.774	15887.63
444.981	15920.4
445.187	16745.73
445.394	17167.61
445.6	17003.77
445.807	18384.1
446.013	17876.21
446.22	18099.44
446.426	18777.31
446.633	19023.07
446.839	19547.35
447.046	18951.39
447.252	19836.11
447.459	19997.9
447.665	19655.89
447.871	20614.34
448.078	21519.54
448.284	20520.13
448.491	21046.46
448.697	21941.43
448.903	22158.51
449.11	22273.2
449.316	21884.08
449.522	22097.07
449.728	22844.58
449.935	23364.76
450.141	23180.45
450.347	23438.49
450.553	22875.3
450.76	23397.53
450.966	23913.62
451.172	23823.51
451.378	24179.86
451.584	23710.87
451.791	24278.16
451.997	24315.02
452.203	24413.32
452.409	24847.49
452.615	24661.13
452.821	23366.81
453.027	23157.92
453.233	24927.36
453.44	23305.37
453.646	23788.69
453.852	23841.94
454.058	24419.47
454.264	23551.13
454.47	23979.15
454.676	23444.63
454.882	24233.1
455.088	21927.09
455.294	22340.78
455.5	22908.07
455.705	22516.9
455.911	22250.67
456.117	21630.13
456.323	21232.83
456.529	20153.55
456.735	21007.55
456.941	20452.55
457.147	20075.73
457.352	19602.64
457.558	19229.91
457.764	19326.17
457.97	18816.22
458.176	18445.54
458.381	18349.29
458.587	17464.57
458.793	17343.74
458.999	16542.98
459.204	18052.33
459.41	17196.28
459.616	16225.54
459.821	15944.97
460.027	16213.26
460.233	15760.66
460.438	15144.22
460.644	15191.32
460.85	14728.48
461.055	14249.25
461.261	14265.64
461.466	13184.31
461.672	12746.05
461.878	13618.48
462.083	12954.94
462.289	12342.6
462.494	12473.67
462.7	11863.37
462.905	11631.95
463.111	12133.7
463.316	11824.46
463.522	11570.51
463.727	11808.08
463.932	11910.47
464.138	11593.04
464.343	11726.16
464.549	11271.51
464.754	11644.24
464.959	11541.84
465.165	11478.35
465.37	10868.06
465.575	10646.88
465.781	11171.16
465.986	11144.53
466.191	10691.93
466.397	10603.87
466.602	9854.31
466.807	10513.76
467.012	10345.83
467.218	10270.05
467.423	10079.59
