Data from USB4F104151__91__11-32-07-401.txt Node

Date: Fri Mar 14 11:32:07 EDT 2025
User: louis
Spectrometer: USB4F10415
Trigger mode: 4
Integration Time (sec): 5.000000E-2
Scans to average: 1
Electric dark correction enabled: true
Nonlinearity correction enabled: false
Boxcar width: 0
XAxis mode: Wavelengths
Number of Pixels in Spectrum: 3648
>>>>>Begin Spectral Data<<<<<
178.204	-116.56
178.424	-116.56
178.644	-116.56
178.864	-124.76
179.084	-89.94
179.304	-14.17
179.524	2.22
179.744	-26.45
179.964	39.08
180.184	47.27
180.404	4.27
180.624	63.66
180.844	-22.36
181.064	-128.85
181.283	8.36
181.503	-24.4
181.723	51.37
181.943	-18.26
182.163	55.47
182.383	61.61
182.602	100.52
182.822	55.47
183.042	-42.84
183.262	65.71
183.482	69.8
183.701	18.6
183.921	67.75
184.141	-10.07
184.361	53.42
184.58	-34.64
184.8	47.27
185.02	86.19
185.239	45.23
185.459	16.55
185.679	32.94
185.898	47.27
186.118	32.94
186.338	-10.07
186.557	28.84
186.777	-5.97
186.997	30.89
187.216	51.37
187.436	112.81
187.655	39.08
187.875	75.95
188.095	-38.74
188.314	135.34
188.534	98.47
188.753	-83.8
188.973	80.04
189.192	88.23
189.412	30.89
189.631	92.33
189.851	51.37
190.07	82.09
190.29	6.31
190.509	61.61
190.729	14.51
190.948	51.37
191.168	106.67
191.387	71.85
191.607	-10.07
191.826	39.08
192.045	-5.97
192.265	-44.88
192.484	10.41
192.704	-28.5
192.923	-32.6
193.142	121
193.362	98.47
193.581	84.14
193.8	102.57
194.02	135.34
194.239	28.84
194.458	129.19
194.678	80.04
194.897	30.89
195.116	24.75
195.335	18.6
195.555	47.27
195.774	45.23
195.993	43.18
196.212	63.66
196.432	-18.26
196.651	30.89
196.87	-38.74
197.089	96.43
197.308	45.23
197.528	45.23
197.747	45.23
197.966	4.27
198.185	102.57
198.404	32.94
198.623	28.84
198.842	26.79
199.062	141.48
199.281	6.31
199.5	-44.88
199.719	71.85
199.938	100.52
200.157	82.09
200.376	39.08
200.595	106.67
200.814	61.61
201.033	-10.07
201.252	65.71
201.471	39.08
201.69	67.75
201.909	112.81
202.128	47.27
202.347	129.19
202.566	37.03
202.785	-18.26
203.004	73.9
203.223	116.9
203.442	86.19
203.661	59.56
203.879	-38.74
204.098	47.27
204.317	-22.36
204.536	75.95
204.755	26.79
204.974	141.48
205.193	6.31
205.411	133.29
205.63	65.71
205.849	53.42
206.068	-1.88
206.287	55.47
206.505	133.29
206.724	-8.02
206.943	8.36
207.162	37.03
207.381	-8.02
207.599	4.27
207.818	26.79
208.037	-5.97
208.255	-26.45
208.474	24.75
208.693	22.7
208.911	43.18
209.13	53.42
209.349	28.84
209.567	86.19
209.786	94.38
210.005	71.85
210.223	75.95
210.442	-5.97
210.661	67.75
210.879	16.55
211.098	94.38
211.316	96.43
211.535	63.66
211.753	-42.84
211.972	80.04
212.191	-91.99
212.409	10.41
212.628	51.37
212.846	55.47
213.065	37.03
213.283	176.3
213.502	-3.93
213.72	55.47
213.938	22.7
214.157	67.75
214.375	-3.93
214.594	30.89
214.812	8.36
215.031	55.47
215.249	-28.5
215.467	141.48
215.686	94.38
215.904	39.08
216.122	6.31
216.341	80.04
216.559	55.47
216.778	86.19
216.996	47.27
217.214	41.13
217.432	-87.89
217.651	26.79
217.869	67.75
218.087	30.89
218.306	114.86
218.524	67.75
218.742	26.79
218.96	121
219.179	22.7
219.397	22.7
219.615	153.77
219.833	-36.69
220.051	22.7
220.27	22.7
220.488	-10.07
220.706	63.66
220.924	-61.27
221.142	26.79
221.36	47.27
221.578	47.27
221.796	10.41
222.015	-1.88
222.233	30.89
222.451	69.8
222.669	10.41
222.887	63.66
223.105	22.7
223.323	24.75
223.541	2.22
223.759	75.95
223.977	30.89
224.195	59.56
224.413	71.85
224.631	-20.31
224.849	80.04
225.067	47.27
225.285	51.37
225.503	41.13
225.721	4.27
225.939	39.08
226.157	63.66
226.375	69.8
226.592	22.7
226.81	-42.84
227.028	88.23
227.246	106.67
227.464	49.32
227.682	168.1
227.9	71.85
228.117	55.47
228.335	47.27
228.553	22.7
228.771	16.55
228.989	2.22
229.206	96.43
229.424	6.31
229.642	6.31
229.86	39.08
230.077	88.23
230.295	53.42
230.513	141.48
230.731	14.51
230.948	75.95
231.166	88.23
231.384	-3.93
231.601	51.37
231.819	112.81
232.037	39.08
232.254	10.41
232.472	96.43
232.689	10.41
232.907	28.84
233.125	-20.31
233.342	-1.88
233.56	41.13
233.777	88.23
233.995	43.18
234.213	63.66
234.43	41.13
234.648	55.47
234.865	-12.12
235.083	43.18
235.3	-40.79
235.518	102.57
235.735	92.33
235.953	73.9
236.17	24.75
236.388	53.42
236.605	63.66
236.822	55.47
237.04	45.23
237.257	-5.97
237.475	45.23
237.692	45.23
237.909	41.13
238.127	14.51
238.344	129.19
238.562	110.76
238.779	6.31
238.996	-8.02
239.214	37.03
239.431	63.66
239.648	51.37
239.865	37.03
240.083	55.47
240.3	88.23
240.517	96.43
240.735	43.18
240.952	96.43
241.169	63.66
241.386	59.56
241.603	-5.97
241.821	30.89
242.038	65.71
242.255	92.33
242.472	-10.07
242.689	137.38
242.907	63.66
243.124	63.66
243.341	6.31
243.558	-30.55
243.775	-5.97
243.992	18.6
244.209	30.89
244.426	149.67
244.643	47.27
244.86	22.7
245.078	67.75
245.295	37.03
245.512	18.6
245.729	55.47
245.946	77.99
246.163	47.27
246.38	63.66
246.597	63.66
246.814	63.66
247.031	47.27
247.248	102.57
247.464	73.9
247.681	104.62
247.898	39.08
248.115	75.95
248.332	-26.45
248.549	125.1
248.766	69.8
248.983	129.19
249.2	55.47
249.417	37.03
249.633	80.04
249.85	77.99
250.067	-20.31
250.284	73.9
250.501	14.51
250.717	133.29
250.934	59.56
251.151	71.85
251.368	-10.07
251.585	100.52
251.801	55.47
252.018	4.27
252.235	45.23
252.451	45.23
252.668	34.99
252.885	75.95
253.102	80.04
253.318	39.08
253.535	24.75
253.752	8.36
253.968	28.84
254.185	39.08
254.401	30.89
254.618	59.56
254.835	-12.12
255.051	61.61
255.268	104.62
255.484	-3.93
255.701	14.51
255.917	24.75
256.134	14.51
256.351	14.51
256.567	6.31
256.784	63.66
257	-34.64
257.217	59.56
257.433	43.18
257.65	-34.64
257.866	94.38
258.082	4.27
258.299	-57.17
258.515	84.14
258.732	49.32
258.948	49.32
259.165	88.23
259.381	63.66
259.597	82.09
259.814	47.27
260.03	32.94
260.246	112.81
260.463	94.38
260.679	8.36
260.895	28.84
261.112	98.47
261.328	20.65
261.544	6.31
261.761	133.29
261.977	4.27
262.193	37.03
262.409	0.17
262.626	20.65
262.842	59.56
263.058	18.6
263.274	34.99
263.49	22.7
263.707	37.03
263.923	110.76
264.139	22.7
264.355	-10.07
264.571	131.24
264.787	96.43
265.004	123.05
265.22	88.23
265.436	-40.79
265.652	22.7
265.868	108.71
266.084	51.37
266.3	-24.4
266.516	24.75
266.732	37.03
266.948	59.56
267.164	75.95
267.38	51.37
267.596	37.03
267.812	55.47
268.028	-26.45
268.244	12.46
268.46	26.79
268.676	39.08
268.892	69.8
269.108	26.79
269.324	6.31
269.54	-46.93
269.756	88.23
269.972	59.56
270.188	75.95
270.403	30.89
270.619	8.36
270.835	14.51
271.051	80.04
271.267	108.71
271.483	22.7
271.698	67.75
271.914	116.9
272.13	73.9
272.346	22.7
272.562	24.75
272.777	108.71
272.993	2.22
273.209	14.51
273.425	22.7
273.64	53.42
273.856	20.65
274.072	-10.07
274.287	-18.26
274.503	147.62
274.719	161.96
274.934	20.65
275.15	-1.88
275.366	61.61
275.581	20.65
275.797	6.31
276.012	22.7
276.228	92.33
276.444	24.75
276.659	127.14
276.875	-55.12
277.09	71.85
277.306	71.85
277.521	104.62
277.737	92.33
277.952	161.96
278.168	-53.08
278.383	53.42
278.599	77.99
278.814	57.51
279.03	53.42
279.245	135.34
279.461	92.33
279.676	57.51
279.892	-32.6
280.107	67.75
280.322	-18.26
280.538	90.28
280.753	-28.5
280.969	84.14
281.184	55.47
281.399	127.14
281.615	121
281.83	57.51
282.045	8.36
282.26	-24.4
282.476	34.99
282.691	-3.93
282.906	37.03
283.122	67.75
283.337	22.7
283.552	75.95
283.767	55.47
283.983	2.22
284.198	84.14
284.413	30.89
284.628	-42.84
284.843	37.03
285.058	110.76
285.274	61.61
285.489	26.79
285.704	53.42
285.919	-1.88
286.134	14.51
286.349	104.62
286.564	61.61
286.779	18.6
286.995	26.79
287.21	94.38
287.425	53.42
287.64	53.42
287.855	45.23
288.07	-10.07
288.285	73.9
288.5	75.95
288.715	0.17
288.93	37.03
289.145	53.42
289.36	37.03
289.575	80.04
289.79	104.62
290.004	-10.07
290.219	61.61
290.434	102.57
290.649	39.08
290.864	2.22
291.079	53.42
291.294	96.43
291.509	51.37
291.724	61.61
291.938	30.89
292.153	32.94
292.368	61.61
292.583	80.04
292.798	69.8
293.012	34.99
293.227	37.03
293.442	88.23
293.657	-8.02
293.871	96.43
294.086	47.27
294.301	80.04
294.516	65.71
294.73	80.04
294.945	47.27
295.16	59.56
295.374	137.38
295.589	129.19
295.804	34.99
296.018	34.99
296.233	143.53
296.447	49.32
296.662	20.65
296.877	63.66
297.091	69.8
297.306	55.47
297.52	30.89
297.735	47.27
297.949	22.7
298.164	102.57
298.378	59.56
298.593	84.14
298.807	96.43
299.022	-40.79
299.236	129.19
299.451	12.46
299.665	47.27
299.88	12.46
300.094	12.46
300.309	123.05
300.523	51.37
300.737	37.03
300.952	96.43
301.166	112.81
301.381	92.33
301.595	71.85
301.809	63.66
302.024	14.51
302.238	6.31
302.452	100.52
302.667	63.66
302.881	110.76
303.095	82.09
303.309	100.52
303.524	-22.36
303.738	41.13
303.952	67.75
304.166	98.47
304.381	-12.12
304.595	53.42
304.809	2.22
305.023	51.37
305.237	43.18
305.452	-59.22
305.666	65.71
305.88	53.42
306.094	16.55
306.308	-5.97
306.522	121
306.736	47.27
306.95	0.17
307.164	45.23
307.379	43.18
307.593	141.48
307.807	98.47
308.021	59.56
308.235	22.7
308.449	-3.93
308.663	30.89
308.877	80.04
309.091	77.99
309.305	104.62
309.519	-16.21
309.733	104.62
309.947	20.65
310.161	18.6
310.374	-1.88
310.588	116.9
310.802	-10.07
311.016	24.75
311.23	24.75
311.444	59.56
311.658	43.18
311.872	127.14
312.085	45.23
312.299	143.53
312.513	45.23
312.727	53.42
312.941	88.23
313.154	121
313.368	32.94
313.582	28.84
313.796	45.23
314.009	12.46
314.223	51.37
314.437	61.61
314.651	43.18
314.864	53.42
315.078	61.61
315.292	32.94
315.505	4.27
315.719	-26.45
315.933	-12.12
316.146	59.56
316.36	12.46
316.573	90.28
316.787	59.56
317.001	96.43
317.214	45.23
317.428	80.04
317.641	34.99
317.855	6.31
318.068	51.37
318.282	102.57
318.495	88.23
318.709	104.62
318.922	88.23
319.136	53.42
319.349	14.51
319.563	-12.12
319.776	-3.93
319.99	18.6
320.203	92.33
320.417	28.84
320.63	121
320.843	88.23
321.057	45.23
321.27	153.77
321.483	22.7
321.697	86.19
321.91	49.32
322.124	84.14
322.337	2.22
322.55	-79.7
322.763	20.65
322.977	-36.69
323.19	51.37
323.403	94.38
323.617	71.85
323.83	143.53
324.043	-14.17
324.256	77.99
324.469	12.46
324.683	137.38
324.896	53.42
325.109	53.42
325.322	-10.07
325.535	-83.8
325.748	114.86
325.962	63.66
326.175	92.33
326.388	20.65
326.601	92.33
326.814	-5.97
327.027	80.04
327.24	157.86
327.453	22.7
327.666	-22.36
327.879	18.6
328.092	71.85
328.305	26.79
328.518	32.94
328.731	6.31
328.944	43.18
329.157	104.62
329.37	-1.88
329.583	96.43
329.796	53.42
330.009	-1.88
330.222	-26.45
330.435	96.43
330.648	71.85
330.861	137.38
331.073	112.81
331.286	65.71
331.499	100.52
331.712	34.99
331.925	30.89
332.138	96.43
332.35	77.99
332.563	71.85
332.776	45.23
332.989	47.27
333.202	14.51
333.414	-12.12
333.627	86.19
333.84	39.08
334.053	47.27
334.265	73.9
334.478	73.9
334.691	133.29
334.903	98.47
335.116	-12.12
335.329	77.99
335.541	59.56
335.754	194.73
335.966	43.18
336.179	0.17
336.392	-16.21
336.604	53.42
336.817	84.14
337.029	121
337.242	55.47
337.454	98.47
337.667	10.41
337.88	135.34
338.092	53.42
338.305	14.51
338.517	-3.93
338.729	67.75
338.942	106.67
339.154	-34.64
339.367	12.46
339.579	110.76
339.792	49.32
340.004	125.1
340.217	6.31
340.429	37.03
340.641	80.04
340.854	47.27
341.066	110.76
341.278	67.75
341.491	137.38
341.703	24.75
341.915	26.79
342.128	45.23
342.34	26.79
342.552	-61.27
342.764	14.51
342.977	-18.26
343.189	28.84
343.401	88.23
343.613	39.08
343.826	100.52
344.038	-10.07
344.25	37.03
344.462	55.47
344.674	47.27
344.886	63.66
345.099	90.28
345.311	55.47
345.523	102.57
345.735	20.65
345.947	26.79
346.159	39.08
346.371	127.14
346.583	45.23
346.795	112.81
347.007	20.65
347.219	30.89
347.431	47.27
347.643	55.47
347.855	45.23
348.067	94.38
348.279	63.66
348.491	45.23
348.703	110.76
348.915	96.43
349.127	51.37
349.339	90.28
349.551	55.47
349.763	-20.31
349.975	65.71
350.187	47.27
350.399	-5.97
350.61	47.27
350.822	-53.08
351.034	63.66
351.246	-14.17
351.458	-18.26
351.669	96.43
351.881	47.27
352.093	55.47
352.305	43.18
352.517	129.19
352.728	12.46
352.94	41.13
353.152	80.04
353.363	59.56
353.575	-18.26
353.787	100.52
353.999	4.27
354.21	84.14
354.422	26.79
354.633	53.42
354.845	73.9
355.057	59.56
355.268	63.66
355.48	47.27
355.692	71.85
355.903	22.7
356.115	55.47
356.326	28.84
356.538	96.43
356.749	37.03
356.961	73.9
357.172	32.94
357.384	8.36
357.595	94.38
357.807	61.61
358.018	37.03
358.23	77.99
358.441	98.47
358.653	112.81
358.864	20.65
359.075	20.65
359.287	45.23
359.498	92.33
359.709	69.8
359.921	96.43
360.132	26.79
360.344	32.94
360.555	57.51
360.766	39.08
360.977	100.52
361.189	135.34
361.4	80.04
361.611	112.81
361.823	127.14
362.034	90.28
362.245	37.03
362.456	14.51
362.667	-14.17
362.879	10.41
363.09	80.04
363.301	88.23
363.512	43.18
363.723	55.47
363.935	75.95
364.146	96.43
364.357	88.23
364.568	28.84
364.779	14.51
364.99	77.99
365.201	39.08
365.412	45.23
365.623	45.23
365.834	63.66
366.045	39.08
366.256	65.71
366.467	71.85
366.678	22.7
366.889	57.51
367.1	20.65
367.311	121
367.522	47.27
367.733	39.08
367.944	41.13
368.155	75.95
368.366	96.43
368.577	55.47
368.788	20.65
368.999	30.89
369.209	10.41
369.42	129.19
369.631	98.47
369.842	100.52
370.053	88.23
370.264	80.04
370.474	8.36
370.685	26.79
370.896	75.95
371.107	61.61
371.317	30.89
371.528	-30.55
371.739	155.82
371.95	67.75
372.16	71.85
372.371	-5.97
372.582	37.03
372.792	127.14
373.003	75.95
373.214	104.62
373.424	100.52
373.635	73.9
373.846	55.47
374.056	102.57
374.267	57.51
374.477	59.56
374.688	67.75
374.898	63.66
375.109	77.99
375.319	92.33
375.53	104.62
375.74	53.42
375.951	118.95
376.161	16.55
376.372	39.08
376.582	108.71
376.793	47.27
377.003	10.41
377.214	-34.64
377.424	51.37
377.635	100.52
377.845	-10.07
378.055	100.52
378.266	108.71
378.476	127.14
378.686	26.79
378.897	135.34
379.107	51.37
379.317	22.7
379.528	65.71
379.738	77.99
379.948	-16.21
380.158	71.85
380.369	51.37
380.579	108.71
380.789	20.65
380.999	47.27
381.21	123.05
381.42	92.33
381.63	28.84
381.84	100.52
382.05	102.57
382.261	112.81
382.471	161.96
382.681	86.19
382.891	55.47
383.101	71.85
383.311	30.89
383.521	63.66
383.731	96.43
383.941	153.77
384.151	118.95
384.361	49.32
384.571	96.43
384.781	121
384.991	80.04
385.201	215.21
385.411	98.47
385.621	112.81
385.831	129.19
386.041	80.04
386.251	102.57
386.461	116.9
386.671	86.19
386.881	61.61
387.091	57.51
387.301	104.62
387.511	57.51
387.72	34.99
387.93	125.1
388.14	22.7
388.35	90.28
388.56	131.24
388.769	75.95
388.979	80.04
389.189	32.94
389.399	41.13
389.609	129.19
389.818	63.66
390.028	-38.74
390.238	6.31
390.447	102.57
390.657	80.04
390.867	59.56
391.076	104.62
391.286	71.85
391.496	88.23
391.705	57.51
391.915	112.81
392.125	96.43
392.334	88.23
392.544	69.8
392.753	98.47
392.963	10.41
393.172	104.62
393.382	47.27
393.591	67.75
393.801	63.66
394.01	80.04
394.22	82.09
394.429	67.75
394.639	104.62
394.848	161.96
395.058	176.3
395.267	43.18
395.477	104.62
395.686	75.95
395.895	139.43
396.105	121
396.314	121
396.524	39.08
396.733	153.77
396.942	161.96
397.152	71.85
397.361	121
397.57	141.48
397.78	30.89
397.989	116.9
398.198	155.82
398.407	80.04
398.617	137.38
398.826	100.52
399.035	145.58
399.244	51.37
399.453	80.04
399.663	102.57
399.872	59.56
400.081	94.38
400.29	153.77
400.499	-1.88
400.708	209.06
400.917	84.14
401.127	166.06
401.336	14.51
401.545	166.06
401.754	178.34
401.963	141.48
402.172	106.67
402.381	147.62
402.59	125.1
402.799	131.24
403.008	161.96
403.217	96.43
403.426	110.76
403.635	92.33
403.844	121
404.053	196.78
404.262	102.57
404.471	225.45
404.68	184.49
404.888	151.72
405.097	137.38
405.306	155.82
405.515	96.43
405.724	135.34
405.933	176.3
406.142	258.21
406.35	219.3
406.559	153.77
406.768	213.16
406.977	284.84
407.185	176.3
407.394	190.63
407.603	172.2
407.812	151.72
408.02	219.3
408.229	133.29
408.438	235.69
408.646	213.16
408.855	239.78
409.064	227.5
409.272	194.73
409.481	274.6
409.69	303.27
409.898	239.78
410.107	286.89
410.315	342.18
410.524	280.74
410.733	331.94
410.941	317.61
411.15	374.95
411.358	315.56
411.567	417.96
411.775	409.76
411.984	305.32
412.192	395.43
412.401	422.05
412.609	489.64
412.818	506.02
413.026	530.59
413.234	467.11
413.443	479.4
413.651	506.02
413.86	579.75
414.068	569.51
414.276	596.13
414.485	522.4
414.693	663.71
414.901	667.81
415.11	688.29
415.318	684.19
415.526	702.62
415.734	731.3
415.943	768.16
416.151	755.87
416.359	698.53
416.567	813.21
416.776	833.69
416.984	915.61
417.192	856.22
417.4	845.98
417.608	858.27
417.817	1044.63
418.025	1011.87
418.233	1130.65
418.441	1095.83
418.649	1179.8
418.857	1136.79
419.065	1204.38
419.273	1204.38
419.481	1265.82
419.689	1271.96
419.897	1380.5
420.105	1362.07
420.313	1464.47
420.521	1458.32
420.729	1587.35
420.937	1542.29
421.145	1595.54
421.353	1759.38
421.561	1761.42
421.769	1816.72
421.977	1964.17
422.185	1835.15
422.393	1980.56
422.601	2082.95
422.809	2064.52
423.017	2173.07
423.224	2283.66
423.432	2271.37
423.64	2283.66
423.848	2582.66
424.056	2494.6
424.263	2693.25
424.471	2689.15
424.679	2756.74
424.887	2863.23
425.094	2885.76
425.302	2910.33
425.51	3053.69
425.718	3106.94
425.925	3184.76
426.133	3151.99
426.341	3541.11
426.548	3477.62
426.756	3692.66
426.964	3745.91
427.171	3895.41
427.379	3850.35
427.586	3881.07
427.794	4096.11
428.001	4333.67
428.209	4526.18
428.417	4493.41
428.624	4806.75
428.832	4884.58
429.039	4737.12
429.247	4661.35
429.454	5138.52
429.662	5593.17
429.869	5140.57
430.076	5615.7
430.284	5523.54
430.491	5716.05
430.699	5916.75
430.906	5920.85
431.114	6068.3
431.321	6264.91
431.528	6260.81
431.736	6680.64
431.943	7065.66
432.15	6899.78
432.358	6953.02
432.565	7282.75
432.772	7329.85
432.979	7643.19
433.187	7770.16
433.394	7770.16
433.601	8288.3
433.808	8241.2
434.016	8329.26
434.223	8605.74
434.43	8919.07
434.637	9107.49
434.844	9527.32
435.052	9635.86
435.259	9590.81
435.466	9760.79
435.673	9768.98
435.88	10151.95
436.087	10799.11
436.294	10782.73
436.501	10665.99
436.708	10860.55
436.915	11376.64
437.122	11579.39
437.329	11757.56
437.537	12027.89
437.743	12244.98
437.95	12087.28
438.157	12863.46
438.364	13051.88
438.571	13113.31
438.778	13391.84
438.985	14430.16
439.192	13903.83
439.399	14307.28
439.606	13981.65
439.813	14747.59
440.02	15546.3
440.227	15415.23
440.433	15050.69
440.64	15822.78
440.847	15706.04
441.054	16003
441.261	17170.34
441.467	16902.06
441.674	17356.71
441.881	17821.59
442.088	17711
442.294	17588.13
442.501	18057.11
442.708	18780.04
442.914	19263.36
443.121	19959.67
443.328	19636.1
443.534	21055.34
443.741	20322.16
443.948	20217.72
444.154	21503.84
444.361	21301.09
444.568	21532.51
444.774	21278.57
444.981	21755.74
445.187	22466.39
445.394	23383.88
445.6	23324.49
445.807	25354.02
446.013	24155.96
446.22	24639.28
446.426	25491.24
446.633	25947.93
446.839	26533.65
447.046	25483.05
447.252	26918.67
447.459	27289.35
447.665	26920.72
447.871	27772.67
448.078	29202.16
448.284	27918.08
448.491	28684.02
448.697	29624.04
448.903	30191.33
449.11	30224.09
449.316	29675.24
449.522	30066.4
449.728	31059.66
449.935	31469.26
450.141	31489.74
450.347	32159.42
450.553	31313.61
450.76	31203.02
450.966	32313.02
451.172	32034.5
451.378	33111.73
451.584	32235.2
451.791	33056.43
451.997	32663.22
452.203	33386.16
452.409	33398.45
452.615	33248.94
452.821	31971.01
453.027	31743.69
453.233	33406.64
453.44	31901.38
453.646	32288.45
453.852	32405.18
454.058	33328.81
454.264	32001.73
454.47	32761.53
454.676	32095.94
454.882	33087.15
455.088	30093.02
455.294	30551.77
455.5	31276.75
455.705	31186.64
455.911	30191.33
456.117	29630.18
456.323	29054.7
456.529	27805.44
456.735	28507.9
456.941	27592.45
457.147	27229.96
457.352	26986.25
457.558	26205.98
457.764	26380.06
457.97	25845.54
458.176	25423.65
458.381	25184.04
458.587	23930.69
458.793	23924.54
458.999	22759.25
459.204	24395.57
459.41	23918.4
459.616	22126.43
459.821	22431.57
460.027	21981.02
460.233	21573.47
460.438	20293.49
460.644	20748.14
460.85	19382.15
461.055	19699.58
461.261	19482.5
461.466	17842.07
461.672	17446.82
461.878	18902.92
462.083	17608.61
462.289	17205.16
462.494	16830.38
462.7	16224.18
462.905	15708.09
463.111	16541.61
463.316	16185.27
463.522	16007.09
463.727	15929.27
463.932	16021.43
464.138	15736.76
464.343	15943.61
464.549	15574.97
464.754	16015.29
464.959	15865.78
465.165	15749.05
465.37	15095.75
465.575	14546.89
465.781	15388.61
465.986	15445.95
466.191	14858.18
466.397	14485.45
466.602	13981.65
466.807	14364.62
