Data from USB4F104151__100__11-32-21-549.txt Node

Date: Fri Mar 14 11:32:21 EDT 2025
User: louis
Spectrometer: USB4F10415
Trigger mode: 4
Integration Time (sec): 5.000000E-2
Scans to average: 1
Electric dark correction enabled: true
Nonlinearity correction enabled: false
Boxcar width: 0
XAxis mode: Wavelengths
Number of Pixels in Spectrum: 3648
>>>>>Begin Spectral Data<<<<<
178.204	-139.26
178.424	-139.26
178.644	-139.26
178.864	-202.75
179.084	-163.84
179.304	34.82
179.524	-34.82
179.744	-16.38
179.964	49.15
180.184	-10.24
180.404	24.58
180.624	8.19
180.844	-6.14
181.064	-57.34
181.283	6.14
181.503	-24.58
181.723	26.62
181.943	28.67
182.163	49.15
182.383	65.54
182.602	43.01
182.822	36.86
183.042	-30.72
183.262	-24.58
183.482	6.14
183.701	26.62
183.921	8.19
184.141	34.82
184.361	49.15
184.58	2.05
184.8	38.91
185.02	-6.14
185.239	26.62
185.459	14.34
185.679	53.25
185.898	-49.15
186.118	6.14
186.338	24.58
186.557	36.86
186.777	-16.38
186.997	24.58
187.216	10.24
187.436	10.24
187.655	102.4
187.875	65.54
188.095	43.01
188.314	34.82
188.534	18.43
188.753	20.48
188.973	30.72
189.192	43.01
189.412	16.38
189.631	-10.24
189.851	18.43
190.07	51.2
190.29	-10.24
190.509	16.38
190.729	8.19
190.948	-55.3
191.168	196.61
191.387	133.12
191.607	-90.11
191.826	28.67
192.045	98.3
192.265	55.3
192.484	45.06
192.704	26.62
192.923	-4.1
193.142	92.16
193.362	43.01
193.581	83.97
193.8	79.87
194.02	69.63
194.239	-26.62
194.458	14.34
194.678	-8.19
194.897	-6.14
195.116	49.15
195.335	0
195.555	38.91
195.774	2.05
195.993	34.82
196.212	-26.62
196.432	-38.91
196.651	55.3
196.87	-88.06
197.089	59.39
197.308	8.19
197.528	94.21
197.747	20.48
197.966	2.05
198.185	120.83
198.404	-16.38
198.623	79.87
198.842	24.58
199.062	24.58
199.281	77.82
199.5	40.96
199.719	67.58
199.938	-10.24
200.157	47.1
200.376	71.68
200.595	43.01
200.814	40.96
201.033	28.67
201.252	73.73
201.471	47.1
201.69	32.77
201.909	26.62
202.128	28.67
202.347	88.06
202.566	4.1
202.785	-55.3
203.004	-14.34
203.223	30.72
203.442	-4.1
203.661	49.15
203.879	-40.96
204.098	10.24
204.317	-14.34
204.536	38.91
204.755	38.91
204.974	22.53
205.193	88.06
205.411	161.79
205.63	28.67
205.849	90.11
206.068	16.38
206.287	51.2
206.505	92.16
206.724	-6.14
206.943	24.58
207.162	-14.34
207.381	12.29
207.599	16.38
207.818	57.34
208.037	49.15
208.255	-6.14
208.474	-10.24
208.693	18.43
208.911	-10.24
209.13	-24.58
209.349	-18.43
209.567	10.24
209.786	-38.91
210.005	59.39
210.223	-61.44
210.442	-55.3
210.661	12.29
210.879	49.15
211.098	12.29
211.316	-16.38
211.535	55.3
211.753	61.44
211.972	45.06
212.191	-38.91
212.409	30.72
212.628	38.91
212.846	-10.24
213.065	38.91
213.283	51.2
213.502	-16.38
213.72	-14.34
213.938	57.34
214.157	-8.19
214.375	-20.48
214.594	-32.77
214.812	16.38
215.031	-34.82
215.249	-20.48
215.467	75.77
215.686	69.63
215.904	57.34
216.122	-59.39
216.341	30.72
216.559	14.34
216.778	18.43
216.996	51.2
217.214	51.2
217.432	49.15
217.651	43.01
217.869	65.54
218.087	49.15
218.306	57.34
218.524	40.96
218.742	-14.34
218.96	36.86
219.179	-26.62
219.397	-24.58
219.615	75.77
219.833	81.92
220.051	2.05
220.27	6.14
220.488	71.68
220.706	16.38
220.924	69.63
221.142	-106.49
221.36	8.19
221.578	18.43
221.796	30.72
222.015	-14.34
222.233	83.97
222.451	96.25
222.669	-71.68
222.887	53.25
223.105	-59.39
223.323	20.48
223.541	-71.68
223.759	120.83
223.977	-10.24
224.195	88.06
224.413	2.05
224.631	-24.58
224.849	8.19
225.067	100.35
225.285	10.24
225.503	36.86
225.721	-63.49
225.939	18.43
226.157	12.29
226.375	108.54
226.592	57.34
226.81	32.77
227.028	6.14
227.246	71.68
227.464	22.53
227.682	40.96
227.9	26.62
228.117	34.82
228.335	53.25
228.553	53.25
228.771	34.82
228.989	-34.82
229.206	0
229.424	-51.2
229.642	24.58
229.86	-4.1
230.077	129.02
230.295	-49.15
230.513	-2.05
230.731	63.49
230.948	92.16
231.166	77.82
231.384	40.96
231.601	-22.53
231.819	47.1
232.037	-30.72
232.254	-38.91
232.472	22.53
232.689	2.05
232.907	94.21
233.125	-20.48
233.342	-36.86
233.56	-6.14
233.777	-28.67
233.995	51.2
234.213	34.82
234.43	43.01
234.648	-6.14
234.865	34.82
235.083	51.2
235.3	63.49
235.518	53.25
235.735	43.01
235.953	34.82
236.17	26.62
236.388	59.39
236.605	22.53
236.822	55.3
237.04	55.3
237.257	65.54
237.475	-96.25
237.692	122.88
237.909	6.14
238.127	-40.96
238.344	28.67
238.562	26.62
238.779	12.29
238.996	16.38
239.214	-36.86
239.431	22.53
239.648	71.68
239.865	43.01
240.083	32.77
240.3	-94.21
240.517	30.72
240.735	30.72
240.952	-6.14
241.169	-2.05
241.386	-59.39
241.603	-36.86
241.821	2.05
242.038	100.35
242.255	8.19
242.472	-51.2
242.689	-38.91
242.907	116.73
243.124	-2.05
243.341	38.91
243.558	36.86
243.775	-55.3
243.992	-18.43
244.209	63.49
244.426	139.26
244.643	90.11
244.86	-6.14
245.078	49.15
245.295	34.82
245.512	28.67
245.729	-34.82
245.946	75.77
246.163	40.96
246.38	26.62
246.597	92.16
246.814	-8.19
247.031	34.82
247.248	4.1
247.464	24.58
247.681	36.86
247.898	51.2
248.115	51.2
248.332	-10.24
248.549	69.63
248.766	51.2
248.983	83.97
249.2	16.38
249.417	57.34
249.633	26.62
249.85	26.62
250.067	-14.34
250.284	6.14
250.501	67.58
250.717	-24.58
250.934	51.2
251.151	0
251.368	63.49
251.585	63.49
251.801	30.72
252.018	-10.24
252.235	0
252.451	-20.48
252.668	10.24
252.885	-22.53
253.102	26.62
253.318	34.82
253.535	4.1
253.752	-55.3
253.968	100.35
254.185	-16.38
254.401	34.82
254.618	129.02
254.835	57.34
255.051	61.44
255.268	16.38
255.484	10.24
255.701	-8.19
255.917	10.24
256.134	8.19
256.351	67.58
256.567	-22.53
256.784	2.05
257	-49.15
257.217	34.82
257.433	34.82
257.65	-32.77
257.866	73.73
258.082	38.91
258.299	12.29
258.515	-22.53
258.732	-6.14
258.948	8.19
259.165	-73.73
259.381	6.14
259.597	47.1
259.814	-51.2
260.03	-32.77
260.246	100.35
260.463	98.3
260.679	24.58
260.895	-14.34
261.112	79.87
261.328	45.06
261.544	-14.34
261.761	61.44
261.977	4.1
262.193	-59.39
262.409	14.34
262.626	98.3
262.842	30.72
263.058	8.19
263.274	16.38
263.49	67.58
263.707	55.3
263.923	26.62
264.139	-30.72
264.355	26.62
264.571	122.88
264.787	-16.38
265.004	16.38
265.22	26.62
265.436	63.49
265.652	-6.14
265.868	47.1
266.084	-28.67
266.3	43.01
266.516	-55.3
266.732	-26.62
266.948	-63.49
267.164	79.87
267.38	43.01
267.596	43.01
267.812	61.44
268.028	75.77
268.244	75.77
268.46	22.53
268.676	43.01
268.892	34.82
269.108	-14.34
269.324	71.68
269.54	-51.2
269.756	92.16
269.972	-22.53
270.188	73.73
270.403	-22.53
270.619	-30.72
270.835	65.54
271.051	20.48
271.267	24.58
271.483	12.29
271.698	-34.82
271.914	36.86
272.13	-8.19
272.346	30.72
272.562	10.24
272.777	12.29
272.993	10.24
273.209	10.24
273.425	57.34
273.64	-2.05
273.856	30.72
274.072	-2.05
274.287	43.01
274.503	79.87
274.719	51.2
274.934	8.19
275.15	-16.38
275.366	-26.62
275.581	34.82
275.797	67.58
276.012	59.39
276.228	-8.19
276.444	-38.91
276.659	75.77
276.875	26.62
277.09	-4.1
277.306	-16.38
277.521	20.48
277.737	-51.2
277.952	73.73
278.168	-8.19
278.383	28.67
278.599	28.67
278.814	22.53
279.03	22.53
279.245	88.06
279.461	43.01
279.676	10.24
279.892	-34.82
280.107	4.1
280.322	0
280.538	-14.34
280.753	22.53
280.969	135.17
281.184	-38.91
281.399	114.69
281.615	67.58
281.83	10.24
282.045	-34.82
282.26	59.39
282.476	30.72
282.691	30.72
282.906	18.43
283.122	-36.86
283.337	8.19
283.552	32.77
283.767	-6.14
283.983	49.15
284.198	-18.43
284.413	18.43
284.628	20.48
284.843	-22.53
285.058	26.62
285.274	-22.53
285.489	-40.96
285.704	139.26
285.919	-22.53
286.134	6.14
286.349	-6.14
286.564	18.43
286.779	-26.62
286.995	47.1
287.21	-34.82
287.425	51.2
287.64	-6.14
287.855	2.05
288.07	-88.06
288.285	57.34
288.5	59.39
288.715	67.58
288.93	47.1
289.145	34.82
289.36	73.73
289.575	71.68
289.79	14.34
290.004	-18.43
290.219	32.77
290.434	-2.05
290.649	53.25
290.864	71.68
291.079	-18.43
291.294	10.24
291.509	43.01
291.724	-28.67
291.938	8.19
292.153	-6.14
292.368	2.05
292.583	53.25
292.798	2.05
293.012	20.48
293.227	18.43
293.442	2.05
293.657	36.86
293.871	79.87
294.086	83.97
294.301	63.49
294.516	30.72
294.73	12.29
294.945	-32.77
295.16	-16.38
295.374	59.39
295.589	61.44
295.804	-28.67
296.018	137.21
296.233	34.82
296.447	51.2
296.662	-2.05
296.877	55.3
297.091	90.11
297.306	55.3
297.52	-6.14
297.735	147.45
297.949	-2.05
298.164	63.49
298.378	0
298.593	-6.14
298.807	-14.34
299.022	24.58
299.236	98.3
299.451	-10.24
299.665	-47.1
299.88	92.16
300.094	-8.19
300.309	24.58
300.523	59.39
300.737	2.05
300.952	-32.77
301.166	-22.53
301.381	-12.29
301.595	22.53
301.809	-8.19
302.024	-14.34
302.238	-36.86
302.452	0
302.667	-43.01
302.881	51.2
303.095	47.1
303.309	26.62
303.524	-14.34
303.738	18.43
303.952	-12.29
304.166	67.58
304.381	-28.67
304.595	98.3
304.809	34.82
305.023	30.72
305.237	-10.24
305.452	2.05
305.666	18.43
305.88	43.01
306.094	55.3
306.308	2.05
306.522	81.92
306.736	32.77
306.95	2.05
307.164	18.43
307.379	51.2
307.593	75.77
307.807	-6.14
308.021	34.82
308.235	34.82
308.449	-14.34
308.663	-40.96
308.877	124.93
309.091	83.97
309.305	67.58
309.519	10.24
309.733	47.1
309.947	-30.72
310.161	118.78
310.374	30.72
310.588	59.39
310.802	22.53
311.016	36.86
311.23	30.72
311.444	40.96
311.658	8.19
311.872	131.07
312.085	92.16
312.299	88.06
312.513	108.54
312.727	2.05
312.941	73.73
313.154	77.82
313.368	65.54
313.582	30.72
313.796	18.43
314.009	30.72
314.223	-6.14
314.437	100.35
314.651	71.68
314.864	-4.1
315.078	-10.24
315.292	-45.06
315.505	18.43
315.719	40.96
315.933	20.48
316.146	59.39
316.36	-18.43
316.573	106.49
316.787	47.1
317.001	-49.15
317.214	24.58
317.428	8.19
317.641	32.77
317.855	38.91
318.068	79.87
318.282	43.01
318.495	47.1
318.709	18.43
318.922	20.48
319.136	75.77
319.349	61.44
319.563	71.68
319.776	51.2
319.99	6.14
320.203	24.58
320.417	59.39
320.63	51.2
320.843	106.49
321.057	-2.05
321.27	40.96
321.483	16.38
321.697	34.82
321.91	49.15
322.124	102.4
322.337	4.1
322.55	-4.1
322.763	18.43
322.977	-40.96
323.19	-38.91
323.403	10.24
323.617	77.82
323.83	43.01
324.043	18.43
324.256	120.83
324.469	-32.77
324.683	51.2
324.896	67.58
325.109	34.82
325.322	26.62
325.535	10.24
325.748	65.54
325.962	4.1
326.175	26.62
326.388	20.48
326.601	22.53
326.814	-28.67
327.027	92.16
327.24	116.73
327.453	34.82
327.666	55.3
327.879	143.36
328.092	96.25
328.305	-8.19
328.518	-6.14
328.731	49.15
328.944	22.53
329.157	-24.58
329.37	-6.14
329.583	81.92
329.796	102.4
330.009	-14.34
330.222	0
330.435	8.19
330.648	38.91
330.861	2.05
331.073	100.35
331.286	47.1
331.499	-47.1
331.712	2.05
331.925	34.82
332.138	73.73
332.35	26.62
332.563	-22.53
332.776	98.3
332.989	6.14
333.202	4.1
333.414	79.87
333.627	-10.24
333.84	24.58
334.053	61.44
334.265	-16.38
334.478	34.82
334.691	-24.58
334.903	34.82
335.116	57.34
335.329	24.58
335.541	18.43
335.754	83.97
335.966	-59.39
336.179	51.2
336.392	28.67
336.604	59.39
336.817	-10.24
337.029	4.1
337.242	38.91
337.454	67.58
337.667	10.24
337.88	51.2
338.092	18.43
338.305	57.34
338.517	0
338.729	16.38
338.942	14.34
339.154	-16.38
339.367	55.3
339.579	22.53
339.792	-6.14
340.004	106.49
340.217	30.72
340.429	2.05
340.641	-65.53
340.854	-20.48
341.066	-8.19
341.278	88.06
341.491	96.25
341.703	38.91
341.915	-43.01
342.128	90.11
342.34	43.01
342.552	-14.34
342.764	2.05
342.977	16.38
343.189	24.58
343.401	-10.24
343.613	8.19
343.826	69.63
344.038	10.24
344.25	120.83
344.462	-65.53
344.674	57.34
344.886	83.97
345.099	20.48
345.311	24.58
345.523	57.34
345.735	12.29
345.947	28.67
346.159	18.43
346.371	34.82
346.583	0
346.795	34.82
347.007	18.43
347.219	-22.53
347.431	32.77
347.643	90.11
347.855	0
348.067	14.34
348.279	10.24
348.491	49.15
348.703	10.24
348.915	10.24
349.127	-57.34
349.339	8.19
349.551	2.05
349.763	32.77
349.975	26.62
350.187	129.02
350.399	102.4
350.61	63.49
350.822	-92.16
351.034	81.92
351.246	10.24
351.458	108.54
351.669	43.01
351.881	96.25
352.093	49.15
352.305	-12.29
352.517	-14.34
352.728	18.43
352.94	38.91
353.152	38.91
353.363	20.48
353.575	67.58
353.787	-18.43
353.999	65.54
354.21	92.16
354.422	24.58
354.633	45.06
354.845	20.48
355.057	51.2
355.268	10.24
355.48	73.73
355.692	-2.05
355.903	30.72
356.115	20.48
356.326	18.43
356.538	63.49
356.749	73.73
356.961	124.93
357.172	-14.34
357.384	36.86
357.595	104.45
357.807	-10.24
358.018	-38.91
358.23	24.58
358.441	69.63
358.653	8.19
358.864	24.58
359.075	51.2
359.287	-18.43
359.498	114.69
359.709	49.15
359.921	20.48
360.132	10.24
360.344	-8.19
360.555	40.96
360.766	55.3
360.977	-12.29
361.189	83.97
361.4	18.43
361.611	10.24
361.823	38.91
362.034	14.34
362.245	0
362.456	-30.72
362.667	24.58
362.879	36.86
363.09	147.45
363.301	79.87
363.512	108.54
363.723	2.05
363.935	32.77
364.146	88.06
364.357	-14.34
364.568	112.64
364.779	28.67
364.99	86.01
365.201	108.54
365.412	102.4
365.623	-8.19
365.834	-20.48
366.045	24.58
366.256	96.25
366.467	47.1
366.678	135.17
366.889	10.24
367.1	18.43
367.311	49.15
367.522	6.14
367.733	73.73
367.944	88.06
368.155	65.54
368.366	94.21
368.577	71.68
368.788	75.77
368.999	51.2
369.209	104.45
369.42	100.35
369.631	118.78
369.842	55.3
370.053	71.68
370.264	77.82
370.474	-12.29
370.685	43.01
370.896	22.53
371.107	75.77
371.317	75.77
371.528	8.19
371.739	79.87
371.95	65.54
372.16	26.62
372.371	-53.25
372.582	-28.67
372.792	65.54
373.003	88.06
373.214	75.77
373.424	34.82
373.635	83.97
373.846	43.01
374.056	34.82
374.267	51.2
374.477	34.82
374.688	-24.58
374.898	47.1
375.109	65.54
375.319	49.15
375.53	112.64
375.74	45.06
375.951	-53.25
376.161	55.3
376.372	36.86
376.582	22.53
376.793	-24.58
377.003	2.05
377.214	2.05
377.424	32.77
377.635	63.49
377.845	79.87
378.055	-8.19
378.266	10.24
378.476	129.02
378.686	-2.05
378.897	-57.34
379.107	100.35
379.317	106.49
379.528	10.24
379.738	116.73
379.948	-79.87
380.158	49.15
380.369	65.54
380.579	83.97
380.789	38.91
380.999	38.91
381.21	24.58
381.42	133.12
381.63	-49.15
381.84	49.15
382.05	57.34
382.261	92.16
382.471	8.19
382.681	6.14
382.891	63.49
383.101	104.45
383.311	-55.3
383.521	32.77
383.731	38.91
383.941	38.91
384.151	92.16
384.361	49.15
384.571	22.53
384.781	24.58
384.991	112.64
385.201	67.58
385.411	133.12
385.621	22.53
385.831	71.68
386.041	96.25
386.251	12.29
386.461	32.77
386.671	0
386.881	73.73
387.091	57.34
387.301	147.45
387.511	65.54
387.72	36.86
387.93	22.53
388.14	-26.62
388.35	-10.24
388.56	100.35
388.769	16.38
388.979	90.11
389.189	-6.14
389.399	-14.34
389.609	-4.1
389.818	120.83
390.028	26.62
390.238	65.54
390.447	51.2
390.657	137.21
390.867	40.96
391.076	10.24
391.286	22.53
391.496	108.54
391.705	59.39
391.915	20.48
392.125	133.12
392.334	-2.05
392.544	59.39
392.753	75.77
392.963	10.24
393.172	120.83
393.382	51.2
393.591	108.54
393.801	59.39
394.01	90.11
394.22	-16.38
394.429	18.43
394.639	18.43
394.848	79.87
395.058	198.65
395.267	83.97
395.477	83.97
395.686	81.92
395.895	169.98
396.105	73.73
396.314	149.5
396.524	108.54
396.733	8.19
396.942	92.16
397.152	73.73
397.361	43.01
397.57	96.25
397.78	79.87
397.989	59.39
398.198	143.36
398.407	92.16
398.617	61.44
398.826	110.59
399.035	47.1
399.244	83.97
399.453	116.73
399.663	53.25
399.872	231.42
400.081	36.86
400.29	174.08
400.499	73.73
400.708	104.45
400.917	47.1
401.127	83.97
401.336	147.45
401.545	137.21
401.754	147.45
401.963	90.11
402.172	116.73
402.381	90.11
402.59	194.56
402.799	98.3
403.008	202.75
403.217	106.49
403.426	116.73
403.635	18.43
403.844	122.88
404.053	34.82
404.262	100.35
404.471	188.41
404.68	149.5
404.888	122.88
405.097	122.88
405.306	149.5
405.515	182.27
405.724	75.77
405.933	157.69
406.142	204.8
406.35	172.03
406.559	135.17
406.768	157.69
406.977	196.61
407.185	145.41
407.394	96.25
407.603	163.84
407.812	221.18
408.02	264.19
408.229	202.75
408.438	186.37
408.646	190.46
408.855	198.65
409.064	219.13
409.272	221.18
409.481	286.72
409.69	212.99
409.898	237.56
410.107	364.54
410.315	337.91
410.524	321.53
410.733	270.33
410.941	368.63
411.15	337.91
411.358	323.58
411.567	356.35
411.775	333.82
411.984	335.87
412.192	348.15
412.401	442.36
412.609	507.9
412.818	456.7
413.026	464.89
413.234	526.33
413.443	450.55
413.651	509.94
413.86	581.62
414.068	663.54
414.276	608.25
414.485	473.08
414.693	636.92
414.901	688.12
415.11	616.44
415.318	671.73
415.526	657.4
415.734	698.36
415.943	692.21
416.151	872.43
416.359	786.42
416.567	751.6
416.776	856.05
416.984	845.81
417.192	1015.79
417.4	847.86
417.608	933.87
417.817	1007.6
418.025	1007.6
418.233	1193.97
418.441	1034.22
418.649	970.74
418.857	1163.25
419.065	1312.75
419.273	1304.56
419.481	1292.27
419.689	1322.99
419.897	1316.84
420.105	1415.15
420.313	1476.59
420.521	1521.64
420.729	1529.83
420.937	1486.83
421.145	1593.32
421.353	1705.96
421.561	1779.68
421.769	1828.84
421.977	1910.75
422.185	1906.66
422.393	2004.96
422.601	2084.83
422.809	2076.64
423.017	2113.5
423.224	2283.49
423.432	2410.46
423.64	2359.26
423.848	2449.37
424.056	2541.53
424.263	2590.68
424.471	2695.13
424.679	2775
424.887	2850.77
425.094	2940.88
425.302	2967.51
425.51	2985.94
425.718	3340.24
425.925	3164.11
426.133	3223.5
426.341	3426.25
426.548	3667.91
426.756	3651.53
426.964	3719.11
427.171	4079.55
427.379	4036.55
427.586	4032.45
427.794	4202.43
428.001	4450.24
428.209	4534.2
428.417	4556.73
428.624	4769.72
428.832	4874.17
429.039	4763.58
429.247	4818.87
429.454	5226.42
429.662	5744.55
429.869	5236.66
430.076	5656.49
430.284	5343.15
430.491	5666.73
430.699	6102.95
430.906	5955.49
431.114	6244.26
431.321	6383.52
431.528	6420.38
431.736	6924.18
431.943	7174.03
432.15	6940.57
432.358	7102.36
432.565	7526.29
432.772	7440.27
432.979	7982.98
433.187	7935.88
433.394	7890.82
433.601	8329.09
433.808	8707.96
434.016	8587.13
434.223	9025.4
434.43	9348.98
434.637	9142.13
434.844	9820.01
435.052	10084.2
435.259	9756.52
435.466	10045.29
435.673	9928.55
435.88	10639.2
436.087	11106.13
436.294	10839.9
436.501	10848.09
436.708	11198.29
436.915	11632.46
437.122	12126.02
437.329	11882.31
437.537	12205.89
437.743	12730.17
437.95	12474.18
438.157	13131.58
438.364	13561.65
438.571	13518.64
438.778	13694.77
438.985	14890.78
439.192	14223.14
439.399	14786.33
439.606	14257.96
439.813	15144.73
440.02	16070.41
440.227	15673.1
440.433	15574.8
440.64	16211.72
440.847	16125.71
441.054	16627.46
441.261	17723.12
441.467	17657.59
441.674	17970.93
441.881	18253.55
442.088	18388.71
442.294	18226.92
442.501	18714.34
442.708	18949.85
442.914	19859.15
443.121	20543.17
443.328	20190.92
443.534	21892.79
443.741	20686.53
443.948	20639.43
444.154	21935.79
444.361	21876.4
444.568	22349.48
444.774	22195.89
444.981	22417.07
445.187	23383.71
445.394	24049.3
445.6	23987.86
445.807	26203.76
446.013	24968.83
446.22	25357.95
446.426	25949.81
446.633	26476.14
446.839	27524.7
447.046	26033.78
447.252	27766.36
447.459	28366.42
447.665	27510.36
447.871	28823.11
448.078	29967.93
448.284	28517.96
448.491	29169.22
448.697	30871.08
448.903	31034.92
449.11	31297.06
449.316	30387.76
449.522	31616.54
449.728	32226.84
449.935	32628.24
450.141	32394.77
450.347	32890.38
450.553	32083.48
450.76	32290.32
450.966	33656.32
451.172	33146.37
451.378	33875.45
451.584	32941.58
451.791	33930.75
451.997	34225.65
452.203	34002.43
452.409	34321.91
452.615	34524.66
452.821	32822.8
453.027	32478.74
453.233	34762.22
453.44	32890.38
453.646	33783.29
453.852	33486.34
454.058	33871.36
454.264	32808.46
454.47	33680.89
454.676	32802.32
454.882	33981.95
455.088	31061.54
455.294	31370.79
455.5	32067.09
455.705	32298.52
455.911	31002.15
456.117	30535.21
456.323	30047.8
456.529	28567.12
456.735	29443.65
456.941	28876.36
457.147	28485.2
457.352	27727.45
457.558	27037.28
457.764	27430.49
457.97	26617.45
458.176	26111.6
458.381	26207.86
458.587	24927.88
458.793	24632.97
458.999	23465.63
459.204	25060.99
459.41	24385.16
459.616	22847.14
459.821	23148.19
460.027	22924.96
460.233	22537.9
460.438	21345.98
460.644	21411.51
460.85	20594.37
461.055	20299.47
461.261	20217.55
461.466	18808.54
461.672	17921.77
461.878	19365.59
462.083	18165.48
462.289	17864.43
462.494	17579.76
462.7	17043.2
462.905	16523.01
463.111	16834.3
463.316	17053.44
463.522	16695.04
463.727	16617.22
463.932	16639.75
464.138	16453.38
464.343	16490.24
464.549	15898.38
464.754	16365.32
464.959	16181
465.165	16119.56
465.37	15509.27
465.575	15181.59
465.781	15705.87
465.986	15808.27
466.191	15261.46
466.397	15191.83
466.602	14411.56
466.807	14737.18
467.012	14884.64
467.218	14712.61
467.423	14737.18
