Data from USB4F104151__27__11-30-04-465.txt Node

Date: Fri Mar 14 11:30:04 EDT 2025
User: louis
Spectrometer: USB4F10415
Trigger mode: 4
Integration Time (sec): 5.000000E-2
Scans to average: 1
Electric dark correction enabled: true
Nonlinearity correction enabled: false
Boxcar width: 0
XAxis mode: Wavelengths
Number of Pixels in Spectrum: 3648
>>>>>Begin Spectral Data<<<<<
178.204	-137.9
178.424	-137.9
178.644	-137.9
178.864	-117.42
179.084	-129.7
179.304	-64.17
179.524	-6.83
179.744	-6.83
179.964	38.23
180.184	17.75
180.404	-72.36
180.624	5.46
180.844	1.37
181.064	-17.07
181.283	64.85
181.503	1.37
181.723	38.23
181.943	38.23
182.163	50.52
182.383	-6.83
182.602	-6.83
182.822	165.2
183.042	11.61
183.262	-19.11
183.482	-4.78
183.701	46.42
183.921	21.85
184.141	73.04
184.361	107.86
184.58	42.32
184.8	95.57
185.02	50.52
185.239	48.47
185.459	58.71
185.679	66.9
185.898	-23.21
186.118	91.48
186.338	15.7
186.557	-6.83
186.777	48.47
186.997	105.81
187.216	9.56
187.436	25.94
187.655	99.67
187.875	73.04
188.095	58.71
188.314	60.76
188.534	9.56
188.753	7.51
188.973	1.37
189.192	144.72
189.412	21.85
189.631	17.75
189.851	-0.68
190.07	50.52
190.29	-6.83
190.509	23.89
190.729	46.42
190.948	85.33
191.168	179.54
191.387	58.71
191.607	-0.68
191.826	140.63
192.045	25.94
192.265	34.13
192.484	52.56
192.704	83.28
192.923	38.23
193.142	89.43
193.362	42.32
193.581	132.44
193.8	30.04
194.02	132.44
194.239	58.71
194.458	165.2
194.678	68.95
194.897	-23.21
195.116	103.76
195.335	75.09
195.555	34.13
195.774	9.56
195.993	79.19
196.212	95.57
196.432	122.2
196.651	89.43
196.87	68.95
197.089	122.2
197.308	42.32
197.528	130.39
197.747	58.71
197.966	7.51
198.185	89.43
198.404	38.23
198.623	66.9
198.842	54.61
199.062	60.76
199.281	68.95
199.5	25.94
199.719	3.41
199.938	17.75
200.157	95.57
200.376	30.04
200.595	81.24
200.814	34.13
201.033	-0.68
201.252	60.76
201.471	13.65
201.69	56.66
201.909	48.47
202.128	-15.02
202.347	103.76
202.566	75.09
202.785	73.04
203.004	38.23
203.223	154.96
203.442	56.66
203.661	25.94
203.879	38.23
204.098	146.77
204.317	1.37
204.536	99.67
204.755	17.75
204.974	114
205.193	7.51
205.411	58.71
205.63	21.85
205.849	36.18
206.068	1.37
206.287	17.75
206.505	114
206.724	19.8
206.943	-31.4
207.162	-8.87
207.381	93.52
207.599	60.76
207.818	7.51
208.037	62.8
208.255	73.04
208.474	58.71
208.693	83.28
208.911	-23.21
209.13	58.71
209.349	56.66
209.567	95.57
209.786	132.44
210.005	83.28
210.223	89.43
210.442	-31.4
210.661	42.32
210.879	9.56
211.098	64.85
211.316	62.8
211.535	64.85
211.753	52.56
211.972	60.76
212.191	83.28
212.409	32.08
212.628	30.04
212.846	30.04
213.065	75.09
213.283	85.33
213.502	9.56
213.72	83.28
213.938	7.51
214.157	58.71
214.375	42.32
214.594	21.85
214.812	62.8
215.031	-0.68
215.249	103.76
215.467	34.13
215.686	38.23
215.904	105.81
216.122	130.39
216.341	-19.11
216.559	71
216.778	77.14
216.996	97.62
217.214	7.51
217.432	68.95
217.651	-6.83
217.869	54.61
218.087	25.94
218.306	122.2
218.524	54.61
218.742	95.57
218.96	40.28
219.179	38.23
219.397	103.76
219.615	87.38
219.833	118.1
220.051	38.23
220.27	40.28
220.488	62.8
220.706	81.24
220.924	-27.31
221.142	30.04
221.36	52.56
221.578	95.57
221.796	38.23
222.015	124.24
222.233	32.08
222.451	95.57
222.669	-0.68
222.887	52.56
223.105	73.04
223.323	54.61
223.541	56.66
223.759	56.66
223.977	50.52
224.195	114
224.413	79.19
224.631	68.95
224.849	-15.02
225.067	124.24
225.285	13.65
225.503	91.48
225.721	-10.92
225.939	48.47
226.157	91.48
226.375	185.68
226.592	-39.59
226.81	25.94
227.028	21.85
227.246	101.72
227.464	27.99
227.682	95.57
227.9	109.91
228.117	105.81
228.335	52.56
228.553	56.66
228.771	9.56
228.989	15.7
229.206	58.71
229.424	25.94
229.642	83.28
229.86	27.99
230.077	23.89
230.295	50.52
230.513	75.09
230.731	154.96
230.948	75.09
231.166	107.86
231.384	-31.4
231.601	5.46
231.819	87.38
232.037	23.89
232.254	89.43
232.472	54.61
232.689	9.56
232.907	132.44
233.125	62.8
233.342	-27.31
233.56	7.51
233.777	27.99
233.995	83.28
234.213	79.19
234.43	91.48
234.648	66.9
234.865	21.85
235.083	99.67
235.3	-6.83
235.518	44.37
235.735	81.24
235.953	107.86
236.17	21.85
236.388	68.95
236.605	9.56
236.822	73.04
237.04	111.96
237.257	99.67
237.475	-6.83
237.692	-6.83
237.909	15.7
238.127	17.75
238.344	46.42
238.562	30.04
238.779	17.75
238.996	15.7
239.214	46.42
239.431	17.75
239.648	5.46
239.865	87.38
240.083	50.52
240.3	75.09
240.517	99.67
240.735	42.32
240.952	38.23
241.169	79.19
241.386	50.52
241.603	1.37
241.821	13.65
242.038	83.28
242.255	114
242.472	73.04
242.689	95.57
242.907	83.28
243.124	38.23
243.341	66.9
243.558	5.46
243.775	5.46
243.992	40.28
244.209	140.63
244.426	48.47
244.643	77.14
244.86	-17.07
245.078	19.8
245.295	50.52
245.512	83.28
245.729	17.75
245.946	9.56
246.163	34.13
246.38	-37.55
246.597	-6.83
246.814	-2.73
247.031	42.32
247.248	58.71
247.464	83.28
247.681	58.71
247.898	50.52
248.115	42.32
248.332	17.75
248.549	89.43
248.766	32.08
248.983	46.42
249.2	46.42
249.417	124.24
249.633	25.94
249.85	77.14
250.067	15.7
250.284	46.42
250.501	-0.68
250.717	42.32
250.934	42.32
251.151	32.08
251.368	68.95
251.585	-2.73
251.801	50.52
252.018	46.42
252.235	105.81
252.451	15.7
252.668	25.94
252.885	56.66
253.102	48.47
253.318	40.28
253.535	50.52
253.752	-25.26
253.968	19.8
254.185	62.8
254.401	83.28
254.618	19.8
254.835	1.37
255.051	126.29
255.268	89.43
255.484	103.76
255.701	11.61
255.917	30.04
256.134	5.46
256.351	120.15
256.567	13.65
256.784	13.65
257	-0.68
257.217	81.24
257.433	99.67
257.65	89.43
257.866	42.32
258.082	40.28
258.299	-23.21
258.515	83.28
258.732	50.52
258.948	7.51
259.165	93.52
259.381	3.41
259.597	34.13
259.814	17.75
260.03	73.04
260.246	66.9
260.463	64.85
260.679	71
260.895	32.08
261.112	-62.12
261.328	46.42
261.544	68.95
261.761	132.44
261.977	9.56
262.193	42.32
262.409	138.58
262.626	58.71
262.842	146.77
263.058	1.37
263.274	60.76
263.49	40.28
263.707	27.99
263.923	97.62
264.139	48.47
264.355	144.72
264.571	71
264.787	46.42
265.004	40.28
265.22	40.28
265.436	21.85
265.652	7.51
265.868	48.47
266.084	21.85
266.3	95.57
266.516	58.71
266.732	68.95
266.948	114
267.164	32.08
267.38	95.57
267.596	89.43
267.812	157.01
268.028	-43.69
268.244	111.96
268.46	32.08
268.676	23.89
268.892	34.13
269.108	-60.07
269.324	30.04
269.54	-25.26
269.756	105.81
269.972	48.47
270.188	34.13
270.403	40.28
270.619	48.47
270.835	50.52
271.051	64.85
271.267	34.13
271.483	66.9
271.698	19.8
271.914	48.47
272.13	19.8
272.346	46.42
272.562	32.08
272.777	105.81
272.993	56.66
273.209	79.19
273.425	42.32
273.64	-47.79
273.856	75.09
274.072	32.08
274.287	87.38
274.503	56.66
274.719	62.8
274.934	46.42
275.15	-21.16
275.366	-2.73
275.581	34.13
275.797	-25.26
276.012	9.56
276.228	52.56
276.444	32.08
276.659	99.67
276.875	-31.4
277.09	1.37
277.306	17.75
277.521	42.32
277.737	25.94
277.952	105.81
278.168	40.28
278.383	56.66
278.599	50.52
278.814	32.08
279.03	71
279.245	11.61
279.461	-4.78
279.676	122.2
279.892	75.09
280.107	109.91
280.322	-27.31
280.538	46.42
280.753	34.13
280.969	7.51
281.184	17.75
281.399	99.67
281.615	23.89
281.83	75.09
282.045	-2.73
282.26	7.51
282.476	58.71
282.691	79.19
282.906	75.09
283.122	23.89
283.337	-8.87
283.552	32.08
283.767	68.95
283.983	75.09
284.198	15.7
284.413	5.46
284.628	25.94
284.843	83.28
285.058	62.8
285.274	9.56
285.489	34.13
285.704	21.85
285.919	-0.68
286.134	21.85
286.349	32.08
286.564	54.61
286.779	97.62
286.995	54.61
287.21	42.32
287.425	-10.92
287.64	-10.92
287.855	89.43
288.07	25.94
288.285	75.09
288.5	-2.73
288.715	126.29
288.93	46.42
289.145	46.42
289.36	75.09
289.575	38.23
289.79	-25.26
290.004	50.52
290.219	50.52
290.434	30.04
290.649	17.75
290.864	40.28
291.079	-6.83
291.294	66.9
291.509	79.19
291.724	87.38
291.938	122.2
292.153	50.52
292.368	-72.36
292.583	66.9
292.798	77.14
293.012	50.52
293.227	34.13
293.442	-2.73
293.657	71
293.871	44.37
294.086	62.8
294.301	91.48
294.516	171.35
294.73	23.89
294.945	83.28
295.16	66.9
295.374	54.61
295.589	87.38
295.804	-41.64
296.018	114
296.233	73.04
296.447	83.28
296.662	-23.21
296.877	50.52
297.091	40.28
297.306	73.04
297.52	21.85
297.735	58.71
297.949	56.66
298.164	83.28
298.378	75.09
298.593	-0.68
298.807	42.32
299.022	7.51
299.236	46.42
299.451	91.48
299.665	38.23
299.88	34.13
300.094	42.32
300.309	-10.92
300.523	23.89
300.737	9.56
300.952	124.24
301.166	73.04
301.381	71
301.595	91.48
301.809	32.08
302.024	62.8
302.238	34.13
302.452	144.72
302.667	-10.92
302.881	58.71
303.095	134.48
303.309	9.56
303.524	-10.92
303.738	5.46
303.952	-17.07
304.166	68.95
304.381	-2.73
304.595	87.38
304.809	71
305.023	107.86
305.237	50.52
305.452	19.8
305.666	-8.87
305.88	132.44
306.094	-12.97
306.308	9.56
306.522	7.51
306.736	-41.64
306.95	54.61
307.164	21.85
307.379	36.18
307.593	173.39
307.807	46.42
308.021	77.14
308.235	58.71
308.449	38.23
308.663	58.71
308.877	144.72
309.091	-6.83
309.305	81.24
309.519	-12.97
309.733	75.09
309.947	-72.36
310.161	77.14
310.374	89.43
310.588	75.09
310.802	7.51
311.016	42.32
311.23	58.71
311.444	27.99
311.658	-37.55
311.872	66.9
312.085	38.23
312.299	62.8
312.513	27.99
312.727	38.23
312.941	46.42
313.154	75.09
313.368	105.81
313.582	91.48
313.796	50.52
314.009	62.8
314.223	124.24
314.437	15.7
314.651	7.51
314.864	42.32
315.078	-4.78
315.292	25.94
315.505	-17.07
315.719	48.47
315.933	77.14
316.146	54.61
316.36	-31.4
316.573	30.04
316.787	116.05
317.001	52.56
317.214	-37.55
317.428	71
317.641	95.57
317.855	81.24
318.068	71
318.282	25.94
318.495	165.2
318.709	17.75
318.922	34.13
319.136	175.44
319.349	25.94
319.563	114
319.776	50.52
319.99	-21.16
320.203	99.67
320.417	81.24
320.63	48.47
320.843	68.95
321.057	64.85
321.27	15.7
321.483	38.23
321.697	32.08
321.91	50.52
322.124	66.9
322.337	66.9
322.55	-23.21
322.763	25.94
322.977	23.89
323.19	7.51
323.403	7.51
323.617	99.67
323.83	91.48
324.043	42.32
324.256	75.09
324.469	21.85
324.683	40.28
324.896	42.32
325.109	-6.83
325.322	38.23
325.535	5.46
325.748	87.38
325.962	40.28
326.175	9.56
326.388	48.47
326.601	132.44
326.814	124.24
327.027	83.28
327.24	107.86
327.453	-0.68
327.666	140.63
327.879	75.09
328.092	11.61
328.305	42.32
328.518	-0.68
328.731	50.52
328.944	25.94
329.157	38.23
329.37	34.13
329.583	165.2
329.796	165.2
330.009	13.65
330.222	66.9
330.435	142.68
330.648	1.37
330.861	99.67
331.073	50.52
331.286	56.66
331.499	50.52
331.712	-43.69
331.925	23.89
332.138	107.86
332.35	91.48
332.563	3.41
332.776	42.32
332.989	91.48
333.202	93.52
333.414	64.85
333.627	5.46
333.84	30.04
334.053	34.13
334.265	-23.21
334.478	91.48
334.691	34.13
334.903	58.71
335.116	107.86
335.329	91.48
335.541	7.51
335.754	75.09
335.966	50.52
336.179	50.52
336.392	-23.21
336.604	75.09
336.817	5.46
337.029	-12.97
337.242	83.28
337.454	73.04
337.667	75.09
337.88	75.09
338.092	40.28
338.305	73.04
338.517	79.19
338.729	79.19
338.942	114
339.154	42.32
339.367	46.42
339.579	-10.92
339.792	-17.07
340.004	73.04
340.217	87.38
340.429	175.44
340.641	79.19
340.854	5.46
341.066	38.23
341.278	5.46
341.491	58.71
341.703	42.32
341.915	101.72
342.128	42.32
342.34	134.48
342.552	48.47
342.764	-47.79
342.977	79.19
343.189	50.52
343.401	91.48
343.613	-43.69
343.826	1.37
344.038	-23.21
344.25	21.85
344.462	21.85
344.674	25.94
344.886	81.24
345.099	97.62
345.311	21.85
345.523	38.23
345.735	56.66
345.947	103.76
346.159	68.95
346.371	56.66
346.583	-49.83
346.795	81.24
347.007	23.89
347.219	103.76
347.431	32.08
347.643	17.75
347.855	64.85
348.067	130.39
348.279	-4.78
348.491	62.8
348.703	79.19
348.915	60.76
349.127	11.61
349.339	50.52
349.551	66.9
349.763	54.61
349.975	1.37
350.187	40.28
350.399	107.86
350.61	36.18
350.822	83.28
351.034	54.61
351.246	32.08
351.458	79.19
351.669	81.24
351.881	56.66
352.093	27.99
352.305	56.66
352.517	83.28
352.728	95.57
352.94	56.66
353.152	71
353.363	-6.83
353.575	185.68
353.787	128.34
353.999	73.04
354.21	132.44
354.422	124.24
354.633	25.94
354.845	83.28
355.057	21.85
355.268	58.71
355.48	44.37
355.692	30.04
355.903	81.24
356.115	71
356.326	-6.83
356.538	146.77
356.749	46.42
356.961	120.15
357.172	46.42
357.384	62.8
357.595	148.82
357.807	-15.02
358.018	32.08
358.23	85.33
358.441	124.24
358.653	50.52
358.864	56.66
359.075	79.19
359.287	77.14
359.498	17.75
359.709	91.48
359.921	25.94
360.132	1.37
360.344	81.24
360.555	50.52
360.766	42.32
360.977	-27.31
361.189	87.38
361.4	17.75
361.611	71
361.823	101.72
362.034	111.96
362.245	38.23
362.456	5.46
362.667	89.43
362.879	17.75
363.09	87.38
363.301	34.13
363.512	-31.4
363.723	34.13
363.935	34.13
364.146	17.75
364.357	81.24
364.568	111.96
364.779	-6.83
364.99	62.8
365.201	9.56
365.412	48.47
365.623	15.7
365.834	95.57
366.045	60.76
366.256	109.91
366.467	60.76
366.678	9.56
366.889	1.37
367.1	126.29
367.311	54.61
367.522	34.13
367.733	71
367.944	66.9
368.155	71
368.366	103.76
368.577	173.39
368.788	79.19
368.999	81.24
369.209	75.09
369.42	81.24
369.631	165.2
369.842	66.9
370.053	25.94
370.264	91.48
370.474	103.76
370.685	34.13
370.896	13.65
371.107	97.62
371.317	44.37
371.528	23.89
371.739	157.01
371.95	157.01
372.16	75.09
372.371	17.75
372.582	9.56
372.792	103.76
373.003	23.89
373.214	-2.73
373.424	75.09
373.635	-45.74
373.846	140.63
374.056	87.38
374.267	73.04
374.477	64.85
374.688	13.65
374.898	91.48
375.109	87.38
375.319	36.18
375.53	173.39
375.74	34.13
375.951	15.7
376.161	73.04
376.372	66.9
376.582	50.52
376.793	99.67
377.003	66.9
377.214	25.94
377.424	58.71
377.635	60.76
377.845	50.52
378.055	79.19
378.266	40.28
378.476	73.04
378.686	32.08
378.897	173.39
379.107	150.87
379.317	81.24
379.528	120.15
379.738	71
379.948	32.08
380.158	124.24
380.369	138.58
380.579	105.81
380.789	7.51
380.999	1.37
381.21	124.24
381.42	181.59
381.63	1.37
381.84	111.96
382.05	21.85
382.261	87.38
382.471	114
382.681	109.91
382.891	132.44
383.101	87.38
383.311	73.04
383.521	81.24
383.731	105.81
383.941	124.24
384.151	73.04
384.361	46.42
384.571	111.96
384.781	25.94
384.991	46.42
385.201	79.19
385.411	50.52
385.621	91.48
385.831	132.44
386.041	99.67
386.251	130.39
386.461	56.66
386.671	7.51
386.881	62.8
387.091	89.43
387.301	79.19
387.511	101.72
387.72	62.8
387.93	34.13
388.14	30.04
388.35	75.09
388.56	68.95
388.769	50.52
388.979	42.32
389.189	97.62
389.399	-17.07
389.609	122.2
389.818	56.66
390.028	19.8
390.238	97.62
390.447	91.48
390.657	50.52
390.867	79.19
391.076	99.67
391.286	23.89
391.496	105.81
391.705	64.85
391.915	17.75
392.125	71
392.334	87.38
392.544	91.48
392.753	62.8
392.963	81.24
393.172	56.66
393.382	-45.74
393.591	75.09
393.801	89.43
394.01	167.25
394.22	79.19
394.429	91.48
394.639	1.37
394.848	83.28
395.058	118.1
395.267	54.61
395.477	163.15
395.686	152.91
395.895	197.97
396.105	169.3
396.314	21.85
396.524	34.13
396.733	38.23
396.942	91.48
397.152	50.52
397.361	101.72
397.57	79.19
397.78	87.38
397.989	144.72
398.198	118.1
398.407	157.01
398.617	101.72
398.826	50.52
399.035	85.33
399.244	89.43
399.453	54.61
399.663	91.48
399.872	130.39
400.081	40.28
400.29	136.53
400.499	42.32
400.708	163.15
400.917	157.01
401.127	17.75
401.336	73.04
401.545	175.44
401.754	179.54
401.963	128.34
402.172	128.34
402.381	140.63
402.59	124.24
402.799	42.32
403.008	212.31
403.217	159.06
403.426	157.01
403.635	118.1
403.844	185.68
404.053	95.57
404.262	124.24
404.471	255.31
404.68	157.01
404.888	132.44
405.097	138.58
405.306	140.63
405.515	181.59
405.724	99.67
405.933	173.39
406.142	165.2
406.35	195.92
406.559	210.26
406.768	161.11
406.977	238.93
407.185	128.34
407.394	214.35
407.603	220.5
407.812	189.78
408.02	134.48
408.229	187.73
408.438	177.49
408.646	187.73
408.855	228.69
409.064	181.59
409.272	236.88
409.481	261.46
409.69	197.97
409.898	204.11
410.107	288.08
410.315	300.37
410.524	337.23
410.733	277.84
410.941	271.7
411.15	335.18
411.358	294.22
411.567	361.81
411.775	312.66
411.984	433.49
412.192	404.82
412.401	402.77
412.609	466.25
412.818	484.69
413.026	415.05
413.234	484.69
413.443	447.82
413.651	415.05
413.86	478.54
414.068	519.5
414.276	523.6
414.485	496.97
414.693	595.28
414.901	574.8
415.11	628.04
415.318	623.95
415.526	644.43
415.734	726.35
415.943	716.11
416.151	810.31
416.359	699.72
416.567	730.44
416.776	718.15
416.984	818.5
417.192	795.98
417.4	810.31
417.608	808.27
417.817	925
418.025	935.24
418.233	1058.12
418.441	955.72
418.649	1064.26
418.857	980.29
419.065	1070.4
419.273	1109.32
419.481	1170.76
419.689	1064.26
419.897	1193.28
420.105	1279.3
420.313	1301.83
420.521	1367.36
420.729	1471.81
420.937	1457.47
421.145	1508.67
421.353	1523.01
421.561	1584.45
421.769	1668.41
421.977	1715.52
422.185	1678.65
422.393	1844.54
422.601	1850.68
422.809	1883.45
423.017	1844.54
423.224	1983.8
423.432	2184.5
423.64	2123.06
423.848	2272.56
424.056	2227.51
424.263	2346.29
424.471	2417.97
424.679	2385.2
424.887	2594.09
425.094	2608.43
425.302	2725.16
425.51	2692.4
425.718	2913.58
425.925	2784.55
426.133	2895.15
426.341	3167.52
426.548	3310.88
426.756	3384.61
426.964	3499.3
427.171	3540.26
427.379	3552.54
427.586	3630.37
427.794	3646.75
428.001	3933.47
428.209	4013.34
428.417	4023.58
428.624	4379.92
428.832	4179.22
429.039	4343.06
429.247	4338.96
429.454	4791.56
429.662	5125.38
429.869	4781.32
430.076	5051.66
430.284	4703.5
430.491	5188.87
430.699	5283.08
430.906	5383.43
431.114	5420.29
431.321	5555.46
431.528	5672.19
431.736	6022.39
431.943	6421.75
432.15	6356.21
432.358	6341.88
432.565	6735.09
432.772	6429.94
432.979	6919.4
433.187	7001.32
433.394	7068.91
433.601	7668.96
433.808	7675.1
434.016	7427.3
434.223	7902.43
434.43	8381.65
434.637	8160.47
434.844	8647.89
435.052	8721.62
435.259	8838.35
435.466	8879.31
435.673	8713.42
435.88	9364.68
436.087	9895.1
436.294	9827.52
436.501	9534.66
436.708	9833.66
436.915	10310.84
437.122	10673.33
437.329	10663.09
437.537	10896.56
437.743	11037.87
437.95	10962.09
438.157	11529.38
438.364	12057.76
438.571	11891.87
438.778	12160.16
438.985	13298.83
439.192	12618.9
439.399	13200.52
439.606	12686.48
439.813	13497.48
440.02	14261.37
440.227	13866.11
440.433	13972.61
440.64	14343.29
440.847	14146.69
441.054	14681.21
441.261	15410.28
441.467	15434.86
441.674	15932.51
441.881	16479.32
442.088	16249.95
442.294	16280.67
442.501	16589.91
442.708	17054.8
442.914	17617.99
443.121	18342.97
443.328	17853.51
443.534	18889.78
443.741	18463.8
443.948	18340.93
444.154	19686.44
444.361	19690.54
444.568	19637.29
444.774	19719.21
444.981	20046.88
445.187	20462.62
445.394	21339.15
445.6	20888.6
445.807	22866.94
446.013	22053.89
446.22	22264.83
446.426	23190.52
446.633	23415.79
446.839	24509.41
447.046	23288.82
447.252	24728.54
447.459	24689.63
447.665	24546.27
447.871	25400.27
448.078	26938.3
448.284	25517.01
448.491	26084.3
448.697	27204.53
448.903	27849.64
449.11	27687.85
449.316	27089.85
449.522	27581.36
449.728	28582.82
449.935	28742.56
450.141	28566.43
450.347	29010.84
450.553	28369.83
450.76	28654.5
450.966	29713.3
451.172	29469.59
451.378	30190.47
451.584	29318.04
451.791	29848.46
451.997	29698.96
452.203	30503.81
452.409	30282.63
452.615	30104.46
452.821	29029.27
453.027	28896.16
453.233	30176.14
453.44	29021.08
453.646	29651.86
453.852	29434.77
454.058	29957
454.264	28859.29
454.47	29698.96
454.676	28654.5
454.882	29965.2
455.088	27024.31
455.294	27620.27
455.5	27954.09
455.705	28132.26
455.911	26891.19
456.117	26502.08
456.323	25922.51
456.529	25029.59
456.735	25869.26
456.941	24847.32
457.147	24925.15
457.352	24423.39
457.558	23553.01
457.764	23886.82
457.97	23030.77
458.176	22830.07
458.381	22627.32
458.587	21500.94
458.793	21453.84
458.999	20673.56
459.204	22045.7
459.41	21693.45
459.616	20182.05
459.821	19866.66
460.027	19762.22
460.233	19616.81
460.438	18418.75
460.644	18816.05
460.85	17939.52
461.055	17630.28
461.261	17607.75
461.466	16141.41
461.672	15971.43
461.878	16915.54
462.083	15815.78
462.289	15266.92
462.494	15191.15
462.7	14605.43
462.905	14423.16
463.111	14756.98
463.316	14566.52
463.522	14543.99
463.727	14443.64
463.932	14414.97
464.138	14179.45
464.343	14447.74
464.549	13919.36
464.754	14320.76
464.959	14222.46
465.165	14230.65
465.37	13522.05
465.575	13192.33
465.781	13593.73
465.986	13800.58
466.191	13149.32
466.397	12934.29
466.602	12205.21
466.807	12903.57
467.012	12844.18
467.218	12948.62
467.423	12422.3
467.628	12811.41
467.833	13132.94
468.038	12795.03
468.244	12280.99
468.449	12919.95
