Data from USB4F104151__3__11-36-16-748.txt Node

Date: Fri Mar 14 11:36:16 EDT 2025
User: louis
Spectrometer: USB4F10415
Trigger mode: 4
Integration Time (sec): 2.000000E-2
Scans to average: 1
Electric dark correction enabled: true
Nonlinearity correction enabled: false
Boxcar width: 0
XAxis mode: Wavelengths
Number of Pixels in Spectrum: 3648
>>>>>Begin Spectral Data<<<<<
178.204	-185.17
178.424	-185.17
178.644	-185.17
178.864	-2.9
179.084	-109.4
179.304	-31.57
179.524	60.59
179.744	15.53
179.964	44.2
180.184	-27.48
180.404	15.53
180.624	-58.2
180.844	1.19
181.064	-4.95
181.283	11.43
181.503	-33.62
181.723	7.34
181.943	-60.24
182.163	25.77
182.383	21.67
182.602	-15.19
182.822	-37.72
183.042	-64.34
183.262	-4.95
183.482	-68.44
183.701	-17.24
183.921	42.15
184.141	-25.43
184.361	5.29
184.58	23.72
184.8	-9.05
185.02	36.01
185.239	29.87
185.459	17.58
185.679	23.72
185.898	-19.29
186.118	27.82
186.338	5.29
186.557	19.63
186.777	-19.29
186.997	44.2
187.216	-29.52
187.436	46.25
187.655	111.78
187.875	-50
188.095	13.48
188.314	27.82
188.534	68.78
188.753	38.06
188.973	7.34
189.192	29.87
189.412	-19.29
189.631	60.59
189.851	-21.33
190.07	19.63
190.29	-19.29
190.509	-27.48
190.729	31.91
190.948	-29.52
191.168	29.87
191.387	85.16
191.607	33.96
191.826	11.43
192.045	-7
192.265	50.35
192.484	11.43
192.704	31.91
192.923	-43.86
193.142	-0.85
193.362	52.39
193.581	31.91
193.8	-2.9
194.02	40.11
194.239	-31.57
194.458	38.06
194.678	27.82
194.897	-27.48
195.116	29.87
195.335	9.39
195.555	33.96
195.774	21.67
195.993	-4.95
196.212	70.83
196.432	-11.09
196.651	48.3
196.87	-19.29
197.089	-39.76
197.308	-11.09
197.528	-31.57
197.747	17.58
197.966	91.31
198.185	29.87
198.404	29.87
198.623	5.29
198.842	-13.14
199.062	-15.19
199.281	25.77
199.5	44.2
199.719	50.35
199.938	-35.67
200.157	58.54
200.376	9.39
200.595	23.72
200.814	13.48
201.033	81.07
201.252	27.82
201.471	111.78
201.69	54.44
201.909	33.96
202.128	27.82
202.347	74.92
202.566	31.91
202.785	54.44
203.004	5.29
203.223	72.87
203.442	-35.67
203.661	56.49
203.879	23.72
204.098	29.87
204.317	-11.09
204.536	33.96
204.755	-17.24
204.974	-7
205.193	5.29
205.411	50.35
205.63	56.49
205.849	-35.67
206.068	33.96
206.287	-29.52
206.505	29.87
206.724	29.87
206.943	119.98
207.162	-31.57
207.381	-0.85
207.599	17.58
207.818	25.77
208.037	-37.72
208.255	11.43
208.474	76.97
208.693	7.34
208.911	-68.44
209.13	13.48
209.349	-23.38
209.567	-11.09
209.786	19.63
210.005	44.2
210.223	54.44
210.442	-29.52
210.661	70.83
210.879	19.63
211.098	-7
211.316	9.39
211.535	40.11
211.753	11.43
211.972	-2.9
212.191	44.2
212.409	13.48
212.628	29.87
212.846	-0.85
213.065	-39.76
213.283	1.19
213.502	-13.14
213.72	11.43
213.938	17.58
214.157	-56.15
214.375	-19.29
214.594	1.19
214.812	13.48
215.031	93.35
215.249	-25.43
215.467	-4.95
215.686	70.83
215.904	40.11
216.122	36.01
216.341	54.44
216.559	-23.38
216.778	5.29
216.996	-35.67
217.214	-45.91
217.432	42.15
217.651	23.72
217.869	23.72
218.087	50.35
218.306	-11.09
218.524	-33.62
218.742	52.39
218.96	33.96
219.179	3.24
219.397	81.07
219.615	23.72
219.833	-25.43
220.051	-19.29
220.27	36.01
220.488	25.77
220.706	107.69
220.924	40.11
221.142	36.01
221.36	17.58
221.578	-11.09
221.796	-4.95
222.015	50.35
222.233	-37.72
222.451	-23.38
222.669	-9.05
222.887	52.39
223.105	-2.9
223.323	11.43
223.541	-23.38
223.759	136.36
223.977	87.21
224.195	-0.85
224.413	21.67
224.631	-0.85
224.849	5.29
225.067	70.83
225.285	1.19
225.503	-9.05
225.721	-45.91
225.939	3.24
226.157	-23.38
226.375	56.49
226.592	-64.34
226.81	-2.9
227.028	-47.96
227.246	21.67
227.464	38.06
227.682	-35.67
227.9	-19.29
228.117	42.15
228.335	38.06
228.553	70.83
228.771	-11.09
228.989	5.29
229.206	76.97
229.424	50.35
229.642	46.25
229.86	44.2
230.077	27.82
230.295	17.58
230.513	38.06
230.731	-11.09
230.948	29.87
231.166	29.87
231.384	-11.09
231.601	-68.44
231.819	46.25
232.037	-43.86
232.254	-15.19
232.472	17.58
232.689	54.44
232.907	-0.85
233.125	50.35
233.342	50.35
233.56	3.24
233.777	-13.14
233.995	-15.19
234.213	46.25
234.43	40.11
234.648	27.82
234.865	-7
235.083	-66.39
235.3	-35.67
235.518	-13.14
235.735	-11.09
235.953	-27.48
236.17	-15.19
236.388	44.2
236.605	-23.38
236.822	-4.95
237.04	44.2
237.257	11.43
237.475	50.35
237.692	23.72
237.909	-31.57
238.127	-4.95
238.344	-39.76
238.562	42.15
238.779	-45.91
238.996	-23.38
239.214	11.43
239.431	-9.05
239.648	-50
239.865	58.54
240.083	52.39
240.3	36.01
240.517	25.77
240.735	62.63
240.952	13.48
241.169	144.55
241.386	25.77
241.603	-7
241.821	-27.48
242.038	9.39
242.255	1.19
242.472	66.73
242.689	58.54
242.907	52.39
243.124	23.72
243.341	36.01
243.558	23.72
243.775	-13.14
243.992	15.53
244.209	36.01
244.426	27.82
244.643	87.21
244.86	-15.19
245.078	29.87
245.295	50.35
245.512	5.29
245.729	-11.09
245.946	17.58
246.163	50.35
246.38	117.93
246.597	-39.76
246.814	81.07
247.031	-2.9
247.248	-7
247.464	15.53
247.681	44.2
247.898	-43.86
248.115	-4.95
248.332	-7
248.549	-23.38
248.766	56.49
248.983	-19.29
249.2	68.78
249.417	58.54
249.633	-78.68
249.85	7.34
250.067	13.48
250.284	-29.52
250.501	29.87
250.717	31.91
250.934	-9.05
251.151	1.19
251.368	7.34
251.585	33.96
251.801	27.82
252.018	-2.9
252.235	70.83
252.451	-11.09
252.668	-23.38
252.885	46.25
253.102	11.43
253.318	5.29
253.535	27.82
253.752	-27.48
253.968	25.77
254.185	3.24
254.401	-35.67
254.618	25.77
254.835	38.06
255.051	56.49
255.268	21.67
255.484	13.48
255.701	15.53
255.917	27.82
256.134	25.77
256.351	13.48
256.567	-17.24
256.784	27.82
257	50.35
257.217	21.67
257.433	56.49
257.65	11.43
257.866	38.06
258.082	-19.29
258.299	-45.91
258.515	50.35
258.732	-11.09
258.948	25.77
259.165	60.59
259.381	-21.33
259.597	113.83
259.814	62.63
260.03	5.29
260.246	-19.29
260.463	76.97
260.679	-35.67
260.895	40.11
261.112	79.02
261.328	13.48
261.544	58.54
261.761	25.77
261.977	9.39
262.193	31.91
262.409	62.63
262.626	21.67
262.842	-11.09
263.058	62.63
263.274	68.78
263.49	44.2
263.707	87.21
263.923	36.01
264.139	46.25
264.355	-39.76
264.571	87.21
264.787	36.01
265.004	50.35
265.22	-21.33
265.436	27.82
265.652	-31.57
265.868	-41.81
266.084	-19.29
266.3	-29.52
266.516	48.3
266.732	-23.38
266.948	-31.57
267.164	5.29
267.38	29.87
267.596	5.29
267.812	36.01
268.028	15.53
268.244	31.91
268.46	23.72
268.676	13.48
268.892	-31.57
269.108	3.24
269.324	-37.72
269.54	-19.29
269.756	11.43
269.972	-2.9
270.188	-9.05
270.403	-35.67
270.619	-39.76
270.835	5.29
271.051	-35.67
271.267	-7
271.483	-21.33
271.698	42.15
271.914	21.67
272.13	31.91
272.346	54.44
272.562	1.19
272.777	-19.29
272.993	-4.95
273.209	-15.19
273.425	17.58
273.64	44.2
273.856	44.2
274.072	-17.24
274.287	-7
274.503	62.63
274.719	54.44
274.934	66.73
275.15	-31.57
275.366	87.21
275.581	-39.76
275.797	38.06
276.012	21.67
276.228	9.39
276.444	17.58
276.659	52.39
276.875	54.44
277.09	9.39
277.306	113.83
277.521	-17.24
277.737	-17.24
277.952	76.97
278.168	25.77
278.383	38.06
278.599	46.25
278.814	11.43
279.03	36.01
279.245	36.01
279.461	-4.95
279.676	64.68
279.892	-76.63
280.107	29.87
280.322	3.24
280.538	33.96
280.753	-9.05
280.969	11.43
281.184	7.34
281.399	93.35
281.615	48.3
281.83	-17.24
282.045	5.29
282.26	33.96
282.476	40.11
282.691	5.29
282.906	1.19
283.122	33.96
283.337	70.83
283.552	-39.76
283.767	33.96
283.983	70.83
284.198	-23.38
284.413	33.96
284.628	-21.33
284.843	42.15
285.058	3.24
285.274	9.39
285.489	66.73
285.704	76.97
285.919	-11.09
286.134	19.63
286.349	54.44
286.564	17.58
286.779	11.43
286.995	79.02
287.21	42.15
287.425	19.63
287.64	-13.14
287.855	60.59
288.07	5.29
288.285	-15.19
288.5	54.44
288.715	3.24
288.93	46.25
289.145	58.54
289.36	25.77
289.575	62.63
289.79	29.87
290.004	5.29
290.219	52.39
290.434	27.82
290.649	-31.57
290.864	19.63
291.079	25.77
291.294	-27.48
291.509	-15.19
291.724	-27.48
291.938	-4.95
292.153	103.59
292.368	5.29
292.583	-31.57
292.798	-27.48
293.012	46.25
293.227	58.54
293.442	42.15
293.657	29.87
293.871	74.92
294.086	-31.57
294.301	70.83
294.516	25.77
294.73	95.4
294.945	5.29
295.16	68.78
295.374	21.67
295.589	68.78
295.804	-56.15
296.018	-15.19
296.233	60.59
296.447	66.73
296.662	27.82
296.877	101.55
297.091	7.34
297.306	58.54
297.52	68.78
297.735	25.77
297.949	19.63
298.164	11.43
298.378	27.82
298.593	-7
298.807	-17.24
299.022	-11.09
299.236	21.67
299.451	17.58
299.665	56.49
299.88	23.72
300.094	15.53
300.309	31.91
300.523	21.67
300.737	1.19
300.952	5.29
301.166	62.63
301.381	19.63
301.595	-0.85
301.809	-23.38
302.024	-27.48
302.238	23.72
302.452	-0.85
302.667	40.11
302.881	83.11
303.095	83.11
303.309	1.19
303.524	42.15
303.738	27.82
303.952	17.58
304.166	9.39
304.381	-31.57
304.595	38.06
304.809	11.43
305.023	58.54
305.237	64.68
305.452	-9.05
305.666	9.39
305.88	27.82
306.094	9.39
306.308	-11.09
306.522	-19.29
306.736	25.77
306.95	-37.72
307.164	25.77
307.379	-4.95
307.593	93.35
307.807	40.11
308.021	76.97
308.235	38.06
308.449	11.43
308.663	9.39
308.877	27.82
309.091	70.83
309.305	93.35
309.519	13.48
309.733	62.63
309.947	7.34
310.161	42.15
310.374	60.59
310.588	83.11
310.802	-2.9
311.016	-19.29
311.23	46.25
311.444	-47.96
311.658	21.67
311.872	31.91
312.085	76.97
312.299	25.77
312.513	33.96
312.727	9.39
312.941	21.67
313.154	-68.44
313.368	7.34
313.582	-9.05
313.796	56.49
314.009	-13.14
314.223	48.3
314.437	21.67
314.651	11.43
314.864	52.39
315.078	54.44
315.292	17.58
315.505	-54.1
315.719	-13.14
315.933	54.44
316.146	99.5
316.36	60.59
316.573	72.87
316.787	-13.14
317.001	33.96
317.214	7.34
317.428	21.67
317.641	-27.48
317.855	-31.57
318.068	46.25
318.282	-54.1
318.495	15.53
318.709	46.25
318.922	-17.24
319.136	93.35
319.349	-11.09
319.563	83.11
319.776	38.06
319.99	60.59
320.203	-4.95
320.417	87.21
320.63	-11.09
320.843	40.11
321.057	91.31
321.27	60.59
321.483	31.91
321.697	31.91
321.91	60.59
322.124	9.39
322.337	85.16
322.55	-52.05
322.763	38.06
322.977	58.54
323.19	42.15
323.403	7.34
323.617	-25.43
323.83	29.87
324.043	13.48
324.256	5.29
324.469	29.87
324.683	-13.14
324.896	-27.48
325.109	23.72
325.322	-27.48
325.535	70.83
325.748	38.06
325.962	97.45
326.175	13.48
326.388	29.87
326.601	-41.81
326.814	44.2
327.027	3.24
327.24	52.39
327.453	-35.67
327.666	46.25
327.879	62.63
328.092	54.44
328.305	-43.86
328.518	21.67
328.731	-21.33
328.944	95.4
329.157	25.77
329.37	13.48
329.583	60.59
329.796	36.01
330.009	-29.52
330.222	3.24
330.435	50.35
330.648	50.35
330.861	-70.48
331.073	-15.19
331.286	42.15
331.499	66.73
331.712	13.48
331.925	23.72
332.138	-15.19
332.35	79.02
332.563	33.96
332.776	103.59
332.989	-4.95
333.202	23.72
333.414	-99.16
333.627	60.59
333.84	48.3
334.053	40.11
334.265	-15.19
334.478	-7
334.691	54.44
334.903	66.73
335.116	-13.14
335.329	19.63
335.541	-2.9
335.754	62.63
335.966	31.91
336.179	38.06
336.392	107.69
336.604	23.72
336.817	9.39
337.029	31.91
337.242	17.58
337.454	5.29
337.667	70.83
337.88	5.29
338.092	11.43
338.305	-41.81
338.517	7.34
338.729	29.87
338.942	-21.33
339.154	46.25
339.367	27.82
339.579	42.15
339.792	3.24
340.004	136.36
340.217	60.59
340.429	38.06
340.641	13.48
340.854	27.82
341.066	33.96
341.278	74.92
341.491	89.26
341.703	95.4
341.915	-52.05
342.128	-17.24
342.34	3.24
342.552	-47.96
342.764	17.58
342.977	95.4
343.189	-23.38
343.401	1.19
343.613	-13.14
343.826	38.06
344.038	31.91
344.25	13.48
344.462	-31.57
344.674	19.63
344.886	29.87
345.099	50.35
345.311	42.15
345.523	13.48
345.735	-64.34
345.947	19.63
346.159	44.2
346.371	132.26
346.583	13.48
346.795	109.74
347.007	-19.29
347.219	50.35
347.431	15.53
347.643	25.77
347.855	66.73
348.067	124.07
348.279	-4.95
348.491	-39.76
348.703	79.02
348.915	-70.48
349.127	-58.2
349.339	25.77
349.551	36.01
349.763	58.54
349.975	7.34
350.187	40.11
350.399	25.77
350.61	-4.95
350.822	50.35
351.034	44.2
351.246	-31.57
351.458	105.64
351.669	29.87
351.881	83.11
352.093	46.25
352.305	66.73
352.517	89.26
352.728	-13.14
352.94	15.53
353.152	70.83
353.363	79.02
353.575	109.74
353.787	19.63
353.999	44.2
354.21	54.44
354.422	64.68
354.633	38.06
354.845	44.2
355.057	31.91
355.268	3.24
355.48	46.25
355.692	-21.33
355.903	7.34
356.115	-2.9
356.326	54.44
356.538	23.72
356.749	-27.48
356.961	74.92
357.172	74.92
357.384	13.48
357.595	23.72
357.807	81.07
358.018	27.82
358.23	29.87
358.441	95.4
358.653	58.54
358.864	13.48
359.075	-19.29
359.287	60.59
359.498	9.39
359.709	107.69
359.921	-7
360.132	-7
360.344	17.58
360.555	42.15
360.766	56.49
360.977	44.2
361.189	-4.95
361.4	40.11
361.611	-11.09
361.823	62.63
362.034	11.43
362.245	13.48
362.456	79.02
362.667	-43.86
362.879	83.11
363.09	17.58
363.301	50.35
363.512	40.11
363.723	-47.96
363.935	48.3
364.146	29.87
364.357	15.53
364.568	50.35
364.779	-35.67
364.99	83.11
365.201	44.2
365.412	-21.33
365.623	17.58
365.834	-25.43
366.045	-7
366.256	40.11
366.467	-15.19
366.678	7.34
366.889	-31.57
367.1	66.73
367.311	-15.19
367.522	62.63
367.733	-11.09
367.944	74.92
368.155	44.2
368.366	29.87
368.577	89.26
368.788	11.43
368.999	17.58
369.209	33.96
369.42	91.31
369.631	52.39
369.842	52.39
370.053	48.3
370.264	46.25
370.474	27.82
370.685	40.11
370.896	-68.44
371.107	62.63
371.317	54.44
371.528	-45.91
371.739	54.44
371.95	124.07
372.16	66.73
372.371	-9.05
372.582	21.67
372.792	5.29
373.003	-15.19
373.214	99.5
373.424	27.82
373.635	21.67
373.846	11.43
374.056	13.48
374.267	124.07
374.477	-7
374.688	-19.29
374.898	25.77
375.109	-9.05
375.319	40.11
375.53	40.11
375.74	9.39
375.951	66.73
376.161	52.39
376.372	-11.09
376.582	62.63
376.793	-27.48
377.003	5.29
377.214	29.87
377.424	-31.57
377.635	29.87
377.845	36.01
378.055	119.98
378.266	54.44
378.476	66.73
378.686	107.69
378.897	111.78
379.107	11.43
379.317	50.35
379.528	79.02
379.738	60.59
379.948	-4.95
380.158	113.83
380.369	-4.95
380.579	64.68
380.789	13.48
380.999	1.19
381.21	33.96
381.42	140.46
381.63	40.11
381.84	46.25
382.05	-39.76
382.261	19.63
382.471	95.4
382.681	15.53
382.891	107.69
383.101	72.87
383.311	79.02
383.521	38.06
383.731	19.63
383.941	74.92
384.151	-2.9
384.361	70.83
384.571	115.88
384.781	40.11
384.991	40.11
385.201	3.24
385.411	42.15
385.621	40.11
385.831	17.58
386.041	-21.33
386.251	44.2
386.461	46.25
386.671	11.43
386.881	58.54
387.091	54.44
387.301	122.02
387.511	25.77
387.72	1.19
387.93	-11.09
388.14	42.15
388.35	60.59
388.56	25.77
388.769	42.15
388.979	107.69
389.189	19.63
389.399	64.68
389.609	36.01
389.818	66.73
390.028	54.44
390.238	46.25
390.447	56.49
390.657	50.35
390.867	-15.19
391.076	3.24
391.286	115.88
391.496	48.3
391.705	15.53
391.915	83.11
392.125	76.97
392.334	50.35
392.544	52.39
392.753	68.78
392.963	-9.05
393.172	122.02
393.382	44.2
393.591	109.74
393.801	25.77
394.01	105.64
394.22	29.87
394.429	68.78
394.639	89.26
394.848	91.31
395.058	42.15
395.267	87.21
395.477	111.78
395.686	-0.85
395.895	17.58
396.105	95.4
396.314	27.82
396.524	60.59
396.733	52.39
396.942	136.36
397.152	89.26
397.361	25.77
397.57	95.4
397.78	109.74
397.989	13.48
398.198	58.54
398.407	1.19
398.617	66.73
398.826	58.54
399.035	83.11
399.244	48.3
399.453	68.78
399.663	64.68
399.872	85.16
400.081	152.74
400.29	44.2
400.499	107.69
400.708	119.98
400.917	103.59
401.127	122.02
401.336	79.02
401.545	140.46
401.754	95.4
401.963	72.87
402.172	58.54
402.381	64.68
402.59	79.02
402.799	13.48
403.008	54.44
403.217	158.89
403.426	117.93
403.635	70.83
403.844	72.87
404.053	142.5
404.262	38.06
404.471	165.03
404.68	126.12
404.888	103.59
405.097	21.67
405.306	119.98
405.515	68.78
405.724	58.54
405.933	160.94
406.142	74.92
406.35	89.26
406.559	177.32
406.768	79.02
406.977	91.31
407.185	134.31
407.394	226.47
407.603	158.89
407.812	146.6
408.02	177.32
408.229	208.04
408.438	167.08
408.646	185.51
408.855	124.07
409.064	167.08
409.272	271.53
409.481	234.66
409.69	95.4
409.898	187.56
410.107	205.99
410.315	298.15
410.524	144.55
410.733	312.49
410.941	255.14
411.15	332.97
411.358	228.52
411.567	345.25
411.775	257.19
411.984	273.57
412.192	314.53
412.401	259.24
412.609	337.06
412.818	353.45
413.026	386.21
413.234	320.68
413.443	371.88
413.651	300.2
413.86	367.78
414.068	425.12
414.276	418.98
414.485	375.97
414.693	435.36
414.901	500.9
415.11	539.81
415.318	457.89
415.526	578.72
415.734	562.34
415.943	613.54
416.151	572.58
416.359	674.98
416.567	668.83
416.776	685.22
416.984	715.94
417.192	652.45
417.4	619.68
417.608	713.89
417.817	853.15
418.025	773.28
418.233	834.72
418.441	785.57
418.649	971.93
418.857	863.39
419.065	935.07
419.273	965.79
419.481	1092.76
419.689	1033.37
419.897	1197.21
420.105	1096.86
420.313	1186.97
420.521	1236.12
420.729	1275.03
420.937	1189.02
421.145	1322.13
421.353	1350.81
421.561	1502.36
421.769	1447.06
421.977	1512.6
422.185	1506.45
422.393	1623.19
422.601	1752.21
422.809	1586.32
423.017	1664.15
423.224	1717.39
423.432	1690.77
423.64	1897.61
423.848	1985.68
424.056	1928.33
424.263	2010.25
424.471	2083.98
424.679	2186.38
424.887	2204.81
425.094	2331.78
425.302	2448.52
425.51	2325.64
425.718	2458.76
425.925	2454.66
426.133	2643.07
426.341	2727.04
426.548	2804.86
426.756	2888.83
426.964	2985.09
427.171	3134.59
427.379	3220.6
427.586	3275.9
427.794	3189.88
428.001	3439.73
428.209	3646.58
428.417	3501.17
428.624	3912.81
428.832	3787.89
429.039	3753.07
429.247	3765.36
429.454	4134
429.662	4392.04
429.869	4234.35
430.076	4359.27
430.284	4281.45
430.491	4537.45
430.699	4807.78
430.906	4535.4
431.114	4842.59
431.321	4928.61
431.528	5088.35
431.736	5510.23
431.943	5626.96
432.15	5411.93
432.358	5596.25
432.565	5719.12
432.772	5874.77
432.979	6272.07
433.187	6114.38
433.394	6163.53
433.601	6683.72
433.808	6947.9
434.016	6603.85
434.223	7099.45
434.43	7547.96
434.637	7150.65
434.844	7697.46
435.052	7846.96
435.259	7996.46
435.466	7812.15
435.673	7830.58
435.88	8461.35
436.087	8893.47
436.294	8606.76
436.501	8434.73
436.708	8733.73
436.915	9143.33
437.122	9419.8
437.329	9356.32
437.537	9825.3
437.743	10099.73
437.95	9798.68
438.157	10417.16
438.364	10705.93
438.571	10728.45
438.778	10830.85
438.985	11652.09
439.192	11156.48
439.399	11615.23
439.606	11314.17
439.813	11926.52
440.02	12712.94
440.227	12487.66
440.433	12213.23
440.64	12817.38
440.847	12725.22
441.054	13069.28
441.261	13929.43
441.467	13630.43
441.674	13966.29
441.881	14400.46
442.088	14373.84
442.294	14304.21
442.501	14666.7
442.708	14822.34
442.914	15606.72
443.121	16315.31
443.328	15758.27
443.534	16753.58
443.741	16186.29
443.948	16260.02
444.154	17445.79
444.361	17388.45
444.568	17460.13
444.774	17433.5
444.981	17460.13
445.187	18158.49
445.394	18848.65
445.6	18817.93
445.807	20407.16
446.013	19659.65
446.22	20081.53
446.426	20652.91
446.633	20824.94
446.839	21310.31
447.046	20630.38
447.252	21803.87
447.459	21936.99
447.665	21601.12
447.871	22913.87
448.078	23872.32
448.284	22739.79
448.491	23171.91
448.697	24234.81
448.903	24568.63
449.11	24650.55
449.316	24269.62
449.522	24523.57
449.728	25373.48
449.935	25545.51
450.141	25457.45
450.347	26307.35
450.553	25146.15
450.76	25324.33
450.966	26188.57
451.172	26018.59
451.378	26852.11
451.584	26254.11
451.791	26823.44
451.997	26671.89
452.203	27106.06
452.409	27130.64
452.615	26770.19
452.821	25862.94
453.027	25940.77
453.233	27235.08
453.44	26260.25
453.646	26440.47
453.852	26544.92
454.058	26700.56
454.264	26069.79
454.47	26520.34
454.676	25746.21
454.882	26602.26
455.088	24646.45
455.294	25010.99
455.5	25029.42
455.705	25506.6
455.911	24286.01
456.117	23980.86
456.323	23653.19
456.529	22367.06
456.735	23362.37
456.941	22809.42
457.147	22358.87
457.352	21418.85
457.558	21496.67
457.764	21306.21
457.97	21255.01
458.176	20870
458.381	20779.89
458.587	19544.96
458.793	19780.48
458.999	18500.5
459.204	19823.48
459.41	19477.38
459.616	17890.2
459.821	18133.91
460.027	17826.71
460.233	17847.19
460.438	16931.75
460.644	17013.67
460.85	16374.7
461.055	15754.17
461.261	15952.82
461.466	14832.58
461.672	14435.28
461.878	15598.52
462.083	14537.68
462.289	13784.02
462.494	13618.14
462.7	13249.5
462.905	12968.93
463.111	13349.85
463.316	13480.92
463.522	13267.94
463.727	13003.75
463.932	12940.26
464.138	12872.68
464.343	12940.26
464.549	12415.98
464.754	13075.43
464.959	13018.08
465.165	12610.54
465.37	12282.86
465.575	11838.45
465.781	12428.27
465.986	12534.76
466.191	12028.92
466.397	11787.25
466.602	11244.54
466.807	11547.64
467.012	11596.79
467.218	11600.89
467.423	11598.84
467.628	11492.35
