Data from USB4F104151__2__11-36-16-148.txt Node

Date: Fri Mar 14 11:36:16 EDT 2025
User: louis
Spectrometer: USB4F10415
Trigger mode: 4
Integration Time (sec): 2.000000E-2
Scans to average: 1
Electric dark correction enabled: true
Nonlinearity correction enabled: false
Boxcar width: 0
XAxis mode: Wavelengths
Number of Pixels in Spectrum: 3648
>>>>>Begin Spectral Data<<<<<
178.204	-69.12
178.424	-69.12
178.644	-69.12
178.864	-77.31
179.084	-44.54
179.304	-7.68
179.524	-60.93
179.744	16.9
179.964	25.09
180.184	-7.68
180.404	-19.97
180.624	68.09
180.844	0.51
181.064	-11.78
181.283	55.81
181.503	-22.02
181.723	-36.35
181.943	16.9
182.163	68.09
182.383	12.8
182.602	29.18
182.822	82.43
183.042	14.85
183.262	10.75
183.482	76.29
183.701	70.14
183.921	35.33
184.141	2.56
184.361	14.85
184.58	94.72
184.8	-11.78
185.02	-56.83
185.239	4.61
185.459	-1.54
185.679	0.51
185.898	-15.87
186.118	20.99
186.338	-24.06
186.557	27.14
186.777	-26.11
186.997	82.43
187.216	16.9
187.436	35.33
187.655	-36.35
187.875	76.29
188.095	20.99
188.314	8.7
188.534	8.7
188.753	-32.26
188.973	12.8
189.192	16.9
189.412	-19.97
189.631	76.29
189.851	25.09
190.07	-28.16
190.29	20.99
190.509	23.04
190.729	86.53
190.948	25.09
191.168	47.62
191.387	45.57
191.607	4.61
191.826	12.8
192.045	8.7
192.265	66.05
192.484	4.61
192.704	-3.58
192.923	-9.73
193.142	98.81
193.362	51.71
193.581	20.99
193.8	-1.54
194.02	-56.83
194.239	-17.92
194.458	33.28
194.678	-7.68
194.897	27.14
195.116	49.66
195.335	20.99
195.555	-44.54
195.774	23.04
195.993	53.76
196.212	61.95
196.432	53.76
196.651	33.28
196.87	-38.4
197.089	78.33
197.308	4.61
197.528	-24.06
197.747	41.47
197.966	-3.58
198.185	-101.89
198.404	-30.21
198.623	39.42
198.842	-1.54
199.062	111.1
199.281	150.01
199.5	-5.63
199.719	31.23
199.938	94.72
200.157	61.95
200.376	33.28
200.595	78.33
200.814	49.66
201.033	4.61
201.252	-7.68
201.471	27.14
201.69	18.94
201.909	-13.82
202.128	12.8
202.347	0.51
202.566	12.8
202.785	16.9
203.004	0.51
203.223	39.42
203.442	-28.16
203.661	25.09
203.879	39.42
204.098	51.71
204.317	-13.82
204.536	86.53
204.755	41.47
204.974	43.52
205.193	20.99
205.411	55.81
205.63	61.95
205.849	-15.87
206.068	8.7
206.287	-13.82
206.505	43.52
206.724	47.62
206.943	31.23
207.162	23.04
207.381	68.09
207.599	14.85
207.818	41.47
208.037	20.99
208.255	8.7
208.474	-17.92
208.693	-3.58
208.911	43.52
209.13	29.18
209.349	102.91
209.567	2.56
209.786	20.99
210.005	10.75
210.223	10.75
210.442	96.77
210.661	-19.97
210.879	64
211.098	10.75
211.316	-5.63
211.535	-7.68
211.753	-13.82
211.972	43.52
212.191	-11.78
212.409	8.7
212.628	20.99
212.846	2.56
213.065	33.28
213.283	107.01
213.502	-75.26
213.72	10.75
213.938	76.29
214.157	12.8
214.375	49.66
214.594	14.85
214.812	-19.97
215.031	-36.35
215.249	53.76
215.467	-19.97
215.686	-24.06
215.904	41.47
216.122	-44.54
216.341	98.81
216.559	31.23
216.778	82.43
216.996	61.95
217.214	-5.63
217.432	29.18
217.651	-54.78
217.869	18.94
218.087	14.85
218.306	4.61
218.524	16.9
218.742	-46.59
218.96	12.8
219.179	12.8
219.397	33.28
219.615	33.28
219.833	-15.87
220.051	41.47
220.27	-11.78
220.488	33.28
220.706	49.66
220.924	10.75
221.142	25.09
221.36	25.09
221.578	143.87
221.796	29.18
222.015	12.8
222.233	-3.58
222.451	-44.54
222.669	-24.06
222.887	68.09
223.105	29.18
223.323	-7.68
223.541	23.04
223.759	8.7
223.977	61.95
224.195	12.8
224.413	12.8
224.631	-7.68
224.849	39.42
225.067	82.43
225.285	-17.92
225.503	-3.58
225.721	-40.45
225.939	94.72
226.157	82.43
226.375	41.47
226.592	-7.68
226.81	-9.73
227.028	57.86
227.246	113.15
227.464	59.9
227.682	45.57
227.9	-17.92
228.117	29.18
228.335	-22.02
228.553	53.76
228.771	-42.5
228.989	-65.02
229.206	-5.63
229.424	-24.06
229.642	16.9
229.86	2.56
230.077	49.66
230.295	18.94
230.513	113.15
230.731	51.71
230.948	-34.3
231.166	33.28
231.384	16.9
231.601	14.85
231.819	86.53
232.037	78.33
232.254	-7.68
232.472	45.57
232.689	16.9
232.907	72.19
233.125	-36.35
233.342	37.38
233.56	16.9
233.777	45.57
233.995	82.43
234.213	66.05
234.43	-11.78
234.648	35.33
234.865	-19.97
235.083	2.56
235.3	76.29
235.518	-65.02
235.735	47.62
235.953	-1.54
236.17	70.14
236.388	-38.4
236.605	25.09
236.822	57.86
237.04	64
237.257	0.51
237.475	37.38
237.692	23.04
237.909	-42.5
238.127	4.61
238.344	23.04
238.562	12.8
238.779	27.14
238.996	10.75
239.214	45.57
239.431	16.9
239.648	41.47
239.865	-26.11
240.083	33.28
240.3	37.38
240.517	8.7
240.735	-26.11
240.952	10.75
241.169	64
241.386	-36.35
241.603	47.62
241.821	27.14
242.038	78.33
242.255	18.94
242.472	61.95
242.689	6.66
242.907	86.53
243.124	90.62
243.341	-3.58
243.558	10.75
243.775	16.9
243.992	-5.63
244.209	37.38
244.426	43.52
244.643	31.23
244.86	49.66
245.078	-15.87
245.295	25.09
245.512	25.09
245.729	31.23
245.946	41.47
246.163	8.7
246.38	64
246.597	31.23
246.814	0.51
247.031	-19.97
247.248	-3.58
247.464	29.18
247.681	-44.54
247.898	25.09
248.115	33.28
248.332	-50.69
248.549	-36.35
248.766	53.76
248.983	64
249.2	-11.78
249.417	20.99
249.633	-3.58
249.85	-5.63
250.067	12.8
250.284	74.24
250.501	0.51
250.717	98.81
250.934	16.9
251.151	37.38
251.368	-69.12
251.585	47.62
251.801	61.95
252.018	33.28
252.235	47.62
252.451	59.9
252.668	45.57
252.885	-15.87
253.102	4.61
253.318	-3.58
253.535	61.95
253.752	41.47
253.968	102.91
254.185	25.09
254.401	23.04
254.618	-13.82
254.835	-11.78
255.051	61.95
255.268	35.33
255.484	74.24
255.701	-44.54
255.917	57.86
256.134	-5.63
256.351	80.38
256.567	29.18
256.784	12.8
257	-77.31
257.217	-19.97
257.433	-5.63
257.65	45.57
257.866	84.48
258.082	-36.35
258.299	70.14
258.515	33.28
258.732	-19.97
258.948	-26.11
259.165	43.52
259.381	18.94
259.597	-32.26
259.814	-3.58
260.03	20.99
260.246	29.18
260.463	66.05
260.679	59.9
260.895	10.75
261.112	55.81
261.328	18.94
261.544	-3.58
261.761	98.81
261.977	-17.92
262.193	78.33
262.409	102.91
262.626	57.86
262.842	27.14
263.058	-44.54
263.274	27.14
263.49	-1.54
263.707	14.85
263.923	-22.02
264.139	35.33
264.355	-22.02
264.571	84.48
264.787	2.56
265.004	-32.26
265.22	6.66
265.436	10.75
265.652	76.29
265.868	47.62
266.084	-24.06
266.3	-13.82
266.516	-7.68
266.732	14.85
266.948	16.9
267.164	33.28
267.38	37.38
267.596	12.8
267.812	31.23
268.028	49.66
268.244	16.9
268.46	80.38
268.676	10.75
268.892	78.33
269.108	10.75
269.324	-15.87
269.54	25.09
269.756	111.1
269.972	43.52
270.188	-36.35
270.403	35.33
270.619	78.33
270.835	-15.87
271.051	8.7
271.267	-32.26
271.483	4.61
271.698	23.04
271.914	43.52
272.13	-22.02
272.346	10.75
272.562	82.43
272.777	51.71
272.993	43.52
273.209	-22.02
273.425	74.24
273.64	-9.73
273.856	80.38
274.072	47.62
274.287	10.75
274.503	-5.63
274.719	-11.78
274.934	-24.06
275.15	25.09
275.366	88.57
275.581	57.86
275.797	-9.73
276.012	16.9
276.228	-19.97
276.444	12.8
276.659	6.66
276.875	-1.54
277.09	27.14
277.306	61.95
277.521	113.15
277.737	68.09
277.952	29.18
278.168	-19.97
278.383	39.42
278.599	25.09
278.814	57.86
279.03	29.18
279.245	94.72
279.461	-19.97
279.676	68.09
279.892	-52.74
280.107	35.33
280.322	29.18
280.538	4.61
280.753	16.9
280.969	33.28
281.184	-32.26
281.399	25.09
281.615	39.42
281.83	18.94
282.045	10.75
282.26	-19.97
282.476	-3.58
282.691	43.52
282.906	-3.58
283.122	12.8
283.337	-7.68
283.552	20.99
283.767	14.85
283.983	-1.54
284.198	18.94
284.413	4.61
284.628	96.77
284.843	-26.11
285.058	-15.87
285.274	53.76
285.489	-1.54
285.704	45.57
285.919	51.71
286.134	-24.06
286.349	-22.02
286.564	59.9
286.779	53.76
286.995	-19.97
287.21	-7.68
287.425	49.66
287.64	-19.97
287.855	-28.16
288.07	-52.74
288.285	84.48
288.5	96.77
288.715	27.14
288.93	8.7
289.145	-44.54
289.36	-22.02
289.575	43.52
289.79	10.75
290.004	-36.35
290.219	-62.98
290.434	12.8
290.649	41.47
290.864	-38.4
291.079	2.56
291.294	10.75
291.509	-1.54
291.724	80.38
291.938	6.66
292.153	12.8
292.368	39.42
292.583	49.66
292.798	84.48
293.012	-15.87
293.227	10.75
293.442	33.28
293.657	18.94
293.871	66.05
294.086	0.51
294.301	29.18
294.516	14.85
294.73	12.8
294.945	-15.87
295.16	37.38
295.374	53.76
295.589	131.58
295.804	-48.64
296.018	16.9
296.233	55.81
296.447	86.53
296.662	27.14
296.877	51.71
297.091	-19.97
297.306	59.9
297.52	-15.87
297.735	61.95
297.949	20.99
298.164	80.38
298.378	31.23
298.593	53.76
298.807	-19.97
299.022	-62.98
299.236	104.96
299.451	47.62
299.665	-17.92
299.88	23.04
300.094	86.53
300.309	68.09
300.523	-28.16
300.737	6.66
300.952	37.38
301.166	20.99
301.381	-19.97
301.595	59.9
301.809	-5.63
302.024	-17.92
302.238	-19.97
302.452	31.23
302.667	109.05
302.881	10.75
303.095	-19.97
303.309	70.14
303.524	20.99
303.738	25.09
303.952	-71.17
304.166	27.14
304.381	-5.63
304.595	78.33
304.809	27.14
305.023	74.24
305.237	6.66
305.452	33.28
305.666	74.24
305.88	20.99
306.094	27.14
306.308	-19.97
306.522	96.77
306.736	49.66
306.95	-40.45
307.164	27.14
307.379	8.7
307.593	10.75
307.807	82.43
308.021	49.66
308.235	-3.58
308.449	23.04
308.663	51.71
308.877	-13.82
309.091	-11.78
309.305	57.86
309.519	-7.68
309.733	8.7
309.947	-44.54
310.161	59.9
310.374	78.33
310.588	-32.26
310.802	12.8
311.016	59.9
311.23	-26.11
311.444	-19.97
311.658	29.18
311.872	29.18
312.085	-7.68
312.299	41.47
312.513	20.99
312.727	-15.87
312.941	66.05
313.154	61.95
313.368	51.71
313.582	12.8
313.796	45.57
314.009	57.86
314.223	84.48
314.437	37.38
314.651	100.86
314.864	82.43
315.078	12.8
315.292	59.9
315.505	-22.02
315.719	88.57
315.933	4.61
316.146	16.9
316.36	59.9
316.573	27.14
316.787	49.66
317.001	35.33
317.214	-17.92
317.428	-15.87
317.641	76.29
317.855	86.53
318.068	66.05
318.282	-24.06
318.495	100.86
318.709	74.24
318.922	-11.78
319.136	66.05
319.349	66.05
319.563	23.04
319.776	16.9
319.99	70.14
320.203	74.24
320.417	27.14
320.63	35.33
320.843	61.95
321.057	-62.98
321.27	2.56
321.483	14.85
321.697	14.85
321.91	-22.02
322.124	51.71
322.337	4.61
322.55	16.9
322.763	-42.5
322.977	68.09
323.19	27.14
323.403	41.47
323.617	61.95
323.83	82.43
324.043	68.09
324.256	51.71
324.469	10.75
324.683	61.95
324.896	23.04
325.109	82.43
325.322	92.67
325.535	49.66
325.748	45.57
325.962	-24.06
326.175	-13.82
326.388	-3.58
326.601	53.76
326.814	-38.4
327.027	57.86
327.24	25.09
327.453	31.23
327.666	37.38
327.879	-19.97
328.092	16.9
328.305	51.71
328.518	59.9
328.731	35.33
328.944	31.23
329.157	10.75
329.37	39.42
329.583	45.57
329.796	53.76
330.009	-54.78
330.222	16.9
330.435	72.19
330.648	0.51
330.861	8.7
331.073	70.14
331.286	27.14
331.499	0.51
331.712	127.49
331.925	-17.92
332.138	70.14
332.35	47.62
332.563	12.8
332.776	53.76
332.989	68.09
333.202	-44.54
333.414	37.38
333.627	14.85
333.84	12.8
334.053	33.28
334.265	86.53
334.478	10.75
334.691	53.76
334.903	33.28
335.116	31.23
335.329	16.9
335.541	39.42
335.754	29.18
335.966	41.47
336.179	57.86
336.392	43.52
336.604	2.56
336.817	2.56
337.029	37.38
337.242	66.05
337.454	2.56
337.667	16.9
337.88	-26.11
338.092	25.09
338.305	49.66
338.517	66.05
338.729	68.09
338.942	70.14
339.154	-9.73
339.367	-30.21
339.579	35.33
339.792	14.85
340.004	25.09
340.217	76.29
340.429	59.9
340.641	-46.59
340.854	59.9
341.066	51.71
341.278	14.85
341.491	45.57
341.703	66.05
341.915	-11.78
342.128	4.61
342.34	102.91
342.552	45.57
342.764	43.52
342.977	-3.58
343.189	-40.45
343.401	-3.58
343.613	-13.82
343.826	-65.02
344.038	49.66
344.25	94.72
344.462	41.47
344.674	98.81
344.886	86.53
345.099	49.66
345.311	33.28
345.523	31.23
345.735	18.94
345.947	76.29
346.159	4.61
346.371	-15.87
346.583	51.71
346.795	59.9
347.007	29.18
347.219	37.38
347.431	61.95
347.643	-24.06
347.855	47.62
348.067	53.76
348.279	-7.68
348.491	12.8
348.703	74.24
348.915	-19.97
349.127	53.76
349.339	78.33
349.551	107.01
349.763	27.14
349.975	41.47
350.187	104.96
350.399	25.09
350.61	76.29
350.822	10.75
351.034	45.57
351.246	6.66
351.458	8.7
351.669	12.8
351.881	29.18
352.093	25.09
352.305	41.47
352.517	49.66
352.728	117.25
352.94	4.61
353.152	102.91
353.363	20.99
353.575	10.75
353.787	31.23
353.999	90.62
354.21	39.42
354.422	33.28
354.633	-15.87
354.845	12.8
355.057	66.05
355.268	4.61
355.48	-69.12
355.692	10.75
355.903	8.7
356.115	6.66
356.326	45.57
356.538	66.05
356.749	-34.3
356.961	33.28
357.172	16.9
357.384	29.18
357.595	45.57
357.807	74.24
358.018	137.73
358.23	47.62
358.441	57.86
358.653	4.61
358.864	-3.58
359.075	10.75
359.287	107.01
359.498	25.09
359.709	45.57
359.921	18.94
360.132	33.28
360.344	51.71
360.555	-28.16
360.766	33.28
360.977	-1.54
361.189	76.29
361.4	35.33
361.611	59.9
361.823	-13.82
362.034	37.38
362.245	45.57
362.456	64
362.667	0.51
362.879	43.52
363.09	49.66
363.301	80.38
363.512	6.66
363.723	47.62
363.935	16.9
364.146	78.33
364.357	25.09
364.568	-26.11
364.779	-24.06
364.99	53.76
365.201	27.14
365.412	119.29
365.623	33.28
365.834	45.57
366.045	37.38
366.256	-26.11
366.467	4.61
366.678	12.8
366.889	61.95
367.1	51.71
367.311	2.56
367.522	59.9
367.733	80.38
367.944	43.52
368.155	-7.68
368.366	12.8
368.577	61.95
368.788	115.2
368.999	-15.87
369.209	51.71
369.42	37.38
369.631	53.76
369.842	41.47
370.053	29.18
370.264	57.86
370.474	-42.5
370.685	82.43
370.896	12.8
371.107	25.09
371.317	111.1
371.528	-28.16
371.739	74.24
371.95	70.14
372.16	57.86
372.371	8.7
372.582	100.86
372.792	35.33
373.003	61.95
373.214	41.47
373.424	47.62
373.635	18.94
373.846	68.09
374.056	45.57
374.267	80.38
374.477	27.14
374.688	16.9
374.898	47.62
375.109	70.14
375.319	45.57
375.53	37.38
375.74	-28.16
375.951	59.9
376.161	-13.82
376.372	35.33
376.582	119.29
376.793	-34.3
377.003	51.71
377.214	64
377.424	-42.5
377.635	49.66
377.845	33.28
378.055	156.16
378.266	61.95
378.476	29.18
378.686	78.33
378.897	70.14
379.107	109.05
379.317	41.47
379.528	20.99
379.738	102.91
379.948	-58.88
380.158	66.05
380.369	86.53
380.579	20.99
380.789	82.43
380.999	-34.3
381.21	51.71
381.42	-13.82
381.63	27.14
381.84	61.95
382.05	76.29
382.261	47.62
382.471	70.14
382.681	-28.16
382.891	78.33
383.101	80.38
383.311	0.51
383.521	135.68
383.731	45.57
383.941	66.05
384.151	-3.58
384.361	74.24
384.571	45.57
384.781	115.2
384.991	14.85
385.201	49.66
385.411	66.05
385.621	104.96
385.831	74.24
386.041	61.95
386.251	41.47
386.461	94.72
386.671	37.38
386.881	29.18
387.091	6.66
387.301	123.39
387.511	78.33
387.72	4.61
387.93	113.15
388.14	39.42
388.35	20.99
388.56	12.8
388.769	23.04
388.979	2.56
389.189	-1.54
389.399	61.95
389.609	94.72
389.818	88.57
390.028	123.39
390.238	64
390.447	8.7
390.657	94.72
390.867	55.81
391.076	61.95
391.286	10.75
391.496	-19.97
391.705	51.71
391.915	104.96
392.125	14.85
392.334	33.28
392.544	49.66
392.753	4.61
392.963	74.24
393.172	88.57
393.382	10.75
393.591	39.42
393.801	53.76
394.01	84.48
394.22	43.52
394.429	4.61
394.639	41.47
394.848	64
395.058	86.53
395.267	25.09
395.477	102.91
395.686	61.95
395.895	78.33
396.105	90.62
396.314	76.29
396.524	72.19
396.733	57.86
396.942	84.48
397.152	76.29
397.361	111.1
397.57	131.58
397.78	121.34
397.989	82.43
398.198	47.62
398.407	109.05
398.617	57.86
398.826	80.38
399.035	82.43
399.244	141.82
399.453	88.57
399.663	51.71
399.872	92.67
400.081	27.14
400.29	107.01
400.499	68.09
400.708	115.2
400.917	82.43
401.127	121.34
401.336	55.81
401.545	152.06
401.754	80.38
401.963	127.49
402.172	61.95
402.381	117.25
402.59	109.05
402.799	96.77
403.008	104.96
403.217	88.57
403.426	137.73
403.635	96.77
403.844	92.67
404.053	84.48
404.262	102.91
404.471	176.64
404.68	119.29
404.888	131.58
405.097	115.2
405.306	57.86
405.515	164.35
405.724	123.39
405.933	145.92
406.142	119.29
406.35	147.97
406.559	221.69
406.768	156.16
406.977	176.64
407.185	154.11
407.394	176.64
407.603	135.68
407.812	123.39
408.02	195.07
408.229	131.58
408.438	160.25
408.646	186.88
408.855	78.33
409.064	225.79
409.272	174.59
409.481	174.59
409.69	172.54
409.898	221.69
410.107	201.21
410.315	238.08
410.524	231.93
410.733	233.98
410.941	215.55
411.15	205.31
411.358	252.41
411.567	330.23
411.775	350.71
411.984	225.79
412.192	340.47
412.401	328.19
412.609	381.43
412.818	356.86
413.026	418.3
413.234	334.33
413.443	393.72
413.651	397.82
413.86	455.16
414.068	451.07
414.276	459.26
414.485	477.69
414.693	332.28
414.901	463.35
415.11	510.46
415.318	504.31
415.526	475.64
415.734	545.27
415.943	653.81
416.151	635.38
416.359	596.47
416.567	702.97
416.776	709.11
416.984	668.15
417.192	760.31
417.4	809.46
417.608	721.4
417.817	811.51
418.025	872.95
418.233	874.99
418.441	752.12
418.649	856.56
418.857	975.35
419.065	963.06
419.273	973.3
419.481	1053.17
419.689	1124.85
419.897	1102.32
420.105	1141.23
420.313	1120.75
420.521	1237.49
420.729	1235.44
420.937	1274.35
421.145	1331.69
421.353	1348.08
421.561	1462.76
421.769	1487.34
421.977	1593.83
422.185	1571.3
422.393	1526.25
422.601	1708.52
422.809	1696.23
423.017	1638.89
423.224	1741.29
423.432	1776.1
423.64	1892.84
423.848	1999.33
424.056	1962.47
424.263	2216.41
424.471	2146.78
424.679	2101.73
424.887	2251.23
425.094	2240.99
425.302	2390.49
425.51	2503.13
425.718	2539.99
425.925	2513.37
426.133	2646.49
426.341	2570.71
426.548	2806.23
426.756	2867.67
426.964	2937.3
427.171	3092.94
427.379	3097.04
427.586	3148.24
427.794	3314.13
428.001	3465.68
428.209	3643.85
428.417	3619.27
428.624	3727.82
428.832	3891.65
429.039	3682.76
429.247	3920.32
429.454	4209.09
429.662	4436.41
429.869	4112.83
430.076	4489.66
430.284	4268.48
430.491	4567.48
430.699	4858.29
430.906	4688.31
431.114	4714.94
431.321	4977.08
431.528	4903.35
431.736	5427.63
431.943	5603.75
432.15	5575.08
432.358	5552.56
432.565	5810.6
432.772	5904.81
432.979	6324.64
433.187	6240.67
433.394	6379.93
433.601	6775.19
433.808	6752.66
434.016	6723.99
434.223	6928.79
434.43	7254.42
434.637	7213.46
434.844	7846.28
435.052	7750.03
435.259	7743.88
435.466	7895.43
435.673	7797.13
435.88	8470.91
436.087	8776.06
436.294	8657.28
436.501	8589.69
436.708	8708.48
436.915	9163.12
437.122	9367.92
437.329	9476.46
437.537	9494.9
437.743	9922.92
437.95	9869.67
438.157	10361.19
438.364	10613.09
438.571	10586.46
438.778	10721.63
438.985	11673.93
439.192	11250
439.399	11600.21
439.606	11643.21
439.813	12054.86
440.02	12603.71
440.227	12507.46
440.433	12255.56
440.64	12693.82
440.847	12618.05
441.054	13037.88
441.261	13613.36
441.467	13570.35
441.674	13984.04
441.881	14600.48
442.088	14178.6
442.294	14262.57
442.501	14639.39
442.708	14911.77
442.914	15464.72
443.121	16185.61
443.328	15958.28
443.534	16773.38
443.741	16388.36
443.948	16226.57
444.154	17672.43
444.361	17060.09
444.568	17600.76
444.774	17297.66
444.981	17828.08
445.187	17953.01
445.394	18917.6
445.6	18813.15
445.807	20433.1
446.013	19376.34
446.22	19923.15
446.426	20570.31
446.633	20912.32
446.839	21483.7
447.046	20617.41
447.252	21641.4
447.459	21790.9
447.665	21846.19
447.871	22833.32
448.078	23613.59
448.284	22499.5
448.491	23212.19
448.697	24184.97
448.903	24187.02
449.11	24455.31
449.316	24004.75
449.522	24543.37
449.728	25155.71
449.935	25467
450.141	25735.29
450.347	26189.94
450.553	25221.25
450.76	25456.76
450.966	26249.33
451.172	25981.04
451.378	26667.11
451.584	26155.12
451.791	26835.05
451.997	26706.02
452.203	27269.22
452.409	27152.48
452.615	27002.98
452.821	25843.83
453.027	25673.85
453.233	26962.02
453.44	26282.09
453.646	26333.29
453.852	26257.52
454.058	26556.52
454.264	25639.03
454.47	26396.78
454.676	25856.12
454.882	26835.05
455.088	24424.59
455.294	24832.13
455.5	25155.71
455.705	25399.42
455.911	24350.86
456.117	24004.75
456.323	23672.98
456.529	22581.42
456.735	23406.75
456.941	22605.99
457.147	22368.43
457.352	22016.18
457.558	21289.15
457.764	21575.86
457.97	21217.47
458.176	20594.89
458.381	20732.1
458.587	19744.98
458.793	19529.94
458.999	18481.38
459.204	19800.27
459.41	19300.57
459.616	18047.21
459.821	18118.89
460.027	17946.86
460.233	17877.23
460.438	16568.58
460.644	16953.6
460.85	15986.96
461.055	15859.98
461.261	16161.03
461.466	14749.98
461.672	14330.15
461.878	15337.75
462.083	14336.29
462.289	14098.73
462.494	13785.39
462.7	13343.03
462.905	12935.48
463.111	13431.09
463.316	13418.8
463.522	13078.84
463.727	13158.71
463.932	13060.41
464.138	12818.75
464.343	13175.09
464.549	12548.42
464.754	13084.98
464.959	12765.5
465.165	12777.79
465.37	12298.56
465.575	12001.61
465.781	12491.07
465.986	12454.21
466.191	11981.13
466.397	11831.63
466.602	11331.92
466.807	11680.08
467.012	11639.12
467.218	11546.96
467.423	11538.77
467.628	11506
467.833	12319.04
468.038	11667.79
468.244	11370.83
