Data from USB4F104151__72__11-37-34-740.txt Node

Date: Fri Mar 14 11:37:34 EDT 2025
User: louis
Spectrometer: USB4F10415
Trigger mode: 4
Integration Time (sec): 2.000000E-2
Scans to average: 1
Electric dark correction enabled: true
Nonlinearity correction enabled: false
Boxcar width: 0
XAxis mode: Wavelengths
Number of Pixels in Spectrum: 3648
>>>>>Begin Spectral Data<<<<<
178.204	-99.33
178.424	-99.33
178.644	-99.33
178.864	-50.18
179.084	-134.14
179.304	-35.84
179.524	52.22
179.744	19.46
179.964	37.89
180.184	-31.74
180.404	17.41
180.624	-5.12
180.844	-9.22
181.064	-35.84
181.283	-35.84
181.503	-5.12
181.723	31.74
181.943	-54.27
182.163	17.41
182.383	-13.31
182.602	56.32
182.822	68.61
183.042	-25.6
183.262	48.13
183.482	48.13
183.701	19.46
183.921	29.7
184.141	-5.12
184.361	109.57
184.58	44.03
184.8	93.18
185.02	-31.74
185.239	125.95
185.459	17.41
185.679	58.37
185.898	-58.37
186.118	-9.22
186.338	46.08
186.557	60.42
186.777	-29.7
186.997	7.17
187.216	29.7
187.436	130.05
187.655	-3.07
187.875	37.89
188.095	-13.31
188.314	54.27
188.534	72.7
188.753	5.12
188.973	37.89
189.192	91.13
189.412	-7.17
189.631	89.09
189.851	7.17
190.07	60.42
190.29	-9.22
190.509	3.07
190.729	3.07
190.948	-25.6
191.168	84.99
191.387	27.65
191.607	44.03
191.826	-15.36
192.045	17.41
192.265	11.26
192.484	35.84
192.704	80.89
192.923	-41.98
193.142	78.85
193.362	54.27
193.581	72.7
193.8	1.02
194.02	-17.41
194.239	-50.18
194.458	64.51
194.678	17.41
194.897	27.65
195.116	68.61
195.335	52.22
195.555	25.6
195.774	27.65
195.993	27.65
196.212	72.7
196.432	-46.08
196.651	19.46
196.87	-13.31
197.089	95.23
197.308	1.02
197.528	48.13
197.747	44.03
197.966	-19.46
198.185	64.51
198.404	11.26
198.623	33.79
198.842	52.22
199.062	-41.98
199.281	54.27
199.5	70.65
199.719	-1.02
199.938	44.03
200.157	-21.5
200.376	35.84
200.595	15.36
200.814	72.7
201.033	52.22
201.252	23.55
201.471	50.18
201.69	62.46
201.909	-37.89
202.128	39.94
202.347	23.55
202.566	-35.84
202.785	101.37
203.004	13.31
203.223	123.9
203.442	37.89
203.661	35.84
203.879	76.8
204.098	60.42
204.317	68.61
204.536	3.07
204.755	-17.41
204.974	-5.12
205.193	7.17
205.411	78.85
205.63	82.94
205.849	87.04
206.068	25.6
206.287	-25.6
206.505	41.98
206.724	-29.7
206.943	62.46
207.162	89.09
207.381	-15.36
207.599	41.98
207.818	15.36
208.037	-50.18
208.255	9.22
208.474	76.8
208.693	1.02
208.911	72.7
209.13	-27.65
209.349	48.13
209.567	-1.02
209.786	1.02
210.005	89.09
210.223	35.84
210.442	25.6
210.661	3.07
210.879	3.07
211.098	48.13
211.316	-62.46
211.535	-44.03
211.753	-13.31
211.972	-25.6
212.191	82.94
212.409	68.61
212.628	-39.94
212.846	35.84
213.065	9.22
213.283	60.42
213.502	23.55
213.72	44.03
213.938	66.56
214.157	68.61
214.375	-3.07
214.594	-13.31
214.812	15.36
215.031	31.74
215.249	15.36
215.467	3.07
215.686	60.42
215.904	11.26
216.122	-11.26
216.341	25.6
216.559	-5.12
216.778	136.19
216.996	64.51
217.214	21.5
217.432	27.65
217.651	-5.12
217.869	56.32
218.087	-13.31
218.306	1.02
218.524	33.79
218.742	-1.02
218.96	82.94
219.179	-31.74
219.397	54.27
219.615	60.42
219.833	-19.46
220.051	7.17
220.27	3.07
220.488	-9.22
220.706	50.18
220.924	68.61
221.142	78.85
221.36	105.47
221.578	-46.08
221.796	27.65
222.015	27.65
222.233	3.07
222.451	35.84
222.669	11.26
222.887	58.37
223.105	35.84
223.323	1.02
223.541	11.26
223.759	41.98
223.977	-19.46
224.195	70.65
224.413	3.07
224.631	17.41
224.849	15.36
225.067	121.85
225.285	44.03
225.503	39.94
225.721	-33.79
225.939	27.65
226.157	35.84
226.375	3.07
226.592	-5.12
226.81	-50.18
227.028	31.74
227.246	87.04
227.464	17.41
227.682	56.32
227.9	-7.17
228.117	-50.18
228.335	35.84
228.553	11.26
228.771	17.41
228.989	31.74
229.206	35.84
229.424	-1.02
229.642	29.7
229.86	54.27
230.077	66.56
230.295	11.26
230.513	56.32
230.731	9.22
230.948	35.84
231.166	-15.36
231.384	76.8
231.601	27.65
231.819	25.6
232.037	52.22
232.254	-31.74
232.472	23.55
232.689	52.22
232.907	15.36
233.125	93.18
233.342	19.46
233.56	3.07
233.777	-74.75
233.995	25.6
234.213	84.99
234.43	82.94
234.648	84.99
234.865	105.47
235.083	91.13
235.3	35.84
235.518	3.07
235.735	29.7
235.953	33.79
236.17	68.61
236.388	-46.08
236.605	15.36
236.822	11.26
237.04	66.56
237.257	-13.31
237.475	-7.17
237.692	39.94
237.909	29.7
238.127	23.55
238.344	-29.7
238.562	1.02
238.779	70.65
238.996	-41.98
239.214	39.94
239.431	31.74
239.648	-41.98
239.865	-23.55
240.083	35.84
240.3	15.36
240.517	-68.61
240.735	1.02
240.952	64.51
241.169	23.55
241.386	-66.56
241.603	-70.65
241.821	-7.17
242.038	3.07
242.255	44.03
242.472	-19.46
242.689	56.32
242.907	13.31
243.124	-13.31
243.341	1.02
243.558	-48.13
243.775	-7.17
243.992	-62.46
244.209	52.22
244.426	58.37
244.643	80.89
244.86	39.94
245.078	23.55
245.295	107.52
245.512	35.84
245.729	37.89
245.946	66.56
246.163	-37.89
246.38	-44.03
246.597	48.13
246.814	7.17
247.031	50.18
247.248	52.22
247.464	7.17
247.681	52.22
247.898	95.23
248.115	9.22
248.332	11.26
248.549	-25.6
248.766	25.6
248.983	60.42
249.2	84.99
249.417	44.03
249.633	23.55
249.85	15.36
250.067	-50.18
250.284	11.26
250.501	91.13
250.717	84.99
250.934	13.31
251.151	33.79
251.368	39.94
251.585	72.7
251.801	7.17
252.018	-41.98
252.235	113.66
252.451	70.65
252.668	39.94
252.885	-5.12
253.102	31.74
253.318	48.13
253.535	17.41
253.752	15.36
253.968	3.07
254.185	13.31
254.401	-17.41
254.618	-17.41
254.835	60.42
255.051	87.04
255.268	44.03
255.484	76.8
255.701	54.27
255.917	33.79
256.134	-74.75
256.351	48.13
256.567	-9.22
256.784	136.19
257	9.22
257.217	56.32
257.433	70.65
257.65	-31.74
257.866	41.98
258.082	19.46
258.299	52.22
258.515	37.89
258.732	52.22
258.948	3.07
259.165	17.41
259.381	46.08
259.597	-21.5
259.814	35.84
260.03	11.26
260.246	11.26
260.463	76.8
260.679	58.37
260.895	-70.65
261.112	44.03
261.328	78.85
261.544	19.46
261.761	-31.74
261.977	11.26
262.193	25.6
262.409	-17.41
262.626	54.27
262.842	-13.31
263.058	17.41
263.274	1.02
263.49	39.94
263.707	13.31
263.923	31.74
264.139	-41.98
264.355	11.26
264.571	56.32
264.787	35.84
265.004	11.26
265.22	72.7
265.436	15.36
265.652	27.65
265.868	5.12
266.084	-21.5
266.3	111.61
266.516	41.98
266.732	58.37
266.948	56.32
267.164	1.02
267.38	97.28
267.596	115.71
267.812	27.65
268.028	3.07
268.244	27.65
268.46	109.57
268.676	56.32
268.892	-19.46
269.108	93.18
269.324	46.08
269.54	7.17
269.756	82.94
269.972	-95.23
270.188	54.27
270.403	27.65
270.619	27.65
270.835	-29.7
271.051	44.03
271.267	58.37
271.483	7.17
271.698	23.55
271.914	-3.07
272.13	11.26
272.346	19.46
272.562	-11.26
272.777	76.8
272.993	64.51
273.209	-19.46
273.425	41.98
273.64	-19.46
273.856	50.18
274.072	39.94
274.287	-39.94
274.503	46.08
274.719	17.41
274.934	84.99
275.15	-33.79
275.366	3.07
275.581	109.57
275.797	37.89
276.012	-48.13
276.228	52.22
276.444	66.56
276.659	29.7
276.875	25.6
277.09	19.46
277.306	17.41
277.521	21.5
277.737	33.79
277.952	27.65
278.168	35.84
278.383	7.17
278.599	-41.98
278.814	66.56
279.03	64.51
279.245	74.75
279.461	37.89
279.676	7.17
279.892	1.02
280.107	35.84
280.322	50.18
280.538	95.23
280.753	33.79
280.969	9.22
281.184	105.47
281.399	72.7
281.615	11.26
281.83	99.33
282.045	48.13
282.26	44.03
282.476	27.65
282.691	37.89
282.906	-5.12
283.122	1.02
283.337	39.94
283.552	7.17
283.767	72.7
283.983	37.89
284.198	66.56
284.413	115.71
284.628	11.26
284.843	11.26
285.058	-5.12
285.274	23.55
285.489	58.37
285.704	23.55
285.919	3.07
286.134	27.65
286.349	80.89
286.564	44.03
286.779	87.04
286.995	-11.26
287.21	-1.02
287.425	52.22
287.64	27.65
287.855	-15.36
288.07	17.41
288.285	3.07
288.5	13.31
288.715	109.57
288.93	87.04
289.145	-15.36
289.36	89.09
289.575	3.07
289.79	19.46
290.004	9.22
290.219	13.31
290.434	58.37
290.649	31.74
290.864	56.32
291.079	80.89
291.294	62.46
291.509	35.84
291.724	60.42
291.938	-15.36
292.153	13.31
292.368	-15.36
292.583	84.99
292.798	-31.74
293.012	80.89
293.227	19.46
293.442	46.08
293.657	37.89
293.871	107.52
294.086	44.03
294.301	-9.22
294.516	58.37
294.73	58.37
294.945	7.17
295.16	74.75
295.374	41.98
295.589	56.32
295.804	-13.31
296.018	56.32
296.233	70.65
296.447	11.26
296.662	-13.31
296.877	80.89
297.091	41.98
297.306	1.02
297.52	7.17
297.735	80.89
297.949	-37.89
298.164	52.22
298.378	-15.36
298.593	48.13
298.807	56.32
299.022	87.04
299.236	17.41
299.451	27.65
299.665	93.18
299.88	15.36
300.094	5.12
300.309	68.61
300.523	46.08
300.737	62.46
300.952	29.7
301.166	46.08
301.381	19.46
301.595	64.51
301.809	78.85
302.024	11.26
302.238	80.89
302.452	21.5
302.667	3.07
302.881	87.04
303.095	35.84
303.309	3.07
303.524	-1.02
303.738	-1.02
303.952	27.65
304.166	74.75
304.381	15.36
304.595	64.51
304.809	48.13
305.023	19.46
305.237	25.6
305.452	41.98
305.666	46.08
305.88	99.33
306.094	33.79
306.308	76.8
306.522	31.74
306.736	44.03
306.95	97.28
307.164	15.36
307.379	-7.17
307.593	74.75
307.807	35.84
308.021	41.98
308.235	33.79
308.449	-9.22
308.663	50.18
308.877	93.18
309.091	35.84
309.305	7.17
309.519	-50.18
309.733	103.42
309.947	27.65
310.161	5.12
310.374	60.42
310.588	29.7
310.802	48.13
311.016	56.32
311.23	27.65
311.444	99.33
311.658	9.22
311.872	23.55
312.085	44.03
312.299	1.02
312.513	93.18
312.727	11.26
312.941	60.42
313.154	87.04
313.368	93.18
313.582	41.98
313.796	11.26
314.009	91.13
314.223	25.6
314.437	35.84
314.651	-5.12
314.864	-23.55
315.078	89.09
315.292	33.79
315.505	19.46
315.719	123.9
315.933	48.13
316.146	41.98
316.36	17.41
316.573	17.41
316.787	60.42
317.001	66.56
317.214	54.27
317.428	5.12
317.641	-13.31
317.855	31.74
318.068	33.79
318.282	50.18
318.495	70.65
318.709	48.13
318.922	1.02
319.136	78.85
319.349	27.65
319.563	-21.5
319.776	60.42
319.99	39.94
320.203	41.98
320.417	70.65
320.63	76.8
320.843	39.94
321.057	44.03
321.27	111.61
321.483	62.46
321.697	70.65
321.91	35.84
322.124	99.33
322.337	68.61
322.55	17.41
322.763	66.56
322.977	27.65
323.19	44.03
323.403	-50.18
323.617	15.36
323.83	48.13
324.043	39.94
324.256	58.37
324.469	-3.07
324.683	54.27
324.896	-3.07
325.109	35.84
325.322	52.22
325.535	21.5
325.748	101.37
325.962	19.46
326.175	52.22
326.388	31.74
326.601	35.84
326.814	23.55
327.027	29.7
327.24	31.74
327.453	-11.26
327.666	21.5
327.879	70.65
328.092	56.32
328.305	41.98
328.518	56.32
328.731	60.42
328.944	58.37
329.157	48.13
329.37	21.5
329.583	39.94
329.796	60.42
330.009	21.5
330.222	44.03
330.435	52.22
330.648	-13.31
330.861	31.74
331.073	7.17
331.286	27.65
331.499	37.89
331.712	-33.79
331.925	3.07
332.138	82.94
332.35	37.89
332.563	17.41
332.776	46.08
332.989	19.46
333.202	62.46
333.414	-17.41
333.627	84.99
333.84	17.41
334.053	7.17
334.265	23.55
334.478	72.7
334.691	-3.07
334.903	41.98
335.116	48.13
335.329	99.33
335.541	93.18
335.754	58.37
335.966	66.56
336.179	-25.6
336.392	66.56
336.604	31.74
336.817	39.94
337.029	35.84
337.242	-7.17
337.454	41.98
337.667	-9.22
337.88	62.46
338.092	25.6
338.305	33.79
338.517	44.03
338.729	60.42
338.942	82.94
339.154	27.65
339.367	9.22
339.579	46.08
339.792	35.84
340.004	39.94
340.217	58.37
340.429	58.37
340.641	-1.02
340.854	52.22
341.066	31.74
341.278	39.94
341.491	84.99
341.703	44.03
341.915	64.51
342.128	29.7
342.34	60.42
342.552	44.03
342.764	-15.36
342.977	74.75
343.189	21.5
343.401	-5.12
343.613	-11.26
343.826	91.13
344.038	50.18
344.25	62.46
344.462	9.22
344.674	76.8
344.886	31.74
345.099	-3.07
345.311	62.46
345.523	-5.12
345.735	7.17
345.947	46.08
346.159	68.61
346.371	3.07
346.583	37.89
346.795	138.24
347.007	13.31
347.219	29.7
347.431	-13.31
347.643	39.94
347.855	-17.41
348.067	105.47
348.279	-3.07
348.491	84.99
348.703	-7.17
348.915	15.36
349.127	3.07
349.339	58.37
349.551	-15.36
349.763	5.12
349.975	-3.07
350.187	23.55
350.399	60.42
350.61	31.74
350.822	48.13
351.034	76.8
351.246	89.09
351.458	-7.17
351.669	5.12
351.881	78.85
352.093	50.18
352.305	66.56
352.517	54.27
352.728	152.57
352.94	17.41
353.152	105.47
353.363	44.03
353.575	50.18
353.787	132.09
353.999	93.18
354.21	37.89
354.422	41.98
354.633	35.84
354.845	68.61
355.057	5.12
355.268	60.42
355.48	35.84
355.692	-19.46
355.903	89.09
356.115	109.57
356.326	44.03
356.538	44.03
356.749	-1.02
356.961	58.37
357.172	84.99
357.384	-31.74
357.595	35.84
357.807	9.22
358.018	21.5
358.23	54.27
358.441	48.13
358.653	58.37
358.864	74.75
359.075	80.89
359.287	91.13
359.498	23.55
359.709	72.7
359.921	37.89
360.132	3.07
360.344	101.37
360.555	56.32
360.766	33.79
360.977	78.85
361.189	23.55
361.4	23.55
361.611	13.31
361.823	29.7
362.034	64.51
362.245	60.42
362.456	33.79
362.667	29.7
362.879	105.47
363.09	44.03
363.301	68.61
363.512	41.98
363.723	62.46
363.935	21.5
364.146	103.42
364.357	58.37
364.568	41.98
364.779	27.65
364.99	54.27
365.201	56.32
365.412	164.86
365.623	41.98
365.834	5.12
366.045	29.7
366.256	52.22
366.467	56.32
366.678	35.84
366.889	103.42
367.1	87.04
367.311	19.46
367.522	72.7
367.733	132.09
367.944	60.42
368.155	52.22
368.366	-9.22
368.577	107.52
368.788	66.56
368.999	-33.79
369.209	107.52
369.42	115.71
369.631	99.33
369.842	70.65
370.053	19.46
370.264	60.42
370.474	-5.12
370.685	19.46
370.896	56.32
371.107	60.42
371.317	72.7
371.528	9.22
371.739	48.13
371.95	125.95
372.16	35.84
372.371	3.07
372.582	101.37
372.792	82.94
373.003	113.66
373.214	154.62
373.424	39.94
373.635	91.13
373.846	25.6
374.056	-13.31
374.267	93.18
374.477	56.32
374.688	-5.12
374.898	68.61
375.109	41.98
375.319	52.22
375.53	50.18
375.74	52.22
375.951	119.81
376.161	44.03
376.372	93.18
376.582	97.28
376.793	46.08
377.003	11.26
377.214	-64.51
377.424	27.65
377.635	41.98
377.845	33.79
378.055	33.79
378.266	68.61
378.476	58.37
378.686	105.47
378.897	50.18
379.107	103.42
379.317	97.28
379.528	-60.42
379.738	27.65
379.948	7.17
380.158	68.61
380.369	105.47
380.579	41.98
380.789	56.32
380.999	54.27
381.21	58.37
381.42	115.71
381.63	60.42
381.84	19.46
382.05	99.33
382.261	82.94
382.471	33.79
382.681	93.18
382.891	50.18
383.101	23.55
383.311	62.46
383.521	76.8
383.731	76.8
383.941	117.76
384.151	19.46
384.361	50.18
384.571	91.13
384.781	60.42
384.991	130.05
385.201	66.56
385.411	17.41
385.621	105.47
385.831	111.61
386.041	7.17
386.251	11.26
386.461	31.74
386.671	78.85
386.881	54.27
387.091	48.13
387.301	19.46
387.511	39.94
387.72	46.08
387.93	91.13
388.14	48.13
388.35	54.27
388.56	56.32
388.769	68.61
388.979	111.61
389.189	11.26
389.399	91.13
389.609	107.52
389.818	62.46
390.028	144.38
390.238	56.32
390.447	50.18
390.657	91.13
390.867	-11.26
391.076	44.03
391.286	56.32
391.496	107.52
391.705	84.99
391.915	68.61
392.125	146.43
392.334	84.99
392.544	78.85
392.753	93.18
392.963	64.51
393.172	5.12
393.382	76.8
393.591	101.37
393.801	76.8
394.01	95.23
394.22	74.75
394.429	44.03
394.639	107.52
394.848	35.84
395.058	113.66
395.267	37.89
395.477	70.65
395.686	164.86
395.895	107.52
396.105	123.9
396.314	93.18
396.524	33.79
396.733	74.75
396.942	93.18
397.152	58.37
397.361	87.04
397.57	148.48
397.78	87.04
397.989	64.51
398.198	123.9
398.407	121.85
398.617	142.33
398.826	62.46
399.035	148.48
399.244	7.17
399.453	138.24
399.663	130.05
399.872	148.48
400.081	44.03
400.29	111.61
400.499	44.03
400.708	166.91
400.917	76.8
401.127	103.42
401.336	160.77
401.545	113.66
401.754	209.92
401.963	103.42
402.172	136.19
402.381	66.56
402.59	156.67
402.799	154.62
403.008	160.77
403.217	128
403.426	121.85
403.635	146.43
403.844	228.35
404.053	128
404.262	187.39
404.471	183.29
404.68	193.53
404.888	158.72
405.097	164.86
405.306	171.01
405.515	222.2
405.724	191.49
405.933	224.25
406.142	205.82
406.35	220.16
406.559	195.58
406.768	181.25
406.977	236.54
407.185	191.49
407.394	281.6
407.603	216.06
407.812	152.57
408.02	216.06
408.229	283.64
408.438	224.25
408.646	263.16
408.855	234.49
409.064	230.4
409.272	306.17
409.481	330.75
409.69	318.46
409.898	357.37
410.107	320.51
410.315	371.71
410.524	334.84
410.733	357.37
410.941	314.36
411.15	474.1
411.358	461.82
411.567	451.58
411.775	375.8
411.984	437.24
412.192	519.16
412.401	474.1
412.609	535.54
412.818	607.22
413.026	472.06
413.234	551.93
413.443	621.56
413.651	568.31
413.86	588.79
414.068	674.81
414.276	650.23
414.485	760.82
414.693	744.44
414.901	730.1
415.11	771.06
415.318	801.78
415.526	773.11
415.734	871.41
415.943	855.03
416.151	988.14
416.359	1002.48
416.567	1008.62
416.776	1016.82
416.984	1129.45
417.192	1129.45
417.4	1117.17
417.608	1172.46
417.817	1133.55
418.025	1252.33
418.233	1305.58
418.441	1262.57
418.649	1352.68
418.857	1539.05
419.065	1485.8
419.273	1434.6
419.481	1522.66
419.689	1721.32
419.897	1694.69
420.105	1666.02
420.313	1731.56
420.521	1764.33
420.729	1909.73
420.937	2065.38
421.145	1940.45
421.353	2087.9
421.561	2202.59
421.769	2214.88
421.977	2317.28
422.185	2335.71
422.393	2446.3
422.601	2552.79
422.809	2657.24
423.017	2655.19
423.224	2784.21
423.432	2921.43
423.64	2911.19
423.848	3095.5
424.056	3054.55
424.263	3361.74
424.471	3267.53
424.679	3427.28
424.887	3517.39
425.094	3435.47
425.302	3636.17
425.51	3752.9
425.718	3859.4
425.925	3996.61
426.133	4056
426.341	4217.79
426.548	4438.97
426.756	4615.1
426.964	4555.71
427.171	4742.07
427.379	4893.62
427.586	5059.51
427.794	5204.91
428.001	5485.48
428.209	5741.48
428.417	5446.57
428.624	5942.18
428.832	6040.48
429.039	5876.65
429.247	5899.17
429.454	6484.89
429.662	6777.75
429.869	6355.87
430.076	6935.45
430.284	6736.79
430.491	7076.76
430.699	7433.1
430.906	7211.92
431.114	7361.42
431.321	7705.48
431.528	7998.34
431.736	8399.74
431.943	8708.99
432.15	8446.85
432.358	8704.89
432.565	9182.07
432.772	9233.27
432.979	9675.63
433.187	9827.18
433.394	9702.25
433.601	10363.75
433.808	10554.21
434.016	10365.79
434.223	10890.07
434.43	11393.87
434.637	11428.69
434.844	11989.83
435.052	12168.01
435.259	12208.97
435.466	12426.05
435.673	12110.66
435.88	12905.28
436.087	13447.99
436.294	13560.63
436.501	13194.04
436.708	13476.66
436.915	14021.42
437.122	14883.61
437.329	14760.73
437.537	15151.9
437.743	15276.82
437.95	15235.86
438.157	16087.82
438.364	16567.04
438.571	16407.3
438.778	16636.67
438.985	18205.42
439.192	17255.16
439.399	18133.74
439.606	17681.14
439.813	18705.12
440.02	19387.1
440.227	19251.93
440.433	19339.99
440.64	20210.38
440.847	19647.19
441.054	20232.91
441.261	21486.26
441.467	21213.88
441.674	21844.66
441.881	22569.64
442.088	22477.48
442.294	22330.03
442.501	23048.86
442.708	23038.62
442.914	24074.9
443.121	25344.64
443.328	24517.26
443.534	26428.01
443.741	25500.28
443.948	25127.55
444.154	26927.72
444.361	26780.26
444.568	27148.9
444.774	26937.96
444.981	27347.55
445.187	28193.36
445.394	29311.55
445.6	28803.66
445.807	31683.1
446.013	30198.32
446.22	31056.42
446.426	31885.85
446.633	32166.42
446.839	33020.42
447.046	31955.48
447.252	33772.03
447.459	33819.13
447.665	33600
447.871	35019.24
448.078	36583.89
448.284	34691.57
448.491	35938.78
448.697	37585.35
448.903	37867.97
449.11	37994.94
449.316	37132.75
449.522	38209.98
449.728	39086.51
449.935	39350.7
450.141	39305.64
450.347	40448.41
450.553	38869.42
450.76	39745.95
450.966	40821.14
451.172	40079.77
451.378	41492.87
451.584	40378.78
451.791	41607.56
451.997	41269.64
452.203	41963.9
452.409	41859.46
452.615	41689.48
452.821	40130.97
453.027	39936.41
453.233	41916.8
453.44	40200.6
453.646	40831.38
453.852	40685.97
454.058	41271.69
454.264	39973.28
454.47	40886.67
454.676	39858.59
454.882	41073.04
455.088	37749.18
455.294	38289.85
455.5	38906.29
455.705	39702.95
455.911	37812.67
456.117	36717.01
456.323	36678.1
456.529	34609.65
456.735	36041.18
456.941	35322.34
457.147	34474.48
457.352	33970.68
457.558	32827.92
457.764	33548.8
457.97	32578.06
458.176	31975.96
458.381	31863.32
458.587	30421.55
458.793	30390.83
458.999	28504.65
459.204	30851.63
459.41	30081.59
459.616	28193.36
459.821	27906.65
460.027	28097.11
460.233	27679.32
460.438	26208.88
460.644	26888.81
460.85	25037.44
461.055	25010.82
461.261	24627.85
461.466	22715.05
461.672	22217.39
461.878	23956.11
462.083	22487.72
462.289	22031.02
462.494	21371.58
462.7	20519.62
462.905	20122.32
463.111	20970.18
463.316	20859.59
463.522	20419.27
463.727	20458.18
463.932	20200.14
464.138	20069.07
464.343	20284.11
464.549	19665.62
464.754	20067.02
464.959	19843.79
465.165	20030.16
465.37	19198.68
465.575	18758.37
465.781	19256.03
465.986	19344.09
466.191	18916.06
466.397	18510.57
466.602	17451.77
466.807	17916.65
467.012	18049.77
467.218	18090.73
467.423	18023.15
467.628	18215.66
