Data from USB4F104151__91__11-37-55-517.txt Node

Date: Fri Mar 14 11:37:55 EDT 2025
User: louis
Spectrometer: USB4F10415
Trigger mode: 4
Integration Time (sec): 2.000000E-2
Scans to average: 1
Electric dark correction enabled: true
Nonlinearity correction enabled: false
Boxcar width: 0
XAxis mode: Wavelengths
Number of Pixels in Spectrum: 3648
>>>>>Begin Spectral Data<<<<<
178.204	-96.43
178.424	-96.43
178.644	-96.43
178.864	-88.23
179.084	-30.89
179.304	-34.99
179.524	8.02
179.744	-116.9
179.964	-10.41
180.184	-51.37
180.404	3.93
180.624	-32.94
180.844	44.88
181.064	32.6
181.283	-39.08
181.503	77.65
181.723	118.61
181.943	55.12
182.163	65.36
182.383	91.99
182.602	12.12
182.822	69.46
183.042	-20.65
183.262	18.26
183.482	36.69
183.701	-37.03
183.921	40.79
184.141	-41.13
184.361	63.32
184.58	-18.6
184.8	40.79
185.02	24.4
185.239	22.36
185.459	38.74
185.679	-43.18
185.898	34.64
186.118	24.4
186.338	67.41
186.557	26.45
186.777	-16.55
186.997	16.21
187.216	48.98
187.436	71.51
187.655	-14.51
187.875	48.98
188.095	-8.36
188.314	59.22
188.534	46.93
188.753	-12.46
188.973	5.97
189.192	79.7
189.412	34.64
189.631	79.7
189.851	-22.7
190.07	65.36
190.29	-92.33
190.509	-59.56
190.729	-73.9
190.948	26.45
191.168	128.85
191.387	10.07
191.607	20.31
191.826	-18.6
192.045	24.4
192.265	-24.75
192.484	-4.27
192.704	-8.36
192.923	-34.99
193.142	42.84
193.362	44.88
193.581	14.17
193.8	81.75
194.02	3.93
194.239	-24.75
194.458	57.17
194.678	1.88
194.897	-24.75
195.116	22.36
195.335	16.21
195.555	67.41
195.774	32.6
195.993	26.45
196.212	102.23
196.432	40.79
196.651	1.88
196.87	14.17
197.089	67.41
197.308	69.46
197.528	-12.46
197.747	3.93
197.966	-14.51
198.185	34.64
198.404	1.88
198.623	-4.27
198.842	71.51
199.062	53.08
199.281	22.36
199.5	10.07
199.719	-39.08
199.938	46.93
200.157	61.27
200.376	-24.75
200.595	55.12
200.814	42.84
201.033	-4.27
201.252	53.08
201.471	42.84
201.69	94.04
201.909	61.27
202.128	-37.03
202.347	-10.41
202.566	46.93
202.785	96.08
203.004	12.12
203.223	36.69
203.442	-30.89
203.661	24.4
203.879	-8.36
204.098	44.88
204.317	12.12
204.536	-16.55
204.755	44.88
204.974	-20.65
205.193	-41.13
205.411	75.6
205.63	5.97
205.849	-6.31
206.068	16.21
206.287	-26.79
206.505	132.95
206.724	57.17
206.943	38.74
207.162	-10.41
207.381	59.22
207.599	-77.99
207.818	10.07
208.037	94.04
208.255	12.12
208.474	42.84
208.693	3.93
208.911	1.88
209.13	30.55
209.349	40.79
209.567	69.46
209.786	40.79
210.005	32.6
210.223	8.02
210.442	3.93
210.661	-6.31
210.879	-0.17
211.098	-47.27
211.316	44.88
211.535	30.55
211.753	-24.75
211.972	22.36
212.191	-16.55
212.409	-10.41
212.628	-53.42
212.846	38.74
213.065	5.97
213.283	87.89
213.502	-28.84
213.72	42.84
213.938	42.84
214.157	5.97
214.375	38.74
214.594	-69.8
214.812	79.7
215.031	8.02
215.249	5.97
215.467	-16.55
215.686	73.56
215.904	-6.31
216.122	3.93
216.341	38.74
216.559	-14.51
216.778	57.17
216.996	59.22
217.214	59.22
217.432	53.08
217.651	71.51
217.869	1.88
218.087	8.02
218.306	-8.36
218.524	30.55
218.742	-6.31
218.96	-16.55
219.179	89.94
219.397	42.84
219.615	85.84
219.833	12.12
220.051	14.17
220.27	55.12
220.488	8.02
220.706	24.4
220.924	-0.17
221.142	38.74
221.36	81.75
221.578	-10.41
221.796	24.4
222.015	-4.27
222.233	-24.75
222.451	157.52
222.669	14.17
222.887	-53.42
223.105	40.79
223.323	57.17
223.541	-10.41
223.759	79.7
223.977	3.93
224.195	46.93
224.413	1.88
224.631	38.74
224.849	12.12
225.067	3.93
225.285	40.79
225.503	-26.79
225.721	-2.22
225.939	24.4
226.157	36.69
226.375	53.08
226.592	22.36
226.81	48.98
227.028	14.17
227.246	24.4
227.464	87.89
227.682	18.26
227.9	-16.55
228.117	77.65
228.335	12.12
228.553	34.64
228.771	94.04
228.989	48.98
229.206	1.88
229.424	53.08
229.642	30.55
229.86	-30.89
230.077	22.36
230.295	46.93
230.513	5.97
230.731	51.03
230.948	44.88
231.166	34.64
231.384	26.45
231.601	-24.75
231.819	51.03
232.037	40.79
232.254	-16.55
232.472	36.69
232.689	51.03
232.907	20.31
233.125	-0.17
233.342	30.55
233.56	40.79
233.777	-22.7
233.995	83.8
234.213	30.55
234.43	-22.7
234.648	5.97
234.865	46.93
235.083	3.93
235.3	51.03
235.518	40.79
235.735	20.31
235.953	24.4
236.17	63.32
236.388	-6.31
236.605	-8.36
236.822	-30.89
237.04	24.4
237.257	5.97
237.475	16.21
237.692	108.37
237.909	75.6
238.127	-10.41
238.344	40.79
238.562	-51.37
238.779	1.88
238.996	46.93
239.214	12.12
239.431	73.56
239.648	-2.22
239.865	14.17
240.083	48.98
240.3	53.08
240.517	-24.75
240.735	36.69
240.952	3.93
241.169	10.07
241.386	48.98
241.603	-8.36
241.821	18.26
242.038	3.93
242.255	-8.36
242.472	-41.13
242.689	77.65
242.907	48.98
243.124	-8.36
243.341	24.4
243.558	-20.65
243.775	20.31
243.992	16.21
244.209	26.45
244.426	51.03
244.643	48.98
244.86	-20.65
245.078	-4.27
245.295	10.07
245.512	-0.17
245.729	77.65
245.946	53.08
246.163	40.79
246.38	65.36
246.597	-28.84
246.814	-39.08
247.031	8.02
247.248	-8.36
247.464	-12.46
247.681	28.5
247.898	-0.17
248.115	14.17
248.332	-37.03
248.549	48.98
248.766	3.93
248.983	61.27
249.2	38.74
249.417	28.5
249.633	36.69
249.85	12.12
250.067	-16.55
250.284	-8.36
250.501	26.45
250.717	73.56
250.934	-20.65
251.151	-32.94
251.368	-10.41
251.585	42.84
251.801	-49.32
252.018	67.41
252.235	75.6
252.451	-4.27
252.668	24.4
252.885	38.74
253.102	-16.55
253.318	65.36
253.535	-0.17
253.752	40.79
253.968	28.5
254.185	40.79
254.401	3.93
254.618	8.02
254.835	44.88
255.051	16.21
255.268	26.45
255.484	57.17
255.701	-51.37
255.917	22.36
256.134	12.12
256.351	42.84
256.567	24.4
256.784	81.75
257	5.97
257.217	-10.41
257.433	28.5
257.65	53.08
257.866	38.74
258.082	-37.03
258.299	79.7
258.515	46.93
258.732	-8.36
258.948	57.17
259.165	-16.55
259.381	1.88
259.597	94.04
259.814	-8.36
260.03	5.97
260.246	-16.55
260.463	38.74
260.679	24.4
260.895	38.74
261.112	67.41
261.328	3.93
261.544	24.4
261.761	65.36
261.977	30.55
262.193	24.4
262.409	91.99
262.626	-0.17
262.842	59.22
263.058	-16.55
263.274	12.12
263.49	-18.6
263.707	83.8
263.923	16.21
264.139	34.64
264.355	12.12
264.571	71.51
264.787	40.79
265.004	42.84
265.22	-0.17
265.436	61.27
265.652	48.98
265.868	-30.89
266.084	28.5
266.3	30.55
266.516	-45.23
266.732	46.93
266.948	-26.79
267.164	-32.94
267.38	16.21
267.596	55.12
267.812	18.26
268.028	-0.17
268.244	57.17
268.46	34.64
268.676	-34.99
268.892	16.21
269.108	12.12
269.324	16.21
269.54	38.74
269.756	65.36
269.972	3.93
270.188	30.55
270.403	36.69
270.619	18.26
270.835	69.46
271.051	55.12
271.267	-0.17
271.483	42.84
271.698	-45.23
271.914	20.31
272.13	75.6
272.346	40.79
272.562	110.42
272.777	65.36
272.993	14.17
273.209	-2.22
273.425	10.07
273.64	-24.75
273.856	38.74
274.072	65.36
274.287	38.74
274.503	8.02
274.719	-12.46
274.934	32.6
275.15	14.17
275.366	-14.51
275.581	28.5
275.797	36.69
276.012	42.84
276.228	-28.84
276.444	-2.22
276.659	24.4
276.875	-47.27
277.09	12.12
277.306	-8.36
277.521	40.79
277.737	26.45
277.952	40.79
278.168	55.12
278.383	30.55
278.599	-4.27
278.814	44.88
279.03	5.97
279.245	75.6
279.461	73.56
279.676	75.6
279.892	73.56
280.107	-51.37
280.322	12.12
280.538	67.41
280.753	-26.79
280.969	20.31
281.184	-14.51
281.399	40.79
281.615	18.26
281.83	59.22
282.045	-16.55
282.26	22.36
282.476	8.02
282.691	36.69
282.906	-2.22
283.122	1.88
283.337	14.17
283.552	22.36
283.767	-10.41
283.983	24.4
284.198	51.03
284.413	26.45
284.628	57.17
284.843	96.08
285.058	1.88
285.274	26.45
285.489	55.12
285.704	51.03
285.919	-18.6
286.134	85.84
286.349	34.64
286.564	87.89
286.779	85.84
286.995	-16.55
287.21	-22.7
287.425	100.18
287.64	32.6
287.855	85.84
288.07	-12.46
288.285	36.69
288.5	3.93
288.715	69.46
288.93	48.98
289.145	26.45
289.36	128.85
289.575	26.45
289.79	28.5
290.004	102.23
290.219	46.93
290.434	44.88
290.649	18.26
290.864	-10.41
291.079	32.6
291.294	40.79
291.509	26.45
291.724	34.64
291.938	36.69
292.153	30.55
292.368	69.46
292.583	89.94
292.798	73.56
293.012	16.21
293.227	32.6
293.442	32.6
293.657	40.79
293.871	42.84
294.086	24.4
294.301	53.08
294.516	8.02
294.73	26.45
294.945	-4.27
295.16	12.12
295.374	28.5
295.589	46.93
295.804	-16.55
296.018	53.08
296.233	100.18
296.447	14.17
296.662	3.93
296.877	1.88
297.091	-4.27
297.306	-4.27
297.52	8.02
297.735	-2.22
297.949	36.69
298.164	36.69
298.378	65.36
298.593	-49.32
298.807	14.17
299.022	38.74
299.236	18.26
299.451	120.66
299.665	14.17
299.88	30.55
300.094	-4.27
300.309	61.27
300.523	34.64
300.737	20.31
300.952	63.32
301.166	46.93
301.381	26.45
301.595	-4.27
301.809	-24.75
302.024	40.79
302.238	73.56
302.452	149.33
302.667	-24.75
302.881	81.75
303.095	26.45
303.309	18.26
303.524	-8.36
303.738	48.98
303.952	1.88
304.166	100.18
304.381	-0.17
304.595	57.17
304.809	22.36
305.023	59.22
305.237	18.26
305.452	8.02
305.666	87.89
305.88	32.6
306.094	38.74
306.308	40.79
306.522	75.6
306.736	3.93
306.95	57.17
307.164	-20.65
307.379	-16.55
307.593	73.56
307.807	34.64
308.021	24.4
308.235	98.13
308.449	61.27
308.663	22.36
308.877	114.52
309.091	3.93
309.305	104.28
309.519	-20.65
309.733	-18.6
309.947	5.97
310.161	40.79
310.374	12.12
310.588	65.36
310.802	3.93
311.016	8.02
311.23	46.93
311.444	44.88
311.658	12.12
311.872	30.55
312.085	1.88
312.299	28.5
312.513	46.93
312.727	-18.6
312.941	-24.75
313.154	55.12
313.368	44.88
313.582	57.17
313.796	65.36
314.009	-18.6
314.223	22.36
314.437	10.07
314.651	51.03
314.864	3.93
315.078	-4.27
315.292	-18.6
315.505	38.74
315.719	53.08
315.933	-10.41
316.146	48.98
316.36	-4.27
316.573	67.41
316.787	38.74
317.001	20.31
317.214	34.64
317.428	96.08
317.641	-8.36
317.855	106.32
318.068	46.93
318.282	36.69
318.495	61.27
318.709	87.89
318.922	-69.8
319.136	36.69
319.349	57.17
319.563	-12.46
319.776	18.26
319.99	-8.36
320.203	-32.94
320.417	96.08
320.63	30.55
320.843	59.22
321.057	-0.17
321.27	16.21
321.483	32.6
321.697	63.32
321.91	65.36
322.124	143.19
322.337	-20.65
322.55	26.45
322.763	67.41
322.977	38.74
323.19	-34.99
323.403	30.55
323.617	81.75
323.83	28.5
324.043	118.61
324.256	38.74
324.469	65.36
324.683	24.4
324.896	32.6
325.109	8.02
325.322	38.74
325.535	137.04
325.748	69.46
325.962	67.41
326.175	42.84
326.388	79.7
326.601	91.99
326.814	38.74
327.027	1.88
327.24	24.4
327.453	-12.46
327.666	40.79
327.879	24.4
328.092	26.45
328.305	22.36
328.518	26.45
328.731	-51.37
328.944	12.12
329.157	110.42
329.37	-41.13
329.583	44.88
329.796	44.88
330.009	16.21
330.222	79.7
330.435	-32.94
330.648	-20.65
330.861	40.79
331.073	14.17
331.286	24.4
331.499	20.31
331.712	22.36
331.925	48.98
332.138	69.46
332.35	108.37
332.563	30.55
332.776	38.74
332.989	-49.32
333.202	89.94
333.414	81.75
333.627	32.6
333.84	-4.27
334.053	5.97
334.265	5.97
334.478	3.93
334.691	26.45
334.903	24.4
335.116	-8.36
335.329	-12.46
335.541	8.02
335.754	28.5
335.966	73.56
336.179	53.08
336.392	24.4
336.604	5.97
336.817	30.55
337.029	81.75
337.242	16.21
337.454	40.79
337.667	59.22
337.88	-4.27
338.092	77.65
338.305	36.69
338.517	-32.94
338.729	48.98
338.942	57.17
339.154	-6.31
339.367	94.04
339.579	96.08
339.792	53.08
340.004	-8.36
340.217	14.17
340.429	67.41
340.641	40.79
340.854	-20.65
341.066	48.98
341.278	14.17
341.491	87.89
341.703	16.21
341.915	-24.75
342.128	65.36
342.34	34.64
342.552	18.26
342.764	38.74
342.977	61.27
343.189	81.75
343.401	1.88
343.613	87.89
343.826	53.08
344.038	-14.51
344.25	106.32
344.462	32.6
344.674	40.79
344.886	32.6
345.099	42.84
345.311	12.12
345.523	-10.41
345.735	61.27
345.947	46.93
346.159	14.17
346.371	79.7
346.583	51.03
346.795	96.08
347.007	79.7
347.219	-14.51
347.431	1.88
347.643	14.17
347.855	79.7
348.067	24.4
348.279	16.21
348.491	40.79
348.703	48.98
348.915	14.17
349.127	20.31
349.339	5.97
349.551	32.6
349.763	77.65
349.975	79.7
350.187	61.27
350.399	124.76
350.61	-4.27
350.822	46.93
351.034	44.88
351.246	-41.13
351.458	36.69
351.669	65.36
351.881	65.36
352.093	12.12
352.305	36.69
352.517	-8.36
352.728	128.85
352.94	42.84
353.152	28.5
353.363	8.02
353.575	28.5
353.787	-39.08
353.999	40.79
354.21	46.93
354.422	65.36
354.633	44.88
354.845	22.36
355.057	28.5
355.268	48.98
355.48	20.31
355.692	-16.55
355.903	26.45
356.115	44.88
356.326	-16.55
356.538	104.28
356.749	44.88
356.961	-71.85
357.172	-30.89
357.384	55.12
357.595	46.93
357.807	110.42
358.018	-14.51
358.23	-16.55
358.441	55.12
358.653	48.98
358.864	14.17
359.075	-39.08
359.287	40.79
359.498	8.02
359.709	18.26
359.921	-24.75
360.132	-2.22
360.344	-18.6
360.555	61.27
360.766	83.8
360.977	48.98
361.189	63.32
361.4	-2.22
361.611	73.56
361.823	81.75
362.034	81.75
362.245	-28.84
362.456	-0.17
362.667	40.79
362.879	36.69
363.09	36.69
363.301	96.08
363.512	38.74
363.723	26.45
363.935	32.6
364.146	130.9
364.357	-4.27
364.568	-6.31
364.779	65.36
364.99	69.46
365.201	51.03
365.412	42.84
365.623	44.88
365.834	-4.27
366.045	57.17
366.256	36.69
366.467	65.36
366.678	-0.17
366.889	57.17
367.1	94.04
367.311	63.32
367.522	102.23
367.733	81.75
367.944	104.28
368.155	69.46
368.366	87.89
368.577	36.69
368.788	61.27
368.999	-26.79
369.209	30.55
369.42	10.07
369.631	48.98
369.842	65.36
370.053	63.32
370.264	-6.31
370.474	40.79
370.685	143.19
370.896	118.61
371.107	98.13
371.317	75.6
371.528	57.17
371.739	-20.65
371.95	57.17
372.16	22.36
372.371	-10.41
372.582	10.07
372.792	51.03
373.003	61.27
373.214	1.88
373.424	89.94
373.635	79.7
373.846	53.08
374.056	100.18
374.267	-47.27
374.477	38.74
374.688	124.76
374.898	-20.65
375.109	71.51
375.319	108.37
375.53	32.6
375.74	81.75
375.951	63.32
376.161	67.41
376.372	24.4
376.582	34.64
376.793	30.55
377.003	36.69
377.214	44.88
377.424	67.41
377.635	53.08
377.845	3.93
378.055	73.56
378.266	85.84
378.476	-8.36
378.686	26.45
378.897	-6.31
379.107	63.32
379.317	104.28
379.528	98.13
379.738	53.08
379.948	-4.27
380.158	128.85
380.369	8.02
380.579	24.4
380.789	12.12
380.999	104.28
381.21	36.69
381.42	63.32
381.63	40.79
381.84	116.56
382.05	5.97
382.261	24.4
382.471	61.27
382.681	18.26
382.891	-2.22
383.101	89.94
383.311	-18.6
383.521	38.74
383.731	28.5
383.941	51.03
384.151	53.08
384.361	94.04
384.571	14.17
384.781	137.04
384.991	104.28
385.201	61.27
385.411	94.04
385.621	26.45
385.831	55.12
386.041	71.51
386.251	28.5
386.461	100.18
386.671	53.08
386.881	63.32
387.091	85.84
387.301	147.28
387.511	-10.41
387.72	106.32
387.93	46.93
388.14	-10.41
388.35	108.37
388.56	26.45
388.769	83.8
388.979	87.89
389.189	73.56
389.399	53.08
389.609	14.17
389.818	77.65
390.028	48.98
390.238	30.55
390.447	42.84
390.657	149.33
390.867	57.17
391.076	61.27
391.286	-0.17
391.496	85.84
391.705	22.36
391.915	91.99
392.125	48.98
392.334	57.17
392.544	85.84
392.753	57.17
392.963	73.56
393.172	110.42
393.382	42.84
393.591	139.09
393.801	130.9
394.01	81.75
394.22	110.42
394.429	71.51
394.639	42.84
394.848	118.61
395.058	128.85
395.267	161.62
395.477	61.27
395.686	104.28
395.895	112.47
396.105	73.56
396.314	44.88
396.524	61.27
396.733	53.08
396.942	130.9
397.152	153.43
397.361	98.13
397.57	89.94
397.78	114.52
397.989	98.13
398.198	163.67
398.407	55.12
398.617	118.61
398.826	155.47
399.035	26.45
399.244	110.42
399.453	81.75
399.663	57.17
399.872	81.75
400.081	102.23
400.29	128.85
400.499	34.64
400.708	147.28
400.917	102.23
401.127	114.52
401.336	155.47
401.545	116.56
401.754	126.8
401.963	106.32
402.172	108.37
402.381	89.94
402.59	135
402.799	155.47
403.008	126.8
403.217	87.89
403.426	89.94
403.635	151.38
403.844	243.54
404.053	212.82
404.262	206.67
404.471	167.76
404.68	135
404.888	114.52
405.097	200.53
405.306	200.53
405.515	221.01
405.724	233.3
405.933	143.19
406.142	169.81
406.35	175.95
406.559	204.63
406.768	190.29
406.977	237.39
407.185	188.24
407.394	180.05
407.603	247.63
407.812	225.11
408.02	259.92
408.229	286.54
408.438	274.26
408.646	251.73
408.855	249.68
409.064	288.59
409.272	261.97
409.481	319.31
409.69	317.26
409.898	337.74
410.107	370.51
410.315	298.83
410.524	401.23
410.733	405.33
410.941	354.13
411.15	434
411.358	333.65
411.567	450.38
411.775	522.06
411.984	446.29
412.192	499.53
412.401	503.63
412.609	472.91
412.818	618.32
413.026	606.03
413.234	569.16
413.443	644.94
413.651	587.6
413.86	661.32
414.068	720.71
414.276	722.76
414.485	628.56
414.693	761.67
414.901	827.21
415.11	784.2
415.318	880.46
415.526	784.2
415.734	948.04
415.943	872.26
416.151	984.9
416.359	1048.39
416.567	995.14
416.776	1023.81
416.984	1021.77
417.192	1099.59
417.4	1115.97
417.608	1136.45
417.817	1201.99
418.025	1324.87
418.233	1365.82
418.441	1355.58
418.649	1417.02
418.857	1406.78
419.065	1584.96
419.273	1406.78
419.481	1533.76
419.689	1750.84
419.897	1806.14
420.105	1793.85
420.313	1791.8
420.521	1871.67
420.729	1896.25
420.937	1894.2
421.145	1998.65
421.353	2060.09
421.561	2158.39
421.769	2297.65
421.977	2412.34
422.185	2346.8
422.393	2524.97
422.601	2649.9
422.809	2567.98
423.017	2631.47
423.224	2801.45
423.432	2920.23
423.64	2828.07
423.848	3004.2
424.056	3098.41
424.263	3270.44
424.471	3405.6
424.679	3362.59
424.887	3620.64
425.094	3499.81
425.302	3682.08
425.51	3862.3
425.718	3964.7
425.925	4013.85
426.133	4235.03
426.341	4290.32
426.548	4609.81
426.756	4474.64
426.964	4484.88
427.171	4855.56
427.379	4943.63
427.586	5046.02
427.794	5254.92
428.001	5453.57
428.209	5639.94
428.417	5652.22
428.624	6051.58
428.832	5943.03
429.039	6147.83
429.247	6045.43
429.454	6678.26
429.662	6962.92
429.869	6549.23
430.076	7053.03
430.284	6672.11
430.491	7055.08
430.699	7407.33
430.906	7569.12
431.114	7599.84
431.321	7956.19
431.528	8132.31
431.736	8603.35
431.943	9049.8
432.15	8656.59
432.358	8879.82
432.565	9371.33
432.772	9232.07
432.979	9789.12
433.187	9983.68
433.394	9696.96
433.601	10634.93
433.808	10446.52
434.016	10542.77
434.223	11114.16
434.43	11722.4
434.637	11427.49
434.844	12091.04
435.052	12719.76
435.259	12328.6
435.466	12650.13
435.673	12322.46
435.88	13231.76
436.087	13790.85
436.294	13674.12
436.501	13416.07
436.708	13764.23
436.915	14718.58
437.122	14730.87
437.329	15068.78
437.537	15394.41
437.743	15724.13
437.95	15500.9
438.157	16348.76
438.364	16973.39
438.571	16854.61
438.778	17141.33
438.985	18380.35
439.192	17915.46
439.399	18679.35
439.606	17720.9
439.813	19205.68
440.02	20182.56
440.227	19609.13
440.433	19531.31
440.64	20192.8
440.847	19967.52
441.054	20327.97
441.261	21732.87
441.467	21509.65
441.674	22251.01
441.881	22953.46
442.088	22883.83
442.294	22590.97
442.501	23186.93
442.708	23700.97
442.914	24700.38
443.121	25787.85
443.328	25134.55
443.534	26977.72
443.741	26027.46
443.948	25963.98
444.154	27483.57
444.361	27534.77
444.568	27758
444.774	27305.4
444.981	27997.61
445.187	28751.26
445.394	29875.6
445.6	29576.59
445.807	32693.6
446.013	31159.67
446.22	31507.83
446.426	32585.06
446.633	33351
446.839	34518.34
447.046	32920.93
447.252	34956.61
447.459	34880.83
447.665	34596.17
447.871	36414.76
448.078	37479.71
448.284	35652.92
448.491	36922.66
448.697	38130.96
448.903	39466.24
449.11	39273.73
449.316	38335.76
449.522	39218.43
449.728	40207.6
449.935	40570.09
450.141	40406.25
450.347	41481.44
450.553	40088.82
450.76	40553.71
450.966	41641.18
451.172	41647.32
451.378	42702.03
451.584	41696.47
451.791	42767.56
451.997	42566.86
452.203	43439.29
452.409	43508.93
452.615	43191.49
452.821	41659.61
453.027	41219.3
453.233	43078.85
453.44	41600.22
453.646	41665.75
453.852	42525.9
454.058	43003.08
454.264	41280.74
454.47	42652.87
454.676	41657.56
454.882	42632.39
455.088	39486.71
455.294	39894.26
455.5	40137.97
455.705	40668.39
455.911	39200
456.117	38376.72
456.323	38210.83
456.529	36365.61
456.735	37680.41
456.941	36459.82
457.147	35943.73
457.352	34661.7
457.558	34676.04
457.764	34174.28
457.97	34112.84
458.176	33312.09
458.381	33211.74
458.587	31516.02
458.793	31763.82
458.999	30176.65
459.204	32154.99
459.41	31231.35
459.616	29080.99
459.821	29201.82
460.027	28958.11
460.233	28618.14
460.438	26963.39
460.644	27686.32
460.85	26299.84
461.055	25869.77
461.261	25601.49
461.466	23725.55
461.672	23152.12
461.878	24888.79
462.083	23184.88
462.289	22554.11
462.494	22521.34
462.7	21751.31
462.905	20833.82
463.111	21741.07
463.316	21626.38
463.522	20997.65
463.727	21349.9
463.932	21237.27
464.138	20743.7
464.343	21052.95
464.549	20739.61
464.754	21081.62
464.959	20936.21
465.165	20829.72
465.37	19879.46
465.575	19418.67
465.781	20340.25
465.986	20176.42
466.191	19578.41
466.397	19107.38
466.602	18112.06
466.807	18970.16
467.012	19080.75
467.218	18953.78
467.423	18552.38
467.628	18804.28
