Data from USB4F104151__33__11-36-48-125.txt Node

Date: Fri Mar 14 11:36:48 EDT 2025
User: louis
Spectrometer: USB4F10415
Trigger mode: 4
Integration Time (sec): 2.000000E-2
Scans to average: 1
Electric dark correction enabled: true
Nonlinearity correction enabled: false
Boxcar width: 0
XAxis mode: Wavelengths
Number of Pixels in Spectrum: 3648
>>>>>Begin Spectral Data<<<<<
178.204	12.63
178.424	12.63
178.644	12.63
178.864	-104.11
179.084	-122.54
179.304	-13.99
179.524	-1.71
179.744	6.49
179.964	92.5
180.184	31.06
180.404	-44.71
180.624	-22.19
180.844	18.77
181.064	-7.85
181.283	2.39
181.503	-38.57
181.723	-22.19
181.943	6.49
182.163	22.87
182.383	31.06
182.602	-81.58
182.822	61.78
183.042	-13.99
183.262	14.68
183.482	-18.09
183.701	51.54
183.921	35.16
184.141	-63.15
184.361	59.73
184.58	37.2
184.8	63.83
185.02	29.01
185.239	12.63
185.459	12.63
185.679	8.53
185.898	-26.28
186.118	-5.8
186.338	-3.75
186.557	65.88
186.777	26.96
186.997	88.4
187.216	-40.62
187.436	-28.33
187.655	-57
187.875	-61.1
188.095	-22.19
188.314	51.54
188.534	20.82
188.753	-11.95
188.973	2.39
189.192	6.49
189.412	26.96
189.631	-63.15
189.851	-32.43
190.07	20.82
190.29	69.97
190.509	72.02
190.729	-5.8
190.948	-9.9
191.168	135.51
191.387	31.06
191.607	-36.52
191.826	-59.05
192.045	22.87
192.265	37.2
192.484	31.06
192.704	102.74
192.923	20.82
193.142	8.53
193.362	18.77
193.581	55.64
193.8	4.44
194.02	31.06
194.239	2.39
194.458	59.73
194.678	-11.95
194.897	16.73
195.116	4.44
195.335	45.4
195.555	-36.52
195.774	57.68
195.993	55.64
196.212	33.11
196.432	55.64
196.651	88.4
196.87	-5.8
197.089	47.44
197.308	20.82
197.528	24.92
197.747	20.82
197.966	-3.75
198.185	92.5
198.404	-26.28
198.623	2.39
198.842	61.78
199.062	31.06
199.281	45.4
199.5	4.44
199.719	0.34
199.938	49.49
200.157	26.96
200.376	45.4
200.595	-13.99
200.814	-57
201.033	59.73
201.252	24.92
201.471	18.77
201.69	41.3
201.909	55.64
202.128	12.63
202.347	8.53
202.566	-24.23
202.785	31.06
203.004	2.39
203.223	59.73
203.442	22.87
203.661	-42.67
203.879	24.92
204.098	22.87
204.317	-24.23
204.536	51.54
204.755	24.92
204.974	76.12
205.193	-7.85
205.411	6.49
205.63	18.77
205.849	-3.75
206.068	47.44
206.287	-36.52
206.505	29.01
206.724	-57
206.943	14.68
207.162	-34.47
207.381	12.63
207.599	65.88
207.818	-52.91
208.037	2.39
208.255	-36.52
208.474	-5.8
208.693	14.68
208.911	-24.23
209.13	53.59
209.349	72.02
209.567	-9.9
209.786	47.44
210.005	-18.09
210.223	69.97
210.442	24.92
210.661	45.4
210.879	-42.67
211.098	61.78
211.316	-11.95
211.535	-1.71
211.753	2.39
211.972	12.63
212.191	8.53
212.409	20.82
212.628	-16.04
212.846	61.78
213.065	20.82
213.283	61.78
213.502	-34.47
213.72	47.44
213.938	-9.9
214.157	0.34
214.375	-30.38
214.594	-69.29
214.812	-1.71
215.031	6.49
215.249	51.54
215.467	-22.19
215.686	24.92
215.904	31.06
216.122	29.01
216.341	29.01
216.559	22.87
216.778	2.39
216.996	-13.99
217.214	18.77
217.432	-22.19
217.651	20.82
217.869	-20.14
218.087	98.64
218.306	43.35
218.524	-11.95
218.742	-32.43
218.96	-28.33
219.179	22.87
219.397	39.25
219.615	86.36
219.833	100.69
220.051	-20.14
220.27	33.11
220.488	55.64
220.706	-11.95
220.924	24.92
221.142	-11.95
221.36	26.96
221.578	12.63
221.796	4.44
222.015	57.68
222.233	-20.14
222.451	72.02
222.669	-69.29
222.887	45.4
223.105	-36.52
223.323	43.35
223.541	37.2
223.759	8.53
223.977	-11.95
224.195	22.87
224.413	67.92
224.631	35.16
224.849	4.44
225.067	12.63
225.285	20.82
225.503	26.96
225.721	-81.58
225.939	29.01
226.157	26.96
226.375	43.35
226.592	-63.15
226.81	-3.75
227.028	26.96
227.246	76.12
227.464	18.77
227.682	80.21
227.9	20.82
228.117	45.4
228.335	2.39
228.553	-7.85
228.771	-50.86
228.989	18.77
229.206	16.73
229.424	37.2
229.642	-32.43
229.86	-34.47
230.077	26.96
230.295	59.73
230.513	51.54
230.731	-42.67
230.948	37.2
231.166	39.25
231.384	35.16
231.601	51.54
231.819	31.06
232.037	22.87
232.254	-32.43
232.472	22.87
232.689	18.77
232.907	63.83
233.125	-38.57
233.342	2.39
233.56	-50.86
233.777	22.87
233.995	-16.04
234.213	61.78
234.43	26.96
234.648	37.2
234.865	20.82
235.083	74.07
235.3	72.02
235.518	61.78
235.735	55.64
235.953	35.16
236.17	2.39
236.388	-7.85
236.605	31.06
236.822	24.92
237.04	-9.9
237.257	20.82
237.475	45.4
237.692	37.2
237.909	59.73
238.127	18.77
238.344	16.73
238.562	43.35
238.779	-9.9
238.996	-5.8
239.214	51.54
239.431	26.96
239.648	22.87
239.865	-13.99
240.083	67.92
240.3	37.2
240.517	6.49
240.735	-7.85
240.952	-24.23
241.169	47.44
241.386	22.87
241.603	31.06
241.821	33.11
242.038	39.25
242.255	22.87
242.472	80.21
242.689	100.69
242.907	72.02
243.124	22.87
243.341	43.35
243.558	86.36
243.775	-46.76
243.992	20.82
244.209	51.54
244.426	90.45
244.643	18.77
244.86	82.26
245.078	-20.14
245.295	82.26
245.512	59.73
245.729	6.49
245.946	4.44
246.163	29.01
246.38	6.49
246.597	4.44
246.814	45.4
247.031	12.63
247.248	41.3
247.464	-1.71
247.681	84.31
247.898	47.44
248.115	67.92
248.332	-7.85
248.549	100.69
248.766	76.12
248.983	2.39
249.2	4.44
249.417	69.97
249.633	45.4
249.85	35.16
250.067	74.07
250.284	86.36
250.501	31.06
250.717	55.64
250.934	22.87
251.151	51.54
251.368	-1.71
251.585	33.11
251.801	-18.09
252.018	-28.33
252.235	31.06
252.451	2.39
252.668	67.92
252.885	35.16
253.102	20.82
253.318	-34.47
253.535	20.82
253.752	-5.8
253.968	22.87
254.185	96.6
254.401	88.4
254.618	20.82
254.835	16.73
255.051	0.34
255.268	74.07
255.484	12.63
255.701	10.58
255.917	-16.04
256.134	-20.14
256.351	47.44
256.567	-5.8
256.784	69.97
257	14.68
257.217	-3.75
257.433	-9.9
257.65	51.54
257.866	-36.52
258.082	-54.95
258.299	39.25
258.515	6.49
258.732	-36.52
258.948	-36.52
259.165	-11.95
259.381	-34.47
259.597	-11.95
259.814	6.49
260.03	65.88
260.246	18.77
260.463	31.06
260.679	31.06
260.895	16.73
261.112	18.77
261.328	4.44
261.544	43.35
261.761	29.01
261.977	14.68
262.193	37.2
262.409	51.54
262.626	14.68
262.842	-7.85
263.058	6.49
263.274	10.58
263.49	-1.71
263.707	45.4
263.923	10.58
264.139	18.77
264.355	-16.04
264.571	26.96
264.787	43.35
265.004	4.44
265.22	-9.9
265.436	-30.38
265.652	35.16
265.868	31.06
266.084	57.68
266.3	51.54
266.516	-42.67
266.732	37.2
266.948	10.58
267.164	37.2
267.38	18.77
267.596	-5.8
267.812	88.4
268.028	12.63
268.244	24.92
268.46	-24.23
268.676	-1.71
268.892	33.11
269.108	29.01
269.324	-7.85
269.54	-5.8
269.756	41.3
269.972	35.16
270.188	61.78
270.403	41.3
270.619	-5.8
270.835	35.16
271.051	35.16
271.267	24.92
271.483	18.77
271.698	-20.14
271.914	37.2
272.13	22.87
272.346	-34.47
272.562	14.68
272.777	6.49
272.993	4.44
273.209	18.77
273.425	78.16
273.64	-22.19
273.856	69.97
274.072	20.82
274.287	-106.15
274.503	14.68
274.719	100.69
274.934	45.4
275.15	-95.91
275.366	16.73
275.581	-13.99
275.797	41.3
276.012	88.4
276.228	47.44
276.444	35.16
276.659	112.98
276.875	29.01
277.09	4.44
277.306	47.44
277.521	24.92
277.737	12.63
277.952	-3.75
278.168	-22.19
278.383	14.68
278.599	14.68
278.814	33.11
279.03	22.87
279.245	-32.43
279.461	26.96
279.676	65.88
279.892	-44.71
280.107	12.63
280.322	-9.9
280.538	6.49
280.753	18.77
280.969	-13.99
281.184	-67.24
281.399	82.26
281.615	55.64
281.83	24.92
282.045	69.97
282.26	43.35
282.476	-34.47
282.691	31.06
282.906	45.4
283.122	137.56
283.337	26.96
283.552	92.5
283.767	6.49
283.983	84.31
284.198	-18.09
284.413	12.63
284.628	47.44
284.843	55.64
285.058	29.01
285.274	4.44
285.489	92.5
285.704	39.25
285.919	55.64
286.134	59.73
286.349	39.25
286.564	80.21
286.779	59.73
286.995	39.25
287.21	39.25
287.425	-18.09
287.64	47.44
287.855	37.2
288.07	-26.28
288.285	55.64
288.5	39.25
288.715	59.73
288.93	-40.62
289.145	18.77
289.36	29.01
289.575	-61.1
289.79	84.31
290.004	10.58
290.219	37.2
290.434	49.49
290.649	6.49
290.864	96.6
291.079	12.63
291.294	69.97
291.509	39.25
291.724	82.26
291.938	20.82
292.153	76.12
292.368	80.21
292.583	78.16
292.798	31.06
293.012	112.98
293.227	-38.57
293.442	22.87
293.657	51.54
293.871	55.64
294.086	31.06
294.301	47.44
294.516	121.17
294.73	57.68
294.945	-11.95
295.16	51.54
295.374	-34.47
295.589	10.58
295.804	-20.14
296.018	39.25
296.233	76.12
296.447	22.87
296.662	51.54
296.877	26.96
297.091	53.59
297.306	-13.99
297.52	26.96
297.735	-54.95
297.949	-1.71
298.164	-20.14
298.378	26.96
298.593	-38.57
298.807	55.64
299.022	-3.75
299.236	24.92
299.451	8.53
299.665	6.49
299.88	63.83
300.094	80.21
300.309	-5.8
300.523	76.12
300.737	55.64
300.952	26.96
301.166	45.4
301.381	45.4
301.595	-18.09
301.809	-24.23
302.024	33.11
302.238	31.06
302.452	-3.75
302.667	16.73
302.881	20.82
303.095	39.25
303.309	112.98
303.524	63.83
303.738	14.68
303.952	35.16
304.166	20.82
304.381	-5.8
304.595	67.92
304.809	14.68
305.023	14.68
305.237	90.45
305.452	24.92
305.666	29.01
305.88	4.44
306.094	67.92
306.308	80.21
306.522	88.4
306.736	43.35
306.95	121.17
307.164	14.68
307.379	53.59
307.593	47.44
307.807	20.82
308.021	47.44
308.235	45.4
308.449	69.97
308.663	43.35
308.877	51.54
309.091	-36.52
309.305	14.68
309.519	35.16
309.733	-1.71
309.947	-5.8
310.161	104.79
310.374	100.69
310.588	10.58
310.802	22.87
311.016	-1.71
311.23	8.53
311.444	31.06
311.658	96.6
311.872	39.25
312.085	76.12
312.299	125.27
312.513	2.39
312.727	96.6
312.941	-1.71
313.154	20.82
313.368	29.01
313.582	6.49
313.796	61.78
314.009	63.83
314.223	-13.99
314.437	53.59
314.651	67.92
314.864	-79.53
315.078	22.87
315.292	31.06
315.505	14.68
315.719	92.5
315.933	-18.09
316.146	22.87
316.36	53.59
316.573	4.44
316.787	117.08
317.001	59.73
317.214	-3.75
317.428	63.83
317.641	14.68
317.855	-34.47
318.068	86.36
318.282	94.55
318.495	35.16
318.709	39.25
318.922	55.64
319.136	57.68
319.349	-3.75
319.563	33.11
319.776	39.25
319.99	-1.71
320.203	51.54
320.417	10.58
320.63	2.39
320.843	72.02
321.057	18.77
321.27	14.68
321.483	22.87
321.697	112.98
321.91	6.49
322.124	29.01
322.337	65.88
322.55	55.64
322.763	-1.71
322.977	57.68
323.19	80.21
323.403	12.63
323.617	12.63
323.83	35.16
324.043	16.73
324.256	39.25
324.469	-38.57
324.683	39.25
324.896	29.01
325.109	22.87
325.322	14.68
325.535	74.07
325.748	47.44
325.962	55.64
326.175	4.44
326.388	-1.71
326.601	43.35
326.814	39.25
327.027	14.68
327.24	74.07
327.453	4.44
327.666	43.35
327.879	39.25
328.092	14.68
328.305	121.17
328.518	55.64
328.731	-32.43
328.944	59.73
329.157	35.16
329.37	143.7
329.583	22.87
329.796	117.08
330.009	18.77
330.222	55.64
330.435	29.01
330.648	29.01
330.861	29.01
331.073	4.44
331.286	-1.71
331.499	76.12
331.712	-5.8
331.925	35.16
332.138	-5.8
332.35	45.4
332.563	31.06
332.776	74.07
332.989	-13.99
333.202	29.01
333.414	39.25
333.627	51.54
333.84	37.2
334.053	90.45
334.265	57.68
334.478	53.59
334.691	63.83
334.903	65.88
335.116	-26.28
335.329	69.97
335.541	80.21
335.754	90.45
335.966	41.3
336.179	22.87
336.392	-50.86
336.604	80.21
336.817	59.73
337.029	-7.85
337.242	86.36
337.454	-9.9
337.667	4.44
337.88	55.64
338.092	10.58
338.305	55.64
338.517	24.92
338.729	82.26
338.942	45.4
339.154	-16.04
339.367	-22.19
339.579	14.68
339.792	51.54
340.004	-13.99
340.217	-9.9
340.429	37.2
340.641	-13.99
340.854	43.35
341.066	31.06
341.278	26.96
341.491	14.68
341.703	10.58
341.915	-13.99
342.128	117.08
342.34	18.77
342.552	76.12
342.764	14.68
342.977	72.02
343.189	43.35
343.401	67.92
343.613	-54.95
343.826	57.68
344.038	-16.04
344.25	45.4
344.462	22.87
344.674	80.21
344.886	29.01
345.099	133.46
345.311	-1.71
345.523	16.73
345.735	-75.43
345.947	63.83
346.159	29.01
346.371	102.74
346.583	35.16
346.795	47.44
347.007	-16.04
347.219	41.3
347.431	26.96
347.643	29.01
347.855	67.92
348.067	0.34
348.279	31.06
348.491	33.11
348.703	78.16
348.915	-3.75
349.127	29.01
349.339	37.2
349.551	63.83
349.763	-5.8
349.975	-18.09
350.187	74.07
350.399	80.21
350.61	49.49
350.822	-7.85
351.034	22.87
351.246	35.16
351.458	35.16
351.669	-13.99
351.881	63.83
352.093	76.12
352.305	80.21
352.517	8.53
352.728	117.08
352.94	67.92
353.152	98.64
353.363	-38.57
353.575	39.25
353.787	57.68
353.999	72.02
354.21	80.21
354.422	31.06
354.633	76.12
354.845	-38.57
355.057	-24.23
355.268	37.2
355.48	37.2
355.692	-1.71
355.903	90.45
356.115	0.34
356.326	-1.71
356.538	55.64
356.749	100.69
356.961	-22.19
357.172	31.06
357.384	26.96
357.595	94.55
357.807	16.73
358.018	14.68
358.23	110.93
358.441	67.92
358.653	110.93
358.864	6.49
359.075	12.63
359.287	-1.71
359.498	149.84
359.709	18.77
359.921	84.31
360.132	-1.71
360.344	86.36
360.555	18.77
360.766	31.06
360.977	72.02
361.189	88.4
361.4	72.02
361.611	51.54
361.823	31.06
362.034	72.02
362.245	16.73
362.456	53.59
362.667	43.35
362.879	16.73
363.09	35.16
363.301	2.39
363.512	14.68
363.723	-20.14
363.935	-20.14
364.146	74.07
364.357	31.06
364.568	18.77
364.779	39.25
364.99	80.21
365.201	29.01
365.412	160.08
365.623	8.53
365.834	129.36
366.045	8.53
366.256	10.58
366.467	57.68
366.678	92.5
366.889	24.92
367.1	26.96
367.311	37.2
367.522	100.69
367.733	20.82
367.944	24.92
368.155	84.31
368.366	125.27
368.577	41.3
368.788	43.35
368.999	-11.95
369.209	135.51
369.42	106.84
369.631	59.73
369.842	108.88
370.053	43.35
370.264	125.27
370.474	-9.9
370.685	39.25
370.896	12.63
371.107	67.92
371.317	67.92
371.528	0.34
371.739	57.68
371.95	63.83
372.16	2.39
372.371	-11.95
372.582	47.44
372.792	49.49
373.003	59.73
373.214	72.02
373.424	26.96
373.635	37.2
373.846	65.88
374.056	24.92
374.267	55.64
374.477	82.26
374.688	119.12
374.898	43.35
375.109	26.96
375.319	55.64
375.53	-3.75
375.74	-1.71
375.951	65.88
376.161	10.58
376.372	41.3
376.582	26.96
376.793	69.97
377.003	61.78
377.214	39.25
377.424	55.64
377.635	69.97
377.845	35.16
378.055	4.44
378.266	49.49
378.476	51.54
378.686	51.54
378.897	10.58
379.107	31.06
379.317	53.59
379.528	-11.95
379.738	49.49
379.948	26.96
380.158	-18.09
380.369	37.2
380.579	49.49
380.789	-1.71
380.999	18.77
381.21	14.68
381.42	63.83
381.63	61.78
381.84	117.08
382.05	108.88
382.261	2.39
382.471	41.3
382.681	84.31
382.891	74.07
383.101	2.39
383.311	-42.67
383.521	-3.75
383.731	102.74
383.941	37.2
384.151	57.68
384.361	65.88
384.571	55.64
384.781	78.16
384.991	61.78
385.201	86.36
385.411	84.31
385.621	119.12
385.831	-13.99
386.041	53.59
386.251	4.44
386.461	88.4
386.671	112.98
386.881	-13.99
387.091	84.31
387.301	55.64
387.511	35.16
387.72	65.88
387.93	84.31
388.14	8.53
388.35	20.82
388.56	31.06
388.769	29.01
388.979	6.49
389.189	78.16
389.399	26.96
389.609	43.35
389.818	47.44
390.028	127.32
390.238	10.58
390.447	55.64
390.657	104.79
390.867	80.21
391.076	80.21
391.286	86.36
391.496	53.59
391.705	-13.99
391.915	35.16
392.125	78.16
392.334	104.79
392.544	92.5
392.753	119.12
392.963	29.01
393.172	39.25
393.382	22.87
393.591	80.21
393.801	98.64
394.01	80.21
394.22	117.08
394.429	100.69
394.639	-5.8
394.848	59.73
395.058	108.88
395.267	22.87
395.477	35.16
395.686	96.6
395.895	76.12
396.105	108.88
396.314	137.56
396.524	108.88
396.733	51.54
396.942	147.8
397.152	86.36
397.361	170.32
397.57	76.12
397.78	100.69
397.989	98.64
398.198	102.74
398.407	39.25
398.617	117.08
398.826	41.3
399.035	115.03
399.244	110.93
399.453	86.36
399.663	92.5
399.872	45.4
400.081	102.74
400.29	145.75
400.499	123.22
400.708	155.99
400.917	96.6
401.127	100.69
401.336	110.93
401.545	182.61
401.754	78.16
401.963	155.99
402.172	110.93
402.381	129.36
402.59	153.94
402.799	110.93
403.008	139.6
403.217	176.47
403.426	100.69
403.635	135.51
403.844	115.03
404.053	121.17
404.262	108.88
404.471	174.42
404.68	96.6
404.888	184.66
405.097	203.09
405.306	176.47
405.515	115.03
405.724	170.32
405.933	162.13
406.142	176.47
406.35	125.27
406.559	151.89
406.768	211.28
406.977	225.62
407.185	198.99
407.394	186.71
407.603	115.03
407.812	217.43
408.02	268.63
408.229	211.28
408.438	268.63
408.646	176.47
408.855	256.34
409.064	319.82
409.272	262.48
409.481	344.4
409.69	266.58
409.898	311.63
410.107	330.06
410.315	293.2
410.524	293.2
410.733	368.98
410.941	344.4
411.15	317.78
411.358	358.74
411.567	440.65
411.775	444.75
411.984	395.6
412.192	487.76
412.401	448.85
412.609	547.15
412.818	538.96
413.026	479.57
413.234	510.29
413.443	522.57
413.651	606.54
413.86	538.96
414.068	627.02
414.276	651.6
414.485	692.55
414.693	688.46
414.901	682.31
415.11	723.27
415.318	803.15
415.526	774.47
415.734	745.8
415.943	848.2
416.151	760.14
416.359	899.4
416.567	919.88
416.776	960.84
416.984	930.12
417.192	1030.47
417.4	934.22
417.608	989.51
417.817	1096
418.025	1165.64
418.233	1220.93
418.441	1265.99
418.649	1194.31
418.857	1370.43
419.065	1388.86
419.273	1349.95
419.481	1464.64
419.689	1628.48
419.897	1540.41
420.105	1620.28
420.313	1712.44
420.521	1673.53
420.729	1681.72
420.937	1753.4
421.145	1886.52
421.353	2056.5
421.561	2050.36
421.769	2033.97
421.977	2210.1
422.185	2038.07
422.393	2347.31
422.601	2414.9
422.809	2396.46
423.017	2423.09
423.224	2437.42
423.432	2609.45
423.64	2662.7
423.848	2947.37
424.056	2847.02
424.263	2961.7
424.471	3019.05
424.679	3066.15
424.887	3143.97
425.094	3424.55
425.302	3381.54
425.51	3471.65
425.718	3481.89
425.925	3664.16
426.133	3852.57
426.341	3997.98
426.548	4161.81
426.756	4016.41
426.964	4200.73
427.171	4380.95
427.379	4565.26
427.586	4778.25
427.794	4761.87
428.001	5040.39
428.209	5122.31
428.417	4989.19
428.624	5564.67
428.832	5357.83
429.039	5333.25
429.247	5443.84
429.454	6011.13
429.662	6285.56
429.869	5818.62
430.076	6426.87
430.284	6215.93
430.491	6428.92
430.699	6711.53
430.906	6834.41
431.114	7086.31
431.321	7090.41
431.528	7162.09
431.736	7657.7
431.943	8016.09
432.15	7571.68
432.358	7968.99
432.565	8335.57
432.772	8454.36
432.979	8868.05
433.187	8927.44
433.394	8898.77
433.601	9605.31
433.808	9595.07
434.016	9564.36
434.223	9953.47
434.43	10377.4
434.637	10442.93
434.844	10934.45
435.052	11163.82
435.259	11102.38
435.466	11356.33
435.673	11266.22
435.88	11970.72
436.087	12462.23
436.294	12652.69
436.501	12222.62
436.708	12406.94
436.915	12912.78
437.122	13461.64
437.329	13445.26
437.537	13897.86
437.743	14200.96
437.95	14073.98
438.157	14715
438.364	15472.75
438.571	15177.84
438.778	15523.94
438.985	16810.07
439.192	16175.2
439.399	16728.15
439.606	16203.87
439.813	17223.76
440.02	18405.44
440.227	17942.6
440.433	17723.46
440.64	18333.76
440.847	18184.26
441.054	18751.54
441.261	19662.89
441.467	19785.77
441.674	20195.36
441.881	20852.76
442.088	20615.19
442.294	20672.54
442.501	21063.7
442.708	21571.6
442.914	22579.2
443.121	23232.5
443.328	22818.81
443.534	24242.15
443.741	23635.95
443.948	23320.56
444.154	24674.27
444.361	24860.63
444.568	25026.52
444.774	25257.94
444.981	25366.48
445.187	26120.13
445.394	27549.62
445.6	26851.26
445.807	29521.81
446.013	27942.83
446.22	29177.75
446.426	30297.99
446.633	30119.82
446.839	31313.78
447.046	29724.56
447.252	31655.79
447.459	31688.56
447.665	31588.21
447.871	32952.16
448.078	34096.97
448.284	32685.92
448.491	33836.88
448.697	34819.91
448.903	35602.23
449.11	35467.06
449.316	35213.12
449.522	35485.5
449.728	36445.99
449.935	36957.99
450.141	37259.04
450.347	37588.76
450.553	36859.68
450.76	36884.26
450.966	38313.74
451.172	37762.84
451.378	38725.38
451.584	38203.15
451.791	38973.19
451.997	38766.34
452.203	39302.91
452.409	39634.68
452.615	39745.27
452.821	38022.93
453.027	37715.73
453.233	39694.07
453.44	37783.32
453.646	38387.47
453.852	39032.58
454.058	39255.81
454.264	37828.37
454.47	38932.23
454.676	37861.14
454.882	38967.04
455.088	35946.29
455.294	36310.83
455.5	36882.21
455.705	37297.95
455.911	35475.26
456.117	35225.4
456.323	34639.68
456.529	33226.59
456.735	33957.71
456.941	33310.55
457.147	32307.05
457.352	31850.35
457.558	31405.94
457.764	31385.46
457.97	31014.78
458.176	30289.8
458.381	30123.91
458.587	28602.27
458.793	28770.21
458.999	27297.72
459.204	29335.45
459.41	27967.4
459.616	26740.67
459.821	26632.13
460.027	26482.63
460.233	26052.55
460.438	24780.76
460.644	24813.53
460.85	23785.45
461.055	23279.6
461.261	23474.16
461.466	21587.98
461.672	20955.16
461.878	22640.64
462.083	21114.9
462.289	20604.95
462.494	20342.81
462.7	19331.12
462.905	19109.94
463.111	19593.26
463.316	19478.57
463.522	19642.41
463.727	19439.66
463.932	19238.96
464.138	18962.48
464.343	19345.45
464.549	18548.79
464.754	19118.13
464.959	18944.05
465.165	19099.7
465.37	17987.65
465.575	17727.56
465.781	18298.94
465.986	18532.41
466.191	17729.61
466.397	17289.29
466.602	16590.94
466.807	17217.61
467.012	17371.21
467.218	17188.94
467.423	17068.11
467.628	17023.06
467.833	17582.15
