Data from USB4F104151__79__11-37-40-307.txt Node

Date: Fri Mar 14 11:37:40 EDT 2025
User: louis
Spectrometer: USB4F10415
Trigger mode: 4
Integration Time (sec): 2.000000E-2
Scans to average: 1
Electric dark correction enabled: true
Nonlinearity correction enabled: false
Boxcar width: 0
XAxis mode: Wavelengths
Number of Pixels in Spectrum: 3648
>>>>>Begin Spectral Data<<<<<
178.204	-32.77
178.424	-32.77
178.644	-32.77
178.864	-81.92
179.084	-86.01
179.304	18.43
179.524	-57.34
179.744	-32.77
179.964	106.49
180.184	-16.38
180.404	-34.82
180.624	4.1
180.844	-0
181.064	-55.3
181.283	30.72
181.503	-32.77
181.723	69.63
181.943	-32.77
182.163	47.1
182.383	-30.72
182.602	-6.14
182.822	24.58
183.042	79.87
183.262	71.68
183.482	-90.11
183.701	-16.38
183.921	34.82
184.141	-36.86
184.361	57.34
184.58	38.91
184.8	43.01
185.02	49.15
185.239	108.54
185.459	38.91
185.679	24.58
185.898	-63.49
186.118	22.53
186.338	36.86
186.557	28.67
186.777	75.77
186.997	16.38
187.216	36.86
187.436	8.19
187.655	18.43
187.875	53.25
188.095	-32.77
188.314	38.91
188.534	4.1
188.753	38.91
188.973	26.62
189.192	45.06
189.412	8.19
189.631	65.53
189.851	-47.1
190.07	43.01
190.29	12.29
190.509	-8.19
190.729	-12.29
190.948	71.68
191.168	77.82
191.387	2.05
191.607	-43.01
191.826	-2.05
192.045	-30.72
192.265	59.39
192.484	20.48
192.704	59.39
192.923	10.24
193.142	-6.14
193.362	-43.01
193.581	6.14
193.8	81.92
194.02	-69.63
194.239	12.29
194.458	-24.58
194.678	-10.24
194.897	20.48
195.116	34.82
195.335	47.1
195.555	83.97
195.774	-8.19
195.993	-2.05
196.212	-30.72
196.432	-34.82
196.651	34.82
196.87	49.15
197.089	65.53
197.308	59.39
197.528	24.58
197.747	-0
197.966	38.91
198.185	2.05
198.404	-26.62
198.623	14.34
198.842	43.01
199.062	96.25
199.281	8.19
199.5	-22.53
199.719	83.97
199.938	28.67
200.157	98.3
200.376	53.25
200.595	18.43
200.814	28.67
201.033	26.62
201.252	22.53
201.471	-79.87
201.69	28.67
201.909	92.16
202.128	53.25
202.347	-34.82
202.566	-16.38
202.785	26.62
203.004	24.58
203.223	-8.19
203.442	-2.05
203.661	-24.58
203.879	59.39
204.098	-2.05
204.317	14.34
204.536	32.77
204.755	28.67
204.974	6.14
205.193	67.58
205.411	6.14
205.63	65.53
205.849	34.82
206.068	57.34
206.287	69.63
206.505	-36.86
206.724	-6.14
206.943	2.05
207.162	14.34
207.381	38.91
207.599	26.62
207.818	51.2
208.037	24.58
208.255	34.82
208.474	18.43
208.693	16.38
208.911	12.29
209.13	57.34
209.349	8.19
209.567	8.19
209.786	59.39
210.005	12.29
210.223	-10.24
210.442	8.19
210.661	83.97
210.879	69.63
211.098	34.82
211.316	61.44
211.535	-20.48
211.753	16.38
211.972	65.53
212.191	24.58
212.409	-8.19
212.628	-26.62
212.846	77.82
213.065	-14.34
213.283	18.43
213.502	-22.53
213.72	36.86
213.938	51.2
214.157	-2.05
214.375	-34.82
214.594	-69.63
214.812	32.77
215.031	16.38
215.249	26.62
215.467	-10.24
215.686	71.68
215.904	57.34
216.122	-22.53
216.341	34.82
216.559	18.43
216.778	12.29
216.996	75.77
217.214	36.86
217.432	65.53
217.651	55.3
217.869	22.53
218.087	55.3
218.306	10.24
218.524	20.48
218.742	-34.82
218.96	32.77
219.179	63.49
219.397	-14.34
219.615	86.01
219.833	10.24
220.051	-0
220.27	55.3
220.488	34.82
220.706	-8.19
220.924	26.62
221.142	8.19
221.36	65.53
221.578	-8.19
221.796	-18.43
222.015	2.05
222.233	47.1
222.451	98.3
222.669	38.91
222.887	57.34
223.105	-34.82
223.323	30.72
223.541	-0
223.759	49.15
223.977	57.34
224.195	47.1
224.413	49.15
224.631	16.38
224.849	-67.58
225.067	43.01
225.285	-49.15
225.503	24.58
225.721	-116.73
225.939	10.24
226.157	-49.15
226.375	53.25
226.592	-49.15
226.81	59.39
227.028	-26.62
227.246	-24.58
227.464	94.21
227.682	-16.38
227.9	18.43
228.117	55.3
228.335	120.83
228.553	102.4
228.771	118.78
228.989	8.19
229.206	57.34
229.424	55.3
229.642	81.92
229.86	40.96
230.077	20.48
230.295	-6.14
230.513	108.54
230.731	71.68
230.948	-34.82
231.166	83.97
231.384	14.34
231.601	2.05
231.819	67.58
232.037	24.58
232.254	-6.14
232.472	86.01
232.689	10.24
232.907	71.68
233.125	63.49
233.342	90.11
233.56	28.67
233.777	-4.1
233.995	32.77
234.213	40.96
234.43	81.92
234.648	-14.34
234.865	-14.34
235.083	92.16
235.3	47.1
235.518	81.92
235.735	-0
235.953	16.38
236.17	20.48
236.388	6.14
236.605	20.48
236.822	-10.24
237.04	-47.1
237.257	59.39
237.475	-12.29
237.692	2.05
237.909	-26.62
238.127	47.1
238.344	71.68
238.562	8.19
238.779	-55.3
238.996	-20.48
239.214	18.43
239.431	71.68
239.648	-12.29
239.865	69.63
240.083	6.14
240.3	-28.67
240.517	18.43
240.735	-0
240.952	92.16
241.169	43.01
241.386	51.2
241.603	24.58
241.821	-6.14
242.038	40.96
242.255	30.72
242.472	8.19
242.689	24.58
242.907	-0
243.124	-10.24
243.341	65.53
243.558	-8.19
243.775	-0
243.992	53.25
244.209	55.3
244.426	53.25
244.643	59.39
244.86	59.39
245.078	43.01
245.295	-38.91
245.512	55.3
245.729	75.77
245.946	53.25
246.163	75.77
246.38	12.29
246.597	-24.58
246.814	34.82
247.031	6.14
247.248	14.34
247.464	6.14
247.681	-16.38
247.898	10.24
248.115	8.19
248.332	-30.72
248.549	38.91
248.766	43.01
248.983	45.06
249.2	49.15
249.417	-12.29
249.633	-8.19
249.85	77.82
250.067	36.86
250.284	-0
250.501	-63.49
250.717	47.1
250.934	49.15
251.151	71.68
251.368	18.43
251.585	10.24
251.801	-30.72
252.018	79.87
252.235	-47.1
252.451	-8.19
252.668	45.06
252.885	20.48
253.102	22.53
253.318	118.78
253.535	55.3
253.752	18.43
253.968	14.34
254.185	75.77
254.401	2.05
254.618	-0
254.835	-34.82
255.051	49.15
255.268	8.19
255.484	16.38
255.701	10.24
255.917	49.15
256.134	-90.11
256.351	-20.48
256.567	57.34
256.784	63.49
257	20.48
257.217	26.62
257.433	32.77
257.65	79.87
257.866	18.43
258.082	34.82
258.299	43.01
258.515	18.43
258.732	83.97
258.948	65.53
259.165	30.72
259.381	4.1
259.597	-18.43
259.814	55.3
260.03	14.34
260.246	34.82
260.463	55.3
260.679	18.43
260.895	20.48
261.112	69.63
261.328	12.29
261.544	6.14
261.761	92.16
261.977	-57.34
262.193	24.58
262.409	10.24
262.626	30.72
262.842	32.77
263.058	40.96
263.274	-0
263.49	30.72
263.707	-30.72
263.923	-6.14
264.139	57.34
264.355	83.97
264.571	100.35
264.787	-14.34
265.004	96.25
265.22	98.3
265.436	81.92
265.652	16.38
265.868	-0
266.084	49.15
266.3	43.01
266.516	8.19
266.732	-24.58
266.948	22.53
267.164	40.96
267.38	18.43
267.596	40.96
267.812	53.25
268.028	-4.1
268.244	8.19
268.46	63.49
268.676	40.96
268.892	75.77
269.108	116.73
269.324	61.44
269.54	55.3
269.756	51.2
269.972	-36.86
270.188	-14.34
270.403	-12.29
270.619	22.53
270.835	43.01
271.051	51.2
271.267	92.16
271.483	-0
271.698	-47.1
271.914	-18.43
272.13	2.05
272.346	96.25
272.562	-16.38
272.777	34.82
272.993	6.14
273.209	30.72
273.425	-38.91
273.64	-2.05
273.856	67.58
274.072	75.77
274.287	67.58
274.503	-22.53
274.719	106.49
274.934	6.14
275.15	32.77
275.366	100.35
275.581	49.15
275.797	8.19
276.012	-12.29
276.228	-30.72
276.444	-26.62
276.659	61.44
276.875	-0
277.09	65.53
277.306	-6.14
277.521	26.62
277.737	8.19
277.952	96.25
278.168	-24.58
278.383	57.34
278.599	47.1
278.814	22.53
279.03	18.43
279.245	116.73
279.461	20.48
279.676	40.96
279.892	16.38
280.107	4.1
280.322	61.44
280.538	49.15
280.753	26.62
280.969	38.91
281.184	40.96
281.399	75.77
281.615	32.77
281.83	30.72
282.045	-22.53
282.26	98.3
282.476	-6.14
282.691	-32.77
282.906	38.91
283.122	26.62
283.337	4.1
283.552	28.67
283.767	26.62
283.983	43.01
284.198	2.05
284.413	86.01
284.628	-30.72
284.843	51.2
285.058	47.1
285.274	6.14
285.489	-61.44
285.704	65.53
285.919	79.87
286.134	-0
286.349	34.82
286.564	-43.01
286.779	10.24
286.995	43.01
287.21	18.43
287.425	92.16
287.64	2.05
287.855	-40.96
288.07	-51.2
288.285	51.2
288.5	63.49
288.715	10.24
288.93	43.01
289.145	2.05
289.36	22.53
289.575	6.14
289.79	49.15
290.004	79.87
290.219	4.1
290.434	20.48
290.649	55.3
290.864	36.86
291.079	38.91
291.294	-24.58
291.509	104.45
291.724	63.49
291.938	-59.39
292.153	61.44
292.368	26.62
292.583	71.68
292.798	18.43
293.012	38.91
293.227	-63.49
293.442	16.38
293.657	18.43
293.871	139.26
294.086	28.67
294.301	43.01
294.516	10.24
294.73	32.77
294.945	63.49
295.16	-47.1
295.374	67.58
295.589	45.06
295.804	-22.53
296.018	57.34
296.233	24.58
296.447	20.48
296.662	-14.34
296.877	98.3
297.091	-8.19
297.306	34.82
297.52	-8.19
297.735	49.15
297.949	4.1
298.164	34.82
298.378	20.48
298.593	92.16
298.807	36.86
299.022	4.1
299.236	53.25
299.451	-24.58
299.665	38.91
299.88	40.96
300.094	51.2
300.309	32.77
300.523	-4.1
300.737	20.48
300.952	-14.34
301.166	16.38
301.381	-34.82
301.595	16.38
301.809	43.01
302.024	47.1
302.238	-36.86
302.452	6.14
302.667	28.67
302.881	67.58
303.095	92.16
303.309	14.34
303.524	14.34
303.738	4.1
303.952	22.53
304.166	47.1
304.381	55.3
304.595	43.01
304.809	-2.05
305.023	-18.43
305.237	65.53
305.452	30.72
305.666	57.34
305.88	38.91
306.094	-0
306.308	71.68
306.522	77.82
306.736	59.39
306.95	65.53
307.164	24.58
307.379	-55.3
307.593	-28.67
307.807	71.68
308.021	14.34
308.235	16.38
308.449	67.58
308.663	79.87
308.877	-0
309.091	59.39
309.305	-36.86
309.519	55.3
309.733	65.53
309.947	24.58
310.161	102.4
310.374	71.68
310.588	43.01
310.802	40.96
311.016	12.29
311.23	51.2
311.444	45.06
311.658	20.48
311.872	-20.48
312.085	100.35
312.299	24.58
312.513	49.15
312.727	-0
312.941	18.43
313.154	-40.96
313.368	14.34
313.582	73.73
313.796	32.77
314.009	-0
314.223	18.43
314.437	63.49
314.651	-24.58
314.864	57.34
315.078	59.39
315.292	49.15
315.505	73.73
315.719	20.48
315.933	-0
316.146	16.38
316.36	20.48
316.573	92.16
316.787	20.48
317.001	79.87
317.214	-0
317.428	26.62
317.641	-12.29
317.855	43.01
318.068	43.01
318.282	114.69
318.495	88.06
318.709	16.38
318.922	38.91
319.136	32.77
319.349	8.19
319.563	96.25
319.776	45.06
319.99	8.19
320.203	-12.29
320.417	57.34
320.63	8.19
320.843	36.86
321.057	63.49
321.27	47.1
321.483	55.3
321.697	32.77
321.91	47.1
322.124	-61.44
322.337	49.15
322.55	36.86
322.763	96.25
322.977	47.1
323.19	-0
323.403	61.44
323.617	24.58
323.83	10.24
324.043	2.05
324.256	-26.62
324.469	12.29
324.683	14.34
324.896	75.77
325.109	26.62
325.322	-20.48
325.535	53.25
325.748	116.73
325.962	43.01
326.175	47.1
326.388	28.67
326.601	40.96
326.814	18.43
327.027	16.38
327.24	8.19
327.453	-61.44
327.666	26.62
327.879	26.62
328.092	53.25
328.305	18.43
328.518	2.05
328.731	18.43
328.944	-32.77
329.157	2.05
329.37	51.2
329.583	24.58
329.796	79.87
330.009	-90.11
330.222	59.39
330.435	75.77
330.648	118.78
330.861	-34.82
331.073	38.91
331.286	69.63
331.499	6.14
331.712	51.2
331.925	40.96
332.138	59.39
332.35	75.77
332.563	-14.34
332.776	43.01
332.989	-2.05
333.202	18.43
333.414	-18.43
333.627	79.87
333.84	-10.24
334.053	51.2
334.265	55.3
334.478	59.39
334.691	73.73
334.903	104.45
335.116	47.1
335.329	18.43
335.541	59.39
335.754	69.63
335.966	59.39
336.179	-22.53
336.392	28.67
336.604	16.38
336.817	51.2
337.029	2.05
337.242	65.53
337.454	40.96
337.667	63.49
337.88	57.34
338.092	16.38
338.305	63.49
338.517	10.24
338.729	83.97
338.942	38.91
339.154	53.25
339.367	34.82
339.579	45.06
339.792	12.29
340.004	14.34
340.217	75.77
340.429	57.34
340.641	38.91
340.854	28.67
341.066	-6.14
341.278	16.38
341.491	47.1
341.703	-6.14
341.915	-6.14
342.128	67.58
342.34	-14.34
342.552	88.06
342.764	106.49
342.977	18.43
343.189	30.72
343.401	63.49
343.613	6.14
343.826	61.44
344.038	24.58
344.25	8.19
344.462	40.96
344.674	12.29
344.886	8.19
345.099	57.34
345.311	30.72
345.523	83.97
345.735	8.19
345.947	71.68
346.159	22.53
346.371	40.96
346.583	49.15
346.795	59.39
347.007	8.19
347.219	-6.14
347.431	81.92
347.643	75.77
347.855	-71.68
348.067	104.45
348.279	28.67
348.491	14.34
348.703	83.97
348.915	-38.91
349.127	10.24
349.339	34.82
349.551	77.82
349.763	102.4
349.975	8.19
350.187	10.24
350.399	106.49
350.61	61.44
350.822	4.1
351.034	26.62
351.246	63.49
351.458	75.77
351.669	16.38
351.881	69.63
352.093	43.01
352.305	67.58
352.517	-20.48
352.728	34.82
352.94	36.86
353.152	43.01
353.363	38.91
353.575	77.82
353.787	-0
353.999	2.05
354.21	57.34
354.422	10.24
354.633	65.53
354.845	32.77
355.057	96.25
355.268	81.92
355.48	100.35
355.692	77.82
355.903	22.53
356.115	55.3
356.326	16.38
356.538	30.72
356.749	2.05
356.961	124.93
357.172	102.4
357.384	12.29
357.595	75.77
357.807	92.16
358.018	-16.38
358.23	73.73
358.441	10.24
358.653	32.77
358.864	-18.43
359.075	-40.96
359.287	51.2
359.498	86.01
359.709	61.44
359.921	90.11
360.132	98.3
360.344	8.19
360.555	116.73
360.766	86.01
360.977	-16.38
361.189	104.45
361.4	22.53
361.611	43.01
361.823	108.54
362.034	71.68
362.245	22.53
362.456	71.68
362.667	-4.1
362.879	67.58
363.09	16.38
363.301	71.68
363.512	67.58
363.723	63.49
363.935	-2.05
364.146	65.53
364.357	-6.14
364.568	55.3
364.779	67.58
364.99	59.39
365.201	53.25
365.412	129.02
365.623	79.87
365.834	-0
366.045	55.3
366.256	55.3
366.467	53.25
366.678	75.77
366.889	4.1
367.1	53.25
367.311	24.58
367.522	118.78
367.733	63.49
367.944	22.53
368.155	92.16
368.366	71.68
368.577	59.39
368.788	73.73
368.999	49.15
369.209	98.3
369.42	86.01
369.631	73.73
369.842	92.16
370.053	22.53
370.264	55.3
370.474	32.77
370.685	65.53
370.896	63.49
371.107	59.39
371.317	100.35
371.528	63.49
371.739	57.34
371.95	45.06
372.16	30.72
372.371	-28.67
372.582	45.06
372.792	36.86
373.003	71.68
373.214	38.91
373.424	137.21
373.635	55.3
373.846	104.45
374.056	53.25
374.267	-0
374.477	73.73
374.688	12.29
374.898	53.25
375.109	51.2
375.319	34.82
375.53	30.72
375.74	-16.38
375.951	57.34
376.161	12.29
376.372	32.77
376.582	90.11
376.793	141.31
377.003	47.1
377.214	38.91
377.424	57.34
377.635	20.48
377.845	59.39
378.055	51.2
378.266	43.01
378.476	141.31
378.686	83.97
378.897	45.06
379.107	94.21
379.317	53.25
379.528	-57.34
379.738	47.1
379.948	-14.34
380.158	114.69
380.369	71.68
380.579	55.3
380.789	45.06
380.999	40.96
381.21	40.96
381.42	59.39
381.63	-6.14
381.84	83.97
382.05	106.49
382.261	118.78
382.471	108.54
382.681	30.72
382.891	77.82
383.101	49.15
383.311	43.01
383.521	26.62
383.731	18.43
383.941	77.82
384.151	43.01
384.361	81.92
384.571	145.41
384.781	-2.05
384.991	38.91
385.201	120.83
385.411	112.64
385.621	57.34
385.831	-30.72
386.041	34.82
386.251	51.2
386.461	114.69
386.671	47.1
386.881	55.3
387.091	104.45
387.301	88.06
387.511	57.34
387.72	34.82
387.93	45.06
388.14	45.06
388.35	10.24
388.56	114.69
388.769	22.53
388.979	-6.14
389.189	108.54
389.399	55.3
389.609	108.54
389.818	75.77
390.028	90.11
390.238	55.3
390.447	24.58
390.657	92.16
390.867	51.2
391.076	67.58
391.286	65.53
391.496	24.58
391.705	67.58
391.915	34.82
392.125	139.26
392.334	28.67
392.544	129.02
392.753	94.21
392.963	69.63
393.172	83.97
393.382	30.72
393.591	100.35
393.801	51.2
394.01	118.78
394.22	83.97
394.429	69.63
394.639	102.4
394.848	137.21
395.058	55.3
395.267	34.82
395.477	94.21
395.686	116.73
395.895	69.63
396.105	149.5
396.314	71.68
396.524	106.49
396.733	79.87
396.942	92.16
397.152	38.91
397.361	106.49
397.57	75.77
397.78	75.77
397.989	151.55
398.198	124.93
398.407	47.1
398.617	151.55
398.826	172.03
399.035	96.25
399.244	120.83
399.453	67.58
399.663	129.02
399.872	149.5
400.081	106.49
400.29	75.77
400.499	135.17
400.708	157.69
400.917	143.36
401.127	77.82
401.336	102.4
401.545	133.12
401.754	133.12
401.963	182.27
402.172	114.69
402.381	180.22
402.59	106.49
402.799	71.68
403.008	155.65
403.217	167.93
403.426	176.13
403.635	135.17
403.844	94.21
404.053	178.17
404.262	81.92
404.471	172.03
404.68	147.45
404.888	155.65
405.097	139.26
405.306	235.52
405.515	182.27
405.724	227.32
405.933	198.65
406.142	227.32
406.35	165.89
406.559	180.22
406.768	258.04
406.977	192.51
407.185	245.76
407.394	229.37
407.603	135.17
407.812	247.8
408.02	215.04
408.229	258.04
408.438	167.93
408.646	305.15
408.855	276.48
409.064	327.67
409.272	272.38
409.481	251.9
409.69	292.86
409.898	313.34
410.107	299
410.315	339.96
410.524	337.91
410.733	385.02
410.941	344.06
411.15	368.63
411.358	432.12
411.567	432.12
411.775	391.16
411.984	468.98
412.192	466.94
412.401	473.08
412.609	487.42
412.818	618.49
413.026	534.52
413.234	524.28
413.443	571.38
413.651	602.1
413.86	622.58
414.068	645.11
414.276	591.86
414.485	706.55
414.693	681.97
414.901	690.17
415.11	724.98
415.318	720.88
415.526	727.03
415.734	737.27
415.943	804.85
416.151	890.87
416.359	872.43
416.567	919.54
416.776	929.78
416.984	989.17
417.192	1101.81
417.4	1007.6
417.608	987.12
417.817	1120.24
418.025	1093.62
418.233	1249.26
418.441	1107.95
418.649	1294.32
418.857	1376.23
419.065	1279.98
419.273	1380.33
419.481	1318.89
419.689	1533.93
419.897	1589.22
420.105	1597.42
420.313	1603.56
420.521	1753.06
420.729	1751.01
420.937	1777.64
421.145	1871.84
421.353	1953.76
421.561	2082.78
421.769	1912.8
421.977	1976.29
422.185	2101.22
422.393	2258.91
422.601	2336.73
422.809	2351.07
423.017	2220
423.224	2529.24
423.432	2602.97
423.64	2607.06
423.848	2897.88
424.056	2772.95
424.263	2926.55
424.471	3008.47
424.679	3057.62
424.887	3143.63
425.094	3203.02
425.302	3416.01
425.51	3520.46
425.718	3479.5
425.925	3606.47
426.133	3809.22
426.341	4016.07
426.548	4059.07
426.756	4106.18
426.964	4220.86
427.171	4564.92
427.379	4556.73
427.586	4616.12
427.794	4685.75
428.001	5044.15
428.209	5240.75
428.417	5097.39
428.624	5545.9
428.832	5408.69
429.039	5404.59
429.247	5527.47
429.454	6000.55
429.662	6252.45
429.869	5849
430.076	6516.64
430.284	6150.05
430.491	6277.02
430.699	6883.22
430.906	6823.83
431.114	6971.29
431.321	7085.97
431.528	7126.93
431.736	7862.15
431.943	8064.9
432.15	7749.51
432.358	7843.72
432.565	8357.76
432.772	8423.3
432.979	8879.99
433.187	9019.25
433.394	9090.93
433.601	9639.79
433.808	9588.59
434.016	9637.74
434.223	9914.22
434.43	10612.57
434.637	10284.9
434.844	11099.99
435.052	11263.83
435.259	11206.48
435.466	11233.11
435.673	11104.09
435.88	11890.51
436.087	12234.57
436.294	12250.95
436.501	12037.96
436.708	12384.07
436.915	12943.16
437.122	13416.24
437.329	13330.23
437.537	13784.88
437.743	13967.15
437.95	13856.56
438.157	14645.02
438.364	15060.76
438.571	15019.8
438.778	15259.42
438.985	16467.72
439.192	15908.62
439.399	16338.69
439.606	16324.36
439.813	17102.59
440.02	17991.41
440.227	17651.44
440.433	17379.06
440.64	17927.92
440.847	17821.42
441.054	18401
441.261	19818.19
441.467	19173.08
441.674	19953.36
441.881	20604.61
442.088	20352.71
442.294	20205.26
442.501	20797.12
442.708	21493.43
442.914	22146.73
443.121	23082.66
443.328	22423.21
443.534	24270.48
443.741	23248.54
443.948	23017.12
444.154	24602.25
444.361	24471.18
444.568	24528.52
444.774	24727.17
444.981	24821.38
445.187	25777.78
445.394	26863.21
445.6	26494.57
445.807	28849.74
446.013	27833.94
446.22	28470.86
446.426	29005.38
446.633	29775.42
446.839	30617.13
447.046	29089.35
447.252	30813.74
447.459	31165.99
447.665	31221.28
447.871	32208.4
448.078	33328.64
448.284	32103.96
448.491	32886.28
448.697	33986.04
448.903	34807.28
449.11	34993.64
449.316	34274.81
449.522	34954.73
449.728	36111.83
449.935	35829.21
450.141	35964.38
450.347	36955.6
450.553	35630.56
450.76	36322.77
450.966	37369.29
451.172	36756.94
451.378	37961.15
451.584	37060.04
451.791	38088.12
451.997	38221.24
452.203	38440.37
452.409	38114.75
452.615	38405.56
452.821	36949.45
453.027	36468.18
453.233	38372.79
453.44	36734.42
453.646	37416.39
453.852	37449.16
454.058	38315.45
454.264	36722.13
454.47	37514.69
454.676	36693.46
454.882	37842.37
455.088	34790.89
455.294	35198.44
455.5	35542.5
455.705	36167.13
455.911	34860.52
456.117	34594.29
456.323	33711.61
456.529	32153.11
456.735	33078.79
456.941	32310.8
457.147	31542.81
457.352	31376.93
457.558	30524.97
457.764	30897.7
457.97	30121.52
458.176	29630.01
458.381	29220.42
458.587	27860.57
458.793	27833.94
458.999	26658.41
459.204	28429.9
459.41	27700.83
459.616	25837.17
459.821	25781.88
460.027	25890.42
460.233	25206.4
460.438	23985.81
460.644	24354.44
460.85	23078.56
461.055	22779.56
461.261	22668.97
461.466	20944.58
461.672	20258.51
461.878	21788.34
462.083	20369.1
462.289	19955.41
462.494	20020.94
462.7	18960.09
462.905	18495.21
463.111	19093.21
463.316	19152.6
463.522	18835.17
463.727	18712.29
463.932	18779.87
464.138	18353.9
464.343	18818.78
464.549	17901.29
464.754	18628.32
464.959	18474.73
465.165	18403.05
465.37	17483.51
465.575	17282.81
465.781	17704.69
465.986	18032.36
466.191	17377.01
466.397	16969.47
466.602	16140.04
466.807	16856.83
467.012	16791.3
467.218	16557.83
467.423	16637.7
467.628	16529.16
467.833	17184.51
468.038	16557.83
468.244	16025.36
468.449	16918.27
