Data from USB4F104151__17__11-36-29-727.txt Node

Date: Fri Mar 14 11:36:29 EDT 2025
User: louis
Spectrometer: USB4F10415
Trigger mode: 4
Integration Time (sec): 2.000000E-2
Scans to average: 1
Electric dark correction enabled: true
Nonlinearity correction enabled: false
Boxcar width: 0
XAxis mode: Wavelengths
Number of Pixels in Spectrum: 3648
>>>>>Begin Spectral Data<<<<<
178.204	-48.13
178.424	-48.13
178.644	-48.13
178.864	-78.85
179.084	-54.27
179.304	-91.13
179.524	-15.36
179.744	15.36
179.964	13.31
180.184	11.26
180.404	46.08
180.624	84.99
180.844	17.41
181.064	-44.03
181.283	15.36
181.503	-9.22
181.723	-44.03
181.943	62.46
182.163	29.7
182.383	78.85
182.602	21.5
182.822	74.75
183.042	31.74
183.262	27.65
183.482	66.56
183.701	148.48
183.921	109.57
184.141	-7.17
184.361	60.42
184.58	72.7
184.8	35.84
185.02	15.36
185.239	117.76
185.459	54.27
185.679	72.7
185.898	78.85
186.118	54.27
186.338	44.03
186.557	21.5
186.777	37.89
186.997	60.42
187.216	-46.08
187.436	113.66
187.655	70.65
187.875	87.04
188.095	-13.31
188.314	5.12
188.534	56.32
188.753	-11.26
188.973	29.7
189.192	60.42
189.412	-3.07
189.631	87.04
189.851	23.55
190.07	70.65
190.29	68.61
190.509	74.75
190.729	33.79
190.948	29.7
191.168	144.38
191.387	46.08
191.607	1.02
191.826	-7.17
192.045	46.08
192.265	76.8
192.484	74.75
192.704	13.31
192.923	87.04
193.142	95.23
193.362	-1.02
193.581	-3.07
193.8	93.18
194.02	113.66
194.239	15.36
194.458	82.94
194.678	27.65
194.897	50.18
195.116	33.79
195.335	68.61
195.555	60.42
195.774	-37.89
195.993	50.18
196.212	-25.6
196.432	-5.12
196.651	87.04
196.87	68.61
197.089	25.6
197.308	60.42
197.528	70.65
197.747	-35.84
197.966	68.61
198.185	93.18
198.404	17.41
198.623	54.27
198.842	21.5
199.062	103.42
199.281	82.94
199.5	-13.31
199.719	48.13
199.938	101.37
200.157	64.51
200.376	58.37
200.595	31.74
200.814	62.46
201.033	31.74
201.252	27.65
201.471	39.94
201.69	64.51
201.909	19.46
202.128	66.56
202.347	50.18
202.566	19.46
202.785	-1.02
203.004	35.84
203.223	87.04
203.442	11.26
203.661	25.6
203.879	17.41
204.098	64.51
204.317	25.6
204.536	62.46
204.755	-21.5
204.974	5.12
205.193	76.8
205.411	84.99
205.63	29.7
205.849	58.37
206.068	78.85
206.287	46.08
206.505	95.23
206.724	29.7
206.943	121.85
207.162	95.23
207.381	-9.22
207.599	68.61
207.818	29.7
208.037	13.31
208.255	25.6
208.474	33.79
208.693	25.6
208.911	41.98
209.13	-52.22
209.349	44.03
209.567	70.65
209.786	5.12
210.005	130.05
210.223	13.31
210.442	11.26
210.661	17.41
210.879	-3.07
211.098	13.31
211.316	11.26
211.535	70.65
211.753	25.6
211.972	107.52
212.191	11.26
212.409	13.31
212.628	17.41
212.846	39.94
213.065	39.94
213.283	50.18
213.502	17.41
213.72	52.22
213.938	35.84
214.157	15.36
214.375	-7.17
214.594	66.56
214.812	-5.12
215.031	66.56
215.249	60.42
215.467	111.61
215.686	62.46
215.904	41.98
216.122	-17.41
216.341	80.89
216.559	115.71
216.778	74.75
216.996	9.22
217.214	39.94
217.432	25.6
217.651	3.07
217.869	54.27
218.087	68.61
218.306	1.02
218.524	101.37
218.742	-31.74
218.96	76.8
219.179	78.85
219.397	70.65
219.615	115.71
219.833	62.46
220.051	23.55
220.27	89.09
220.488	-25.6
220.706	33.79
220.924	41.98
221.142	68.61
221.36	29.7
221.578	78.85
221.796	103.42
222.015	37.89
222.233	21.5
222.451	70.65
222.669	54.27
222.887	144.38
223.105	15.36
223.323	13.31
223.541	52.22
223.759	58.37
223.977	54.27
224.195	58.37
224.413	5.12
224.631	35.84
224.849	-11.26
225.067	35.84
225.285	35.84
225.503	58.37
225.721	13.31
225.939	46.08
226.157	21.5
226.375	89.09
226.592	66.56
226.81	13.31
227.028	54.27
227.246	60.42
227.464	19.46
227.682	5.12
227.9	25.6
228.117	103.42
228.335	41.98
228.553	1.02
228.771	-11.26
228.989	41.98
229.206	74.75
229.424	-29.7
229.642	9.22
229.86	62.46
230.077	31.74
230.295	72.7
230.513	70.65
230.731	50.18
230.948	105.47
231.166	111.61
231.384	-13.31
231.601	58.37
231.819	74.75
232.037	-37.89
232.254	-1.02
232.472	62.46
232.689	87.04
232.907	41.98
233.125	136.19
233.342	-29.7
233.56	87.04
233.777	87.04
233.995	-5.12
234.213	39.94
234.43	76.8
234.648	-11.26
234.865	-23.55
235.083	62.46
235.3	66.56
235.518	101.37
235.735	66.56
235.953	78.85
236.17	19.46
236.388	146.43
236.605	7.17
236.822	29.7
237.04	82.94
237.257	91.13
237.475	9.22
237.692	41.98
237.909	46.08
238.127	5.12
238.344	1.02
238.562	58.37
238.779	35.84
238.996	52.22
239.214	72.7
239.431	25.6
239.648	48.13
239.865	21.5
240.083	5.12
240.3	39.94
240.517	5.12
240.735	41.98
240.952	17.41
241.169	179.2
241.386	37.89
241.603	46.08
241.821	21.5
242.038	48.13
242.255	29.7
242.472	23.55
242.689	70.65
242.907	19.46
243.124	29.7
243.341	37.89
243.558	52.22
243.775	33.79
243.992	33.79
244.209	35.84
244.426	101.37
244.643	54.27
244.86	74.75
245.078	19.46
245.295	23.55
245.512	113.66
245.729	11.26
245.946	46.08
246.163	23.55
246.38	107.52
246.597	21.5
246.814	58.37
247.031	-44.03
247.248	5.12
247.464	54.27
247.681	19.46
247.898	78.85
248.115	60.42
248.332	93.18
248.549	-17.41
248.766	54.27
248.983	31.74
249.2	19.46
249.417	87.04
249.633	50.18
249.85	101.37
250.067	58.37
250.284	164.86
250.501	-9.22
250.717	93.18
250.934	-21.5
251.151	31.74
251.368	95.23
251.585	70.65
251.801	54.27
252.018	29.7
252.235	54.27
252.451	23.55
252.668	46.08
252.885	15.36
253.102	117.76
253.318	103.42
253.535	91.13
253.752	-21.5
253.968	-17.41
254.185	70.65
254.401	101.37
254.618	74.75
254.835	66.56
255.051	46.08
255.268	72.7
255.484	68.61
255.701	74.75
255.917	113.66
256.134	25.6
256.351	60.42
256.567	39.94
256.784	37.89
257	123.9
257.217	117.76
257.433	27.65
257.65	39.94
257.866	35.84
258.082	82.94
258.299	33.79
258.515	-21.5
258.732	15.36
258.948	21.5
259.165	76.8
259.381	70.65
259.597	39.94
259.814	48.13
260.03	-23.55
260.246	-3.07
260.463	-17.41
260.679	-19.46
260.895	27.65
261.112	48.13
261.328	58.37
261.544	-7.17
261.761	177.15
261.977	58.37
262.193	-23.55
262.409	60.42
262.626	25.6
262.842	27.65
263.058	-7.17
263.274	84.99
263.49	3.07
263.707	-19.46
263.923	52.22
264.139	19.46
264.355	29.7
264.571	101.37
264.787	39.94
265.004	80.89
265.22	21.5
265.436	48.13
265.652	87.04
265.868	64.51
266.084	95.23
266.3	15.36
266.516	-15.36
266.732	107.52
266.948	87.04
267.164	48.13
267.38	134.14
267.596	60.42
267.812	60.42
268.028	50.18
268.244	115.71
268.46	56.32
268.676	52.22
268.892	68.61
269.108	7.17
269.324	48.13
269.54	-31.74
269.756	101.37
269.972	17.41
270.188	33.79
270.403	64.51
270.619	74.75
270.835	44.03
271.051	31.74
271.267	37.89
271.483	33.79
271.698	80.89
271.914	46.08
272.13	54.27
272.346	111.61
272.562	37.89
272.777	91.13
272.993	17.41
273.209	33.79
273.425	21.5
273.64	3.07
273.856	54.27
274.072	25.6
274.287	80.89
274.503	66.56
274.719	37.89
274.934	25.6
275.15	-21.5
275.366	76.8
275.581	111.61
275.797	33.79
276.012	50.18
276.228	44.03
276.444	70.65
276.659	95.23
276.875	37.89
277.09	29.7
277.306	-15.36
277.521	54.27
277.737	58.37
277.952	44.03
278.168	68.61
278.383	52.22
278.599	-13.31
278.814	156.67
279.03	136.19
279.245	87.04
279.461	91.13
279.676	76.8
279.892	-13.31
280.107	95.23
280.322	48.13
280.538	44.03
280.753	46.08
280.969	39.94
281.184	7.17
281.399	78.85
281.615	56.32
281.83	35.84
282.045	25.6
282.26	97.28
282.476	60.42
282.691	54.27
282.906	35.84
283.122	99.33
283.337	33.79
283.552	5.12
283.767	39.94
283.983	50.18
284.198	70.65
284.413	-1.02
284.628	13.31
284.843	15.36
285.058	80.89
285.274	82.94
285.489	-29.7
285.704	37.89
285.919	29.7
286.134	48.13
286.349	9.22
286.564	1.02
286.779	68.61
286.995	29.7
287.21	101.37
287.425	52.22
287.64	13.31
287.855	95.23
288.07	95.23
288.285	78.85
288.5	87.04
288.715	68.61
288.93	48.13
289.145	87.04
289.36	11.26
289.575	89.09
289.79	68.61
290.004	37.89
290.219	7.17
290.434	41.98
290.649	87.04
290.864	64.51
291.079	9.22
291.294	41.98
291.509	21.5
291.724	1.02
291.938	5.12
292.153	52.22
292.368	62.46
292.583	29.7
292.798	41.98
293.012	66.56
293.227	99.33
293.442	64.51
293.657	82.94
293.871	103.42
294.086	-7.17
294.301	84.99
294.516	-13.31
294.73	52.22
294.945	128
295.16	95.23
295.374	60.42
295.589	132.09
295.804	107.52
296.018	87.04
296.233	17.41
296.447	93.18
296.662	54.27
296.877	78.85
297.091	50.18
297.306	84.99
297.52	3.07
297.735	84.99
297.949	68.61
298.164	27.65
298.378	41.98
298.593	39.94
298.807	3.07
299.022	87.04
299.236	130.05
299.451	23.55
299.665	-11.26
299.88	82.94
300.094	25.6
300.309	39.94
300.523	21.5
300.737	89.09
300.952	54.27
301.166	33.79
301.381	9.22
301.595	74.75
301.809	-11.26
302.024	113.66
302.238	56.32
302.452	29.7
302.667	48.13
302.881	48.13
303.095	78.85
303.309	78.85
303.524	-1.02
303.738	76.8
303.952	-9.22
304.166	48.13
304.381	64.51
304.595	19.46
304.809	101.37
305.023	103.42
305.237	84.99
305.452	58.37
305.666	95.23
305.88	5.12
306.094	-3.07
306.308	117.76
306.522	11.26
306.736	41.98
306.95	62.46
307.164	-29.7
307.379	44.03
307.593	91.13
307.807	54.27
308.021	31.74
308.235	19.46
308.449	9.22
308.663	5.12
308.877	99.33
309.091	21.5
309.305	9.22
309.519	95.23
309.733	15.36
309.947	46.08
310.161	46.08
310.374	68.61
310.588	-7.17
310.802	52.22
311.016	105.47
311.23	115.71
311.444	66.56
311.658	68.61
311.872	70.65
312.085	76.8
312.299	107.52
312.513	35.84
312.727	72.7
312.941	35.84
313.154	31.74
313.368	93.18
313.582	17.41
313.796	-7.17
314.009	60.42
314.223	74.75
314.437	138.24
314.651	41.98
314.864	39.94
315.078	97.28
315.292	76.8
315.505	72.7
315.719	54.27
315.933	44.03
316.146	54.27
316.36	5.12
316.573	44.03
316.787	48.13
317.001	62.46
317.214	21.5
317.428	91.13
317.641	50.18
317.855	78.85
318.068	80.89
318.282	-1.02
318.495	54.27
318.709	27.65
318.922	-11.26
319.136	56.32
319.349	46.08
319.563	50.18
319.776	21.5
319.99	9.22
320.203	21.5
320.417	-33.79
320.63	33.79
320.843	103.42
321.057	84.99
321.27	31.74
321.483	66.56
321.697	95.23
321.91	33.79
322.124	-27.65
322.337	70.65
322.55	68.61
322.763	105.47
322.977	-37.89
323.19	41.98
323.403	46.08
323.617	39.94
323.83	84.99
324.043	29.7
324.256	76.8
324.469	19.46
324.683	62.46
324.896	-13.31
325.109	62.46
325.322	13.31
325.535	58.37
325.748	82.94
325.962	101.37
326.175	7.17
326.388	72.7
326.601	25.6
326.814	95.23
327.027	27.65
327.24	89.09
327.453	56.32
327.666	54.27
327.879	62.46
328.092	15.36
328.305	91.13
328.518	-25.6
328.731	58.37
328.944	54.27
329.157	9.22
329.37	58.37
329.583	72.7
329.796	115.71
330.009	27.65
330.222	134.14
330.435	56.32
330.648	3.07
330.861	66.56
331.073	66.56
331.286	76.8
331.499	89.09
331.712	37.89
331.925	44.03
332.138	52.22
332.35	91.13
332.563	41.98
332.776	19.46
332.989	121.85
333.202	48.13
333.414	48.13
333.627	87.04
333.84	37.89
334.053	140.29
334.265	25.6
334.478	23.55
334.691	80.89
334.903	41.98
335.116	70.65
335.329	87.04
335.541	46.08
335.754	-27.65
335.966	60.42
336.179	74.75
336.392	-35.84
336.604	21.5
336.817	33.79
337.029	78.85
337.242	35.84
337.454	23.55
337.667	97.28
337.88	101.37
338.092	46.08
338.305	33.79
338.517	25.6
338.729	50.18
338.942	111.61
339.154	17.41
339.367	19.46
339.579	107.52
339.792	66.56
340.004	107.52
340.217	76.8
340.429	54.27
340.641	9.22
340.854	95.23
341.066	58.37
341.278	78.85
341.491	93.18
341.703	95.23
341.915	29.7
342.128	70.65
342.34	11.26
342.552	76.8
342.764	41.98
342.977	95.23
343.189	99.33
343.401	52.22
343.613	44.03
343.826	31.74
344.038	44.03
344.25	74.75
344.462	-37.89
344.674	54.27
344.886	29.7
345.099	31.74
345.311	115.71
345.523	50.18
345.735	54.27
345.947	41.98
346.159	95.23
346.371	19.46
346.583	66.56
346.795	99.33
347.007	-5.12
347.219	72.7
347.431	13.31
347.643	107.52
347.855	103.42
348.067	132.09
348.279	54.27
348.491	17.41
348.703	48.13
348.915	87.04
349.127	21.5
349.339	33.79
349.551	60.42
349.763	29.7
349.975	68.61
350.187	70.65
350.399	95.23
350.61	111.61
350.822	15.36
351.034	25.6
351.246	109.57
351.458	48.13
351.669	97.28
351.881	87.04
352.093	95.23
352.305	54.27
352.517	99.33
352.728	11.26
352.94	76.8
353.152	111.61
353.363	52.22
353.575	109.57
353.787	109.57
353.999	152.57
354.21	25.6
354.422	50.18
354.633	70.65
354.845	74.75
355.057	60.42
355.268	76.8
355.48	74.75
355.692	19.46
355.903	91.13
356.115	29.7
356.326	-5.12
356.538	134.14
356.749	74.75
356.961	89.09
357.172	107.52
357.384	13.31
357.595	132.09
357.807	168.96
358.018	-7.17
358.23	95.23
358.441	37.89
358.653	19.46
358.864	91.13
359.075	74.75
359.287	41.98
359.498	101.37
359.709	54.27
359.921	95.23
360.132	70.65
360.344	87.04
360.555	99.33
360.766	54.27
360.977	44.03
361.189	84.99
361.4	35.84
361.611	-21.5
361.823	103.42
362.034	50.18
362.245	13.31
362.456	117.76
362.667	-9.22
362.879	-27.65
363.09	64.51
363.301	23.55
363.512	148.48
363.723	54.27
363.935	95.23
364.146	78.85
364.357	76.8
364.568	37.89
364.779	68.61
364.99	70.65
365.201	132.09
365.412	117.76
365.623	19.46
365.834	46.08
366.045	41.98
366.256	5.12
366.467	70.65
366.678	70.65
366.889	78.85
367.1	46.08
367.311	27.65
367.522	117.76
367.733	5.12
367.944	93.18
368.155	62.46
368.366	5.12
368.577	56.32
368.788	74.75
368.999	91.13
369.209	70.65
369.42	160.77
369.631	87.04
369.842	95.23
370.053	72.7
370.264	37.89
370.474	58.37
370.685	82.94
370.896	35.84
371.107	29.7
371.317	87.04
371.528	3.07
371.739	80.89
371.95	128
372.16	29.7
372.371	105.47
372.582	68.61
372.792	-15.36
373.003	66.56
373.214	41.98
373.424	3.07
373.635	70.65
373.846	142.33
374.056	21.5
374.267	27.65
374.477	70.65
374.688	23.55
374.898	93.18
375.109	117.76
375.319	37.89
375.53	48.13
375.74	158.72
375.951	27.65
376.161	54.27
376.372	152.57
376.582	95.23
376.793	154.62
377.003	23.55
377.214	19.46
377.424	80.89
377.635	39.94
377.845	115.71
378.055	107.52
378.266	-21.5
378.476	50.18
378.686	162.81
378.897	-1.02
379.107	91.13
379.317	68.61
379.528	138.24
379.738	87.04
379.948	1.02
380.158	44.03
380.369	46.08
380.579	132.09
380.789	-7.17
380.999	93.18
381.21	91.13
381.42	74.75
381.63	29.7
381.84	109.57
382.05	66.56
382.261	97.28
382.471	82.94
382.681	70.65
382.891	138.24
383.101	103.42
383.311	-15.36
383.521	58.37
383.731	111.61
383.941	52.22
384.151	70.65
384.361	54.27
384.571	17.41
384.781	74.75
384.991	46.08
385.201	164.86
385.411	91.13
385.621	119.81
385.831	93.18
386.041	115.71
386.251	78.85
386.461	123.9
386.671	68.61
386.881	64.51
387.091	158.72
387.301	46.08
387.511	84.99
387.72	31.74
387.93	99.33
388.14	89.09
388.35	19.46
388.56	87.04
388.769	140.29
388.979	54.27
389.189	62.46
389.399	103.42
389.609	44.03
389.818	119.81
390.028	97.28
390.238	103.42
390.447	29.7
390.657	99.33
390.867	123.9
391.076	60.42
391.286	74.75
391.496	97.28
391.705	89.09
391.915	-11.26
392.125	52.22
392.334	93.18
392.544	117.76
392.753	89.09
392.963	13.31
393.172	134.14
393.382	115.71
393.591	115.71
393.801	62.46
394.01	89.09
394.22	95.23
394.429	117.76
394.639	21.5
394.848	138.24
395.058	99.33
395.267	105.47
395.477	136.19
395.686	105.47
395.895	115.71
396.105	177.15
396.314	70.65
396.524	84.99
396.733	144.38
396.942	93.18
397.152	107.52
397.361	50.18
397.57	132.09
397.78	160.77
397.989	119.81
398.198	125.95
398.407	80.89
398.617	164.86
398.826	103.42
399.035	189.44
399.244	119.81
399.453	150.53
399.663	72.7
399.872	207.87
400.081	144.38
400.29	132.09
400.499	128
400.708	115.71
400.917	66.56
401.127	150.53
401.336	168.96
401.545	156.67
401.754	195.58
401.963	185.34
402.172	115.71
402.381	54.27
402.59	181.25
402.799	205.82
403.008	109.57
403.217	89.09
403.426	82.94
403.635	152.57
403.844	134.14
404.053	162.81
404.262	142.33
404.471	134.14
404.68	121.85
404.888	164.86
405.097	64.51
405.306	179.2
405.515	197.63
405.724	209.92
405.933	128
406.142	121.85
406.35	267.26
406.559	211.96
406.768	191.49
406.977	216.06
407.185	193.53
407.394	230.4
407.603	150.53
407.812	226.3
408.02	259.07
408.229	261.12
408.438	257.02
408.646	246.78
408.855	326.65
409.064	279.55
409.272	246.78
409.481	316.41
409.69	355.32
409.898	316.41
410.107	359.42
410.315	357.37
410.524	308.22
410.733	347.13
410.941	316.41
411.15	347.13
411.358	439.29
411.567	424.95
411.775	496.63
411.984	416.76
412.192	447.48
412.401	463.86
412.609	453.63
412.818	523.26
413.026	439.29
413.234	480.25
413.443	576.5
413.651	556.02
413.86	594.93
414.068	601.08
414.276	607.22
414.485	613.37
414.693	607.22
414.901	683
415.11	644.09
415.318	803.83
415.526	723.96
415.734	758.77
415.943	766.96
416.151	887.79
416.359	793.59
416.567	893.94
416.776	941.04
416.984	885.75
417.192	988.14
417.4	1049.58
417.608	928.75
417.817	1014.77
418.025	1098.74
418.233	1151.98
418.441	1031.15
418.649	1172.46
418.857	1225.71
419.065	1332.2
419.273	1313.77
419.481	1364.97
419.689	1530.86
419.897	1401.83
420.105	1524.71
420.313	1487.85
420.521	1602.54
420.729	1633.26
420.937	1623.02
421.145	1627.11
421.353	1766.37
421.561	1905.63
421.769	1891.3
421.977	1897.44
422.185	1946.59
422.393	2106.34
422.601	2198.49
422.809	2315.23
423.017	2317.28
423.224	2345.95
423.432	2444.25
423.64	2358.24
423.848	2761.69
424.056	2552.79
424.263	2790.36
424.471	2843.6
424.679	2806.74
424.887	2962.39
425.094	3034.07
425.302	2989.01
425.51	3335.12
425.718	3486.67
425.925	3392.46
426.133	3488.71
426.341	3681.22
426.548	3881.92
426.756	3830.73
426.964	3783.62
427.171	4248.51
427.379	4156.35
427.586	4340.67
427.794	4316.09
428.001	4565.95
428.209	4885.43
428.417	4709.3
428.624	5012.4
428.832	5274.54
429.039	5227.44
429.247	5006.26
429.454	5548.97
429.662	5905.32
429.869	5661.61
430.076	5788.58
430.284	5602.22
430.491	5979.04
430.699	6386.59
430.906	6353.82
431.114	6323.1
431.321	6726.55
431.528	6704.03
431.736	7093.14
431.943	7527.31
432.15	7244.69
432.358	7334.8
432.565	7771.02
432.772	7801.74
432.979	8020.87
433.187	8471.42
433.394	8532.86
433.601	9231.22
433.808	8864.63
434.016	8848.25
434.223	9200.5
434.43	9905
434.637	9689.96
434.844	10111.85
435.052	10517.34
435.259	10527.58
435.466	10693.47
435.673	10161
435.88	11117.4
436.087	11629.39
436.294	11553.62
436.501	11518.8
436.708	11678.54
436.915	12024.65
437.122	12677.95
437.329	12337.99
437.537	12798.78
437.743	13200.18
437.95	12979
438.157	13613.87
438.364	14119.72
438.571	14222.12
438.778	14078.76
438.985	15579.92
439.192	14895.9
439.399	15321.88
439.606	15160.09
439.813	15913.74
440.02	16632.58
440.227	16509.7
440.433	16478.98
440.64	17011.45
440.847	16902.91
441.054	17273.59
441.261	18535.14
441.467	18064.11
441.674	18655.97
441.881	19393.24
442.088	18748.13
442.294	19028.7
442.501	19677.91
442.708	19944.14
442.914	20697.8
443.121	21672.63
443.328	21215.93
443.534	22694.57
443.741	22018.74
443.948	21744.31
444.154	23212.7
444.361	22897.31
444.568	23136.93
444.774	23308.96
444.981	23292.57
445.187	23909.01
445.394	24937.09
445.6	24846.98
445.807	27345.5
446.013	26139.25
446.22	26282.61
446.426	27507.29
446.633	27740.76
446.839	28471.89
447.046	27550.3
447.252	28861
447.459	28787.27
447.665	28594.76
447.871	30224.95
448.078	31636
448.284	30110.26
448.491	31181.35
448.697	31722.01
448.903	32430.61
449.11	32657.93
449.316	32006.68
449.522	32930.31
449.728	33143.3
449.935	33726.97
450.141	33659.39
450.347	34376.18
450.553	33405.44
450.76	33462.79
450.966	35023.34
451.172	34212.34
451.378	35123.69
451.584	34615.79
451.791	35768.8
451.997	35068.39
452.203	35613.15
452.409	35834.33
452.615	36047.32
452.821	34611.7
453.027	33866.24
453.233	35725.79
453.44	34486.77
453.646	35052.01
453.852	35119.59
454.058	35641.82
454.264	34386.42
454.47	35119.59
454.676	34396.66
454.882	35250.66
455.088	32266.77
455.294	32758.28
455.5	33436.16
455.705	33929.72
455.911	32360.98
456.117	31586.85
456.323	31527.45
456.529	29874.74
456.735	30661.16
456.941	30071.35
457.147	29571.64
457.352	28969.54
457.558	28412.49
457.764	28414.54
457.97	28166.74
458.176	27415.13
458.381	27245.15
458.587	25733.75
458.793	25856.63
458.999	24586.89
459.204	26389.1
459.41	25868.92
459.616	23970.45
459.821	24011.41
460.027	23501.47
460.233	23591.58
460.438	22248.11
460.644	22471.34
460.85	21355.19
461.055	20826.82
461.261	21222.08
461.466	19741.39
461.672	18991.84
461.878	20208.33
462.083	19030.75
462.289	18377.45
462.494	18735.84
462.7	17533.68
462.905	17074.94
463.111	17863.41
463.316	17509.11
463.522	17496.82
463.727	17314.55
463.932	17343.22
464.138	17212.15
464.343	17089.28
464.549	16773.89
464.754	17345.27
464.959	17189.63
465.165	17222.39
465.37	16448.26
465.575	15682.32
465.781	16515.84
465.986	16450.31
466.191	16083.72
466.397	15825.68
466.602	15063.83
466.807	15643.41
467.012	15543.06
467.218	15442.71
467.423	15272.73
467.628	15631.12
467.833	15944.46
