Data from USB4F104151__20__11-36-30-927.txt Node

Date: Fri Mar 14 11:36:30 EDT 2025
User: louis
Spectrometer: USB4F10415
Trigger mode: 4
Integration Time (sec): 2.000000E-2
Scans to average: 1
Electric dark correction enabled: true
Nonlinearity correction enabled: false
Boxcar width: 0
XAxis mode: Wavelengths
Number of Pixels in Spectrum: 3648
>>>>>Begin Spectral Data<<<<<
178.204	-132.95
178.424	-132.95
178.644	-132.95
178.864	-83.8
179.084	-63.32
179.304	14.51
179.524	-5.97
179.744	-1.88
179.964	24.75
180.184	10.41
180.404	26.79
180.624	-77.65
180.844	-8.02
181.064	-5.97
181.283	34.99
181.503	-14.17
181.723	2.22
181.943	-24.4
182.163	-3.93
182.383	-14.17
182.602	55.47
182.822	47.27
183.042	6.31
183.262	-32.6
183.482	-20.31
183.701	37.03
183.921	26.79
184.141	12.46
184.361	32.94
184.58	-18.26
184.8	14.51
185.02	6.31
185.239	57.51
185.459	22.7
185.679	20.65
185.898	-46.93
186.118	53.42
186.338	45.23
186.557	14.51
186.777	-26.45
186.997	-10.07
187.216	0.17
187.436	51.37
187.655	-16.21
187.875	-22.36
188.095	-53.08
188.314	47.27
188.534	6.31
188.753	22.7
188.973	2.22
189.192	20.65
189.412	45.23
189.631	-42.84
189.851	-30.55
190.07	47.27
190.29	30.89
190.509	-61.27
190.729	0.17
190.948	22.7
191.168	71.85
191.387	47.27
191.607	51.37
191.826	-14.17
192.045	26.79
192.265	-14.17
192.484	26.79
192.704	-89.94
192.923	-34.64
193.142	90.28
193.362	47.27
193.581	47.27
193.8	32.94
194.02	51.37
194.239	10.41
194.458	0.17
194.678	-8.02
194.897	-14.17
195.116	71.85
195.335	-30.55
195.555	84.14
195.774	-22.36
195.993	55.47
196.212	-20.31
196.432	45.23
196.651	-10.07
196.87	-38.74
197.089	22.7
197.308	26.79
197.528	24.75
197.747	-10.07
197.966	4.27
198.185	80.04
198.404	49.32
198.623	8.36
198.842	61.61
199.062	37.03
199.281	32.94
199.5	-16.21
199.719	10.41
199.938	10.41
200.157	16.55
200.376	-61.27
200.595	41.13
200.814	-3.93
201.033	30.89
201.252	63.66
201.471	-14.17
201.69	69.8
201.909	-30.55
202.128	4.27
202.347	104.62
202.566	-34.64
202.785	24.75
203.004	-16.21
203.223	18.6
203.442	20.65
203.661	12.46
203.879	18.6
204.098	80.04
204.317	-1.88
204.536	67.75
204.755	-10.07
204.974	67.75
205.193	55.47
205.411	45.23
205.63	-26.45
205.849	-1.88
206.068	6.31
206.287	6.31
206.505	41.13
206.724	6.31
206.943	-28.5
207.162	-112.47
207.381	6.31
207.599	4.27
207.818	-20.31
208.037	43.18
208.255	-53.08
208.474	6.31
208.693	65.71
208.911	-30.55
209.13	28.84
209.349	34.99
209.567	8.36
209.786	14.51
210.005	-12.12
210.223	10.41
210.442	-3.93
210.661	12.46
210.879	22.7
211.098	6.31
211.316	-55.12
211.535	12.46
211.753	47.27
211.972	92.33
212.191	0.17
212.409	12.46
212.628	-71.51
212.846	32.94
213.065	22.7
213.283	94.38
213.502	65.71
213.72	-10.07
213.938	-44.88
214.157	43.18
214.375	-3.93
214.594	61.61
214.812	57.51
215.031	73.9
215.249	16.55
215.467	-42.84
215.686	84.14
215.904	98.47
216.122	-18.26
216.341	73.9
216.559	-10.07
216.778	30.89
216.996	18.6
217.214	-26.45
217.432	-8.02
217.651	-3.93
217.869	37.03
218.087	30.89
218.306	-10.07
218.524	63.66
218.742	10.41
218.96	102.57
219.179	-40.79
219.397	71.85
219.615	30.89
219.833	-26.45
220.051	43.18
220.27	94.38
220.488	22.7
220.706	22.7
220.924	-14.17
221.142	22.7
221.36	71.85
221.578	37.03
221.796	10.41
222.015	67.75
222.233	12.46
222.451	108.71
222.669	-1.88
222.887	-36.69
223.105	-10.07
223.323	6.31
223.541	-14.17
223.759	22.7
223.977	30.89
224.195	63.66
224.413	67.75
224.631	4.27
224.849	12.46
225.067	67.75
225.285	61.61
225.503	34.99
225.721	-34.64
225.939	16.55
226.157	-24.4
226.375	92.33
226.592	20.65
226.81	0.17
227.028	53.42
227.246	57.51
227.464	30.89
227.682	49.32
227.9	86.19
228.117	75.95
228.335	-51.03
228.553	63.66
228.771	-36.69
228.989	26.79
229.206	-12.12
229.424	-14.17
229.642	-32.6
229.86	45.23
230.077	90.28
230.295	88.23
230.513	55.47
230.731	-59.22
230.948	47.27
231.166	41.13
231.384	39.08
231.601	63.66
231.819	14.51
232.037	24.75
232.254	37.03
232.472	-30.55
232.689	-12.12
232.907	51.37
233.125	22.7
233.342	0.17
233.56	-1.88
233.777	55.47
233.995	-30.55
234.213	18.6
234.43	28.84
234.648	39.08
234.865	53.42
235.083	34.99
235.3	37.03
235.518	18.6
235.735	55.47
235.953	32.94
236.17	12.46
236.388	28.84
236.605	-46.93
236.822	37.03
237.04	-20.31
237.257	30.89
237.475	22.7
237.692	22.7
237.909	-34.64
238.127	-34.64
238.344	-12.12
238.562	16.55
238.779	30.89
238.996	133.29
239.214	-104.28
239.431	100.52
239.648	4.27
239.865	0.17
240.083	41.13
240.3	34.99
240.517	-34.64
240.735	43.18
240.952	22.7
241.169	47.27
241.386	6.31
241.603	45.23
241.821	6.31
242.038	-28.5
242.255	45.23
242.472	73.9
242.689	47.27
242.907	14.51
243.124	39.08
243.341	-20.31
243.558	-42.84
243.775	-18.26
243.992	-77.65
244.209	-5.97
244.426	98.47
244.643	71.85
244.86	71.85
245.078	71.85
245.295	6.31
245.512	39.08
245.729	-30.55
245.946	53.42
246.163	6.31
246.38	57.51
246.597	-30.55
246.814	-32.6
247.031	28.84
247.248	26.79
247.464	14.51
247.681	-20.31
247.898	55.47
248.115	-5.97
248.332	-12.12
248.549	20.65
248.766	18.6
248.983	30.89
249.2	51.37
249.417	34.99
249.633	45.23
249.85	22.7
250.067	-1.88
250.284	2.22
250.501	-14.17
250.717	18.6
250.934	-16.21
251.151	-16.21
251.368	82.09
251.585	-1.88
251.801	45.23
252.018	63.66
252.235	-40.79
252.451	86.19
252.668	43.18
252.885	-44.88
253.102	-1.88
253.318	90.28
253.535	-16.21
253.752	-28.5
253.968	16.55
254.185	22.7
254.401	18.6
254.618	45.23
254.835	16.55
255.051	51.37
255.268	20.65
255.484	14.51
255.701	-30.55
255.917	63.66
256.134	-12.12
256.351	8.36
256.567	6.31
256.784	-73.56
257	-18.26
257.217	32.94
257.433	53.42
257.65	104.62
257.866	16.55
258.082	-16.21
258.299	0.17
258.515	26.79
258.732	-22.36
258.948	59.56
259.165	14.51
259.381	22.7
259.597	-28.5
259.814	90.28
260.03	10.41
260.246	43.18
260.463	75.95
260.679	30.89
260.895	26.79
261.112	32.94
261.328	8.36
261.544	-5.97
261.761	-14.17
261.977	16.55
262.193	20.65
262.409	118.95
262.626	75.95
262.842	53.42
263.058	-30.55
263.274	10.41
263.49	24.75
263.707	10.41
263.923	16.55
264.139	-8.02
264.355	16.55
264.571	121
264.787	-14.17
265.004	12.46
265.22	45.23
265.436	10.41
265.652	82.09
265.868	18.6
266.084	55.47
266.3	57.51
266.516	18.6
266.732	6.31
266.948	28.84
267.164	0.17
267.38	14.51
267.596	49.32
267.812	61.61
268.028	-1.88
268.244	-108.37
268.46	-36.69
268.676	-26.45
268.892	-18.26
269.108	47.27
269.324	47.27
269.54	8.36
269.756	94.38
269.972	22.7
270.188	30.89
270.403	131.24
270.619	34.99
270.835	-28.5
271.051	22.7
271.267	77.99
271.483	-75.6
271.698	-1.88
271.914	71.85
272.13	41.13
272.346	51.37
272.562	61.61
272.777	32.94
272.993	-10.07
273.209	-59.22
273.425	32.94
273.64	-34.64
273.856	37.03
274.072	20.65
274.287	2.22
274.503	8.36
274.719	106.67
274.934	65.71
275.15	43.18
275.366	-26.45
275.581	-10.07
275.797	-22.36
276.012	39.08
276.228	10.41
276.444	6.31
276.659	55.47
276.875	24.75
277.09	8.36
277.306	-5.97
277.521	-28.5
277.737	18.6
277.952	39.08
278.168	18.6
278.383	12.46
278.599	-8.02
278.814	-22.36
279.03	-1.88
279.245	37.03
279.461	-12.12
279.676	39.08
279.892	47.27
280.107	37.03
280.322	8.36
280.538	47.27
280.753	8.36
280.969	43.18
281.184	6.31
281.399	86.19
281.615	51.37
281.83	47.27
282.045	-10.07
282.26	-22.36
282.476	61.61
282.691	82.09
282.906	104.62
283.122	6.31
283.337	-16.21
283.552	49.32
283.767	55.47
283.983	28.84
284.198	-16.21
284.413	59.56
284.628	-3.93
284.843	51.37
285.058	12.46
285.274	-30.55
285.489	43.18
285.704	55.47
285.919	22.7
286.134	94.38
286.349	-32.6
286.564	18.6
286.779	10.41
286.995	-26.45
287.21	20.65
287.425	51.37
287.64	-32.6
287.855	12.46
288.07	57.51
288.285	22.7
288.5	96.43
288.715	32.94
288.93	12.46
289.145	-1.88
289.36	37.03
289.575	71.85
289.79	2.22
290.004	-10.07
290.219	18.6
290.434	67.75
290.649	34.99
290.864	67.75
291.079	-48.98
291.294	-67.41
291.509	22.7
291.724	37.03
291.938	71.85
292.153	-28.5
292.368	18.6
292.583	53.42
292.798	-26.45
293.012	45.23
293.227	96.43
293.442	114.86
293.657	34.99
293.871	59.56
294.086	82.09
294.301	80.04
294.516	26.79
294.73	18.6
294.945	10.41
295.16	71.85
295.374	34.99
295.589	2.22
295.804	-30.55
296.018	53.42
296.233	37.03
296.447	-1.88
296.662	22.7
296.877	30.89
297.091	65.71
297.306	59.56
297.52	-26.45
297.735	39.08
297.949	6.31
298.164	10.41
298.378	28.84
298.593	-20.31
298.807	4.27
299.022	8.36
299.236	8.36
299.451	135.34
299.665	-5.97
299.88	43.18
300.094	22.7
300.309	-3.93
300.523	30.89
300.737	24.75
300.952	61.61
301.166	51.37
301.381	-1.88
301.595	12.46
301.809	45.23
302.024	-3.93
302.238	28.84
302.452	69.8
302.667	51.37
302.881	51.37
303.095	14.51
303.309	-3.93
303.524	63.66
303.738	18.6
303.952	34.99
304.166	37.03
304.381	69.8
304.595	135.34
304.809	2.22
305.023	26.79
305.237	20.65
305.452	63.66
305.666	-16.21
305.88	53.42
306.094	53.42
306.308	51.37
306.522	57.51
306.736	-20.31
306.95	-83.8
307.164	30.89
307.379	-24.4
307.593	47.27
307.807	-40.79
308.021	94.38
308.235	22.7
308.449	-34.64
308.663	28.84
308.877	20.65
309.091	37.03
309.305	65.71
309.519	4.27
309.733	-3.93
309.947	-5.97
310.161	53.42
310.374	32.94
310.588	71.85
310.802	10.41
311.016	26.79
311.23	51.37
311.444	75.95
311.658	-5.97
311.872	71.85
312.085	14.51
312.299	88.23
312.513	69.8
312.727	-1.88
312.941	-32.6
313.154	-10.07
313.368	18.6
313.582	10.41
313.796	-1.88
314.009	-14.17
314.223	57.51
314.437	90.28
314.651	69.8
314.864	24.75
315.078	8.36
315.292	-18.26
315.505	34.99
315.719	43.18
315.933	-18.26
316.146	37.03
316.36	43.18
316.573	61.61
316.787	37.03
317.001	24.75
317.214	6.31
317.428	59.56
317.641	0.17
317.855	75.95
318.068	47.27
318.282	22.7
318.495	-1.88
318.709	37.03
318.922	-20.31
319.136	90.28
319.349	49.32
319.563	6.31
319.776	71.85
319.99	47.27
320.203	63.66
320.417	82.09
320.63	-20.31
320.843	63.66
321.057	55.47
321.27	43.18
321.483	80.04
321.697	75.95
321.91	43.18
322.124	-1.88
322.337	-22.36
322.55	12.46
322.763	4.27
322.977	88.23
323.19	45.23
323.403	63.66
323.617	22.7
323.83	30.89
324.043	-42.84
324.256	55.47
324.469	-1.88
324.683	73.9
324.896	67.75
325.109	108.71
325.322	32.94
325.535	39.08
325.748	24.75
325.962	34.99
326.175	-20.31
326.388	80.04
326.601	-26.45
326.814	14.51
327.027	51.37
327.24	59.56
327.453	16.55
327.666	2.22
327.879	28.84
328.092	125.1
328.305	41.13
328.518	77.99
328.731	-10.07
328.944	24.75
329.157	14.51
329.37	-22.36
329.583	39.08
329.796	43.18
330.009	-38.74
330.222	51.37
330.435	41.13
330.648	28.84
330.861	20.65
331.073	-55.12
331.286	0.17
331.499	30.89
331.712	61.61
331.925	39.08
332.138	55.47
332.35	18.6
332.563	63.66
332.776	131.24
332.989	71.85
333.202	22.7
333.414	30.89
333.627	59.56
333.84	-42.84
334.053	30.89
334.265	28.84
334.478	37.03
334.691	14.51
334.903	80.04
335.116	-44.88
335.329	90.28
335.541	184.49
335.754	43.18
335.966	39.08
336.179	32.94
336.392	30.89
336.604	37.03
336.817	22.7
337.029	69.8
337.242	20.65
337.454	0.17
337.667	-91.99
337.88	65.71
338.092	28.84
338.305	6.31
338.517	12.46
338.729	-16.21
338.942	49.32
339.154	82.09
339.367	12.46
339.579	53.42
339.792	59.56
340.004	14.51
340.217	-42.84
340.429	24.75
340.641	-51.03
340.854	-8.02
341.066	45.23
341.278	39.08
341.491	84.14
341.703	88.23
341.915	71.85
342.128	127.14
342.34	-5.97
342.552	0.17
342.764	10.41
342.977	104.62
343.189	0.17
343.401	69.8
343.613	24.75
343.826	-3.93
344.038	34.99
344.25	59.56
344.462	24.75
344.674	51.37
344.886	28.84
345.099	57.51
345.311	55.47
345.523	86.19
345.735	-5.97
345.947	-61.27
346.159	30.89
346.371	43.18
346.583	34.99
346.795	-1.88
347.007	20.65
347.219	43.18
347.431	26.79
347.643	37.03
347.855	28.84
348.067	55.47
348.279	22.7
348.491	37.03
348.703	43.18
348.915	53.42
349.127	75.95
349.339	45.23
349.551	-42.84
349.763	75.95
349.975	-32.6
350.187	-20.31
350.399	20.65
350.61	6.31
350.822	2.22
351.034	55.47
351.246	-5.97
351.458	88.23
351.669	61.61
351.881	75.95
352.093	-30.55
352.305	34.99
352.517	92.33
352.728	86.19
352.94	69.8
353.152	57.51
353.363	-22.36
353.575	102.57
353.787	49.32
353.999	22.7
354.21	28.84
354.422	22.7
354.633	-1.88
354.845	71.85
355.057	71.85
355.268	16.55
355.48	20.65
355.692	16.55
355.903	-26.45
356.115	16.55
356.326	-55.12
356.538	39.08
356.749	75.95
356.961	73.9
357.172	-5.97
357.384	12.46
357.595	55.47
357.807	18.6
358.018	30.89
358.23	63.66
358.441	37.03
358.653	67.75
358.864	37.03
359.075	88.23
359.287	-18.26
359.498	104.62
359.709	47.27
359.921	-16.21
360.132	-10.07
360.344	8.36
360.555	-65.36
360.766	118.95
360.977	28.84
361.189	28.84
361.4	63.66
361.611	22.7
361.823	-16.21
362.034	12.46
362.245	18.6
362.456	59.56
362.667	110.76
362.879	39.08
363.09	-20.31
363.301	65.71
363.512	-8.02
363.723	-10.07
363.935	16.55
364.146	55.47
364.357	10.41
364.568	22.7
364.779	18.6
364.99	-1.88
365.201	37.03
365.412	0.17
365.623	4.27
365.834	4.27
366.045	16.55
366.256	41.13
366.467	47.27
366.678	53.42
366.889	-26.45
367.1	98.47
367.311	47.27
367.522	-22.36
367.733	47.27
367.944	12.46
368.155	98.47
368.366	69.8
368.577	55.47
368.788	59.56
368.999	20.65
369.209	24.75
369.42	-26.45
369.631	86.19
369.842	47.27
370.053	61.61
370.264	-10.07
370.474	121
370.685	2.22
370.896	34.99
371.107	6.31
371.317	90.28
371.528	20.65
371.739	30.89
371.95	49.32
372.16	90.28
372.371	47.27
372.582	159.91
372.792	49.32
373.003	-22.36
373.214	26.79
373.424	61.61
373.635	57.51
373.846	20.65
374.056	55.47
374.267	65.71
374.477	24.75
374.688	24.75
374.898	82.09
375.109	47.27
375.319	30.89
375.53	110.76
375.74	77.99
375.951	45.23
376.161	37.03
376.372	37.03
376.582	-20.31
376.793	75.95
377.003	-44.88
377.214	-5.97
377.424	88.23
377.635	104.62
377.845	8.36
378.055	53.42
378.266	96.43
378.476	22.7
378.686	28.84
378.897	28.84
379.107	37.03
379.317	26.79
379.528	47.27
379.738	77.99
379.948	-26.45
380.158	43.18
380.369	59.56
380.579	141.48
380.789	125.1
380.999	53.42
381.21	63.66
381.42	90.28
381.63	10.41
381.84	88.23
382.05	100.52
382.261	51.37
382.471	75.95
382.681	59.56
382.891	37.03
383.101	75.95
383.311	22.7
383.521	6.31
383.731	30.89
383.941	92.33
384.151	100.52
384.361	82.09
384.571	94.38
384.781	-16.21
384.991	69.8
385.201	4.27
385.411	86.19
385.621	59.56
385.831	57.51
386.041	28.84
386.251	26.79
386.461	77.99
386.671	39.08
386.881	12.46
387.091	55.47
387.301	102.57
387.511	71.85
387.72	69.8
387.93	14.51
388.14	-12.12
388.35	6.31
388.56	133.29
388.769	86.19
388.979	16.55
389.189	69.8
389.399	61.61
389.609	22.7
389.818	67.75
390.028	14.51
390.238	-42.84
390.447	-18.26
390.657	-22.36
390.867	6.31
391.076	0.17
391.286	39.08
391.496	32.94
391.705	-3.93
391.915	125.1
392.125	51.37
392.334	43.18
392.544	49.32
392.753	28.84
392.963	39.08
393.172	69.8
393.382	43.18
393.591	63.66
393.801	26.79
394.01	118.95
394.22	47.27
394.429	22.7
394.639	22.7
394.848	112.81
395.058	108.71
395.267	63.66
395.477	104.62
395.686	67.75
395.895	63.66
396.105	28.84
396.314	28.84
396.524	108.71
396.733	77.99
396.942	104.62
397.152	30.89
397.361	55.47
397.57	121
397.78	53.42
397.989	96.43
398.198	98.47
398.407	43.18
398.617	121
398.826	53.42
399.035	172.2
399.244	47.27
399.453	86.19
399.663	100.52
399.872	106.67
400.081	90.28
400.29	121
400.499	133.29
400.708	88.23
400.917	43.18
401.127	92.33
401.336	137.38
401.545	69.8
401.754	102.57
401.963	141.48
402.172	86.19
402.381	59.56
402.59	143.53
402.799	75.95
403.008	168.1
403.217	98.47
403.426	108.71
403.635	121
403.844	102.57
404.053	137.38
404.262	166.06
404.471	145.58
404.68	145.58
404.888	98.47
405.097	121
405.306	131.24
405.515	108.71
405.724	196.78
405.933	186.54
406.142	153.77
406.35	190.63
406.559	168.1
406.768	194.73
406.977	141.48
407.185	194.73
407.394	221.35
407.603	151.72
407.812	194.73
408.02	211.11
408.229	207.02
408.438	219.3
408.646	237.74
408.855	213.16
409.064	254.12
409.272	229.54
409.481	192.68
409.69	303.27
409.898	198.82
410.107	307.37
410.315	309.41
410.524	293.03
410.733	333.99
410.941	348.33
411.15	327.85
411.358	338.09
411.567	393.38
411.775	448.68
411.984	368.81
412.192	479.4
412.401	385.19
412.609	417.96
412.818	534.69
413.026	460.96
413.234	530.59
413.443	428.2
413.651	495.78
413.86	473.25
414.068	499.88
414.276	583.84
414.485	581.79
414.693	637.09
414.901	669.86
415.11	725.15
415.318	612.51
415.526	755.87
415.734	702.62
415.943	696.48
416.151	723.1
416.359	817.31
416.567	807.07
416.776	915.61
416.984	936.09
417.192	872.61
417.4	921.76
417.608	1007.77
417.817	940.19
418.025	954.52
418.233	1177.75
418.441	1120.41
418.649	1169.56
418.857	1165.46
419.065	1339.54
419.273	1185.94
419.481	1382.55
419.689	1349.78
419.897	1566.87
420.105	1460.37
420.313	1513.62
420.521	1552.53
420.729	1679.51
420.937	1695.89
421.145	1691.79
421.353	1718.42
421.561	1904.78
421.769	1816.72
421.977	2029.71
422.185	2001.04
422.393	2144.39
422.601	2205.83
422.809	2328.71
423.017	2289.8
423.224	2271.37
423.432	2381.96
423.64	2455.69
423.848	2689.15
424.056	2676.87
424.263	2799.74
424.471	2812.03
424.679	2732.16
424.887	3010.68
425.094	3104.89
425.302	3061.88
425.51	3256.44
425.718	3295.35
425.925	3348.6
426.133	3381.37
426.341	3713.14
426.548	3711.09
426.756	3776.63
426.964	3844.21
427.171	4247.66
427.379	4165.74
427.586	4280.43
427.794	4333.67
428.001	4597.86
428.209	4808.8
428.417	4558.95
428.624	5025.89
428.832	5032.03
429.039	5077.09
429.247	5032.03
429.454	5517.4
429.662	5785.68
429.869	5541.97
430.076	5883.98
430.284	5732.44
430.491	6039.63
430.699	6148.17
430.906	6336.59
431.114	6416.46
431.321	6475.85
431.528	6682.69
431.736	7247.93
431.943	7454.78
432.15	7419.96
432.358	7278.65
432.565	7938.1
432.772	7682.1
432.979	8185.9
433.187	8300.59
433.394	8362.03
433.601	8919.07
433.808	8935.46
434.016	9023.52
434.223	9197.6
434.43	9807.89
434.637	9840.66
434.844	10354.7
435.052	10569.74
435.259	10203.15
435.466	10385.42
435.673	10358.8
435.88	10940.42
436.087	11591.67
436.294	11636.73
436.501	11345.92
436.708	11642.87
436.915	11921.4
437.122	12611.56
437.329	12500.97
437.537	13017.06
437.743	12994.53
437.95	12953.57
438.157	13707.23
438.364	14125.01
438.571	14030.8
438.778	14071.76
438.985	15519.68
439.192	14897.1
439.399	15339.46
439.606	15187.91
439.813	15992.76
440.02	16803.75
440.227	16545.71
440.433	16293.81
440.64	17110.95
440.847	16885.67
441.054	17323.94
441.261	18360.21
441.467	18323.35
441.674	18329.49
441.881	19011.46
442.088	19107.72
442.294	18882.44
442.501	19451.78
442.708	19828.6
442.914	20668.27
443.121	21727.07
443.328	20868.97
443.534	22386.52
443.741	21747.55
443.948	21143.4
444.154	23244.62
444.361	22765.39
444.568	23029.58
444.774	23410.5
444.981	23670.59
445.187	24012.6
445.394	25186.09
445.6	24747.83
445.807	26951.44
446.013	25980.7
446.22	26806.03
446.426	27506.44
446.633	27629.32
446.839	28804.85
447.046	27209.48
447.252	28808.95
447.459	28978.93
447.665	28735.22
447.871	30011.1
448.078	31561.42
448.284	30017.25
448.491	30729.94
448.697	31989.44
448.903	32603.83
449.11	32784.05
449.316	31952.58
449.522	33152.69
449.728	33373.87
449.935	33795.75
450.141	33873.57
450.347	34512.54
450.553	33140.4
450.76	33654.44
450.966	35083.92
451.172	34553.5
451.378	35528.33
451.584	34623.13
451.791	35165.84
451.997	35331.73
452.203	35937.93
452.409	35464.85
452.615	35974.79
452.821	34360.99
453.027	33822.37
453.233	35794.57
453.44	34395.81
453.646	35139.22
453.852	35079.83
454.058	35258
454.264	34647.71
454.47	35552.91
454.676	34111.14
454.882	35604.11
455.088	32661.18
455.294	33103.54
455.5	33377.97
455.705	33691.3
455.911	32214.72
456.117	31776.45
456.323	31121.1
456.529	29458.15
456.735	30643.93
456.941	29978.34
457.147	29339.37
457.352	28593.91
457.558	28622.58
457.764	28944.11
457.97	28016.38
458.176	27238.16
458.381	27191.05
458.587	25882.4
458.793	25685.79
458.999	24717.11
459.204	26443.54
459.41	25743.14
459.616	23822.14
459.821	23807.81
460.027	23641.92
460.233	23340.87
460.438	22107.99
460.644	22548.31
460.85	21522.27
461.055	21178.22
461.261	20799.34
461.466	19539.84
461.672	18599.82
461.878	20133.75
462.083	19027.85
462.289	18700.17
462.494	18284.44
462.7	17461.15
462.905	17026.98
463.111	17581.98
463.316	17852.31
463.522	17375.14
463.727	17330.08
463.932	17373.09
464.138	17246.12
464.343	17266.6
464.549	16805.8
464.754	17213.35
464.959	17203.11
465.165	17016.74
465.37	15931.32
465.575	15556.54
465.781	16672.68
465.986	16807.85
466.191	16011.19
466.397	15804.35
466.602	14817.22
466.807	15474.62
467.012	15335.36
467.218	15237.06
467.423	15204.29
467.628	15464.38
