Data from USB4F104151__6__11-36-20-448.txt Node

Date: Fri Mar 14 11:36:20 EDT 2025
User: louis
Spectrometer: USB4F10415
Trigger mode: 4
Integration Time (sec): 2.000000E-2
Scans to average: 1
Electric dark correction enabled: true
Nonlinearity correction enabled: false
Boxcar width: 0
XAxis mode: Wavelengths
Number of Pixels in Spectrum: 3648
>>>>>Begin Spectral Data<<<<<
178.204	-13.31
178.424	-13.31
178.644	-13.31
178.864	-37.89
179.084	-99.33
179.304	-44.03
179.524	15.36
179.744	37.89
179.964	35.84
180.184	19.46
180.404	46.08
180.624	-19.46
180.844	-5.12
181.064	-25.6
181.283	-13.31
181.503	-48.13
181.723	1.02
181.943	-64.51
182.163	27.65
182.383	25.6
182.602	13.31
182.822	50.18
183.042	70.65
183.262	3.07
183.482	99.33
183.701	-11.26
183.921	25.6
184.141	-23.55
184.361	35.84
184.58	27.65
184.8	-52.22
185.02	54.27
185.239	50.18
185.459	-11.26
185.679	19.46
185.898	-50.18
186.118	19.46
186.338	-37.89
186.557	-9.22
186.777	27.65
186.997	125.95
187.216	15.36
187.436	84.99
187.655	54.27
187.875	25.6
188.095	29.7
188.314	13.31
188.534	39.94
188.753	56.32
188.973	60.42
189.192	119.81
189.412	-54.27
189.631	93.18
189.851	33.79
190.07	33.79
190.29	1.02
190.509	23.55
190.729	-3.07
190.948	29.7
191.168	46.08
191.387	29.7
191.607	17.41
191.826	-52.22
192.045	-5.12
192.265	64.51
192.484	41.98
192.704	25.6
192.923	13.31
193.142	70.65
193.362	41.98
193.581	87.04
193.8	21.5
194.02	33.79
194.239	-3.07
194.458	58.37
194.678	46.08
194.897	-13.31
195.116	-3.07
195.335	1.02
195.555	95.23
195.774	-39.94
195.993	-9.22
196.212	70.65
196.432	-21.5
196.651	-3.07
196.87	19.46
197.089	74.75
197.308	27.65
197.528	46.08
197.747	58.37
197.966	70.65
198.185	121.85
198.404	48.13
198.623	80.89
198.842	41.98
199.062	11.26
199.281	35.84
199.5	11.26
199.719	82.94
199.938	39.94
200.157	68.61
200.376	-37.89
200.595	48.13
200.814	11.26
201.033	-27.65
201.252	-11.26
201.471	76.8
201.69	103.42
201.909	37.89
202.128	44.03
202.347	54.27
202.566	9.22
202.785	-23.55
203.004	-48.13
203.223	107.52
203.442	58.37
203.661	93.18
203.879	46.08
204.098	39.94
204.317	-35.84
204.536	46.08
204.755	-3.07
204.974	-9.22
205.193	93.18
205.411	37.89
205.63	48.13
205.849	33.79
206.068	72.7
206.287	3.07
206.505	58.37
206.724	-5.12
206.943	-27.65
207.162	25.6
207.381	-3.07
207.599	-7.17
207.818	-11.26
208.037	93.18
208.255	21.5
208.474	5.12
208.693	-19.46
208.911	23.55
209.13	-11.26
209.349	56.32
209.567	21.5
209.786	50.18
210.005	3.07
210.223	70.65
210.442	-31.74
210.661	68.61
210.879	13.31
211.098	74.75
211.316	62.46
211.535	56.32
211.753	-33.79
211.972	54.27
212.191	-23.55
212.409	130.05
212.628	-21.5
212.846	82.94
213.065	-3.07
213.283	9.22
213.502	-27.65
213.72	74.75
213.938	9.22
214.157	-13.31
214.375	11.26
214.594	5.12
214.812	62.46
215.031	-35.84
215.249	87.04
215.467	-9.22
215.686	17.41
215.904	5.12
216.122	56.32
216.341	93.18
216.559	48.13
216.778	21.5
216.996	41.98
217.214	89.09
217.432	1.02
217.651	9.22
217.869	25.6
218.087	15.36
218.306	21.5
218.524	-11.26
218.742	11.26
218.96	-23.55
219.179	27.65
219.397	29.7
219.615	13.31
219.833	44.03
220.051	-41.98
220.27	1.02
220.488	91.13
220.706	44.03
220.924	60.42
221.142	37.89
221.36	7.17
221.578	54.27
221.796	37.89
222.015	74.75
222.233	105.47
222.451	7.17
222.669	3.07
222.887	3.07
223.105	15.36
223.323	35.84
223.541	-35.84
223.759	54.27
223.977	35.84
224.195	33.79
224.413	37.89
224.631	35.84
224.849	-17.41
225.067	35.84
225.285	11.26
225.503	66.56
225.721	56.32
225.939	70.65
226.157	41.98
226.375	72.7
226.592	46.08
226.81	50.18
227.028	-3.07
227.246	39.94
227.464	-21.5
227.682	82.94
227.9	35.84
228.117	35.84
228.335	-1.02
228.553	-23.55
228.771	25.6
228.989	46.08
229.206	5.12
229.424	23.55
229.642	-29.7
229.86	5.12
230.077	39.94
230.295	-9.22
230.513	58.37
230.731	17.41
230.948	54.27
231.166	19.46
231.384	9.22
231.601	25.6
231.819	35.84
232.037	54.27
232.254	64.51
232.472	44.03
232.689	39.94
232.907	46.08
233.125	25.6
233.342	9.22
233.56	-13.31
233.777	-68.61
233.995	48.13
234.213	62.46
234.43	54.27
234.648	62.46
234.865	21.5
235.083	68.61
235.3	-3.07
235.518	60.42
235.735	37.89
235.953	82.94
236.17	17.41
236.388	23.55
236.605	109.57
236.822	58.37
237.04	1.02
237.257	13.31
237.475	41.98
237.692	21.5
237.909	29.7
238.127	25.6
238.344	41.98
238.562	31.74
238.779	3.07
238.996	-13.31
239.214	54.27
239.431	-1.02
239.648	46.08
239.865	31.74
240.083	66.56
240.3	62.46
240.517	-3.07
240.735	11.26
240.952	15.36
241.169	74.75
241.386	5.12
241.603	-39.94
241.821	-29.7
242.038	33.79
242.255	44.03
242.472	9.22
242.689	80.89
242.907	44.03
243.124	72.7
243.341	15.36
243.558	89.09
243.775	5.12
243.992	46.08
244.209	44.03
244.426	140.29
244.643	29.7
244.86	-15.36
245.078	29.7
245.295	29.7
245.512	25.6
245.729	27.65
245.946	123.9
246.163	21.5
246.38	-35.84
246.597	27.65
246.814	25.6
247.031	54.27
247.248	56.32
247.464	19.46
247.681	119.81
247.898	50.18
248.115	-33.79
248.332	54.27
248.549	41.98
248.766	44.03
248.983	37.89
249.2	19.46
249.417	93.18
249.633	68.61
249.85	23.55
250.067	27.65
250.284	74.75
250.501	130.05
250.717	46.08
250.934	29.7
251.151	29.7
251.368	37.89
251.585	74.75
251.801	-3.07
252.018	-19.46
252.235	-3.07
252.451	17.41
252.668	37.89
252.885	15.36
253.102	87.04
253.318	80.89
253.535	31.74
253.752	91.13
253.968	-60.42
254.185	62.46
254.401	-35.84
254.618	-11.26
254.835	1.02
255.051	113.66
255.268	95.23
255.484	93.18
255.701	70.65
255.917	136.19
256.134	99.33
256.351	52.22
256.567	25.6
256.784	13.31
257	48.13
257.217	78.85
257.433	50.18
257.65	31.74
257.866	115.71
258.082	1.02
258.299	35.84
258.515	11.26
258.732	-23.55
258.948	50.18
259.165	29.7
259.381	54.27
259.597	93.18
259.814	-15.36
260.03	33.79
260.246	1.02
260.463	58.37
260.679	-5.12
260.895	54.27
261.112	66.56
261.328	-31.74
261.544	56.32
261.761	-5.12
261.977	5.12
262.193	-35.84
262.409	21.5
262.626	33.79
262.842	54.27
263.058	-1.02
263.274	3.07
263.49	52.22
263.707	21.5
263.923	68.61
264.139	-13.31
264.355	-48.13
264.571	78.85
264.787	41.98
265.004	46.08
265.22	52.22
265.436	50.18
265.652	46.08
265.868	37.89
266.084	-72.7
266.3	87.04
266.516	62.46
266.732	25.6
266.948	60.42
267.164	50.18
267.38	35.84
267.596	-9.22
267.812	21.5
268.028	-44.03
268.244	13.31
268.46	68.61
268.676	62.46
268.892	74.75
269.108	-1.02
269.324	15.36
269.54	17.41
269.756	11.26
269.972	60.42
270.188	29.7
270.403	-7.17
270.619	68.61
270.835	62.46
271.051	93.18
271.267	3.07
271.483	21.5
271.698	1.02
271.914	68.61
272.13	23.55
272.346	5.12
272.562	50.18
272.777	97.28
272.993	44.03
273.209	44.03
273.425	84.99
273.64	11.26
273.856	52.22
274.072	9.22
274.287	-37.89
274.503	27.65
274.719	21.5
274.934	-19.46
275.15	-15.36
275.366	-21.5
275.581	27.65
275.797	105.47
276.012	66.56
276.228	68.61
276.444	17.41
276.659	66.56
276.875	-5.12
277.09	21.5
277.306	-17.41
277.521	66.56
277.737	7.17
277.952	15.36
278.168	93.18
278.383	21.5
278.599	91.13
278.814	33.79
279.03	66.56
279.245	101.37
279.461	144.38
279.676	-80.89
279.892	78.85
280.107	9.22
280.322	-5.12
280.538	11.26
280.753	50.18
280.969	46.08
281.184	76.8
281.399	31.74
281.615	54.27
281.83	35.84
282.045	-3.07
282.26	56.32
282.476	25.6
282.691	5.12
282.906	31.74
283.122	-11.26
283.337	-13.31
283.552	80.89
283.767	58.37
283.983	91.13
284.198	-3.07
284.413	50.18
284.628	33.79
284.843	70.65
285.058	-11.26
285.274	27.65
285.489	9.22
285.704	84.99
285.919	87.04
286.134	1.02
286.349	19.46
286.564	60.42
286.779	54.27
286.995	41.98
287.21	-3.07
287.425	89.09
287.64	9.22
287.855	64.51
288.07	37.89
288.285	41.98
288.5	72.7
288.715	21.5
288.93	27.65
289.145	103.42
289.36	74.75
289.575	50.18
289.79	41.98
290.004	33.79
290.219	1.02
290.434	27.65
290.649	50.18
290.864	-7.17
291.079	52.22
291.294	68.61
291.509	-23.55
291.724	46.08
291.938	11.26
292.153	31.74
292.368	39.94
292.583	46.08
292.798	25.6
293.012	95.23
293.227	21.5
293.442	74.75
293.657	33.79
293.871	97.28
294.086	-60.42
294.301	37.89
294.516	58.37
294.73	7.17
294.945	44.03
295.16	82.94
295.374	87.04
295.589	68.61
295.804	87.04
296.018	119.81
296.233	37.89
296.447	-37.89
296.662	78.85
296.877	-62.46
297.091	37.89
297.306	15.36
297.52	31.74
297.735	72.7
297.949	56.32
298.164	89.09
298.378	-19.46
298.593	13.31
298.807	19.46
299.022	89.09
299.236	66.56
299.451	52.22
299.665	-3.07
299.88	-21.5
300.094	78.85
300.309	171.01
300.523	50.18
300.737	46.08
300.952	95.23
301.166	89.09
301.381	-3.07
301.595	52.22
301.809	9.22
302.024	46.08
302.238	27.65
302.452	87.04
302.667	70.65
302.881	21.5
303.095	105.47
303.309	72.7
303.524	21.5
303.738	44.03
303.952	13.31
304.166	66.56
304.381	37.89
304.595	93.18
304.809	54.27
305.023	27.65
305.237	-13.31
305.452	-15.36
305.666	58.37
305.88	72.7
306.094	15.36
306.308	21.5
306.522	70.65
306.736	44.03
306.95	33.79
307.164	-9.22
307.379	-19.46
307.593	68.61
307.807	50.18
308.021	52.22
308.235	62.46
308.449	-19.46
308.663	-1.02
308.877	46.08
309.091	41.98
309.305	74.75
309.519	41.98
309.733	76.8
309.947	-23.55
310.161	64.51
310.374	50.18
310.588	74.75
310.802	58.37
311.016	97.28
311.23	121.85
311.444	93.18
311.658	68.61
311.872	11.26
312.085	-29.7
312.299	25.6
312.513	78.85
312.727	50.18
312.941	44.03
313.154	54.27
313.368	23.55
313.582	-1.02
313.796	37.89
314.009	5.12
314.223	74.75
314.437	-13.31
314.651	44.03
314.864	1.02
315.078	35.84
315.292	37.89
315.505	80.89
315.719	39.94
315.933	19.46
316.146	76.8
316.36	25.6
316.573	31.74
316.787	91.13
317.001	5.12
317.214	93.18
317.428	54.27
317.641	70.65
317.855	3.07
318.068	62.46
318.282	37.89
318.495	97.28
318.709	62.46
318.922	-3.07
319.136	48.13
319.349	52.22
319.563	-31.74
319.776	87.04
319.99	-7.17
320.203	64.51
320.417	74.75
320.63	87.04
320.843	72.7
321.057	50.18
321.27	-11.26
321.483	27.65
321.697	78.85
321.91	11.26
322.124	9.22
322.337	35.84
322.55	58.37
322.763	76.8
322.977	17.41
323.19	29.7
323.403	-19.46
323.617	27.65
323.83	11.26
324.043	74.75
324.256	29.7
324.469	35.84
324.683	82.94
324.896	-19.46
325.109	62.46
325.322	21.5
325.535	27.65
325.748	62.46
325.962	3.07
326.175	44.03
326.388	70.65
326.601	82.94
326.814	31.74
327.027	60.42
327.24	107.52
327.453	15.36
327.666	35.84
327.879	117.76
328.092	33.79
328.305	87.04
328.518	19.46
328.731	25.6
328.944	33.79
329.157	89.09
329.37	-9.22
329.583	35.84
329.796	113.66
330.009	27.65
330.222	84.99
330.435	17.41
330.648	13.31
330.861	35.84
331.073	29.7
331.286	56.32
331.499	68.61
331.712	46.08
331.925	62.46
332.138	58.37
332.35	66.56
332.563	31.74
332.776	11.26
332.989	-9.22
333.202	54.27
333.414	27.65
333.627	39.94
333.84	27.65
334.053	70.65
334.265	68.61
334.478	64.51
334.691	23.55
334.903	-17.41
335.116	13.31
335.329	66.56
335.541	121.85
335.754	37.89
335.966	-23.55
336.179	37.89
336.392	25.6
336.604	95.23
336.817	-11.26
337.029	80.89
337.242	-27.65
337.454	84.99
337.667	60.42
337.88	66.56
338.092	-7.17
338.305	70.65
338.517	-3.07
338.729	76.8
338.942	58.37
339.154	33.79
339.367	-3.07
339.579	66.56
339.792	-15.36
340.004	52.22
340.217	44.03
340.429	33.79
340.641	31.74
340.854	78.85
341.066	46.08
341.278	-17.41
341.491	-27.65
341.703	33.79
341.915	37.89
342.128	23.55
342.34	44.03
342.552	33.79
342.764	54.27
342.977	50.18
343.189	39.94
343.401	82.94
343.613	46.08
343.826	76.8
344.038	35.84
344.25	84.99
344.462	54.27
344.674	15.36
344.886	27.65
345.099	39.94
345.311	25.6
345.523	95.23
345.735	-27.65
345.947	9.22
346.159	37.89
346.371	78.85
346.583	111.61
346.795	37.89
347.007	54.27
347.219	68.61
347.431	21.5
347.643	58.37
347.855	97.28
348.067	152.57
348.279	37.89
348.491	46.08
348.703	46.08
348.915	152.57
349.127	9.22
349.339	70.65
349.551	-39.94
349.763	76.8
349.975	-60.42
350.187	52.22
350.399	56.32
350.61	121.85
350.822	60.42
351.034	11.26
351.246	21.5
351.458	21.5
351.669	-27.65
351.881	25.6
352.093	103.42
352.305	23.55
352.517	62.46
352.728	33.79
352.94	25.6
353.152	87.04
353.363	7.17
353.575	70.65
353.787	74.75
353.999	39.94
354.21	105.47
354.422	39.94
354.633	35.84
354.845	89.09
355.057	66.56
355.268	-1.02
355.48	21.5
355.692	37.89
355.903	19.46
356.115	66.56
356.326	5.12
356.538	70.65
356.749	62.46
356.961	111.61
357.172	58.37
357.384	93.18
357.595	95.23
357.807	87.04
358.018	5.12
358.23	105.47
358.441	52.22
358.653	46.08
358.864	-19.46
359.075	52.22
359.287	13.31
359.498	50.18
359.709	97.28
359.921	1.02
360.132	103.42
360.344	-1.02
360.555	87.04
360.766	76.8
360.977	54.27
361.189	111.61
361.4	33.79
361.611	41.98
361.823	107.52
362.034	103.42
362.245	44.03
362.456	39.94
362.667	132.09
362.879	48.13
363.09	87.04
363.301	78.85
363.512	41.98
363.723	50.18
363.935	84.99
364.146	97.28
364.357	-33.79
364.568	76.8
364.779	27.65
364.99	23.55
365.201	29.7
365.412	54.27
365.623	1.02
365.834	5.12
366.045	74.75
366.256	5.12
366.467	101.37
366.678	46.08
366.889	113.66
367.1	84.99
367.311	68.61
367.522	97.28
367.733	99.33
367.944	119.81
368.155	74.75
368.366	68.61
368.577	64.51
368.788	78.85
368.999	11.26
369.209	95.23
369.42	64.51
369.631	82.94
369.842	58.37
370.053	76.8
370.264	93.18
370.474	54.27
370.685	41.98
370.896	78.85
371.107	-15.36
371.317	27.65
371.528	11.26
371.739	58.37
371.95	128
372.16	140.29
372.371	7.17
372.582	52.22
372.792	44.03
373.003	60.42
373.214	136.19
373.424	54.27
373.635	-3.07
373.846	95.23
374.056	101.37
374.267	72.7
374.477	68.61
374.688	35.84
374.898	33.79
375.109	70.65
375.319	56.32
375.53	54.27
375.74	84.99
375.951	25.6
376.161	27.65
376.372	44.03
376.582	-46.08
376.793	23.55
377.003	-29.7
377.214	-11.26
377.424	60.42
377.635	39.94
377.845	35.84
378.055	62.46
378.266	9.22
378.476	91.13
378.686	46.08
378.897	5.12
379.107	74.75
379.317	35.84
379.528	13.31
379.738	103.42
379.948	19.46
380.158	105.47
380.369	17.41
380.579	-1.02
380.789	80.89
380.999	80.89
381.21	37.89
381.42	111.61
381.63	76.8
381.84	119.81
382.05	60.42
382.261	97.28
382.471	68.61
382.681	5.12
382.891	99.33
383.101	1.02
383.311	64.51
383.521	54.27
383.731	13.31
383.941	74.75
384.151	97.28
384.361	119.81
384.571	95.23
384.781	52.22
384.991	13.31
385.201	128
385.411	128
385.621	87.04
385.831	74.75
386.041	50.18
386.251	25.6
386.461	60.42
386.671	89.09
386.881	101.37
387.091	62.46
387.301	89.09
387.511	93.18
387.72	15.36
387.93	183.29
388.14	-15.36
388.35	78.85
388.56	91.13
388.769	84.99
388.979	50.18
389.189	13.31
389.399	74.75
389.609	56.32
389.818	89.09
390.028	99.33
390.238	46.08
390.447	80.89
390.657	58.37
390.867	33.79
391.076	68.61
391.286	21.5
391.496	101.37
391.705	84.99
391.915	58.37
392.125	50.18
392.334	82.94
392.544	58.37
392.753	39.94
392.963	37.89
393.172	60.42
393.382	7.17
393.591	29.7
393.801	78.85
394.01	103.42
394.22	128
394.429	5.12
394.639	109.57
394.848	132.09
395.058	82.94
395.267	84.99
395.477	64.51
395.686	11.26
395.895	93.18
396.105	91.13
396.314	62.46
396.524	46.08
396.733	89.09
396.942	91.13
397.152	136.19
397.361	119.81
397.57	128
397.78	119.81
397.989	119.81
398.198	115.71
398.407	68.61
398.617	150.53
398.826	128
399.035	115.71
399.244	101.37
399.453	93.18
399.663	105.47
399.872	105.47
400.081	144.38
400.29	103.42
400.499	70.65
400.708	111.61
400.917	109.57
401.127	166.91
401.336	33.79
401.545	168.96
401.754	179.2
401.963	164.86
402.172	140.29
402.381	218.11
402.59	111.61
402.799	113.66
403.008	201.72
403.217	76.8
403.426	134.14
403.635	148.48
403.844	107.52
404.053	156.67
404.262	195.58
404.471	177.15
404.68	203.77
404.888	183.29
405.097	164.86
405.306	121.85
405.515	201.72
405.724	136.19
405.933	146.43
406.142	201.72
406.35	201.72
406.559	203.77
406.768	181.25
406.977	254.97
407.185	230.4
407.394	291.84
407.603	168.96
407.812	220.16
408.02	283.64
408.229	240.64
408.438	240.64
408.646	248.83
408.855	218.11
409.064	281.6
409.272	271.36
409.481	330.75
409.69	265.21
409.898	332.79
410.107	316.41
410.315	365.56
410.524	394.23
410.733	373.75
410.941	345.08
411.15	340.99
411.358	447.48
411.567	422.91
411.775	406.52
411.984	402.43
412.192	451.58
412.401	379.9
412.609	486.39
412.818	521.21
413.026	496.63
413.234	545.78
413.443	566.26
413.651	578.55
413.86	502.78
414.068	648.18
414.276	639.99
414.485	637.94
414.693	625.65
414.901	697.33
415.11	695.29
415.318	734.2
415.526	683
415.734	748.53
415.943	795.64
416.151	855.03
416.359	861.17
416.567	781.3
416.776	953.33
416.984	949.23
417.192	928.75
417.4	975.86
417.608	930.8
417.817	1025.01
418.025	1180.65
418.233	1215.47
418.441	1127.41
418.649	1231.85
418.857	1364.97
419.065	1350.64
419.273	1285.1
419.481	1375.21
419.689	1510.38
419.897	1645.54
420.105	1577.96
420.313	1582.06
420.521	1602.54
420.729	1672.17
420.937	1807.33
421.145	1881.06
421.353	1895.4
421.561	1926.11
421.769	1942.5
421.977	2053.09
422.185	2057.18
422.393	2192.35
422.601	2266.08
422.809	2319.32
423.017	2362.33
423.224	2477.02
423.432	2558.94
423.64	2655.19
423.848	2716.63
424.056	2671.58
424.263	2980.82
424.471	2853.84
424.679	3013.59
424.887	3027.92
425.094	3148.75
425.302	3144.66
425.51	3408.84
425.718	3464.14
425.925	3527.63
426.133	3623.88
426.341	3800.01
426.548	4088.77
426.756	3926.98
426.964	3843.01
427.171	4244.42
427.379	4469.69
427.586	4447.16
427.794	4617.15
428.001	4813.75
428.209	4983.73
428.417	4955.06
428.624	5422
428.832	5219.25
429.039	5288.88
429.247	5272.5
429.454	5784.49
429.662	6120.35
429.869	5778.34
430.076	6083.49
430.284	5856.17
430.491	6345.63
430.699	6550.43
430.906	6689.69
431.114	6671.26
431.321	7033.75
431.528	7097.24
431.736	7730.06
431.943	7895.94
432.15	7578.51
432.358	7754.63
432.565	8041.35
432.772	8067.97
432.979	8377.22
433.187	8479.61
433.394	8708.99
433.601	9288.56
433.808	9278.32
434.016	9288.56
434.223	9696.11
434.43	10306.4
434.637	10185.57
434.844	10564.45
435.052	10783.58
435.259	10703.71
435.466	11006.81
435.673	10703.71
435.88	11795.28
436.087	11998.02
436.294	12102.47
436.501	11873.1
436.708	12094.28
436.915	12370.76
437.122	13235
437.329	12774.21
437.537	13247.29
437.743	13626.16
437.95	13398.84
438.157	14293.8
438.364	14787.36
438.571	14639.9
438.778	14828.32
438.985	16048.91
439.192	15452.95
439.399	16147.21
439.606	15688.46
439.813	16376.58
440.02	17369.85
440.227	17275.64
440.433	17003.26
440.64	17885.94
440.847	17576.69
441.054	18023.15
441.261	19094.24
441.467	18969.31
441.674	19677.91
441.881	19892.94
442.088	20058.83
442.294	19927.76
442.501	20374.22
442.708	20810.43
442.914	21582.52
443.121	22608.55
443.328	21967.54
443.534	23655.06
443.741	22882.98
443.948	22500.01
444.154	24402.57
444.361	23913.11
444.568	24564.36
444.774	24150.67
444.981	24550.03
445.187	25387.64
445.394	26516.08
445.6	25889.4
445.807	28424.78
446.013	27384.41
446.22	27429.47
446.426	28666.44
446.633	28918.34
446.839	29899.32
447.046	28897.86
447.252	30388.78
447.459	30294.58
447.665	30474.8
447.871	31914.52
448.078	33301
448.284	31543.84
448.491	32315.92
448.697	33454.59
448.903	34261.49
449.11	34601.46
449.316	33640.96
449.522	34263.54
449.728	35248.61
449.935	35455.46
450.141	35664.35
450.347	36063.71
450.553	35527.14
450.76	35721.69
450.966	36901.32
451.172	36157.91
451.378	36995.53
451.584	36913.61
451.791	37593.54
451.997	37628.35
452.203	38083
452.409	38255.03
452.615	37577.15
452.821	36598.23
453.027	36098.52
453.233	38099.39
453.44	36362.71
453.646	36891.09
453.852	37190.09
454.058	37601.73
454.264	36358.61
454.47	37185.99
454.676	36469.2
454.882	37390.79
455.088	34314.74
455.294	34839.02
455.5	35504.61
455.705	35625.44
455.911	34150.9
456.117	33700.35
456.323	33372.67
456.529	31805.98
456.735	32928.27
456.941	32016.92
457.147	31697.44
457.352	30722.6
457.558	30245.43
457.764	30409.26
457.97	29264.45
458.176	28963.4
458.381	28779.08
458.587	27572.83
458.793	27753.05
458.999	26413.68
459.204	27939.41
459.41	27355.74
459.616	25492.09
459.821	25444.99
460.027	25791.09
460.233	24879.75
460.438	23605.91
460.644	24191.63
460.85	23032.48
461.055	22596.26
461.261	22647.46
461.466	20722.37
461.672	20013.77
461.878	21418.68
462.083	20189.9
462.289	19751.63
462.494	19778.26
462.7	18631.4
462.905	18316.01
463.111	18821.86
463.316	18891.49
463.522	18332.39
463.727	18481.89
463.932	18522.85
464.138	18399.98
464.343	18780.9
464.549	17742.58
464.754	18385.64
464.959	18297.58
465.165	17890.03
465.37	17326.84
465.575	16956.16
465.781	17791.73
465.986	17988.33
466.191	17079.04
466.397	16792.32
466.602	15727.38
466.807	16366.34
467.012	16622.34
467.218	16503.56
467.423	16001.8
467.628	16675.59
467.833	17017.6
468.038	16184.07
468.244	15981.32
