Data from USB4F104151__89__11-37-52-737.txt Node

Date: Fri Mar 14 11:37:52 EDT 2025
User: louis
Spectrometer: USB4F10415
Trigger mode: 4
Integration Time (sec): 2.000000E-2
Scans to average: 1
Electric dark correction enabled: true
Nonlinearity correction enabled: false
Boxcar width: 0
XAxis mode: Wavelengths
Number of Pixels in Spectrum: 3648
>>>>>Begin Spectral Data<<<<<
178.204	-30.38
178.424	-30.38
178.644	-30.38
178.864	-67.24
179.084	24.92
179.304	8.53
179.524	31.06
179.744	-63.15
179.964	12.63
180.184	2.39
180.404	29.01
180.624	24.92
180.844	33.11
181.064	-50.86
181.283	-1.71
181.503	-50.86
181.723	24.92
181.943	-18.09
182.163	78.16
182.383	59.73
182.602	43.35
182.822	72.02
183.042	14.68
183.262	33.11
183.482	49.49
183.701	61.78
183.921	61.78
184.141	-3.75
184.361	33.11
184.58	-5.8
184.8	80.21
185.02	18.77
185.239	37.2
185.459	145.75
185.679	92.5
185.898	33.11
186.118	74.07
186.338	10.58
186.557	55.64
186.777	24.92
186.997	47.44
187.216	18.77
187.436	57.68
187.655	-9.9
187.875	49.49
188.095	53.59
188.314	74.07
188.534	158.03
188.753	-5.8
188.973	2.39
189.192	37.2
189.412	8.53
189.631	78.16
189.851	65.88
190.07	90.45
190.29	59.73
190.509	104.79
190.729	-7.85
190.948	26.96
191.168	196.95
191.387	35.16
191.607	51.54
191.826	80.21
192.045	80.21
192.265	-18.09
192.484	26.96
192.704	12.63
192.923	-46.76
193.142	112.98
193.362	53.59
193.581	63.83
193.8	108.88
194.02	55.64
194.239	45.4
194.458	88.4
194.678	43.35
194.897	98.64
195.116	47.44
195.335	39.25
195.555	-9.9
195.774	16.73
195.993	53.59
196.212	72.02
196.432	-7.85
196.651	84.31
196.87	92.5
197.089	4.44
197.308	2.39
197.528	33.11
197.747	-7.85
197.966	112.98
198.185	47.44
198.404	-9.9
198.623	4.44
198.842	2.39
199.062	78.16
199.281	88.4
199.5	39.25
199.719	-22.19
199.938	47.44
200.157	106.84
200.376	74.07
200.595	-24.23
200.814	45.4
201.033	59.73
201.252	26.96
201.471	-46.76
201.69	102.74
201.909	49.49
202.128	20.82
202.347	149.84
202.566	31.06
202.785	-16.04
203.004	-9.9
203.223	127.32
203.442	45.4
203.661	29.01
203.879	63.83
204.098	53.59
204.317	-7.85
204.536	104.79
204.755	51.54
204.974	39.25
205.193	65.88
205.411	55.64
205.63	31.06
205.849	82.26
206.068	80.21
206.287	20.82
206.505	82.26
206.724	43.35
206.943	26.96
207.162	47.44
207.381	90.45
207.599	31.06
207.818	67.92
208.037	39.25
208.255	20.82
208.474	55.64
208.693	104.79
208.911	96.6
209.13	92.5
209.349	12.63
209.567	59.73
209.786	37.2
210.005	53.59
210.223	51.54
210.442	18.77
210.661	22.87
210.879	47.44
211.098	67.92
211.316	24.92
211.535	16.73
211.753	98.64
211.972	51.54
212.191	10.58
212.409	33.11
212.628	49.49
212.846	4.44
213.065	86.36
213.283	67.92
213.502	-52.91
213.72	31.06
213.938	39.25
214.157	74.07
214.375	4.44
214.594	37.2
214.812	80.21
215.031	76.12
215.249	8.53
215.467	82.26
215.686	131.41
215.904	92.5
216.122	59.73
216.341	55.64
216.559	65.88
216.778	24.92
216.996	59.73
217.214	59.73
217.432	22.87
217.651	41.3
217.869	59.73
218.087	67.92
218.306	45.4
218.524	108.88
218.742	29.01
218.96	43.35
219.179	35.16
219.397	69.97
219.615	65.88
219.833	51.54
220.051	88.4
220.27	108.88
220.488	88.4
220.706	51.54
220.924	47.44
221.142	-34.47
221.36	-46.76
221.578	4.44
221.796	-1.71
222.015	108.88
222.233	76.12
222.451	78.16
222.669	10.58
222.887	121.17
223.105	84.31
223.323	14.68
223.541	22.87
223.759	33.11
223.977	55.64
224.195	78.16
224.413	43.35
224.631	125.27
224.849	31.06
225.067	65.88
225.285	67.92
225.503	63.83
225.721	4.44
225.939	18.77
226.157	39.25
226.375	123.22
226.592	39.25
226.81	-28.33
227.028	59.73
227.246	55.64
227.464	-69.29
227.682	-5.8
227.9	24.92
228.117	41.3
228.335	61.78
228.553	-1.71
228.771	88.4
228.989	92.5
229.206	4.44
229.424	18.77
229.642	72.02
229.86	141.65
230.077	45.4
230.295	63.83
230.513	8.53
230.731	14.68
230.948	106.84
231.166	45.4
231.384	8.53
231.601	43.35
231.819	12.63
232.037	59.73
232.254	-36.52
232.472	104.79
232.689	22.87
232.907	86.36
233.125	98.64
233.342	55.64
233.56	22.87
233.777	69.97
233.995	69.97
234.213	72.02
234.43	72.02
234.648	53.59
234.865	-18.09
235.083	80.21
235.3	8.53
235.518	39.25
235.735	96.6
235.953	16.73
236.17	74.07
236.388	35.16
236.605	57.68
236.822	100.69
237.04	53.59
237.257	29.01
237.475	39.25
237.692	76.12
237.909	-69.29
238.127	-40.62
238.344	131.41
238.562	80.21
238.779	6.49
238.996	-36.52
239.214	94.55
239.431	121.17
239.648	10.58
239.865	51.54
240.083	33.11
240.3	57.68
240.517	8.53
240.735	53.59
240.952	125.27
241.169	24.92
241.386	43.35
241.603	72.02
241.821	-13.99
242.038	35.16
242.255	29.01
242.472	39.25
242.689	84.31
242.907	24.92
243.124	26.96
243.341	-7.85
243.558	39.25
243.775	78.16
243.992	76.12
244.209	-40.62
244.426	119.12
244.643	53.59
244.86	43.35
245.078	14.68
245.295	59.73
245.512	151.89
245.729	72.02
245.946	43.35
246.163	55.64
246.38	35.16
246.597	65.88
246.814	33.11
247.031	43.35
247.248	57.68
247.464	92.5
247.681	92.5
247.898	39.25
248.115	49.49
248.332	61.78
248.549	51.54
248.766	88.4
248.983	31.06
249.2	-5.8
249.417	35.16
249.633	110.93
249.85	67.92
250.067	104.79
250.284	-3.75
250.501	14.68
250.717	47.44
250.934	37.2
251.151	51.54
251.368	53.59
251.585	33.11
251.801	80.21
252.018	31.06
252.235	22.87
252.451	26.96
252.668	39.25
252.885	69.97
253.102	31.06
253.318	31.06
253.535	35.16
253.752	43.35
253.968	-5.8
254.185	43.35
254.401	43.35
254.618	72.02
254.835	67.92
255.051	29.01
255.268	22.87
255.484	108.88
255.701	51.54
255.917	-5.8
256.134	117.08
256.351	39.25
256.567	-24.23
256.784	-20.14
257	6.49
257.217	96.6
257.433	37.2
257.65	137.56
257.866	43.35
258.082	33.11
258.299	65.88
258.515	61.78
258.732	137.56
258.948	-11.95
259.165	51.54
259.381	90.45
259.597	63.83
259.814	-16.04
260.03	18.77
260.246	76.12
260.463	55.64
260.679	110.93
260.895	39.25
261.112	69.97
261.328	63.83
261.544	63.83
261.761	47.44
261.977	41.3
262.193	49.49
262.409	76.12
262.626	108.88
262.842	86.36
263.058	16.73
263.274	53.59
263.49	29.01
263.707	39.25
263.923	51.54
264.139	78.16
264.355	29.01
264.571	51.54
264.787	-34.47
265.004	12.63
265.22	-1.71
265.436	82.26
265.652	39.25
265.868	47.44
266.084	43.35
266.3	49.49
266.516	22.87
266.732	82.26
266.948	76.12
267.164	74.07
267.38	20.82
267.596	104.79
267.812	35.16
268.028	112.98
268.244	51.54
268.46	86.36
268.676	8.53
268.892	104.79
269.108	51.54
269.324	43.35
269.54	72.02
269.756	78.16
269.972	-20.14
270.188	45.4
270.403	-54.95
270.619	14.68
270.835	51.54
271.051	43.35
271.267	20.82
271.483	127.32
271.698	127.32
271.914	-44.71
272.13	16.73
272.346	12.63
272.562	35.16
272.777	16.73
272.993	-40.62
273.209	26.96
273.425	29.01
273.64	65.88
273.856	137.56
274.072	35.16
274.287	-16.04
274.503	31.06
274.719	117.08
274.934	16.73
275.15	57.68
275.366	98.64
275.581	18.77
275.797	16.73
276.012	49.49
276.228	67.92
276.444	59.73
276.659	39.25
276.875	88.4
277.09	94.55
277.306	72.02
277.521	143.7
277.737	41.3
277.952	143.7
278.168	-16.04
278.383	45.4
278.599	41.3
278.814	112.98
279.03	29.01
279.245	45.4
279.461	59.73
279.676	65.88
279.892	39.25
280.107	22.87
280.322	20.82
280.538	84.31
280.753	92.5
280.969	102.74
281.184	78.16
281.399	61.78
281.615	14.68
281.83	0.34
282.045	-24.23
282.26	65.88
282.476	65.88
282.691	59.73
282.906	61.78
283.122	-5.8
283.337	-44.71
283.552	67.92
283.767	-38.57
283.983	41.3
284.198	-38.57
284.413	14.68
284.628	49.49
284.843	63.83
285.058	123.22
285.274	63.83
285.489	22.87
285.704	37.2
285.919	37.2
286.134	-13.99
286.349	-5.8
286.564	49.49
286.779	112.98
286.995	18.77
287.21	47.44
287.425	76.12
287.64	0.34
287.855	92.5
288.07	35.16
288.285	31.06
288.5	59.73
288.715	76.12
288.93	14.68
289.145	92.5
289.36	12.63
289.575	129.36
289.79	137.56
290.004	-26.28
290.219	43.35
290.434	10.58
290.649	59.73
290.864	0.34
291.079	26.96
291.294	139.6
291.509	33.11
291.724	72.02
291.938	55.64
292.153	6.49
292.368	39.25
292.583	72.02
292.798	41.3
293.012	43.35
293.227	59.73
293.442	69.97
293.657	-11.95
293.871	61.78
294.086	59.73
294.301	47.44
294.516	59.73
294.73	12.63
294.945	14.68
295.16	43.35
295.374	90.45
295.589	121.17
295.804	31.06
296.018	115.03
296.233	96.6
296.447	123.22
296.662	6.49
296.877	41.3
297.091	8.53
297.306	-3.75
297.52	-22.19
297.735	6.49
297.949	88.4
298.164	82.26
298.378	41.3
298.593	4.44
298.807	8.53
299.022	115.03
299.236	16.73
299.451	57.68
299.665	72.02
299.88	31.06
300.094	35.16
300.309	141.65
300.523	14.68
300.737	76.12
300.952	61.78
301.166	59.73
301.381	33.11
301.595	47.44
301.809	61.78
302.024	76.12
302.238	39.25
302.452	104.79
302.667	-50.86
302.881	88.4
303.095	53.59
303.309	43.35
303.524	2.39
303.738	4.44
303.952	61.78
304.166	69.97
304.381	10.58
304.595	37.2
304.809	90.45
305.023	55.64
305.237	78.16
305.452	76.12
305.666	67.92
305.88	43.35
306.094	10.58
306.308	43.35
306.522	72.02
306.736	92.5
306.95	43.35
307.164	80.21
307.379	22.87
307.593	108.88
307.807	104.79
308.021	0.34
308.235	26.96
308.449	90.45
308.663	29.01
308.877	72.02
309.091	98.64
309.305	14.68
309.519	53.59
309.733	63.83
309.947	53.59
310.161	43.35
310.374	20.82
310.588	88.4
310.802	-9.9
311.016	82.26
311.23	104.79
311.444	63.83
311.658	41.3
311.872	110.93
312.085	84.31
312.299	119.12
312.513	47.44
312.727	69.97
312.941	26.96
313.154	76.12
313.368	24.92
313.582	129.36
313.796	20.82
314.009	115.03
314.223	74.07
314.437	43.35
314.651	158.03
314.864	61.78
315.078	6.49
315.292	29.01
315.505	112.98
315.719	47.44
315.933	39.25
316.146	86.36
316.36	76.12
316.573	61.78
316.787	69.97
317.001	45.4
317.214	14.68
317.428	170.32
317.641	16.73
317.855	135.51
318.068	57.68
318.282	100.69
318.495	35.16
318.709	80.21
318.922	39.25
319.136	92.5
319.349	96.6
319.563	55.64
319.776	20.82
319.99	92.5
320.203	-1.71
320.417	102.74
320.63	59.73
320.843	102.74
321.057	51.54
321.27	82.26
321.483	125.27
321.697	65.88
321.91	14.68
322.124	151.89
322.337	86.36
322.55	80.21
322.763	18.77
322.977	12.63
323.19	67.92
323.403	72.02
323.617	37.2
323.83	33.11
324.043	59.73
324.256	80.21
324.469	39.25
324.683	63.83
324.896	137.56
325.109	29.01
325.322	-20.14
325.535	84.31
325.748	51.54
325.962	-5.8
326.175	92.5
326.388	6.49
326.601	51.54
326.814	112.98
327.027	6.49
327.24	110.93
327.453	51.54
327.666	78.16
327.879	2.39
328.092	53.59
328.305	65.88
328.518	26.96
328.731	20.82
328.944	72.02
329.157	-1.71
329.37	80.21
329.583	117.08
329.796	137.56
330.009	8.53
330.222	76.12
330.435	63.83
330.648	43.35
330.861	139.6
331.073	35.16
331.286	86.36
331.499	35.16
331.712	37.2
331.925	-5.8
332.138	0.34
332.35	98.64
332.563	96.6
332.776	41.3
332.989	43.35
333.202	57.68
333.414	82.26
333.627	10.58
333.84	135.51
334.053	67.92
334.265	45.4
334.478	43.35
334.691	90.45
334.903	72.02
335.116	22.87
335.329	61.78
335.541	82.26
335.754	80.21
335.966	67.92
336.179	63.83
336.392	63.83
336.604	108.88
336.817	47.44
337.029	92.5
337.242	39.25
337.454	65.88
337.667	31.06
337.88	84.31
338.092	72.02
338.305	45.4
338.517	53.59
338.729	-7.85
338.942	72.02
339.154	59.73
339.367	43.35
339.579	125.27
339.792	82.26
340.004	47.44
340.217	67.92
340.429	39.25
340.641	20.82
340.854	33.11
341.066	69.97
341.278	51.54
341.491	63.83
341.703	55.64
341.915	57.68
342.128	84.31
342.34	100.69
342.552	4.44
342.764	22.87
342.977	131.41
343.189	72.02
343.401	119.12
343.613	43.35
343.826	131.41
344.038	29.01
344.25	90.45
344.462	55.64
344.674	108.88
344.886	47.44
345.099	102.74
345.311	35.16
345.523	88.4
345.735	-18.09
345.947	72.02
346.159	43.35
346.371	100.69
346.583	55.64
346.795	98.64
347.007	41.3
347.219	69.97
347.431	108.88
347.643	151.89
347.855	51.54
348.067	119.12
348.279	49.49
348.491	69.97
348.703	37.2
348.915	67.92
349.127	65.88
349.339	106.84
349.551	100.69
349.763	90.45
349.975	67.92
350.187	63.83
350.399	121.17
350.61	69.97
350.822	110.93
351.034	49.49
351.246	29.01
351.458	76.12
351.669	72.02
351.881	10.58
352.093	39.25
352.305	63.83
352.517	63.83
352.728	112.98
352.94	141.65
353.152	59.73
353.363	26.96
353.575	-3.75
353.787	47.44
353.999	86.36
354.21	51.54
354.422	49.49
354.633	76.12
354.845	78.16
355.057	104.79
355.268	94.55
355.48	102.74
355.692	51.54
355.903	-30.38
356.115	53.59
356.326	-61.1
356.538	106.84
356.749	61.78
356.961	63.83
357.172	55.64
357.384	96.6
357.595	125.27
357.807	133.46
358.018	63.83
358.23	72.02
358.441	53.59
358.653	49.49
358.864	35.16
359.075	117.08
359.287	61.78
359.498	88.4
359.709	86.36
359.921	119.12
360.132	135.51
360.344	67.92
360.555	78.16
360.766	49.49
360.977	94.55
361.189	110.93
361.4	108.88
361.611	153.94
361.823	63.83
362.034	125.27
362.245	-9.9
362.456	92.5
362.667	41.3
362.879	133.46
363.09	6.49
363.301	104.79
363.512	55.64
363.723	121.17
363.935	43.35
364.146	57.68
364.357	14.68
364.568	14.68
364.779	31.06
364.99	121.17
365.201	49.49
365.412	39.25
365.623	37.2
365.834	92.5
366.045	59.73
366.256	94.55
366.467	63.83
366.678	59.73
366.889	10.58
367.1	29.01
367.311	69.97
367.522	94.55
367.733	31.06
367.944	31.06
368.155	24.92
368.366	94.55
368.577	92.5
368.788	26.96
368.999	2.39
369.209	84.31
369.42	141.65
369.631	137.56
369.842	16.73
370.053	67.92
370.264	76.12
370.474	84.31
370.685	90.45
370.896	141.65
371.107	51.54
371.317	55.64
371.528	108.88
371.739	125.27
371.95	78.16
372.16	86.36
372.371	41.3
372.582	92.5
372.792	24.92
373.003	55.64
373.214	90.45
373.424	147.8
373.635	137.56
373.846	20.82
374.056	76.12
374.267	76.12
374.477	84.31
374.688	55.64
374.898	110.93
375.109	22.87
375.319	121.17
375.53	125.27
375.74	33.11
375.951	57.68
376.161	112.98
376.372	69.97
376.582	37.2
376.793	147.8
377.003	67.92
377.214	117.08
377.424	74.07
377.635	90.45
377.845	94.55
378.055	106.84
378.266	110.93
378.476	65.88
378.686	100.69
378.897	119.12
379.107	-13.99
379.317	168.27
379.528	108.88
379.738	106.84
379.948	55.64
380.158	65.88
380.369	-30.38
380.579	47.44
380.789	82.26
380.999	92.5
381.21	112.98
381.42	59.73
381.63	63.83
381.84	162.13
382.05	86.36
382.261	45.4
382.471	69.97
382.681	69.97
382.891	135.51
383.101	67.92
383.311	37.2
383.521	100.69
383.731	55.64
383.941	117.08
384.151	104.79
384.361	104.79
384.571	119.12
384.781	72.02
384.991	80.21
385.201	96.6
385.411	59.73
385.621	147.8
385.831	14.68
386.041	76.12
386.251	76.12
386.461	119.12
386.671	96.6
386.881	51.54
387.091	63.83
387.301	166.23
387.511	98.64
387.72	158.03
387.93	110.93
388.14	135.51
388.35	90.45
388.56	63.83
388.769	10.58
388.979	92.5
389.189	80.21
389.399	53.59
389.609	69.97
389.818	94.55
390.028	72.02
390.238	33.11
390.447	26.96
390.657	96.6
390.867	84.31
391.076	131.41
391.286	65.88
391.496	110.93
391.705	57.68
391.915	55.64
392.125	108.88
392.334	90.45
392.544	78.16
392.753	80.21
392.963	86.36
393.172	69.97
393.382	88.4
393.591	135.51
393.801	78.16
394.01	139.6
394.22	67.92
394.429	125.27
394.639	78.16
394.848	47.44
395.058	112.98
395.267	90.45
395.477	57.68
395.686	96.6
395.895	133.46
396.105	168.27
396.314	90.45
396.524	182.61
396.733	104.79
396.942	143.7
397.152	121.17
397.361	211.28
397.57	182.61
397.78	78.16
397.989	121.17
398.198	127.32
398.407	137.56
398.617	61.78
398.826	117.08
399.035	135.51
399.244	141.65
399.453	110.93
399.663	141.65
399.872	196.95
400.081	115.03
400.29	184.66
400.499	145.75
400.708	149.84
400.917	76.12
401.127	139.6
401.336	129.36
401.545	166.23
401.754	158.03
401.963	176.47
402.172	96.6
402.381	178.51
402.59	147.8
402.799	223.57
403.008	143.7
403.217	127.32
403.426	180.56
403.635	184.66
403.844	147.8
404.053	166.23
404.262	215.38
404.471	194.9
404.68	170.32
404.888	246.1
405.097	145.75
405.306	186.71
405.515	217.43
405.724	192.85
405.933	188.75
406.142	149.84
406.35	223.57
406.559	162.13
406.768	182.61
406.977	235.86
407.185	246.1
407.394	256.34
407.603	219.47
407.812	313.68
408.02	207.19
408.229	194.9
408.438	299.34
408.646	233.81
408.855	274.77
409.064	342.35
409.272	227.67
409.481	276.82
409.69	272.72
409.898	289.1
410.107	379.22
410.315	375.12
410.524	328.02
410.733	371.02
410.941	358.74
411.15	362.83
411.358	350.54
411.567	498
411.775	338.26
411.984	450.89
412.192	516.43
412.401	346.45
412.609	573.77
412.818	520.53
413.026	543.05
413.234	483.66
413.443	645.45
413.651	526.67
413.86	567.63
414.068	588.11
414.276	645.45
414.485	698.7
414.693	637.26
414.901	741.71
415.11	727.37
415.318	747.85
415.526	672.08
415.734	784.71
415.943	774.47
416.151	909.64
416.359	837.96
416.567	909.64
416.776	1003.85
416.984	954.69
417.192	971.08
417.4	921.93
417.608	1038.66
417.817	1098.05
418.025	1204.55
418.233	1204.55
418.441	1218.88
418.649	1220.93
418.857	1288.51
419.065	1345.86
419.273	1366.34
419.481	1378.62
419.689	1442.11
419.897	1505.6
420.105	1616.19
420.313	1546.56
420.521	1732.92
420.729	1614.14
420.937	1677.63
421.145	1730.87
421.353	1702.2
421.561	2023.73
421.769	1896.76
421.977	2124.08
422.185	2079.03
422.393	2298.16
422.601	2263.35
422.809	2373.94
423.017	2269.49
423.224	2521.39
423.432	2459.95
423.64	2564.4
423.848	2709.8
424.056	2752.81
424.263	2904.36
424.471	2904.36
424.679	2986.28
424.887	3105.06
425.094	3299.62
425.302	3105.06
425.51	3359.01
425.718	3576.09
425.925	3531.04
426.133	3492.13
426.341	3703.07
426.548	3928.35
426.756	3948.83
426.964	3938.59
427.171	4321.56
427.379	4495.63
427.586	4380.95
427.794	4614.41
428.001	4765.96
428.209	5024.01
428.417	4927.75
428.624	5294.34
428.832	5384.45
429.039	5296.39
429.247	5343.49
429.454	5818.62
429.662	6082.81
429.869	5697.79
430.076	6232.31
430.284	6037.75
430.491	6226.17
430.699	6613.23
430.906	6656.24
431.114	6674.67
431.321	6949.1
431.528	7074.03
431.736	7506.15
431.943	7813.34
432.15	7799.01
432.358	7553.25
432.565	8069.34
432.772	8091.87
432.979	8607.95
433.187	8644.82
433.394	8734.93
433.601	9314.5
433.808	9459.91
434.016	9236.68
434.223	9701.57
434.43	10268.86
434.637	10119.35
434.844	10619.06
435.052	11014.32
435.259	10987.69
435.466	10868.91
435.673	10997.93
435.88	11309.22
436.087	12163.23
436.294	12191.9
436.501	11827.36
436.708	11997.34
436.915	12710.04
437.122	13119.63
437.329	13117.58
437.537	13551.75
437.743	13539.46
437.95	13592.71
438.157	14475.38
438.364	14774.39
438.571	14696.57
438.778	14858.35
438.985	16216.16
439.192	15667.3
439.399	16232.54
439.606	15849.57
439.813	16535.64
440.02	17659.98
440.227	17487.95
440.433	17373.26
440.64	17827.91
440.847	17733.7
441.054	18235.46
441.261	19226.67
441.467	18899
441.674	19449.9
441.881	19851.3
442.088	20330.53
442.294	19785.77
442.501	20666.39
442.708	20922.39
442.914	21639.18
443.121	22282.24
443.328	22140.93
443.534	23633.9
443.741	23021.56
443.948	22794.23
444.154	24479.71
444.361	24299.49
444.568	24526.82
444.774	24537.05
444.981	24848.35
445.187	25571.28
445.394	26800.06
445.6	25888.71
445.807	28565.41
446.013	27619.25
446.22	27912.11
446.426	29185.94
446.633	29618.07
446.839	30285.7
447.046	29294.49
447.252	30601.09
447.459	30791.55
447.665	30441.35
447.871	32155.5
448.078	33662.8
448.284	32038.76
448.491	32997.21
448.697	34393.93
448.903	34830.15
449.11	34703.17
449.316	34176.84
449.522	34641.73
449.728	35673.91
449.935	35995.44
450.141	36052.78
450.347	37363.48
450.553	35780.4
450.76	36392.75
450.966	37482.27
451.172	37175.07
451.378	38067.98
451.584	37281.56
451.791	38065.94
451.997	38121.23
452.203	38651.66
452.409	39020.29
452.615	38686.47
452.821	37209.89
453.027	36941.6
453.233	38690.57
453.44	37512.98
453.646	37603.1
453.852	38295.31
454.058	38682.38
454.264	37392.15
454.47	38207.25
454.676	37152.54
454.882	38403.85
455.088	35049.28
455.294	35641.14
455.5	36362.03
455.705	36601.64
455.911	35120.96
456.117	34621.25
456.323	34182.99
456.529	32044.91
456.735	33570.65
456.941	32724.83
457.147	32401.25
457.352	31526.77
457.558	30830.46
457.764	31272.82
457.97	30732.16
458.176	29757.33
458.381	30168.97
458.587	28458.92
458.793	28254.12
458.999	27019.19
459.204	29030.3
459.41	28211.11
459.616	26288.07
459.821	26619.84
460.027	26468.29
460.233	25442.26
460.438	24391.65
460.644	24676.32
460.85	23631.85
461.055	23078.9
461.261	23324.66
461.466	21645.32
461.672	20762.65
461.878	22212.61
462.083	20633.63
462.289	20414.49
462.494	20271.14
462.7	19507.24
462.905	18825.27
463.111	19456.04
463.316	19632.17
463.522	19023.92
463.727	19423.28
463.932	18903.09
464.138	18536.51
464.343	18745.4
464.549	18251.84
464.754	18999.35
464.959	18948.15
465.165	18968.63
465.37	17735.75
465.575	17449.04
465.781	18358.33
465.986	18468.92
466.191	17590.34
466.397	17565.77
466.602	16439.39
466.807	16941.14
467.012	17326.16
467.218	16996.43
