Data from USB4F104151__69__11-37-31-708.txt Node

Date: Fri Mar 14 11:37:31 EDT 2025
User: louis
Spectrometer: USB4F10415
Trigger mode: 4
Integration Time (sec): 2.000000E-2
Scans to average: 1
Electric dark correction enabled: true
Nonlinearity correction enabled: false
Boxcar width: 0
XAxis mode: Wavelengths
Number of Pixels in Spectrum: 3648
>>>>>Begin Spectral Data<<<<<
178.204	-67.92
178.424	-67.92
178.644	-67.92
178.864	-51.54
179.084	-35.16
179.304	-65.88
179.524	3.75
179.744	38.57
179.964	54.95
180.184	-39.25
180.404	18.09
180.624	-12.63
180.844	-20.82
181.064	-6.49
181.283	-43.35
181.503	30.38
181.723	42.67
181.943	-31.06
182.163	34.47
182.383	1.71
182.602	65.19
182.822	50.86
183.042	1.71
183.262	26.28
183.482	65.19
183.701	26.28
183.921	7.85
184.141	1.71
184.361	91.82
184.58	26.28
184.8	71.34
185.02	-63.83
185.239	50.86
185.459	59.05
185.679	16.04
185.898	5.8
186.118	26.28
186.338	-6.49
186.557	38.57
186.777	42.67
186.997	36.52
187.216	-29.01
187.436	52.91
187.655	7.85
187.875	30.38
188.095	-16.73
188.314	63.15
188.534	34.47
188.753	-49.49
188.973	-16.73
189.192	24.23
189.412	-14.68
189.631	16.04
189.851	9.9
190.07	18.09
190.29	61.1
190.509	71.34
190.729	-10.58
190.948	42.67
191.168	42.67
191.387	-8.53
191.607	1.71
191.826	-6.49
192.045	40.62
192.265	42.67
192.484	59.05
192.704	38.57
192.923	-14.68
193.142	116.39
193.362	22.19
193.581	20.14
193.8	18.09
194.02	26.28
194.239	-33.11
194.458	-59.73
194.678	18.09
194.897	38.57
195.116	-26.96
195.335	42.67
195.555	-22.87
195.774	-37.2
195.993	42.67
196.212	-33.11
196.432	85.67
196.651	50.86
196.87	48.81
197.089	38.57
197.308	34.47
197.528	28.33
197.747	-6.49
197.966	59.05
198.185	18.09
198.404	-18.77
198.623	-29.01
198.842	28.33
199.062	16.04
199.281	7.85
199.5	-20.82
199.719	79.53
199.938	42.67
200.157	69.29
200.376	48.81
200.595	-0.34
200.814	-10.58
201.033	57
201.252	71.34
201.471	54.95
201.69	-14.68
201.909	-0.34
202.128	50.86
202.347	87.72
202.566	34.47
202.785	-31.06
203.004	-45.4
203.223	28.33
203.442	22.19
203.661	-10.58
203.879	-43.35
204.098	-2.39
204.317	-74.07
204.536	42.67
204.755	-26.96
204.974	18.09
205.193	1.71
205.411	87.72
205.63	54.95
205.849	34.47
206.068	26.28
206.287	-2.39
206.505	85.67
206.724	46.76
206.943	52.91
207.162	38.57
207.381	1.71
207.599	-4.44
207.818	40.62
208.037	20.14
208.255	-33.11
208.474	-33.11
208.693	52.91
208.911	32.43
209.13	16.04
209.349	102.06
209.567	67.24
209.786	44.71
210.005	9.9
210.223	-0.34
210.442	26.28
210.661	114.34
210.879	-10.58
211.098	-29.01
211.316	9.9
211.535	50.86
211.753	-6.49
211.972	38.57
212.191	67.24
212.409	20.14
212.628	34.47
212.846	-63.83
213.065	32.43
213.283	77.48
213.502	26.28
213.72	69.29
213.938	5.8
214.157	34.47
214.375	75.43
214.594	75.43
214.812	42.67
215.031	59.05
215.249	26.28
215.467	-2.39
215.686	16.04
215.904	61.1
216.122	-6.49
216.341	81.58
216.559	11.95
216.778	-14.68
216.996	-4.44
217.214	57
217.432	48.81
217.651	-39.25
217.869	28.33
218.087	26.28
218.306	-59.73
218.524	75.43
218.742	30.38
218.96	57
219.179	18.09
219.397	50.86
219.615	106.15
219.833	32.43
220.051	-24.92
220.27	5.8
220.488	46.76
220.706	79.53
220.924	-31.06
221.142	-20.82
221.36	-39.25
221.578	7.85
221.796	73.39
222.015	-43.35
222.233	-8.53
222.451	65.19
222.669	59.05
222.887	79.53
223.105	-4.44
223.323	-16.73
223.541	-37.2
223.759	22.19
223.977	52.91
224.195	104.11
224.413	-14.68
224.631	1.71
224.849	-47.44
225.067	52.91
225.285	-51.54
225.503	59.05
225.721	67.24
225.939	-29.01
226.157	67.24
226.375	3.75
226.592	32.43
226.81	32.43
227.028	83.63
227.246	97.96
227.464	73.39
227.682	91.82
227.9	59.05
228.117	-2.39
228.335	50.86
228.553	-10.58
228.771	63.15
228.989	57
229.206	-6.49
229.424	28.33
229.642	9.9
229.86	36.52
230.077	16.04
230.295	-67.92
230.513	11.95
230.731	24.23
230.948	91.82
231.166	114.34
231.384	93.87
231.601	30.38
231.819	18.09
232.037	-14.68
232.254	16.04
232.472	65.19
232.689	-18.77
232.907	108.2
233.125	32.43
233.342	34.47
233.56	-31.06
233.777	54.95
233.995	-4.44
234.213	50.86
234.43	7.85
234.648	65.19
234.865	65.19
235.083	130.73
235.3	-63.83
235.518	81.58
235.735	50.86
235.953	24.23
236.17	65.19
236.388	40.62
236.605	-35.16
236.822	16.04
237.04	-37.2
237.257	-16.73
237.475	13.99
237.692	42.67
237.909	81.58
238.127	11.95
238.344	1.71
238.562	116.39
238.779	52.91
238.996	-24.92
239.214	-14.68
239.431	42.67
239.648	63.15
239.865	32.43
240.083	40.62
240.3	32.43
240.517	46.76
240.735	28.33
240.952	48.81
241.169	16.04
241.386	7.85
241.603	1.71
241.821	26.28
242.038	32.43
242.255	7.85
242.472	-8.53
242.689	52.91
242.907	34.47
243.124	30.38
243.341	18.09
243.558	42.67
243.775	26.28
243.992	-8.53
244.209	-22.87
244.426	26.28
244.643	-31.06
244.86	50.86
245.078	24.23
245.295	-24.92
245.512	50.86
245.729	-47.44
245.946	-14.68
246.163	-31.06
246.38	22.19
246.597	24.23
246.814	40.62
247.031	32.43
247.248	57
247.464	1.71
247.681	59.05
247.898	-29.01
248.115	50.86
248.332	44.71
248.549	87.72
248.766	59.05
248.983	36.52
249.2	-24.92
249.417	59.05
249.633	-12.63
249.85	106.15
250.067	34.47
250.284	18.09
250.501	18.09
250.717	83.63
250.934	-8.53
251.151	13.99
251.368	77.48
251.585	91.82
251.801	46.76
252.018	13.99
252.235	28.33
252.451	28.33
252.668	-10.58
252.885	48.81
253.102	22.19
253.318	9.9
253.535	-39.25
253.752	18.09
253.968	-12.63
254.185	69.29
254.401	44.71
254.618	18.09
254.835	38.57
255.051	38.57
255.268	28.33
255.484	85.67
255.701	63.15
255.917	54.95
256.134	-18.77
256.351	-37.2
256.567	30.38
256.784	3.75
257	75.43
257.217	40.62
257.433	63.15
257.65	46.76
257.866	1.71
258.082	22.19
258.299	3.75
258.515	48.81
258.732	-6.49
258.948	18.09
259.165	91.82
259.381	48.81
259.597	18.09
259.814	-6.49
260.03	-29.01
260.246	18.09
260.463	50.86
260.679	57
260.895	77.48
261.112	112.3
261.328	34.47
261.544	-14.68
261.761	46.76
261.977	22.19
262.193	1.71
262.409	67.24
262.626	85.67
262.842	69.29
263.058	57
263.274	81.58
263.49	5.8
263.707	-10.58
263.923	28.33
264.139	87.72
264.355	1.71
264.571	36.52
264.787	-43.35
265.004	-2.39
265.22	30.38
265.436	3.75
265.652	59.05
265.868	79.53
266.084	11.95
266.3	59.05
266.516	46.76
266.732	38.57
266.948	34.47
267.164	11.95
267.38	20.14
267.596	73.39
267.812	116.39
268.028	81.58
268.244	7.85
268.46	73.39
268.676	-2.39
268.892	34.47
269.108	48.81
269.324	9.9
269.54	9.9
269.756	20.14
269.972	22.19
270.188	40.62
270.403	32.43
270.619	108.2
270.835	44.71
271.051	22.19
271.267	57
271.483	59.05
271.698	16.04
271.914	28.33
272.13	9.9
272.346	-6.49
272.562	73.39
272.777	48.81
272.993	50.86
273.209	46.76
273.425	-10.58
273.64	40.62
273.856	54.95
274.072	26.28
274.287	-74.07
274.503	77.48
274.719	38.57
274.934	26.28
275.15	24.23
275.366	48.81
275.581	11.95
275.797	67.24
276.012	38.57
276.228	26.28
276.444	-2.39
276.659	26.28
276.875	22.19
277.09	20.14
277.306	40.62
277.521	-0.34
277.737	22.19
277.952	67.24
278.168	38.57
278.383	71.34
278.599	59.05
278.814	5.8
279.03	57
279.245	-4.44
279.461	-29.01
279.676	32.43
279.892	91.82
280.107	28.33
280.322	-41.3
280.538	65.19
280.753	48.81
280.969	77.48
281.184	97.96
281.399	59.05
281.615	1.71
281.83	118.44
282.045	26.28
282.26	-82.26
282.476	34.47
282.691	65.19
282.906	-16.73
283.122	50.86
283.337	26.28
283.552	28.33
283.767	73.39
283.983	-26.96
284.198	1.71
284.413	50.86
284.628	34.47
284.843	67.24
285.058	24.23
285.274	20.14
285.489	7.85
285.704	22.19
285.919	28.33
286.134	112.3
286.349	26.28
286.564	-29.01
286.779	38.57
286.995	87.72
287.21	-22.87
287.425	75.43
287.64	32.43
287.855	67.24
288.07	-39.25
288.285	65.19
288.5	-8.53
288.715	34.47
288.93	32.43
289.145	44.71
289.36	83.63
289.575	52.91
289.79	36.52
290.004	59.05
290.219	16.04
290.434	34.47
290.649	28.33
290.864	46.76
291.079	-16.73
291.294	44.71
291.509	50.86
291.724	48.81
291.938	38.57
292.153	97.96
292.368	7.85
292.583	65.19
292.798	9.9
293.012	65.19
293.227	1.71
293.442	50.86
293.657	-2.39
293.871	-4.44
294.086	-26.96
294.301	104.11
294.516	65.19
294.73	28.33
294.945	77.48
295.16	16.04
295.374	42.67
295.589	42.67
295.804	1.71
296.018	-33.11
296.233	61.1
296.447	-2.39
296.662	-35.16
296.877	34.47
297.091	18.09
297.306	83.63
297.52	-20.82
297.735	-49.49
297.949	-2.39
298.164	46.76
298.378	38.57
298.593	9.9
298.807	24.23
299.022	34.47
299.236	71.34
299.451	77.48
299.665	22.19
299.88	-0.34
300.094	34.47
300.309	5.8
300.523	91.82
300.737	59.05
300.952	1.71
301.166	-4.44
301.381	7.85
301.595	7.85
301.809	-33.11
302.024	100.01
302.238	63.15
302.452	48.81
302.667	83.63
302.881	65.19
303.095	32.43
303.309	100.01
303.524	18.09
303.738	44.71
303.952	149.16
304.166	83.63
304.381	32.43
304.595	13.99
304.809	50.86
305.023	22.19
305.237	7.85
305.452	22.19
305.666	63.15
305.88	1.71
306.094	67.24
306.308	1.71
306.522	26.28
306.736	186.02
306.95	69.29
307.164	30.38
307.379	59.05
307.593	140.97
307.807	83.63
308.021	89.77
308.235	40.62
308.449	-6.49
308.663	9.9
308.877	61.1
309.091	42.67
309.305	65.19
309.519	-22.87
309.733	91.82
309.947	-47.44
310.161	26.28
310.374	22.19
310.588	42.67
310.802	7.85
311.016	26.28
311.23	-18.77
311.444	42.67
311.658	61.1
311.872	165.54
312.085	63.15
312.299	1.71
312.513	-18.77
312.727	73.39
312.941	-8.53
313.154	7.85
313.368	36.52
313.582	91.82
313.796	13.99
314.009	50.86
314.223	34.47
314.437	18.09
314.651	3.75
314.864	95.91
315.078	34.47
315.292	16.04
315.505	65.19
315.719	32.43
315.933	67.24
316.146	28.33
316.36	-24.92
316.573	30.38
316.787	13.99
317.001	167.59
317.214	13.99
317.428	1.71
317.641	59.05
317.855	57
318.068	114.34
318.282	93.87
318.495	122.54
318.709	9.9
318.922	24.23
319.136	7.85
319.349	38.57
319.563	122.54
319.776	16.04
319.99	5.8
320.203	-22.87
320.417	26.28
320.63	-31.06
320.843	128.68
321.057	30.38
321.27	9.9
321.483	28.33
321.697	69.29
321.91	32.43
322.124	48.81
322.337	110.25
322.55	-24.92
322.763	22.19
322.977	59.05
323.19	20.14
323.403	16.04
323.617	28.33
323.83	-14.68
324.043	13.99
324.256	38.57
324.469	44.71
324.683	132.78
324.896	-18.77
325.109	9.9
325.322	7.85
325.535	59.05
325.748	59.05
325.962	34.47
326.175	65.19
326.388	97.96
326.601	-8.53
326.814	93.87
327.027	32.43
327.24	9.9
327.453	38.57
327.666	130.73
327.879	30.38
328.092	40.62
328.305	24.23
328.518	-20.82
328.731	42.67
328.944	30.38
329.157	-6.49
329.37	32.43
329.583	79.53
329.796	116.39
330.009	-29.01
330.222	79.53
330.435	24.23
330.648	34.47
330.861	-20.82
331.073	11.95
331.286	54.95
331.499	9.9
331.712	30.38
331.925	34.47
332.138	28.33
332.35	50.86
332.563	11.95
332.776	59.05
332.989	30.38
333.202	97.96
333.414	22.19
333.627	40.62
333.84	-26.96
334.053	118.44
334.265	18.09
334.478	-14.68
334.691	-39.25
334.903	46.76
335.116	-14.68
335.329	42.67
335.541	32.43
335.754	122.54
335.966	24.23
336.179	32.43
336.392	16.04
336.604	-31.06
336.817	24.23
337.029	67.24
337.242	48.81
337.454	89.77
337.667	57
337.88	36.52
338.092	46.76
338.305	57
338.517	65.19
338.729	46.76
338.942	104.11
339.154	-45.4
339.367	9.9
339.579	54.95
339.792	13.99
340.004	81.58
340.217	38.57
340.429	89.77
340.641	97.96
340.854	36.52
341.066	65.19
341.278	128.68
341.491	106.15
341.703	44.71
341.915	18.09
342.128	38.57
342.34	26.28
342.552	32.43
342.764	-26.96
342.977	63.15
343.189	32.43
343.401	38.57
343.613	20.14
343.826	46.76
344.038	59.05
344.25	108.2
344.462	7.85
344.674	22.19
344.886	16.04
345.099	-10.58
345.311	132.78
345.523	42.67
345.735	20.14
345.947	34.47
346.159	-26.96
346.371	95.91
346.583	26.28
346.795	97.96
347.007	1.71
347.219	85.67
347.431	16.04
347.643	75.43
347.855	22.19
348.067	9.9
348.279	-10.58
348.491	26.28
348.703	28.33
348.915	13.99
349.127	28.33
349.339	42.67
349.551	18.09
349.763	1.71
349.975	3.75
350.187	85.67
350.399	108.2
350.61	50.86
350.822	9.9
351.034	52.91
351.246	59.05
351.458	67.24
351.669	32.43
351.881	50.86
352.093	20.14
352.305	140.97
352.517	-6.49
352.728	122.54
352.94	93.87
353.152	91.82
353.363	24.23
353.575	73.39
353.787	77.48
353.999	18.09
354.21	93.87
354.422	9.9
354.633	24.23
354.845	20.14
355.057	-12.63
355.268	20.14
355.48	91.82
355.692	-22.87
355.903	7.85
356.115	108.2
356.326	18.09
356.538	75.43
356.749	81.58
356.961	91.82
357.172	57
357.384	-14.68
357.595	100.01
357.807	-20.82
358.018	32.43
358.23	59.05
358.441	106.15
358.653	44.71
358.864	71.34
359.075	57
359.287	75.43
359.498	97.96
359.709	67.24
359.921	85.67
360.132	26.28
360.344	-26.96
360.555	46.76
360.766	1.71
360.977	9.9
361.189	110.25
361.4	-16.73
361.611	61.1
361.823	54.95
362.034	-6.49
362.245	5.8
362.456	61.1
362.667	40.62
362.879	-65.88
363.09	102.06
363.301	9.9
363.512	93.87
363.723	20.14
363.935	75.43
364.146	28.33
364.357	54.95
364.568	57
364.779	-6.49
364.99	-0.34
365.201	59.05
365.412	67.24
365.623	13.99
365.834	69.29
366.045	11.95
366.256	59.05
366.467	52.91
366.678	24.23
366.889	73.39
367.1	34.47
367.311	108.2
367.522	91.82
367.733	89.77
367.944	61.1
368.155	114.34
368.366	124.58
368.577	73.39
368.788	93.87
368.999	18.09
369.209	18.09
369.42	46.76
369.631	134.82
369.842	71.34
370.053	57
370.264	-22.87
370.474	40.62
370.685	46.76
370.896	100.01
371.107	-6.49
371.317	79.53
371.528	32.43
371.739	118.44
371.95	-18.77
372.16	46.76
372.371	93.87
372.582	61.1
372.792	61.1
373.003	106.15
373.214	38.57
373.424	42.67
373.635	95.91
373.846	59.05
374.056	-14.68
374.267	79.53
374.477	16.04
374.688	120.49
374.898	-26.96
375.109	34.47
375.319	91.82
375.53	46.76
375.74	57
375.951	34.47
376.161	-8.53
376.372	93.87
376.582	1.71
376.793	67.24
377.003	-65.88
377.214	71.34
377.424	36.52
377.635	22.19
377.845	42.67
378.055	65.19
378.266	95.91
378.476	63.15
378.686	136.87
378.897	9.9
379.107	40.62
379.317	122.54
379.528	46.76
379.738	-18.77
379.948	102.06
380.158	79.53
380.369	81.58
380.579	38.57
380.789	93.87
380.999	38.57
381.21	54.95
381.42	42.67
381.63	151.21
381.84	91.82
382.05	59.05
382.261	177.83
382.471	5.8
382.681	36.52
382.891	104.11
383.101	87.72
383.311	52.91
383.521	85.67
383.731	46.76
383.941	93.87
384.151	-20.82
384.361	59.05
384.571	67.24
384.781	120.49
384.991	67.24
385.201	85.67
385.411	5.8
385.621	91.82
385.831	97.96
386.041	79.53
386.251	138.92
386.461	120.49
386.671	50.86
386.881	67.24
387.091	100.01
387.301	32.43
387.511	5.8
387.72	30.38
387.93	38.57
388.14	57
388.35	59.05
388.56	87.72
388.769	40.62
388.979	-2.39
389.189	-82.26
389.399	71.34
389.609	63.15
389.818	108.2
390.028	114.34
390.238	65.19
390.447	132.78
390.657	161.45
390.867	120.49
391.076	48.81
391.286	30.38
391.496	102.06
391.705	38.57
391.915	95.91
392.125	73.39
392.334	114.34
392.544	128.68
392.753	87.72
392.963	59.05
393.172	132.78
393.382	128.68
393.591	100.01
393.801	-8.53
394.01	100.01
394.22	57
394.429	114.34
394.639	108.2
394.848	81.58
395.058	54.95
395.267	34.47
395.477	108.2
395.686	132.78
395.895	120.49
396.105	116.39
396.314	120.49
396.524	130.73
396.733	122.54
396.942	57
397.152	173.74
397.361	75.43
397.57	65.19
397.78	163.5
397.989	122.54
398.198	186.02
398.407	91.82
398.617	93.87
398.826	153.26
399.035	81.58
399.244	122.54
399.453	104.11
399.663	114.34
399.872	222.89
400.081	175.78
400.29	106.15
400.499	79.53
400.708	181.93
400.917	40.62
401.127	124.58
401.336	159.4
401.545	151.21
401.754	163.5
401.963	226.98
402.172	198.31
402.381	188.07
402.59	149.16
402.799	128.68
403.008	140.97
403.217	210.6
403.426	183.98
403.635	167.59
403.844	190.12
404.053	196.26
404.262	116.39
404.471	149.16
404.68	159.4
404.888	155.3
405.097	165.54
405.306	179.88
405.515	278.18
405.724	147.11
405.933	233.13
406.142	263.85
406.35	239.27
406.559	186.02
406.768	128.68
406.977	245.41
407.185	267.94
407.394	308.9
407.603	220.84
407.812	292.52
408.02	253.61
408.229	274.09
408.438	304.81
408.646	272.04
408.855	229.03
409.064	288.42
409.272	337.57
409.481	407.2
409.69	392.87
409.898	374.44
410.107	421.54
410.315	386.72
410.524	390.82
410.733	442.02
410.941	456.36
411.15	542.37
411.358	482.98
411.567	525.99
411.775	448.16
411.984	478.88
412.192	566.95
412.401	538.27
412.609	583.33
412.818	616.1
413.026	681.63
413.234	695.97
413.443	722.59
413.651	665.25
413.86	747.17
414.068	765.6
414.276	835.23
414.485	757.41
414.693	822.94
414.901	878.24
415.11	886.43
415.318	900.76
415.526	884.38
415.734	997.02
415.943	1029.79
416.151	1083.03
416.359	1007.26
416.567	1097.37
416.776	1210.01
416.984	1220.25
417.192	1244.82
417.4	1171.1
417.608	1302.17
417.817	1373.85
418.025	1414.81
418.233	1513.11
418.441	1480.34
418.649	1601.17
418.857	1668.75
419.065	1580.69
419.273	1676.95
419.481	1783.44
419.689	1713.81
419.897	1871.5
420.105	2031.24
420.313	1924.75
420.521	2107.02
420.729	2029.2
420.937	2141.83
421.145	2207.37
421.353	2352.77
421.561	2516.61
421.769	2559.62
421.977	2590.34
422.185	2639.49
422.393	2659.97
422.601	2952.83
422.809	2889.34
423.017	2905.73
423.224	3079.8
423.432	3139.19
423.64	3229.31
423.848	3473.01
424.056	3409.53
424.263	3649.14
424.471	3645.04
424.679	3630.71
424.887	3995.25
425.094	4001.39
425.302	4079.21
425.51	4118.12
425.718	4255.34
425.925	4392.55
426.133	4658.79
426.341	4765.28
426.548	4984.41
426.756	5035.61
426.964	5125.72
427.171	5359.19
427.379	5533.27
427.586	5422.68
427.794	5641.81
428.001	6020.69
428.209	6174.28
428.417	6186.57
428.624	6567.49
428.832	6727.24
429.039	6606.41
429.247	6741.57
429.454	7237.18
429.662	7671.35
429.869	7269.95
430.076	7857.71
430.284	7583.29
430.491	7880.24
430.699	8189.49
430.906	8386.09
431.114	8488.49
431.321	8717.86
431.528	8922.66
431.736	9545.24
431.943	9811.48
432.15	9573.91
432.358	9883.16
432.565	10157.58
432.772	10102.29
432.979	10837.51
433.187	10855.94
433.394	10991.11
433.601	11718.14
433.808	11798.01
434.016	11580.92
434.223	12412.4
434.43	12862.95
434.637	12588.52
434.844	13270.5
435.052	13649.37
435.259	13739.48
435.466	13811.16
435.673	13573.6
435.88	14595.53
436.087	15418.82
436.294	15412.67
436.501	15173.06
436.708	15312.32
436.915	15457.73
437.122	16428.46
437.329	16645.55
437.537	16885.16
437.743	17001.9
437.95	16967.08
438.157	17903
438.364	18408.85
438.571	18539.92
438.778	18455.95
438.985	20288.89
439.192	19643.77
439.399	20120.95
439.606	19590.53
439.813	20870.51
440.02	21966.17
440.227	21882.2
440.433	21624.16
440.64	22232.41
440.847	22066.52
441.054	22721.87
441.261	24223.03
441.467	23778.62
441.674	24491.32
441.881	25058.6
442.088	25011.5
442.294	24892.72
442.501	25681.19
442.708	25996.57
442.914	27178.25
443.121	28079.36
443.328	27673.86
443.534	28980.46
443.741	28630.26
443.948	28022.02
444.154	30338.27
444.361	30299.36
444.568	30393.56
444.774	30098.66
444.981	30502.11
445.187	31382.73
445.394	32650.42
445.6	32068.8
445.807	35038.36
446.013	33868.97
446.22	34731.16
446.426	36332.67
446.633	36203.65
446.839	37516.4
447.046	35687.56
447.252	37620.84
447.459	37960.81
447.665	37715.05
447.871	39638.09
448.078	40948.79
448.284	39076.95
448.491	39933
448.697	41655.34
448.903	42693.66
449.11	42353.7
449.316	41657.39
449.522	42863.64
449.728	43631.63
449.935	43789.33
450.141	43748.37
450.347	44919.81
450.553	43224.09
450.76	44018.7
450.966	45437.94
451.172	45005.82
451.378	46318.57
451.584	44923.9
451.791	46214.12
451.997	45816.82
452.203	47053.79
452.409	46762.98
452.615	46754.79
452.821	44811.26
453.027	44686.34
453.233	46937.05
453.44	44786.69
453.646	45317.11
453.852	45685.75
454.058	46134.25
454.264	44786.69
454.47	45816.82
454.676	44743.68
454.882	46386.15
455.088	42325.03
455.294	43109.4
455.5	43580.43
455.705	44137.48
455.911	42417.19
456.117	41491.51
456.323	40750.14
456.529	38626.4
456.735	40610.88
456.941	39466.06
457.147	39095.38
457.352	37532.78
457.558	37092.47
457.764	37176.44
457.97	36297.86
458.176	35759.24
458.381	35839.11
458.587	33809.57
458.793	34239.65
458.999	32120
459.204	34870.42
459.41	33328.3
459.616	31184.08
459.821	31614.15
460.027	31495.37
460.233	30399.71
460.438	29236.46
460.644	29437.16
460.85	28443.9
461.055	27702.53
461.261	27778.31
461.466	25701.67
461.672	24876.34
461.878	26565.91
462.083	25003.31
462.289	24505.65
462.494	24331.58
462.7	23108.94
462.905	22515.03
463.111	23287.11
463.316	23416.13
463.522	22934.86
463.727	22775.12
463.932	22842.7
464.138	22596.95
464.343	22746.45
464.549	22134.1
464.754	22916.43
464.959	22648.15
465.165	22142.3
465.37	21321.06
465.575	20919.66
465.781	21945.69
465.986	21851.49
466.191	21153.13
466.397	20854.12
466.602	19316.1
466.807	20411.76
467.012	20231.54
467.218	20235.64
467.423	20041.08
467.628	20168.05
