Data from USB4F104151__96__11-38-00-256.txt Node

Date: Fri Mar 14 11:38:00 EDT 2025
User: louis
Spectrometer: USB4F10415
Trigger mode: 4
Integration Time (sec): 2.000000E-2
Scans to average: 1
Electric dark correction enabled: true
Nonlinearity correction enabled: false
Boxcar width: 0
XAxis mode: Wavelengths
Number of Pixels in Spectrum: 3648
>>>>>Begin Spectral Data<<<<<
178.204	-79.02
178.424	-79.02
178.644	-79.02
178.864	-128.17
179.084	-101.55
179.304	35.67
179.524	31.57
179.744	-56.49
179.964	0.85
180.184	-62.63
180.404	60.24
180.624	58.2
180.844	-50.35
181.064	-7.34
181.283	-38.06
181.503	15.19
181.723	13.14
181.943	-38.06
182.163	29.52
182.383	7
182.602	45.91
182.822	9.05
183.042	-70.83
183.262	25.43
183.482	56.15
183.701	-42.15
183.921	-19.63
184.141	-17.58
184.361	107.35
184.58	2.9
184.8	80.72
185.02	43.86
185.239	29.52
185.459	-5.29
185.679	82.77
185.898	-56.49
186.118	39.76
186.338	19.29
186.557	-1.19
186.777	11.09
186.997	-44.2
187.216	11.09
187.436	54.1
187.655	-13.48
187.875	31.57
188.095	21.33
188.314	43.86
188.534	25.43
188.753	11.09
188.973	-46.25
189.192	58.2
189.412	-15.53
189.631	-27.82
189.851	19.29
190.07	-38.06
190.29	-46.25
190.509	58.2
190.729	-42.15
190.948	17.24
191.168	56.15
191.387	31.57
191.607	-29.87
191.826	-11.43
192.045	25.43
192.265	43.86
192.484	39.76
192.704	82.77
192.923	9.05
193.142	88.92
193.362	7
193.581	56.15
193.8	68.44
194.02	27.48
194.239	31.57
194.458	17.24
194.678	31.57
194.897	41.81
195.116	-62.63
195.335	27.48
195.555	4.95
195.774	-7.34
195.993	41.81
196.212	11.09
196.432	-13.48
196.651	17.24
196.87	23.38
197.089	25.43
197.308	39.76
197.528	76.63
197.747	-15.53
197.966	90.96
198.185	76.63
198.404	-17.58
198.623	64.34
198.842	-15.53
199.062	21.33
199.281	129.88
199.5	58.2
199.719	90.96
199.938	37.72
200.157	-1.19
200.376	15.19
200.595	47.96
200.814	-15.53
201.033	31.57
201.252	15.19
201.471	25.43
201.69	88.92
201.909	13.14
202.128	33.62
202.347	-3.24
202.566	-40.11
202.785	45.91
203.004	-66.73
203.223	15.19
203.442	19.29
203.661	15.19
203.879	47.96
204.098	97.11
204.317	-31.91
204.536	50
204.755	7
204.974	60.24
205.193	9.05
205.411	23.38
205.63	21.33
205.849	-7.34
206.068	-29.87
206.287	2.9
206.505	64.34
206.724	-33.96
206.943	41.81
207.162	27.48
207.381	31.57
207.599	-15.53
207.818	11.09
208.037	15.19
208.255	37.72
208.474	41.81
208.693	47.96
208.911	-25.77
209.13	-27.82
209.349	50
209.567	56.15
209.786	101.2
210.005	70.48
210.223	-5.29
210.442	-5.29
210.661	7
210.879	35.67
211.098	-25.77
211.316	50
211.535	76.63
211.753	80.72
211.972	60.24
212.191	17.24
212.409	-31.91
212.628	37.72
212.846	2.9
213.065	60.24
213.283	60.24
213.502	-3.24
213.72	7
213.938	29.52
214.157	37.72
214.375	72.53
214.594	-62.63
214.812	41.81
215.031	-70.83
215.249	-29.87
215.467	41.81
215.686	-9.39
215.904	-15.53
216.122	11.09
216.341	21.33
216.559	33.62
216.778	58.2
216.996	27.48
217.214	56.15
217.432	-1.19
217.651	25.43
217.869	-7.34
218.087	11.09
218.306	29.52
218.524	0.85
218.742	50
218.96	74.58
219.179	-23.72
219.397	-13.48
219.615	109.4
219.833	33.62
220.051	37.72
220.27	93.01
220.488	33.62
220.706	11.09
220.924	31.57
221.142	47.96
221.36	0.85
221.578	27.48
221.796	27.48
222.015	-93.35
222.233	19.29
222.451	2.9
222.669	41.81
222.887	11.09
223.105	17.24
223.323	-29.87
223.541	52.05
223.759	39.76
223.977	7
224.195	-25.77
224.413	78.68
224.631	2.9
224.849	-31.91
225.067	-15.53
225.285	-17.58
225.503	-17.58
225.721	-13.48
225.939	25.43
226.157	9.05
226.375	17.24
226.592	-17.58
226.81	50
227.028	-1.19
227.246	-7.34
227.464	50
227.682	13.14
227.9	74.58
228.117	41.81
228.335	0.85
228.553	80.72
228.771	41.81
228.989	7
229.206	29.52
229.424	-27.82
229.642	9.05
229.86	-11.43
230.077	15.19
230.295	45.91
230.513	-1.19
230.731	68.44
230.948	39.76
231.166	45.91
231.384	56.15
231.601	-9.39
231.819	50
232.037	-1.19
232.254	35.67
232.472	43.86
232.689	4.95
232.907	45.91
233.125	-46.25
233.342	-27.82
233.56	41.81
233.777	7
233.995	27.48
234.213	39.76
234.43	43.86
234.648	4.95
234.865	-33.96
235.083	64.34
235.3	25.43
235.518	29.52
235.735	21.33
235.953	-13.48
236.17	-83.11
236.388	41.81
236.605	-15.53
236.822	56.15
237.04	19.29
237.257	86.87
237.475	47.96
237.692	45.91
237.909	17.24
238.127	58.2
238.344	-17.58
238.562	13.14
238.779	-48.3
238.996	11.09
239.214	-13.48
239.431	66.39
239.648	21.33
239.865	25.43
240.083	47.96
240.3	43.86
240.517	35.67
240.735	88.92
240.952	27.48
241.169	105.3
241.386	41.81
241.603	21.33
241.821	27.48
242.038	25.43
242.255	-70.83
242.472	15.19
242.689	19.29
242.907	37.72
243.124	-36.01
243.341	-7.34
243.558	-25.77
243.775	-62.63
243.992	43.86
244.209	60.24
244.426	27.48
244.643	37.72
244.86	2.9
245.078	62.29
245.295	31.57
245.512	62.29
245.729	-3.24
245.946	88.92
246.163	2.9
246.38	41.81
246.597	-7.34
246.814	33.62
247.031	41.81
247.248	27.48
247.464	39.76
247.681	56.15
247.898	27.48
248.115	37.72
248.332	-33.96
248.549	41.81
248.766	-15.53
248.983	88.92
249.2	27.48
249.417	29.52
249.633	2.9
249.85	-5.29
250.067	37.72
250.284	29.52
250.501	27.48
250.717	25.43
250.934	-56.49
251.151	31.57
251.368	54.1
251.585	11.09
251.801	-1.19
252.018	-33.96
252.235	-15.53
252.451	39.76
252.668	25.43
252.885	-7.34
253.102	39.76
253.318	19.29
253.535	-31.91
253.752	7
253.968	68.44
254.185	-13.48
254.401	31.57
254.618	-72.87
254.835	-27.82
255.051	-21.67
255.268	64.34
255.484	4.95
255.701	-31.91
255.917	56.15
256.134	11.09
256.351	37.72
256.567	17.24
256.784	58.2
257	70.48
257.217	64.34
257.433	4.95
257.65	70.48
257.866	76.63
258.082	11.09
258.299	15.19
258.515	15.19
258.732	-23.72
258.948	-7.34
259.165	35.67
259.381	82.77
259.597	35.67
259.814	15.19
260.03	-1.19
260.246	43.86
260.463	41.81
260.679	138.07
260.895	19.29
261.112	15.19
261.328	54.1
261.544	41.81
261.761	86.87
261.977	37.72
262.193	62.29
262.409	109.4
262.626	19.29
262.842	43.86
263.058	-48.3
263.274	13.14
263.49	99.16
263.707	2.9
263.923	-7.34
264.139	23.38
264.355	54.1
264.571	37.72
264.787	39.76
265.004	-1.19
265.22	-33.96
265.436	-21.67
265.652	-29.87
265.868	86.87
266.084	-29.87
266.3	-13.48
266.516	45.91
266.732	27.48
266.948	-56.49
267.164	47.96
267.38	27.48
267.596	-87.21
267.812	-23.72
268.028	52.05
268.244	107.35
268.46	0.85
268.676	11.09
268.892	15.19
269.108	35.67
269.324	-15.53
269.54	35.67
269.756	50
269.972	-31.91
270.188	60.24
270.403	-9.39
270.619	4.95
270.835	37.72
271.051	25.43
271.267	-31.91
271.483	-36.01
271.698	27.48
271.914	-7.34
272.13	-19.63
272.346	56.15
272.562	-13.48
272.777	-23.72
272.993	25.43
273.209	-33.96
273.425	43.86
273.64	-17.58
273.856	27.48
274.072	35.67
274.287	-46.25
274.503	56.15
274.719	29.52
274.934	4.95
275.15	9.05
275.366	-19.63
275.581	17.24
275.797	0.85
276.012	0.85
276.228	47.96
276.444	76.63
276.659	84.82
276.875	4.95
277.09	-9.39
277.306	29.52
277.521	27.48
277.737	60.24
277.952	72.53
278.168	-29.87
278.383	54.1
278.599	56.15
278.814	156.5
279.03	-21.67
279.245	2.9
279.461	4.95
279.676	78.68
279.892	-13.48
280.107	19.29
280.322	29.52
280.538	37.72
280.753	25.43
280.969	15.19
281.184	19.29
281.399	41.81
281.615	41.81
281.83	97.11
282.045	66.39
282.26	31.57
282.476	37.72
282.691	-1.19
282.906	13.14
283.122	-1.19
283.337	-31.91
283.552	47.96
283.767	35.67
283.983	19.29
284.198	17.24
284.413	99.16
284.628	-3.24
284.843	11.09
285.058	68.44
285.274	-27.82
285.489	11.09
285.704	99.16
285.919	-29.87
286.134	-25.77
286.349	-25.77
286.564	21.33
286.779	25.43
286.995	-27.82
287.21	11.09
287.425	47.96
287.64	2.9
287.855	-42.15
288.07	70.48
288.285	80.72
288.5	62.29
288.715	39.76
288.93	35.67
289.145	-52.39
289.36	72.53
289.575	-50.35
289.79	-19.63
290.004	56.15
290.219	-5.29
290.434	52.05
290.649	47.96
290.864	-36.01
291.079	15.19
291.294	41.81
291.509	15.19
291.724	27.48
291.938	50
292.153	37.72
292.368	17.24
292.583	29.52
292.798	60.24
293.012	41.81
293.227	11.09
293.442	35.67
293.657	-46.25
293.871	68.44
294.086	2.9
294.301	9.05
294.516	105.3
294.73	66.39
294.945	23.38
295.16	31.57
295.374	9.05
295.589	47.96
295.804	-70.83
296.018	64.34
296.233	58.2
296.447	45.91
296.662	27.48
296.877	27.48
297.091	37.72
297.306	68.44
297.52	11.09
297.735	-17.58
297.949	35.67
298.164	62.29
298.378	-25.77
298.593	17.24
298.807	97.11
299.022	35.67
299.236	7
299.451	62.29
299.665	62.29
299.88	88.92
300.094	29.52
300.309	4.95
300.523	2.9
300.737	13.14
300.952	27.48
301.166	56.15
301.381	31.57
301.595	19.29
301.809	66.39
302.024	-25.77
302.238	17.24
302.452	47.96
302.667	-21.67
302.881	99.16
303.095	97.11
303.309	21.33
303.524	56.15
303.738	13.14
303.952	19.29
304.166	27.48
304.381	-1.19
304.595	43.86
304.809	23.38
305.023	52.05
305.237	-1.19
305.452	-25.77
305.666	27.48
305.88	56.15
306.094	25.43
306.308	15.19
306.522	125.78
306.736	23.38
306.95	15.19
307.164	29.52
307.379	41.81
307.593	70.48
307.807	47.96
308.021	31.57
308.235	25.43
308.449	60.24
308.663	68.44
308.877	123.73
309.091	47.96
309.305	23.38
309.519	-48.3
309.733	37.72
309.947	-5.29
310.161	86.87
310.374	-23.72
310.588	41.81
310.802	15.19
311.016	58.2
311.23	58.2
311.444	37.72
311.658	68.44
311.872	31.57
312.085	62.29
312.299	47.96
312.513	47.96
312.727	66.39
312.941	74.58
313.154	52.05
313.368	-5.29
313.582	-9.39
313.796	-54.44
314.009	4.95
314.223	-5.29
314.437	0.85
314.651	52.05
314.864	76.63
315.078	78.68
315.292	-7.34
315.505	60.24
315.719	-17.58
315.933	29.52
316.146	25.43
316.36	27.48
316.573	84.82
316.787	52.05
317.001	11.09
317.214	58.2
317.428	43.86
317.641	27.48
317.855	-19.63
318.068	39.76
318.282	31.57
318.495	62.29
318.709	90.96
318.922	15.19
319.136	0.85
319.349	-3.24
319.563	-25.77
319.776	66.39
319.99	-7.34
320.203	4.95
320.417	19.29
320.63	113.49
320.843	142.16
321.057	-1.19
321.27	2.9
321.483	15.19
321.697	43.86
321.91	41.81
322.124	27.48
322.337	9.05
322.55	74.58
322.763	64.34
322.977	50
323.19	13.14
323.403	15.19
323.617	52.05
323.83	45.91
324.043	11.09
324.256	66.39
324.469	2.9
324.683	17.24
324.896	82.77
325.109	39.76
325.322	0.85
325.535	123.73
325.748	11.09
325.962	78.68
326.175	101.2
326.388	39.76
326.601	-9.39
326.814	-27.82
327.027	17.24
327.24	97.11
327.453	70.48
327.666	19.29
327.879	-3.24
328.092	82.77
328.305	43.86
328.518	76.63
328.731	-36.01
328.944	33.62
329.157	31.57
329.37	76.63
329.583	19.29
329.796	95.06
330.009	17.24
330.222	31.57
330.435	50
330.648	25.43
330.861	56.15
331.073	29.52
331.286	47.96
331.499	17.24
331.712	17.24
331.925	76.63
332.138	58.2
332.35	27.48
332.563	-23.72
332.776	19.29
332.989	-23.72
333.202	37.72
333.414	7
333.627	-19.63
333.84	52.05
334.053	35.67
334.265	52.05
334.478	17.24
334.691	15.19
334.903	66.39
335.116	-3.24
335.329	64.34
335.541	9.05
335.754	54.1
335.966	9.05
336.179	-5.29
336.392	9.05
336.604	50
336.817	21.33
337.029	19.29
337.242	109.4
337.454	99.16
337.667	58.2
337.88	72.53
338.092	27.48
338.305	0.85
338.517	2.9
338.729	50
338.942	54.1
339.154	45.91
339.367	-3.24
339.579	58.2
339.792	-21.67
340.004	39.76
340.217	17.24
340.429	47.96
340.641	4.95
340.854	43.86
341.066	19.29
341.278	127.83
341.491	80.72
341.703	76.63
341.915	-9.39
342.128	-40.11
342.34	43.86
342.552	17.24
342.764	-1.19
342.977	39.76
343.189	54.1
343.401	-33.96
343.613	19.29
343.826	47.96
344.038	-21.67
344.25	64.34
344.462	-11.43
344.674	86.87
344.886	4.95
345.099	23.38
345.311	35.67
345.523	82.77
345.735	93.01
345.947	119.64
346.159	9.05
346.371	41.81
346.583	76.63
346.795	23.38
347.007	33.62
347.219	2.9
347.431	39.76
347.643	64.34
347.855	-31.91
348.067	45.91
348.279	93.01
348.491	78.68
348.703	13.14
348.915	68.44
349.127	62.29
349.339	-5.29
349.551	43.86
349.763	15.19
349.975	62.29
350.187	54.1
350.399	84.82
350.61	45.91
350.822	-38.06
351.034	58.2
351.246	-48.3
351.458	58.2
351.669	103.25
351.881	60.24
352.093	47.96
352.305	19.29
352.517	58.2
352.728	64.34
352.94	-11.43
353.152	-23.72
353.363	70.48
353.575	72.53
353.787	52.05
353.999	45.91
354.21	74.58
354.422	35.67
354.633	-1.19
354.845	33.62
355.057	-50.35
355.268	25.43
355.48	66.39
355.692	54.1
355.903	78.68
356.115	43.86
356.326	2.9
356.538	60.24
356.749	58.2
356.961	50
357.172	9.05
357.384	-21.67
357.595	41.81
357.807	27.48
358.018	-3.24
358.23	23.38
358.441	52.05
358.653	56.15
358.864	4.95
359.075	58.2
359.287	29.52
359.498	47.96
359.709	56.15
359.921	84.82
360.132	17.24
360.344	19.29
360.555	33.62
360.766	115.54
360.977	-13.48
361.189	35.67
361.4	-9.39
361.611	35.67
361.823	31.57
362.034	35.67
362.245	35.67
362.456	31.57
362.667	-31.91
362.879	58.2
363.09	15.19
363.301	56.15
363.512	41.81
363.723	35.67
363.935	138.07
364.146	-9.39
364.357	27.48
364.568	27.48
364.779	23.38
364.99	9.05
365.201	23.38
365.412	52.05
365.623	17.24
365.834	39.76
366.045	-15.53
366.256	-25.77
366.467	-36.01
366.678	-9.39
366.889	19.29
367.1	27.48
367.311	13.14
367.522	93.01
367.733	29.52
367.944	43.86
368.155	84.82
368.366	15.19
368.577	84.82
368.788	80.72
368.999	11.09
369.209	78.68
369.42	60.24
369.631	60.24
369.842	64.34
370.053	-17.58
370.264	54.1
370.474	11.09
370.685	-7.34
370.896	9.05
371.107	105.3
371.317	39.76
371.528	-1.19
371.739	76.63
371.95	76.63
372.16	62.29
372.371	15.19
372.582	62.29
372.792	84.82
373.003	27.48
373.214	11.09
373.424	17.24
373.635	-13.48
373.846	35.67
374.056	-5.29
374.267	74.58
374.477	64.34
374.688	19.29
374.898	-38.06
375.109	4.95
375.319	101.2
375.53	7
375.74	31.57
375.951	19.29
376.161	41.81
376.372	64.34
376.582	62.29
376.793	17.24
377.003	-5.29
377.214	50
377.424	25.43
377.635	41.81
377.845	45.91
378.055	99.16
378.266	58.2
378.476	66.39
378.686	27.48
378.897	76.63
379.107	33.62
379.317	-7.34
379.528	29.52
379.738	31.57
379.948	19.29
380.158	82.77
380.369	33.62
380.579	93.01
380.789	54.1
380.999	4.95
381.21	115.54
381.42	82.77
381.63	31.57
381.84	78.68
382.05	11.09
382.261	86.87
382.471	9.05
382.681	25.43
382.891	60.24
383.101	9.05
383.311	84.82
383.521	60.24
383.731	68.44
383.941	43.86
384.151	37.72
384.361	-7.34
384.571	74.58
384.781	7
384.991	84.82
385.201	117.59
385.411	109.4
385.621	27.48
385.831	70.48
386.041	58.2
386.251	101.2
386.461	7
386.671	74.58
386.881	80.72
387.091	82.77
387.301	88.92
387.511	47.96
387.72	33.62
387.93	-7.34
388.14	-1.19
388.35	52.05
388.56	97.11
388.769	23.38
388.979	58.2
389.189	47.96
389.399	95.06
389.609	-1.19
389.818	115.54
390.028	60.24
390.238	86.87
390.447	29.52
390.657	31.57
390.867	17.24
391.076	31.57
391.286	-29.87
391.496	58.2
391.705	93.01
391.915	27.48
392.125	17.24
392.334	50
392.544	97.11
392.753	90.96
392.963	29.52
393.172	70.48
393.382	41.81
393.591	-7.34
393.801	23.38
394.01	93.01
394.22	84.82
394.429	21.33
394.639	-13.48
394.848	52.05
395.058	101.2
395.267	136.02
395.477	74.58
395.686	72.53
395.895	27.48
396.105	88.92
396.314	90.96
396.524	-13.48
396.733	47.96
396.942	82.77
397.152	15.19
397.361	111.44
397.57	60.24
397.78	76.63
397.989	88.92
398.198	78.68
398.407	27.48
398.617	70.48
398.826	107.35
399.035	62.29
399.244	109.4
399.453	31.57
399.663	80.72
399.872	66.39
400.081	82.77
400.29	105.3
400.499	84.82
400.708	162.64
400.917	101.2
401.127	50
401.336	164.69
401.545	213.84
401.754	103.25
401.963	86.87
402.172	84.82
402.381	86.87
402.59	170.83
402.799	68.44
403.008	158.55
403.217	125.78
403.426	150.36
403.635	160.59
403.844	170.83
404.053	125.78
404.262	68.44
404.471	179.03
404.68	127.83
404.888	111.44
405.097	172.88
405.306	193.36
405.515	156.5
405.724	160.59
405.933	170.83
406.142	201.55
406.35	195.41
406.559	140.12
406.768	219.99
406.977	224.08
407.185	250.71
407.394	117.59
407.603	113.49
407.812	213.84
408.02	230.23
408.229	207.7
408.438	191.31
408.646	189.27
408.855	230.23
409.064	224.08
409.272	189.27
409.481	316.24
409.69	183.12
409.898	201.55
410.107	310.1
410.315	357.2
410.524	275.28
410.733	363.34
410.941	256.85
411.15	293.71
411.358	363.34
411.567	373.58
411.775	346.96
411.984	336.72
412.192	432.97
412.401	430.93
412.609	426.83
412.818	455.5
413.026	451.41
413.234	394.06
413.443	502.61
413.651	455.5
413.86	619.34
414.068	586.57
414.276	580.43
414.485	594.76
414.693	570.19
414.901	576.33
415.11	650.06
415.318	643.92
415.526	666.44
415.734	682.83
415.943	670.54
416.151	785.23
416.359	725.83
416.567	828.23
416.776	777.03
416.984	1071.94
417.192	944.97
417.4	840.52
417.608	942.92
417.817	932.68
418.025	967.49
418.233	1112.9
418.441	1061.7
418.649	1078.08
418.857	1231.68
419.065	1155.91
419.273	1155.91
419.481	1346.37
419.689	1284.93
419.897	1352.51
420.105	1360.7
420.313	1444.67
420.521	1473.34
420.729	1489.73
420.937	1581.89
421.145	1653.56
421.353	1733.43
421.561	1796.92
421.769	1772.35
421.977	1811.26
422.185	1835.83
422.393	2014.01
422.601	2075.45
422.809	2067.25
423.017	2138.93
423.224	2204.47
423.432	2343.73
423.64	2212.66
423.848	2429.74
424.056	2388.78
424.263	2612.01
424.471	2673.45
424.679	2695.98
424.887	2751.28
425.094	2980.65
425.302	2960.17
425.51	3007.27
425.718	3003.18
425.925	3089.19
426.133	3158.82
426.341	3302.18
426.548	3613.47
426.756	3576.61
426.964	3631.9
427.171	3828.51
427.379	3957.53
427.586	3971.86
427.794	4086.55
428.001	4336.4
428.209	4655.89
428.417	4557.58
428.624	4684.56
428.832	4872.97
429.039	4723.47
429.247	4717.33
429.454	5147.4
429.662	5544.7
429.869	4973.32
430.076	5565.18
430.284	5315.33
430.491	5663.49
430.699	6001.4
430.906	5931.77
431.114	5999.35
431.321	6216.44
431.528	6411
431.736	6710
431.943	6908.65
432.15	6941.42
432.358	6914.8
432.565	7295.72
432.772	7486.18
432.979	7797.47
433.187	7949.02
433.394	7820
433.601	8243.93
433.808	8440.53
434.016	8401.62
434.223	8800.98
434.43	9286.34
434.637	9097.93
434.844	9931.45
435.052	9771.71
435.259	9673.41
435.466	9906.88
435.673	9515.72
435.88	10281.66
436.087	10953.39
436.294	11188.91
436.501	10785.46
436.708	11008.69
436.915	11231.91
437.122	11836.06
437.329	11819.68
437.537	12112.54
437.743	12286.62
437.95	12090.01
438.157	12817.04
438.364	13304.46
438.571	13263.5
438.778	13580.93
438.985	14404.22
439.192	14092.93
439.399	14582.39
439.606	14346.87
439.813	15022.7
440.02	15716.97
440.227	15485.55
440.433	15524.46
440.64	15837.8
440.847	16138.85
441.054	16261.73
441.261	17484.36
441.467	17095.25
441.674	17517.13
441.881	18092.61
442.088	18045.51
442.294	17771.08
442.501	18446.91
442.708	18766.39
442.914	19501.61
443.121	20103.71
443.328	19769.9
443.534	21096.98
443.741	20654.62
443.948	20533.79
444.154	21766.67
444.361	21623.31
444.568	21883.4
444.774	21821.96
444.981	22071.81
445.187	22770.17
445.394	23706.09
445.6	23411.18
445.807	25764.3
446.013	24625.63
446.22	24969.69
446.426	26098.12
446.633	26370.5
446.839	27427.25
447.046	26182.09
447.252	27607.47
447.459	27785.65
447.665	27580.85
447.871	29004.19
448.078	30261.64
448.284	28486.05
448.491	29315.48
448.697	30345.61
448.903	31162.75
449.11	31097.21
449.316	30210.44
449.522	31136.12
449.728	31930.73
449.935	32309.61
450.141	32000.37
450.347	33147.23
450.553	31846.77
450.76	32522.6
450.966	33775.95
451.172	33235.29
451.378	33632.6
451.584	33147.23
451.791	33866.06
451.997	34263.37
452.203	34439.5
452.409	34601.29
452.615	34384.2
452.821	33206.62
453.027	33071.45
453.233	34959.68
453.44	33605.97
453.646	33851.73
453.852	33583.44
454.058	34439.5
454.264	33147.23
454.47	33956.18
454.676	33180
454.882	34152.78
455.088	31467.89
455.294	32137.58
455.5	32282.98
455.705	32489.83
455.911	31564.15
456.117	30640.51
456.323	30329.22
456.529	28801.44
456.735	30105.99
456.941	29307.29
457.147	28793.25
457.352	27918.76
457.558	27802.03
457.764	27916.72
457.97	27093.43
458.176	26679.74
458.381	26532.29
458.587	25283.03
458.793	25162.2
458.999	23914.98
459.204	25883.08
459.41	25020.89
459.616	23357.94
459.821	23101.94
460.027	23222.77
460.233	22901.24
460.438	21772.81
460.644	22045.19
460.85	20838.94
461.055	20650.52
461.261	20574.75
461.466	19079.73
461.672	18530.87
461.878	19849.77
462.083	18553.4
462.289	18506.3
462.494	17791.56
462.7	17082.96
462.905	16724.57
463.111	17113.68
463.316	17400.4
463.522	16943.7
463.727	17132.11
463.932	16964.18
464.138	16941.65
464.343	16890.45
464.549	16448.09
464.754	16931.41
464.959	16763.48
465.165	16624.22
465.37	15934.05
465.575	15682.15
465.781	16167.52
465.986	16126.56
466.191	15739.49
466.397	15239.79
466.602	14514.81
466.807	15229.55
467.012	15170.16
467.218	15022.7
467.423	14889.59
467.628	14969.46
467.833	15641.19
468.038	14877.3
468.244	14424.7
468.449	15098.48
468.654	14830.2
468.859	14895.73
