Data from USB4F104151__65__11-37-27-098.txt Node

Date: Fri Mar 14 11:37:27 EDT 2025
User: louis
Spectrometer: USB4F10415
Trigger mode: 4
Integration Time (sec): 2.000000E-2
Scans to average: 1
Electric dark correction enabled: true
Nonlinearity correction enabled: false
Boxcar width: 0
XAxis mode: Wavelengths
Number of Pixels in Spectrum: 3648
>>>>>Begin Spectral Data<<<<<
178.204	-44.71
178.424	-44.71
178.644	-44.71
178.864	-65.19
179.084	-48.81
179.304	59.73
179.524	0.34
179.744	12.63
179.964	33.11
180.184	-50.86
180.404	16.73
180.624	-13.99
180.844	0.34
181.064	-24.23
181.283	57.68
181.503	-1.71
181.723	-89.77
181.943	12.63
182.163	45.4
182.383	10.58
182.602	24.92
182.822	63.83
183.042	69.97
183.262	-16.04
183.482	14.68
183.701	37.2
183.921	12.63
184.141	-24.23
184.361	41.3
184.58	-11.95
184.8	24.92
185.02	31.06
185.239	80.21
185.459	22.87
185.679	6.49
185.898	14.68
186.118	47.44
186.338	0.34
186.557	86.36
186.777	12.63
186.997	0.34
187.216	16.73
187.436	63.83
187.655	47.44
187.875	-9.9
188.095	-9.9
188.314	41.3
188.534	4.44
188.753	2.39
188.973	47.44
189.192	53.59
189.412	61.78
189.631	49.49
189.851	39.25
190.07	22.87
190.29	-9.9
190.509	59.73
190.729	-42.67
190.948	37.2
191.168	110.93
191.387	43.35
191.607	-20.14
191.826	-11.95
192.045	55.64
192.265	12.63
192.484	53.59
192.704	-1.71
192.923	45.4
193.142	82.26
193.362	-13.99
193.581	37.2
193.8	22.87
194.02	8.53
194.239	-9.9
194.458	29.01
194.678	86.36
194.897	88.4
195.116	49.49
195.335	4.44
195.555	76.12
195.774	57.68
195.993	-7.85
196.212	10.58
196.432	33.11
196.651	-1.71
196.87	16.73
197.089	63.83
197.308	41.3
197.528	59.73
197.747	0.34
197.966	-9.9
198.185	63.83
198.404	22.87
198.623	16.73
198.842	18.77
199.062	16.73
199.281	-28.33
199.5	-5.8
199.719	78.16
199.938	0.34
200.157	31.06
200.376	47.44
200.595	57.68
200.814	8.53
201.033	-7.85
201.252	49.49
201.471	80.21
201.69	-1.71
201.909	10.58
202.128	22.87
202.347	20.82
202.566	31.06
202.785	45.4
203.004	51.54
203.223	127.32
203.442	35.16
203.661	78.16
203.879	-32.43
204.098	55.64
204.317	16.73
204.536	51.54
204.755	-9.9
204.974	22.87
205.193	4.44
205.411	94.55
205.63	33.11
205.849	65.88
206.068	69.97
206.287	65.88
206.505	43.35
206.724	14.68
206.943	47.44
207.162	33.11
207.381	51.54
207.599	-32.43
207.818	65.88
208.037	-42.67
208.255	76.12
208.474	86.36
208.693	-24.23
208.911	2.39
209.13	-44.71
209.349	74.07
209.567	12.63
209.786	102.74
210.005	-48.81
210.223	-73.39
210.442	8.53
210.661	-24.23
210.879	-24.23
211.098	65.88
211.316	8.53
211.535	45.4
211.753	-3.75
211.972	-16.04
212.191	80.21
212.409	35.16
212.628	-16.04
212.846	43.35
213.065	78.16
213.283	53.59
213.502	69.97
213.72	57.68
213.938	88.4
214.157	14.68
214.375	47.44
214.594	26.96
214.812	35.16
215.031	-44.71
215.249	-5.8
215.467	43.35
215.686	-7.85
215.904	94.55
216.122	-57
216.341	53.59
216.559	90.45
216.778	29.01
216.996	35.16
217.214	-18.09
217.432	26.96
217.651	31.06
217.869	-13.99
218.087	22.87
218.306	-20.14
218.524	55.64
218.742	45.4
218.96	90.45
219.179	74.07
219.397	37.2
219.615	65.88
219.833	41.3
220.051	-13.99
220.27	72.02
220.488	43.35
220.706	65.88
220.924	53.59
221.142	53.59
221.36	-7.85
221.578	-50.86
221.796	-67.24
222.015	41.3
222.233	-7.85
222.451	31.06
222.669	16.73
222.887	57.68
223.105	63.83
223.323	24.92
223.541	29.01
223.759	61.78
223.977	-16.04
224.195	82.26
224.413	41.3
224.631	31.06
224.849	39.25
225.067	115.03
225.285	59.73
225.503	12.63
225.721	-40.62
225.939	2.39
226.157	31.06
226.375	131.41
226.592	24.92
226.81	53.59
227.028	-24.23
227.246	131.41
227.464	82.26
227.682	49.49
227.9	39.25
228.117	2.39
228.335	57.68
228.553	37.2
228.771	-9.9
228.989	14.68
229.206	31.06
229.424	-34.47
229.642	63.83
229.86	-1.71
230.077	20.82
230.295	-16.04
230.513	110.93
230.731	61.78
230.948	16.73
231.166	108.88
231.384	108.88
231.601	31.06
231.819	98.64
232.037	39.25
232.254	37.2
232.472	39.25
232.689	-5.8
232.907	57.68
233.125	14.68
233.342	20.82
233.56	6.49
233.777	8.53
233.995	26.96
234.213	33.11
234.43	86.36
234.648	63.83
234.865	41.3
235.083	65.88
235.3	65.88
235.518	-9.9
235.735	16.73
235.953	92.5
236.17	16.73
236.388	67.92
236.605	61.78
236.822	123.22
237.04	76.12
237.257	-48.81
237.475	-42.67
237.692	86.36
237.909	24.92
238.127	-24.23
238.344	2.39
238.562	14.68
238.779	37.2
238.996	2.39
239.214	37.2
239.431	96.6
239.648	-9.9
239.865	33.11
240.083	14.68
240.3	29.01
240.517	12.63
240.735	0.34
240.952	49.49
241.169	55.64
241.386	74.07
241.603	0.34
241.821	-59.05
242.038	53.59
242.255	41.3
242.472	-26.28
242.689	20.82
242.907	69.97
243.124	24.92
243.341	47.44
243.558	41.3
243.775	-40.62
243.992	69.97
244.209	49.49
244.426	14.68
244.643	49.49
244.86	45.4
245.078	59.73
245.295	39.25
245.512	-26.28
245.729	22.87
245.946	-16.04
246.163	6.49
246.38	8.53
246.597	45.4
246.814	53.59
247.031	49.49
247.248	24.92
247.464	16.73
247.681	8.53
247.898	-18.09
248.115	61.78
248.332	31.06
248.549	26.96
248.766	98.64
248.983	78.16
249.2	57.68
249.417	45.4
249.633	41.3
249.85	78.16
250.067	0.34
250.284	2.39
250.501	4.44
250.717	78.16
250.934	43.35
251.151	-11.95
251.368	4.44
251.585	24.92
251.801	16.73
252.018	20.82
252.235	24.92
252.451	61.78
252.668	67.92
252.885	22.87
253.102	12.63
253.318	4.44
253.535	51.54
253.752	-5.8
253.968	55.64
254.185	67.92
254.401	8.53
254.618	-26.28
254.835	-1.71
255.051	55.64
255.268	-38.57
255.484	61.78
255.701	29.01
255.917	67.92
256.134	59.73
256.351	82.26
256.567	24.92
256.784	45.4
257	-1.71
257.217	31.06
257.433	72.02
257.65	26.96
257.866	61.78
258.082	12.63
258.299	6.49
258.515	0.34
258.732	24.92
258.948	26.96
259.165	-3.75
259.381	-1.71
259.597	51.54
259.814	39.25
260.03	31.06
260.246	33.11
260.463	-1.71
260.679	31.06
260.895	35.16
261.112	59.73
261.328	-3.75
261.544	-24.23
261.761	-32.43
261.977	37.2
262.193	8.53
262.409	22.87
262.626	-44.71
262.842	4.44
263.058	51.54
263.274	72.02
263.49	10.58
263.707	61.78
263.923	39.25
264.139	37.2
264.355	24.92
264.571	-1.71
264.787	45.4
265.004	55.64
265.22	20.82
265.436	-16.04
265.652	69.97
265.868	55.64
266.084	33.11
266.3	53.59
266.516	8.53
266.732	98.64
266.948	67.92
267.164	22.87
267.38	69.97
267.596	24.92
267.812	55.64
268.028	43.35
268.244	29.01
268.46	47.44
268.676	20.82
268.892	57.68
269.108	67.92
269.324	20.82
269.54	72.02
269.756	57.68
269.972	-32.43
270.188	49.49
270.403	-1.71
270.619	39.25
270.835	8.53
271.051	63.83
271.267	-57
271.483	35.16
271.698	82.26
271.914	12.63
272.13	102.74
272.346	67.92
272.562	74.07
272.777	31.06
272.993	14.68
273.209	24.92
273.425	57.68
273.64	78.16
273.856	6.49
274.072	0.34
274.287	61.78
274.503	0.34
274.719	24.92
274.934	18.77
275.15	-28.33
275.366	31.06
275.581	-32.43
275.797	55.64
276.012	47.44
276.228	-13.99
276.444	8.53
276.659	76.12
276.875	22.87
277.09	39.25
277.306	35.16
277.521	63.83
277.737	0.34
277.952	88.4
278.168	18.77
278.383	41.3
278.599	33.11
278.814	0.34
279.03	106.84
279.245	16.73
279.461	72.02
279.676	41.3
279.892	-3.75
280.107	31.06
280.322	-30.38
280.538	12.63
280.753	-48.81
280.969	45.4
281.184	-28.33
281.399	98.64
281.615	98.64
281.83	84.31
282.045	31.06
282.26	0.34
282.476	-44.71
282.691	104.79
282.906	8.53
283.122	33.11
283.337	-22.19
283.552	33.11
283.767	12.63
283.983	45.4
284.198	6.49
284.413	74.07
284.628	14.68
284.843	14.68
285.058	88.4
285.274	16.73
285.489	47.44
285.704	74.07
285.919	14.68
286.134	12.63
286.349	-1.71
286.564	59.73
286.779	53.59
286.995	33.11
287.21	-1.71
287.425	45.4
287.64	49.49
287.855	37.2
288.07	24.92
288.285	123.22
288.5	137.56
288.715	-11.95
288.93	39.25
289.145	-5.8
289.36	33.11
289.575	2.39
289.79	84.31
290.004	-7.85
290.219	29.01
290.434	-13.99
290.649	55.64
290.864	35.16
291.079	31.06
291.294	-5.8
291.509	-20.14
291.724	65.88
291.938	0.34
292.153	10.58
292.368	63.83
292.583	65.88
292.798	47.44
293.012	33.11
293.227	12.63
293.442	94.55
293.657	-18.09
293.871	141.65
294.086	49.49
294.301	96.6
294.516	-26.28
294.73	53.59
294.945	-1.71
295.16	51.54
295.374	31.06
295.589	29.01
295.804	14.68
296.018	45.4
296.233	49.49
296.447	53.59
296.662	-1.71
296.877	12.63
297.091	-32.43
297.306	41.3
297.52	6.49
297.735	115.03
297.949	37.2
298.164	41.3
298.378	45.4
298.593	24.92
298.807	-3.75
299.022	90.45
299.236	74.07
299.451	8.53
299.665	57.68
299.88	104.79
300.094	-48.81
300.309	39.25
300.523	-20.14
300.737	72.02
300.952	61.78
301.166	80.21
301.381	-46.76
301.595	-3.75
301.809	31.06
302.024	10.58
302.238	-38.57
302.452	55.64
302.667	-9.9
302.881	84.31
303.095	69.97
303.309	53.59
303.524	39.25
303.738	-7.85
303.952	35.16
304.166	16.73
304.381	-44.71
304.595	16.73
304.809	45.4
305.023	59.73
305.237	37.2
305.452	29.01
305.666	29.01
305.88	12.63
306.094	29.01
306.308	45.4
306.522	35.16
306.736	41.3
306.95	57.68
307.164	0.34
307.379	29.01
307.593	69.97
307.807	33.11
308.021	106.84
308.235	0.34
308.449	76.12
308.663	53.59
308.877	112.98
309.091	41.3
309.305	10.58
309.519	18.77
309.733	80.21
309.947	6.49
310.161	-26.28
310.374	86.36
310.588	53.59
310.802	35.16
311.016	31.06
311.23	18.77
311.444	26.96
311.658	4.44
311.872	65.88
312.085	53.59
312.299	41.3
312.513	65.88
312.727	14.68
312.941	-46.76
313.154	16.73
313.368	41.3
313.582	117.08
313.796	-22.19
314.009	-11.95
314.223	86.36
314.437	47.44
314.651	96.6
314.864	67.92
315.078	-22.19
315.292	92.5
315.505	-1.71
315.719	78.16
315.933	-30.38
316.146	-22.19
316.36	6.49
316.573	-26.28
316.787	45.4
317.001	96.6
317.214	-1.71
317.428	43.35
317.641	33.11
317.855	18.77
318.068	43.35
318.282	31.06
318.495	115.03
318.709	106.84
318.922	14.68
319.136	22.87
319.349	78.16
319.563	8.53
319.776	86.36
319.99	24.92
320.203	49.49
320.417	57.68
320.63	35.16
320.843	131.41
321.057	104.79
321.27	72.02
321.483	86.36
321.697	119.12
321.91	4.44
322.124	16.73
322.337	-38.57
322.55	53.59
322.763	8.53
322.977	63.83
323.19	92.5
323.403	24.92
323.617	69.97
323.83	104.79
324.043	-3.75
324.256	41.3
324.469	-7.85
324.683	49.49
324.896	14.68
325.109	98.64
325.322	-54.95
325.535	45.4
325.748	22.87
325.962	35.16
326.175	-7.85
326.388	10.58
326.601	78.16
326.814	4.44
327.027	57.68
327.24	22.87
327.453	96.6
327.666	47.44
327.879	100.69
328.092	55.64
328.305	41.3
328.518	14.68
328.731	69.97
328.944	86.36
329.157	-7.85
329.37	10.58
329.583	78.16
329.796	14.68
330.009	53.59
330.222	47.44
330.435	82.26
330.648	63.83
330.861	90.45
331.073	51.54
331.286	45.4
331.499	49.49
331.712	47.44
331.925	41.3
332.138	-5.8
332.35	65.88
332.563	22.87
332.776	53.59
332.989	12.63
333.202	6.49
333.414	65.88
333.627	10.58
333.84	-7.85
334.053	78.16
334.265	78.16
334.478	-3.75
334.691	0.34
334.903	63.83
335.116	35.16
335.329	8.53
335.541	45.4
335.754	84.31
335.966	69.97
336.179	16.73
336.392	110.93
336.604	104.79
336.817	18.77
337.029	14.68
337.242	37.2
337.454	18.77
337.667	-9.9
337.88	55.64
338.092	47.44
338.305	65.88
338.517	-5.8
338.729	86.36
338.942	76.12
339.154	51.54
339.367	16.73
339.579	41.3
339.792	41.3
340.004	76.12
340.217	63.83
340.429	53.59
340.641	55.64
340.854	49.49
341.066	-26.28
341.278	80.21
341.491	121.17
341.703	102.74
341.915	16.73
342.128	63.83
342.34	0.34
342.552	-24.23
342.764	29.01
342.977	37.2
343.189	78.16
343.401	18.77
343.613	-3.75
343.826	43.35
344.038	53.59
344.25	67.92
344.462	31.06
344.674	53.59
344.886	76.12
345.099	53.59
345.311	24.92
345.523	47.44
345.735	-40.62
345.947	67.92
346.159	82.26
346.371	84.31
346.583	10.58
346.795	78.16
347.007	90.45
347.219	41.3
347.431	69.97
347.643	74.07
347.855	59.73
348.067	35.16
348.279	-40.62
348.491	26.96
348.703	47.44
348.915	41.3
349.127	22.87
349.339	59.73
349.551	76.12
349.763	29.01
349.975	59.73
350.187	37.2
350.399	100.69
350.61	94.55
350.822	-7.85
351.034	69.97
351.246	65.88
351.458	20.82
351.669	26.96
351.881	63.83
352.093	125.27
352.305	84.31
352.517	43.35
352.728	72.02
352.94	10.58
353.152	102.74
353.363	55.64
353.575	98.64
353.787	127.32
353.999	65.88
354.21	14.68
354.422	14.68
354.633	112.98
354.845	4.44
355.057	100.69
355.268	57.68
355.48	55.64
355.692	10.58
355.903	4.44
356.115	-40.62
356.326	24.92
356.538	2.39
356.749	41.3
356.961	24.92
357.172	22.87
357.384	-34.47
357.595	84.31
357.807	121.17
358.018	2.39
358.23	-7.85
358.441	112.98
358.653	100.69
358.864	55.64
359.075	0.34
359.287	33.11
359.498	51.54
359.709	49.49
359.921	74.07
360.132	6.49
360.344	24.92
360.555	10.58
360.766	24.92
360.977	121.17
361.189	18.77
361.4	16.73
361.611	115.03
361.823	76.12
362.034	65.88
362.245	33.11
362.456	6.49
362.667	106.84
362.879	-36.52
363.09	16.73
363.301	86.36
363.512	-54.95
363.723	35.16
363.935	74.07
364.146	26.96
364.357	4.44
364.568	49.49
364.779	-3.75
364.99	53.59
365.201	74.07
365.412	45.4
365.623	16.73
365.834	76.12
366.045	41.3
366.256	94.55
366.467	43.35
366.678	0.34
366.889	53.59
367.1	16.73
367.311	6.49
367.522	24.92
367.733	98.64
367.944	115.03
368.155	20.82
368.366	65.88
368.577	127.32
368.788	12.63
368.999	59.73
369.209	41.3
369.42	94.55
369.631	123.22
369.842	92.5
370.053	84.31
370.264	51.54
370.474	88.4
370.685	74.07
370.896	72.02
371.107	45.4
371.317	65.88
371.528	6.49
371.739	63.83
371.95	100.69
372.16	41.3
372.371	35.16
372.582	35.16
372.792	94.55
373.003	127.32
373.214	-1.71
373.424	24.92
373.635	16.73
373.846	94.55
374.056	57.68
374.267	41.3
374.477	57.68
374.688	51.54
374.898	61.78
375.109	20.82
375.319	59.73
375.53	39.25
375.74	102.74
375.951	69.97
376.161	51.54
376.372	43.35
376.582	41.3
376.793	-1.71
377.003	22.87
377.214	59.73
377.424	67.92
377.635	33.11
377.845	110.93
378.055	92.5
378.266	45.4
378.476	61.78
378.686	61.78
378.897	-22.19
379.107	92.5
379.317	74.07
379.528	35.16
379.738	104.79
379.948	33.11
380.158	100.69
380.369	8.53
380.579	31.06
380.789	53.59
380.999	59.73
381.21	67.92
381.42	100.69
381.63	-22.19
381.84	92.5
382.05	65.88
382.261	59.73
382.471	94.55
382.681	86.36
382.891	49.49
383.101	16.73
383.311	104.79
383.521	39.25
383.731	43.35
383.941	96.6
384.151	72.02
384.361	88.4
384.571	35.16
384.781	84.31
384.991	63.83
385.201	84.31
385.411	41.3
385.621	78.16
385.831	63.83
386.041	18.77
386.251	26.96
386.461	78.16
386.671	24.92
386.881	59.73
387.091	33.11
387.301	137.56
387.511	4.44
387.72	84.31
387.93	82.26
388.14	2.39
388.35	33.11
388.56	31.06
388.769	51.54
388.979	0.34
389.189	45.4
389.399	20.82
389.609	78.16
389.818	57.68
390.028	45.4
390.238	63.83
390.447	106.84
390.657	123.22
390.867	67.92
391.076	98.64
391.286	84.31
391.496	24.92
391.705	59.73
391.915	55.64
392.125	43.35
392.334	80.21
392.544	112.98
392.753	119.12
392.963	22.87
393.172	69.97
393.382	-3.75
393.591	112.98
393.801	53.59
394.01	65.88
394.22	49.49
394.429	119.12
394.639	18.77
394.848	22.87
395.058	119.12
395.267	43.35
395.477	149.84
395.686	96.6
395.895	135.51
396.105	121.17
396.314	78.16
396.524	-1.71
396.733	22.87
396.942	139.6
397.152	80.21
397.361	33.11
397.57	143.7
397.78	119.12
397.989	141.65
398.198	135.51
398.407	86.36
398.617	143.7
398.826	90.45
399.035	108.88
399.244	59.73
399.453	143.7
399.663	121.17
399.872	147.8
400.081	0.34
400.29	100.69
400.499	145.75
400.708	90.45
400.917	172.37
401.127	119.12
401.336	76.12
401.545	186.71
401.754	33.11
401.963	192.85
402.172	98.64
402.381	117.08
402.59	131.41
402.799	153.94
403.008	98.64
403.217	180.56
403.426	205.14
403.635	92.5
403.844	155.99
404.053	147.8
404.262	135.51
404.471	162.13
404.68	86.36
404.888	160.08
405.097	207.19
405.306	147.8
405.515	172.37
405.724	141.65
405.933	180.56
406.142	184.66
406.35	180.56
406.559	188.75
406.768	201.04
406.977	235.86
407.185	196.95
407.394	229.71
407.603	229.71
407.812	252.24
408.02	213.33
408.229	201.04
408.438	170.32
408.646	268.63
408.855	315.73
409.064	246.1
409.272	297.3
409.481	201.04
409.69	299.34
409.898	254.29
410.107	352.59
410.315	350.54
410.524	293.2
410.733	373.07
410.941	303.44
411.15	362.83
411.358	403.79
411.567	473.42
411.775	405.84
411.984	491.85
412.192	463.18
412.401	418.13
412.609	524.62
412.818	534.86
413.026	498
413.234	459.09
413.443	536.91
413.651	487.76
413.86	663.88
414.068	567.63
414.276	655.69
414.485	536.91
414.693	622.92
414.901	710.99
415.11	727.37
415.318	647.5
415.526	688.46
415.734	794.95
415.943	799.05
416.151	891.21
416.359	872.78
416.567	876.87
416.776	960.84
416.984	962.89
417.192	942.41
417.4	983.37
417.608	1007.94
417.817	1061.19
418.025	1110.34
418.233	1122.63
418.441	1073.48
418.649	1081.67
418.857	1345.86
419.065	1329.47
419.273	1339.71
419.481	1352
419.689	1427.78
419.897	1368.38
420.105	1554.75
420.313	1667.39
420.521	1614.14
420.729	1734.97
420.937	1777.98
421.145	1823.03
421.353	1849.66
421.561	1886.52
421.769	1958.2
421.977	2158.9
422.185	2105.65
422.393	2165.04
422.601	2234.68
422.809	2277.68
423.017	2351.41
423.224	2351.41
423.432	2564.4
423.64	2464.05
423.848	2736.43
424.056	2691.37
424.263	2984.23
424.471	2933.03
424.679	2945.32
424.887	3008.81
425.094	3223.84
425.302	3250.47
425.51	3506.46
425.718	3442.98
425.925	3518.75
426.133	3619.1
426.341	3860.76
426.548	4024.6
426.756	3957.02
426.964	3873.05
427.171	4311.32
427.379	4382.99
427.586	4526.35
427.794	4628.75
428.001	4837.64
428.209	5003.53
428.417	5050.63
428.624	5390.6
428.832	5310.72
429.039	5382.4
429.247	5325.06
429.454	5767.42
429.662	6211.83
429.869	5699.84
430.076	6091
430.284	5859.58
430.491	6320.37
430.699	6586.61
430.906	6465.78
431.114	6568.18
431.321	6971.63
431.528	7129.32
431.736	7602.4
431.943	7895.26
432.15	7393.51
432.358	7821.53
432.565	8175.83
432.772	8089.82
432.979	8636.63
433.187	8640.72
433.394	8779.98
433.601	9275.59
433.808	9373.89
434.016	9277.64
434.223	9627.84
434.43	10436.79
434.637	9914.56
434.844	10891.44
435.052	10809.52
435.259	10617.01
435.466	10948.78
435.673	10905.77
435.88	11647.14
436.087	12208.28
436.294	12495
436.501	11813.03
436.708	12210.33
436.915	12701.84
437.122	13144.2
437.329	13119.63
437.537	13492.36
437.743	13758.6
437.95	13711.49
438.157	14385.27
438.364	14915.7
438.571	14796.92
438.778	14829.68
438.985	16365.66
439.192	15523.94
439.399	16113.76
439.606	15888.48
439.813	16658.52
440.02	17903.68
440.227	17528.91
440.433	17322.06
440.64	17889.35
440.847	17821.77
441.054	17956.93
441.261	19218.48
441.467	18913.33
441.674	19648.55
441.881	20301.86
442.088	19965.99
442.294	20125.73
442.501	20621.34
442.708	21026.84
442.914	21745.67
443.121	23117.81
443.328	22239.23
443.534	23889.9
443.741	22917.11
443.948	22628.35
444.154	24182.76
444.361	24158.18
444.568	24506.34
444.774	24326.11
444.981	24692.7
445.187	25673.68
445.394	26251.2
445.6	26126.28
445.807	28538.79
446.013	27363.25
446.22	28149.67
446.426	29304.73
446.633	29489.04
446.839	30173.06
447.046	28970.91
447.252	30691.2
447.459	31053.69
447.665	30349.19
447.871	31864.69
448.078	33371.99
448.284	31598.45
448.491	32773.99
448.697	33986.38
448.903	34539.33
449.11	34588.49
449.316	34166.6
449.522	34484.04
449.728	35903.28
449.935	35950.38
450.141	35972.91
450.347	36611.88
450.553	35321.66
450.76	36022.06
450.966	37136.16
451.172	36849.44
451.378	37811.99
451.584	37146.4
451.791	37627.67
451.997	37644.05
452.203	38340.36
452.409	38295.31
452.615	38424.33
452.821	36773.67
453.027	36603.69
453.233	38586.12
453.44	36908.83
453.646	37197.6
453.852	37402.39
454.058	37807.89
454.264	36493.1
454.47	37445.4
454.676	36095.79
454.882	37859.09
455.088	34484.04
455.294	35413.82
455.5	35866.42
455.705	36374.31
455.911	34682.69
456.117	34365.26
456.323	33384.28
456.529	32059.24
456.735	33400.66
456.941	32368.49
457.147	32028.52
457.352	31004.54
457.558	30467.97
457.764	30832.51
457.97	30048.14
458.176	29398.93
458.381	29624.21
458.587	28164.01
458.793	28209.06
458.999	26716.09
459.204	28503.97
459.41	27862.96
459.616	25862.09
459.821	25802.7
460.027	25552.85
460.233	25274.32
460.438	24133.61
460.644	24391.65
460.85	23283.7
461.055	23003.13
461.261	22693.88
461.466	21338.13
461.672	20324.38
461.878	21872.65
462.083	20500.51
462.289	20035.62
462.494	19836.97
462.7	19001.4
462.905	18477.12
463.111	19179.57
463.316	19232.82
463.522	18942
463.727	18686.01
463.932	18800.69
464.138	18595.9
464.343	18493.5
464.549	17899.59
464.754	18593.85
464.959	18358.33
465.165	18440.25
465.37	17799.24
465.575	17354.83
465.781	18073.67
465.986	17844.29
466.191	17424.46
466.397	17111.12
466.602	16330.84
466.807	16740.44
467.012	16894.04
467.218	16535.64
467.423	16685.14
467.628	16726.1
467.833	17074.26
468.038	16554.07
468.244	16279.64
468.449	16889.94
468.654	16195.68
