Data from USB4F104151__99__11-38-01-897.txt Node

Date: Fri Mar 14 11:38:01 EDT 2025
User: louis
Spectrometer: USB4F10415
Trigger mode: 4
Integration Time (sec): 2.000000E-2
Scans to average: 1
Electric dark correction enabled: true
Nonlinearity correction enabled: false
Boxcar width: 0
XAxis mode: Wavelengths
Number of Pixels in Spectrum: 3648
>>>>>Begin Spectral Data<<<<<
178.204	-77.65
178.424	-77.65
178.644	-77.65
178.864	-10.07
179.084	-81.75
179.304	-61.27
179.524	-147.28
179.744	63.66
179.964	55.47
180.184	61.61
180.404	-22.36
180.624	-12.12
180.844	77.99
181.064	-61.27
181.283	-16.21
181.503	8.36
181.723	53.42
181.943	-30.55
182.163	65.71
182.383	39.08
182.602	47.27
182.822	49.32
183.042	45.23
183.262	-18.26
183.482	98.47
183.701	0.17
183.921	-40.79
184.141	-44.88
184.361	39.08
184.58	45.23
184.8	12.46
185.02	20.65
185.239	26.79
185.459	4.27
185.679	51.37
185.898	12.46
186.118	26.79
186.338	73.9
186.557	57.51
186.777	45.23
186.997	-44.88
187.216	47.27
187.436	-26.45
187.655	12.46
187.875	22.7
188.095	-18.26
188.314	14.51
188.534	69.8
188.753	41.13
188.973	59.56
189.192	57.51
189.412	37.03
189.631	-1.88
189.851	0.17
190.07	26.79
190.29	16.55
190.509	-5.97
190.729	47.27
190.948	8.36
191.168	118.95
191.387	112.81
191.607	51.37
191.826	-16.21
192.045	-53.08
192.265	-12.12
192.484	30.89
192.704	45.23
192.923	28.84
193.142	10.41
193.362	10.41
193.581	20.65
193.8	6.31
194.02	49.32
194.239	-22.36
194.458	18.6
194.678	8.36
194.897	-10.07
195.116	49.32
195.335	-57.17
195.555	22.7
195.774	30.89
195.993	0.17
196.212	26.79
196.432	10.41
196.651	30.89
196.87	-16.21
197.089	53.42
197.308	14.51
197.528	53.42
197.747	-3.93
197.966	-10.07
198.185	2.22
198.404	47.27
198.623	65.71
198.842	80.04
199.062	28.84
199.281	49.32
199.5	-34.64
199.719	49.32
199.938	49.32
200.157	49.32
200.376	37.03
200.595	0.17
200.814	-5.97
201.033	-57.17
201.252	75.95
201.471	57.51
201.69	-5.97
201.909	102.57
202.128	-22.36
202.347	20.65
202.566	8.36
202.785	-51.03
203.004	-44.88
203.223	37.03
203.442	114.86
203.661	57.51
203.879	24.75
204.098	55.47
204.317	-20.31
204.536	18.6
204.755	-20.31
204.974	10.41
205.193	22.7
205.411	12.46
205.63	20.65
205.849	34.99
206.068	121
206.287	-32.6
206.505	41.13
206.724	86.19
206.943	-48.98
207.162	-8.02
207.381	-18.26
207.599	59.56
207.818	-36.69
208.037	47.27
208.255	41.13
208.474	55.47
208.693	51.37
208.911	84.14
209.13	-3.93
209.349	43.18
209.567	-8.02
209.786	-38.74
210.005	12.46
210.223	-55.12
210.442	32.94
210.661	45.23
210.879	16.55
211.098	32.94
211.316	-1.88
211.535	73.9
211.753	22.7
211.972	-3.93
212.191	-26.45
212.409	0.17
212.628	41.13
212.846	-8.02
213.065	28.84
213.283	55.47
213.502	16.55
213.72	73.9
213.938	14.51
214.157	73.9
214.375	37.03
214.594	71.85
214.812	63.66
215.031	-8.02
215.249	0.17
215.467	16.55
215.686	-30.55
215.904	98.47
216.122	-22.36
216.341	30.89
216.559	65.71
216.778	67.75
216.996	-8.02
217.214	-3.93
217.432	28.84
217.651	75.95
217.869	14.51
218.087	39.08
218.306	-5.97
218.524	108.71
218.742	59.56
218.96	77.99
219.179	-26.45
219.397	20.65
219.615	4.27
219.833	22.7
220.051	57.51
220.27	2.22
220.488	61.61
220.706	28.84
220.924	-48.98
221.142	92.33
221.36	67.75
221.578	-18.26
221.796	-73.56
222.015	10.41
222.233	57.51
222.451	12.46
222.669	-8.02
222.887	16.55
223.105	34.99
223.323	4.27
223.541	-22.36
223.759	118.95
223.977	16.55
224.195	65.71
224.413	69.8
224.631	51.37
224.849	49.32
225.067	45.23
225.285	-32.6
225.503	39.08
225.721	-32.6
225.939	-51.03
226.157	69.8
226.375	69.8
226.592	2.22
226.81	84.14
227.028	45.23
227.246	8.36
227.464	67.75
227.682	-8.02
227.9	65.71
228.117	24.75
228.335	2.22
228.553	37.03
228.771	-5.97
228.989	-16.21
229.206	69.8
229.424	14.51
229.642	-12.12
229.86	41.13
230.077	12.46
230.295	90.28
230.513	104.62
230.731	37.03
230.948	77.99
231.166	92.33
231.384	20.65
231.601	-40.79
231.819	49.32
232.037	-69.46
232.254	-40.79
232.472	10.41
232.689	69.8
232.907	14.51
233.125	67.75
233.342	-48.98
233.56	34.99
233.777	20.65
233.995	39.08
234.213	-22.36
234.43	-12.12
234.648	61.61
234.865	-8.02
235.083	39.08
235.3	-16.21
235.518	37.03
235.735	-28.5
235.953	30.89
236.17	-18.26
236.388	2.22
236.605	-18.26
236.822	67.75
237.04	104.62
237.257	41.13
237.475	16.55
237.692	69.8
237.909	20.65
238.127	51.37
238.344	71.85
238.562	-12.12
238.779	20.65
238.996	32.94
239.214	-1.88
239.431	61.61
239.648	0.17
239.865	16.55
240.083	-38.74
240.3	20.65
240.517	-3.93
240.735	106.67
240.952	47.27
241.169	86.19
241.386	53.42
241.603	55.47
241.821	28.84
242.038	94.38
242.255	4.27
242.472	18.6
242.689	37.03
242.907	63.66
243.124	37.03
243.341	-36.69
243.558	14.51
243.775	-59.22
243.992	-51.03
244.209	-16.21
244.426	-3.93
244.643	-5.97
244.86	-26.45
245.078	20.65
245.295	-79.7
245.512	80.04
245.729	57.51
245.946	51.37
246.163	53.42
246.38	47.27
246.597	-73.56
246.814	141.48
247.031	22.7
247.248	104.62
247.464	32.94
247.681	43.18
247.898	4.27
248.115	-12.12
248.332	22.7
248.549	-14.17
248.766	24.75
248.983	41.13
249.2	6.31
249.417	41.13
249.633	-40.79
249.85	43.18
250.067	57.51
250.284	20.65
250.501	20.65
250.717	-5.97
250.934	-59.22
251.151	-3.93
251.368	-12.12
251.585	10.41
251.801	86.19
252.018	26.79
252.235	14.51
252.451	-28.5
252.668	-51.03
252.885	-10.07
253.102	110.76
253.318	-8.02
253.535	6.31
253.752	55.47
253.968	16.55
254.185	63.66
254.401	0.17
254.618	26.79
254.835	32.94
255.051	106.67
255.268	24.75
255.484	18.6
255.701	43.18
255.917	12.46
256.134	61.61
256.351	18.6
256.567	69.8
256.784	77.99
257	47.27
257.217	73.9
257.433	77.99
257.65	37.03
257.866	16.55
258.082	8.36
258.299	16.55
258.515	53.42
258.732	8.36
258.948	8.36
259.165	61.61
259.381	-10.07
259.597	53.42
259.814	39.08
260.03	28.84
260.246	112.81
260.463	0.17
260.679	-40.79
260.895	24.75
261.112	34.99
261.328	16.55
261.544	2.22
261.761	71.85
261.977	53.42
262.193	-22.36
262.409	18.6
262.626	61.61
262.842	8.36
263.058	-83.8
263.274	47.27
263.49	0.17
263.707	67.75
263.923	-38.74
264.139	24.75
264.355	10.41
264.571	80.04
264.787	55.47
265.004	63.66
265.22	24.75
265.436	32.94
265.652	8.36
265.868	4.27
266.084	26.79
266.3	69.8
266.516	-20.31
266.732	45.23
266.948	30.89
267.164	77.99
267.38	8.36
267.596	20.65
267.812	47.27
268.028	69.8
268.244	71.85
268.46	82.09
268.676	51.37
268.892	41.13
269.108	12.46
269.324	-89.94
269.54	10.41
269.756	24.75
269.972	-24.4
270.188	2.22
270.403	-36.69
270.619	30.89
270.835	59.56
271.051	63.66
271.267	37.03
271.483	100.52
271.698	28.84
271.914	26.79
272.13	32.94
272.346	51.37
272.562	47.27
272.777	39.08
272.993	139.43
273.209	63.66
273.425	-10.07
273.64	-36.69
273.856	22.7
274.072	-48.98
274.287	-10.07
274.503	100.52
274.719	49.32
274.934	28.84
275.15	20.65
275.366	-24.4
275.581	18.6
275.797	12.46
276.012	43.18
276.228	71.85
276.444	20.65
276.659	45.23
276.875	24.75
277.09	47.27
277.306	-8.02
277.521	102.57
277.737	24.75
277.952	32.94
278.168	22.7
278.383	28.84
278.599	53.42
278.814	57.51
279.03	4.27
279.245	59.56
279.461	-14.17
279.676	30.89
279.892	47.27
280.107	-5.97
280.322	2.22
280.538	77.99
280.753	-83.8
280.969	49.32
281.184	-36.69
281.399	90.28
281.615	37.03
281.83	69.8
282.045	-18.26
282.26	82.09
282.476	37.03
282.691	-30.55
282.906	55.47
283.122	100.52
283.337	-8.02
283.552	75.95
283.767	14.51
283.983	32.94
284.198	-14.17
284.413	4.27
284.628	10.41
284.843	-3.93
285.058	80.04
285.274	69.8
285.489	-3.93
285.704	92.33
285.919	90.28
286.134	86.19
286.349	12.46
286.564	57.51
286.779	63.66
286.995	77.99
287.21	-5.97
287.425	53.42
287.64	26.79
287.855	2.22
288.07	4.27
288.285	28.84
288.5	4.27
288.715	65.71
288.93	24.75
289.145	37.03
289.36	118.95
289.575	32.94
289.79	123.05
290.004	65.71
290.219	18.6
290.434	12.46
290.649	-5.97
290.864	77.99
291.079	49.32
291.294	14.51
291.509	57.51
291.724	80.04
291.938	-18.26
292.153	16.55
292.368	0.17
292.583	2.22
292.798	51.37
293.012	-10.07
293.227	14.51
293.442	28.84
293.657	51.37
293.871	51.37
294.086	37.03
294.301	-42.84
294.516	8.36
294.73	-5.97
294.945	14.51
295.16	-18.26
295.374	82.09
295.589	28.84
295.804	100.52
296.018	24.75
296.233	12.46
296.447	57.51
296.662	-69.46
296.877	45.23
297.091	16.55
297.306	75.95
297.52	71.85
297.735	34.99
297.949	63.66
298.164	-22.36
298.378	84.14
298.593	4.27
298.807	-12.12
299.022	10.41
299.236	80.04
299.451	28.84
299.665	53.42
299.88	0.17
300.094	0.17
300.309	41.13
300.523	86.19
300.737	2.22
300.952	98.47
301.166	67.75
301.381	86.19
301.595	-10.07
301.809	82.09
302.024	34.99
302.238	-20.31
302.452	26.79
302.667	45.23
302.881	-34.64
303.095	75.95
303.309	-59.22
303.524	-46.93
303.738	16.55
303.952	32.94
304.166	4.27
304.381	-22.36
304.595	6.31
304.809	49.32
305.023	57.51
305.237	80.04
305.452	45.23
305.666	32.94
305.88	34.99
306.094	-14.17
306.308	32.94
306.522	88.23
306.736	10.41
306.95	22.7
307.164	4.27
307.379	-40.79
307.593	22.7
307.807	14.51
308.021	43.18
308.235	71.85
308.449	28.84
308.663	88.23
308.877	41.13
309.091	2.22
309.305	67.75
309.519	16.55
309.733	69.8
309.947	82.09
310.161	63.66
310.374	47.27
310.588	6.31
310.802	51.37
311.016	75.95
311.23	80.04
311.444	14.51
311.658	4.27
311.872	92.33
312.085	59.56
312.299	63.66
312.513	32.94
312.727	28.84
312.941	34.99
313.154	41.13
313.368	47.27
313.582	51.37
313.796	24.75
314.009	28.84
314.223	16.55
314.437	47.27
314.651	41.13
314.864	51.37
315.078	71.85
315.292	6.31
315.505	80.04
315.719	-30.55
315.933	51.37
316.146	24.75
316.36	43.18
316.573	63.66
316.787	-8.02
317.001	98.47
317.214	2.22
317.428	-5.97
317.641	-51.03
317.855	37.03
318.068	45.23
318.282	4.27
318.495	155.82
318.709	41.13
318.922	-32.6
319.136	43.18
319.349	45.23
319.563	-5.97
319.776	26.79
319.99	43.18
320.203	22.7
320.417	86.19
320.63	20.65
320.843	39.08
321.057	49.32
321.27	77.99
321.483	-14.17
321.697	16.55
321.91	-44.88
322.124	69.8
322.337	-5.97
322.55	6.31
322.763	28.84
322.977	32.94
323.19	37.03
323.403	16.55
323.617	28.84
323.83	37.03
324.043	-5.97
324.256	51.37
324.469	57.51
324.683	86.19
324.896	24.75
325.109	-8.02
325.322	22.7
325.535	114.86
325.748	4.27
325.962	41.13
326.175	14.51
326.388	63.66
326.601	16.55
326.814	59.56
327.027	-14.17
327.24	102.57
327.453	32.94
327.666	67.75
327.879	47.27
328.092	102.57
328.305	14.51
328.518	51.37
328.731	90.28
328.944	73.9
329.157	12.46
329.37	16.55
329.583	82.09
329.796	63.66
330.009	-24.4
330.222	12.46
330.435	0.17
330.648	45.23
330.861	43.18
331.073	34.99
331.286	102.57
331.499	-10.07
331.712	-48.98
331.925	84.14
332.138	82.09
332.35	12.46
332.563	65.71
332.776	41.13
332.989	53.42
333.202	77.99
333.414	49.32
333.627	71.85
333.84	82.09
334.053	65.71
334.265	102.57
334.478	16.55
334.691	73.9
334.903	123.05
335.116	0.17
335.329	22.7
335.541	73.9
335.754	53.42
335.966	49.32
336.179	63.66
336.392	55.47
336.604	69.8
336.817	30.89
337.029	80.04
337.242	28.84
337.454	12.46
337.667	14.51
337.88	92.33
338.092	2.22
338.305	24.75
338.517	-14.17
338.729	127.14
338.942	4.27
339.154	73.9
339.367	-40.79
339.579	71.85
339.792	32.94
340.004	2.22
340.217	20.65
340.429	98.47
340.641	67.75
340.854	34.99
341.066	24.75
341.278	80.04
341.491	75.95
341.703	77.99
341.915	47.27
342.128	41.13
342.34	39.08
342.552	0.17
342.764	4.27
342.977	114.86
343.189	102.57
343.401	30.89
343.613	57.51
343.826	106.67
344.038	96.43
344.25	26.79
344.462	-12.12
344.674	22.7
344.886	127.14
345.099	43.18
345.311	94.38
345.523	-3.93
345.735	49.32
345.947	61.61
346.159	14.51
346.371	12.46
346.583	18.6
346.795	26.79
347.007	-42.84
347.219	69.8
347.431	26.79
347.643	51.37
347.855	14.51
348.067	51.37
348.279	-8.02
348.491	57.51
348.703	28.84
348.915	2.22
349.127	59.56
349.339	65.71
349.551	28.84
349.763	37.03
349.975	6.31
350.187	63.66
350.399	24.75
350.61	41.13
350.822	-53.08
351.034	51.37
351.246	20.65
351.458	6.31
351.669	53.42
351.881	43.18
352.093	22.7
352.305	67.75
352.517	-26.45
352.728	106.67
352.94	-3.93
353.152	71.85
353.363	12.46
353.575	67.75
353.787	-18.26
353.999	4.27
354.21	10.41
354.422	24.75
354.633	16.55
354.845	37.03
355.057	-53.08
355.268	73.9
355.48	65.71
355.692	10.41
355.903	10.41
356.115	47.27
356.326	24.75
356.538	73.9
356.749	28.84
356.961	92.33
357.172	2.22
357.384	22.7
357.595	73.9
357.807	100.52
358.018	-44.88
358.23	49.32
358.441	34.99
358.653	57.51
358.864	-53.08
359.075	67.75
359.287	63.66
359.498	67.75
359.709	28.84
359.921	51.37
360.132	84.14
360.344	114.86
360.555	-10.07
360.766	26.79
360.977	-22.36
361.189	-24.4
361.4	45.23
361.611	84.14
361.823	41.13
362.034	104.62
362.245	-10.07
362.456	51.37
362.667	28.84
362.879	90.28
363.09	47.27
363.301	106.67
363.512	43.18
363.723	69.8
363.935	67.75
364.146	69.8
364.357	10.41
364.568	104.62
364.779	14.51
364.99	61.61
365.201	41.13
365.412	55.47
365.623	28.84
365.834	77.99
366.045	26.79
366.256	26.79
366.467	86.19
366.678	106.67
366.889	63.66
367.1	41.13
367.311	84.14
367.522	12.46
367.733	61.61
367.944	39.08
368.155	63.66
368.366	41.13
368.577	84.14
368.788	73.9
368.999	-30.55
369.209	86.19
369.42	114.86
369.631	133.29
369.842	110.76
370.053	63.66
370.264	2.22
370.474	37.03
370.685	32.94
370.896	37.03
371.107	41.13
371.317	57.51
371.528	92.33
371.739	39.08
371.95	73.9
372.16	-28.5
372.371	47.27
372.582	24.75
372.792	77.99
373.003	82.09
373.214	12.46
373.424	131.24
373.635	71.85
373.846	82.09
374.056	32.94
374.267	59.56
374.477	45.23
374.688	80.04
374.898	-18.26
375.109	37.03
375.319	90.28
375.53	96.43
375.74	4.27
375.951	55.47
376.161	-46.93
376.372	53.42
376.582	90.28
376.793	73.9
377.003	28.84
377.214	2.22
377.424	71.85
377.635	49.32
377.845	16.55
378.055	102.57
378.266	106.67
378.476	45.23
378.686	47.27
378.897	28.84
379.107	41.13
379.317	61.61
379.528	57.51
379.738	12.46
379.948	26.79
380.158	110.76
380.369	65.71
380.579	96.43
380.789	90.28
380.999	12.46
381.21	92.33
381.42	77.99
381.63	86.19
381.84	12.46
382.05	6.31
382.261	34.99
382.471	32.94
382.681	67.75
382.891	41.13
383.101	73.9
383.311	127.14
383.521	-59.22
383.731	114.86
383.941	92.33
384.151	82.09
384.361	-16.21
384.571	61.61
384.781	63.66
384.991	63.66
385.201	32.94
385.411	73.9
385.621	82.09
385.831	49.32
386.041	57.51
386.251	-42.84
386.461	49.32
386.671	39.08
386.881	84.14
387.091	59.56
387.301	59.56
387.511	73.9
387.72	82.09
387.93	59.56
388.14	12.46
388.35	90.28
388.56	75.95
388.769	45.23
388.979	82.09
389.189	20.65
389.399	32.94
389.609	-1.88
389.818	100.52
390.028	28.84
390.238	139.43
390.447	63.66
390.657	69.8
390.867	82.09
391.076	104.62
391.286	-14.17
391.496	0.17
391.705	96.43
391.915	80.04
392.125	24.75
392.334	55.47
392.544	49.32
392.753	8.36
392.963	20.65
393.172	149.67
393.382	32.94
393.591	98.47
393.801	57.51
394.01	98.47
394.22	51.37
394.429	121
394.639	8.36
394.848	106.67
395.058	24.75
395.267	102.57
395.477	108.71
395.686	100.52
395.895	114.86
396.105	166.06
396.314	137.38
396.524	110.76
396.733	98.47
396.942	49.32
397.152	112.81
397.361	104.62
397.57	125.1
397.78	127.14
397.989	88.23
398.198	77.99
398.407	164.01
398.617	96.43
398.826	71.85
399.035	45.23
399.244	63.66
399.453	55.47
399.663	28.84
399.872	127.14
400.081	114.86
400.29	88.23
400.499	141.48
400.708	45.23
400.917	86.19
401.127	135.34
401.336	96.43
401.545	65.71
401.754	131.24
401.963	139.43
402.172	106.67
402.381	69.8
402.59	98.47
402.799	98.47
403.008	145.58
403.217	123.05
403.426	123.05
403.635	73.9
403.844	172.2
404.053	112.81
404.262	147.62
404.471	133.29
404.68	151.72
404.888	184.49
405.097	106.67
405.306	123.05
405.515	159.91
405.724	123.05
405.933	198.82
406.142	166.06
406.35	188.58
406.559	188.58
406.768	145.58
406.977	254.12
407.185	180.39
407.394	186.54
407.603	131.24
407.812	225.45
408.02	164.01
408.229	213.16
408.438	254.12
408.646	227.5
408.855	256.17
409.064	268.45
409.272	204.97
409.481	297.13
409.69	260.26
409.898	299.17
410.107	290.98
410.315	303.27
410.524	270.5
410.733	303.27
410.941	241.83
411.15	403.62
411.358	319.65
411.567	436.39
411.775	387.24
411.984	307.37
412.192	397.48
412.401	391.33
412.609	395.43
412.818	473.25
413.026	422.05
413.234	516.26
413.443	544.93
413.651	483.49
413.86	438.44
414.068	542.88
414.276	589.99
414.485	575.65
414.693	710.82
414.901	694.43
415.11	659.62
415.318	653.47
415.526	690.34
415.734	757.92
415.943	741.54
416.151	807.07
416.359	759.97
416.567	886.94
416.776	721.06
416.984	1005.72
417.192	848.03
417.4	946.33
417.608	882.85
417.817	999.58
418.025	1030.3
418.233	1003.68
418.441	1015.96
418.649	1104.03
418.857	1144.99
419.065	1204.38
419.273	1196.18
419.481	1224.86
419.689	1296.53
419.897	1339.54
420.105	1400.98
420.313	1398.93
420.521	1568.91
420.729	1540.24
420.937	1515.67
421.145	1636.5
421.353	1722.51
421.561	1843.34
421.769	1722.51
421.977	2015.37
422.185	1777.81
422.393	1970.32
422.601	2056.33
422.809	2113.67
423.017	2130.06
423.224	2136.2
423.432	2322.57
423.64	2265.22
423.848	2349.19
424.056	2390.15
424.263	2588.8
424.471	2728.07
424.679	2707.59
424.887	2973.82
425.094	2904.19
425.302	2846.85
425.51	3055.74
425.718	3250.3
425.925	3143.8
426.133	3209.34
426.341	3514.49
426.548	3647.6
426.756	3573.88
426.964	3709.04
427.171	3797.1
427.379	3993.71
427.586	4077.68
427.794	4139.12
428.001	4313.19
428.209	4634.72
428.417	4315.24
428.624	4663.4
428.832	4644.96
429.039	4780.13
429.247	4700.26
429.454	5253.21
429.662	5546.07
429.869	5124.19
430.076	5521.49
430.284	5507.16
430.491	5515.35
430.699	5881.94
430.906	6027.34
431.114	6172.75
431.321	6256.72
431.528	6338.63
431.736	6635.59
431.943	7108.67
432.15	6957.12
432.358	6942.78
432.565	7225.4
432.772	7180.35
432.979	7671.86
433.187	7714.87
433.394	7897.14
433.601	8529.96
433.808	8452.14
434.016	8421.42
434.223	8843.3
434.43	9246.75
434.637	9084.96
434.844	9623.58
435.052	9832.47
435.259	9648.15
435.466	9930.77
435.673	9768.98
435.88	10348.56
436.087	10903.56
436.294	10977.28
436.501	10559.5
436.708	10870.79
436.915	11085.83
437.122	11784.18
437.329	11749.37
437.537	11964.4
437.743	12347.37
437.95	12255.22
438.157	13000.68
438.364	13359.07
438.571	13324.26
438.778	13434.85
438.985	14444.49
439.192	13991.89
439.399	14358.48
439.606	14032.85
439.813	14907.34
440.02	15775.67
440.227	15650.75
440.433	15656.89
440.64	16043.96
440.847	15933.37
441.054	16330.67
441.261	17276.84
441.467	17287.07
441.674	17473.44
441.881	18005.91
442.088	17985.43
442.294	18141.08
442.501	18331.54
442.708	18583.44
442.914	19371.91
443.121	20139.9
443.328	19484.55
443.534	21241.7
443.741	20416.37
443.948	20574.06
444.154	21696.35
444.361	21589.86
444.568	21964.64
444.774	21712.74
444.981	22120.28
445.187	22531.92
445.394	23897.92
445.6	23435.08
445.807	25874.21
446.013	24512.31
446.22	24971.05
446.426	25921.31
446.633	26545.94
446.839	27350.79
447.046	26177.31
447.252	27506.44
447.459	27744
447.665	27223.82
447.871	28772.08
448.078	29972.19
448.284	28710.64
448.491	29073.14
448.697	30340.83
448.903	31219.41
449.11	31106.77
449.316	30586.58
449.522	31289.04
449.728	31848.13
449.935	32235.2
450.141	32429.76
450.347	33089.2
450.553	32380.6
450.76	32345.79
450.966	33476.27
451.172	33105.59
451.378	33898.15
451.584	33793.7
451.791	34485.92
451.997	34096.8
452.203	34469.53
452.409	34647.71
452.615	34418.33
452.821	33257.14
453.027	32786.1
453.233	34408.09
453.44	33244.85
453.646	33779.37
453.852	33752.74
454.058	34227.87
454.264	33013.43
454.47	34000.55
454.676	33353.39
454.882	34406.05
455.088	31549.13
455.294	32057.03
455.5	32227.01
455.705	32634.55
455.911	31663.82
456.117	30584.54
456.323	30066.4
456.529	28802.8
456.735	29898.47
456.941	29597.42
457.147	28845.81
457.352	27850.5
457.558	27508.49
457.764	27604.74
457.97	26980.11
458.176	26814.23
458.381	26427.16
458.587	25292.58
458.793	25450.28
458.999	23828.29
459.204	25646.88
459.41	24772.4
459.616	23412.55
459.821	23562.05
460.027	23314.25
460.233	22820.69
460.438	21522.27
460.644	22064.99
460.85	21010.28
461.055	20737.9
461.261	20756.33
461.466	19089.29
461.672	18487.18
461.878	19529.6
462.083	18335.63
462.289	18005.91
462.494	17958.81
462.7	17336.23
462.905	16658.35
463.111	17008.55
463.316	17268.64
463.522	17074.09
463.727	16926.63
463.932	17115.05
464.138	16736.17
464.343	16779.18
464.549	16236.47
464.754	16664.49
464.959	16707.5
465.165	16514.99
465.37	15822.78
465.575	15851.45
465.781	16175.03
465.986	16211.89
466.191	15626.17
466.397	15507.39
466.602	14583.76
466.807	15028.17
467.012	14974.92
467.218	14876.62
467.423	14741.45
467.628	15073.22
