Data from USB4F104151__53__11-37-16-102.txt Node

Date: Fri Mar 14 11:37:16 EDT 2025
User: louis
Spectrometer: USB4F10415
Trigger mode: 4
Integration Time (sec): 2.000000E-2
Scans to average: 1
Electric dark correction enabled: true
Nonlinearity correction enabled: false
Boxcar width: 0
XAxis mode: Wavelengths
Number of Pixels in Spectrum: 3648
>>>>>Begin Spectral Data<<<<<
178.204	-50.69
178.424	-50.69
178.644	-50.69
178.864	-79.36
179.084	-30.21
179.304	51.71
179.524	-44.54
179.744	0.51
179.964	-3.58
180.184	16.9
180.404	-50.69
180.624	-26.11
180.844	55.81
181.064	-28.16
181.283	-36.35
181.503	35.33
181.723	29.18
181.943	0.51
182.163	25.09
182.383	-93.69
182.602	72.19
182.822	66.05
183.042	86.53
183.262	-9.73
183.482	43.52
183.701	31.23
183.921	12.8
184.141	49.66
184.361	2.56
184.58	10.75
184.8	47.62
185.02	0.51
185.239	-1.54
185.459	-3.58
185.679	14.85
185.898	-5.63
186.118	88.57
186.338	-32.26
186.557	-22.02
186.777	66.05
186.997	-26.11
187.216	-17.92
187.436	-28.16
187.655	43.52
187.875	86.53
188.095	23.04
188.314	20.99
188.534	70.14
188.753	53.76
188.973	39.42
189.192	27.14
189.412	43.52
189.631	-34.3
189.851	49.66
190.07	37.38
190.29	18.94
190.509	47.62
190.729	16.9
190.948	25.09
191.168	88.57
191.387	88.57
191.607	49.66
191.826	16.9
192.045	41.47
192.265	-13.82
192.484	27.14
192.704	33.28
192.923	-46.59
193.142	115.2
193.362	18.94
193.581	-1.54
193.8	98.81
194.02	10.75
194.239	55.81
194.458	45.57
194.678	12.8
194.897	16.9
195.116	100.86
195.335	74.24
195.555	-19.97
195.774	-3.58
195.993	78.33
196.212	47.62
196.432	-58.88
196.651	0.51
196.87	33.28
197.089	-3.58
197.308	55.81
197.528	80.38
197.747	41.47
197.966	70.14
198.185	2.56
198.404	25.09
198.623	8.7
198.842	80.38
199.062	64
199.281	-15.87
199.5	55.81
199.719	8.7
199.938	51.71
200.157	0.51
200.376	53.76
200.595	39.42
200.814	37.38
201.033	-7.68
201.252	25.09
201.471	16.9
201.69	68.09
201.909	-11.78
202.128	84.48
202.347	72.19
202.566	47.62
202.785	33.28
203.004	-54.78
203.223	98.81
203.442	14.85
203.661	66.05
203.879	49.66
204.098	-3.58
204.317	25.09
204.536	107.01
204.755	2.56
204.974	78.33
205.193	-7.68
205.411	78.33
205.63	20.99
205.849	20.99
206.068	12.8
206.287	72.19
206.505	100.86
206.724	107.01
206.943	33.28
207.162	23.04
207.381	-3.58
207.599	47.62
207.818	-40.45
208.037	47.62
208.255	29.18
208.474	18.94
208.693	76.29
208.911	8.7
209.13	61.95
209.349	125.44
209.567	-28.16
209.786	64
210.005	43.52
210.223	39.42
210.442	-17.92
210.661	49.66
210.879	-15.87
211.098	49.66
211.316	41.47
211.535	121.34
211.753	35.33
211.972	51.71
212.191	51.71
212.409	-28.16
212.628	72.19
212.846	41.47
213.065	35.33
213.283	33.28
213.502	-32.26
213.72	104.96
213.938	57.86
214.157	20.99
214.375	10.75
214.594	-11.78
214.812	74.24
215.031	27.14
215.249	35.33
215.467	18.94
215.686	51.71
215.904	10.75
216.122	20.99
216.341	43.52
216.559	68.09
216.778	27.14
216.996	41.47
217.214	14.85
217.432	-9.73
217.651	-13.82
217.869	-7.68
218.087	39.42
218.306	72.19
218.524	59.9
218.742	61.95
218.96	61.95
219.179	43.52
219.397	94.72
219.615	72.19
219.833	10.75
220.051	14.85
220.27	55.81
220.488	-44.54
220.706	49.66
220.924	59.9
221.142	94.72
221.36	6.66
221.578	35.33
221.796	-1.54
222.015	51.71
222.233	-7.68
222.451	-9.73
222.669	-7.68
222.887	76.29
223.105	39.42
223.323	84.48
223.541	33.28
223.759	-7.68
223.977	51.71
224.195	125.44
224.413	20.99
224.631	41.47
224.849	18.94
225.067	-5.63
225.285	55.81
225.503	47.62
225.721	-7.68
225.939	2.56
226.157	74.24
226.375	68.09
226.592	16.9
226.81	51.71
227.028	66.05
227.246	98.81
227.464	-13.82
227.682	64
227.9	-22.02
228.117	43.52
228.335	2.56
228.553	61.95
228.771	86.53
228.989	80.38
229.206	68.09
229.424	-19.97
229.642	16.9
229.86	6.66
230.077	70.14
230.295	16.9
230.513	8.7
230.731	55.81
230.948	84.48
231.166	27.14
231.384	51.71
231.601	35.33
231.819	4.61
232.037	-3.58
232.254	-3.58
232.472	45.57
232.689	25.09
232.907	10.75
233.125	-50.69
233.342	20.99
233.56	-15.87
233.777	59.9
233.995	59.9
234.213	76.29
234.43	31.23
234.648	14.85
234.865	0.51
235.083	10.75
235.3	39.42
235.518	8.7
235.735	16.9
235.953	57.86
236.17	-7.68
236.388	66.05
236.605	16.9
236.822	-19.97
237.04	20.99
237.257	37.38
237.475	-46.59
237.692	0.51
237.909	-17.92
238.127	49.66
238.344	68.09
238.562	57.86
238.779	18.94
238.996	10.75
239.214	-46.59
239.431	-3.58
239.648	55.81
239.865	47.62
240.083	10.75
240.3	31.23
240.517	-7.68
240.735	41.47
240.952	51.71
241.169	90.62
241.386	18.94
241.603	82.43
241.821	-9.73
242.038	2.56
242.255	53.76
242.472	33.28
242.689	43.52
242.907	16.9
243.124	-22.02
243.341	41.47
243.558	-44.54
243.775	-30.21
243.992	27.14
244.209	70.14
244.426	111.1
244.643	6.66
244.86	37.38
245.078	29.18
245.295	23.04
245.512	43.52
245.729	41.47
245.946	33.28
246.163	55.81
246.38	31.23
246.597	37.38
246.814	59.9
247.031	16.9
247.248	45.57
247.464	2.56
247.681	68.09
247.898	2.56
248.115	64
248.332	27.14
248.549	96.77
248.766	10.75
248.983	68.09
249.2	66.05
249.417	68.09
249.633	47.62
249.85	72.19
250.067	35.33
250.284	35.33
250.501	29.18
250.717	113.15
250.934	35.33
251.151	-62.98
251.368	4.61
251.585	64
251.801	104.96
252.018	-15.87
252.235	84.48
252.451	0.51
252.668	43.52
252.885	-9.73
253.102	-48.64
253.318	66.05
253.535	27.14
253.752	0.51
253.968	27.14
254.185	39.42
254.401	92.67
254.618	41.47
254.835	-32.26
255.051	37.38
255.268	10.75
255.484	37.38
255.701	25.09
255.917	113.15
256.134	49.66
256.351	35.33
256.567	47.62
256.784	-40.45
257	-46.59
257.217	37.38
257.433	16.9
257.65	53.76
257.866	47.62
258.082	64
258.299	76.29
258.515	35.33
258.732	-1.54
258.948	-15.87
259.165	78.33
259.381	57.86
259.597	72.19
259.814	4.61
260.03	27.14
260.246	80.38
260.463	10.75
260.679	82.43
260.895	88.57
261.112	61.95
261.328	39.42
261.544	6.66
261.761	68.09
261.977	47.62
262.193	-7.68
262.409	94.72
262.626	70.14
262.842	39.42
263.058	25.09
263.274	33.28
263.49	6.66
263.707	61.95
263.923	102.91
264.139	2.56
264.355	88.57
264.571	39.42
264.787	16.9
265.004	10.75
265.22	59.9
265.436	49.66
265.652	68.09
265.868	4.61
266.084	2.56
266.3	29.18
266.516	-38.4
266.732	61.95
266.948	-34.3
267.164	86.53
267.38	29.18
267.596	92.67
267.812	2.56
268.028	59.9
268.244	-38.4
268.46	-5.63
268.676	8.7
268.892	80.38
269.108	0.51
269.324	39.42
269.54	51.71
269.756	76.29
269.972	45.57
270.188	-34.3
270.403	-13.82
270.619	6.66
270.835	53.76
271.051	12.8
271.267	-1.54
271.483	-7.68
271.698	53.76
271.914	82.43
272.13	12.8
272.346	10.75
272.562	-38.4
272.777	72.19
272.993	25.09
273.209	64
273.425	2.56
273.64	82.43
273.856	25.09
274.072	-32.26
274.287	29.18
274.503	18.94
274.719	2.56
274.934	29.18
275.15	39.42
275.366	72.19
275.581	-58.88
275.797	61.95
276.012	74.24
276.228	-19.97
276.444	14.85
276.659	49.66
276.875	10.75
277.09	-36.35
277.306	29.18
277.521	25.09
277.737	-5.63
277.952	25.09
278.168	-13.82
278.383	12.8
278.599	23.04
278.814	51.71
279.03	53.76
279.245	-1.54
279.461	-75.26
279.676	49.66
279.892	125.44
280.107	-34.3
280.322	35.33
280.538	88.57
280.753	53.76
280.969	4.61
281.184	12.8
281.399	100.86
281.615	4.61
281.83	51.71
282.045	0.51
282.26	68.09
282.476	10.75
282.691	94.72
282.906	-42.5
283.122	49.66
283.337	6.66
283.552	10.75
283.767	18.94
283.983	25.09
284.198	49.66
284.413	37.38
284.628	117.25
284.843	78.33
285.058	0.51
285.274	45.57
285.489	66.05
285.704	74.24
285.919	-17.92
286.134	96.77
286.349	41.47
286.564	14.85
286.779	-13.82
286.995	41.47
287.21	53.76
287.425	61.95
287.64	0.51
287.855	98.81
288.07	-26.11
288.285	53.76
288.5	92.67
288.715	-44.54
288.93	2.56
289.145	74.24
289.36	57.86
289.575	92.67
289.79	6.66
290.004	2.56
290.219	2.56
290.434	43.52
290.649	43.52
290.864	37.38
291.079	33.28
291.294	-40.45
291.509	-28.16
291.724	39.42
291.938	20.99
292.153	43.52
292.368	33.28
292.583	10.75
292.798	2.56
293.012	31.23
293.227	-50.69
293.442	-34.3
293.657	37.38
293.871	86.53
294.086	35.33
294.301	51.71
294.516	104.96
294.73	-5.63
294.945	-7.68
295.16	70.14
295.374	66.05
295.589	82.43
295.804	6.66
296.018	45.57
296.233	39.42
296.447	-75.26
296.662	12.8
296.877	-1.54
297.091	141.82
297.306	29.18
297.52	10.75
297.735	-13.82
297.949	41.47
298.164	16.9
298.378	76.29
298.593	18.94
298.807	-22.02
299.022	-9.73
299.236	51.71
299.451	-11.78
299.665	14.85
299.88	96.77
300.094	68.09
300.309	39.42
300.523	98.81
300.737	96.77
300.952	137.73
301.166	49.66
301.381	-13.82
301.595	49.66
301.809	68.09
302.024	-1.54
302.238	12.8
302.452	94.72
302.667	18.94
302.881	31.23
303.095	29.18
303.309	68.09
303.524	14.85
303.738	115.2
303.952	20.99
304.166	31.23
304.381	16.9
304.595	41.47
304.809	74.24
305.023	43.52
305.237	41.47
305.452	33.28
305.666	45.57
305.88	127.49
306.094	59.9
306.308	78.33
306.522	12.8
306.736	-9.73
306.95	25.09
307.164	-32.26
307.379	0.51
307.593	88.57
307.807	102.91
308.021	76.29
308.235	117.25
308.449	59.9
308.663	27.14
308.877	43.52
309.091	31.23
309.305	41.47
309.519	41.47
309.733	39.42
309.947	-5.63
310.161	82.43
310.374	31.23
310.588	49.66
310.802	-28.16
311.016	43.52
311.23	84.48
311.444	45.57
311.658	4.61
311.872	-28.16
312.085	43.52
312.299	-30.21
312.513	57.86
312.727	66.05
312.941	2.56
313.154	66.05
313.368	43.52
313.582	14.85
313.796	18.94
314.009	64
314.223	102.91
314.437	68.09
314.651	74.24
314.864	51.71
315.078	-36.35
315.292	119.29
315.505	-40.45
315.719	51.71
315.933	76.29
316.146	16.9
316.36	18.94
316.573	31.23
316.787	80.38
317.001	18.94
317.214	0.51
317.428	18.94
317.641	18.94
317.855	27.14
318.068	45.57
318.282	55.81
318.495	100.86
318.709	100.86
318.922	16.9
319.136	-3.58
319.349	90.62
319.563	78.33
319.776	-28.16
319.99	49.66
320.203	51.71
320.417	2.56
320.63	35.33
320.843	47.62
321.057	31.23
321.27	88.57
321.483	16.9
321.697	80.38
321.91	45.57
322.124	2.56
322.337	66.05
322.55	0.51
322.763	12.8
322.977	49.66
323.19	8.7
323.403	6.66
323.617	45.57
323.83	61.95
324.043	10.75
324.256	-38.4
324.469	-26.11
324.683	25.09
324.896	55.81
325.109	117.25
325.322	-13.82
325.535	80.38
325.748	123.39
325.962	64
326.175	12.8
326.388	39.42
326.601	66.05
326.814	-22.02
327.027	76.29
327.24	66.05
327.453	66.05
327.666	35.33
327.879	98.81
328.092	121.34
328.305	10.75
328.518	72.19
328.731	18.94
328.944	6.66
329.157	10.75
329.37	41.47
329.583	25.09
329.796	59.9
330.009	16.9
330.222	29.18
330.435	18.94
330.648	51.71
330.861	-44.54
331.073	4.61
331.286	78.33
331.499	80.38
331.712	33.28
331.925	41.47
332.138	57.86
332.35	68.09
332.563	76.29
332.776	94.72
332.989	0.51
333.202	-30.21
333.414	12.8
333.627	96.77
333.84	72.19
334.053	-13.82
334.265	8.7
334.478	41.47
334.691	-1.54
334.903	-5.63
335.116	-38.4
335.329	47.62
335.541	76.29
335.754	55.81
335.966	35.33
336.179	8.7
336.392	49.66
336.604	88.57
336.817	4.61
337.029	35.33
337.242	39.42
337.454	43.52
337.667	53.76
337.88	55.81
338.092	16.9
338.305	74.24
338.517	10.75
338.729	35.33
338.942	84.48
339.154	20.99
339.367	18.94
339.579	53.76
339.792	14.85
340.004	45.57
340.217	0.51
340.429	-24.06
340.641	14.85
340.854	20.99
341.066	-28.16
341.278	18.94
341.491	16.9
341.703	55.81
341.915	80.38
342.128	72.19
342.34	113.15
342.552	59.9
342.764	43.52
342.977	33.28
343.189	27.14
343.401	-17.92
343.613	47.62
343.826	29.18
344.038	-3.58
344.25	6.66
344.462	2.56
344.674	55.81
344.886	76.29
345.099	-1.54
345.311	45.57
345.523	33.28
345.735	-3.58
345.947	55.81
346.159	-1.54
346.371	41.47
346.583	84.48
346.795	117.25
347.007	68.09
347.219	102.91
347.431	49.66
347.643	27.14
347.855	92.67
348.067	55.81
348.279	94.72
348.491	4.61
348.703	84.48
348.915	4.61
349.127	88.57
349.339	43.52
349.551	-11.78
349.763	64
349.975	-15.87
350.187	25.09
350.399	76.29
350.61	84.48
350.822	47.62
351.034	53.76
351.246	37.38
351.458	53.76
351.669	53.76
351.881	113.15
352.093	10.75
352.305	49.66
352.517	35.33
352.728	8.7
352.94	96.77
353.152	51.71
353.363	29.18
353.575	43.52
353.787	18.94
353.999	53.76
354.21	104.96
354.422	33.28
354.633	6.66
354.845	12.8
355.057	-11.78
355.268	-52.74
355.48	33.28
355.692	10.75
355.903	-15.87
356.115	78.33
356.326	-24.06
356.538	96.77
356.749	2.56
356.961	96.77
357.172	51.71
357.384	41.47
357.595	55.81
357.807	80.38
358.018	-26.11
358.23	37.38
358.441	68.09
358.653	74.24
358.864	51.71
359.075	57.86
359.287	45.57
359.498	51.71
359.709	37.38
359.921	55.81
360.132	88.57
360.344	64
360.555	4.61
360.766	59.9
360.977	59.9
361.189	35.33
361.4	59.9
361.611	37.38
361.823	39.42
362.034	92.67
362.245	33.28
362.456	14.85
362.667	8.7
362.879	72.19
363.09	25.09
363.301	49.66
363.512	39.42
363.723	33.28
363.935	47.62
364.146	4.61
364.357	33.28
364.568	98.81
364.779	-22.02
364.99	6.66
365.201	-11.78
365.412	107.01
365.623	4.61
365.834	39.42
366.045	43.52
366.256	51.71
366.467	70.14
366.678	72.19
366.889	45.57
367.1	70.14
367.311	0.51
367.522	76.29
367.733	-9.73
367.944	68.09
368.155	82.43
368.366	74.24
368.577	59.9
368.788	55.81
368.999	18.94
369.209	35.33
369.42	135.68
369.631	121.34
369.842	70.14
370.053	33.28
370.264	80.38
370.474	53.76
370.685	76.29
370.896	23.04
371.107	66.05
371.317	61.95
371.528	8.7
371.739	80.38
371.95	39.42
372.16	92.67
372.371	-22.02
372.582	49.66
372.792	66.05
373.003	74.24
373.214	-1.54
373.424	43.52
373.635	4.61
373.846	10.75
374.056	33.28
374.267	92.67
374.477	-5.63
374.688	0.51
374.898	10.75
375.109	43.52
375.319	23.04
375.53	98.81
375.74	-5.63
375.951	51.71
376.161	8.7
376.372	92.67
376.582	43.52
376.793	16.9
377.003	23.04
377.214	12.8
377.424	68.09
377.635	16.9
377.845	6.66
378.055	68.09
378.266	4.61
378.476	59.9
378.686	25.09
378.897	72.19
379.107	74.24
379.317	61.95
379.528	-7.68
379.738	96.77
379.948	-7.68
380.158	76.29
380.369	53.76
380.579	61.95
380.789	70.14
380.999	18.94
381.21	55.81
381.42	74.24
381.63	33.28
381.84	76.29
382.05	82.43
382.261	76.29
382.471	90.62
382.681	76.29
382.891	49.66
383.101	0.51
383.311	6.66
383.521	49.66
383.731	59.9
383.941	68.09
384.151	18.94
384.361	20.99
384.571	70.14
384.781	76.29
384.991	121.34
385.201	80.38
385.411	123.39
385.621	88.57
385.831	86.53
386.041	57.86
386.251	-1.54
386.461	72.19
386.671	25.09
386.881	64
387.091	27.14
387.301	53.76
387.511	-17.92
387.72	82.43
387.93	59.9
388.14	-7.68
388.35	68.09
388.56	20.99
388.769	86.53
388.979	4.61
389.189	-30.21
389.399	51.71
389.609	-24.06
389.818	57.86
390.028	59.9
390.238	59.9
390.447	35.33
390.657	117.25
390.867	64
391.076	29.18
391.286	76.29
391.496	156.16
391.705	133.63
391.915	125.44
392.125	102.91
392.334	61.95
392.544	139.77
392.753	90.62
392.963	82.43
393.172	117.25
393.382	113.15
393.591	27.14
393.801	39.42
394.01	139.77
394.22	117.25
394.429	84.48
394.639	74.24
394.848	139.77
395.058	68.09
395.267	84.48
395.477	82.43
395.686	64
395.895	92.67
396.105	107.01
396.314	125.44
396.524	121.34
396.733	-17.92
396.942	119.29
397.152	31.23
397.361	64
397.57	104.96
397.78	88.57
397.989	145.92
398.198	123.39
398.407	66.05
398.617	68.09
398.826	78.33
399.035	78.33
399.244	98.81
399.453	133.63
399.663	88.57
399.872	207.36
400.081	111.1
400.29	158.21
400.499	68.09
400.708	117.25
400.917	141.82
401.127	143.87
401.336	96.77
401.545	31.23
401.754	80.38
401.963	133.63
402.172	133.63
402.381	76.29
402.59	102.91
402.799	121.34
403.008	121.34
403.217	82.43
403.426	162.3
403.635	109.05
403.844	119.29
404.053	137.73
404.262	94.72
404.471	135.68
404.68	168.45
404.888	109.05
405.097	166.4
405.306	150.01
405.515	170.49
405.724	127.49
405.933	176.64
406.142	195.07
406.35	131.58
406.559	141.82
406.768	209.4
406.977	215.55
407.185	193.02
407.394	246.27
407.603	145.92
407.812	180.73
408.02	209.4
408.229	225.79
408.438	244.22
408.646	170.49
408.855	150.01
409.064	221.69
409.272	186.88
409.481	313.85
409.69	320
409.898	229.88
410.107	244.22
410.315	406.01
410.524	303.61
410.733	281.08
410.941	317.95
411.15	295.42
411.358	279.04
411.567	324.09
411.775	299.52
411.984	320
412.192	377.34
412.401	377.34
412.609	387.58
412.818	492.02
413.026	449.02
413.234	397.82
413.443	483.83
413.651	498.17
413.86	434.68
414.068	489.98
414.276	563.7
414.485	414.2
414.693	539.13
414.901	539.13
415.11	674.29
415.318	600.57
415.526	637.43
415.734	575.99
415.943	739.83
416.151	772.6
416.359	705.01
416.567	737.78
416.776	754.16
416.984	807.41
417.192	805.36
417.4	823.8
417.608	811.51
417.817	844.28
418.025	897.52
418.233	973.3
418.441	952.82
418.649	999.92
418.857	1096.18
419.065	1096.18
419.273	1147.37
419.481	1128.94
419.689	1278.44
419.897	1343.98
420.105	1135.09
420.313	1245.68
420.521	1227.25
420.729	1403.37
420.937	1456.62
421.145	1501.67
421.353	1442.28
421.561	1642.98
421.769	1608.17
421.977	1726.95
422.185	1595.88
422.393	1792.48
422.601	1884.64
422.809	1831.4
423.017	1919.46
423.224	1872.36
423.432	2001.38
423.64	2028
423.848	2253.28
424.056	2124.26
424.263	2382.3
424.471	2376.16
424.679	2453.98
424.887	2580.95
425.094	2656.73
425.302	2615.77
425.51	2722.26
425.718	2789.85
425.925	2873.81
426.133	2916.82
426.341	3138
426.548	3297.74
426.756	3160.53
426.964	3260.88
427.171	3424.72
427.379	3633.61
427.586	3592.65
427.794	3701.19
428.001	4180.42
428.209	4037.06
428.417	4024.77
428.624	4297.15
428.832	4317.63
429.039	4204.99
429.247	4311.49
429.454	4727.22
429.662	4972.98
429.869	4655.54
430.076	5056.95
430.284	4940.21
430.491	5067.19
430.699	5423.53
430.906	5409.2
431.114	5355.95
431.321	5591.47
431.528	5794.22
431.736	6029.73
431.943	6412.7
432.15	6132.13
432.358	6379.93
432.565	6597.02
432.772	6504.86
432.979	6830.49
433.187	7006.61
433.394	7166.35
433.601	7584.14
433.808	7446.93
434.016	7594.38
434.223	7946.63
434.43	8280.45
434.637	8274.31
434.844	8755.58
435.052	8905.08
435.259	8849.78
435.466	8851.83
435.673	8698.24
435.88	9355.63
436.087	10010.98
436.294	9851.24
436.501	9460.08
436.708	9924.97
436.915	10191.2
437.122	10490.21
437.329	10617.18
437.537	11067.74
437.743	11321.68
437.95	10951
438.157	11585.87
438.364	12017.99
438.571	12001.61
438.778	11895.11
438.985	13326.64
439.192	12624.19
439.399	13130.04
439.606	12831.04
439.813	13586.74
440.02	14184.74
440.227	13945.13
440.433	14016.81
440.64	14500.13
440.847	14457.12
441.054	14565.67
441.261	15538.45
441.467	15163.67
441.674	15722.77
441.881	16085.26
442.088	16208.14
442.294	16118.03
442.501	16406.79
442.708	16648.45
442.914	17256.7
443.121	17940.72
443.328	17656.05
443.534	18620.64
443.741	18696.42
443.948	18118.89
444.154	19566.81
444.361	19437.78
444.568	19515.61
444.774	19493.08
444.981	19869.9
445.187	20418.76
445.394	21178.56
445.6	20641.99
445.807	22954.15
446.013	22194.35
446.22	22294.7
446.426	23177.37
446.633	23419.03
446.839	24238.22
447.046	23347.36
447.252	24750.21
447.459	24443.02
447.665	24486.03
447.871	25313.41
448.078	26722.41
448.284	25358.46
448.491	25938.04
448.697	27170.91
448.903	27607.13
449.11	27136.1
449.316	27109.47
449.522	27455.58
449.728	28340.3
449.935	28631.12
450.141	28528.72
450.347	29210.69
450.553	28311.63
450.76	28692.55
450.966	29665.34
451.172	29247.55
451.378	30029.88
451.584	29411.39
451.791	30109.75
451.997	29765.69
452.203	30636.08
452.409	30625.84
452.615	30402.61
452.821	29300.8
453.027	29065.28
453.233	30316.59
453.44	29284.42
453.646	29640.76
453.852	29673.53
454.058	30068.79
454.264	29323.33
454.47	29859.9
454.676	29073.48
454.882	30144.56
455.088	27678.81
455.294	27904.09
455.5	28250.19
455.705	28627.02
455.911	27392.09
456.117	26878.05
456.323	26534
456.529	25292.93
456.735	26116.21
456.941	25503.87
457.147	25239.68
457.352	24395.92
457.558	24064.14
457.764	24064.14
457.97	23826.58
458.176	23337.12
458.381	23208.09
458.587	21825.71
458.793	22266.03
458.999	20670.66
459.204	22235.31
459.41	21930.16
459.616	20191.44
459.821	20224.2
460.027	20242.64
460.233	19917.01
460.438	18895.07
460.644	19087.58
460.85	18084.08
461.055	17983.73
461.261	17688.82
461.466	16597.25
461.672	16046.35
461.878	17432.82
462.083	16154.89
462.289	15825.17
462.494	15522.07
462.7	14905.63
462.905	14614.82
463.111	15122.71
463.316	15315.22
463.522	14524.71
463.727	14666.02
463.932	14815.52
464.138	14522.66
464.343	14786.85
464.549	14082.35
464.754	14663.97
464.959	14424.36
465.165	14729.5
465.37	13873.45
465.575	13484.34
465.781	14178.6
465.986	14123.3
466.191	13498.67
466.397	13275.45
466.602	12636.48
466.807	13238.58
467.012	13437.23
467.218	13007.16
467.423	13017.4
467.628	13246.77
467.833	13506.87
468.038	13060.41
468.244	12851.52
468.449	13197.62
468.654	12810.56
468.859	12781.88
