Data from USB4F104151__21__11-36-33-787.txt Node

Date: Fri Mar 14 11:36:33 EDT 2025
User: louis
Spectrometer: USB4F10415
Trigger mode: 4
Integration Time (sec): 2.000000E-2
Scans to average: 1
Electric dark correction enabled: true
Nonlinearity correction enabled: false
Boxcar width: 0
XAxis mode: Wavelengths
Number of Pixels in Spectrum: 3648
>>>>>Begin Spectral Data<<<<<
178.204	-80.72
178.424	-80.72
178.644	-80.72
178.864	-99.16
179.084	-111.44
179.304	21.67
179.524	-45.91
179.744	33.96
179.964	70.83
180.184	-7
180.404	-21.33
180.624	-7
180.844	-9.05
181.064	-37.72
181.283	7.34
181.503	19.63
181.723	-25.43
181.943	-2.9
182.163	76.97
182.383	5.29
182.602	31.91
182.822	-13.14
183.042	9.39
183.262	13.48
183.482	44.2
183.701	7.34
183.921	-27.48
184.141	-11.09
184.361	3.24
184.58	119.98
184.8	7.34
185.02	44.2
185.239	56.49
185.459	89.26
185.679	29.87
185.898	-76.63
186.118	29.87
186.338	9.39
186.557	27.82
186.777	52.39
186.997	52.39
187.216	-33.62
187.436	89.26
187.655	-13.14
187.875	97.45
188.095	50.35
188.314	27.82
188.534	-2.9
188.753	17.58
188.973	38.06
189.192	64.68
189.412	48.3
189.631	29.87
189.851	70.83
190.07	70.83
190.29	54.44
190.509	25.77
190.729	-54.1
190.948	36.01
191.168	138.41
191.387	-31.57
191.607	81.07
191.826	64.68
192.045	19.63
192.265	13.48
192.484	40.11
192.704	29.87
192.923	23.72
193.142	31.91
193.362	-43.86
193.581	15.53
193.8	3.24
194.02	54.44
194.239	52.39
194.458	95.4
194.678	33.96
194.897	15.53
195.116	-68.44
195.335	7.34
195.555	109.74
195.774	62.63
195.993	31.91
196.212	23.72
196.432	36.01
196.651	21.67
196.87	3.24
197.089	19.63
197.308	-45.91
197.528	48.3
197.747	-0.85
197.966	70.83
198.185	46.25
198.404	40.11
198.623	-2.9
198.842	62.63
199.062	42.15
199.281	44.2
199.5	13.48
199.719	3.24
199.938	97.45
200.157	62.63
200.376	3.24
200.595	19.63
200.814	31.91
201.033	-37.72
201.252	7.34
201.471	23.72
201.69	48.3
201.909	29.87
202.128	70.83
202.347	40.11
202.566	-23.38
202.785	-2.9
203.004	-9.05
203.223	74.92
203.442	74.92
203.661	9.39
203.879	3.24
204.098	52.39
204.317	19.63
204.536	48.3
204.755	27.82
204.974	40.11
205.193	91.31
205.411	79.02
205.63	68.78
205.849	-43.86
206.068	79.02
206.287	60.59
206.505	46.25
206.724	74.92
206.943	-13.14
207.162	-66.39
207.381	-13.14
207.599	29.87
207.818	44.2
208.037	17.58
208.255	48.3
208.474	3.24
208.693	-11.09
208.911	-35.67
209.13	38.06
209.349	9.39
209.567	64.68
209.786	113.83
210.005	103.59
210.223	40.11
210.442	15.53
210.661	-4.95
210.879	3.24
211.098	13.48
211.316	38.06
211.535	25.77
211.753	19.63
211.972	54.44
212.191	-4.95
212.409	27.82
212.628	3.24
212.846	-25.43
213.065	-27.48
213.283	46.25
213.502	44.2
213.72	40.11
213.938	27.82
214.157	-17.24
214.375	52.39
214.594	72.87
214.812	-9.05
215.031	23.72
215.249	64.68
215.467	1.19
215.686	-11.09
215.904	17.58
216.122	27.82
216.341	64.68
216.559	5.29
216.778	-60.24
216.996	31.91
217.214	11.43
217.432	-17.24
217.651	31.91
217.869	-4.95
218.087	70.83
218.306	-54.1
218.524	44.2
218.742	-2.9
218.96	64.68
219.179	48.3
219.397	-4.95
219.615	105.64
219.833	70.83
220.051	31.91
220.27	-4.95
220.488	50.35
220.706	76.97
220.924	62.63
221.142	-4.95
221.36	27.82
221.578	21.67
221.796	1.19
222.015	17.58
222.233	64.68
222.451	42.15
222.669	11.43
222.887	42.15
223.105	50.35
223.323	-19.29
223.541	27.82
223.759	21.67
223.977	-15.19
224.195	27.82
224.413	58.54
224.631	27.82
224.849	81.07
225.067	31.91
225.285	11.43
225.503	1.19
225.721	3.24
225.939	9.39
226.157	-31.57
226.375	58.54
226.592	29.87
226.81	36.01
227.028	101.55
227.246	76.97
227.464	11.43
227.682	1.19
227.9	-2.9
228.117	50.35
228.335	-7
228.553	11.43
228.771	15.53
228.989	48.3
229.206	40.11
229.424	27.82
229.642	-0.85
229.86	7.34
230.077	58.54
230.295	9.39
230.513	23.72
230.731	48.3
230.948	3.24
231.166	87.21
231.384	17.58
231.601	76.97
231.819	93.35
232.037	-0.85
232.254	23.72
232.472	-7
232.689	42.15
232.907	-29.52
233.125	7.34
233.342	-13.14
233.56	25.77
233.777	36.01
233.995	33.96
234.213	117.93
234.43	25.77
234.648	19.63
234.865	48.3
235.083	50.35
235.3	19.63
235.518	56.49
235.735	-58.2
235.953	68.78
236.17	46.25
236.388	27.82
236.605	-66.39
236.822	7.34
237.04	27.82
237.257	54.44
237.475	15.53
237.692	38.06
237.909	33.96
238.127	-7
238.344	50.35
238.562	19.63
238.779	3.24
238.996	-13.14
239.214	-58.2
239.431	68.78
239.648	-37.72
239.865	7.34
240.083	31.91
240.3	15.53
240.517	3.24
240.735	-29.52
240.952	89.26
241.169	-9.05
241.386	-4.95
241.603	31.91
241.821	-25.43
242.038	50.35
242.255	5.29
242.472	36.01
242.689	29.87
242.907	-9.05
243.124	23.72
243.341	-35.67
243.558	9.39
243.775	-25.43
243.992	-33.62
244.209	48.3
244.426	46.25
244.643	85.16
244.86	-25.43
245.078	-2.9
245.295	-45.91
245.512	-0.85
245.729	115.88
245.946	5.29
246.163	64.68
246.38	9.39
246.597	-19.29
246.814	-4.95
247.031	91.31
247.248	58.54
247.464	19.63
247.681	11.43
247.898	-2.9
248.115	48.3
248.332	27.82
248.549	15.53
248.766	13.48
248.983	97.45
249.2	66.73
249.417	60.59
249.633	23.72
249.85	52.39
250.067	54.44
250.284	48.3
250.501	-0.85
250.717	89.26
250.934	-4.95
251.151	3.24
251.368	3.24
251.585	13.48
251.801	-4.95
252.018	13.48
252.235	7.34
252.451	52.39
252.668	-35.67
252.885	-21.33
253.102	64.68
253.318	40.11
253.535	-25.43
253.752	25.77
253.968	-50
254.185	27.82
254.401	-90.96
254.618	15.53
254.835	50.35
255.051	52.39
255.268	7.34
255.484	5.29
255.701	68.78
255.917	-7
256.134	7.34
256.351	13.48
256.567	-74.58
256.784	1.19
257	19.63
257.217	33.96
257.433	52.39
257.65	-9.05
257.866	105.64
258.082	29.87
258.299	-7
258.515	60.59
258.732	-4.95
258.948	19.63
259.165	1.19
259.381	-4.95
259.597	56.49
259.814	-52.05
260.03	-17.24
260.246	64.68
260.463	52.39
260.679	3.24
260.895	21.67
261.112	76.97
261.328	19.63
261.544	31.91
261.761	68.78
261.977	9.39
262.193	-9.05
262.409	-7
262.626	19.63
262.842	-0.85
263.058	19.63
263.274	68.78
263.49	56.49
263.707	23.72
263.923	-66.39
264.139	-9.05
264.355	15.53
264.571	31.91
264.787	-9.05
265.004	40.11
265.22	79.02
265.436	-60.24
265.652	-0.85
265.868	25.77
266.084	-33.62
266.3	7.34
266.516	-25.43
266.732	-21.33
266.948	85.16
267.164	52.39
267.38	42.15
267.596	87.21
267.812	-15.19
268.028	64.68
268.244	31.91
268.46	-2.9
268.676	7.34
268.892	-0.85
269.108	-25.43
269.324	-39.76
269.54	91.31
269.756	95.4
269.972	27.82
270.188	-7
270.403	52.39
270.619	15.53
270.835	23.72
271.051	46.25
271.267	-9.05
271.483	15.53
271.698	70.83
271.914	42.15
272.13	15.53
272.346	72.87
272.562	60.59
272.777	83.11
272.993	-47.96
273.209	64.68
273.425	36.01
273.64	-11.09
273.856	48.3
274.072	42.15
274.287	-2.9
274.503	60.59
274.719	99.5
274.934	54.44
275.15	19.63
275.366	31.91
275.581	36.01
275.797	81.07
276.012	-35.67
276.228	21.67
276.444	48.3
276.659	25.77
276.875	23.72
277.09	-2.9
277.306	7.34
277.521	54.44
277.737	3.24
277.952	-29.52
278.168	-11.09
278.383	40.11
278.599	-9.05
278.814	-35.67
279.03	60.59
279.245	42.15
279.461	56.49
279.676	25.77
279.892	15.53
280.107	81.07
280.322	-15.19
280.538	15.53
280.753	72.87
280.969	46.25
281.184	-35.67
281.399	-37.72
281.615	76.97
281.83	31.91
282.045	44.2
282.26	7.34
282.476	-13.14
282.691	74.92
282.906	46.25
283.122	58.54
283.337	27.82
283.552	44.2
283.767	-23.38
283.983	17.58
284.198	23.72
284.413	91.31
284.628	48.3
284.843	-17.24
285.058	62.63
285.274	64.68
285.489	-11.09
285.704	31.91
285.919	48.3
286.134	79.02
286.349	-0.85
286.564	36.01
286.779	7.34
286.995	48.3
287.21	-13.14
287.425	48.3
287.64	-27.48
287.855	68.78
288.07	31.91
288.285	23.72
288.5	-2.9
288.715	58.54
288.93	-2.9
289.145	-37.72
289.36	29.87
289.575	56.49
289.79	111.78
290.004	21.67
290.219	1.19
290.434	60.59
290.649	13.48
290.864	-47.96
291.079	11.43
291.294	52.39
291.509	-7
291.724	-27.48
291.938	-13.14
292.153	83.11
292.368	76.97
292.583	48.3
292.798	29.87
293.012	-27.48
293.227	-17.24
293.442	36.01
293.657	-21.33
293.871	1.19
294.086	56.49
294.301	31.91
294.516	68.78
294.73	-11.09
294.945	-45.91
295.16	87.21
295.374	-45.91
295.589	17.58
295.804	54.44
296.018	64.68
296.233	64.68
296.447	13.48
296.662	23.72
296.877	130.22
297.091	44.2
297.306	-9.05
297.52	29.87
297.735	36.01
297.949	7.34
298.164	7.34
298.378	-2.9
298.593	79.02
298.807	-0.85
299.022	-25.43
299.236	50.35
299.451	21.67
299.665	-17.24
299.88	60.59
300.094	5.29
300.309	68.78
300.523	-21.33
300.737	89.26
300.952	76.97
301.166	79.02
301.381	19.63
301.595	27.82
301.809	-11.09
302.024	40.11
302.238	79.02
302.452	107.69
302.667	-0.85
302.881	76.97
303.095	3.24
303.309	48.3
303.524	56.49
303.738	31.91
303.952	64.68
304.166	15.53
304.381	21.67
304.595	-25.43
304.809	33.96
305.023	-60.24
305.237	31.91
305.452	36.01
305.666	79.02
305.88	-0.85
306.094	23.72
306.308	81.07
306.522	19.63
306.736	5.29
306.95	44.2
307.164	1.19
307.379	-11.09
307.593	97.45
307.807	-9.05
308.021	-2.9
308.235	40.11
308.449	-7
308.663	9.39
308.877	56.49
309.091	68.78
309.305	85.16
309.519	40.11
309.733	9.39
309.947	13.48
310.161	91.31
310.374	54.44
310.588	85.16
310.802	3.24
311.016	48.3
311.23	64.68
311.444	83.11
311.658	105.64
311.872	13.48
312.085	-9.05
312.299	38.06
312.513	9.39
312.727	38.06
312.941	13.48
313.154	70.83
313.368	-25.43
313.582	-35.67
313.796	97.45
314.009	40.11
314.223	60.59
314.437	-9.05
314.651	60.59
314.864	-25.43
315.078	-37.72
315.292	23.72
315.505	81.07
315.719	-35.67
315.933	-13.14
316.146	21.67
316.36	-33.62
316.573	95.4
316.787	19.63
317.001	115.88
317.214	60.59
317.428	56.49
317.641	11.43
317.855	-23.38
318.068	38.06
318.282	54.44
318.495	36.01
318.709	101.55
318.922	-9.05
319.136	122.02
319.349	56.49
319.563	-0.85
319.776	33.96
319.99	27.82
320.203	17.58
320.417	50.35
320.63	56.49
320.843	54.44
321.057	15.53
321.27	50.35
321.483	52.39
321.697	62.63
321.91	13.48
322.124	13.48
322.337	21.67
322.55	7.34
322.763	23.72
322.977	3.24
323.19	56.49
323.403	13.48
323.617	101.55
323.83	87.21
324.043	85.16
324.256	36.01
324.469	7.34
324.683	19.63
324.896	29.87
325.109	40.11
325.322	25.77
325.535	62.63
325.748	15.53
325.962	7.34
326.175	68.78
326.388	60.59
326.601	27.82
326.814	-21.33
327.027	-21.33
327.24	132.26
327.453	15.53
327.666	40.11
327.879	-4.95
328.092	52.39
328.305	-4.95
328.518	-9.05
328.731	93.35
328.944	83.11
329.157	13.48
329.37	23.72
329.583	3.24
329.796	42.15
330.009	56.49
330.222	91.31
330.435	56.49
330.648	19.63
330.861	81.07
331.073	79.02
331.286	56.49
331.499	66.73
331.712	33.96
331.925	19.63
332.138	-27.48
332.35	130.22
332.563	72.87
332.776	89.26
332.989	-21.33
333.202	13.48
333.414	-23.38
333.627	-52.05
333.84	46.25
334.053	-52.05
334.265	87.21
334.478	60.59
334.691	31.91
334.903	56.49
335.116	23.72
335.329	81.07
335.541	54.44
335.754	46.25
335.966	79.02
336.179	113.83
336.392	29.87
336.604	46.25
336.817	25.77
337.029	48.3
337.242	7.34
337.454	31.91
337.667	-33.62
337.88	13.48
338.092	52.39
338.305	60.59
338.517	29.87
338.729	76.97
338.942	97.45
339.154	17.58
339.367	23.72
339.579	5.29
339.792	-9.05
340.004	38.06
340.217	48.3
340.429	87.21
340.641	38.06
340.854	40.11
341.066	-13.14
341.278	7.34
341.491	48.3
341.703	70.83
341.915	56.49
342.128	56.49
342.34	48.3
342.552	-17.24
342.764	48.3
342.977	40.11
343.189	60.59
343.401	1.19
343.613	52.39
343.826	79.02
344.038	13.48
344.25	93.35
344.462	-68.44
344.674	17.58
344.886	72.87
345.099	165.03
345.311	9.39
345.523	68.78
345.735	54.44
345.947	52.39
346.159	27.82
346.371	81.07
346.583	-2.9
346.795	58.54
347.007	62.63
347.219	89.26
347.431	46.25
347.643	5.29
347.855	21.67
348.067	66.73
348.279	19.63
348.491	48.3
348.703	85.16
348.915	36.01
349.127	19.63
349.339	95.4
349.551	27.82
349.763	72.87
349.975	33.96
350.187	48.3
350.399	-2.9
350.61	70.83
350.822	33.96
351.034	27.82
351.246	31.91
351.458	46.25
351.669	21.67
351.881	72.87
352.093	74.92
352.305	11.43
352.517	134.31
352.728	87.21
352.94	44.2
353.152	13.48
353.363	-13.14
353.575	-19.29
353.787	19.63
353.999	-13.14
354.21	56.49
354.422	81.07
354.633	15.53
354.845	-13.14
355.057	5.29
355.268	56.49
355.48	56.49
355.692	36.01
355.903	66.73
356.115	29.87
356.326	-4.95
356.538	74.92
356.749	31.91
356.961	31.91
357.172	-4.95
357.384	54.44
357.595	89.26
357.807	44.2
358.018	62.63
358.23	36.01
358.441	50.35
358.653	107.69
358.864	-29.52
359.075	17.58
359.287	15.53
359.498	27.82
359.709	38.06
359.921	5.29
360.132	109.74
360.344	13.48
360.555	-23.38
360.766	64.68
360.977	44.2
361.189	29.87
361.4	9.39
361.611	50.35
361.823	7.34
362.034	-0.85
362.245	-17.24
362.456	74.92
362.667	9.39
362.879	-33.62
363.09	15.53
363.301	68.78
363.512	13.48
363.723	31.91
363.935	11.43
364.146	103.59
364.357	91.31
364.568	29.87
364.779	62.63
364.99	36.01
365.201	3.24
365.412	79.02
365.623	56.49
365.834	66.73
366.045	31.91
366.256	23.72
366.467	42.15
366.678	-33.62
366.889	87.21
367.1	66.73
367.311	81.07
367.522	7.34
367.733	27.82
367.944	50.35
368.155	-23.38
368.366	68.78
368.577	42.15
368.788	9.39
368.999	-37.72
369.209	27.82
369.42	76.97
369.631	56.49
369.842	36.01
370.053	15.53
370.264	44.2
370.474	31.91
370.685	81.07
370.896	33.96
371.107	48.3
371.317	31.91
371.528	48.3
371.739	70.83
371.95	-0.85
372.16	62.63
372.371	38.06
372.582	-33.62
372.792	-13.14
373.003	29.87
373.214	7.34
373.424	19.63
373.635	-15.19
373.846	48.3
374.056	97.45
374.267	60.59
374.477	81.07
374.688	76.97
374.898	105.64
375.109	38.06
375.319	11.43
375.53	31.91
375.74	64.68
375.951	-27.48
376.161	38.06
376.372	52.39
376.582	-0.85
376.793	31.91
377.003	-0.85
377.214	72.87
377.424	11.43
377.635	89.26
377.845	38.06
378.055	89.26
378.266	31.91
378.476	40.11
378.686	25.77
378.897	56.49
379.107	76.97
379.317	23.72
379.528	5.29
379.738	99.5
379.948	7.34
380.158	64.68
380.369	42.15
380.579	17.58
380.789	72.87
380.999	58.54
381.21	-19.29
381.42	126.12
381.63	44.2
381.84	23.72
382.05	111.78
382.261	27.82
382.471	103.59
382.681	56.49
382.891	146.6
383.101	9.39
383.311	25.77
383.521	68.78
383.731	5.29
383.941	-4.95
384.151	79.02
384.361	25.77
384.571	105.64
384.781	44.2
384.991	68.78
385.201	150.7
385.411	5.29
385.621	136.36
385.831	15.53
386.041	105.64
386.251	119.98
386.461	62.63
386.671	56.49
386.881	87.21
387.091	27.82
387.301	115.88
387.511	68.78
387.72	27.82
387.93	42.15
388.14	105.64
388.35	99.5
388.56	25.77
388.769	40.11
388.979	70.83
389.189	46.25
389.399	85.16
389.609	54.44
389.818	81.07
390.028	38.06
390.238	132.26
390.447	46.25
390.657	70.83
390.867	85.16
391.076	3.24
391.286	9.39
391.496	85.16
391.705	62.63
391.915	83.11
392.125	38.06
392.334	97.45
392.544	87.21
392.753	56.49
392.963	79.02
393.172	64.68
393.382	79.02
393.591	62.63
393.801	48.3
394.01	113.83
394.22	60.59
394.429	66.73
394.639	70.83
394.848	103.59
395.058	79.02
395.267	5.29
395.477	79.02
395.686	74.92
395.895	113.83
396.105	136.36
396.314	19.63
396.524	124.07
396.733	23.72
396.942	91.31
397.152	93.35
397.361	105.64
397.57	81.07
397.78	138.41
397.989	113.83
398.198	138.41
398.407	95.4
398.617	134.31
398.826	115.88
399.035	58.54
399.244	70.83
399.453	85.16
399.663	97.45
399.872	54.44
400.081	103.59
400.29	89.26
400.499	36.01
400.708	162.98
400.917	70.83
401.127	91.31
401.336	103.59
401.545	107.69
401.754	109.74
401.963	81.07
402.172	91.31
402.381	44.2
402.59	89.26
402.799	95.4
403.008	183.46
403.217	115.88
403.426	142.5
403.635	126.12
403.844	158.89
404.053	113.83
404.262	105.64
404.471	97.45
404.68	142.5
404.888	150.7
405.097	148.65
405.306	197.8
405.515	99.5
405.724	201.9
405.933	212.14
406.142	154.79
406.35	158.89
406.559	187.56
406.768	79.02
406.977	191.66
407.185	232.62
407.394	236.71
407.603	199.85
407.812	259.24
408.02	175.27
408.229	197.8
408.438	267.43
408.646	226.47
408.855	249
409.064	298.15
409.272	277.67
409.481	287.91
409.69	189.61
409.898	222.38
410.107	265.38
410.315	308.39
410.524	341.16
410.733	330.92
410.941	277.67
411.15	398.5
411.358	367.78
411.567	431.27
411.775	421.03
411.984	355.49
412.192	394.4
412.401	435.36
412.609	507.04
412.818	488.61
413.026	502.95
413.234	603.3
413.443	535.71
413.651	519.33
413.86	562.34
414.068	619.68
414.276	693.41
414.485	644.26
414.693	685.22
414.901	666.78
415.11	638.11
415.318	619.68
415.526	720.03
415.734	851.1
415.943	816.29
416.151	826.53
416.359	857.25
416.567	810.14
416.776	904.35
416.984	1053.85
417.192	1066.14
417.4	918.68
417.608	1111.19
417.817	1129.63
418.025	955.55
418.233	1127.58
418.441	1105.05
418.649	1191.06
418.857	1229.98
419.065	1408.15
419.273	1418.39
419.481	1399.96
419.689	1356.95
419.897	1604.75
420.105	1584.27
420.313	1633.43
420.521	1727.63
420.729	1619.09
420.937	1787.02
421.145	1858.7
421.353	1895.57
421.561	2030.73
421.769	1922.19
421.977	2126.99
422.185	2108.55
422.393	2116.75
422.601	2358.41
422.809	2428.04
423.017	2317.45
423.224	2380.93
423.432	2534.53
423.64	2579.59
423.848	2768
424.056	2589.83
424.263	2921.6
424.471	2935.93
424.679	2913.41
424.887	3171.45
425.094	3210.36
425.302	3339.38
425.51	3421.3
425.718	3503.22
425.925	3671.15
426.133	3589.24
426.341	3783.79
426.548	4031.6
426.756	4013.17
426.964	3994.73
427.171	4248.68
427.379	4494.44
427.586	4529.25
427.794	4615.27
428.001	4926.56
428.209	5037.15
428.417	5096.54
428.624	5420.12
428.832	5409.88
429.039	5280.86
429.247	5256.28
429.454	5827.67
429.662	6274.12
429.869	5846.1
430.076	6390.86
430.284	6093.9
430.491	6251.6
430.699	6640.71
430.906	6577.22
431.114	6671.43
431.321	6966.34
431.528	6972.48
431.736	7582.77
431.943	7896.11
432.15	7658.55
432.358	7658.55
432.565	8180.78
432.772	8156.21
432.979	8682.53
433.187	8936.48
433.394	8725.54
433.601	9421.85
433.808	9466.91
434.016	9376.8
434.223	9720.85
434.43	10255.37
434.637	10279.95
434.844	10771.46
435.052	10947.59
435.259	10910.72
435.466	11029.51
435.673	10851.33
435.88	11490.3
436.087	12213.23
436.294	12137.46
436.501	12159.99
436.708	12131.31
436.915	12837.86
437.122	13140.96
437.329	13181.92
437.537	13540.32
437.743	13730.78
437.95	13788.12
438.157	14210
438.364	14826.44
438.571	14756.81
438.778	14851.02
438.985	16360.37
439.192	15672.25
439.399	16208.82
439.606	15698.88
439.813	16675.76
440.02	17935.26
440.227	17576.86
440.433	17302.43
440.64	17959.83
440.847	17595.29
441.054	18211.73
441.261	19002.25
441.467	19274.63
441.674	19309.44
441.881	20155.26
442.088	19948.41
442.294	19813.24
442.501	20616.05
442.708	20855.66
442.914	21961.56
443.121	22647.63
443.328	22195.03
443.534	23216.97
443.741	22944.59
443.948	22451.03
444.154	24156.99
444.361	24126.27
444.568	24427.32
444.774	24384.31
444.981	24660.79
445.187	25244.46
445.394	26217.24
445.6	26262.3
445.807	28474.1
446.013	27261.71
446.22	27648.77
446.426	29008.62
446.633	28769.01
446.839	30005.98
447.046	29151.98
447.252	30534.36
447.459	30454.49
447.665	30255.84
447.871	31658.7
448.078	32930.48
448.284	31605.45
448.491	32010.95
448.697	33694.38
448.903	33833.64
449.11	34187.94
449.316	33772.2
449.522	34333.34
449.728	35324.56
449.935	35734.15
450.141	35322.51
450.347	36272.77
450.553	34955.93
450.76	35558.03
450.966	36860.54
451.172	36164.23
451.378	37388.91
451.584	36539.01
451.791	37259.89
451.997	37022.33
452.203	37945.96
452.409	38011.49
452.615	37225.07
452.821	36180.61
453.027	36016.77
453.233	37771.88
453.44	36170.37
453.646	36921.98
453.852	36862.58
454.058	37692.01
454.264	35947.14
454.47	36729.47
454.676	35828.36
454.882	37225.07
455.088	34001.57
455.294	34673.31
455.5	34917.01
455.705	35578.51
455.911	33854.12
456.117	33594.03
456.323	32869.05
456.529	31111.89
456.735	32539.32
456.941	31695.56
457.147	31210.19
457.352	30024.42
457.558	29747.94
457.764	30180.06
457.97	29305.58
458.176	28764.92
458.381	28758.77
458.587	27321.1
458.793	27511.56
458.999	25961.25
459.204	27851.52
459.41	26608.4
459.616	25297.7
459.821	25451.3
460.027	24931.12
460.233	24683.31
460.438	23509.83
460.644	23941.95
460.85	22373.21
461.055	22330.2
461.261	22430.55
461.466	20724.59
461.672	20050.81
461.878	21418.85
462.083	20022.14
462.289	19821.44
462.494	19637.12
462.7	18584.46
462.905	18054.04
463.111	18676.62
463.316	18693.01
463.522	18240.4
463.727	18459.54
463.932	18248.6
464.138	18039.7
464.343	18121.62
464.549	17638.3
464.754	18193.3
464.959	18013.08
465.165	18099.09
465.37	17183.65
465.575	16804.78
465.781	17265.57
465.986	17441.7
466.191	16917.42
466.397	16505.77
466.602	15741.88
466.807	16438.19
467.012	16106.42
467.218	16374.7
467.423	16190.39
467.628	16167.86
467.833	16675.76
468.038	16131
468.244	15469.5
468.449	16161.72
468.654	15899.58
