Data from USB4F104151__61__11-37-25-361.txt Node

Date: Fri Mar 14 11:37:25 EDT 2025
User: louis
Spectrometer: USB4F10415
Trigger mode: 4
Integration Time (sec): 2.000000E-2
Scans to average: 1
Electric dark correction enabled: true
Nonlinearity correction enabled: false
Boxcar width: 0
XAxis mode: Wavelengths
Number of Pixels in Spectrum: 3648
>>>>>Begin Spectral Data<<<<<
178.204	-113.66
178.424	-113.66
178.644	-113.66
178.864	-125.95
179.084	-62.46
179.304	21.5
179.524	1.02
179.744	41.98
179.964	11.26
180.184	3.07
180.404	9.22
180.624	-35.84
180.844	-48.13
181.064	11.26
181.283	-13.31
181.503	-9.22
181.723	7.17
181.943	-60.42
182.163	68.61
182.383	31.74
182.602	-33.79
182.822	27.65
183.042	1.02
183.262	-39.94
183.482	62.46
183.701	44.03
183.921	-23.55
184.141	1.02
184.361	13.31
184.58	-31.74
184.8	-25.6
185.02	-17.41
185.239	-13.31
185.459	3.07
185.679	7.17
185.898	-74.75
186.118	62.46
186.338	78.85
186.557	-13.31
186.777	78.85
186.997	56.32
187.216	-19.46
187.436	39.94
187.655	9.22
187.875	-29.7
188.095	1.02
188.314	54.27
188.534	7.17
188.753	9.22
188.973	21.5
189.192	37.89
189.412	-3.07
189.631	-9.22
189.851	-5.12
190.07	41.98
190.29	23.55
190.509	-72.7
190.729	7.17
190.948	3.07
191.168	91.13
191.387	-33.79
191.607	3.07
191.826	-29.7
192.045	23.55
192.265	-37.89
192.484	-31.74
192.704	-19.46
192.923	-64.51
193.142	56.32
193.362	31.74
193.581	-29.7
193.8	-41.98
194.02	-11.26
194.239	-44.03
194.458	21.5
194.678	-70.65
194.897	39.94
195.116	-9.22
195.335	-35.84
195.555	-39.94
195.774	54.27
195.993	13.31
196.212	-39.94
196.432	46.08
196.651	-1.02
196.87	-35.84
197.089	11.26
197.308	7.17
197.528	-15.36
197.747	-39.94
197.966	-29.7
198.185	27.65
198.404	19.46
198.623	-1.02
198.842	9.22
199.062	-5.12
199.281	41.98
199.5	-15.36
199.719	27.65
199.938	58.37
200.157	58.37
200.376	-27.65
200.595	7.17
200.814	-1.02
201.033	15.36
201.252	-48.13
201.471	-19.46
201.69	39.94
201.909	-29.7
202.128	-64.51
202.347	-37.89
202.566	29.7
202.785	29.7
203.004	-3.07
203.223	70.65
203.442	-7.17
203.661	29.7
203.879	54.27
204.098	46.08
204.317	31.74
204.536	-11.26
204.755	31.74
204.974	7.17
205.193	52.22
205.411	-5.12
205.63	-50.18
205.849	41.98
206.068	-39.94
206.287	-31.74
206.505	-41.98
206.724	35.84
206.943	-44.03
207.162	-23.55
207.381	78.85
207.599	35.84
207.818	9.22
208.037	64.51
208.255	-58.37
208.474	17.41
208.693	27.65
208.911	33.79
209.13	-41.98
209.349	5.12
209.567	-1.02
209.786	37.89
210.005	25.6
210.223	39.94
210.442	9.22
210.661	3.07
210.879	62.46
211.098	21.5
211.316	27.65
211.535	15.36
211.753	31.74
211.972	115.71
212.191	-15.36
212.409	7.17
212.628	-41.98
212.846	-23.55
213.065	5.12
213.283	25.6
213.502	-46.08
213.72	-9.22
213.938	-7.17
214.157	37.89
214.375	9.22
214.594	-41.98
214.812	-29.7
215.031	-48.13
215.249	7.17
215.467	46.08
215.686	62.46
215.904	-11.26
216.122	-11.26
216.341	-62.46
216.559	-31.74
216.778	-3.07
216.996	9.22
217.214	-3.07
217.432	-41.98
217.651	-11.26
217.869	66.56
218.087	-19.46
218.306	7.17
218.524	37.89
218.742	-25.6
218.96	-52.22
219.179	25.6
219.397	5.12
219.615	70.65
219.833	-7.17
220.051	-44.03
220.27	33.79
220.488	66.56
220.706	39.94
220.924	15.36
221.142	19.46
221.36	46.08
221.578	1.02
221.796	29.7
222.015	33.79
222.233	-7.17
222.451	35.84
222.669	27.65
222.887	91.13
223.105	-48.13
223.323	-39.94
223.541	13.31
223.759	48.13
223.977	-48.13
224.195	54.27
224.413	11.26
224.631	33.79
224.849	33.79
225.067	60.42
225.285	-35.84
225.503	52.22
225.721	-13.31
225.939	-23.55
226.157	11.26
226.375	39.94
226.592	7.17
226.81	-25.6
227.028	58.37
227.246	1.02
227.464	-11.26
227.682	19.46
227.9	-46.08
228.117	52.22
228.335	-13.31
228.553	7.17
228.771	11.26
228.989	-27.65
229.206	58.37
229.424	25.6
229.642	44.03
229.86	-62.46
230.077	13.31
230.295	17.41
230.513	72.7
230.731	5.12
230.948	68.61
231.166	56.32
231.384	13.31
231.601	33.79
231.819	82.94
232.037	-56.32
232.254	-35.84
232.472	-31.74
232.689	5.12
232.907	-31.74
233.125	39.94
233.342	-44.03
233.56	-13.31
233.777	39.94
233.995	-27.65
234.213	89.09
234.43	-15.36
234.648	3.07
234.865	54.27
235.083	68.61
235.3	-101.37
235.518	31.74
235.735	33.79
235.953	87.04
236.17	3.07
236.388	23.55
236.605	9.22
236.822	48.13
237.04	23.55
237.257	1.02
237.475	-5.12
237.692	46.08
237.909	-23.55
238.127	33.79
238.344	41.98
238.562	78.85
238.779	-15.36
238.996	7.17
239.214	17.41
239.431	-25.6
239.648	7.17
239.865	99.33
240.083	-5.12
240.3	-46.08
240.517	17.41
240.735	87.04
240.952	56.32
241.169	7.17
241.386	107.52
241.603	33.79
241.821	-7.17
242.038	-19.46
242.255	19.46
242.472	13.31
242.689	13.31
242.907	113.66
243.124	58.37
243.341	15.36
243.558	31.74
243.775	5.12
243.992	13.31
244.209	7.17
244.426	-23.55
244.643	-3.07
244.86	-5.12
245.078	25.6
245.295	11.26
245.512	-41.98
245.729	7.17
245.946	-17.41
246.163	19.46
246.38	9.22
246.597	54.27
246.814	-46.08
247.031	-1.02
247.248	39.94
247.464	-72.7
247.681	91.13
247.898	52.22
248.115	27.65
248.332	9.22
248.549	17.41
248.766	41.98
248.983	41.98
249.2	-31.74
249.417	66.56
249.633	54.27
249.85	-9.22
250.067	-15.36
250.284	1.02
250.501	3.07
250.717	-27.65
250.934	-7.17
251.151	-21.5
251.368	5.12
251.585	56.32
251.801	-31.74
252.018	78.85
252.235	66.56
252.451	-60.42
252.668	56.32
252.885	25.6
253.102	41.98
253.318	5.12
253.535	-21.5
253.752	25.6
253.968	13.31
254.185	-44.03
254.401	33.79
254.618	17.41
254.835	-29.7
255.051	115.71
255.268	9.22
255.484	29.7
255.701	17.41
255.917	52.22
256.134	-31.74
256.351	97.28
256.567	-13.31
256.784	58.37
257	-15.36
257.217	99.33
257.433	33.79
257.65	-52.22
257.866	29.7
258.082	17.41
258.299	-37.89
258.515	-3.07
258.732	48.13
258.948	-13.31
259.165	-1.02
259.381	29.7
259.597	35.84
259.814	-27.65
260.03	1.02
260.246	60.42
260.463	29.7
260.679	-9.22
260.895	19.46
261.112	17.41
261.328	80.89
261.544	-17.41
261.761	84.99
261.977	58.37
262.193	-7.17
262.409	-23.55
262.626	-13.31
262.842	5.12
263.058	-9.22
263.274	25.6
263.49	11.26
263.707	50.18
263.923	25.6
264.139	-62.46
264.355	25.6
264.571	50.18
264.787	9.22
265.004	21.5
265.22	21.5
265.436	17.41
265.652	21.5
265.868	-37.89
266.084	5.12
266.3	13.31
266.516	-58.37
266.732	35.84
266.948	17.41
267.164	-25.6
267.38	-15.36
267.596	19.46
267.812	19.46
268.028	50.18
268.244	25.6
268.46	37.89
268.676	-5.12
268.892	3.07
269.108	3.07
269.324	37.89
269.54	56.32
269.756	58.37
269.972	-17.41
270.188	-25.6
270.403	23.55
270.619	17.41
270.835	-17.41
271.051	33.79
271.267	7.17
271.483	56.32
271.698	-62.46
271.914	13.31
272.13	66.56
272.346	60.42
272.562	11.26
272.777	33.79
272.993	-60.42
273.209	37.89
273.425	41.98
273.64	46.08
273.856	39.94
274.072	-1.02
274.287	66.56
274.503	25.6
274.719	76.8
274.934	58.37
275.15	-41.98
275.366	50.18
275.581	17.41
275.797	39.94
276.012	37.89
276.228	50.18
276.444	25.6
276.659	54.27
276.875	-99.33
277.09	50.18
277.306	-1.02
277.521	7.17
277.737	-7.17
277.952	1.02
278.168	95.23
278.383	5.12
278.599	25.6
278.814	62.46
279.03	-41.98
279.245	109.57
279.461	33.79
279.676	76.8
279.892	-3.07
280.107	-23.55
280.322	-56.32
280.538	19.46
280.753	-44.03
280.969	25.6
281.184	91.13
281.399	52.22
281.615	15.36
281.83	50.18
282.045	1.02
282.26	52.22
282.476	7.17
282.691	33.79
282.906	-21.5
283.122	46.08
283.337	41.98
283.552	-11.26
283.767	25.6
283.983	-9.22
284.198	15.36
284.413	91.13
284.628	-46.08
284.843	66.56
285.058	31.74
285.274	15.36
285.489	-13.31
285.704	9.22
285.919	25.6
286.134	-3.07
286.349	15.36
286.564	7.17
286.779	35.84
286.995	-31.74
287.21	46.08
287.425	-23.55
287.64	-1.02
287.855	39.94
288.07	17.41
288.285	5.12
288.5	-17.41
288.715	66.56
288.93	23.55
289.145	3.07
289.36	9.22
289.575	39.94
289.79	13.31
290.004	37.89
290.219	23.55
290.434	-33.79
290.649	-9.22
290.864	19.46
291.079	-48.13
291.294	23.55
291.509	101.37
291.724	87.04
291.938	9.22
292.153	62.46
292.368	9.22
292.583	-15.36
292.798	5.12
293.012	23.55
293.227	41.98
293.442	-9.22
293.657	5.12
293.871	-39.94
294.086	50.18
294.301	58.37
294.516	-3.07
294.73	128
294.945	-39.94
295.16	76.8
295.374	-56.32
295.589	60.42
295.804	25.6
296.018	31.74
296.233	50.18
296.447	87.04
296.662	23.55
296.877	78.85
297.091	46.08
297.306	19.46
297.52	37.89
297.735	54.27
297.949	13.31
298.164	62.46
298.378	99.33
298.593	17.41
298.807	37.89
299.022	-17.41
299.236	31.74
299.451	-7.17
299.665	-19.46
299.88	35.84
300.094	23.55
300.309	-13.31
300.523	1.02
300.737	-9.22
300.952	29.7
301.166	44.03
301.381	-41.98
301.595	-48.13
301.809	-64.51
302.024	-13.31
302.238	13.31
302.452	-15.36
302.667	41.98
302.881	62.46
303.095	87.04
303.309	-29.7
303.524	-19.46
303.738	9.22
303.952	9.22
304.166	48.13
304.381	-31.74
304.595	27.65
304.809	-101.37
305.023	82.94
305.237	1.02
305.452	23.55
305.666	21.5
305.88	9.22
306.094	76.8
306.308	50.18
306.522	13.31
306.736	72.7
306.95	15.36
307.164	25.6
307.379	-64.51
307.593	72.7
307.807	66.56
308.021	41.98
308.235	31.74
308.449	29.7
308.663	-15.36
308.877	25.6
309.091	44.03
309.305	62.46
309.519	-1.02
309.733	68.61
309.947	52.22
310.161	41.98
310.374	25.6
310.588	17.41
310.802	9.22
311.016	15.36
311.23	17.41
311.444	-48.13
311.658	41.98
311.872	46.08
312.085	115.71
312.299	78.85
312.513	13.31
312.727	37.89
312.941	62.46
313.154	-31.74
313.368	-15.36
313.582	29.7
313.796	68.61
314.009	-13.31
314.223	21.5
314.437	76.8
314.651	29.7
314.864	58.37
315.078	-68.61
315.292	9.22
315.505	-29.7
315.719	66.56
315.933	41.98
316.146	-33.79
316.36	-23.55
316.573	15.36
316.787	-17.41
317.001	-29.7
317.214	39.94
317.428	56.32
317.641	19.46
317.855	-13.31
318.068	-25.6
318.282	-33.79
318.495	50.18
318.709	33.79
318.922	48.13
319.136	64.51
319.349	23.55
319.563	-3.07
319.776	84.99
319.99	-56.32
320.203	41.98
320.417	74.75
320.63	-23.55
320.843	74.75
321.057	7.17
321.27	-19.46
321.483	21.5
321.697	80.89
321.91	-31.74
322.124	15.36
322.337	-17.41
322.55	13.31
322.763	-15.36
322.977	17.41
323.19	5.12
323.403	29.7
323.617	5.12
323.83	21.5
324.043	54.27
324.256	21.5
324.469	-39.94
324.683	41.98
324.896	9.22
325.109	72.7
325.322	-31.74
325.535	-72.7
325.748	74.75
325.962	7.17
326.175	56.32
326.388	17.41
326.601	9.22
326.814	60.42
327.027	44.03
327.24	41.98
327.453	13.31
327.666	72.7
327.879	101.37
328.092	9.22
328.305	82.94
328.518	5.12
328.731	-1.02
328.944	23.55
329.157	50.18
329.37	1.02
329.583	-7.17
329.796	31.74
330.009	25.6
330.222	15.36
330.435	66.56
330.648	-33.79
330.861	3.07
331.073	66.56
331.286	84.99
331.499	-5.12
331.712	13.31
331.925	5.12
332.138	23.55
332.35	48.13
332.563	60.42
332.776	128
332.989	50.18
333.202	58.37
333.414	23.55
333.627	74.75
333.84	25.6
334.053	101.37
334.265	7.17
334.478	25.6
334.691	23.55
334.903	54.27
335.116	-13.31
335.329	-9.22
335.541	54.27
335.754	97.28
335.966	-31.74
336.179	13.31
336.392	13.31
336.604	-138.24
336.817	-11.26
337.029	39.94
337.242	54.27
337.454	72.7
337.667	9.22
337.88	17.41
338.092	-5.12
338.305	19.46
338.517	97.28
338.729	54.27
338.942	91.13
339.154	29.7
339.367	39.94
339.579	-9.22
339.792	-11.26
340.004	19.46
340.217	35.84
340.429	-3.07
340.641	91.13
340.854	-9.22
341.066	-39.94
341.278	-50.18
341.491	68.61
341.703	41.98
341.915	-23.55
342.128	44.03
342.34	58.37
342.552	23.55
342.764	-19.46
342.977	62.46
343.189	87.04
343.401	-5.12
343.613	62.46
343.826	-1.02
344.038	-41.98
344.25	-11.26
344.462	9.22
344.674	7.17
344.886	23.55
345.099	29.7
345.311	48.13
345.523	-72.7
345.735	-3.07
345.947	-9.22
346.159	17.41
346.371	39.94
346.583	46.08
346.795	105.47
347.007	23.55
347.219	-13.31
347.431	9.22
347.643	37.89
347.855	11.26
348.067	-9.22
348.279	5.12
348.491	54.27
348.703	-64.51
348.915	-21.5
349.127	84.99
349.339	39.94
349.551	29.7
349.763	5.12
349.975	-15.36
350.187	54.27
350.399	39.94
350.61	19.46
350.822	-31.74
351.034	33.79
351.246	-29.7
351.458	-15.36
351.669	17.41
351.881	50.18
352.093	1.02
352.305	37.89
352.517	35.84
352.728	31.74
352.94	19.46
353.152	-19.46
353.363	-21.5
353.575	11.26
353.787	37.89
353.999	44.03
354.21	70.65
354.422	-21.5
354.633	84.99
354.845	-66.56
355.057	23.55
355.268	48.13
355.48	17.41
355.692	60.42
355.903	29.7
356.115	7.17
356.326	25.6
356.538	33.79
356.749	33.79
356.961	-3.07
357.172	39.94
357.384	-50.18
357.595	119.81
357.807	72.7
358.018	44.03
358.23	1.02
358.441	91.13
358.653	72.7
358.864	9.22
359.075	48.13
359.287	33.79
359.498	64.51
359.709	41.98
359.921	50.18
360.132	31.74
360.344	58.37
360.555	25.6
360.766	62.46
360.977	-1.02
361.189	123.9
361.4	31.74
361.611	5.12
361.823	95.23
362.034	29.7
362.245	29.7
362.456	21.5
362.667	15.36
362.879	60.42
363.09	17.41
363.301	1.02
363.512	48.13
363.723	-35.84
363.935	48.13
364.146	52.22
364.357	-17.41
364.568	29.7
364.779	1.02
364.99	35.84
365.201	44.03
365.412	-9.22
365.623	58.37
365.834	29.7
366.045	64.51
366.256	31.74
366.467	1.02
366.678	7.17
366.889	13.31
367.1	52.22
367.311	21.5
367.522	23.55
367.733	74.75
367.944	13.31
368.155	97.28
368.366	11.26
368.577	27.65
368.788	82.94
368.999	5.12
369.209	25.6
369.42	62.46
369.631	84.99
369.842	11.26
370.053	13.31
370.264	99.33
370.474	9.22
370.685	-58.37
370.896	113.66
371.107	64.51
371.317	-11.26
371.528	-21.5
371.739	97.28
371.95	52.22
372.16	97.28
372.371	9.22
372.582	48.13
372.792	62.46
373.003	46.08
373.214	-1.02
373.424	-35.84
373.635	-13.31
373.846	74.75
374.056	29.7
374.267	56.32
374.477	52.22
374.688	-13.31
374.898	97.28
375.109	3.07
375.319	107.52
375.53	119.81
375.74	13.31
375.951	64.51
376.161	-21.5
376.372	111.61
376.582	-17.41
376.793	44.03
377.003	64.51
377.214	15.36
377.424	37.89
377.635	72.7
377.845	58.37
378.055	29.7
378.266	17.41
378.476	68.61
378.686	54.27
378.897	56.32
379.107	33.79
379.317	41.98
379.528	13.31
379.738	84.99
379.948	-11.26
380.158	70.65
380.369	54.27
380.579	7.17
380.789	41.98
380.999	19.46
381.21	15.36
381.42	66.56
381.63	35.84
381.84	82.94
382.05	27.65
382.261	41.98
382.471	-15.36
382.681	3.07
382.891	111.61
383.101	62.46
383.311	-5.12
383.521	7.17
383.731	97.28
383.941	74.75
384.151	78.85
384.361	89.09
384.571	95.23
384.781	-15.36
384.991	97.28
385.201	50.18
385.411	37.89
385.621	23.55
385.831	7.17
386.041	7.17
386.251	-19.46
386.461	41.98
386.671	46.08
386.881	99.33
387.091	-25.6
387.301	107.52
387.511	29.7
387.72	99.33
387.93	91.13
388.14	-29.7
388.35	93.18
388.56	48.13
388.769	33.79
388.979	-11.26
389.189	-7.17
389.399	95.23
389.609	58.37
389.818	109.57
390.028	33.79
390.238	33.79
390.447	-64.51
390.657	54.27
390.867	33.79
391.076	23.55
391.286	13.31
391.496	138.24
391.705	115.71
391.915	31.74
392.125	9.22
392.334	72.7
392.544	99.33
392.753	64.51
392.963	76.8
393.172	44.03
393.382	7.17
393.591	74.75
393.801	78.85
394.01	99.33
394.22	80.89
394.429	99.33
394.639	156.67
394.848	115.71
395.058	48.13
395.267	97.28
395.477	48.13
395.686	7.17
395.895	144.38
396.105	91.13
396.314	82.94
396.524	144.38
396.733	13.31
396.942	68.61
397.152	138.24
397.361	132.09
397.57	105.47
397.78	-7.17
397.989	125.95
398.198	89.09
398.407	132.09
398.617	128
398.826	82.94
399.035	54.27
399.244	70.65
399.453	60.42
399.663	25.6
399.872	121.85
400.081	41.98
400.29	156.67
400.499	82.94
400.708	107.52
400.917	82.94
401.127	99.33
401.336	91.13
401.545	146.43
401.754	160.77
401.963	113.66
402.172	41.98
402.381	95.23
402.59	80.89
402.799	136.19
403.008	136.19
403.217	132.09
403.426	74.75
403.635	60.42
403.844	140.29
404.053	148.48
404.262	123.9
404.471	195.58
404.68	154.62
404.888	134.14
405.097	150.53
405.306	130.05
405.515	199.68
405.724	128
405.933	154.62
406.142	177.15
406.35	181.25
406.559	150.53
406.768	187.39
406.977	195.58
407.185	201.72
407.394	175.1
407.603	140.29
407.812	166.91
408.02	189.44
408.229	193.53
408.438	300.03
408.646	205.82
408.855	214.01
409.064	246.78
409.272	261.12
409.481	340.99
409.69	340.99
409.898	238.59
410.107	246.78
410.315	390.14
410.524	332.79
410.733	271.36
410.941	265.21
411.15	355.32
411.358	400.38
411.567	404.47
411.775	474.1
411.984	363.51
412.192	435.19
412.401	410.62
412.609	435.19
412.818	406.52
413.026	523.26
413.234	523.26
413.443	496.63
413.651	517.11
413.86	609.27
414.068	615.41
414.276	580.6
414.485	599.03
414.693	599.03
414.901	642.04
415.11	738.29
415.318	695.29
415.526	758.77
415.734	801.78
415.943	824.31
416.151	787.44
416.359	795.64
416.567	807.92
416.776	834.55
416.984	1025.01
417.192	926.71
417.4	979.95
417.608	984.05
417.817	1139.69
418.025	1074.16
418.233	1160.17
418.441	1127.41
418.649	1174.51
418.857	1305.58
419.065	1403.88
419.273	1383.4
419.481	1379.31
419.689	1364.97
419.897	1453.03
420.105	1516.52
420.313	1573.86
420.521	1596.39
420.729	1575.91
420.937	1700.84
421.145	1870.82
421.353	1840.1
421.561	1946.59
421.769	1979.36
421.977	2065.38
422.185	1979.36
422.393	2165.73
422.601	2261.98
422.809	2413.53
423.017	2249.69
423.224	2434.01
423.432	2417.63
423.64	2589.66
423.848	2767.83
424.056	2581.46
424.263	2997.2
424.471	2980.82
424.679	3003.35
424.887	2997.2
425.094	3187.66
425.302	3206.1
425.51	3333.07
425.718	3437.52
425.925	3380.17
426.133	3705.8
426.341	3894.21
426.548	4121.54
426.756	3922.88
426.964	4010.95
427.171	4334.53
427.379	4348.86
427.586	4387.77
427.794	4670.39
428.001	4793.27
428.209	5010.36
428.417	5034.93
428.624	5321.65
428.832	5200.82
429.039	5268.4
429.247	5381.04
429.454	5634.99
429.662	6001.57
429.869	5708.71
430.076	6226.85
430.284	5983.14
430.491	6239.14
430.699	6728.6
430.906	6673.31
431.114	6710.17
431.321	7050.13
431.528	7009.17
431.736	7375.76
431.943	7865.22
432.15	7742.35
432.358	7691.15
432.565	8106.88
432.772	8004.49
432.979	8506.24
433.187	8858.49
433.394	8762.23
433.601	9280.37
433.808	9352.05
434.016	9288.56
434.223	9708.4
434.43	10218.34
434.637	10154.85
434.844	10509.15
435.052	10746.72
435.259	10908.51
435.466	11053.91
435.673	10740.57
435.88	11621.2
436.087	12243.78
436.294	12276.55
436.501	12004.17
436.708	12286.79
436.915	12346.18
437.122	13112.12
437.329	12981.05
437.537	13488.95
437.743	13806.38
437.95	13802.29
438.157	14531.36
438.364	14668.58
438.571	14746.4
438.778	14750.49
438.985	16339.72
439.192	15907.6
439.399	16210.7
439.606	15784.72
439.813	16720.64
440.02	17871.6
440.227	17244.92
440.433	17416.95
440.64	17974
440.847	17959.66
441.054	18082.54
441.261	19391.19
441.467	18885.34
441.674	19563.22
441.881	20243.15
442.088	20429.51
442.294	20005.58
442.501	20390.6
442.708	20849.35
442.914	21729.97
443.121	22770.34
443.328	22252.2
443.534	23859.86
443.741	22796.96
443.948	22811.3
444.154	24244.88
444.361	24570.51
444.568	24099.47
444.774	24326.8
444.981	24517.26
445.187	25369.21
445.394	26344.05
445.6	25983.6
445.807	28742.22
446.013	27304.54
446.22	27992.66
446.426	29121.09
446.633	29395.52
446.839	30433.84
447.046	28852.81
447.252	30609.96
447.459	30519.85
447.665	30460.46
447.871	31705.63
448.078	33114.63
448.284	31582.75
448.491	32688.65
448.697	33720.83
448.903	34490.87
449.11	34300.4
449.316	33860.09
449.522	34458.1
449.728	35631.58
449.935	35531.23
450.141	35834.33
450.347	36612.56
450.553	35326.44
450.76	35928.54
450.966	37427.65
451.172	36514.26
451.378	37706.18
451.584	36854.22
451.791	38146.49
451.997	37482.95
452.203	38144.44
452.409	38093.24
452.615	37978.56
452.821	36489.68
453.027	36473.3
453.233	38472.12
453.44	37071.31
453.646	37321.16
453.852	37366.21
454.058	38115.77
454.264	36932.04
454.47	37874.11
454.676	36358.61
454.882	38021.56
455.088	34363.89
455.294	35471.84
455.5	35402.21
455.705	35643.87
455.911	34269.69
456.117	34025.98
456.323	33407.49
456.529	32047.64
456.735	33131.01
456.941	32236.05
457.147	32016.92
457.352	30728.75
457.558	30554.67
457.764	30847.53
457.97	30272.05
458.176	29456.96
458.381	29305.41
458.587	27875.93
458.793	27843.16
458.999	26479.21
459.204	28219.99
459.41	27472.48
459.616	25289.34
459.821	25848.44
460.027	25731.7
460.233	25283.2
460.438	23784.09
460.644	24134.29
460.85	23120.54
461.055	22708.9
461.261	22446.76
461.466	21074.62
461.672	20714.18
461.878	21844.66
462.083	20423.37
462.289	20175.56
462.494	19931.86
462.7	19094.24
462.905	18547.43
463.111	19323.61
463.316	19045.09
463.522	18662.12
463.727	18780.9
463.932	18969.31
464.138	18549.48
464.343	18729.7
464.549	18055.92
464.754	18707.17
464.959	18535.14
465.165	18330.34
465.37	17689.33
465.575	17062.65
465.781	18070.25
465.986	18154.22
466.191	17486.58
466.397	16741.12
466.602	15889.17
466.807	16743.17
467.012	16683.78
467.218	16698.11
467.423	16425.73
467.628	16399.11
467.833	17539.83
