Data from USB4F104151__29__11-36-43-945.txt Node

Date: Fri Mar 14 11:36:43 EDT 2025
User: louis
Spectrometer: USB4F10415
Trigger mode: 4
Integration Time (sec): 2.000000E-2
Scans to average: 1
Electric dark correction enabled: true
Nonlinearity correction enabled: false
Boxcar width: 0
XAxis mode: Wavelengths
Number of Pixels in Spectrum: 3648
>>>>>Begin Spectral Data<<<<<
178.204	-82.43
178.424	-82.43
178.644	-82.43
178.864	-57.86
179.084	-92.67
179.304	-6.66
179.524	-8.7
179.744	-23.04
179.964	7.68
180.184	11.78
180.404	-12.8
180.624	-6.66
180.844	22.02
181.064	36.35
181.283	-35.33
181.503	1.54
181.723	13.82
181.943	-4.61
182.163	-14.85
182.383	-53.76
182.602	-27.14
182.822	-4.61
183.042	71.17
183.262	60.93
183.482	73.21
183.701	-12.8
183.921	58.88
184.141	-4.61
184.361	15.87
184.58	-8.7
184.8	13.82
185.02	-49.66
185.239	38.4
185.459	32.26
185.679	118.27
185.898	-10.75
186.118	7.68
186.338	48.64
186.557	28.16
186.777	-23.04
186.997	-10.75
187.216	-27.14
187.436	69.12
187.655	67.07
187.875	11.78
188.095	-86.53
188.314	73.21
188.534	95.74
188.753	13.82
188.973	3.58
189.192	40.45
189.412	13.82
189.631	22.02
189.851	26.11
190.07	32.26
190.29	-0.51
190.509	-55.81
190.729	-33.28
190.948	3.58
191.168	69.12
191.387	60.93
191.607	22.02
191.826	11.78
192.045	-12.8
192.265	-25.09
192.484	85.5
192.704	-0.51
192.923	44.54
193.142	83.45
193.362	32.26
193.581	32.26
193.8	50.69
194.02	73.21
194.239	-37.38
194.458	-8.7
194.678	3.58
194.897	87.55
195.116	9.73
195.335	93.69
195.555	60.93
195.774	19.97
195.993	52.74
196.212	28.16
196.432	11.78
196.651	-20.99
196.87	32.26
197.089	40.45
197.308	42.5
197.528	54.78
197.747	30.21
197.966	81.41
198.185	52.74
198.404	-10.75
198.623	-53.76
198.842	36.35
199.062	83.45
199.281	103.93
199.5	60.93
199.719	50.69
199.938	48.64
200.157	97.79
200.376	36.35
200.595	44.54
200.814	-29.18
201.033	58.88
201.252	44.54
201.471	48.64
201.69	15.87
201.909	7.68
202.128	71.17
202.347	-10.75
202.566	11.78
202.785	-20.99
203.004	44.54
203.223	67.07
203.442	93.69
203.661	-29.18
203.879	85.5
204.098	108.03
204.317	-37.38
204.536	40.45
204.755	24.06
204.974	5.63
205.193	97.79
205.411	26.11
205.63	75.26
205.849	-0.51
206.068	60.93
206.287	-39.42
206.505	-37.38
206.724	-14.85
206.943	89.6
207.162	7.68
207.381	44.54
207.599	81.41
207.818	-25.09
208.037	-18.94
208.255	44.54
208.474	-29.18
208.693	9.73
208.911	56.83
209.13	71.17
209.349	7.68
209.567	28.16
209.786	48.64
210.005	42.5
210.223	-20.99
210.442	-29.18
210.661	48.64
210.879	-27.14
211.098	95.74
211.316	11.78
211.535	95.74
211.753	40.45
211.972	19.97
212.191	-86.53
212.409	32.26
212.628	97.79
212.846	17.92
213.065	15.87
213.283	73.21
213.502	-31.23
213.72	-25.09
213.938	38.4
214.157	71.17
214.375	77.31
214.594	52.74
214.812	-31.23
215.031	54.78
215.249	7.68
215.467	26.11
215.686	46.59
215.904	-0.51
216.122	30.21
216.341	79.36
216.559	44.54
216.778	105.98
216.996	75.26
217.214	-0.51
217.432	7.68
217.651	-4.61
217.869	-39.42
218.087	24.06
218.306	-33.28
218.524	-0.51
218.742	36.35
218.96	28.16
219.179	-6.66
219.397	44.54
219.615	-4.61
219.833	-49.66
220.051	3.58
220.27	-35.33
220.488	40.45
220.706	19.97
220.924	17.92
221.142	62.98
221.36	17.92
221.578	-31.23
221.796	32.26
222.015	-6.66
222.233	28.16
222.451	-23.04
222.669	-12.8
222.887	97.79
223.105	-8.7
223.323	-20.99
223.541	-0.51
223.759	81.41
223.977	30.21
224.195	81.41
224.413	132.61
224.631	15.87
224.849	-2.56
225.067	101.89
225.285	-6.66
225.503	-10.75
225.721	-2.56
225.939	15.87
226.157	-6.66
226.375	132.61
226.592	30.21
226.81	93.69
227.028	50.69
227.246	58.88
227.464	56.83
227.682	60.93
227.9	-12.8
228.117	17.92
228.335	44.54
228.553	71.17
228.771	91.65
228.989	67.07
229.206	67.07
229.424	-2.56
229.642	-31.23
229.86	-59.9
230.077	-6.66
230.295	3.58
230.513	-8.7
230.731	11.78
230.948	69.12
231.166	50.69
231.384	52.74
231.601	34.3
231.819	34.3
232.037	28.16
232.254	13.82
232.472	11.78
232.689	-23.04
232.907	-12.8
233.125	-23.04
233.342	60.93
233.56	-41.47
233.777	-41.47
233.995	-12.8
234.213	-2.56
234.43	-0.51
234.648	13.82
234.865	42.5
235.083	24.06
235.3	9.73
235.518	15.87
235.735	11.78
235.953	67.07
236.17	15.87
236.388	136.7
236.605	52.74
236.822	46.59
237.04	7.68
237.257	-57.86
237.475	-55.81
237.692	46.59
237.909	62.98
238.127	17.92
238.344	34.3
238.562	52.74
238.779	-20.99
238.996	9.73
239.214	28.16
239.431	65.02
239.648	40.45
239.865	44.54
240.083	114.17
240.3	44.54
240.517	7.68
240.735	9.73
240.952	87.55
241.169	19.97
241.386	24.06
241.603	13.82
241.821	-25.09
242.038	9.73
242.255	-37.38
242.472	110.08
242.689	19.97
242.907	48.64
243.124	48.64
243.341	46.59
243.558	36.35
243.775	32.26
243.992	-12.8
244.209	56.83
244.426	26.11
244.643	93.69
244.86	-6.66
245.078	46.59
245.295	-12.8
245.512	95.74
245.729	9.73
245.946	22.02
246.163	-25.09
246.38	99.84
246.597	34.3
246.814	73.21
247.031	9.73
247.248	17.92
247.464	22.02
247.681	5.63
247.898	-14.85
248.115	62.98
248.332	79.36
248.549	17.92
248.766	73.21
248.983	32.26
249.2	26.11
249.417	36.35
249.633	-18.94
249.85	3.58
250.067	-20.99
250.284	65.02
250.501	93.69
250.717	93.69
250.934	30.21
251.151	-35.33
251.368	-45.57
251.585	56.83
251.801	32.26
252.018	54.78
252.235	42.5
252.451	1.54
252.668	-33.28
252.885	46.59
253.102	17.92
253.318	9.73
253.535	-16.9
253.752	17.92
253.968	48.64
254.185	-37.38
254.401	48.64
254.618	5.63
254.835	42.5
255.051	52.74
255.268	26.11
255.484	-2.56
255.701	34.3
255.917	46.59
256.134	36.35
256.351	75.26
256.567	11.78
256.784	17.92
257	11.78
257.217	-37.38
257.433	-6.66
257.65	87.55
257.866	46.59
258.082	48.64
258.299	44.54
258.515	15.87
258.732	-2.56
258.948	-4.61
259.165	9.73
259.381	15.87
259.597	60.93
259.814	30.21
260.03	-4.61
260.246	91.65
260.463	50.69
260.679	-18.94
260.895	56.83
261.112	-45.57
261.328	148.99
261.544	-4.61
261.761	32.26
261.977	-61.95
262.193	3.58
262.409	-45.57
262.626	46.59
262.842	30.21
263.058	32.26
263.274	-31.23
263.49	-4.61
263.707	38.4
263.923	60.93
264.139	13.82
264.355	-8.7
264.571	-45.57
264.787	28.16
265.004	128.51
265.22	81.41
265.436	30.21
265.652	32.26
265.868	3.58
266.084	-37.38
266.3	-25.09
266.516	34.3
266.732	79.36
266.948	17.92
267.164	-45.57
267.38	-35.33
267.596	-6.66
267.812	91.65
268.028	9.73
268.244	-20.99
268.46	28.16
268.676	-16.9
268.892	67.07
269.108	-4.61
269.324	126.46
269.54	-25.09
269.756	60.93
269.972	7.68
270.188	67.07
270.403	-2.56
270.619	71.17
270.835	17.92
271.051	22.02
271.267	58.88
271.483	19.97
271.698	30.21
271.914	3.58
272.13	-45.57
272.346	19.97
272.562	30.21
272.777	42.5
272.993	-53.76
273.209	48.64
273.425	-29.18
273.64	32.26
273.856	30.21
274.072	7.68
274.287	77.31
274.503	-16.9
274.719	108.03
274.934	-41.47
275.15	-0.51
275.366	40.45
275.581	9.73
275.797	-53.76
276.012	91.65
276.228	-2.56
276.444	36.35
276.659	26.11
276.875	-25.09
277.09	50.69
277.306	26.11
277.521	22.02
277.737	11.78
277.952	77.31
278.168	-39.42
278.383	-6.66
278.599	-70.14
278.814	17.92
279.03	60.93
279.245	42.5
279.461	-2.56
279.676	60.93
279.892	65.02
280.107	24.06
280.322	17.92
280.538	9.73
280.753	34.3
280.969	34.3
281.184	93.69
281.399	28.16
281.615	34.3
281.83	58.88
282.045	-6.66
282.26	26.11
282.476	54.78
282.691	-12.8
282.906	-43.52
283.122	60.93
283.337	85.5
283.552	-8.7
283.767	40.45
283.983	52.74
284.198	17.92
284.413	93.69
284.628	11.78
284.843	62.98
285.058	9.73
285.274	1.54
285.489	3.58
285.704	-35.33
285.919	-6.66
286.134	81.41
286.349	48.64
286.564	-53.76
286.779	118.27
286.995	-0.51
287.21	42.5
287.425	48.64
287.64	-16.9
287.855	-37.38
288.07	3.58
288.285	3.58
288.5	9.73
288.715	101.89
288.93	-2.56
289.145	-8.7
289.36	-23.04
289.575	11.78
289.79	-35.33
290.004	44.54
290.219	34.3
290.434	13.82
290.649	-6.66
290.864	44.54
291.079	40.45
291.294	-0.51
291.509	93.69
291.724	1.54
291.938	1.54
292.153	-37.38
292.368	-37.38
292.583	110.08
292.798	-20.99
293.012	34.3
293.227	60.93
293.442	87.55
293.657	-12.8
293.871	5.63
294.086	56.83
294.301	34.3
294.516	46.59
294.73	28.16
294.945	87.55
295.16	-0.51
295.374	52.74
295.589	69.12
295.804	-37.38
296.018	26.11
296.233	46.59
296.447	9.73
296.662	24.06
296.877	52.74
297.091	91.65
297.306	15.87
297.52	62.98
297.735	19.97
297.949	60.93
298.164	89.6
298.378	-41.47
298.593	34.3
298.807	77.31
299.022	50.69
299.236	-20.99
299.451	34.3
299.665	15.87
299.88	58.88
300.094	60.93
300.309	-41.47
300.523	-12.8
300.737	36.35
300.952	-10.75
301.166	67.07
301.381	-14.85
301.595	3.58
301.809	71.17
302.024	-4.61
302.238	-2.56
302.452	1.54
302.667	15.87
302.881	73.21
303.095	-23.04
303.309	122.37
303.524	28.16
303.738	38.4
303.952	26.11
304.166	5.63
304.381	9.73
304.595	44.54
304.809	-4.61
305.023	32.26
305.237	30.21
305.452	3.58
305.666	67.07
305.88	34.3
306.094	67.07
306.308	38.4
306.522	19.97
306.736	22.02
306.95	81.41
307.164	-29.18
307.379	-10.75
307.593	118.27
307.807	36.35
308.021	30.21
308.235	28.16
308.449	-27.14
308.663	-20.99
308.877	-12.8
309.091	-16.9
309.305	17.92
309.519	-23.04
309.733	19.97
309.947	-4.61
310.161	-49.66
310.374	19.97
310.588	105.98
310.802	7.68
311.016	58.88
311.23	83.45
311.444	118.27
311.658	44.54
311.872	69.12
312.085	34.3
312.299	-61.95
312.513	9.73
312.727	62.98
312.941	-23.04
313.154	85.5
313.368	50.69
313.582	71.17
313.796	34.3
314.009	62.98
314.223	75.26
314.437	67.07
314.651	75.26
314.864	32.26
315.078	83.45
315.292	52.74
315.505	5.63
315.719	34.3
315.933	44.54
316.146	32.26
316.36	1.54
316.573	58.88
316.787	52.74
317.001	114.17
317.214	19.97
317.428	52.74
317.641	48.64
317.855	-16.9
318.068	1.54
318.282	-6.66
318.495	-2.56
318.709	85.5
318.922	17.92
319.136	44.54
319.349	75.26
319.563	71.17
319.776	38.4
319.99	19.97
320.203	19.97
320.417	13.82
320.63	81.41
320.843	19.97
321.057	13.82
321.27	60.93
321.483	75.26
321.697	36.35
321.91	99.84
322.124	69.12
322.337	40.45
322.55	62.98
322.763	48.64
322.977	77.31
323.19	112.13
323.403	-6.66
323.617	34.3
323.83	40.45
324.043	58.88
324.256	1.54
324.469	15.87
324.683	-6.66
324.896	42.5
325.109	89.6
325.322	-29.18
325.535	19.97
325.748	9.73
325.962	44.54
326.175	56.83
326.388	32.26
326.601	3.58
326.814	85.5
327.027	97.79
327.24	44.54
327.453	38.4
327.666	52.74
327.879	42.5
328.092	38.4
328.305	-10.75
328.518	-6.66
328.731	1.54
328.944	67.07
329.157	3.58
329.37	67.07
329.583	3.58
329.796	44.54
330.009	52.74
330.222	34.3
330.435	26.11
330.648	11.78
330.861	40.45
331.073	26.11
331.286	56.83
331.499	34.3
331.712	-8.7
331.925	7.68
332.138	124.41
332.35	9.73
332.563	97.79
332.776	-0.51
332.989	48.64
333.202	42.5
333.414	-6.66
333.627	38.4
333.84	46.59
334.053	114.17
334.265	24.06
334.478	77.31
334.691	28.16
334.903	52.74
335.116	28.16
335.329	-25.09
335.541	38.4
335.754	-53.76
335.966	42.5
336.179	48.64
336.392	77.31
336.604	-16.9
336.817	87.55
337.029	65.02
337.242	26.11
337.454	69.12
337.667	9.73
337.88	52.74
338.092	60.93
338.305	48.64
338.517	28.16
338.729	48.64
338.942	19.97
339.154	11.78
339.367	56.83
339.579	40.45
339.792	1.54
340.004	32.26
340.217	79.36
340.429	75.26
340.641	48.64
340.854	1.54
341.066	-4.61
341.278	1.54
341.491	62.98
341.703	95.74
341.915	52.74
342.128	69.12
342.34	11.78
342.552	95.74
342.764	15.87
342.977	-29.18
343.189	52.74
343.401	11.78
343.613	9.73
343.826	58.88
344.038	-16.9
344.25	60.93
344.462	34.3
344.674	-2.56
344.886	67.07
345.099	17.92
345.311	11.78
345.523	52.74
345.735	-33.28
345.947	69.12
346.159	36.35
346.371	48.64
346.583	69.12
346.795	112.13
347.007	1.54
347.219	13.82
347.431	71.17
347.643	54.78
347.855	-14.85
348.067	81.41
348.279	71.17
348.491	97.79
348.703	-25.09
348.915	83.45
349.127	32.26
349.339	155.13
349.551	-20.99
349.763	11.78
349.975	-20.99
350.187	60.93
350.399	146.94
350.61	60.93
350.822	36.35
351.034	19.97
351.246	85.5
351.458	91.65
351.669	32.26
351.881	93.69
352.093	101.89
352.305	126.46
352.517	15.87
352.728	60.93
352.94	-0.51
353.152	54.78
353.363	19.97
353.575	56.83
353.787	42.5
353.999	-18.94
354.21	22.02
354.422	-18.94
354.633	-33.28
354.845	110.08
355.057	73.21
355.268	34.3
355.48	30.21
355.692	-2.56
355.903	5.63
356.115	54.78
356.326	-23.04
356.538	69.12
356.749	19.97
356.961	65.02
357.172	-20.99
357.384	-4.61
357.595	36.35
357.807	5.63
358.018	30.21
358.23	58.88
358.441	116.22
358.653	28.16
358.864	42.5
359.075	87.55
359.287	73.21
359.498	44.54
359.709	-41.47
359.921	15.87
360.132	-10.75
360.344	11.78
360.555	34.3
360.766	67.07
360.977	75.26
361.189	46.59
361.4	-35.33
361.611	81.41
361.823	65.02
362.034	116.22
362.245	-6.66
362.456	3.58
362.667	26.11
362.879	-8.7
363.09	-18.94
363.301	85.5
363.512	-37.38
363.723	19.97
363.935	30.21
364.146	48.64
364.357	56.83
364.568	46.59
364.779	17.92
364.99	28.16
365.201	13.82
365.412	157.18
365.623	-16.9
365.834	89.6
366.045	24.06
366.256	58.88
366.467	28.16
366.678	-12.8
366.889	50.69
367.1	116.22
367.311	32.26
367.522	91.65
367.733	11.78
367.944	24.06
368.155	36.35
368.366	34.3
368.577	54.78
368.788	87.55
368.999	50.69
369.209	-14.85
369.42	101.89
369.631	44.54
369.842	79.36
370.053	89.6
370.264	60.93
370.474	-29.18
370.685	52.74
370.896	-10.75
371.107	40.45
371.317	-0.51
371.528	71.17
371.739	73.21
371.95	-23.04
372.16	71.17
372.371	11.78
372.582	99.84
372.792	17.92
373.003	-0.51
373.214	30.21
373.424	62.98
373.635	24.06
373.846	73.21
374.056	7.68
374.267	17.92
374.477	28.16
374.688	24.06
374.898	-4.61
375.109	-45.57
375.319	56.83
375.53	52.74
375.74	50.69
375.951	52.74
376.161	110.08
376.372	9.73
376.582	42.5
376.793	110.08
377.003	-4.61
377.214	15.87
377.424	52.74
377.635	83.45
377.845	52.74
378.055	128.51
378.266	56.83
378.476	132.61
378.686	15.87
378.897	136.7
379.107	32.26
379.317	22.02
379.528	-18.94
379.738	97.79
379.948	-16.9
380.158	81.41
380.369	81.41
380.579	85.5
380.789	26.11
380.999	58.88
381.21	81.41
381.42	122.37
381.63	58.88
381.84	44.54
382.05	54.78
382.261	50.69
382.471	28.16
382.681	69.12
382.891	114.17
383.101	124.41
383.311	-70.14
383.521	36.35
383.731	118.27
383.941	56.83
384.151	32.26
384.361	87.55
384.571	1.54
384.781	69.12
384.991	50.69
385.201	110.08
385.411	65.02
385.621	67.07
385.831	-10.75
386.041	54.78
386.251	48.64
386.461	36.35
386.671	67.07
386.881	69.12
387.091	73.21
387.301	52.74
387.511	28.16
387.72	60.93
387.93	17.92
388.14	-61.95
388.35	50.69
388.56	40.45
388.769	97.79
388.979	-66.05
389.189	77.31
389.399	-0.51
389.609	15.87
389.818	54.78
390.028	93.69
390.238	69.12
390.447	52.74
390.657	46.59
390.867	73.21
391.076	-12.8
391.286	60.93
391.496	32.26
391.705	44.54
391.915	91.65
392.125	93.69
392.334	77.31
392.544	73.21
392.753	124.41
392.963	52.74
393.172	71.17
393.382	38.4
393.591	148.99
393.801	-0.51
394.01	134.65
394.22	77.31
394.429	50.69
394.639	67.07
394.848	65.02
395.058	69.12
395.267	95.74
395.477	83.45
395.686	89.6
395.895	116.22
396.105	148.99
396.314	9.73
396.524	50.69
396.733	87.55
396.942	110.08
397.152	151.04
397.361	83.45
397.57	73.21
397.78	67.07
397.989	120.32
398.198	83.45
398.407	81.41
398.617	73.21
398.826	91.65
399.035	101.89
399.244	56.83
399.453	85.5
399.663	165.37
399.872	101.89
400.081	73.21
400.29	157.18
400.499	52.74
400.708	17.92
400.917	130.56
401.127	91.65
401.336	34.3
401.545	146.94
401.754	87.55
401.963	101.89
402.172	183.81
402.381	126.46
402.59	93.69
402.799	134.65
403.008	181.76
403.217	146.94
403.426	146.94
403.635	32.26
403.844	85.5
404.053	155.13
404.262	99.84
404.471	130.56
404.68	177.66
404.888	206.33
405.097	103.93
405.306	192
405.515	130.56
405.724	173.57
405.933	157.18
406.142	173.57
406.35	146.94
406.559	192
406.768	179.71
406.977	208.38
407.185	249.34
407.394	173.57
407.603	130.56
407.812	155.13
408.02	255.48
408.229	177.66
408.438	224.76
408.646	200.19
408.855	253.44
409.064	253.44
409.272	173.57
409.481	306.68
409.69	253.44
409.898	282.11
410.107	331.26
410.315	378.36
410.524	333.31
410.733	349.69
410.941	349.69
411.15	327.16
411.358	396.79
411.567	470.52
411.775	425.47
411.984	513.53
412.192	521.72
412.401	427.51
412.609	484.86
412.818	470.52
413.026	517.62
413.234	523.77
413.443	581.11
413.651	441.85
413.86	626.17
414.068	708.09
414.276	632.31
414.485	617.97
414.693	656.89
414.901	701.94
415.11	689.65
415.318	708.09
415.526	744.95
415.734	843.25
415.943	826.87
416.151	818.68
416.359	939.51
416.567	806.39
416.776	988.66
416.984	998.9
417.192	1015.28
417.4	992.75
417.608	1025.52
417.817	1068.53
418.025	1142.25
418.233	1183.21
418.441	1154.54
418.649	1230.32
418.857	1191.41
419.065	1279.47
419.273	1322.48
419.481	1314.28
419.689	1437.16
419.897	1541.61
420.105	1500.65
420.313	1467.88
420.521	1592.81
420.729	1592.81
420.937	1707.49
421.145	1791.46
421.353	1805.8
421.561	1883.62
421.769	1906.15
421.977	2117.09
422.185	2043.36
422.393	2190.81
422.601	2346.46
422.809	2346.46
423.017	2164.19
423.224	2293.21
423.432	2532.83
423.64	2434.52
423.848	2725.33
424.056	2629.08
424.263	2858.45
424.471	2856.4
424.679	2878.93
424.887	3122.64
425.094	3169.74
425.302	3163.6
425.51	3233.23
425.718	3526.09
425.925	3468.75
426.133	3683.78
426.341	3780.04
426.548	3999.17
426.756	3974.6
426.964	4007.36
427.171	4199.87
427.379	4275.65
427.586	4410.81
427.794	4533.69
428.001	4664.76
428.209	4924.85
428.417	4896.18
428.624	5152.18
428.832	5125.55
429.039	5156.27
429.247	5209.52
429.454	5610.92
429.662	5987.75
429.869	5588.39
430.076	6196.64
430.284	5965.22
430.491	6104.48
430.699	6507.93
430.906	6395.29
431.114	6602.14
431.321	6817.18
431.528	7103.89
431.736	7433.61
431.943	7712.14
432.15	7415.18
432.358	7697.8
432.565	8025.48
432.772	7951.75
432.979	8467.84
433.187	8578.43
433.394	8566.14
433.601	9094.52
433.808	9325.94
434.016	9108.85
434.223	9250.16
434.43	10235.24
434.637	9833.83
434.844	10210.66
435.052	10700.12
435.259	10491.23
435.466	10653.02
435.673	10874.2
435.88	11306.32
436.087	11949.39
436.294	11853.13
436.501	11666.77
436.708	11889.99
436.915	12440.9
437.122	12950.84
437.329	12713.28
437.537	13507.89
437.743	13743.41
437.95	13415.73
438.157	14015.79
438.364	14687.52
438.571	14368.04
438.778	14560.55
438.985	15877.39
439.192	15377.69
439.399	15813.9
439.606	15607.06
439.813	16286.98
440.02	17358.07
440.227	17059.07
440.433	17005.82
440.64	17239.29
440.847	17089.79
441.054	18132.2
441.261	18560.23
441.467	18543.85
441.674	19201.24
441.881	19680.47
442.088	19680.47
442.294	19664.08
442.501	20171.98
442.708	20397.26
442.914	21171.39
443.121	21994.67
443.328	21484.73
443.534	23166.11
443.741	22742.18
443.948	22240.43
444.154	23788.69
444.361	23678.1
444.568	23870.61
444.774	23968.91
444.981	24284.3
445.187	24771.72
445.394	25470.08
445.6	25846.9
445.807	27927.64
446.013	26606.7
446.22	27647.07
446.426	28089.43
446.633	28396.62
446.839	29598.78
447.046	28099.67
447.252	30094.39
447.459	29922.36
447.665	29852.73
447.871	31095.85
448.078	32445.46
448.284	30960.68
448.491	32109.59
448.697	32838.67
448.903	33299.46
449.11	33481.73
449.316	33162.25
449.522	33666.05
449.728	34771.95
449.935	34837.48
450.141	34929.64
450.347	35447.78
450.553	34702.32
450.76	34931.69
450.966	36201.43
451.172	35804.13
451.378	36846.54
451.584	35963.87
451.791	36928.46
451.997	36465.62
452.203	37471.17
452.409	37370.82
452.615	37082.06
452.821	35752.93
453.027	35234.79
453.233	37565.38
453.44	36096.99
453.646	36336.6
453.852	36525.01
454.058	37133.26
454.264	35730.4
454.47	36525.01
454.676	35531.75
454.882	37020.62
455.088	33854.46
455.294	33899.51
455.5	34493.43
455.705	35167.21
455.911	33928.19
456.117	32830.48
456.323	32515.09
456.529	30735.4
456.735	31931.42
456.941	31398.94
457.147	31024.17
457.352	30164.02
457.558	29385.79
457.764	29762.62
457.97	28742.73
458.176	28474.45
458.381	28720.2
458.587	26829.93
458.793	27141.22
458.999	25697.4
459.204	27292.77
459.41	26561.64
459.616	25052.29
459.821	25222.27
460.027	25040
460.233	24272.01
460.438	23129.25
460.644	23481.5
460.85	22768.8
461.055	21980.34
461.261	22207.66
461.466	20552.9
461.672	19750.1
461.878	21214.4
462.083	19713.24
462.289	19457.24
462.494	19053.79
462.7	18504.93
462.905	17911.02
463.111	18644.2
463.316	18349.29
463.522	18175.21
463.727	18134.25
463.932	18148.59
464.138	17960.17
464.343	18083.05
464.549	17396.98
464.754	18179.31
464.959	17919.21
465.165	17583.35
465.37	16928
465.575	16661.76
465.781	17243.38
465.986	17489.14
466.191	16837.89
466.397	16633.09
466.602	15785.23
466.807	16106.76
467.012	16321.8
467.218	16106.76
467.423	15926.54
467.628	16090.38
