Data from USB4F104151__26__11-36-42-486.txt Node

Date: Fri Mar 14 11:36:42 EDT 2025
User: louis
Spectrometer: USB4F10415
Trigger mode: 4
Integration Time (sec): 2.000000E-2
Scans to average: 1
Electric dark correction enabled: true
Nonlinearity correction enabled: false
Boxcar width: 0
XAxis mode: Wavelengths
Number of Pixels in Spectrum: 3648
>>>>>Begin Spectral Data<<<<<
178.204	-30.21
178.424	-30.21
178.644	-30.21
178.864	-91.65
179.084	-34.3
179.304	4.61
179.524	-5.63
179.744	27.14
179.964	-1.54
180.184	-30.21
180.404	29.18
180.624	-38.4
180.844	27.14
181.064	-22.02
181.283	-17.92
181.503	-5.63
181.723	33.28
181.943	-67.07
182.163	66.05
182.383	43.52
182.602	84.48
182.822	78.33
183.042	70.14
183.262	66.05
183.482	49.66
183.701	8.7
183.921	43.52
184.141	80.38
184.361	39.42
184.58	39.42
184.8	0.51
185.02	2.56
185.239	86.53
185.459	47.62
185.679	51.71
185.898	2.56
186.118	23.04
186.338	-42.5
186.557	39.42
186.777	0.51
186.997	18.94
187.216	-17.92
187.436	31.23
187.655	-24.06
187.875	51.71
188.095	37.38
188.314	23.04
188.534	33.28
188.753	-11.78
188.973	68.09
189.192	121.34
189.412	-24.06
189.631	-9.73
189.851	37.38
190.07	80.38
190.29	-7.68
190.509	78.33
190.729	-7.68
190.948	57.86
191.168	94.72
191.387	-22.02
191.607	0.51
191.826	23.04
192.045	-36.35
192.265	29.18
192.484	53.76
192.704	0.51
192.923	10.75
193.142	94.72
193.362	16.9
193.581	-5.63
193.8	57.86
194.02	72.19
194.239	10.75
194.458	43.52
194.678	6.66
194.897	-1.54
195.116	2.56
195.335	37.38
195.555	25.09
195.774	-32.26
195.993	-7.68
196.212	-26.11
196.432	-26.11
196.651	74.24
196.87	55.81
197.089	4.61
197.308	55.81
197.528	49.66
197.747	-36.35
197.966	-5.63
198.185	25.09
198.404	45.57
198.623	35.33
198.842	43.52
199.062	10.75
199.281	72.19
199.5	20.99
199.719	-13.82
199.938	20.99
200.157	76.29
200.376	-13.82
200.595	94.72
200.814	12.8
201.033	-13.82
201.252	33.28
201.471	16.9
201.69	100.86
201.909	74.24
202.128	-46.59
202.347	49.66
202.566	-7.68
202.785	59.9
203.004	-46.59
203.223	119.29
203.442	119.29
203.661	29.18
203.879	27.14
204.098	-9.73
204.317	-9.73
204.536	96.77
204.755	14.85
204.974	41.47
205.193	23.04
205.411	66.05
205.63	10.75
205.849	31.23
206.068	66.05
206.287	23.04
206.505	45.57
206.724	-1.54
206.943	18.94
207.162	74.24
207.381	35.33
207.599	12.8
207.818	10.75
208.037	18.94
208.255	6.66
208.474	51.71
208.693	35.33
208.911	-32.26
209.13	39.42
209.349	2.56
209.567	-32.26
209.786	68.09
210.005	80.38
210.223	16.9
210.442	37.38
210.661	29.18
210.879	66.05
211.098	-1.54
211.316	31.23
211.535	14.85
211.753	-17.92
211.972	10.75
212.191	18.94
212.409	-3.58
212.628	51.71
212.846	-54.78
213.065	31.23
213.283	72.19
213.502	39.42
213.72	37.38
213.938	57.86
214.157	45.57
214.375	45.57
214.594	35.33
214.812	-32.26
215.031	49.66
215.249	-17.92
215.467	-11.78
215.686	68.09
215.904	18.94
216.122	-9.73
216.341	23.04
216.559	-28.16
216.778	98.81
216.996	6.66
217.214	29.18
217.432	-58.88
217.651	4.61
217.869	-54.78
218.087	-24.06
218.306	-22.02
218.524	27.14
218.742	49.66
218.96	25.09
219.179	23.04
219.397	96.77
219.615	-13.82
219.833	51.71
220.051	39.42
220.27	35.33
220.488	82.43
220.706	35.33
220.924	27.14
221.142	25.09
221.36	96.77
221.578	25.09
221.796	-36.35
222.015	74.24
222.233	31.23
222.451	2.56
222.669	4.61
222.887	31.23
223.105	-46.59
223.323	61.95
223.541	2.56
223.759	49.66
223.977	-3.58
224.195	18.94
224.413	2.56
224.631	51.71
224.849	35.33
225.067	96.77
225.285	-5.63
225.503	125.44
225.721	-30.21
225.939	45.57
226.157	14.85
226.375	109.05
226.592	70.14
226.81	72.19
227.028	12.8
227.246	76.29
227.464	80.38
227.682	35.33
227.9	14.85
228.117	20.99
228.335	68.09
228.553	47.62
228.771	18.94
228.989	-26.11
229.206	33.28
229.424	-1.54
229.642	-5.63
229.86	2.56
230.077	64
230.295	6.66
230.513	74.24
230.731	23.04
230.948	76.29
231.166	53.76
231.384	43.52
231.601	66.05
231.819	47.62
232.037	-42.5
232.254	47.62
232.472	37.38
232.689	68.09
232.907	49.66
233.125	-32.26
233.342	-3.58
233.56	-26.11
233.777	4.61
233.995	47.62
234.213	59.9
234.43	10.75
234.648	55.81
234.865	2.56
235.083	64
235.3	12.8
235.518	-22.02
235.735	10.75
235.953	39.42
236.17	57.86
236.388	6.66
236.605	-28.16
236.822	47.62
237.04	100.86
237.257	33.28
237.475	-15.87
237.692	59.9
237.909	4.61
238.127	31.23
238.344	31.23
238.562	59.9
238.779	-44.54
238.996	64
239.214	-22.02
239.431	35.33
239.648	41.47
239.865	43.52
240.083	41.47
240.3	-15.87
240.517	14.85
240.735	80.38
240.952	-13.82
241.169	113.15
241.386	-13.82
241.603	68.09
241.821	-5.63
242.038	2.56
242.255	51.71
242.472	-17.92
242.689	39.42
242.907	-13.82
243.124	23.04
243.341	-5.63
243.558	10.75
243.775	66.05
243.992	35.33
244.209	18.94
244.426	88.57
244.643	29.18
244.86	-13.82
245.078	-22.02
245.295	14.85
245.512	43.52
245.729	-77.31
245.946	25.09
246.163	43.52
246.38	18.94
246.597	39.42
246.814	20.99
247.031	39.42
247.248	25.09
247.464	82.43
247.681	41.47
247.898	43.52
248.115	-28.16
248.332	29.18
248.549	84.48
248.766	49.66
248.983	100.86
249.2	23.04
249.417	61.95
249.633	47.62
249.85	51.71
250.067	45.57
250.284	-5.63
250.501	59.9
250.717	-36.35
250.934	-3.58
251.151	61.95
251.368	31.23
251.585	43.52
251.801	-5.63
252.018	0.51
252.235	37.38
252.451	72.19
252.668	14.85
252.885	66.05
253.102	0.51
253.318	-17.92
253.535	-32.26
253.752	29.18
253.968	35.33
254.185	25.09
254.401	-38.4
254.618	-83.45
254.835	-7.68
255.051	88.57
255.268	31.23
255.484	8.7
255.701	-5.63
255.917	31.23
256.134	74.24
256.351	-5.63
256.567	-11.78
256.784	45.57
257	-1.54
257.217	64
257.433	-34.3
257.65	113.15
257.866	61.95
258.082	55.81
258.299	59.9
258.515	55.81
258.732	33.28
258.948	51.71
259.165	37.38
259.381	76.29
259.597	35.33
259.814	6.66
260.03	39.42
260.246	-17.92
260.463	0.51
260.679	88.57
260.895	49.66
261.112	20.99
261.328	-5.63
261.544	2.56
261.761	104.96
261.977	31.23
262.193	61.95
262.409	-3.58
262.626	51.71
262.842	41.47
263.058	-13.82
263.274	-9.73
263.49	16.9
263.707	8.7
263.923	2.56
264.139	74.24
264.355	49.66
264.571	143.87
264.787	39.42
265.004	43.52
265.22	33.28
265.436	57.86
265.652	-26.11
265.868	8.7
266.084	33.28
266.3	55.81
266.516	14.85
266.732	41.47
266.948	59.9
267.164	39.42
267.38	43.52
267.596	12.8
267.812	72.19
268.028	-3.58
268.244	76.29
268.46	-34.3
268.676	27.14
268.892	14.85
269.108	33.28
269.324	31.23
269.54	-40.45
269.756	18.94
269.972	53.76
270.188	39.42
270.403	-13.82
270.619	14.85
270.835	55.81
271.051	43.52
271.267	16.9
271.483	8.7
271.698	78.33
271.914	-1.54
272.13	-9.73
272.346	6.66
272.562	33.28
272.777	10.75
272.993	31.23
273.209	96.77
273.425	10.75
273.64	47.62
273.856	82.43
274.072	55.81
274.287	23.04
274.503	37.38
274.719	-11.78
274.934	16.9
275.15	-5.63
275.366	-62.98
275.581	88.57
275.797	66.05
276.012	84.48
276.228	-5.63
276.444	84.48
276.659	92.67
276.875	20.99
277.09	20.99
277.306	-24.06
277.521	64
277.737	-5.63
277.952	59.9
278.168	16.9
278.383	12.8
278.599	18.94
278.814	31.23
279.03	-11.78
279.245	78.33
279.461	43.52
279.676	33.28
279.892	10.75
280.107	8.7
280.322	27.14
280.538	33.28
280.753	41.47
280.969	39.42
281.184	-5.63
281.399	-5.63
281.615	41.47
281.83	76.29
282.045	2.56
282.26	16.9
282.476	61.95
282.691	88.57
282.906	10.75
283.122	61.95
283.337	-32.26
283.552	100.86
283.767	-24.06
283.983	-1.54
284.198	4.61
284.413	51.71
284.628	-30.21
284.843	8.7
285.058	92.67
285.274	86.53
285.489	64
285.704	59.9
285.919	-60.93
286.134	57.86
286.349	37.38
286.564	12.8
286.779	98.81
286.995	-24.06
287.21	-24.06
287.425	76.29
287.64	45.57
287.855	-15.87
288.07	-9.73
288.285	51.71
288.5	72.19
288.715	80.38
288.93	-9.73
289.145	4.61
289.36	27.14
289.575	96.77
289.79	-5.63
290.004	6.66
290.219	43.52
290.434	-34.3
290.649	25.09
290.864	31.23
291.079	111.1
291.294	-56.83
291.509	43.52
291.724	-1.54
291.938	29.18
292.153	72.19
292.368	-34.3
292.583	43.52
292.798	23.04
293.012	10.75
293.227	27.14
293.442	-9.73
293.657	49.66
293.871	76.29
294.086	-54.78
294.301	2.56
294.516	16.9
294.73	51.71
294.945	2.56
295.16	29.18
295.374	121.34
295.589	18.94
295.804	14.85
296.018	29.18
296.233	-15.87
296.447	61.95
296.662	43.52
296.877	37.38
297.091	59.9
297.306	-9.73
297.52	57.86
297.735	88.57
297.949	18.94
298.164	68.09
298.378	-11.78
298.593	37.38
298.807	64
299.022	51.71
299.236	10.75
299.451	49.66
299.665	6.66
299.88	33.28
300.094	74.24
300.309	-24.06
300.523	-1.54
300.737	2.56
300.952	8.7
301.166	113.15
301.381	49.66
301.595	23.04
301.809	39.42
302.024	-9.73
302.238	14.85
302.452	29.18
302.667	-9.73
302.881	41.47
303.095	84.48
303.309	129.53
303.524	-9.73
303.738	-13.82
303.952	61.95
304.166	-48.64
304.381	-24.06
304.595	66.05
304.809	64
305.023	14.85
305.237	-58.88
305.452	55.81
305.666	76.29
305.88	84.48
306.094	35.33
306.308	18.94
306.522	111.1
306.736	-1.54
306.95	61.95
307.164	78.33
307.379	-44.54
307.593	66.05
307.807	41.47
308.021	51.71
308.235	14.85
308.449	72.19
308.663	57.86
308.877	33.28
309.091	49.66
309.305	37.38
309.519	27.14
309.733	59.9
309.947	29.18
310.161	96.77
310.374	98.81
310.588	23.04
310.802	33.28
311.016	-28.16
311.23	2.56
311.444	39.42
311.658	41.47
311.872	64
312.085	51.71
312.299	4.61
312.513	55.81
312.727	37.38
312.941	-13.82
313.154	125.44
313.368	57.86
313.582	61.95
313.796	-17.92
314.009	-60.93
314.223	6.66
314.437	45.57
314.651	16.9
314.864	68.09
315.078	25.09
315.292	29.18
315.505	80.38
315.719	37.38
315.933	14.85
316.146	25.09
316.36	31.23
316.573	-5.63
316.787	25.09
317.001	20.99
317.214	70.14
317.428	2.56
317.641	33.28
317.855	43.52
318.068	-5.63
318.282	43.52
318.495	33.28
318.709	59.9
318.922	27.14
319.136	115.2
319.349	49.66
319.563	37.38
319.776	96.77
319.99	53.76
320.203	80.38
320.417	98.81
320.63	43.52
320.843	39.42
321.057	96.77
321.27	61.95
321.483	55.81
321.697	-15.87
321.91	51.71
322.124	51.71
322.337	39.42
322.55	47.62
322.763	0.51
322.977	100.86
323.19	6.66
323.403	53.76
323.617	18.94
323.83	82.43
324.043	25.09
324.256	47.62
324.469	-65.02
324.683	25.09
324.896	8.7
325.109	76.29
325.322	10.75
325.535	74.24
325.748	10.75
325.962	-13.82
326.175	57.86
326.388	51.71
326.601	59.9
326.814	53.76
327.027	68.09
327.24	88.57
327.453	-9.73
327.666	33.28
327.879	41.47
328.092	6.66
328.305	96.77
328.518	84.48
328.731	16.9
328.944	66.05
329.157	41.47
329.37	-17.92
329.583	25.09
329.796	92.67
330.009	-17.92
330.222	8.7
330.435	29.18
330.648	49.66
330.861	-3.58
331.073	59.9
331.286	18.94
331.499	64
331.712	82.43
331.925	16.9
332.138	-5.63
332.35	82.43
332.563	107.01
332.776	41.47
332.989	39.42
333.202	57.86
333.414	27.14
333.627	37.38
333.84	-26.11
334.053	39.42
334.265	25.09
334.478	72.19
334.691	8.7
334.903	6.66
335.116	100.86
335.329	0.51
335.541	43.52
335.754	82.43
335.966	41.47
336.179	0.51
336.392	14.85
336.604	18.94
336.817	27.14
337.029	64
337.242	-32.26
337.454	82.43
337.667	70.14
337.88	64
338.092	53.76
338.305	43.52
338.517	-24.06
338.729	-1.54
338.942	8.7
339.154	10.75
339.367	25.09
339.579	47.62
339.792	41.47
340.004	37.38
340.217	57.86
340.429	64
340.641	64
340.854	10.75
341.066	33.28
341.278	84.48
341.491	100.86
341.703	64
341.915	43.52
342.128	-24.06
342.34	27.14
342.552	43.52
342.764	41.47
342.977	18.94
343.189	51.71
343.401	20.99
343.613	4.61
343.826	115.2
344.038	-26.11
344.25	51.71
344.462	45.57
344.674	96.77
344.886	-11.78
345.099	4.61
345.311	45.57
345.523	96.77
345.735	31.23
345.947	41.47
346.159	-7.68
346.371	80.38
346.583	64
346.795	94.72
347.007	-9.73
347.219	29.18
347.431	66.05
347.643	100.86
347.855	16.9
348.067	86.53
348.279	-9.73
348.491	49.66
348.703	64
348.915	18.94
349.127	35.33
349.339	59.9
349.551	-13.82
349.763	76.29
349.975	6.66
350.187	25.09
350.399	57.86
350.61	49.66
350.822	100.86
351.034	72.19
351.246	31.23
351.458	59.9
351.669	94.72
351.881	43.52
352.093	6.66
352.305	88.57
352.517	27.14
352.728	57.86
352.94	47.62
353.152	37.38
353.363	57.86
353.575	84.48
353.787	113.15
353.999	66.05
354.21	51.71
354.422	98.81
354.633	2.56
354.845	49.66
355.057	35.33
355.268	70.14
355.48	8.7
355.692	29.18
355.903	92.67
356.115	-13.82
356.326	33.28
356.538	27.14
356.749	33.28
356.961	72.19
357.172	23.04
357.384	0.51
357.595	88.57
357.807	18.94
358.018	51.71
358.23	31.23
358.441	100.86
358.653	59.9
358.864	35.33
359.075	84.48
359.287	-5.63
359.498	43.52
359.709	100.86
359.921	51.71
360.132	109.05
360.344	59.9
360.555	14.85
360.766	51.71
360.977	45.57
361.189	80.38
361.4	-26.11
361.611	18.94
361.823	25.09
362.034	59.9
362.245	14.85
362.456	74.24
362.667	68.09
362.879	107.01
363.09	117.25
363.301	53.76
363.512	47.62
363.723	76.29
363.935	53.76
364.146	78.33
364.357	121.34
364.568	-24.06
364.779	-1.54
364.99	18.94
365.201	-26.11
365.412	51.71
365.623	64
365.834	51.71
366.045	14.85
366.256	45.57
366.467	72.19
366.678	70.14
366.889	39.42
367.1	72.19
367.311	76.29
367.522	39.42
367.733	12.8
367.944	96.77
368.155	109.05
368.366	90.62
368.577	33.28
368.788	33.28
368.999	143.87
369.209	109.05
369.42	10.75
369.631	92.67
369.842	41.47
370.053	2.56
370.264	37.38
370.474	8.7
370.685	-1.54
370.896	45.57
371.107	109.05
371.317	84.48
371.528	98.81
371.739	102.91
371.95	72.19
372.16	127.49
372.371	51.71
372.582	35.33
372.792	35.33
373.003	43.52
373.214	-26.11
373.424	74.24
373.635	47.62
373.846	104.96
374.056	33.28
374.267	49.66
374.477	18.94
374.688	92.67
374.898	59.9
375.109	76.29
375.319	66.05
375.53	98.81
375.74	59.9
375.951	47.62
376.161	-17.92
376.372	47.62
376.582	20.99
376.793	109.05
377.003	0.51
377.214	78.33
377.424	98.81
377.635	80.38
377.845	90.62
378.055	49.66
378.266	-17.92
378.476	35.33
378.686	2.56
378.897	94.72
379.107	59.9
379.317	2.56
379.528	39.42
379.738	92.67
379.948	59.9
380.158	-1.54
380.369	76.29
380.579	107.01
380.789	18.94
380.999	43.52
381.21	109.05
381.42	29.18
381.63	-26.11
381.84	80.38
382.05	31.23
382.261	23.04
382.471	76.29
382.681	88.57
382.891	84.48
383.101	68.09
383.311	35.33
383.521	129.53
383.731	14.85
383.941	57.86
384.151	84.48
384.361	10.75
384.571	88.57
384.781	-1.54
384.991	70.14
385.201	72.19
385.411	92.67
385.621	76.29
385.831	25.09
386.041	51.71
386.251	39.42
386.461	92.67
386.671	43.52
386.881	43.52
387.091	-30.21
387.301	104.96
387.511	68.09
387.72	23.04
387.93	4.61
388.14	53.76
388.35	35.33
388.56	43.52
388.769	98.81
388.979	35.33
389.189	45.57
389.399	51.71
389.609	84.48
389.818	86.53
390.028	-19.97
390.238	25.09
390.447	125.44
390.657	59.9
390.867	61.95
391.076	55.81
391.286	84.48
391.496	59.9
391.705	76.29
391.915	43.52
392.125	115.2
392.334	35.33
392.544	72.19
392.753	92.67
392.963	-30.21
393.172	92.67
393.382	131.58
393.591	137.73
393.801	12.8
394.01	68.09
394.22	104.96
394.429	125.44
394.639	100.86
394.848	150.01
395.058	82.43
395.267	61.95
395.477	92.67
395.686	129.53
395.895	150.01
396.105	104.96
396.314	33.28
396.524	18.94
396.733	47.62
396.942	166.4
397.152	139.77
397.361	76.29
397.57	98.81
397.78	45.57
397.989	41.47
398.198	162.3
398.407	102.91
398.617	80.38
398.826	129.53
399.035	147.97
399.244	88.57
399.453	43.52
399.663	88.57
399.872	107.01
400.081	82.43
400.29	117.25
400.499	37.38
400.708	178.69
400.917	100.86
401.127	78.33
401.336	231.93
401.545	201.21
401.754	150.01
401.963	158.21
402.172	150.01
402.381	145.92
402.59	115.2
402.799	92.67
403.008	168.45
403.217	57.86
403.426	82.43
403.635	147.97
403.844	139.77
404.053	90.62
404.262	129.53
404.471	135.68
404.68	94.72
404.888	207.36
405.097	119.29
405.306	90.62
405.515	174.59
405.724	240.12
405.933	197.12
406.142	170.49
406.35	127.49
406.559	193.02
406.768	150.01
406.977	147.97
407.185	115.2
407.394	174.59
407.603	164.35
407.812	160.25
408.02	276.99
408.229	229.88
408.438	254.46
408.646	242.17
408.855	227.84
409.064	299.52
409.272	272.89
409.481	299.52
409.69	299.52
409.898	330.23
410.107	305.66
410.315	381.43
410.524	317.95
410.733	375.29
410.941	442.87
411.15	365.05
411.358	354.81
411.567	395.77
411.775	420.35
411.984	475.64
412.192	432.63
412.401	346.62
412.609	457.21
412.818	489.98
413.026	426.49
413.234	606.71
413.443	528.89
413.651	545.27
413.86	621.05
414.068	541.18
414.276	616.95
414.485	522.74
414.693	641.53
414.901	694.77
415.11	680.44
415.318	698.87
415.526	711.16
415.734	729.59
415.943	700.92
416.151	819.7
416.359	874.99
416.567	930.29
416.776	932.34
416.984	944.63
417.192	1057.26
417.4	936.43
417.608	1026.54
417.817	1057.26
418.025	1081.84
418.233	1198.57
418.441	1178.09
418.649	1188.33
418.857	1268.2
419.065	1223.15
419.273	1341.93
419.481	1378.79
419.689	1524.2
419.897	1528.3
420.105	1452.52
420.313	1585.64
420.521	1524.2
420.729	1739.24
420.937	1602.02
421.145	1751.53
421.353	1841.64
421.561	1984.99
421.769	1964.51
421.977	2089.44
422.185	1925.6
422.393	2208.22
422.601	2279.9
422.809	2245.09
423.017	2343.39
423.224	2501.08
423.432	2605.53
423.64	2585.05
423.848	2726.36
424.056	2689.49
424.263	2830.8
424.471	2871.76
424.679	2802.13
424.887	3156.43
425.094	3148.24
425.302	3264.97
425.51	3367.37
425.718	3426.76
425.925	3506.63
426.133	3443.15
426.341	3652.04
426.548	3963.33
426.756	3977.67
426.964	4008.39
427.171	4217.28
427.379	4344.25
427.586	4454.84
427.794	4610.49
428.001	4698.55
428.209	5024.18
428.417	4917.68
428.624	5214.64
428.832	5200.3
429.039	5194.16
429.247	5163.44
429.454	5634.47
429.662	6062.5
429.869	5585.32
430.076	6099.36
430.284	5933.48
430.491	5982.63
430.699	6705.56
430.906	6371.74
431.114	6572.44
431.321	6877.59
431.528	6904.21
431.736	7448.97
431.943	7799.18
432.15	7539.08
432.358	7690.63
432.565	8065.41
432.772	8032.65
432.979	8495.49
433.187	8585.6
433.394	8579.45
433.601	9167.22
433.808	9251.19
434.016	9304.43
434.223	9515.37
434.43	10187.11
434.637	10004.84
434.844	10479.97
435.052	10707.29
435.259	10639.71
435.466	10805.6
435.673	10463.58
435.88	11508.05
436.087	11860.3
436.294	12085.58
436.501	11583.82
436.708	12132.68
436.915	12386.63
437.122	12962.11
437.329	12699.97
437.537	13179.19
437.743	13377.84
437.95	13408.56
438.157	14082.35
438.364	14520.61
438.571	14450.98
438.778	14792.99
438.985	15907.09
439.192	15321.37
439.399	15683.86
439.606	15589.65
439.813	16382.21
440.02	17578.23
440.227	17088.76
440.433	17101.05
440.64	17340.66
440.847	17377.53
441.054	17805.55
441.261	18866.4
441.467	18743.52
441.674	19056.86
441.881	19609.81
442.088	19749.07
442.294	19656.92
442.501	20076.75
442.708	20523.21
442.914	21530.81
443.121	22141.1
443.328	21340.35
443.534	23074.98
443.741	22300.84
443.948	22378.67
444.154	23709.85
444.361	23521.43
444.568	23597.21
444.774	23867.54
444.981	24254.61
445.187	24977.54
445.394	25804.92
445.6	25208.96
445.807	27996.24
446.013	26798.18
446.22	27449.44
446.426	28553.29
446.633	28997.7
446.839	29884.47
447.046	28536.91
447.252	29976.63
447.459	30126.13
447.665	29980.73
447.871	31305.76
448.078	32264.21
448.284	31227.94
448.491	31776.8
448.697	32733.2
448.903	33646.59
449.11	33718.27
449.316	33069.06
449.522	33982.46
449.728	34729.97
449.935	34899.95
450.141	34652.14
450.347	35610.59
450.553	34729.97
450.76	35303.4
450.966	36274.13
451.172	36155.35
451.378	36345.81
451.584	36261.85
451.791	36782.03
451.997	37083.08
452.203	37408.71
452.409	37412.81
452.615	37017.55
452.821	36026.33
453.027	35563.49
453.233	37656.51
453.44	35962.84
453.646	36444.12
453.852	36251.61
454.058	37058.51
454.264	35866.59
454.47	36657.1
454.676	35764.19
454.882	37119.95
455.088	33935.35
455.294	34478.07
455.5	34338.8
455.705	35123.18
455.911	33593.34
456.117	33161.22
456.323	32462.86
456.529	31109.16
456.735	32067.61
456.941	31670.3
457.147	31318.05
457.352	29907
457.558	29626.43
457.764	29759.55
457.97	28964.93
458.176	28614.73
458.381	28467.28
458.587	27328.61
458.793	26980.45
458.999	25677.94
459.204	27330.65
459.41	26349.68
459.616	25110.66
459.821	25229.44
460.027	24692.87
460.233	24500.36
460.438	23244.96
460.644	23638.17
460.85	22376.62
461.055	22341.8
461.261	22003.89
461.466	20404.42
461.672	19955.92
461.878	21070.01
462.083	19964.11
462.289	19353.82
462.494	19259.61
462.7	18378.98
462.905	18026.73
463.111	18383.08
463.316	18477.29
463.522	18127.08
463.727	18401.51
463.932	18239.72
464.138	17811.7
464.343	18315.5
464.549	17619.19
464.754	18096.36
464.959	17883.38
465.165	17846.51
465.37	17162.49
465.575	16535.81
465.781	17285.37
465.986	17551.6
466.191	16691.46
466.397	16206.09
466.602	15757.58
466.807	16144.65
467.012	16210.18
467.218	16216.33
467.423	16083.21
467.628	16150.79
467.833	16597.25
468.038	16263.43
468.244	15653.14
