Data from USB4F104151__84__11-37-47-847.txt Node

Date: Fri Mar 14 11:37:47 EDT 2025
User: louis
Spectrometer: USB4F10415
Trigger mode: 4
Integration Time (sec): 2.000000E-2
Scans to average: 1
Electric dark correction enabled: true
Nonlinearity correction enabled: false
Boxcar width: 0
XAxis mode: Wavelengths
Number of Pixels in Spectrum: 3648
>>>>>Begin Spectral Data<<<<<
178.204	-91.13
178.424	-91.13
178.644	-91.13
178.864	-41.98
179.084	-46.08
179.304	9.22
179.524	5.12
179.744	58.37
179.964	46.08
180.184	-48.13
180.404	9.22
180.624	7.17
180.844	-7.17
181.064	-62.46
181.283	39.94
181.503	-48.13
181.723	-9.22
181.943	-17.41
182.163	21.5
182.383	46.08
182.602	-9.22
182.822	37.89
183.042	74.75
183.262	-39.94
183.482	64.51
183.701	33.79
183.921	37.89
184.141	35.84
184.361	25.6
184.58	78.85
184.8	50.18
185.02	19.46
185.239	35.84
185.459	-17.41
185.679	44.03
185.898	41.98
186.118	56.32
186.338	21.5
186.557	-1.02
186.777	50.18
186.997	21.5
187.216	58.37
187.436	58.37
187.655	46.08
187.875	87.04
188.095	29.7
188.314	87.04
188.534	5.12
188.753	23.55
188.973	-25.6
189.192	87.04
189.412	39.94
189.631	23.55
189.851	-31.74
190.07	56.32
190.29	-41.98
190.509	62.46
190.729	21.5
190.948	134.14
191.168	121.85
191.387	15.36
191.607	91.13
191.826	33.79
192.045	7.17
192.265	87.04
192.484	15.36
192.704	15.36
192.923	25.6
193.142	119.81
193.362	7.17
193.581	54.27
193.8	29.7
194.02	-1.02
194.239	9.22
194.458	13.31
194.678	23.55
194.897	44.03
195.116	17.41
195.335	-31.74
195.555	9.22
195.774	41.98
195.993	84.99
196.212	60.42
196.432	74.75
196.651	11.26
196.87	-56.32
197.089	68.61
197.308	31.74
197.528	-54.27
197.747	58.37
197.966	41.98
198.185	-64.51
198.404	-37.89
198.623	48.13
198.842	15.36
199.062	70.65
199.281	37.89
199.5	37.89
199.719	29.7
199.938	25.6
200.157	56.32
200.376	68.61
200.595	37.89
200.814	7.17
201.033	15.36
201.252	52.22
201.471	23.55
201.69	80.89
201.909	72.7
202.128	64.51
202.347	72.7
202.566	46.08
202.785	21.5
203.004	29.7
203.223	3.07
203.442	76.8
203.661	31.74
203.879	13.31
204.098	-15.36
204.317	-56.32
204.536	64.51
204.755	41.98
204.974	107.52
205.193	48.13
205.411	101.37
205.63	17.41
205.849	9.22
206.068	-80.89
206.287	15.36
206.505	33.79
206.724	7.17
206.943	3.07
207.162	56.32
207.381	48.13
207.599	1.02
207.818	93.18
208.037	39.94
208.255	68.61
208.474	11.26
208.693	7.17
208.911	11.26
209.13	15.36
209.349	25.6
209.567	91.13
209.786	91.13
210.005	31.74
210.223	56.32
210.442	11.26
210.661	46.08
210.879	62.46
211.098	15.36
211.316	35.84
211.535	46.08
211.753	3.07
211.972	25.6
212.191	50.18
212.409	35.84
212.628	21.5
212.846	25.6
213.065	17.41
213.283	64.51
213.502	33.79
213.72	17.41
213.938	-17.41
214.157	39.94
214.375	68.61
214.594	9.22
214.812	41.98
215.031	37.89
215.249	52.22
215.467	21.5
215.686	50.18
215.904	9.22
216.122	35.84
216.341	17.41
216.559	107.52
216.778	82.94
216.996	3.07
217.214	54.27
217.432	21.5
217.651	-9.22
217.869	-31.74
218.087	5.12
218.306	-37.89
218.524	66.56
218.742	-7.17
218.96	91.13
219.179	-7.17
219.397	-19.46
219.615	-11.26
219.833	99.33
220.051	64.51
220.27	13.31
220.488	11.26
220.706	31.74
220.924	70.65
221.142	-5.12
221.36	37.89
221.578	9.22
221.796	-17.41
222.015	109.57
222.233	5.12
222.451	60.42
222.669	-21.5
222.887	70.65
223.105	-33.79
223.323	50.18
223.541	52.22
223.759	39.94
223.977	-5.12
224.195	64.51
224.413	1.02
224.631	31.74
224.849	50.18
225.067	39.94
225.285	-1.02
225.503	54.27
225.721	-50.18
225.939	25.6
226.157	33.79
226.375	31.74
226.592	15.36
226.81	13.31
227.028	39.94
227.246	19.46
227.464	33.79
227.682	11.26
227.9	15.36
228.117	27.65
228.335	-19.46
228.553	29.7
228.771	-17.41
228.989	44.03
229.206	54.27
229.424	-21.5
229.642	-9.22
229.86	9.22
230.077	21.5
230.295	21.5
230.513	70.65
230.731	-23.55
230.948	21.5
231.166	76.8
231.384	1.02
231.601	7.17
231.819	48.13
232.037	9.22
232.254	33.79
232.472	80.89
232.689	33.79
232.907	15.36
233.125	-11.26
233.342	46.08
233.56	-7.17
233.777	7.17
233.995	7.17
234.213	64.51
234.43	-33.79
234.648	15.36
234.865	9.22
235.083	44.03
235.3	9.22
235.518	15.36
235.735	60.42
235.953	41.98
236.17	87.04
236.388	58.37
236.605	89.09
236.822	80.89
237.04	52.22
237.257	56.32
237.475	19.46
237.692	89.09
237.909	105.47
238.127	25.6
238.344	-1.02
238.562	-9.22
238.779	-27.65
238.996	64.51
239.214	15.36
239.431	-5.12
239.648	-44.03
239.865	33.79
240.083	-50.18
240.3	-19.46
240.517	-31.74
240.735	37.89
240.952	-39.94
241.169	76.8
241.386	72.7
241.603	91.13
241.821	-7.17
242.038	-7.17
242.255	33.79
242.472	-35.84
242.689	11.26
242.907	25.6
243.124	58.37
243.341	-31.74
243.558	25.6
243.775	31.74
243.992	72.7
244.209	15.36
244.426	19.46
244.643	66.56
244.86	-44.03
245.078	-7.17
245.295	111.61
245.512	-7.17
245.729	17.41
245.946	60.42
246.163	27.65
246.38	44.03
246.597	21.5
246.814	80.89
247.031	66.56
247.248	62.46
247.464	27.65
247.681	-44.03
247.898	-9.22
248.115	-1.02
248.332	-5.12
248.549	25.6
248.766	113.66
248.983	15.36
249.2	39.94
249.417	44.03
249.633	-5.12
249.85	39.94
250.067	25.6
250.284	31.74
250.501	48.13
250.717	50.18
250.934	-39.94
251.151	33.79
251.368	9.22
251.585	41.98
251.801	50.18
252.018	7.17
252.235	48.13
252.451	25.6
252.668	-17.41
252.885	46.08
253.102	-58.37
253.318	56.32
253.535	62.46
253.752	21.5
253.968	60.42
254.185	21.5
254.401	37.89
254.618	37.89
254.835	37.89
255.051	89.09
255.268	9.22
255.484	68.61
255.701	-44.03
255.917	76.8
256.134	15.36
256.351	1.02
256.567	82.94
256.784	21.5
257	-33.79
257.217	121.85
257.433	9.22
257.65	5.12
257.866	54.27
258.082	-23.55
258.299	-31.74
258.515	-29.7
258.732	48.13
258.948	9.22
259.165	66.56
259.381	7.17
259.597	21.5
259.814	-13.31
260.03	23.55
260.246	62.46
260.463	21.5
260.679	44.03
260.895	50.18
261.112	74.75
261.328	52.22
261.544	-7.17
261.761	23.55
261.977	-1.02
262.193	70.65
262.409	46.08
262.626	62.46
262.842	113.66
263.058	35.84
263.274	29.7
263.49	56.32
263.707	93.18
263.923	-7.17
264.139	87.04
264.355	70.65
264.571	89.09
264.787	7.17
265.004	52.22
265.22	93.18
265.436	-11.26
265.652	-17.41
265.868	33.79
266.084	-3.07
266.3	58.37
266.516	-1.02
266.732	66.56
266.948	95.23
267.164	39.94
267.38	-13.31
267.596	78.85
267.812	62.46
268.028	29.7
268.244	39.94
268.46	93.18
268.676	99.33
268.892	-19.46
269.108	37.89
269.324	-1.02
269.54	1.02
269.756	-1.02
269.972	11.26
270.188	111.61
270.403	84.99
270.619	-19.46
270.835	-7.17
271.051	33.79
271.267	27.65
271.483	105.47
271.698	21.5
271.914	-19.46
272.13	56.32
272.346	39.94
272.562	37.89
272.777	52.22
272.993	-48.13
273.209	13.31
273.425	-15.36
273.64	11.26
273.856	-19.46
274.072	21.5
274.287	21.5
274.503	25.6
274.719	33.79
274.934	37.89
275.15	23.55
275.366	74.75
275.581	29.7
275.797	15.36
276.012	70.65
276.228	39.94
276.444	35.84
276.659	29.7
276.875	52.22
277.09	68.61
277.306	95.23
277.521	19.46
277.737	15.36
277.952	78.85
278.168	23.55
278.383	-9.22
278.599	-1.02
278.814	-27.65
279.03	91.13
279.245	29.7
279.461	25.6
279.676	84.99
279.892	74.75
280.107	41.98
280.322	-23.55
280.538	56.32
280.753	68.61
280.969	-60.42
281.184	21.5
281.399	74.75
281.615	-3.07
281.83	3.07
282.045	9.22
282.26	41.98
282.476	-13.31
282.691	74.75
282.906	11.26
283.122	-5.12
283.337	-1.02
283.552	27.65
283.767	21.5
283.983	66.56
284.198	105.47
284.413	41.98
284.628	29.7
284.843	52.22
285.058	15.36
285.274	68.61
285.489	37.89
285.704	56.32
285.919	130.05
286.134	78.85
286.349	91.13
286.564	25.6
286.779	103.42
286.995	64.51
287.21	27.65
287.425	105.47
287.64	25.6
287.855	5.12
288.07	17.41
288.285	35.84
288.5	80.89
288.715	48.13
288.93	39.94
289.145	-7.17
289.36	56.32
289.575	39.94
289.79	70.65
290.004	-17.41
290.219	93.18
290.434	68.61
290.649	82.94
290.864	-13.31
291.079	56.32
291.294	-46.08
291.509	-3.07
291.724	54.27
291.938	46.08
292.153	44.03
292.368	89.09
292.583	66.56
292.798	31.74
293.012	33.79
293.227	3.07
293.442	39.94
293.657	113.66
293.871	105.47
294.086	-15.36
294.301	52.22
294.516	35.84
294.73	-39.94
294.945	23.55
295.16	-21.5
295.374	41.98
295.589	39.94
295.804	70.65
296.018	82.94
296.233	58.37
296.447	97.28
296.662	31.74
296.877	105.47
297.091	117.76
297.306	21.5
297.52	-9.22
297.735	80.89
297.949	74.75
298.164	37.89
298.378	11.26
298.593	29.7
298.807	56.32
299.022	64.51
299.236	23.55
299.451	33.79
299.665	-17.41
299.88	80.89
300.094	39.94
300.309	21.5
300.523	50.18
300.737	97.28
300.952	82.94
301.166	9.22
301.381	-3.07
301.595	105.47
301.809	-15.36
302.024	58.37
302.238	21.5
302.452	58.37
302.667	35.84
302.881	37.89
303.095	68.61
303.309	-17.41
303.524	25.6
303.738	-13.31
303.952	-9.22
304.166	-15.36
304.381	62.46
304.595	70.65
304.809	-15.36
305.023	-25.6
305.237	23.55
305.452	84.99
305.666	17.41
305.88	105.47
306.094	5.12
306.308	21.5
306.522	91.13
306.736	-25.6
306.95	33.79
307.164	9.22
307.379	27.65
307.593	78.85
307.807	48.13
308.021	31.74
308.235	-13.31
308.449	54.27
308.663	35.84
308.877	87.04
309.091	25.6
309.305	46.08
309.519	-17.41
309.733	64.51
309.947	-68.61
310.161	11.26
310.374	35.84
310.588	41.98
310.802	23.55
311.016	50.18
311.23	23.55
311.444	11.26
311.658	60.42
311.872	60.42
312.085	80.89
312.299	68.61
312.513	54.27
312.727	15.36
312.941	-41.98
313.154	50.18
313.368	62.46
313.582	70.65
313.796	-9.22
314.009	115.71
314.223	-17.41
314.437	-25.6
314.651	107.52
314.864	21.5
315.078	56.32
315.292	50.18
315.505	37.89
315.719	21.5
315.933	84.99
316.146	-11.26
316.36	17.41
316.573	121.85
316.787	87.04
317.001	3.07
317.214	41.98
317.428	46.08
317.641	66.56
317.855	60.42
318.068	82.94
318.282	9.22
318.495	35.84
318.709	33.79
318.922	50.18
319.136	17.41
319.349	121.85
319.563	15.36
319.776	48.13
319.99	46.08
320.203	50.18
320.417	52.22
320.63	33.79
320.843	58.37
321.057	76.8
321.27	21.5
321.483	80.89
321.697	25.6
321.91	80.89
322.124	78.85
322.337	80.89
322.55	41.98
322.763	74.75
322.977	72.7
323.19	39.94
323.403	25.6
323.617	19.46
323.83	-5.12
324.043	7.17
324.256	56.32
324.469	66.56
324.683	35.84
324.896	7.17
325.109	46.08
325.322	23.55
325.535	35.84
325.748	50.18
325.962	64.51
326.175	27.65
326.388	87.04
326.601	-15.36
326.814	41.98
327.027	62.46
327.24	78.85
327.453	-48.13
327.666	68.61
327.879	72.7
328.092	46.08
328.305	56.32
328.518	95.23
328.731	66.56
328.944	70.65
329.157	21.5
329.37	68.61
329.583	66.56
329.796	97.28
330.009	-5.12
330.222	31.74
330.435	107.52
330.648	62.46
330.861	33.79
331.073	-5.12
331.286	78.85
331.499	-31.74
331.712	11.26
331.925	70.65
332.138	7.17
332.35	33.79
332.563	9.22
332.776	50.18
332.989	-3.07
333.202	17.41
333.414	-41.98
333.627	35.84
333.84	-25.6
334.053	5.12
334.265	33.79
334.478	46.08
334.691	99.33
334.903	13.31
335.116	13.31
335.329	89.09
335.541	44.03
335.754	9.22
335.966	13.31
336.179	13.31
336.392	89.09
336.604	15.36
336.817	179.2
337.029	50.18
337.242	113.66
337.454	107.52
337.667	41.98
337.88	111.61
338.092	87.04
338.305	84.99
338.517	23.55
338.729	62.46
338.942	119.81
339.154	31.74
339.367	56.32
339.579	95.23
339.792	7.17
340.004	-9.22
340.217	41.98
340.429	76.8
340.641	-11.26
340.854	15.36
341.066	70.65
341.278	78.85
341.491	66.56
341.703	58.37
341.915	19.46
342.128	58.37
342.34	60.42
342.552	44.03
342.764	-17.41
342.977	48.13
343.189	58.37
343.401	123.9
343.613	35.84
343.826	95.23
344.038	60.42
344.25	1.02
344.462	31.74
344.674	54.27
344.886	44.03
345.099	46.08
345.311	50.18
345.523	21.5
345.735	50.18
345.947	21.5
346.159	80.89
346.371	35.84
346.583	66.56
346.795	56.32
347.007	19.46
347.219	-5.12
347.431	41.98
347.643	-13.31
347.855	1.02
348.067	58.37
348.279	70.65
348.491	9.22
348.703	70.65
348.915	41.98
349.127	-17.41
349.339	62.46
349.551	48.13
349.763	89.09
349.975	125.95
350.187	33.79
350.399	15.36
350.61	80.89
350.822	21.5
351.034	60.42
351.246	11.26
351.458	9.22
351.669	84.99
351.881	27.65
352.093	23.55
352.305	89.09
352.517	39.94
352.728	39.94
352.94	41.98
353.152	119.81
353.363	23.55
353.575	60.42
353.787	-27.65
353.999	13.31
354.21	132.09
354.422	15.36
354.633	29.7
354.845	58.37
355.057	54.27
355.268	-33.79
355.48	76.8
355.692	31.74
355.903	58.37
356.115	3.07
356.326	37.89
356.538	-1.02
356.749	54.27
356.961	68.61
357.172	50.18
357.384	41.98
357.595	105.47
357.807	39.94
358.018	7.17
358.23	7.17
358.441	80.89
358.653	19.46
358.864	54.27
359.075	-5.12
359.287	21.5
359.498	105.47
359.709	68.61
359.921	70.65
360.132	62.46
360.344	109.57
360.555	27.65
360.766	74.75
360.977	1.02
361.189	9.22
361.4	93.18
361.611	95.23
361.823	99.33
362.034	-23.55
362.245	35.84
362.456	-17.41
362.667	107.52
362.879	56.32
363.09	27.65
363.301	31.74
363.512	52.22
363.723	113.66
363.935	105.47
364.146	82.94
364.357	3.07
364.568	29.7
364.779	33.79
364.99	50.18
365.201	-11.26
365.412	50.18
365.623	46.08
365.834	58.37
366.045	-23.55
366.256	74.75
366.467	46.08
366.678	50.18
366.889	78.85
367.1	13.31
367.311	37.89
367.522	58.37
367.733	91.13
367.944	101.37
368.155	72.7
368.366	17.41
368.577	21.5
368.788	37.89
368.999	113.66
369.209	74.75
369.42	87.04
369.631	78.85
369.842	62.46
370.053	62.46
370.264	23.55
370.474	58.37
370.685	93.18
370.896	123.9
371.107	23.55
371.317	62.46
371.528	66.56
371.739	107.52
371.95	33.79
372.16	78.85
372.371	76.8
372.582	27.65
372.792	82.94
373.003	41.98
373.214	33.79
373.424	68.61
373.635	17.41
373.846	82.94
374.056	121.85
374.267	44.03
374.477	91.13
374.688	91.13
374.898	35.84
375.109	76.8
375.319	62.46
375.53	52.22
375.74	5.12
375.951	54.27
376.161	-3.07
376.372	105.47
376.582	64.51
376.793	142.33
377.003	9.22
377.214	52.22
377.424	64.51
377.635	17.41
377.845	99.33
378.055	93.18
378.266	31.74
378.476	64.51
378.686	37.89
378.897	82.94
379.107	41.98
379.317	66.56
379.528	78.85
379.738	80.89
379.948	33.79
380.158	91.13
380.369	60.42
380.579	58.37
380.789	-60.42
380.999	97.28
381.21	66.56
381.42	68.61
381.63	111.61
381.84	82.94
382.05	21.5
382.261	82.94
382.471	140.29
382.681	89.09
382.891	105.47
383.101	56.32
383.311	33.79
383.521	52.22
383.731	66.56
383.941	70.65
384.151	125.95
384.361	48.13
384.571	58.37
384.781	68.61
384.991	80.89
385.201	171.01
385.411	125.95
385.621	-19.46
385.831	87.04
386.041	46.08
386.251	41.98
386.461	89.09
386.671	93.18
386.881	48.13
387.091	62.46
387.301	87.04
387.511	107.52
387.72	117.76
387.93	84.99
388.14	62.46
388.35	39.94
388.56	142.33
388.769	50.18
388.979	111.61
389.189	50.18
389.399	41.98
389.609	82.94
389.818	105.47
390.028	74.75
390.238	-11.26
390.447	52.22
390.657	33.79
390.867	17.41
391.076	13.31
391.286	84.99
391.496	52.22
391.705	82.94
391.915	117.76
392.125	74.75
392.334	29.7
392.544	78.85
392.753	76.8
392.963	19.46
393.172	142.33
393.382	58.37
393.591	105.47
393.801	82.94
394.01	21.5
394.22	76.8
394.429	99.33
394.639	87.04
394.848	56.32
395.058	142.33
395.267	175.1
395.477	115.71
395.686	99.33
395.895	164.86
396.105	146.43
396.314	111.61
396.524	134.14
396.733	60.42
396.942	95.23
397.152	146.43
397.361	173.05
397.57	117.76
397.78	97.28
397.989	99.33
398.198	211.96
398.407	156.67
398.617	58.37
398.826	50.18
399.035	132.09
399.244	54.27
399.453	123.9
399.663	89.09
399.872	138.24
400.081	148.48
400.29	142.33
400.499	99.33
400.708	107.52
400.917	150.53
401.127	115.71
401.336	56.32
401.545	140.29
401.754	27.65
401.963	111.61
402.172	66.56
402.381	144.38
402.59	64.51
402.799	144.38
403.008	148.48
403.217	175.1
403.426	158.72
403.635	74.75
403.844	189.44
404.053	175.1
404.262	130.05
404.471	171.01
404.68	121.85
404.888	166.91
405.097	211.96
405.306	205.82
405.515	156.67
405.724	197.63
405.933	179.2
406.142	109.57
406.35	234.49
406.559	175.1
406.768	246.78
406.977	285.69
407.185	242.68
407.394	205.82
407.603	205.82
407.812	209.92
408.02	224.25
408.229	308.22
408.438	304.12
408.646	218.11
408.855	279.55
409.064	316.41
409.272	328.7
409.481	287.74
409.69	343.03
409.898	330.75
410.107	277.5
410.315	402.43
410.524	392.19
410.733	373.75
410.941	365.56
411.15	453.63
411.358	449.53
411.567	443.39
411.775	394.23
411.984	439.29
412.192	500.73
412.401	480.25
412.609	474.1
412.818	529.4
413.026	523.26
413.234	502.78
413.443	566.26
413.651	617.46
413.86	648.18
414.068	678.9
414.276	670.71
414.485	666.61
414.693	689.14
414.901	807.92
415.11	748.53
415.318	771.06
415.526	842.74
415.734	875.51
415.943	984.05
416.151	916.47
416.359	922.61
416.567	947.19
416.776	986.1
416.984	1156.08
417.192	1031.15
417.4	1051.63
417.608	1090.54
417.817	1199.09
418.025	1174.51
418.233	1311.72
418.441	1274.86
418.649	1352.68
418.857	1405.93
419.065	1446.89
419.273	1448.94
419.481	1549.29
419.689	1547.24
419.897	1696.74
420.105	1690.6
420.313	1760.23
420.521	1680.36
420.729	1881.06
420.937	1909.73
421.145	2018.27
421.353	2130.91
421.561	2221.02
421.769	2200.54
421.977	2300.89
422.185	2315.23
422.393	2376.67
422.601	2501.59
422.809	2560.98
423.017	2526.17
423.224	2667.48
423.432	2765.78
423.64	2741.21
423.848	3036.11
424.056	2946
424.263	3191.76
424.471	3060.69
424.679	3251.15
424.887	3443.66
425.094	3580.87
425.302	3707.85
425.51	3711.94
425.718	3707.85
425.925	3849.16
426.133	3969.99
426.341	4207.55
426.548	4293.57
426.756	4420.54
426.964	4506.56
427.171	4772.79
427.379	4983.73
427.586	4899.77
427.794	5180.34
428.001	5399.47
428.209	5659.56
428.417	5389.23
428.624	5845.93
428.832	5843.88
429.039	5962.66
429.247	5985.19
429.454	6372.25
429.662	6583.2
429.869	6448.03
430.076	6845.34
430.284	6644.63
430.491	6921.11
430.699	7185.3
430.906	7361.42
431.114	7371.66
431.321	7857.03
431.528	7848.84
431.736	8133.51
431.943	8563.58
432.15	8524.67
432.358	8420.22
432.565	9057.14
432.772	9208.69
432.979	9550.7
433.187	9616.24
433.394	9704.3
433.601	10281.83
433.808	10527.58
434.016	10470.24
434.223	10679.13
434.43	11357.01
434.637	10953.56
434.844	11840.33
435.052	12010.31
435.259	11862.86
435.466	12426.05
435.673	12045.13
435.88	12698.43
436.087	13304.63
436.294	13335.35
436.501	13075.26
436.708	13470.51
436.915	13896.49
437.122	14523.17
437.329	14410.53
437.537	15047.45
437.743	15291.16
437.95	15248.15
438.157	15801.1
438.364	16372.49
438.571	16225.03
438.778	16364.29
438.985	17998.57
439.192	17197.82
439.399	17822.45
439.606	17625.84
439.813	18596.58
440.02	19684.05
440.227	19426.01
440.433	19004.13
440.64	19610.32
440.847	19641.04
441.054	20136.65
441.261	21430.97
441.467	21199.55
441.674	21711.54
441.881	22119.09
442.088	22205.1
442.294	22018.74
442.501	22842.02
442.708	23231.13
442.914	24275.6
443.121	25121.41
443.328	24597.13
443.534	26395.25
443.741	25522.81
443.948	25238.14
444.154	26894.95
444.361	26985.06
444.568	26989.16
444.774	27179.62
444.981	27601.5
445.187	28277.33
445.394	29293.12
445.6	29119.04
445.807	31988.25
446.013	30394.93
446.22	31234.6
446.426	32328.21
446.633	32582.16
446.839	33585.66
447.046	32080.41
447.252	33958.39
447.459	34066.94
447.665	34238.97
447.871	35514.85
448.078	37304.77
448.284	35512.8
448.491	36694.48
448.697	37939.65
448.903	38302.14
449.11	38609.33
449.316	37890.49
449.522	38580.66
449.728	39768.48
449.935	40038.81
450.141	39723.43
450.347	40800.66
450.553	39864.74
450.76	40280.47
450.966	41496.97
451.172	41052.56
451.378	41912.7
451.584	41326.99
451.791	42539.38
451.997	41789.83
452.203	42789.24
452.409	43141.49
452.615	42746.23
452.821	41230.73
453.027	41027.98
453.233	43030.9
453.44	41394.57
453.646	41656.71
453.852	42025.34
454.058	42928.5
454.264	41126.28
454.47	42252.67
454.676	41347.47
454.882	42396.03
455.088	38947.25
455.294	39381.42
455.5	40221.08
455.705	40511.89
455.911	38898.09
456.117	38076.86
456.323	37519.81
456.529	35914.2
456.735	37560.77
456.941	36311.51
457.147	35867.1
457.352	34812.4
457.558	33915.39
457.764	34671.09
457.97	34081.27
458.176	32995.85
458.381	33155.59
458.587	31445.54
458.793	31375.91
458.999	29807.16
459.204	31998.49
459.41	31031.85
459.616	28879.43
459.821	28840.52
460.027	29155.91
460.233	28514.89
460.438	27357.79
460.644	27167.33
460.85	25940.6
461.055	25870.97
461.261	25506.43
461.466	23648.92
461.672	23272.09
461.878	24554.12
462.083	23034.53
462.289	22819.49
462.494	22426.28
462.7	21512.89
462.905	20867.78
463.111	21430.97
463.316	21584.57
463.522	21357.24
463.727	21310.14
463.932	21027.52
464.138	20789.95
464.343	20830.91
464.549	20273.87
464.754	20835.01
464.959	21060.29
465.165	20685.51
465.37	20103.89
465.575	19399.38
465.781	20234.96
465.986	20134.6
466.191	19528.41
466.397	18881.25
466.602	18270.95
466.807	19053.28
467.012	19213.02
467.218	18598.63
467.423	18696.93
467.628	18975.45
467.833	19475.16
