Data from USB4F104151__68__11-37-31-240.txt Node

Date: Fri Mar 14 11:37:31 EDT 2025
User: louis
Spectrometer: USB4F10415
Trigger mode: 4
Integration Time (sec): 2.000000E-2
Scans to average: 1
Electric dark correction enabled: true
Nonlinearity correction enabled: false
Boxcar width: 0
XAxis mode: Wavelengths
Number of Pixels in Spectrum: 3648
>>>>>Begin Spectral Data<<<<<
178.204	-38.74
178.424	-38.74
178.644	-38.74
178.864	-73.56
179.084	-89.94
179.304	-30.55
179.524	-57.17
179.744	75.95
179.964	67.75
180.184	30.89
180.404	49.32
180.624	-40.79
180.844	0.17
181.064	-65.36
181.283	-40.79
181.503	-38.74
181.723	49.32
181.943	-32.6
182.163	82.09
182.383	-24.4
182.602	100.52
182.822	20.65
183.042	-30.55
183.262	-51.03
183.482	14.51
183.701	49.32
183.921	18.6
184.141	0.17
184.361	-3.93
184.58	43.18
184.8	57.51
185.02	0.17
185.239	-5.97
185.459	51.37
185.679	41.13
185.898	-96.08
186.118	-26.45
186.338	-22.36
186.557	-1.88
186.777	32.94
186.997	-24.4
187.216	59.56
187.436	-10.07
187.655	22.7
187.875	55.47
188.095	34.99
188.314	18.6
188.534	63.66
188.753	65.71
188.973	-20.31
189.192	65.71
189.412	22.7
189.631	55.47
189.851	69.8
190.07	10.41
190.29	16.55
190.509	47.27
190.729	8.36
190.948	94.38
191.168	90.28
191.387	43.18
191.607	-22.36
191.826	69.8
192.045	30.89
192.265	-10.07
192.484	28.84
192.704	16.55
192.923	30.89
193.142	71.85
193.362	20.65
193.581	69.8
193.8	43.18
194.02	18.6
194.239	-42.84
194.458	51.37
194.678	73.9
194.897	-55.12
195.116	49.32
195.335	28.84
195.555	12.46
195.774	-1.88
195.993	18.6
196.212	-38.74
196.432	26.79
196.651	22.7
196.87	34.99
197.089	88.23
197.308	57.51
197.528	88.23
197.747	-46.93
197.966	80.04
198.185	41.13
198.404	-8.02
198.623	84.14
198.842	69.8
199.062	75.95
199.281	65.71
199.5	-8.02
199.719	-16.21
199.938	6.31
200.157	127.14
200.376	12.46
200.595	49.32
200.814	45.23
201.033	2.22
201.252	16.55
201.471	84.14
201.69	63.66
201.909	10.41
202.128	59.56
202.347	10.41
202.566	22.7
202.785	18.6
203.004	-28.5
203.223	127.14
203.442	-61.27
203.661	2.22
203.879	61.61
204.098	10.41
204.317	-1.88
204.536	-24.4
204.755	-5.97
204.974	-16.21
205.193	-32.6
205.411	51.37
205.63	67.75
205.849	-12.12
206.068	53.42
206.287	18.6
206.505	6.31
206.724	51.37
206.943	-14.17
207.162	73.9
207.381	2.22
207.599	-5.97
207.818	41.13
208.037	18.6
208.255	88.23
208.474	14.51
208.693	20.65
208.911	92.33
209.13	10.41
209.349	34.99
209.567	18.6
209.786	84.14
210.005	55.47
210.223	39.08
210.442	26.79
210.661	69.8
210.879	49.32
211.098	51.37
211.316	2.22
211.535	-1.88
211.753	84.14
211.972	18.6
212.191	18.6
212.409	18.6
212.628	80.04
212.846	34.99
213.065	-87.89
213.283	22.7
213.502	16.55
213.72	16.55
213.938	39.08
214.157	71.85
214.375	32.94
214.594	-34.64
214.812	114.86
215.031	-22.36
215.249	49.32
215.467	94.38
215.686	88.23
215.904	41.13
216.122	71.85
216.341	-5.97
216.559	53.42
216.778	-3.93
216.996	-26.45
217.214	43.18
217.432	10.41
217.651	4.27
217.869	34.99
218.087	24.75
218.306	2.22
218.524	53.42
218.742	43.18
218.96	12.46
219.179	-40.79
219.397	-5.97
219.615	34.99
219.833	61.61
220.051	-22.36
220.27	41.13
220.488	26.79
220.706	75.95
220.924	-30.55
221.142	8.36
221.36	-1.88
221.578	10.41
221.796	30.89
222.015	90.28
222.233	2.22
222.451	71.85
222.669	45.23
222.887	63.66
223.105	-14.17
223.323	49.32
223.541	47.27
223.759	34.99
223.977	-40.79
224.195	63.66
224.413	-32.6
224.631	63.66
224.849	2.22
225.067	59.56
225.285	14.51
225.503	47.27
225.721	28.84
225.939	-3.93
226.157	24.75
226.375	61.61
226.592	51.37
226.81	57.51
227.028	10.41
227.246	118.95
227.464	34.99
227.682	53.42
227.9	32.94
228.117	73.9
228.335	43.18
228.553	63.66
228.771	14.51
228.989	20.65
229.206	6.31
229.424	16.55
229.642	6.31
229.86	41.13
230.077	18.6
230.295	-28.5
230.513	18.6
230.731	61.61
230.948	65.71
231.166	32.94
231.384	71.85
231.601	55.47
231.819	98.47
232.037	8.36
232.254	14.51
232.472	16.55
232.689	34.99
232.907	47.27
233.125	-22.36
233.342	-1.88
233.56	-5.97
233.777	10.41
233.995	39.08
234.213	39.08
234.43	53.42
234.648	-10.07
234.865	12.46
235.083	10.41
235.3	2.22
235.518	129.19
235.735	47.27
235.953	92.33
236.17	24.75
236.388	22.7
236.605	12.46
236.822	26.79
237.04	69.8
237.257	65.71
237.475	6.31
237.692	71.85
237.909	55.47
238.127	43.18
238.344	84.14
238.562	61.61
238.779	39.08
238.996	20.65
239.214	77.99
239.431	49.32
239.648	2.22
239.865	104.62
240.083	41.13
240.3	-10.07
240.517	-3.93
240.735	14.51
240.952	39.08
241.169	55.47
241.386	18.6
241.603	-14.17
241.821	18.6
242.038	18.6
242.255	16.55
242.472	24.75
242.689	43.18
242.907	43.18
243.124	37.03
243.341	18.6
243.558	39.08
243.775	2.22
243.992	-16.21
244.209	80.04
244.426	51.37
244.643	14.51
244.86	-28.5
245.078	106.67
245.295	-16.21
245.512	51.37
245.729	43.18
245.946	75.95
246.163	59.56
246.38	8.36
246.597	-5.97
246.814	2.22
247.031	34.99
247.248	88.23
247.464	10.41
247.681	-63.32
247.898	24.75
248.115	77.99
248.332	108.71
248.549	90.28
248.766	26.79
248.983	73.9
249.2	10.41
249.417	4.27
249.633	-34.64
249.85	28.84
250.067	-44.88
250.284	61.61
250.501	69.8
250.717	32.94
250.934	41.13
251.151	-16.21
251.368	59.56
251.585	-1.88
251.801	24.75
252.018	-1.88
252.235	16.55
252.451	63.66
252.668	22.7
252.885	53.42
253.102	131.24
253.318	28.84
253.535	59.56
253.752	-46.93
253.968	24.75
254.185	-32.6
254.401	-10.07
254.618	49.32
254.835	30.89
255.051	34.99
255.268	-63.32
255.484	112.81
255.701	30.89
255.917	-16.21
256.134	108.71
256.351	-5.97
256.567	-63.32
256.784	-8.02
257	41.13
257.217	34.99
257.433	69.8
257.65	14.51
257.866	-5.97
258.082	-36.69
258.299	-46.93
258.515	32.94
258.732	-26.45
258.948	-26.45
259.165	-14.17
259.381	20.65
259.597	22.7
259.814	121
260.03	41.13
260.246	47.27
260.463	47.27
260.679	106.67
260.895	41.13
261.112	37.03
261.328	14.51
261.544	77.99
261.761	100.52
261.977	73.9
262.193	30.89
262.409	-18.26
262.626	26.79
262.842	80.04
263.058	8.36
263.274	100.52
263.49	22.7
263.707	108.71
263.923	32.94
264.139	-22.36
264.355	32.94
264.571	45.23
264.787	67.75
265.004	-30.55
265.22	-28.5
265.436	43.18
265.652	41.13
265.868	24.75
266.084	26.79
266.3	61.61
266.516	22.7
266.732	-12.12
266.948	57.51
267.164	57.51
267.38	22.7
267.596	88.23
267.812	-30.55
268.028	67.75
268.244	63.66
268.46	55.47
268.676	39.08
268.892	26.79
269.108	30.89
269.324	-1.88
269.54	-26.45
269.756	92.33
269.972	26.79
270.188	112.81
270.403	-3.93
270.619	43.18
270.835	71.85
271.051	28.84
271.267	-14.17
271.483	104.62
271.698	51.37
271.914	71.85
272.13	-22.36
272.346	57.51
272.562	22.7
272.777	18.6
272.993	-24.4
273.209	-16.21
273.425	59.56
273.64	8.36
273.856	-26.45
274.072	45.23
274.287	26.79
274.503	86.19
274.719	43.18
274.934	14.51
275.15	55.47
275.366	-1.88
275.581	24.75
275.797	24.75
276.012	98.47
276.228	0.17
276.444	10.41
276.659	86.19
276.875	14.51
277.09	-30.55
277.306	-20.31
277.521	41.13
277.737	22.7
277.952	59.56
278.168	28.84
278.383	6.31
278.599	22.7
278.814	8.36
279.03	-14.17
279.245	45.23
279.461	80.04
279.676	49.32
279.892	82.09
280.107	43.18
280.322	-22.36
280.538	-1.88
280.753	41.13
280.969	-5.97
281.184	73.9
281.399	-38.74
281.615	71.85
281.83	86.19
282.045	10.41
282.26	12.46
282.476	104.62
282.691	6.31
282.906	0.17
283.122	10.41
283.337	24.75
283.552	30.89
283.767	-40.79
283.983	28.84
284.198	20.65
284.413	65.71
284.628	-71.51
284.843	45.23
285.058	59.56
285.274	45.23
285.489	51.37
285.704	61.61
285.919	49.32
286.134	84.14
286.349	-5.97
286.564	18.6
286.779	100.52
286.995	18.6
287.21	-24.4
287.425	112.81
287.64	6.31
287.855	-12.12
288.07	16.55
288.285	-18.26
288.5	57.51
288.715	8.36
288.93	0.17
289.145	51.37
289.36	14.51
289.575	67.75
289.79	63.66
290.004	43.18
290.219	22.7
290.434	14.51
290.649	24.75
290.864	-32.6
291.079	43.18
291.294	55.47
291.509	49.32
291.724	10.41
291.938	-10.07
292.153	59.56
292.368	-32.6
292.583	16.55
292.798	32.94
293.012	-34.64
293.227	-5.97
293.442	18.6
293.657	84.14
293.871	100.52
294.086	121
294.301	-30.55
294.516	43.18
294.73	104.62
294.945	16.55
295.16	-1.88
295.374	34.99
295.589	90.28
295.804	-16.21
296.018	-1.88
296.233	67.75
296.447	-20.31
296.662	18.6
296.877	14.51
297.091	88.23
297.306	2.22
297.52	18.6
297.735	30.89
297.949	10.41
298.164	75.95
298.378	28.84
298.593	69.8
298.807	34.99
299.022	18.6
299.236	43.18
299.451	51.37
299.665	-18.26
299.88	-14.17
300.094	-40.79
300.309	51.37
300.523	28.84
300.737	-20.31
300.952	10.41
301.166	14.51
301.381	30.89
301.595	57.51
301.809	41.13
302.024	2.22
302.238	22.7
302.452	-18.26
302.667	-5.97
302.881	0.17
303.095	-36.69
303.309	-1.88
303.524	-44.88
303.738	6.31
303.952	4.27
304.166	98.47
304.381	-38.74
304.595	26.79
304.809	-32.6
305.023	6.31
305.237	26.79
305.452	-5.97
305.666	37.03
305.88	125.1
306.094	82.09
306.308	61.61
306.522	-10.07
306.736	-18.26
306.95	108.71
307.164	6.31
307.379	30.89
307.593	53.42
307.807	32.94
308.021	59.56
308.235	32.94
308.449	77.99
308.663	67.75
308.877	92.33
309.091	32.94
309.305	34.99
309.519	34.99
309.733	41.13
309.947	55.47
310.161	59.56
310.374	32.94
310.588	63.66
310.802	-22.36
311.016	65.71
311.23	12.46
311.444	2.22
311.658	51.37
311.872	59.56
312.085	43.18
312.299	59.56
312.513	67.75
312.727	41.13
312.941	16.55
313.154	10.41
313.368	26.79
313.582	57.51
313.796	30.89
314.009	96.43
314.223	92.33
314.437	55.47
314.651	47.27
314.864	10.41
315.078	73.9
315.292	-51.03
315.505	55.47
315.719	47.27
315.933	51.37
316.146	55.47
316.36	-32.6
316.573	-3.93
316.787	51.37
317.001	67.75
317.214	4.27
317.428	8.36
317.641	2.22
317.855	41.13
318.068	84.14
318.282	77.99
318.495	92.33
318.709	16.55
318.922	-48.98
319.136	49.32
319.349	92.33
319.563	51.37
319.776	6.31
319.99	67.75
320.203	51.37
320.417	45.23
320.63	-8.02
320.843	22.7
321.057	32.94
321.27	30.89
321.483	73.9
321.697	65.71
321.91	53.42
322.124	47.27
322.337	47.27
322.55	47.27
322.763	45.23
322.977	24.75
323.19	61.61
323.403	34.99
323.617	2.22
323.83	178.34
324.043	20.65
324.256	45.23
324.469	92.33
324.683	135.34
324.896	-16.21
325.109	61.61
325.322	-1.88
325.535	88.23
325.748	59.56
325.962	67.75
326.175	8.36
326.388	39.08
326.601	92.33
326.814	32.94
327.027	67.75
327.24	176.3
327.453	-53.08
327.666	47.27
327.879	2.22
328.092	110.76
328.305	49.32
328.518	-12.12
328.731	80.04
328.944	45.23
329.157	51.37
329.37	75.95
329.583	-12.12
329.796	28.84
330.009	22.7
330.222	28.84
330.435	2.22
330.648	2.22
330.861	14.51
331.073	34.99
331.286	-1.88
331.499	92.33
331.712	-1.88
331.925	49.32
332.138	53.42
332.35	-26.45
332.563	34.99
332.776	43.18
332.989	-10.07
333.202	32.94
333.414	80.04
333.627	59.56
333.84	49.32
334.053	-12.12
334.265	47.27
334.478	82.09
334.691	45.23
334.903	24.75
335.116	121
335.329	26.79
335.541	22.7
335.754	-18.26
335.966	0.17
336.179	28.84
336.392	61.61
336.604	32.94
336.817	121
337.029	22.7
337.242	39.08
337.454	55.47
337.667	-22.36
337.88	96.43
338.092	82.09
338.305	0.17
338.517	30.89
338.729	6.31
338.942	20.65
339.154	65.71
339.367	37.03
339.579	88.23
339.792	8.36
340.004	96.43
340.217	43.18
340.429	82.09
340.641	30.89
340.854	108.71
341.066	26.79
341.278	86.19
341.491	127.14
341.703	28.84
341.915	-44.88
342.128	28.84
342.34	67.75
342.552	-14.17
342.764	53.42
342.977	51.37
343.189	47.27
343.401	73.9
343.613	6.31
343.826	39.08
344.038	6.31
344.25	16.55
344.462	32.94
344.674	10.41
344.886	82.09
345.099	67.75
345.311	67.75
345.523	-14.17
345.735	-5.97
345.947	71.85
346.159	34.99
346.371	129.19
346.583	22.7
346.795	61.61
347.007	55.47
347.219	34.99
347.431	65.71
347.643	10.41
347.855	43.18
348.067	14.51
348.279	-1.88
348.491	98.47
348.703	84.14
348.915	63.66
349.127	47.27
349.339	96.43
349.551	26.79
349.763	39.08
349.975	53.42
350.187	92.33
350.399	4.27
350.61	67.75
350.822	-20.31
351.034	73.9
351.246	-42.84
351.458	82.09
351.669	32.94
351.881	47.27
352.093	-14.17
352.305	88.23
352.517	45.23
352.728	16.55
352.94	34.99
353.152	39.08
353.363	57.51
353.575	43.18
353.787	43.18
353.999	-16.21
354.21	110.76
354.422	28.84
354.633	51.37
354.845	43.18
355.057	20.65
355.268	43.18
355.48	43.18
355.692	22.7
355.903	61.61
356.115	88.23
356.326	2.22
356.538	18.6
356.749	90.28
356.961	39.08
357.172	118.95
357.384	51.37
357.595	61.61
357.807	55.47
358.018	73.9
358.23	75.95
358.441	26.79
358.653	67.75
358.864	14.51
359.075	12.46
359.287	92.33
359.498	110.76
359.709	-30.55
359.921	51.37
360.132	51.37
360.344	55.47
360.555	28.84
360.766	90.28
360.977	8.36
361.189	63.66
361.4	116.9
361.611	71.85
361.823	2.22
362.034	67.75
362.245	67.75
362.456	-30.55
362.667	63.66
362.879	39.08
363.09	51.37
363.301	14.51
363.512	59.56
363.723	41.13
363.935	77.99
364.146	43.18
364.357	73.9
364.568	94.38
364.779	43.18
364.99	53.42
365.201	45.23
365.412	-12.12
365.623	-26.45
365.834	71.85
366.045	-14.17
366.256	69.8
366.467	49.32
366.678	71.85
366.889	59.56
367.1	63.66
367.311	129.19
367.522	39.08
367.733	75.95
367.944	102.57
368.155	-3.93
368.366	18.6
368.577	37.03
368.788	69.8
368.999	16.55
369.209	-14.17
369.42	14.51
369.631	43.18
369.842	41.13
370.053	34.99
370.264	28.84
370.474	84.14
370.685	28.84
370.896	57.51
371.107	34.99
371.317	67.75
371.528	127.14
371.739	14.51
371.95	71.85
372.16	49.32
372.371	63.66
372.582	37.03
372.792	41.13
373.003	18.6
373.214	18.6
373.424	84.14
373.635	39.08
373.846	141.48
374.056	104.62
374.267	43.18
374.477	41.13
374.688	94.38
374.898	30.89
375.109	65.71
375.319	88.23
375.53	37.03
375.74	71.85
375.951	2.22
376.161	63.66
376.372	61.61
376.582	75.95
376.793	14.51
377.003	37.03
377.214	86.19
377.424	116.9
377.635	63.66
377.845	65.71
378.055	92.33
378.266	59.56
378.476	131.24
378.686	125.1
378.897	18.6
379.107	43.18
379.317	67.75
379.528	90.28
379.738	77.99
379.948	-12.12
380.158	147.62
380.369	47.27
380.579	26.79
380.789	59.56
380.999	41.13
381.21	98.47
381.42	30.89
381.63	32.94
381.84	51.37
382.05	84.14
382.261	75.95
382.471	106.67
382.681	69.8
382.891	139.43
383.101	86.19
383.311	8.36
383.521	24.75
383.731	4.27
383.941	57.51
384.151	84.14
384.361	108.71
384.571	14.51
384.781	114.86
384.991	43.18
385.201	125.1
385.411	114.86
385.621	53.42
385.831	41.13
386.041	51.37
386.251	59.56
386.461	-5.97
386.671	-46.93
386.881	80.04
387.091	34.99
387.301	98.47
387.511	129.19
387.72	51.37
387.93	51.37
388.14	123.05
388.35	-10.07
388.56	96.43
388.769	77.99
388.979	57.51
389.189	-55.12
389.399	127.14
389.609	96.43
389.818	114.86
390.028	16.55
390.238	133.29
390.447	4.27
390.657	59.56
390.867	73.9
391.076	32.94
391.286	82.09
391.496	88.23
391.705	45.23
391.915	82.09
392.125	67.75
392.334	133.29
392.544	-42.84
392.753	88.23
392.963	90.28
393.172	80.04
393.382	67.75
393.591	147.62
393.801	75.95
394.01	100.52
394.22	80.04
394.429	98.47
394.639	77.99
394.848	55.47
395.058	67.75
395.267	55.47
395.477	90.28
395.686	88.23
395.895	213.16
396.105	178.34
396.314	164.01
396.524	147.62
396.733	149.67
396.942	125.1
397.152	174.25
397.361	137.38
397.57	157.86
397.78	55.47
397.989	86.19
398.198	100.52
398.407	22.7
398.617	133.29
398.826	94.38
399.035	59.56
399.244	110.76
399.453	123.05
399.663	88.23
399.872	157.86
400.081	133.29
400.29	194.73
400.499	157.86
400.708	84.14
400.917	141.48
401.127	174.25
401.336	196.78
401.545	235.69
401.754	190.63
401.963	127.14
402.172	100.52
402.381	123.05
402.59	133.29
402.799	133.29
403.008	149.67
403.217	149.67
403.426	151.72
403.635	161.96
403.844	194.73
404.053	125.1
404.262	207.02
404.471	256.17
404.68	170.15
404.888	153.77
405.097	207.02
405.306	133.29
405.515	131.24
405.724	225.45
405.933	182.44
406.142	254.12
406.35	297.13
406.559	227.5
406.768	149.67
406.977	247.97
407.185	164.01
407.394	213.16
407.603	288.93
407.812	282.79
408.02	245.93
408.229	223.4
408.438	194.73
408.646	331.94
408.855	295.08
409.064	346.28
409.272	315.56
409.481	346.28
409.69	362.66
409.898	313.51
410.107	387.24
410.315	397.48
410.524	366.76
410.733	460.96
410.941	491.68
411.15	520.35
411.358	485.54
411.567	456.87
411.775	477.35
411.984	530.59
412.192	606.37
412.401	608.42
412.609	628.9
412.818	546.98
413.026	589.99
413.234	616.61
413.443	649.38
413.651	700.58
413.86	647.33
414.068	753.82
414.276	741.54
414.485	798.88
414.693	821.41
414.901	864.41
415.11	903.32
415.318	903.32
415.526	854.17
415.734	907.42
415.943	1013.92
416.151	989.34
416.359	1046.68
416.567	1099.93
416.776	1151.13
416.984	1204.38
417.192	1165.46
417.4	1169.56
417.608	1267.86
417.817	1294.49
418.025	1341.59
418.233	1487
418.441	1534.1
418.649	1523.86
418.857	1654.93
419.065	1663.12
419.273	1642.64
419.481	1689.74
419.689	1841.29
419.897	1980.56
420.105	1937.55
420.313	1892.49
420.521	2015.37
420.729	2074.76
420.937	2211.98
421.145	2197.64
421.353	2273.42
421.561	2420.87
421.769	2498.69
421.977	2660.48
422.185	2627.71
422.393	2721.92
422.601	2992.25
422.809	2926.72
423.017	2945.15
423.224	3074.17
423.432	3082.36
423.64	3127.42
423.848	3393.65
424.056	3336.31
424.263	3713.14
424.471	3643.51
424.679	3676.27
424.887	3836.02
425.094	3993.71
425.302	4055.15
425.51	4210.79
425.718	4325.48
425.925	4239.47
426.133	4487.27
426.341	4827.23
426.548	4980.83
426.756	5101.66
426.964	5105.76
427.171	5335.13
427.379	5597.27
427.586	5546.07
427.794	5920.85
428.001	6226
428.209	6266.96
428.417	6217.8
428.624	6697.03
428.832	6735.94
429.039	6625.35
429.247	6703.17
429.454	7362.62
429.662	7630.9
429.869	7184.45
430.076	7802.93
430.284	7491.64
430.491	7686.2
430.699	8235.05
430.906	8271.92
431.114	8448.04
431.321	8888.36
431.528	8884.26
431.736	9420.83
431.943	9975.83
432.15	9580.57
432.358	9818.13
432.565	10264.59
432.772	10170.38
432.979	10782.73
433.187	11012.1
433.394	10795.01
433.601	11841.53
433.808	11753.46
434.016	11794.42
434.223	12204.02
434.43	12949.48
434.637	12523.5
434.844	13283.3
435.052	13817.82
435.259	13598.68
435.466	13553.63
435.673	13516.76
435.88	14385.1
436.087	15126.47
436.294	15470.53
436.501	14950.34
436.708	15368.13
436.915	15882.17
437.122	16105.4
437.329	16215.99
437.537	16752.56
437.743	17252.26
437.95	16924.58
438.157	18124.69
438.364	18464.66
438.571	18470.8
438.778	18591.63
438.985	20346.74
439.192	19494.79
439.399	20039.54
439.606	19644.29
439.813	20856.68
440.02	22126.43
440.227	21589.86
440.433	21475.17
440.64	22407
440.847	21942.11
441.054	22462.29
441.261	23998.27
441.467	23920.45
441.674	24401.72
441.881	25218.86
442.088	25089.84
442.294	24745.78
442.501	25509.67
442.708	26013.47
442.914	27098.89
443.121	28231.42
443.328	27520.77
443.534	29548.26
443.741	28780.28
443.948	28096.25
444.154	30461.66
444.361	30156.51
444.568	30254.81
444.774	30400.22
444.981	30691.03
445.187	31405.77
445.394	32652.98
445.6	32466.62
445.807	35645.07
446.013	33840.81
446.22	34625.18
446.426	36138.63
446.633	36318.85
446.839	37287.54
447.046	35942.02
447.252	37834.35
447.459	37789.29
447.665	37725.8
447.871	39413.33
448.078	41029.18
448.284	38854.23
448.491	39818.83
448.697	41627.18
448.903	42413.6
449.11	42325.54
449.316	41756.21
449.522	42249.77
449.728	43388.44
449.935	44062.22
450.141	43744.78
450.347	44803.58
450.553	43509.27
450.76	44086.79
450.966	45424.12
451.172	44711.42
451.378	46271.98
451.584	44920.32
451.791	46075.37
451.997	46116.33
452.203	46949.85
452.409	46577.12
452.615	46757.35
452.821	44629.51
453.027	44801.54
453.233	46820.83
453.44	45090.3
453.646	45585.91
453.852	45772.27
454.058	46097.9
454.264	44785.15
454.47	45872.62
454.676	44281.35
454.882	45776.37
455.088	42227.24
455.294	42909.21
455.5	43834.89
455.705	43943.44
455.911	41803.31
456.117	41762.35
456.323	40885.82
456.529	38618.72
456.735	40439.36
456.941	39374.42
457.147	38825.56
457.352	37725.8
457.558	37424.75
457.764	37140.08
457.97	36458.11
458.176	35753.61
458.381	35794.57
458.587	34070.18
458.793	34082.47
458.999	32308.93
459.204	34332.32
459.41	33724.07
459.616	31477.45
459.821	31078.1
460.027	31483.59
460.233	30904.02
460.438	29392.62
460.644	29830.88
460.85	27950.85
461.055	27772.67
461.261	27741.96
461.466	25777.95
461.672	24954.67
461.878	26603.28
462.083	25057.07
462.289	24766.26
462.494	24135.48
462.7	23238.47
462.905	22415.19
463.111	23658.31
463.316	23273.29
463.522	22576.98
463.727	22906.7
463.932	22867.79
464.138	22548.31
464.343	22634.32
464.549	22107.99
464.754	22654.8
464.959	22480.72
465.165	22185.82
465.37	21716.83
465.575	20879.21
465.781	21696.35
465.986	21868.38
466.191	20909.93
466.397	20344.69
466.602	19363.72
466.807	20320.12
467.012	20311.92
467.218	20373.36
