Data from USB4F104151__57__11-37-21-681.txt Node

Date: Fri Mar 14 11:37:21 EDT 2025
User: louis
Spectrometer: USB4F10415
Trigger mode: 4
Integration Time (sec): 2.000000E-2
Scans to average: 1
Electric dark correction enabled: true
Nonlinearity correction enabled: false
Boxcar width: 0
XAxis mode: Wavelengths
Number of Pixels in Spectrum: 3648
>>>>>Begin Spectral Data<<<<<
178.204	-21.5
178.424	-21.5
178.644	-21.5
178.864	-87.04
179.084	-78.85
179.304	37.89
179.524	-17.41
179.744	17.41
179.964	-23.55
180.184	7.17
180.404	27.65
180.624	-37.89
180.844	13.31
181.064	-15.36
181.283	31.74
181.503	-9.22
181.723	-31.74
181.943	-50.18
182.163	31.74
182.383	60.42
182.602	11.26
182.822	-7.17
183.042	-46.08
183.262	-7.17
183.482	-39.94
183.701	52.22
183.921	39.94
184.141	-3.07
184.361	50.18
184.58	-13.31
184.8	-9.22
185.02	82.94
185.239	27.65
185.459	74.75
185.679	52.22
185.898	-5.12
186.118	60.42
186.338	-15.36
186.557	25.6
186.777	25.6
186.997	-48.13
187.216	9.22
187.436	97.28
187.655	76.8
187.875	27.65
188.095	3.07
188.314	130.05
188.534	58.37
188.753	-58.37
188.973	76.8
189.192	35.84
189.412	19.46
189.631	19.46
189.851	-5.12
190.07	23.55
190.29	-35.84
190.509	-7.17
190.729	27.65
190.948	109.57
191.168	93.18
191.387	11.26
191.607	-13.31
191.826	-31.74
192.045	7.17
192.265	37.89
192.484	76.8
192.704	41.98
192.923	15.36
193.142	109.57
193.362	50.18
193.581	60.42
193.8	56.32
194.02	11.26
194.239	19.46
194.458	35.84
194.678	9.22
194.897	52.22
195.116	17.41
195.335	-35.84
195.555	35.84
195.774	-9.22
195.993	76.8
196.212	62.46
196.432	11.26
196.651	132.09
196.87	58.37
197.089	31.74
197.308	58.37
197.528	21.5
197.747	-5.12
197.966	35.84
198.185	101.37
198.404	-11.26
198.623	-9.22
198.842	60.42
199.062	109.57
199.281	-7.17
199.5	3.07
199.719	105.47
199.938	68.61
200.157	56.32
200.376	54.27
200.595	35.84
200.814	19.46
201.033	-50.18
201.252	54.27
201.471	60.42
201.69	101.37
201.909	41.98
202.128	76.8
202.347	3.07
202.566	-31.74
202.785	3.07
203.004	-70.65
203.223	62.46
203.442	-33.79
203.661	-19.46
203.879	37.89
204.098	89.09
204.317	11.26
204.536	62.46
204.755	-5.12
204.974	46.08
205.193	-5.12
205.411	50.18
205.63	-9.22
205.849	-39.94
206.068	-3.07
206.287	5.12
206.505	121.85
206.724	44.03
206.943	46.08
207.162	50.18
207.381	-87.04
207.599	19.46
207.818	70.65
208.037	66.56
208.255	23.55
208.474	15.36
208.693	-54.27
208.911	-21.5
209.13	3.07
209.349	66.56
209.567	68.61
209.786	39.94
210.005	115.71
210.223	35.84
210.442	-21.5
210.661	72.7
210.879	-72.7
211.098	41.98
211.316	64.51
211.535	-39.94
211.753	7.17
211.972	60.42
212.191	7.17
212.409	33.79
212.628	17.41
212.846	31.74
213.065	-29.7
213.283	60.42
213.502	52.22
213.72	78.85
213.938	31.74
214.157	50.18
214.375	76.8
214.594	48.13
214.812	25.6
215.031	-13.31
215.249	1.02
215.467	-13.31
215.686	-27.65
215.904	60.42
216.122	-27.65
216.341	60.42
216.559	60.42
216.778	31.74
216.996	46.08
217.214	48.13
217.432	33.79
217.651	7.17
217.869	44.03
218.087	27.65
218.306	44.03
218.524	84.99
218.742	-7.17
218.96	115.71
219.179	-7.17
219.397	17.41
219.615	48.13
219.833	84.99
220.051	-13.31
220.27	23.55
220.488	74.75
220.706	37.89
220.924	9.22
221.142	-15.36
221.36	-5.12
221.578	25.6
221.796	23.55
222.015	19.46
222.233	29.7
222.451	62.46
222.669	70.65
222.887	17.41
223.105	27.65
223.323	82.94
223.541	35.84
223.759	-7.17
223.977	-44.03
224.195	31.74
224.413	19.46
224.631	27.65
224.849	35.84
225.067	107.52
225.285	19.46
225.503	-1.02
225.721	-5.12
225.939	82.94
226.157	113.66
226.375	103.42
226.592	-7.17
226.81	3.07
227.028	52.22
227.246	52.22
227.464	-25.6
227.682	31.74
227.9	25.6
228.117	84.99
228.335	-5.12
228.553	9.22
228.771	60.42
228.989	-25.6
229.206	35.84
229.424	1.02
229.642	54.27
229.86	-41.98
230.077	89.09
230.295	72.7
230.513	-5.12
230.731	68.61
230.948	72.7
231.166	91.13
231.384	23.55
231.601	5.12
231.819	56.32
232.037	64.51
232.254	80.89
232.472	23.55
232.689	35.84
232.907	35.84
233.125	87.04
233.342	48.13
233.56	-7.17
233.777	-11.26
233.995	72.7
234.213	105.47
234.43	19.46
234.648	-1.02
234.865	-1.02
235.083	91.13
235.3	99.33
235.518	50.18
235.735	80.89
235.953	31.74
236.17	13.31
236.388	97.28
236.605	19.46
236.822	-7.17
237.04	46.08
237.257	87.04
237.475	72.7
237.692	5.12
237.909	-7.17
238.127	15.36
238.344	-7.17
238.562	19.46
238.779	-64.51
238.996	-27.65
239.214	91.13
239.431	37.89
239.648	39.94
239.865	56.32
240.083	54.27
240.3	89.09
240.517	-25.6
240.735	66.56
240.952	-9.22
241.169	84.99
241.386	60.42
241.603	21.5
241.821	27.65
242.038	68.61
242.255	27.65
242.472	-23.55
242.689	31.74
242.907	58.37
243.124	56.32
243.341	68.61
243.558	-5.12
243.775	-50.18
243.992	-25.6
244.209	-5.12
244.426	87.04
244.643	25.6
244.86	41.98
245.078	91.13
245.295	15.36
245.512	-19.46
245.729	-17.41
245.946	-35.84
246.163	3.07
246.38	11.26
246.597	-33.79
246.814	19.46
247.031	50.18
247.248	37.89
247.464	54.27
247.681	72.7
247.898	17.41
248.115	35.84
248.332	60.42
248.549	78.85
248.766	95.23
248.983	13.31
249.2	19.46
249.417	35.84
249.633	19.46
249.85	-50.18
250.067	60.42
250.284	72.7
250.501	1.02
250.717	7.17
250.934	5.12
251.151	23.55
251.368	39.94
251.585	7.17
251.801	-29.7
252.018	46.08
252.235	76.8
252.451	58.37
252.668	29.7
252.885	66.56
253.102	80.89
253.318	23.55
253.535	31.74
253.752	-5.12
253.968	80.89
254.185	-35.84
254.401	-13.31
254.618	-5.12
254.835	9.22
255.051	84.99
255.268	58.37
255.484	19.46
255.701	-21.5
255.917	33.79
256.134	3.07
256.351	80.89
256.567	-1.02
256.784	25.6
257	-3.07
257.217	39.94
257.433	21.5
257.65	-1.02
257.866	-9.22
258.082	35.84
258.299	-21.5
258.515	44.03
258.732	29.7
258.948	17.41
259.165	44.03
259.381	7.17
259.597	46.08
259.814	-35.84
260.03	70.65
260.246	-7.17
260.463	41.98
260.679	-29.7
260.895	3.07
261.112	64.51
261.328	62.46
261.544	-25.6
261.761	84.99
261.977	-21.5
262.193	19.46
262.409	115.71
262.626	-50.18
262.842	11.26
263.058	23.55
263.274	121.85
263.49	-5.12
263.707	60.42
263.923	-11.26
264.139	21.5
264.355	48.13
264.571	50.18
264.787	15.36
265.004	99.33
265.22	1.02
265.436	31.74
265.652	44.03
265.868	19.46
266.084	11.26
266.3	11.26
266.516	-25.6
266.732	80.89
266.948	-103.42
267.164	-39.94
267.38	39.94
267.596	25.6
267.812	31.74
268.028	27.65
268.244	-41.98
268.46	19.46
268.676	70.65
268.892	-33.79
269.108	-13.31
269.324	46.08
269.54	21.5
269.756	146.43
269.972	-7.17
270.188	46.08
270.403	13.31
270.619	44.03
270.835	1.02
271.051	-13.31
271.267	-17.41
271.483	3.07
271.698	60.42
271.914	17.41
272.13	-3.07
272.346	19.46
272.562	27.65
272.777	60.42
272.993	60.42
273.209	9.22
273.425	91.13
273.64	-54.27
273.856	41.98
274.072	44.03
274.287	52.22
274.503	3.07
274.719	58.37
274.934	3.07
275.15	25.6
275.366	-3.07
275.581	52.22
275.797	-13.31
276.012	82.94
276.228	27.65
276.444	31.74
276.659	11.26
276.875	3.07
277.09	7.17
277.306	107.52
277.521	58.37
277.737	54.27
277.952	23.55
278.168	25.6
278.383	80.89
278.599	70.65
278.814	74.75
279.03	-37.89
279.245	52.22
279.461	52.22
279.676	31.74
279.892	23.55
280.107	9.22
280.322	1.02
280.538	97.28
280.753	52.22
280.969	99.33
281.184	1.02
281.399	37.89
281.615	37.89
281.83	5.12
282.045	19.46
282.26	48.13
282.476	46.08
282.691	23.55
282.906	48.13
283.122	54.27
283.337	50.18
283.552	-31.74
283.767	33.79
283.983	101.37
284.198	-48.13
284.413	50.18
284.628	19.46
284.843	84.99
285.058	58.37
285.274	58.37
285.489	-39.94
285.704	113.66
285.919	44.03
286.134	21.5
286.349	17.41
286.564	-11.26
286.779	-13.31
286.995	31.74
287.21	25.6
287.425	23.55
287.64	35.84
287.855	11.26
288.07	-58.37
288.285	56.32
288.5	-21.5
288.715	9.22
288.93	-39.94
289.145	19.46
289.36	3.07
289.575	41.98
289.79	52.22
290.004	68.61
290.219	84.99
290.434	-9.22
290.649	97.28
290.864	27.65
291.079	80.89
291.294	60.42
291.509	29.7
291.724	1.02
291.938	9.22
292.153	-13.31
292.368	68.61
292.583	11.26
292.798	7.17
293.012	-3.07
293.227	95.23
293.442	58.37
293.657	33.79
293.871	11.26
294.086	-19.46
294.301	56.32
294.516	31.74
294.73	-1.02
294.945	11.26
295.16	15.36
295.374	66.56
295.589	23.55
295.804	-25.6
296.018	23.55
296.233	3.07
296.447	52.22
296.662	-39.94
296.877	74.75
297.091	64.51
297.306	-1.02
297.52	7.17
297.735	103.42
297.949	11.26
298.164	11.26
298.378	-27.65
298.593	3.07
298.807	23.55
299.022	56.32
299.236	50.18
299.451	60.42
299.665	7.17
299.88	23.55
300.094	29.7
300.309	17.41
300.523	105.47
300.737	-25.6
300.952	17.41
301.166	101.37
301.381	35.84
301.595	31.74
301.809	58.37
302.024	58.37
302.238	-3.07
302.452	109.57
302.667	27.65
302.881	27.65
303.095	91.13
303.309	3.07
303.524	-15.36
303.738	58.37
303.952	35.84
304.166	68.61
304.381	-33.79
304.595	87.04
304.809	-15.36
305.023	-7.17
305.237	23.55
305.452	41.98
305.666	-23.55
305.88	64.51
306.094	7.17
306.308	68.61
306.522	46.08
306.736	68.61
306.95	58.37
307.164	23.55
307.379	15.36
307.593	50.18
307.807	78.85
308.021	25.6
308.235	-33.79
308.449	-17.41
308.663	91.13
308.877	72.7
309.091	-9.22
309.305	44.03
309.519	23.55
309.733	66.56
309.947	-27.65
310.161	48.13
310.374	21.5
310.588	41.98
310.802	-9.22
311.016	19.46
311.23	13.31
311.444	56.32
311.658	1.02
311.872	29.7
312.085	54.27
312.299	35.84
312.513	60.42
312.727	23.55
312.941	54.27
313.154	78.85
313.368	62.46
313.582	52.22
313.796	76.8
314.009	17.41
314.223	44.03
314.437	132.09
314.651	-5.12
314.864	31.74
315.078	84.99
315.292	-9.22
315.505	44.03
315.719	41.98
315.933	19.46
316.146	19.46
316.36	19.46
316.573	21.5
316.787	87.04
317.001	109.57
317.214	19.46
317.428	44.03
317.641	19.46
317.855	56.32
318.068	39.94
318.282	1.02
318.495	97.28
318.709	50.18
318.922	76.8
319.136	60.42
319.349	66.56
319.563	-46.08
319.776	115.71
319.99	56.32
320.203	87.04
320.417	5.12
320.63	25.6
320.843	33.79
321.057	33.79
321.27	21.5
321.483	41.98
321.697	13.31
321.91	82.94
322.124	101.37
322.337	1.02
322.55	33.79
322.763	27.65
322.977	-19.46
323.19	11.26
323.403	23.55
323.617	52.22
323.83	48.13
324.043	82.94
324.256	130.05
324.469	7.17
324.683	89.09
324.896	64.51
325.109	9.22
325.322	-15.36
325.535	54.27
325.748	35.84
325.962	-33.79
326.175	7.17
326.388	132.09
326.601	128
326.814	25.6
327.027	56.32
327.24	93.18
327.453	39.94
327.666	54.27
327.879	19.46
328.092	-44.03
328.305	-41.98
328.518	21.5
328.731	29.7
328.944	44.03
329.157	-23.55
329.37	72.7
329.583	52.22
329.796	70.65
330.009	23.55
330.222	-9.22
330.435	41.98
330.648	3.07
330.861	64.51
331.073	64.51
331.286	19.46
331.499	9.22
331.712	52.22
331.925	64.51
332.138	-1.02
332.35	89.09
332.563	15.36
332.776	115.71
332.989	-54.27
333.202	23.55
333.414	13.31
333.627	44.03
333.84	-23.55
334.053	-3.07
334.265	52.22
334.478	46.08
334.691	44.03
334.903	64.51
335.116	-5.12
335.329	7.17
335.541	91.13
335.754	19.46
335.966	17.41
336.179	11.26
336.392	3.07
336.604	56.32
336.817	58.37
337.029	11.26
337.242	56.32
337.454	27.65
337.667	33.79
337.88	111.61
338.092	54.27
338.305	35.84
338.517	60.42
338.729	95.23
338.942	21.5
339.154	23.55
339.367	25.6
339.579	82.94
339.792	-7.17
340.004	70.65
340.217	44.03
340.429	62.46
340.641	35.84
340.854	76.8
341.066	31.74
341.278	7.17
341.491	80.89
341.703	44.03
341.915	29.7
342.128	68.61
342.34	62.46
342.552	7.17
342.764	23.55
342.977	97.28
343.189	3.07
343.401	19.46
343.613	23.55
343.826	39.94
344.038	84.99
344.25	21.5
344.462	37.89
344.674	97.28
344.886	-37.89
345.099	84.99
345.311	7.17
345.523	9.22
345.735	-39.94
345.947	13.31
346.159	-1.02
346.371	72.7
346.583	52.22
346.795	101.37
347.007	68.61
347.219	-15.36
347.431	60.42
347.643	72.7
347.855	-17.41
348.067	82.94
348.279	72.7
348.491	27.65
348.703	70.65
348.915	25.6
349.127	25.6
349.339	-25.6
349.551	-7.17
349.763	5.12
349.975	25.6
350.187	44.03
350.399	46.08
350.61	35.84
350.822	91.13
351.034	74.75
351.246	78.85
351.458	50.18
351.669	21.5
351.881	60.42
352.093	33.79
352.305	156.67
352.517	35.84
352.728	41.98
352.94	101.37
353.152	11.26
353.363	41.98
353.575	25.6
353.787	64.51
353.999	64.51
354.21	80.89
354.422	39.94
354.633	62.46
354.845	134.14
355.057	50.18
355.268	15.36
355.48	68.61
355.692	31.74
355.903	17.41
356.115	78.85
356.326	7.17
356.538	56.32
356.749	25.6
356.961	103.42
357.172	48.13
357.384	76.8
357.595	52.22
357.807	35.84
358.018	95.23
358.23	58.37
358.441	64.51
358.653	60.42
358.864	-5.12
359.075	37.89
359.287	48.13
359.498	125.95
359.709	82.94
359.921	58.37
360.132	68.61
360.344	15.36
360.555	5.12
360.766	87.04
360.977	25.6
361.189	48.13
361.4	1.02
361.611	37.89
361.823	74.75
362.034	78.85
362.245	78.85
362.456	50.18
362.667	31.74
362.879	39.94
363.09	23.55
363.301	95.23
363.512	-9.22
363.723	19.46
363.935	5.12
364.146	37.89
364.357	52.22
364.568	60.42
364.779	44.03
364.99	76.8
365.201	39.94
365.412	84.99
365.623	66.56
365.834	72.7
366.045	99.33
366.256	80.89
366.467	58.37
366.678	25.6
366.889	52.22
367.1	29.7
367.311	109.57
367.522	109.57
367.733	-5.12
367.944	84.99
368.155	109.57
368.366	62.46
368.577	76.8
368.788	44.03
368.999	3.07
369.209	76.8
369.42	19.46
369.631	68.61
369.842	58.37
370.053	60.42
370.264	23.55
370.474	23.55
370.685	-5.12
370.896	15.36
371.107	117.76
371.317	113.66
371.528	58.37
371.739	23.55
371.95	60.42
372.16	11.26
372.371	23.55
372.582	-68.61
372.792	15.36
373.003	117.76
373.214	44.03
373.424	29.7
373.635	52.22
373.846	84.99
374.056	109.57
374.267	50.18
374.477	101.37
374.688	52.22
374.898	54.27
375.109	115.71
375.319	3.07
375.53	39.94
375.74	68.61
375.951	48.13
376.161	7.17
376.372	5.12
376.582	21.5
376.793	23.55
377.003	74.75
377.214	64.51
377.424	9.22
377.635	58.37
377.845	44.03
378.055	-25.6
378.266	11.26
378.476	132.09
378.686	87.04
378.897	11.26
379.107	125.95
379.317	11.26
379.528	78.85
379.738	132.09
379.948	25.6
380.158	80.89
380.369	78.85
380.579	74.75
380.789	-1.02
380.999	54.27
381.21	64.51
381.42	91.13
381.63	60.42
381.84	39.94
382.05	91.13
382.261	123.9
382.471	66.56
382.681	78.85
382.891	54.27
383.101	41.98
383.311	93.18
383.521	7.17
383.731	84.99
383.941	150.53
384.151	-35.84
384.361	60.42
384.571	58.37
384.781	52.22
384.991	134.14
385.201	31.74
385.411	5.12
385.621	62.46
385.831	31.74
386.041	76.8
386.251	62.46
386.461	15.36
386.671	84.99
386.881	82.94
387.091	66.56
387.301	76.8
387.511	80.89
387.72	99.33
387.93	54.27
388.14	58.37
388.35	44.03
388.56	117.76
388.769	87.04
388.979	87.04
389.189	-5.12
389.399	62.46
389.609	76.8
389.818	44.03
390.028	48.13
390.238	111.61
390.447	27.65
390.657	97.28
390.867	82.94
391.076	25.6
391.286	64.51
391.496	84.99
391.705	93.18
391.915	97.28
392.125	50.18
392.334	84.99
392.544	136.19
392.753	115.71
392.963	66.56
393.172	23.55
393.382	74.75
393.591	148.48
393.801	97.28
394.01	111.61
394.22	11.26
394.429	46.08
394.639	66.56
394.848	117.76
395.058	132.09
395.267	62.46
395.477	93.18
395.686	48.13
395.895	144.38
396.105	113.66
396.314	29.7
396.524	164.86
396.733	84.99
396.942	82.94
397.152	154.62
397.361	150.53
397.57	142.33
397.78	166.91
397.989	80.89
398.198	125.95
398.407	173.05
398.617	125.95
398.826	60.42
399.035	119.81
399.244	142.33
399.453	125.95
399.663	93.18
399.872	31.74
400.081	119.81
400.29	158.72
400.499	154.62
400.708	107.52
400.917	146.43
401.127	168.96
401.336	148.48
401.545	173.05
401.754	56.32
401.963	199.68
402.172	119.81
402.381	142.33
402.59	87.04
402.799	205.82
403.008	162.81
403.217	191.49
403.426	164.86
403.635	138.24
403.844	171.01
404.053	150.53
404.262	119.81
404.471	199.68
404.68	130.05
404.888	125.95
405.097	82.94
405.306	142.33
405.515	189.44
405.724	78.85
405.933	179.2
406.142	191.49
406.35	175.1
406.559	183.29
406.768	195.58
406.977	138.24
407.185	257.02
407.394	271.36
407.603	93.18
407.812	222.2
408.02	240.64
408.229	252.92
408.438	375.8
408.646	285.69
408.855	216.06
409.064	285.69
409.272	293.88
409.481	295.93
409.69	291.84
409.898	312.32
410.107	310.27
410.315	304.12
410.524	304.12
410.733	302.08
410.941	324.6
411.15	371.71
411.358	351.23
411.567	365.56
411.775	388.09
411.984	410.62
412.192	365.56
412.401	420.86
412.609	529.4
412.818	490.49
413.026	470.01
413.234	515.06
413.443	506.87
413.651	570.36
413.86	623.61
414.068	658.42
414.276	599.03
414.485	592.89
414.693	650.23
414.901	762.87
415.11	752.63
415.318	701.43
415.526	822.26
415.734	869.36
415.943	758.77
416.151	769.01
416.359	846.84
416.567	895.99
416.776	904.18
416.984	1002.48
417.192	1035.25
417.4	982
417.608	1047.54
417.817	1045.49
418.025	1082.35
418.233	1233.9
418.441	1213.42
418.649	1203.18
418.857	1321.96
419.065	1354.73
419.273	1299.44
419.481	1403.88
419.689	1588.2
419.897	1487.85
420.105	1565.67
420.313	1598.44
420.521	1657.83
420.729	1706.98
420.937	1774.56
421.145	1854.44
421.353	1934.31
421.561	1905.63
421.769	2075.62
421.977	2120.67
422.185	2069.47
422.393	2182.11
422.601	2448.35
422.809	2323.42
423.017	2253.79
423.224	2419.68
423.432	2546.65
423.64	2505.69
423.848	2767.83
424.056	2687.96
424.263	2913.24
424.471	2927.57
424.679	3111.89
424.887	3087.31
425.094	3296.21
425.302	3218.38
425.51	3486.67
425.718	3503.05
425.925	3656.65
426.133	3587.02
426.341	3814.34
426.548	4121.54
426.756	3992.52
426.964	4101.06
427.171	4232.13
427.379	4537.27
427.586	4701.11
427.794	4637.63
428.001	4895.67
428.209	5131.19
428.417	4930.48
428.624	5327.79
428.832	5432.24
429.039	5448.62
429.247	5342.13
429.454	5831.59
429.662	6106.02
429.869	5911.46
430.076	6362.01
430.284	6157.22
430.491	6364.06
430.699	6736.79
430.906	6712.22
431.114	6810.52
431.321	7025.56
431.528	7125.91
431.736	7740.3
431.943	8027.01
432.15	7670.67
432.358	7648.14
432.565	8229.76
432.772	8166.28
432.979	8604.54
433.187	8975.22
433.394	8784.76
433.601	9556.85
433.808	9612.14
434.016	9419.63
434.223	9816.94
434.43	10586.97
434.637	10134.37
434.844	10793.82
435.052	11072.34
435.259	11096.92
435.466	11076.44
435.673	11115.35
435.88	11658.06
436.087	12264.26
436.294	12448.58
436.501	12184.39
436.708	12247.88
436.915	12659.52
437.122	13331.25
437.329	13456.18
437.537	13624.11
437.743	13865.77
437.95	13720.37
438.157	14639.9
438.364	14824.22
438.571	15061.79
438.778	15133.47
438.985	16526.08
439.192	15696.66
439.399	16122.63
439.606	16073.48
439.813	16864
440.02	17785.58
440.227	17462.01
440.433	17335.03
440.64	17853.17
440.847	17779.44
441.054	18215.66
441.261	19485.4
441.467	19034.85
441.674	19790.55
441.881	20351.69
442.088	20562.63
442.294	20318.92
442.501	20593.35
442.708	21002.94
442.914	21756.6
443.121	22567.59
443.328	22522.54
443.534	23603.86
443.741	23077.54
443.948	22813.35
444.154	24724.1
444.361	24068.75
444.568	24402.57
444.774	24640.14
444.981	24998.53
445.187	25088.64
445.394	26552.94
445.6	26266.22
445.807	28787.27
446.013	27386.46
446.22	27777.62
446.426	28850.76
446.633	29327.94
446.839	30583.34
447.046	28901.96
447.252	30577.2
447.459	30626.35
447.665	30536.24
447.871	31801.88
448.078	33395.2
448.284	31611.42
448.491	32451.09
448.697	33804.8
448.903	34556.4
449.11	34279.92
449.316	34261.49
449.522	34863.6
449.728	35549.67
449.935	35629.54
450.141	35467.75
450.347	36624.85
450.553	35551.71
450.76	35617.25
450.966	37179.85
451.172	36583.89
451.378	37460.42
451.584	36809.17
451.791	37450.18
451.997	37382.6
452.203	38066.62
452.409	37910.97
452.615	38007.23
452.821	36469.2
453.027	36358.61
453.233	38201.79
453.44	36405.72
453.646	37059.02
453.852	36917.71
454.058	37507.52
454.264	36442.58
454.47	37579.2
454.676	36458.96
454.882	37317.06
455.088	34513.39
455.294	34982.38
455.5	35103.21
455.705	35914.2
455.911	34314.74
456.117	33565.18
456.323	33049.1
456.529	31455.78
456.735	32647.69
456.941	31744.54
457.147	31683.1
457.352	30509.61
457.558	30116.4
457.764	30374.45
457.97	29452.86
458.176	29106.76
458.381	28992.07
458.587	27658.84
458.793	27515.48
458.999	26194.54
459.204	27914.84
459.41	27343.45
459.616	25326.21
459.821	25639.54
460.027	24990.34
460.233	24887.94
460.438	23704.21
460.644	24107.66
460.85	22495.91
461.055	22397.61
461.261	22487.72
461.466	20738.76
461.672	20138.7
461.878	21455.54
462.083	20273.87
462.289	19610.32
462.494	19686.1
462.7	18578.15
462.905	18137.84
463.111	18940.64
463.316	18883.3
463.522	18371.3
463.727	18658.02
463.932	18557.67
464.138	18268.91
464.343	18410.22
464.549	17806.06
464.754	18582.24
464.959	18238.19
465.165	18113.26
465.37	17341.18
465.575	17113.85
465.781	17419
465.986	17754.87
466.191	16974.59
466.397	16755.46
466.602	15749.9
466.807	16370.44
467.012	16515.84
467.218	16392.97
467.423	16392.97
467.628	16356.1
467.833	17095.42
468.038	16255.75
