Data from USB4F104151__51__11-37-15-182.txt Node

Date: Fri Mar 14 11:37:15 EDT 2025
User: louis
Spectrometer: USB4F10415
Trigger mode: 4
Integration Time (sec): 2.000000E-2
Scans to average: 1
Electric dark correction enabled: true
Nonlinearity correction enabled: false
Boxcar width: 0
XAxis mode: Wavelengths
Number of Pixels in Spectrum: 3648
>>>>>Begin Spectral Data<<<<<
178.204	-57.51
178.424	-57.51
178.644	-57.51
178.864	-73.9
179.084	-63.66
179.304	16.21
179.524	18.26
179.744	1.88
179.964	8.02
180.184	10.07
180.404	44.88
180.624	-32.94
180.844	-59.56
181.064	-98.47
181.283	18.26
181.503	-0.17
181.723	73.56
181.943	-82.09
182.163	65.36
182.383	-6.31
182.602	12.12
182.822	55.12
183.042	-12.46
183.262	-43.18
183.482	18.26
183.701	12.12
183.921	-59.56
184.141	-12.46
184.361	-2.22
184.58	20.31
184.8	34.64
185.02	28.5
185.239	26.45
185.459	-14.51
185.679	63.32
185.898	53.08
186.118	16.21
186.338	57.17
186.557	42.84
186.777	38.74
186.997	20.31
187.216	-32.94
187.436	10.07
187.655	73.56
187.875	116.56
188.095	8.02
188.314	87.89
188.534	83.8
188.753	5.97
188.973	38.74
189.192	63.32
189.412	14.17
189.631	-18.6
189.851	-6.31
190.07	12.12
190.29	36.69
190.509	-14.51
190.729	5.97
190.948	46.93
191.168	114.52
191.387	55.12
191.607	14.17
191.826	16.21
192.045	42.84
192.265	20.31
192.484	34.64
192.704	-37.03
192.923	-2.22
193.142	1.88
193.362	28.5
193.581	10.07
193.8	-16.55
194.02	-53.42
194.239	-18.6
194.458	16.21
194.678	-63.66
194.897	89.94
195.116	20.31
195.335	8.02
195.555	1.88
195.774	69.46
195.993	-43.18
196.212	55.12
196.432	1.88
196.651	-69.8
196.87	18.26
197.089	36.69
197.308	26.45
197.528	34.64
197.747	40.79
197.966	16.21
198.185	106.32
198.404	14.17
198.623	5.97
198.842	40.79
199.062	10.07
199.281	59.22
199.5	8.02
199.719	26.45
199.938	34.64
200.157	81.75
200.376	-37.03
200.595	40.79
200.814	-2.22
201.033	-28.84
201.252	57.17
201.471	-28.84
201.69	24.4
201.909	87.89
202.128	16.21
202.347	67.41
202.566	1.88
202.785	5.97
203.004	-45.23
203.223	28.5
203.442	63.32
203.661	34.64
203.879	57.17
204.098	-10.41
204.317	18.26
204.536	79.7
204.755	87.89
204.974	-24.75
205.193	-51.37
205.411	51.03
205.63	83.8
205.849	26.45
206.068	18.26
206.287	63.32
206.505	8.02
206.724	59.22
206.943	24.4
207.162	38.74
207.381	48.98
207.599	10.07
207.818	46.93
208.037	34.64
208.255	5.97
208.474	67.41
208.693	44.88
208.911	28.5
209.13	40.79
209.349	36.69
209.567	22.36
209.786	16.21
210.005	24.4
210.223	42.84
210.442	14.17
210.661	34.64
210.879	24.4
211.098	28.5
211.316	8.02
211.535	40.79
211.753	40.79
211.972	36.69
212.191	-8.36
212.409	118.61
212.628	1.88
212.846	-55.47
213.065	55.12
213.283	57.17
213.502	-39.08
213.72	65.36
213.938	63.32
214.157	-34.99
214.375	75.6
214.594	-22.7
214.812	38.74
215.031	-0.17
215.249	14.17
215.467	79.7
215.686	-2.22
215.904	73.56
216.122	42.84
216.341	55.12
216.559	63.32
216.778	24.4
216.996	38.74
217.214	12.12
217.432	22.36
217.651	-20.65
217.869	-75.95
218.087	16.21
218.306	46.93
218.524	8.02
218.742	5.97
218.96	53.08
219.179	-39.08
219.397	3.93
219.615	16.21
219.833	67.41
220.051	-4.27
220.27	42.84
220.488	36.69
220.706	-10.41
220.924	-24.75
221.142	-8.36
221.36	30.55
221.578	18.26
221.796	14.17
222.015	18.26
222.233	40.79
222.451	91.99
222.669	55.12
222.887	-14.51
223.105	34.64
223.323	14.17
223.541	-39.08
223.759	22.36
223.977	57.17
224.195	18.26
224.413	83.8
224.631	-22.7
224.849	12.12
225.067	51.03
225.285	-34.99
225.503	30.55
225.721	14.17
225.939	18.26
226.157	83.8
226.375	102.23
226.592	26.45
226.81	20.31
227.028	14.17
227.246	24.4
227.464	3.93
227.682	-10.41
227.9	46.93
228.117	-14.51
228.335	44.88
228.553	36.69
228.771	18.26
228.989	67.41
229.206	75.6
229.424	3.93
229.642	46.93
229.86	-18.6
230.077	91.99
230.295	8.02
230.513	69.46
230.731	46.93
230.948	67.41
231.166	40.79
231.384	-8.36
231.601	59.22
231.819	81.75
232.037	24.4
232.254	16.21
232.472	42.84
232.689	-10.41
232.907	-12.46
233.125	-18.6
233.342	59.22
233.56	8.02
233.777	-34.99
233.995	20.31
234.213	71.51
234.43	1.88
234.648	-59.56
234.865	-22.7
235.083	40.79
235.3	-47.27
235.518	73.56
235.735	-14.51
235.953	20.31
236.17	5.97
236.388	36.69
236.605	42.84
236.822	59.22
237.04	77.65
237.257	-39.08
237.475	63.32
237.692	24.4
237.909	-14.51
238.127	-0.17
238.344	65.36
238.562	-6.31
238.779	8.02
238.996	14.17
239.214	83.8
239.431	-37.03
239.648	18.26
239.865	46.93
240.083	10.07
240.3	10.07
240.517	22.36
240.735	38.74
240.952	34.64
241.169	87.89
241.386	77.65
241.603	40.79
241.821	-2.22
242.038	71.51
242.255	8.02
242.472	12.12
242.689	53.08
242.907	14.17
243.124	20.31
243.341	34.64
243.558	18.26
243.775	10.07
243.992	18.26
244.209	-22.7
244.426	67.41
244.643	71.51
244.86	-16.55
245.078	5.97
245.295	10.07
245.512	67.41
245.729	-8.36
245.946	-10.41
246.163	-10.41
246.38	32.6
246.597	34.64
246.814	-51.37
247.031	30.55
247.248	-8.36
247.464	59.22
247.681	1.88
247.898	1.88
248.115	30.55
248.332	16.21
248.549	75.6
248.766	30.55
248.983	-51.37
249.2	38.74
249.417	32.6
249.633	-14.51
249.85	73.56
250.067	10.07
250.284	20.31
250.501	14.17
250.717	42.84
250.934	-37.03
251.151	40.79
251.368	16.21
251.585	-34.99
251.801	30.55
252.018	36.69
252.235	51.03
252.451	-6.31
252.668	20.31
252.885	69.46
253.102	3.93
253.318	55.12
253.535	46.93
253.752	26.45
253.968	36.69
254.185	26.45
254.401	132.95
254.618	-0.17
254.835	38.74
255.051	-4.27
255.268	24.4
255.484	18.26
255.701	18.26
255.917	18.26
256.134	-6.31
256.351	44.88
256.567	-4.27
256.784	32.6
257	73.56
257.217	73.56
257.433	-10.41
257.65	51.03
257.866	79.7
258.082	-32.94
258.299	42.84
258.515	-12.46
258.732	28.5
258.948	1.88
259.165	57.17
259.381	-32.94
259.597	69.46
259.814	18.26
260.03	-10.41
260.246	18.26
260.463	-30.89
260.679	73.56
260.895	-51.37
261.112	51.03
261.328	-41.13
261.544	55.12
261.761	40.79
261.977	-37.03
262.193	8.02
262.409	12.12
262.626	-8.36
262.842	-34.99
263.058	10.07
263.274	3.93
263.49	30.55
263.707	46.93
263.923	-26.79
264.139	-47.27
264.355	36.69
264.571	20.31
264.787	-45.23
265.004	118.61
265.22	-4.27
265.436	-24.75
265.652	28.5
265.868	83.8
266.084	12.12
266.3	67.41
266.516	-30.89
266.732	24.4
266.948	34.64
267.164	48.98
267.38	57.17
267.596	91.99
267.812	30.55
268.028	40.79
268.244	-55.47
268.46	3.93
268.676	-49.32
268.892	36.69
269.108	-34.99
269.324	-6.31
269.54	20.31
269.756	55.12
269.972	26.45
270.188	12.12
270.403	-47.27
270.619	16.21
270.835	-14.51
271.051	53.08
271.267	18.26
271.483	-8.36
271.698	46.93
271.914	-8.36
272.13	5.97
272.346	40.79
272.562	20.31
272.777	130.9
272.993	91.99
273.209	42.84
273.425	65.36
273.64	-16.55
273.856	61.27
274.072	22.36
274.287	-55.47
274.503	16.21
274.719	91.99
274.934	-14.51
275.15	-39.08
275.366	51.03
275.581	10.07
275.797	-10.41
276.012	96.08
276.228	51.03
276.444	10.07
276.659	32.6
276.875	71.51
277.09	57.17
277.306	-2.22
277.521	1.88
277.737	16.21
277.952	108.37
278.168	55.12
278.383	38.74
278.599	30.55
278.814	-12.46
279.03	-6.31
279.245	69.46
279.461	-67.75
279.676	65.36
279.892	-0.17
280.107	96.08
280.322	59.22
280.538	42.84
280.753	46.93
280.969	46.93
281.184	20.31
281.399	10.07
281.615	18.26
281.83	67.41
282.045	34.64
282.26	26.45
282.476	14.17
282.691	57.17
282.906	18.26
283.122	40.79
283.337	3.93
283.552	44.88
283.767	69.46
283.983	132.95
284.198	10.07
284.413	79.7
284.628	77.65
284.843	-6.31
285.058	10.07
285.274	-14.51
285.489	-18.6
285.704	51.03
285.919	30.55
286.134	20.31
286.349	44.88
286.564	81.75
286.779	77.65
286.995	-28.84
287.21	59.22
287.425	69.46
287.64	-22.7
287.855	10.07
288.07	63.32
288.285	75.6
288.5	3.93
288.715	-4.27
288.93	67.41
289.145	-12.46
289.36	12.12
289.575	-30.89
289.79	-2.22
290.004	-0.17
290.219	30.55
290.434	40.79
290.649	-18.6
290.864	38.74
291.079	-8.36
291.294	79.7
291.509	-43.18
291.724	24.4
291.938	24.4
292.153	-37.03
292.368	26.45
292.583	28.5
292.798	26.45
293.012	51.03
293.227	75.6
293.442	46.93
293.657	46.93
293.871	59.22
294.086	-4.27
294.301	38.74
294.516	3.93
294.73	16.21
294.945	-2.22
295.16	-20.65
295.374	-41.13
295.589	36.69
295.804	22.36
296.018	18.26
296.233	48.98
296.447	36.69
296.662	-22.7
296.877	18.26
297.091	28.5
297.306	34.64
297.52	48.98
297.735	51.03
297.949	130.9
298.164	102.23
298.378	16.21
298.593	22.36
298.807	24.4
299.022	55.12
299.236	61.27
299.451	8.02
299.665	26.45
299.88	89.94
300.094	3.93
300.309	57.17
300.523	48.98
300.737	-0.17
300.952	18.26
301.166	-22.7
301.381	-37.03
301.595	-37.03
301.809	26.45
302.024	85.84
302.238	-0.17
302.452	26.45
302.667	32.6
302.881	96.08
303.095	59.22
303.309	118.61
303.524	-26.79
303.738	51.03
303.952	46.93
304.166	14.17
304.381	51.03
304.595	12.12
304.809	20.31
305.023	34.64
305.237	-41.13
305.452	12.12
305.666	-26.79
305.88	55.12
306.094	10.07
306.308	81.75
306.522	81.75
306.736	71.51
306.95	122.71
307.164	-2.22
307.379	10.07
307.593	75.6
307.807	57.17
308.021	44.88
308.235	1.88
308.449	32.6
308.663	30.55
308.877	89.94
309.091	73.56
309.305	10.07
309.519	8.02
309.733	73.56
309.947	-12.46
310.161	10.07
310.374	40.79
310.588	18.26
310.802	-20.65
311.016	-26.79
311.23	42.84
311.444	-14.51
311.658	-4.27
311.872	1.88
312.085	-10.41
312.299	18.26
312.513	67.41
312.727	-26.79
312.941	-4.27
313.154	-16.55
313.368	16.21
313.582	8.02
313.796	-10.41
314.009	14.17
314.223	96.08
314.437	42.84
314.651	55.12
314.864	28.5
315.078	-51.37
315.292	-8.36
315.505	-28.84
315.719	40.79
315.933	57.17
316.146	67.41
316.36	-34.99
316.573	57.17
316.787	87.89
317.001	96.08
317.214	100.18
317.428	57.17
317.641	59.22
317.855	28.5
318.068	-22.7
318.282	-6.31
318.495	94.04
318.709	55.12
318.922	63.32
319.136	73.56
319.349	65.36
319.563	40.79
319.776	22.36
319.99	5.97
320.203	100.18
320.417	30.55
320.63	5.97
320.843	16.21
321.057	30.55
321.27	100.18
321.483	75.6
321.697	-2.22
321.91	36.69
322.124	57.17
322.337	38.74
322.55	16.21
322.763	38.74
322.977	53.08
323.19	-41.13
323.403	5.97
323.617	22.36
323.83	3.93
324.043	1.88
324.256	94.04
324.469	59.22
324.683	36.69
324.896	-10.41
325.109	83.8
325.322	1.88
325.535	139.09
325.748	83.8
325.962	44.88
326.175	-8.36
326.388	1.88
326.601	22.36
326.814	46.93
327.027	87.89
327.24	44.88
327.453	32.6
327.666	53.08
327.879	34.64
328.092	14.17
328.305	-0.17
328.518	-24.75
328.731	18.26
328.944	67.41
329.157	65.36
329.37	-10.41
329.583	-41.13
329.796	53.08
330.009	67.41
330.222	-8.36
330.435	10.07
330.648	24.4
330.861	40.79
331.073	-4.27
331.286	38.74
331.499	71.51
331.712	-8.36
331.925	59.22
332.138	51.03
332.35	61.27
332.563	10.07
332.776	46.93
332.989	14.17
333.202	-16.55
333.414	40.79
333.627	3.93
333.84	30.55
334.053	26.45
334.265	59.22
334.478	12.12
334.691	14.17
334.903	-6.31
335.116	-14.51
335.329	-8.36
335.541	8.02
335.754	32.6
335.966	30.55
336.179	59.22
336.392	51.03
336.604	63.32
336.817	100.18
337.029	100.18
337.242	-16.55
337.454	34.64
337.667	22.36
337.88	91.99
338.092	57.17
338.305	-22.7
338.517	26.45
338.729	55.12
338.942	32.6
339.154	-14.51
339.367	16.21
339.579	77.65
339.792	-30.89
340.004	81.75
340.217	-6.31
340.429	34.64
340.641	61.27
340.854	40.79
341.066	38.74
341.278	79.7
341.491	26.45
341.703	-51.37
341.915	28.5
342.128	135
342.34	-114.86
342.552	38.74
342.764	10.07
342.977	55.12
343.189	87.89
343.401	30.55
343.613	38.74
343.826	53.08
344.038	38.74
344.25	14.17
344.462	67.41
344.674	79.7
344.886	36.69
345.099	51.03
345.311	-24.75
345.523	-14.51
345.735	34.64
345.947	57.17
346.159	-0.17
346.371	28.5
346.583	-28.84
346.795	100.18
347.007	22.36
347.219	-51.37
347.431	-8.36
347.643	130.9
347.855	73.56
348.067	83.8
348.279	42.84
348.491	63.32
348.703	57.17
348.915	34.64
349.127	-2.22
349.339	-18.6
349.551	20.31
349.763	46.93
349.975	3.93
350.187	40.79
350.399	57.17
350.61	79.7
350.822	38.74
351.034	124.76
351.246	34.64
351.458	79.7
351.669	18.26
351.881	26.45
352.093	67.41
352.305	143.19
352.517	28.5
352.728	77.65
352.94	63.32
353.152	34.64
353.363	63.32
353.575	75.6
353.787	18.26
353.999	71.51
354.21	63.32
354.422	-41.13
354.633	24.4
354.845	53.08
355.057	40.79
355.268	55.12
355.48	28.5
355.692	-47.27
355.903	-10.41
356.115	38.74
356.326	-14.51
356.538	75.6
356.749	57.17
356.961	38.74
357.172	26.45
357.384	3.93
357.595	59.22
357.807	-24.75
358.018	30.55
358.23	8.02
358.441	59.22
358.653	12.12
358.864	-14.51
359.075	-10.41
359.287	57.17
359.498	96.08
359.709	106.32
359.921	8.02
360.132	67.41
360.344	-39.08
360.555	16.21
360.766	118.61
360.977	1.88
361.189	53.08
361.4	8.02
361.611	59.22
361.823	73.56
362.034	71.51
362.245	22.36
362.456	26.45
362.667	-8.36
362.879	81.75
363.09	20.31
363.301	71.51
363.512	38.74
363.723	32.6
363.935	30.55
364.146	46.93
364.357	57.17
364.568	73.56
364.779	-16.55
364.99	85.84
365.201	-14.51
365.412	16.21
365.623	8.02
365.834	-10.41
366.045	114.52
366.256	-16.55
366.467	87.89
366.678	75.6
366.889	26.45
367.1	71.51
367.311	38.74
367.522	98.13
367.733	34.64
367.944	-0.17
368.155	32.6
368.366	108.37
368.577	40.79
368.788	77.65
368.999	42.84
369.209	-12.46
369.42	26.45
369.631	61.27
369.842	20.31
370.053	38.74
370.264	83.8
370.474	-14.51
370.685	42.84
370.896	46.93
371.107	-0.17
371.317	16.21
371.528	118.61
371.739	8.02
371.95	51.03
372.16	73.56
372.371	79.7
372.582	28.5
372.792	14.17
373.003	51.03
373.214	24.4
373.424	-0.17
373.635	53.08
373.846	51.03
374.056	-32.94
374.267	24.4
374.477	18.26
374.688	38.74
374.898	46.93
375.109	116.56
375.319	38.74
375.53	120.66
375.74	87.89
375.951	69.46
376.161	-2.22
376.372	79.7
376.582	8.02
376.793	79.7
377.003	16.21
377.214	73.56
377.424	14.17
377.635	38.74
377.845	38.74
378.055	75.6
378.266	-22.7
378.476	40.79
378.686	42.84
378.897	89.94
379.107	32.6
379.317	71.51
379.528	1.88
379.738	30.55
379.948	73.56
380.158	42.84
380.369	69.46
380.579	24.4
380.789	26.45
380.999	100.18
381.21	42.84
381.42	51.03
381.63	10.07
381.84	106.32
382.05	3.93
382.261	137.04
382.471	32.6
382.681	73.56
382.891	26.45
383.101	-14.51
383.311	-18.6
383.521	-2.22
383.731	44.88
383.941	83.8
384.151	-2.22
384.361	26.45
384.571	51.03
384.781	-8.36
384.991	104.28
385.201	102.23
385.411	63.32
385.621	112.47
385.831	-55.47
386.041	-43.18
386.251	79.7
386.461	94.04
386.671	34.64
386.881	53.08
387.091	-26.79
387.301	67.41
387.511	-73.9
387.72	1.88
387.93	5.97
388.14	16.21
388.35	14.17
388.56	65.36
388.769	79.7
388.979	59.22
389.189	32.6
389.399	67.41
389.609	55.12
389.818	26.45
390.028	30.55
390.238	18.26
390.447	18.26
390.657	130.9
390.867	36.69
391.076	14.17
391.286	51.03
391.496	75.6
391.705	30.55
391.915	128.85
392.125	38.74
392.334	46.93
392.544	-0.17
392.753	87.89
392.963	73.56
393.172	87.89
393.382	42.84
393.591	67.41
393.801	51.03
394.01	159.57
394.22	100.18
394.429	59.22
394.639	57.17
394.848	14.17
395.058	110.42
395.267	16.21
395.477	61.27
395.686	81.75
395.895	165.71
396.105	12.12
396.314	53.08
396.524	20.31
396.733	96.08
396.942	85.84
397.152	38.74
397.361	63.32
397.57	18.26
397.78	14.17
397.989	122.71
398.198	96.08
398.407	36.69
398.617	120.66
398.826	110.42
399.035	-24.75
399.244	48.98
399.453	55.12
399.663	5.97
399.872	169.81
400.081	30.55
400.29	157.52
400.499	55.12
400.708	116.56
400.917	112.47
401.127	167.76
401.336	57.17
401.545	124.76
401.754	114.52
401.963	100.18
402.172	96.08
402.381	198.48
402.59	75.6
402.799	81.75
403.008	32.6
403.217	141.14
403.426	124.76
403.635	51.03
403.844	190.29
404.053	59.22
404.262	42.84
404.471	128.85
404.68	77.65
404.888	126.8
405.097	106.32
405.306	132.95
405.515	104.28
405.724	73.56
405.933	94.04
406.142	212.82
406.35	163.67
406.559	116.56
406.768	182.1
406.977	145.24
407.185	141.14
407.394	153.43
407.603	149.33
407.812	171.86
408.02	264.02
408.229	218.96
408.438	110.42
408.646	202.58
408.855	270.16
409.064	239.44
409.272	188.24
409.481	225.11
409.69	239.44
409.898	204.63
410.107	268.11
410.315	270.16
410.524	270.16
410.733	272.21
410.941	268.11
411.15	292.69
411.358	382.8
411.567	358.22
411.775	343.89
411.984	399.18
412.192	356.18
412.401	341.84
412.609	448.33
412.818	360.27
413.026	407.38
413.234	419.66
413.443	421.71
413.651	460.62
413.86	468.81
414.068	542.54
414.276	558.92
414.485	485.2
414.693	526.16
414.901	575.31
415.11	542.54
415.318	585.55
415.526	528.21
415.734	571.21
415.943	651.08
416.151	655.18
416.359	665.42
416.567	739.15
416.776	810.82
416.984	808.78
417.192	821.06
417.4	833.35
417.608	733
417.817	851.78
418.025	923.46
418.233	939.85
418.441	980.81
418.649	927.56
418.857	1046.34
419.065	1093.44
419.273	1062.73
419.481	1136.45
419.689	1206.08
419.897	1206.08
420.105	1322.82
420.313	1136.45
420.521	1339.2
420.729	1392.45
420.937	1394.5
421.145	1466.17
421.353	1560.38
421.561	1582.91
421.769	1699.64
421.977	1654.59
422.185	1621.82
422.393	1713.98
422.601	1804.09
422.809	1847.1
423.017	1820.47
423.224	1949.5
423.432	2123.57
423.64	2000.69
423.848	2238.26
424.056	2176.82
424.263	2359.09
424.471	2412.34
424.679	2416.43
424.887	2561.84
425.094	2688.81
425.302	2518.83
425.51	2658.09
425.718	2811.69
425.925	2907.94
426.133	3004.2
426.341	3077.93
426.548	3229.48
426.756	3241.76
426.964	3262.24
427.171	3456.8
427.379	3540.77
427.586	3551.01
427.794	3682.08
428.001	3948.31
428.209	4214.55
428.417	3870.49
428.624	4185.88
428.832	4255.51
429.039	4243.22
429.247	4333.33
429.454	4650.77
429.662	4998.92
429.869	4712.21
430.076	5029.64
430.284	4663.05
430.491	5148.42
430.699	5326.6
430.906	5259.01
431.114	5418.75
431.321	5684.99
431.528	5680.89
431.736	6113.02
431.943	6481.65
432.15	6303.48
432.358	6246.13
432.565	6600.43
432.772	6528.75
432.979	6924.01
433.187	7100.14
433.394	6967.02
433.601	7626.46
433.808	7722.72
434.016	7628.51
434.223	7915.23
434.43	8351.45
434.637	8185.56
434.844	8713.94
435.052	9021.13
435.259	8781.52
435.466	8918.73
435.673	8894.16
435.88	9395.91
436.087	9840.32
436.294	10014.4
436.501	9676.48
436.708	9789.12
436.915	10063.55
437.122	10598.07
437.329	10600.12
437.537	10942.13
437.743	11173.55
437.95	11011.76
438.157	11538.09
438.364	11976.35
438.571	11996.83
438.778	12068.51
438.985	13053.58
439.192	12535.45
439.399	13125.26
439.606	12713.62
439.813	13352.59
440.02	14423.67
440.227	14003.84
440.433	13960.83
440.64	14390.91
440.847	14151.29
441.054	14702.2
441.261	15855.2
441.467	15433.32
441.674	15543.91
441.881	16186.97
442.088	15937.12
442.294	15914.59
442.501	16490.07
442.708	16893.52
442.914	17462.86
443.121	18124.35
443.328	17839.69
443.534	19029.55
443.741	18429.5
443.948	18232.9
444.154	19539.5
444.361	19521.07
444.568	19654.19
444.774	19377.71
444.981	19949.09
445.187	20266.53
445.394	21356.05
445.6	20674.07
445.807	23154.16
446.013	21906.95
446.22	22253.06
446.426	23148.02
446.633	23461.36
446.839	24305.12
447.046	23076.34
447.252	24628.7
447.459	25034.2
447.665	24356.32
447.871	25591.25
448.078	26631.61
448.284	25388.5
448.491	26203.59
448.697	26951.1
448.903	27565.49
449.11	27530.67
449.316	27362.74
449.522	27659.7
449.728	28034.47
449.935	28562.85
450.141	28562.85
450.347	29398.42
450.553	28372.39
450.76	28677.54
450.966	29515.15
451.172	29451.67
451.378	30137.74
451.584	29439.38
451.791	30027.15
451.997	30348.68
452.203	30582.15
452.409	30580.1
452.615	30307.72
452.821	28884.38
453.027	28822.94
453.233	30608.77
453.44	29271.45
453.646	29670.8
453.852	30178.7
454.058	30051.72
454.264	29310.36
454.47	29771.15
454.676	29146.52
454.882	30059.91
455.088	27458.99
455.294	27973.03
455.5	28329.38
455.705	28687.78
455.911	27258.29
456.117	26963.39
456.323	26551.74
456.529	25089.49
456.735	26430.91
456.941	25683.41
457.147	25048.54
457.352	24376.8
457.558	24237.54
457.764	24366.56
457.97	23791.08
458.176	23258.61
458.381	23150.07
458.587	21962.25
458.793	21884.42
458.999	20758.04
459.204	22482.43
459.41	21868.04
459.616	20192.8
459.821	20260.38
460.027	20475.42
460.233	19961.38
460.438	18869.81
460.644	19242.54
460.85	18521.66
461.055	18060.87
461.261	18058.82
461.466	16877.14
461.672	16029.28
461.878	17342.03
462.083	16197.21
462.289	16100.96
462.494	15494.76
462.7	14954.1
462.905	14521.98
463.111	14835.31
463.316	15064.69
463.522	14984.82
463.727	14857.84
463.932	14745.2
464.138	14591.61
464.343	14702.2
464.549	14132.86
464.754	14675.57
464.959	14745.2
465.165	14446.2
465.37	13733.51
465.575	13526.66
465.781	14134.91
465.986	14102.14
466.191	13592.2
466.397	13358.73
466.602	12846.74
466.807	13092.49
467.012	13188.75
467.218	13086.35
467.423	12889.74
467.628	13104.78
467.833	13723.27
468.038	13123.21
