Data from USB4F104151__30__11-36-44-363.txt Node

Date: Fri Mar 14 11:36:44 EDT 2025
User: louis
Spectrometer: USB4F10415
Trigger mode: 4
Integration Time (sec): 2.000000E-2
Scans to average: 1
Electric dark correction enabled: true
Nonlinearity correction enabled: false
Boxcar width: 0
XAxis mode: Wavelengths
Number of Pixels in Spectrum: 3648
>>>>>Begin Spectral Data<<<<<
178.204	-96.25
178.424	-96.25
178.644	-96.25
178.864	-151.55
179.084	-157.69
179.304	-47.1
179.524	-14.34
179.744	-63.49
179.964	43.01
180.184	16.38
180.404	-16.38
180.624	6.14
180.844	-8.19
181.064	-22.53
181.283	36.86
181.503	51.2
181.723	18.43
181.943	-86.01
182.163	57.34
182.383	-69.63
182.602	12.29
182.822	0
183.042	32.77
183.262	-67.58
183.482	-45.06
183.701	-32.77
183.921	-14.34
184.141	57.34
184.361	65.54
184.58	-86.01
184.8	12.29
185.02	12.29
185.239	106.49
185.459	26.62
185.679	57.34
185.898	20.48
186.118	-8.19
186.338	-75.77
186.557	-102.4
186.777	-10.24
186.997	51.2
187.216	-14.34
187.436	-8.19
187.655	-36.86
187.875	0
188.095	-49.15
188.314	-36.86
188.534	-36.86
188.753	8.19
188.973	2.05
189.192	-45.06
189.412	-43.01
189.631	45.06
189.851	38.91
190.07	36.86
190.29	14.34
190.509	8.19
190.729	-57.34
190.948	67.58
191.168	36.86
191.387	26.62
191.607	-96.25
191.826	24.58
192.045	-28.67
192.265	28.67
192.484	-28.67
192.704	-71.68
192.923	-24.58
193.142	32.77
193.362	-61.44
193.581	36.86
193.8	-45.06
194.02	-10.24
194.239	-34.82
194.458	22.53
194.678	-49.15
194.897	20.48
195.116	-2.05
195.335	34.82
195.555	59.39
195.774	-90.11
195.993	47.1
196.212	8.19
196.432	-30.72
196.651	28.67
196.87	-2.05
197.089	12.29
197.308	-32.77
197.528	-2.05
197.747	-4.1
197.966	-38.91
198.185	-6.14
198.404	-6.14
198.623	-55.3
198.842	30.72
199.062	24.58
199.281	124.93
199.5	-61.44
199.719	30.72
199.938	32.77
200.157	-43.01
200.376	6.14
200.595	96.25
200.814	-14.34
201.033	12.29
201.252	-18.43
201.471	-24.58
201.69	61.44
201.909	-30.72
202.128	-16.38
202.347	0
202.566	43.01
202.785	14.34
203.004	-10.24
203.223	40.96
203.442	4.1
203.661	-30.72
203.879	-6.14
204.098	-20.48
204.317	-40.96
204.536	-34.82
204.755	8.19
204.974	40.96
205.193	12.29
205.411	65.54
205.63	0
205.849	8.19
206.068	-16.38
206.287	-20.48
206.505	0
206.724	24.58
206.943	49.15
207.162	-10.24
207.381	36.86
207.599	-45.06
207.818	38.91
208.037	-32.77
208.255	32.77
208.474	43.01
208.693	77.82
208.911	67.58
209.13	-2.05
209.349	34.82
209.567	90.11
209.786	-28.67
210.005	12.29
210.223	-10.24
210.442	-57.34
210.661	-24.58
210.879	-26.62
211.098	2.05
211.316	26.62
211.535	51.2
211.753	-32.77
211.972	-47.1
212.191	-26.62
212.409	-26.62
212.628	43.01
212.846	24.58
213.065	94.21
213.283	57.34
213.502	36.86
213.72	12.29
213.938	34.82
214.157	16.38
214.375	-8.19
214.594	45.06
214.812	-14.34
215.031	47.1
215.249	-65.54
215.467	65.54
215.686	-2.05
215.904	0
216.122	-4.1
216.341	53.25
216.559	-24.58
216.778	22.53
216.996	-2.05
217.214	2.05
217.432	28.67
217.651	-34.82
217.869	67.58
218.087	-55.3
218.306	-18.43
218.524	61.44
218.742	-38.91
218.96	-20.48
219.179	-55.3
219.397	-55.3
219.615	59.39
219.833	34.82
220.051	61.44
220.27	53.25
220.488	-16.38
220.706	0
220.924	18.43
221.142	-24.58
221.36	-28.67
221.578	43.01
221.796	-38.91
222.015	24.58
222.233	-77.82
222.451	-8.19
222.669	61.44
222.887	10.24
223.105	-12.29
223.323	-28.67
223.541	-26.62
223.759	67.58
223.977	-6.14
224.195	-24.58
224.413	-22.53
224.631	0
224.849	4.1
225.067	-24.58
225.285	-49.15
225.503	30.72
225.721	-110.59
225.939	-36.86
226.157	12.29
226.375	51.2
226.592	-12.29
226.81	-38.91
227.028	104.45
227.246	-6.14
227.464	-65.54
227.682	-34.82
227.9	8.19
228.117	-45.06
228.335	-26.62
228.553	12.29
228.771	8.19
228.989	0
229.206	28.67
229.424	40.96
229.642	-8.19
229.86	-61.44
230.077	65.54
230.295	-53.25
230.513	20.48
230.731	2.05
230.948	110.59
231.166	-4.1
231.384	-43.01
231.601	-8.19
231.819	67.58
232.037	26.62
232.254	-8.19
232.472	71.68
232.689	-30.72
232.907	75.77
233.125	12.29
233.342	-38.91
233.56	-12.29
233.777	59.39
233.995	-26.62
234.213	73.73
234.43	-12.29
234.648	53.25
234.865	38.91
235.083	73.73
235.3	20.48
235.518	-18.43
235.735	45.06
235.953	24.58
236.17	-20.48
236.388	-55.3
236.605	32.77
236.822	10.24
237.04	51.2
237.257	47.1
237.475	-47.1
237.692	-14.34
237.909	-6.14
238.127	43.01
238.344	-16.38
238.562	-8.19
238.779	-49.15
238.996	-86.01
239.214	6.14
239.431	-38.91
239.648	6.14
239.865	20.48
240.083	4.1
240.3	-45.06
240.517	28.67
240.735	-12.29
240.952	49.15
241.169	49.15
241.386	12.29
241.603	73.73
241.821	10.24
242.038	18.43
242.255	-34.82
242.472	24.58
242.689	36.86
242.907	10.24
243.124	59.39
243.341	86.01
243.558	-24.58
243.775	-12.29
243.992	43.01
244.209	32.77
244.426	-26.62
244.643	2.05
244.86	24.58
245.078	-49.15
245.295	14.34
245.512	43.01
245.729	12.29
245.946	90.11
246.163	12.29
246.38	20.48
246.597	59.39
246.814	79.87
247.031	6.14
247.248	-8.19
247.464	0
247.681	-4.1
247.898	-86.01
248.115	-6.14
248.332	-40.96
248.549	51.2
248.766	24.58
248.983	12.29
249.2	4.1
249.417	18.43
249.633	32.77
249.85	14.34
250.067	-49.15
250.284	-30.72
250.501	-38.91
250.717	43.01
250.934	-43.01
251.151	10.24
251.368	-4.1
251.585	8.19
251.801	-4.1
252.018	18.43
252.235	45.06
252.451	-57.34
252.668	-40.96
252.885	-36.86
253.102	65.54
253.318	-38.91
253.535	-24.58
253.752	12.29
253.968	-30.72
254.185	-63.49
254.401	-4.1
254.618	-14.34
254.835	-83.97
255.051	36.86
255.268	-6.14
255.484	26.62
255.701	-14.34
255.917	-20.48
256.134	45.06
256.351	-45.06
256.567	-32.77
256.784	36.86
257	36.86
257.217	38.91
257.433	32.77
257.65	59.39
257.866	8.19
258.082	-24.58
258.299	-69.63
258.515	8.19
258.732	34.82
258.948	57.34
259.165	4.1
259.381	20.48
259.597	-22.53
259.814	16.38
260.03	-4.1
260.246	-40.96
260.463	65.54
260.679	-18.43
260.895	2.05
261.112	-32.77
261.328	32.77
261.544	24.58
261.761	133.12
261.977	32.77
262.193	-20.48
262.409	-28.67
262.626	14.34
262.842	-16.38
263.058	28.67
263.274	-43.01
263.49	77.82
263.707	-34.82
263.923	67.58
264.139	65.54
264.355	28.67
264.571	10.24
264.787	-8.19
265.004	47.1
265.22	-32.77
265.436	-2.05
265.652	20.48
265.868	92.16
266.084	14.34
266.3	38.91
266.516	20.48
266.732	4.1
266.948	-34.82
267.164	8.19
267.38	4.1
267.596	10.24
267.812	30.72
268.028	63.49
268.244	-26.62
268.46	24.58
268.676	12.29
268.892	14.34
269.108	-53.25
269.324	16.38
269.54	57.34
269.756	-73.73
269.972	-22.53
270.188	0
270.403	-86.01
270.619	-38.91
270.835	18.43
271.051	12.29
271.267	-38.91
271.483	-24.58
271.698	8.19
271.914	4.1
272.13	20.48
272.346	18.43
272.562	-57.34
272.777	-34.82
272.993	26.62
273.209	6.14
273.425	38.91
273.64	-55.3
273.856	57.34
274.072	-57.34
274.287	-36.86
274.503	6.14
274.719	34.82
274.934	-24.58
275.15	16.38
275.366	20.48
275.581	-16.38
275.797	-49.15
276.012	16.38
276.228	-49.15
276.444	4.1
276.659	71.68
276.875	-2.05
277.09	36.86
277.306	4.1
277.521	0
277.737	-24.58
277.952	10.24
278.168	-16.38
278.383	26.62
278.599	-69.63
278.814	32.77
279.03	73.73
279.245	51.2
279.461	-49.15
279.676	75.77
279.892	-8.19
280.107	-59.39
280.322	-45.06
280.538	36.86
280.753	-24.58
280.969	61.44
281.184	-8.19
281.399	18.43
281.615	-10.24
281.83	-47.1
282.045	-53.25
282.26	-32.77
282.476	-28.67
282.691	73.73
282.906	-16.38
283.122	36.86
283.337	32.77
283.552	-16.38
283.767	26.62
283.983	32.77
284.198	47.1
284.413	-30.72
284.628	-49.15
284.843	12.29
285.058	-38.91
285.274	-20.48
285.489	-14.34
285.704	55.3
285.919	-4.1
286.134	83.97
286.349	45.06
286.564	51.2
286.779	-12.29
286.995	63.49
287.21	-43.01
287.425	-79.87
287.64	-45.06
287.855	47.1
288.07	16.38
288.285	22.53
288.5	40.96
288.715	16.38
288.93	2.05
289.145	-4.1
289.36	-16.38
289.575	45.06
289.79	-16.38
290.004	12.29
290.219	-14.34
290.434	81.92
290.649	-43.01
290.864	57.34
291.079	-14.34
291.294	-106.49
291.509	-34.82
291.724	49.15
291.938	20.48
292.153	47.1
292.368	88.06
292.583	8.19
292.798	88.06
293.012	-24.58
293.227	45.06
293.442	22.53
293.657	-22.53
293.871	32.77
294.086	57.34
294.301	20.48
294.516	-43.01
294.73	-8.19
294.945	-53.25
295.16	57.34
295.374	24.58
295.589	-4.1
295.804	30.72
296.018	-22.53
296.233	20.48
296.447	-14.34
296.662	34.82
296.877	-4.1
297.091	-18.43
297.306	51.2
297.52	43.01
297.735	26.62
297.949	-16.38
298.164	-14.34
298.378	26.62
298.593	12.29
298.807	2.05
299.022	0
299.236	-30.72
299.451	-57.34
299.665	55.3
299.88	83.97
300.094	-22.53
300.309	-24.58
300.523	28.67
300.737	22.53
300.952	-59.39
301.166	49.15
301.381	-14.34
301.595	12.29
301.809	-14.34
302.024	67.58
302.238	8.19
302.452	57.34
302.667	47.1
302.881	20.48
303.095	20.48
303.309	-75.77
303.524	20.48
303.738	14.34
303.952	36.86
304.166	57.34
304.381	-38.91
304.595	26.62
304.809	-26.62
305.023	10.24
305.237	26.62
305.452	83.97
305.666	43.01
305.88	2.05
306.094	-8.19
306.308	30.72
306.522	-2.05
306.736	57.34
306.95	28.67
307.164	40.96
307.379	67.58
307.593	102.4
307.807	0
308.021	28.67
308.235	45.06
308.449	65.54
308.663	-6.14
308.877	81.92
309.091	-40.96
309.305	-47.1
309.519	-49.15
309.733	14.34
309.947	20.48
310.161	67.58
310.374	-34.82
310.588	4.1
310.802	-4.1
311.016	59.39
311.23	2.05
311.444	-61.44
311.658	18.43
311.872	18.43
312.085	65.54
312.299	-69.63
312.513	30.72
312.727	18.43
312.941	-10.24
313.154	92.16
313.368	2.05
313.582	30.72
313.796	59.39
314.009	12.29
314.223	36.86
314.437	32.77
314.651	36.86
314.864	28.67
315.078	-14.34
315.292	-36.86
315.505	75.77
315.719	-4.1
315.933	16.38
316.146	-4.1
316.36	16.38
316.573	14.34
316.787	26.62
317.001	-20.48
317.214	22.53
317.428	-4.1
317.641	-30.72
317.855	45.06
318.068	45.06
318.282	18.43
318.495	20.48
318.709	77.82
318.922	-38.91
319.136	36.86
319.349	12.29
319.563	63.49
319.776	114.69
319.99	36.86
320.203	77.82
320.417	-2.05
320.63	-28.67
320.843	10.24
321.057	26.62
321.27	14.34
321.483	-12.29
321.697	24.58
321.91	-49.15
322.124	45.06
322.337	-2.05
322.55	90.11
322.763	57.34
322.977	-71.68
323.19	6.14
323.403	-24.58
323.617	-18.43
323.83	22.53
324.043	-16.38
324.256	38.91
324.469	71.68
324.683	69.63
324.896	34.82
325.109	20.48
325.322	-16.38
325.535	-24.58
325.748	51.2
325.962	8.19
326.175	36.86
326.388	51.2
326.601	-6.14
326.814	-18.43
327.027	-28.67
327.24	20.48
327.453	8.19
327.666	-28.67
327.879	4.1
328.092	4.1
328.305	-4.1
328.518	-8.19
328.731	-4.1
328.944	-77.82
329.157	4.1
329.37	-4.1
329.583	55.3
329.796	67.58
330.009	55.3
330.222	118.78
330.435	24.58
330.648	-14.34
330.861	-38.91
331.073	-32.77
331.286	67.58
331.499	-6.14
331.712	14.34
331.925	10.24
332.138	-10.24
332.35	32.77
332.563	69.63
332.776	-14.34
332.989	77.82
333.202	14.34
333.414	12.29
333.627	-32.77
333.84	10.24
334.053	40.96
334.265	-40.96
334.478	14.34
334.691	12.29
334.903	-18.43
335.116	-65.54
335.329	0
335.541	-57.34
335.754	30.72
335.966	-22.53
336.179	0
336.392	36.86
336.604	61.44
336.817	26.62
337.029	-2.05
337.242	-12.29
337.454	-6.14
337.667	-38.91
337.88	59.39
338.092	16.38
338.305	26.62
338.517	4.1
338.729	43.01
338.942	67.58
339.154	-8.19
339.367	-65.54
339.579	61.44
339.792	28.67
340.004	61.44
340.217	0
340.429	8.19
340.641	-69.63
340.854	-47.1
341.066	-4.1
341.278	-47.1
341.491	-12.29
341.703	-24.58
341.915	-2.05
342.128	59.39
342.34	53.25
342.552	4.1
342.764	2.05
342.977	16.38
343.189	47.1
343.401	-6.14
343.613	-71.68
343.826	63.49
344.038	36.86
344.25	90.11
344.462	49.15
344.674	-2.05
344.886	-38.91
345.099	-16.38
345.311	-43.01
345.523	28.67
345.735	0
345.947	83.97
346.159	-18.43
346.371	-2.05
346.583	0
346.795	102.4
347.007	14.34
347.219	-28.67
347.431	69.63
347.643	20.48
347.855	51.2
348.067	71.68
348.279	-14.34
348.491	57.34
348.703	36.86
348.915	-38.91
349.127	12.29
349.339	30.72
349.551	18.43
349.763	34.82
349.975	28.67
350.187	22.53
350.399	-8.19
350.61	-55.3
350.822	-34.82
351.034	45.06
351.246	2.05
351.458	43.01
351.669	16.38
351.881	-38.91
352.093	30.72
352.305	28.67
352.517	102.4
352.728	45.06
352.94	-18.43
353.152	-12.29
353.363	-69.63
353.575	26.62
353.787	98.3
353.999	36.86
354.21	47.1
354.422	-40.96
354.633	-2.05
354.845	-88.06
355.057	-28.67
355.268	-53.25
355.48	-14.34
355.692	24.58
355.903	6.14
356.115	4.1
356.326	4.1
356.538	116.73
356.749	8.19
356.961	34.82
357.172	28.67
357.384	61.44
357.595	47.1
357.807	8.19
358.018	8.19
358.23	40.96
358.441	53.25
358.653	53.25
358.864	-16.38
359.075	57.34
359.287	104.45
359.498	49.15
359.709	-8.19
359.921	12.29
360.132	43.01
360.344	18.43
360.555	45.06
360.766	40.96
360.977	16.38
361.189	18.43
361.4	-4.1
361.611	34.82
361.823	0
362.034	28.67
362.245	-26.62
362.456	67.58
362.667	100.35
362.879	-73.73
363.09	-12.29
363.301	8.19
363.512	45.06
363.723	-8.19
363.935	34.82
364.146	77.82
364.357	24.58
364.568	26.62
364.779	-20.48
364.99	86.01
365.201	-14.34
365.412	53.25
365.623	-49.15
365.834	-6.14
366.045	34.82
366.256	110.59
366.467	4.1
366.678	57.34
366.889	28.67
367.1	-16.38
367.311	32.77
367.522	18.43
367.733	47.1
367.944	0
368.155	24.58
368.366	36.86
368.577	47.1
368.788	4.1
368.999	-4.1
369.209	20.48
369.42	73.73
369.631	71.68
369.842	63.49
370.053	-45.06
370.264	26.62
370.474	26.62
370.685	-8.19
370.896	32.77
371.107	4.1
371.317	47.1
371.528	45.06
371.739	102.4
371.95	36.86
372.16	57.34
372.371	-14.34
372.582	12.29
372.792	26.62
373.003	10.24
373.214	-16.38
373.424	32.77
373.635	36.86
373.846	8.19
374.056	-6.14
374.267	73.73
374.477	16.38
374.688	88.06
374.898	-22.53
375.109	16.38
375.319	-6.14
375.53	49.15
375.74	22.53
375.951	24.58
376.161	67.58
376.372	40.96
376.582	4.1
376.793	-34.82
377.003	69.63
377.214	59.39
377.424	40.96
377.635	24.58
377.845	51.2
378.055	102.4
378.266	86.01
378.476	-18.43
378.686	36.86
378.897	94.21
379.107	6.14
379.317	86.01
379.528	8.19
379.738	-12.29
379.948	40.96
380.158	34.82
380.369	65.54
380.579	32.77
380.789	-10.24
380.999	4.1
381.21	-18.43
381.42	18.43
381.63	0
381.84	36.86
382.05	12.29
382.261	18.43
382.471	32.77
382.681	69.63
382.891	-36.86
383.101	0
383.311	61.44
383.521	-79.87
383.731	-2.05
383.941	57.34
384.151	-12.29
384.361	14.34
384.571	-6.14
384.781	53.25
384.991	53.25
385.201	24.58
385.411	12.29
385.621	79.87
385.831	53.25
386.041	92.16
386.251	4.1
386.461	69.63
386.671	22.53
386.881	6.14
387.091	-55.3
387.301	28.67
387.511	51.2
387.72	53.25
387.93	55.3
388.14	6.14
388.35	69.63
388.56	45.06
388.769	100.35
388.979	-53.25
389.189	53.25
389.399	24.58
389.609	2.05
389.818	59.39
390.028	-4.1
390.238	69.63
390.447	71.68
390.657	-18.43
390.867	-6.14
391.076	47.1
391.286	96.25
391.496	36.86
391.705	-22.53
391.915	22.53
392.125	112.64
392.334	53.25
392.544	34.82
392.753	-18.43
392.963	83.97
393.172	108.54
393.382	20.48
393.591	96.25
393.801	57.34
394.01	112.64
394.22	51.2
394.429	8.19
394.639	53.25
394.848	67.58
395.058	0
395.267	0
395.477	22.53
395.686	81.92
395.895	83.97
396.105	129.02
396.314	75.77
396.524	135.17
396.733	57.34
396.942	65.54
397.152	12.29
397.361	133.12
397.57	102.4
397.78	139.26
397.989	40.96
398.198	135.17
398.407	106.49
398.617	141.31
398.826	81.92
399.035	94.21
399.244	32.77
399.453	126.97
399.663	129.02
399.872	94.21
400.081	126.97
400.29	145.41
400.499	67.58
400.708	98.3
400.917	81.92
401.127	67.58
401.336	79.87
401.545	67.58
401.754	100.35
401.963	36.86
402.172	88.06
402.381	147.45
402.59	73.73
402.799	81.92
403.008	110.59
403.217	90.11
403.426	102.4
403.635	137.21
403.844	135.17
404.053	131.07
404.262	120.83
404.471	122.88
404.68	163.84
404.888	159.74
405.097	131.07
405.306	149.5
405.515	159.74
405.724	141.31
405.933	180.22
406.142	163.84
406.35	151.55
406.559	151.55
406.768	157.69
406.977	155.65
407.185	147.45
407.394	245.76
407.603	122.88
407.812	188.41
408.02	270.33
408.229	217.08
408.438	176.13
408.646	204.8
408.855	237.56
409.064	200.7
409.272	331.77
409.481	274.43
409.69	192.51
409.898	272.38
410.107	233.47
410.315	253.95
410.524	348.15
410.733	256
410.941	296.96
411.15	356.35
411.358	319.48
411.567	393.21
411.775	372.73
411.984	372.73
412.192	401.4
412.401	505.85
412.609	487.42
412.818	489.46
413.026	501.75
413.234	471.03
413.443	458.74
413.651	462.84
413.86	550.9
414.068	663.54
414.276	571.38
414.485	698.36
414.693	534.52
414.901	690.17
415.11	626.68
415.318	657.4
415.526	673.78
415.734	761.84
415.943	696.31
416.151	833.52
416.359	806.9
416.567	962.55
416.776	892.91
416.984	907.25
417.192	913.39
417.4	1028.08
417.608	909.3
417.817	1052.66
418.025	1130.48
418.233	1132.53
418.441	1171.44
418.649	1130.48
418.857	1318.89
419.065	1320.94
419.273	1247.21
419.481	1343.47
419.689	1312.75
419.897	1472.49
420.105	1621.99
420.313	1587.18
420.521	1601.51
420.729	1564.65
420.937	1744.87
421.145	1816.55
421.353	1775.59
421.561	1937.38
421.769	1906.66
421.977	2133.98
422.185	2004.96
422.393	2185.18
422.601	2303.96
422.809	2224.09
423.017	2213.85
423.224	2414.56
423.432	2445.27
423.64	2498.52
423.848	2676.7
424.056	2547.67
424.263	2787.29
424.471	2744.28
424.679	2944.98
424.887	3131.34
425.094	3258.32
425.302	3112.91
425.51	3239.89
425.718	3352.52
425.925	3330
426.133	3442.64
426.341	3764.17
426.548	3987.4
426.756	3876.8
426.964	4083.65
427.171	4116.42
427.379	4280.25
427.586	4444.09
427.794	4458.43
428.001	4679.61
428.209	4902.84
428.417	4792.25
428.624	5062.58
428.832	5058.48
429.039	5025.72
429.247	5253.04
429.454	5601.19
429.662	6080.42
429.869	5629.87
430.076	6064.04
430.284	5930.92
430.491	6031.27
430.699	6555.55
430.906	6336.42
431.114	6528.92
431.321	6754.2
431.528	6967.19
431.736	7311.25
431.943	7864.2
432.15	7522.19
432.358	7692.17
432.565	8064.9
432.772	7907.21
432.979	8255.36
433.187	8394.62
433.394	8572.8
433.601	9172.85
433.808	9009.01
434.016	9011.06
434.223	9262.96
434.43	10211.17
434.637	10069.86
434.844	10504.03
435.052	10727.26
435.259	10618.72
435.466	10930.01
435.673	10555.23
435.88	10962.78
436.087	12027.72
436.294	11896.65
436.501	11624.27
436.708	11923.27
436.915	12232.52
437.122	12949.31
437.329	12961.59
437.537	13184.82
437.743	13444.91
437.95	13322.04
438.157	13926.19
438.364	14522.15
438.571	14376.74
438.778	14567.2
438.985	16004.88
439.192	15363.86
439.399	15765.26
439.606	15220.5
439.813	16142.09
440.02	17053.44
440.227	16836.35
440.433	17145.59
440.64	17440.5
440.847	17315.58
441.054	17694.45
441.261	19105.5
441.467	18550.5
441.674	19173.08
441.881	19742.42
442.088	19549.91
442.294	19324.63
442.501	20127.44
442.708	20475.59
442.914	21124.8
443.121	21974.7
443.328	21606.07
443.534	23193.25
443.741	22521.51
443.948	22269.61
444.154	23977.62
444.361	23527.07
444.568	24006.29
444.774	23854.74
444.981	23654.04
445.187	25060.99
445.394	25960.05
445.6	25640.57
445.807	27950.68
446.013	26824.29
446.22	27383.39
446.426	28239.44
446.633	28560.97
446.839	29404.74
447.046	28333.65
447.252	29771.32
447.459	30158.39
447.665	29713.98
447.871	31069.73
448.078	32638.48
448.284	31108.65
448.491	31852.06
448.697	33048.07
448.903	33664.51
449.11	33613.31
449.316	33216.01
449.522	33840.64
449.728	34645.49
449.935	34883.05
450.141	35028.46
450.347	35567.07
450.553	34534.9
450.76	35190.25
450.966	36027.87
451.172	35642.85
451.378	36722.13
451.584	36034.01
451.791	36683.22
451.997	36703.7
452.203	37133.77
452.409	37373.38
452.615	37043.66
452.821	35753.44
453.027	35575.27
453.233	37504.45
453.44	35808.73
453.646	36672.98
453.852	36435.41
454.058	37031.37
454.264	35755.49
454.47	36287.96
454.676	35534.31
454.882	36836.81
455.088	33349.12
455.294	34321.91
455.5	34547.18
455.705	35239.4
455.911	33805.82
456.117	33140.23
456.323	32366.1
456.529	30969.38
456.735	32415.25
456.941	30973.48
457.147	30932.52
457.352	30017.08
457.558	29752.89
457.764	29861.43
457.97	29259.33
458.176	28548.68
458.381	28311.12
458.587	27080.29
458.793	27240.03
458.999	25646.71
459.204	27498.08
459.41	26629.74
459.616	24993.41
459.821	25163.39
460.027	24954.5
460.233	24538.76
460.438	23070.37
460.644	23434.91
460.85	22462.12
461.055	21982.9
461.261	21929.65
461.466	20393.67
461.672	19781.33
461.878	21085.89
462.083	19789.52
462.289	19541.72
462.494	19351.26
462.7	18431.72
462.905	17958.64
463.111	18759.39
463.316	18691.81
463.522	18165.48
463.727	18167.53
463.932	18140.91
464.138	17932.01
464.343	17932.01
464.549	17346.3
464.754	18048.75
464.959	17802.99
465.165	17571.57
465.37	17231.61
465.575	16568.07
465.781	17344.25
465.986	17196.79
466.191	16627.46
466.397	16353.03
466.602	15628.05
466.807	16133.9
467.012	16185.1
467.218	16137.99
467.423	15779.6
