Data from USB4F104151__9__11-36-21-988.txt Node

Date: Fri Mar 14 11:36:21 EDT 2025
User: louis
Spectrometer: USB4F10415
Trigger mode: 4
Integration Time (sec): 2.000000E-2
Scans to average: 1
Electric dark correction enabled: true
Nonlinearity correction enabled: false
Boxcar width: 0
XAxis mode: Wavelengths
Number of Pixels in Spectrum: 3648
>>>>>Begin Spectral Data<<<<<
178.204	-98.13
178.424	-98.13
178.644	-98.13
178.864	-59.22
179.084	-139.09
179.304	-16.21
179.524	-1.88
179.744	-1.88
179.964	63.66
180.184	-8.02
180.404	-61.27
180.624	-1.88
180.844	0.17
181.064	-22.36
181.283	37.03
181.503	10.41
181.723	2.22
181.943	-55.12
182.163	49.32
182.383	-32.6
182.602	32.94
182.822	43.18
183.042	16.55
183.262	-40.79
183.482	-20.31
183.701	18.6
183.921	-10.07
184.141	-42.84
184.361	43.18
184.58	6.31
184.8	-3.93
185.02	-71.51
185.239	-26.45
185.459	-14.17
185.679	-16.21
185.898	28.84
186.118	2.22
186.338	-5.97
186.557	24.75
186.777	-1.88
186.997	14.51
187.216	-63.32
187.436	67.75
187.655	-67.41
187.875	51.37
188.095	6.31
188.314	-22.36
188.534	26.79
188.753	0.17
188.973	24.75
189.192	77.99
189.412	-75.6
189.631	-24.4
189.851	-16.21
190.07	37.03
190.29	10.41
190.509	73.9
190.729	-36.69
190.948	-34.64
191.168	82.09
191.387	-73.56
191.607	-14.17
191.826	4.27
192.045	-28.5
192.265	-71.51
192.484	26.79
192.704	37.03
192.923	-44.88
193.142	65.71
193.362	-55.12
193.581	2.22
193.8	24.75
194.02	26.79
194.239	69.8
194.458	-10.07
194.678	-34.64
194.897	-14.17
195.116	10.41
195.335	-106.32
195.555	6.31
195.774	8.36
195.993	-5.97
196.212	-30.55
196.432	22.7
196.651	2.22
196.87	-71.51
197.089	41.13
197.308	-48.98
197.528	-26.45
197.747	14.51
197.966	-16.21
198.185	43.18
198.404	-34.64
198.623	-38.74
198.842	-14.17
199.062	6.31
199.281	-12.12
199.5	-16.21
199.719	10.41
199.938	-46.93
200.157	16.55
200.376	73.9
200.595	-48.98
200.814	22.7
201.033	39.08
201.252	-38.74
201.471	-18.26
201.69	43.18
201.909	12.46
202.128	6.31
202.347	-40.79
202.566	26.79
202.785	61.61
203.004	-75.6
203.223	57.51
203.442	-26.45
203.661	30.89
203.879	12.46
204.098	2.22
204.317	67.75
204.536	65.71
204.755	32.94
204.974	75.95
205.193	12.46
205.411	80.04
205.63	-30.55
205.849	39.08
206.068	34.99
206.287	75.95
206.505	-5.97
206.724	-12.12
206.943	-16.21
207.162	51.37
207.381	45.23
207.599	0.17
207.818	51.37
208.037	16.55
208.255	39.08
208.474	18.6
208.693	12.46
208.911	18.6
209.13	45.23
209.349	32.94
209.567	10.41
209.786	-10.07
210.005	2.22
210.223	-1.88
210.442	-61.27
210.661	-30.55
210.879	-32.6
211.098	-5.97
211.316	-10.07
211.535	63.66
211.753	55.47
211.972	-22.36
212.191	-67.41
212.409	6.31
212.628	6.31
212.846	12.46
213.065	-44.88
213.283	-14.17
213.502	-12.12
213.72	39.08
213.938	-14.17
214.157	-20.31
214.375	26.79
214.594	43.18
214.812	26.79
215.031	-28.5
215.249	-22.36
215.467	45.23
215.686	26.79
215.904	24.75
216.122	55.47
216.341	32.94
216.559	-14.17
216.778	-30.55
216.996	26.79
217.214	4.27
217.432	-1.88
217.651	37.03
217.869	61.61
218.087	-5.97
218.306	10.41
218.524	57.51
218.742	6.31
218.96	51.37
219.179	67.75
219.397	4.27
219.615	14.51
219.833	47.27
220.051	-22.36
220.27	98.47
220.488	-5.97
220.706	45.23
220.924	59.56
221.142	-3.93
221.36	39.08
221.578	118.95
221.796	0.17
222.015	-12.12
222.233	-55.12
222.451	12.46
222.669	2.22
222.887	69.8
223.105	-18.26
223.323	45.23
223.541	24.75
223.759	37.03
223.977	-14.17
224.195	18.6
224.413	2.22
224.631	49.32
224.849	32.94
225.067	65.71
225.285	53.42
225.503	55.47
225.721	-55.12
225.939	-67.41
226.157	-20.31
226.375	57.51
226.592	-28.5
226.81	55.47
227.028	16.55
227.246	108.71
227.464	-14.17
227.682	37.03
227.9	41.13
228.117	-8.02
228.335	-26.45
228.553	18.6
228.771	32.94
228.989	86.19
229.206	-3.93
229.424	-38.74
229.642	34.99
229.86	51.37
230.077	34.99
230.295	-18.26
230.513	-36.69
230.731	14.51
230.948	-5.97
231.166	18.6
231.384	32.94
231.601	-34.64
231.819	26.79
232.037	26.79
232.254	51.37
232.472	0.17
232.689	47.27
232.907	45.23
233.125	-1.88
233.342	6.31
233.56	-22.36
233.777	-24.4
233.995	53.42
234.213	12.46
234.43	41.13
234.648	14.51
234.865	-24.4
235.083	28.84
235.3	-3.93
235.518	-16.21
235.735	-1.88
235.953	-38.74
236.17	-16.21
236.388	-42.84
236.605	-1.88
236.822	-24.4
237.04	45.23
237.257	47.27
237.475	-20.31
237.692	26.79
237.909	-14.17
238.127	-5.97
238.344	86.19
238.562	-24.4
238.779	2.22
238.996	-26.45
239.214	-36.69
239.431	10.41
239.648	18.6
239.865	-38.74
240.083	39.08
240.3	-16.21
240.517	-63.32
240.735	61.61
240.952	96.43
241.169	4.27
241.386	-26.45
241.603	28.84
241.821	30.89
242.038	-38.74
242.255	65.71
242.472	-42.84
242.689	51.37
242.907	82.09
243.124	-18.26
243.341	30.89
243.558	6.31
243.775	-59.22
243.992	-1.88
244.209	39.08
244.426	6.31
244.643	16.55
244.86	14.51
245.078	12.46
245.295	51.37
245.512	53.42
245.729	16.55
245.946	2.22
246.163	24.75
246.38	84.14
246.597	24.75
246.814	82.09
247.031	22.7
247.248	0.17
247.464	55.47
247.681	30.89
247.898	10.41
248.115	88.23
248.332	-10.07
248.549	-10.07
248.766	39.08
248.983	-118.61
249.2	-24.4
249.417	51.37
249.633	-22.36
249.85	28.84
250.067	45.23
250.284	10.41
250.501	108.71
250.717	20.65
250.934	-32.6
251.151	39.08
251.368	-1.88
251.585	18.6
251.801	34.99
252.018	22.7
252.235	-36.69
252.451	10.41
252.668	2.22
252.885	-1.88
253.102	-1.88
253.318	37.03
253.535	-26.45
253.752	2.22
253.968	88.23
254.185	43.18
254.401	-1.88
254.618	47.27
254.835	39.08
255.051	12.46
255.268	26.79
255.484	-24.4
255.701	-51.03
255.917	-14.17
256.134	-5.97
256.351	-53.08
256.567	-5.97
256.784	26.79
257	-28.5
257.217	47.27
257.433	-14.17
257.65	34.99
257.866	12.46
258.082	6.31
258.299	59.56
258.515	-42.84
258.732	-12.12
258.948	34.99
259.165	-10.07
259.381	-22.36
259.597	100.52
259.814	-28.5
260.03	-28.5
260.246	39.08
260.463	22.7
260.679	22.7
260.895	10.41
261.112	12.46
261.328	51.37
261.544	6.31
261.761	73.9
261.977	-3.93
262.193	2.22
262.409	-10.07
262.626	92.33
262.842	-3.93
263.058	6.31
263.274	2.22
263.49	47.27
263.707	77.99
263.923	71.85
264.139	28.84
264.355	-5.97
264.571	59.56
264.787	10.41
265.004	18.6
265.22	55.47
265.436	28.84
265.652	16.55
265.868	59.56
266.084	-34.64
266.3	67.75
266.516	-34.64
266.732	47.27
266.948	-34.64
267.164	-10.07
267.38	22.7
267.596	-18.26
267.812	-18.26
268.028	39.08
268.244	24.75
268.46	-30.55
268.676	32.94
268.892	2.22
269.108	10.41
269.324	22.7
269.54	-1.88
269.756	12.46
269.972	-24.4
270.188	-18.26
270.403	-8.02
270.619	-5.97
270.835	34.99
271.051	-18.26
271.267	12.46
271.483	47.27
271.698	39.08
271.914	14.51
272.13	47.27
272.346	51.37
272.562	18.6
272.777	-42.84
272.993	24.75
273.209	-30.55
273.425	84.14
273.64	-12.12
273.856	-16.21
274.072	102.57
274.287	39.08
274.503	10.41
274.719	30.89
274.934	-10.07
275.15	8.36
275.366	28.84
275.581	20.65
275.797	-26.45
276.012	-46.93
276.228	77.99
276.444	129.19
276.659	63.66
276.875	-20.31
277.09	8.36
277.306	14.51
277.521	32.94
277.737	34.99
277.952	51.37
278.168	-32.6
278.383	75.95
278.599	-59.22
278.814	10.41
279.03	10.41
279.245	37.03
279.461	-12.12
279.676	49.32
279.892	-44.88
280.107	12.46
280.322	24.75
280.538	-8.02
280.753	0.17
280.969	73.9
281.184	10.41
281.399	37.03
281.615	-16.21
281.83	71.85
282.045	-42.84
282.26	49.32
282.476	43.18
282.691	26.79
282.906	-63.32
283.122	12.46
283.337	55.47
283.552	57.51
283.767	84.14
283.983	10.41
284.198	39.08
284.413	-26.45
284.628	-8.02
284.843	22.7
285.058	59.56
285.274	110.76
285.489	-18.26
285.704	45.23
285.919	-34.64
286.134	75.95
286.349	-1.88
286.564	69.8
286.779	22.7
286.995	-12.12
287.21	-10.07
287.425	10.41
287.64	-28.5
287.855	39.08
288.07	57.51
288.285	41.13
288.5	65.71
288.715	-18.26
288.93	-14.17
289.145	-16.21
289.36	71.85
289.575	67.75
289.79	-61.27
290.004	-55.12
290.219	43.18
290.434	26.79
290.649	39.08
290.864	28.84
291.079	4.27
291.294	2.22
291.509	-61.27
291.724	-51.03
291.938	45.23
292.153	37.03
292.368	-59.22
292.583	10.41
292.798	18.6
293.012	8.36
293.227	-5.97
293.442	-12.12
293.657	4.27
293.871	108.71
294.086	-20.31
294.301	65.71
294.516	-26.45
294.73	67.75
294.945	-57.17
295.16	28.84
295.374	14.51
295.589	37.03
295.804	8.36
296.018	16.55
296.233	57.51
296.447	51.37
296.662	-10.07
296.877	80.04
297.091	20.65
297.306	28.84
297.52	69.8
297.735	24.75
297.949	47.27
298.164	0.17
298.378	14.51
298.593	-26.45
298.807	-3.93
299.022	-73.56
299.236	10.41
299.451	-55.12
299.665	-65.36
299.88	6.31
300.094	37.03
300.309	-36.69
300.523	12.46
300.737	-8.02
300.952	63.66
301.166	2.22
301.381	-5.97
301.595	37.03
301.809	28.84
302.024	-14.17
302.238	12.46
302.452	53.42
302.667	10.41
302.881	73.9
303.095	0.17
303.309	8.36
303.524	-38.74
303.738	84.14
303.952	86.19
304.166	57.51
304.381	-32.6
304.595	100.52
304.809	-53.08
305.023	-32.6
305.237	6.31
305.452	39.08
305.666	82.09
305.88	53.42
306.094	-14.17
306.308	39.08
306.522	18.6
306.736	2.22
306.95	53.42
307.164	71.85
307.379	0.17
307.593	24.75
307.807	22.7
308.021	-32.6
308.235	-22.36
308.449	-48.98
308.663	45.23
308.877	39.08
309.091	28.84
309.305	73.9
309.519	2.22
309.733	10.41
309.947	-59.22
310.161	53.42
310.374	59.56
310.588	51.37
310.802	-8.02
311.016	22.7
311.23	30.89
311.444	-14.17
311.658	-40.79
311.872	121
312.085	-48.98
312.299	6.31
312.513	71.85
312.727	22.7
312.941	10.41
313.154	59.56
313.368	-26.45
313.582	26.79
313.796	-14.17
314.009	14.51
314.223	49.32
314.437	22.7
314.651	10.41
314.864	-1.88
315.078	6.31
315.292	6.31
315.505	-22.36
315.719	51.37
315.933	49.32
316.146	6.31
316.36	-79.7
316.573	61.61
316.787	90.28
317.001	-10.07
317.214	-32.6
317.428	-38.74
317.641	-30.55
317.855	-100.18
318.068	59.56
318.282	0.17
318.495	37.03
318.709	18.6
318.922	43.18
319.136	102.57
319.349	37.03
319.563	-34.64
319.776	-10.07
319.99	18.6
320.203	10.41
320.417	-42.84
320.63	-8.02
320.843	53.42
321.057	0.17
321.27	-16.21
321.483	-40.79
321.697	49.32
321.91	22.7
322.124	6.31
322.337	45.23
322.55	-5.97
322.763	32.94
322.977	34.99
323.19	14.51
323.403	-14.17
323.617	22.7
323.83	-30.55
324.043	6.31
324.256	37.03
324.469	63.66
324.683	28.84
324.896	30.89
325.109	0.17
325.322	-12.12
325.535	65.71
325.748	-10.07
325.962	41.13
326.175	24.75
326.388	10.41
326.601	-10.07
326.814	-10.07
327.027	49.32
327.24	41.13
327.453	-32.6
327.666	-32.6
327.879	47.27
328.092	2.22
328.305	-65.36
328.518	30.89
328.731	-12.12
328.944	45.23
329.157	-14.17
329.37	30.89
329.583	63.66
329.796	45.23
330.009	-40.79
330.222	75.95
330.435	73.9
330.648	24.75
330.861	57.51
331.073	-16.21
331.286	90.28
331.499	61.61
331.712	6.31
331.925	53.42
332.138	-5.97
332.35	-81.75
332.563	43.18
332.776	123.05
332.989	49.32
333.202	-5.97
333.414	41.13
333.627	-18.26
333.84	-8.02
334.053	6.31
334.265	80.04
334.478	28.84
334.691	24.75
334.903	22.7
335.116	-3.93
335.329	67.75
335.541	41.13
335.754	39.08
335.966	-3.93
336.179	24.75
336.392	-18.26
336.604	26.79
336.817	4.27
337.029	43.18
337.242	30.89
337.454	43.18
337.667	53.42
337.88	-12.12
338.092	-14.17
338.305	22.7
338.517	-100.18
338.729	-3.93
338.942	75.95
339.154	41.13
339.367	59.56
339.579	-42.84
339.792	43.18
340.004	55.47
340.217	16.55
340.429	43.18
340.641	77.99
340.854	26.79
341.066	-40.79
341.278	28.84
341.491	88.23
341.703	-14.17
341.915	61.61
342.128	84.14
342.34	34.99
342.552	26.79
342.764	100.52
342.977	16.55
343.189	-10.07
343.401	-26.45
343.613	-87.89
343.826	16.55
344.038	22.7
344.25	118.95
344.462	6.31
344.674	51.37
344.886	32.94
345.099	43.18
345.311	-8.02
345.523	14.51
345.735	2.22
345.947	71.85
346.159	10.41
346.371	80.04
346.583	82.09
346.795	39.08
347.007	32.94
347.219	80.04
347.431	-5.97
347.643	8.36
347.855	-12.12
348.067	45.23
348.279	-46.93
348.491	82.09
348.703	55.47
348.915	92.33
349.127	-18.26
349.339	86.19
349.551	28.84
349.763	37.03
349.975	18.6
350.187	57.51
350.399	61.61
350.61	6.31
350.822	-1.88
351.034	0.17
351.246	88.23
351.458	47.27
351.669	34.99
351.881	67.75
352.093	137.38
352.305	80.04
352.517	30.89
352.728	71.85
352.94	55.47
353.152	92.33
353.363	-24.4
353.575	57.51
353.787	26.79
353.999	71.85
354.21	18.6
354.422	18.6
354.633	24.75
354.845	61.61
355.057	18.6
355.268	84.14
355.48	2.22
355.692	-71.51
355.903	98.47
356.115	4.27
356.326	39.08
356.538	8.36
356.749	22.7
356.961	88.23
357.172	14.51
357.384	18.6
357.595	84.14
357.807	43.18
358.018	34.99
358.23	20.65
358.441	116.9
358.653	-5.97
358.864	39.08
359.075	-30.55
359.287	34.99
359.498	47.27
359.709	67.75
359.921	43.18
360.132	151.72
360.344	51.37
360.555	37.03
360.766	-10.07
360.977	-12.12
361.189	12.46
361.4	-20.31
361.611	75.95
361.823	-5.97
362.034	53.42
362.245	-59.22
362.456	37.03
362.667	88.23
362.879	24.75
363.09	-48.98
363.301	75.95
363.512	28.84
363.723	-14.17
363.935	-44.88
364.146	32.94
364.357	-5.97
364.568	-32.6
364.779	-32.6
364.99	82.09
365.201	14.51
365.412	26.79
365.623	4.27
365.834	34.99
366.045	10.41
366.256	28.84
366.467	112.81
366.678	16.55
366.889	-44.88
367.1	65.71
367.311	6.31
367.522	67.75
367.733	43.18
367.944	71.85
368.155	22.7
368.366	-28.5
368.577	-10.07
368.788	67.75
368.999	-3.93
369.209	28.84
369.42	28.84
369.631	133.29
369.842	16.55
370.053	47.27
370.264	-16.21
370.474	10.41
370.685	77.99
370.896	-16.21
371.107	98.47
371.317	63.66
371.528	65.71
371.739	100.52
371.95	26.79
372.16	53.42
372.371	-5.97
372.582	51.37
372.792	49.32
373.003	-22.36
373.214	75.95
373.424	0.17
373.635	61.61
373.846	26.79
374.056	47.27
374.267	82.09
374.477	39.08
374.688	22.7
374.898	24.75
375.109	82.09
375.319	47.27
375.53	71.85
375.74	10.41
375.951	45.23
376.161	37.03
376.372	65.71
376.582	10.41
376.793	51.37
377.003	57.51
377.214	-16.21
377.424	24.75
377.635	-36.69
377.845	61.61
378.055	10.41
378.266	67.75
378.476	51.37
378.686	57.51
378.897	2.22
379.107	61.61
379.317	-1.88
379.528	39.08
379.738	-34.64
379.948	51.37
380.158	86.19
380.369	34.99
380.579	88.23
380.789	110.76
380.999	32.94
381.21	51.37
381.42	43.18
381.63	71.85
381.84	55.47
382.05	61.61
382.261	55.47
382.471	4.27
382.681	43.18
382.891	63.66
383.101	47.27
383.311	49.32
383.521	-24.4
383.731	75.95
383.941	65.71
384.151	98.47
384.361	84.14
384.571	100.52
384.781	12.46
384.991	108.71
385.201	82.09
385.411	2.22
385.621	123.05
385.831	8.36
386.041	51.37
386.251	30.89
386.461	82.09
386.671	49.32
386.881	77.99
387.091	112.81
387.301	69.8
387.511	10.41
387.72	73.9
387.93	-16.21
388.14	4.27
388.35	-12.12
388.56	71.85
388.769	45.23
388.979	16.55
389.189	65.71
389.399	-28.5
389.609	71.85
389.818	75.95
390.028	-40.79
390.238	-1.88
390.447	63.66
390.657	20.65
390.867	92.33
391.076	63.66
391.286	86.19
391.496	51.37
391.705	-5.97
391.915	14.51
392.125	24.75
392.334	16.55
392.544	41.13
392.753	-34.64
392.963	26.79
393.172	96.43
393.382	32.94
393.591	75.95
393.801	63.66
394.01	24.75
394.22	-3.93
394.429	49.32
394.639	84.14
394.848	118.95
395.058	57.51
395.267	49.32
395.477	73.9
395.686	51.37
395.895	63.66
396.105	125.1
396.314	114.86
396.524	123.05
396.733	129.19
396.942	67.75
397.152	90.28
397.361	114.86
397.57	112.81
397.78	20.65
397.989	59.56
398.198	204.97
398.407	108.71
398.617	98.47
398.826	129.19
399.035	116.9
399.244	51.37
399.453	69.8
399.663	71.85
399.872	110.76
400.081	84.14
400.29	202.92
400.499	121
400.708	155.82
400.917	57.51
401.127	43.18
401.336	73.9
401.545	133.29
401.754	145.58
401.963	88.23
402.172	59.56
402.381	100.52
402.59	118.95
402.799	43.18
403.008	116.9
403.217	207.02
403.426	92.33
403.635	92.33
403.844	116.9
404.053	116.9
404.262	98.47
404.471	198.82
404.68	125.1
404.888	141.48
405.097	149.67
405.306	182.44
405.515	125.1
405.724	186.54
405.933	161.96
406.142	207.02
406.35	204.97
406.559	250.02
406.768	204.97
406.977	182.44
407.185	198.82
407.394	157.86
407.603	135.34
407.812	184.49
408.02	174.25
408.229	256.17
408.438	217.26
408.646	221.35
408.855	221.35
409.064	204.97
409.272	239.78
409.481	325.8
409.69	276.65
409.898	260.26
410.107	313.51
410.315	358.57
410.524	305.32
410.733	344.23
410.941	407.72
411.15	340.13
411.358	403.62
411.567	432.29
411.775	389.28
411.984	456.87
412.192	401.57
412.401	434.34
412.609	526.5
412.818	479.4
413.026	409.76
413.234	444.58
413.443	487.59
413.651	501.92
413.86	598.18
414.068	596.13
414.276	571.55
414.485	606.37
414.693	694.43
414.901	669.86
415.11	723.1
415.318	772.25
415.526	702.62
415.734	888.99
415.943	751.78
416.151	850.08
416.359	870.56
416.567	809.12
416.776	858.27
416.984	913.56
417.192	968.86
417.4	911.52
417.608	964.76
417.817	1114.27
418.025	1089.69
418.233	1163.42
418.441	1075.35
418.649	1167.51
418.857	1222.81
419.065	1335.45
419.273	1249.43
419.481	1302.68
419.689	1466.52
419.897	1507.48
420.105	1509.52
420.313	1620.11
420.521	1587.35
420.729	1605.78
420.937	1745.04
421.145	1761.42
421.353	1859.73
421.561	1939.6
421.769	1958.03
421.977	2054.28
422.185	2066.57
422.393	2320.52
422.601	2216.07
422.809	2246.79
423.017	2293.9
423.224	2357.38
423.432	2599.04
423.64	2545.8
423.848	2848.9
424.056	2615.43
424.263	2828.42
424.471	2973.82
424.679	2943.1
424.887	3016.83
425.094	3172.47
425.302	3070.08
425.51	3424.37
425.718	3416.18
425.925	3455.09
426.133	3709.04
426.341	3815.54
426.548	4032.62
426.756	3848.3
426.964	3993.71
427.171	4272.23
427.379	4352.1
427.586	4370.54
427.794	4659.3
428.001	4757.6
428.209	5009.5
428.417	4855.9
428.624	5328.99
428.832	5369.94
429.039	5179.48
429.247	5247.07
429.454	5666.9
429.662	6070.35
429.869	5634.13
430.076	6125.65
430.284	5978.19
430.491	6195.28
430.699	6539.33
430.906	6580.29
431.114	6598.73
431.321	6836.29
431.528	7024.7
431.736	7313.47
431.943	7839.8
432.15	7669.81
432.358	7776.31
432.565	8243.24
432.772	8120.37
432.979	8392.75
433.187	8503.34
433.394	8814.63
433.601	9248.8
433.808	9285.66
434.016	9306.14
434.223	9603.1
434.43	10158.1
434.637	10012.69
434.844	10496.01
435.052	10688.52
435.259	10641.42
435.466	10971.14
435.673	10909.7
435.88	11575.29
436.087	12216.3
436.294	12011.51
436.501	11993.08
436.708	12023.8
436.915	12558.32
437.122	13004.77
437.329	13166.56
437.537	13518.81
437.743	13514.72
437.95	13416.41
438.157	14219.22
438.364	14772.17
438.571	14706.63
438.778	14809.03
438.985	15994.81
439.192	15556.54
439.399	16072.63
439.606	15491.01
439.813	16660.4
440.02	17446.82
440.227	17248.16
440.433	17342.37
440.64	17573.79
440.847	17414.05
441.054	17919.9
441.261	19070.86
441.467	18960.27
441.674	19359.62
441.881	20035.45
442.088	19869.56
442.294	19883.9
442.501	20436.85
442.708	20703.09
442.914	21712.74
443.121	22331.22
443.328	21895
443.534	23379.78
443.741	22945.61
443.948	22468.44
444.154	24033.08
444.361	24010.56
444.568	24526.64
444.774	24317.75
444.981	24432.44
445.187	25038.64
445.394	26134.3
445.6	25878.3
445.807	28663.54
446.013	27244.3
446.22	27879.17
446.426	28831.47
446.633	29409
446.839	29775.59
447.046	28784.37
447.252	30529.24
447.459	30674.65
447.665	30349.02
447.871	31571.66
448.078	32966.32
448.284	31563.47
448.491	32339.65
448.697	33459.88
448.903	34066.08
449.11	34328.22
449.316	33908.39
449.522	34543.26
449.728	35241.62
449.935	35577.48
450.141	35536.52
450.347	36169.35
450.553	35384.97
450.76	35921.54
450.966	36748.92
451.172	36658.81
451.378	37459.57
451.584	36421.25
451.791	37357.17
451.997	37895.78
452.203	38047.33
452.409	38155.88
452.615	38024.81
452.821	36243.07
453.027	36105.86
453.233	37969.51
453.44	36615.8
453.646	37318.26
453.852	37031.54
454.058	37842.54
454.264	36583.04
454.47	37375.6
454.676	36021.89
454.882	37381.74
455.088	34649.75
455.294	34989.72
455.5	35442.32
455.705	35804.81
455.911	34127.52
456.117	33697.45
456.323	33361.58
456.529	31430.35
456.735	32908.98
456.941	32210.62
457.147	31495.88
457.352	30486.23
457.558	30193.37
457.764	30045.92
457.97	29683.43
458.176	29159.15
458.381	29236.97
458.587	27574.02
458.793	27475.72
458.999	26169.12
459.204	28139.26
459.41	27318.03
459.616	25220.91
459.821	25753.38
460.027	25325.35
460.233	24770.35
460.438	23492.42
460.644	23897.92
460.85	23156.55
461.055	22523.73
461.261	22595.41
461.466	20948.84
461.672	20299.64
461.878	21450.6
462.083	20184.95
462.289	19777.4
462.494	19507.07
462.7	18585.49
462.905	18202.52
463.111	18730.89
463.316	18728.84
463.522	18288.53
463.727	18730.89
463.932	18431.89
464.138	18403.22
464.343	18409.36
464.549	17745.82
464.754	18497.42
464.959	18317.2
465.165	18108.31
465.37	17498.02
465.575	17248.16
465.781	17713.05
465.986	17874.84
466.191	16930.73
466.397	16730.03
466.602	15998.9
466.807	16371.63
