Data from USB4F104151__50__11-37-04-263.txt Node

Date: Fri Mar 14 11:37:04 EDT 2025
User: louis
Spectrometer: USB4F10415
Trigger mode: 4
Integration Time (sec): 2.000000E-2
Scans to average: 1
Electric dark correction enabled: true
Nonlinearity correction enabled: false
Boxcar width: 0
XAxis mode: Wavelengths
Number of Pixels in Spectrum: 3648
>>>>>Begin Spectral Data<<<<<
178.204	-70.48
178.424	-70.48
178.644	-70.48
178.864	-58.2
179.084	-76.63
179.304	-0.85
179.524	-47.96
179.744	-54.1
179.964	-25.43
180.184	-21.33
180.404	-66.39
180.624	21.67
180.844	46.25
181.064	42.15
181.283	3.24
181.503	38.06
181.723	64.68
181.943	11.43
182.163	36.01
182.383	-37.72
182.602	-13.14
182.822	64.68
183.042	15.53
183.262	46.25
183.482	-2.9
183.701	60.59
183.921	101.55
184.141	46.25
184.361	11.43
184.58	-15.19
184.8	-9.05
185.02	-41.81
185.239	31.91
185.459	38.06
185.679	-2.9
185.898	-7
186.118	52.39
186.338	31.91
186.557	-11.09
186.777	54.44
186.997	-17.24
187.216	15.53
187.436	85.16
187.655	-15.19
187.875	-37.72
188.095	15.53
188.314	17.58
188.534	140.46
188.753	9.39
188.973	23.72
189.192	64.68
189.412	1.19
189.631	44.2
189.851	-47.96
190.07	9.39
190.29	21.67
190.509	-64.34
190.729	1.19
190.948	-0.85
191.168	85.16
191.387	-50
191.607	-31.57
191.826	-23.38
192.045	58.54
192.265	29.87
192.484	48.3
192.704	38.06
192.923	-37.72
193.142	-19.29
193.362	91.31
193.581	31.91
193.8	27.82
194.02	7.34
194.239	36.01
194.458	-11.09
194.678	-29.52
194.897	44.2
195.116	-41.81
195.335	-23.38
195.555	11.43
195.774	66.73
195.993	-70.48
196.212	44.2
196.432	-4.95
196.651	-41.81
196.87	54.44
197.089	36.01
197.308	5.29
197.528	-17.24
197.747	-86.87
197.966	-2.9
198.185	97.45
198.404	7.34
198.623	68.78
198.842	17.58
199.062	7.34
199.281	-15.19
199.5	54.44
199.719	13.48
199.938	9.39
200.157	40.11
200.376	50.35
200.595	66.73
200.814	-37.72
201.033	3.24
201.252	19.63
201.471	74.92
201.69	68.78
201.909	56.49
202.128	-25.43
202.347	52.39
202.566	-27.48
202.785	-25.43
203.004	-101.2
203.223	117.93
203.442	25.77
203.661	3.24
203.879	-4.95
204.098	52.39
204.317	-9.05
204.536	54.44
204.755	5.29
204.974	36.01
205.193	21.67
205.411	1.19
205.63	105.64
205.849	11.43
206.068	25.77
206.287	-21.33
206.505	40.11
206.724	50.35
206.943	85.16
207.162	60.59
207.381	-29.52
207.599	7.34
207.818	25.77
208.037	-15.19
208.255	56.49
208.474	42.15
208.693	105.64
208.911	17.58
209.13	48.3
209.349	21.67
209.567	-50
209.786	19.63
210.005	23.72
210.223	23.72
210.442	87.21
210.661	23.72
210.879	48.3
211.098	42.15
211.316	68.78
211.535	72.87
211.753	-17.24
211.972	-9.05
212.191	-13.14
212.409	31.91
212.628	7.34
212.846	33.96
213.065	-27.48
213.283	68.78
213.502	44.2
213.72	27.82
213.938	-0.85
214.157	-11.09
214.375	11.43
214.594	33.96
214.812	-0.85
215.031	3.24
215.249	-0.85
215.467	36.01
215.686	-70.48
215.904	40.11
216.122	-25.43
216.341	33.96
216.559	5.29
216.778	40.11
216.996	25.77
217.214	-25.43
217.432	9.39
217.651	40.11
217.869	54.44
218.087	19.63
218.306	17.58
218.524	15.53
218.742	-66.39
218.96	-37.72
219.179	44.2
219.397	31.91
219.615	5.29
219.833	3.24
220.051	19.63
220.27	-54.1
220.488	79.02
220.706	21.67
220.924	3.24
221.142	9.39
221.36	-7
221.578	9.39
221.796	27.82
222.015	56.49
222.233	-27.48
222.451	68.78
222.669	13.48
222.887	29.87
223.105	36.01
223.323	-64.34
223.541	48.3
223.759	-4.95
223.977	-9.05
224.195	48.3
224.413	83.11
224.631	70.83
224.849	74.92
225.067	68.78
225.285	5.29
225.503	-43.86
225.721	-19.29
225.939	7.34
226.157	9.39
226.375	117.93
226.592	-39.76
226.81	60.59
227.028	36.01
227.246	13.48
227.464	70.83
227.682	44.2
227.9	97.45
228.117	-54.1
228.335	-19.29
228.553	70.83
228.771	40.11
228.989	21.67
229.206	56.49
229.424	42.15
229.642	33.96
229.86	5.29
230.077	-17.24
230.295	27.82
230.513	52.39
230.731	99.5
230.948	25.77
231.166	54.44
231.384	72.87
231.601	9.39
231.819	54.44
232.037	-31.57
232.254	21.67
232.472	-19.29
232.689	-9.05
232.907	-17.24
233.125	-23.38
233.342	54.44
233.56	7.34
233.777	-17.24
233.995	-21.33
234.213	-0.85
234.43	-68.44
234.648	-19.29
234.865	-50
235.083	48.3
235.3	38.06
235.518	66.73
235.735	5.29
235.953	13.48
236.17	7.34
236.388	-7
236.605	-11.09
236.822	68.78
237.04	13.48
237.257	50.35
237.475	54.44
237.692	-4.95
237.909	-0.85
238.127	-27.48
238.344	64.68
238.562	-0.85
238.779	-39.76
238.996	23.72
239.214	27.82
239.431	44.2
239.648	-68.44
239.865	44.2
240.083	21.67
240.3	23.72
240.517	7.34
240.735	27.82
240.952	107.69
241.169	9.39
241.386	-56.15
241.603	44.2
241.821	19.63
242.038	-39.76
242.255	7.34
242.472	25.77
242.689	27.82
242.907	-25.43
243.124	87.21
243.341	27.82
243.558	25.77
243.775	38.06
243.992	-11.09
244.209	19.63
244.426	36.01
244.643	83.11
244.86	-17.24
245.078	130.22
245.295	72.87
245.512	-37.72
245.729	-47.96
245.946	89.26
246.163	76.97
246.38	3.24
246.597	7.34
246.814	-25.43
247.031	-29.52
247.248	27.82
247.464	-47.96
247.681	-0.85
247.898	52.39
248.115	44.2
248.332	27.82
248.549	-9.05
248.766	79.02
248.983	36.01
249.2	-107.35
249.417	74.92
249.633	7.34
249.85	-21.33
250.067	25.77
250.284	15.53
250.501	46.25
250.717	19.63
250.934	101.55
251.151	64.68
251.368	-45.91
251.585	93.35
251.801	-27.48
252.018	54.44
252.235	-72.53
252.451	-9.05
252.668	-33.62
252.885	-2.9
253.102	-0.85
253.318	-23.38
253.535	11.43
253.752	91.31
253.968	-11.09
254.185	-23.38
254.401	-4.95
254.618	50.35
254.835	-78.68
255.051	1.19
255.268	-27.48
255.484	70.83
255.701	48.3
255.917	25.77
256.134	-0.85
256.351	-41.81
256.567	-4.95
256.784	68.78
257	27.82
257.217	-27.48
257.433	54.44
257.65	62.63
257.866	29.87
258.082	-7
258.299	48.3
258.515	66.73
258.732	-11.09
258.948	93.35
259.165	31.91
259.381	21.67
259.597	48.3
259.814	38.06
260.03	40.11
260.246	-4.95
260.463	-21.33
260.679	42.15
260.895	54.44
261.112	44.2
261.328	36.01
261.544	29.87
261.761	-4.95
261.977	-11.09
262.193	-50
262.409	-27.48
262.626	23.72
262.842	-17.24
263.058	-9.05
263.274	56.49
263.49	64.68
263.707	36.01
263.923	-29.52
264.139	-58.2
264.355	58.54
264.571	19.63
264.787	27.82
265.004	31.91
265.22	74.92
265.436	-37.72
265.652	46.25
265.868	109.74
266.084	-19.29
266.3	33.96
266.516	68.78
266.732	101.55
266.948	79.02
267.164	52.39
267.38	27.82
267.596	68.78
267.812	62.63
268.028	48.3
268.244	72.87
268.46	70.83
268.676	-17.24
268.892	-15.19
269.108	-0.85
269.324	-45.91
269.54	38.06
269.756	64.68
269.972	-39.76
270.188	81.07
270.403	7.34
270.619	5.29
270.835	62.63
271.051	60.59
271.267	13.48
271.483	40.11
271.698	1.19
271.914	-25.43
272.13	-35.67
272.346	33.96
272.562	72.87
272.777	74.92
272.993	5.29
273.209	-9.05
273.425	29.87
273.64	-0.85
273.856	48.3
274.072	40.11
274.287	-78.68
274.503	9.39
274.719	-50
274.934	40.11
275.15	-33.62
275.366	97.45
275.581	5.29
275.797	-21.33
276.012	54.44
276.228	29.87
276.444	-2.9
276.659	15.53
276.875	74.92
277.09	31.91
277.306	54.44
277.521	68.78
277.737	33.96
277.952	72.87
278.168	54.44
278.383	-11.09
278.599	60.59
278.814	66.73
279.03	54.44
279.245	111.78
279.461	19.63
279.676	89.26
279.892	13.48
280.107	40.11
280.322	5.29
280.538	58.54
280.753	-0.85
280.969	-17.24
281.184	17.58
281.399	117.93
281.615	15.53
281.83	85.16
282.045	-17.24
282.26	7.34
282.476	70.83
282.691	31.91
282.906	-25.43
283.122	31.91
283.337	-103.25
283.552	89.26
283.767	21.67
283.983	52.39
284.198	7.34
284.413	33.96
284.628	-50
284.843	21.67
285.058	64.68
285.274	-41.81
285.489	44.2
285.704	3.24
285.919	64.68
286.134	33.96
286.349	52.39
286.564	7.34
286.779	11.43
286.995	-0.85
287.21	-0.85
287.425	-7
287.64	-27.48
287.855	52.39
288.07	-25.43
288.285	3.24
288.5	40.11
288.715	76.97
288.93	56.49
289.145	5.29
289.36	19.63
289.575	5.29
289.79	23.72
290.004	-74.58
290.219	93.35
290.434	23.72
290.649	15.53
290.864	-74.58
291.079	13.48
291.294	56.49
291.509	52.39
291.724	54.44
291.938	-0.85
292.153	23.72
292.368	-31.57
292.583	44.2
292.798	40.11
293.012	-7
293.227	76.97
293.442	1.19
293.657	-2.9
293.871	33.96
294.086	60.59
294.301	40.11
294.516	52.39
294.73	3.24
294.945	-37.72
295.16	70.83
295.374	27.82
295.589	3.24
295.804	27.82
296.018	23.72
296.233	21.67
296.447	3.24
296.662	-15.19
296.877	29.87
297.091	89.26
297.306	23.72
297.52	-19.29
297.735	50.35
297.949	-35.67
298.164	1.19
298.378	-45.91
298.593	50.35
298.807	11.43
299.022	31.91
299.236	152.74
299.451	62.63
299.665	38.06
299.88	-11.09
300.094	-37.72
300.309	54.44
300.523	-0.85
300.737	60.59
300.952	13.48
301.166	33.96
301.381	-31.57
301.595	-11.09
301.809	31.91
302.024	27.82
302.238	-11.09
302.452	48.3
302.667	27.82
302.881	11.43
303.095	56.49
303.309	72.87
303.524	33.96
303.738	56.49
303.952	-0.85
304.166	58.54
304.381	15.53
304.595	64.68
304.809	11.43
305.023	85.16
305.237	33.96
305.452	-11.09
305.666	44.2
305.88	79.02
306.094	36.01
306.308	40.11
306.522	-0.85
306.736	-15.19
306.95	-17.24
307.164	23.72
307.379	31.91
307.593	27.82
307.807	27.82
308.021	-52.05
308.235	-60.24
308.449	9.39
308.663	79.02
308.877	117.93
309.091	38.06
309.305	56.49
309.519	7.34
309.733	17.58
309.947	31.91
310.161	29.87
310.374	36.01
310.588	107.69
310.802	-25.43
311.016	-21.33
311.23	-9.05
311.444	-29.52
311.658	48.3
311.872	-4.95
312.085	64.68
312.299	44.2
312.513	83.11
312.727	-39.76
312.941	29.87
313.154	-13.14
313.368	87.21
313.582	9.39
313.796	11.43
314.009	15.53
314.223	38.06
314.437	76.97
314.651	19.63
314.864	46.25
315.078	-41.81
315.292	-11.09
315.505	-21.33
315.719	64.68
315.933	21.67
316.146	29.87
316.36	52.39
316.573	48.3
316.787	7.34
317.001	5.29
317.214	-17.24
317.428	44.2
317.641	-60.24
317.855	40.11
318.068	-9.05
318.282	-17.24
318.495	31.91
318.709	76.97
318.922	3.24
319.136	99.5
319.349	25.77
319.563	33.96
319.776	72.87
319.99	44.2
320.203	62.63
320.417	44.2
320.63	31.91
320.843	72.87
321.057	87.21
321.27	-50
321.483	48.3
321.697	27.82
321.91	-17.24
322.124	-9.05
322.337	-35.67
322.55	27.82
322.763	40.11
322.977	23.72
323.19	5.29
323.403	56.49
323.617	79.02
323.83	56.49
324.043	15.53
324.256	-37.72
324.469	62.63
324.683	-0.85
324.896	25.77
325.109	99.5
325.322	-11.09
325.535	64.68
325.748	97.45
325.962	66.73
326.175	-4.95
326.388	33.96
326.601	46.25
326.814	-17.24
327.027	56.49
327.24	87.21
327.453	40.11
327.666	19.63
327.879	40.11
328.092	44.2
328.305	31.91
328.518	27.82
328.731	-74.58
328.944	29.87
329.157	40.11
329.37	40.11
329.583	29.87
329.796	85.16
330.009	48.3
330.222	3.24
330.435	-11.09
330.648	-70.48
330.861	48.3
331.073	31.91
331.286	83.11
331.499	13.48
331.712	58.54
331.925	-13.14
332.138	-21.33
332.35	68.78
332.563	19.63
332.776	124.07
332.989	3.24
333.202	17.58
333.414	33.96
333.627	11.43
333.84	17.58
334.053	97.45
334.265	76.97
334.478	36.01
334.691	40.11
334.903	-21.33
335.116	15.53
335.329	-0.85
335.541	54.44
335.754	29.87
335.966	-72.53
336.179	36.01
336.392	-11.09
336.604	-41.81
336.817	23.72
337.029	33.96
337.242	97.45
337.454	13.48
337.667	31.91
337.88	66.73
338.092	13.48
338.305	36.01
338.517	56.49
338.729	40.11
338.942	40.11
339.154	-37.72
339.367	-21.33
339.579	97.45
339.792	15.53
340.004	36.01
340.217	13.48
340.429	33.96
340.641	33.96
340.854	-29.52
341.066	19.63
341.278	64.68
341.491	122.02
341.703	5.29
341.915	-33.62
342.128	74.92
342.34	36.01
342.552	-9.05
342.764	-19.29
342.977	54.44
343.189	25.77
343.401	13.48
343.613	7.34
343.826	33.96
344.038	19.63
344.25	58.54
344.462	-74.58
344.674	29.87
344.886	-0.85
345.099	46.25
345.311	50.35
345.523	-4.95
345.735	-9.05
345.947	91.31
346.159	31.91
346.371	-0.85
346.583	33.96
346.795	52.39
347.007	27.82
347.219	25.77
347.431	60.59
347.643	89.26
347.855	-37.72
348.067	-21.33
348.279	-7
348.491	48.3
348.703	15.53
348.915	48.3
349.127	-17.24
349.339	56.49
349.551	48.3
349.763	-0.85
349.975	-0.85
350.187	56.49
350.399	-2.9
350.61	29.87
350.822	-25.43
351.034	23.72
351.246	17.58
351.458	29.87
351.669	-43.86
351.881	9.39
352.093	23.72
352.305	33.96
352.517	-21.33
352.728	60.59
352.94	48.3
353.152	-58.2
353.363	-4.95
353.575	81.07
353.787	7.34
353.999	50.35
354.21	105.64
354.422	50.35
354.633	60.59
354.845	68.78
355.057	-25.43
355.268	13.48
355.48	-4.95
355.692	-11.09
355.903	13.48
356.115	60.59
356.326	7.34
356.538	87.21
356.749	15.53
356.961	46.25
357.172	54.44
357.384	72.87
357.595	33.96
357.807	27.82
358.018	31.91
358.23	42.15
358.441	48.3
358.653	-23.38
358.864	13.48
359.075	-17.24
359.287	33.96
359.498	25.77
359.709	81.07
359.921	97.45
360.132	70.83
360.344	25.77
360.555	56.49
360.766	40.11
360.977	27.82
361.189	-21.33
361.4	33.96
361.611	-25.43
361.823	23.72
362.034	29.87
362.245	19.63
362.456	7.34
362.667	76.97
362.879	-7
363.09	-35.67
363.301	-13.14
363.512	68.78
363.723	-33.62
363.935	38.06
364.146	60.59
364.357	11.43
364.568	33.96
364.779	70.83
364.99	68.78
365.201	3.24
365.412	58.54
365.623	21.67
365.834	48.3
366.045	17.58
366.256	91.31
366.467	13.48
366.678	-33.62
366.889	-41.81
367.1	-4.95
367.311	38.06
367.522	-0.85
367.733	111.78
367.944	5.29
368.155	46.25
368.366	-4.95
368.577	89.26
368.788	23.72
368.999	-45.91
369.209	44.2
369.42	107.69
369.631	101.55
369.842	44.2
370.053	42.15
370.264	3.24
370.474	38.06
370.685	23.72
370.896	38.06
371.107	111.78
371.317	11.43
371.528	40.11
371.739	38.06
371.95	1.19
372.16	13.48
372.371	76.97
372.582	-0.85
372.792	15.53
373.003	85.16
373.214	23.72
373.424	99.5
373.635	15.53
373.846	76.97
374.056	83.11
374.267	52.39
374.477	48.3
374.688	68.78
374.898	48.3
375.109	46.25
375.319	48.3
375.53	-4.95
375.74	62.63
375.951	-39.76
376.161	-56.15
376.372	31.91
376.582	62.63
376.793	70.83
377.003	-25.43
377.214	19.63
377.424	23.72
377.635	83.11
377.845	23.72
378.055	17.58
378.266	1.19
378.476	29.87
378.686	103.59
378.897	23.72
379.107	89.26
379.317	42.15
379.528	70.83
379.738	7.34
379.948	-19.29
380.158	11.43
380.369	74.92
380.579	76.97
380.789	60.59
380.999	83.11
381.21	-13.14
381.42	29.87
381.63	44.2
381.84	-21.33
382.05	27.82
382.261	79.02
382.471	103.59
382.681	50.35
382.891	50.35
383.101	-66.39
383.311	15.53
383.521	31.91
383.731	19.63
383.941	74.92
384.151	54.44
384.361	-37.72
384.571	54.44
384.781	105.64
384.991	70.83
385.201	1.19
385.411	66.73
385.621	89.26
385.831	44.2
386.041	89.26
386.251	42.15
386.461	-9.05
386.671	70.83
386.881	33.96
387.091	87.21
387.301	60.59
387.511	62.63
387.72	91.31
387.93	44.2
388.14	29.87
388.35	-19.29
388.56	93.35
388.769	46.25
388.979	15.53
389.189	-0.85
389.399	76.97
389.609	-4.95
389.818	66.73
390.028	9.39
390.238	38.06
390.447	52.39
390.657	91.31
390.867	115.88
391.076	126.12
391.286	58.54
391.496	5.29
391.705	19.63
391.915	36.01
392.125	111.78
392.334	11.43
392.544	195.75
392.753	79.02
392.963	15.53
393.172	31.91
393.382	50.35
393.591	-21.33
393.801	23.72
394.01	56.49
394.22	68.78
394.429	46.25
394.639	13.48
394.848	76.97
395.058	97.45
395.267	79.02
395.477	68.78
395.686	15.53
395.895	1.19
396.105	113.83
396.314	23.72
396.524	56.49
396.733	81.07
396.942	87.21
397.152	48.3
397.361	29.87
397.57	107.69
397.78	46.25
397.989	64.68
398.198	126.12
398.407	111.78
398.617	148.65
398.826	99.5
399.035	19.63
399.244	76.97
399.453	126.12
399.663	19.63
399.872	122.02
400.081	54.44
400.29	103.59
400.499	21.67
400.708	126.12
400.917	74.92
401.127	191.66
401.336	38.06
401.545	74.92
401.754	46.25
401.963	107.69
402.172	23.72
402.381	64.68
402.59	134.31
402.799	13.48
403.008	136.36
403.217	136.36
403.426	105.64
403.635	89.26
403.844	36.01
404.053	103.59
404.262	79.02
404.471	95.4
404.68	144.55
404.888	117.93
405.097	81.07
405.306	93.35
405.515	132.26
405.724	72.87
405.933	76.97
406.142	101.55
406.35	111.78
406.559	179.37
406.768	238.76
406.977	101.55
407.185	169.13
407.394	134.31
407.603	105.64
407.812	128.17
408.02	126.12
408.229	195.75
408.438	183.46
408.646	169.13
408.855	136.36
409.064	158.89
409.272	162.98
409.481	208.04
409.69	214.18
409.898	152.74
410.107	228.52
410.315	222.38
410.524	271.53
410.733	277.67
410.941	267.43
411.15	294.05
411.358	294.05
411.567	322.73
411.775	259.24
411.984	369.83
412.192	285.86
412.401	316.58
412.609	335.01
412.818	308.39
413.026	367.78
413.234	363.69
413.443	386.21
413.651	357.54
413.86	431.27
414.068	490.66
414.276	515.23
414.485	480.42
414.693	404.64
414.901	529.57
415.11	548
415.318	634.02
415.526	488.61
415.734	607.39
415.943	554.15
416.151	578.72
416.359	642.21
416.567	687.26
416.776	652.45
416.984	681.12
417.192	810.14
417.4	732.32
417.608	752.8
417.817	881.82
418.025	830.62
418.233	830.62
418.441	851.1
418.649	943.26
418.857	910.49
419.065	890.01
419.273	1047.71
419.481	1049.75
419.689	1029.27
419.897	1219.74
420.105	1162.39
420.313	1248.41
420.521	1221.78
420.729	1262.74
420.937	1268.89
421.145	1326.23
421.353	1422.48
421.561	1590.42
421.769	1445.01
421.977	1477.78
422.185	1649.81
422.393	1678.48
422.601	1741.97
422.809	1776.78
423.017	1756.3
423.224	1774.74
423.432	1920.14
423.64	1934.48
423.848	2126.99
424.056	2014.35
424.263	2110.6
424.471	2280.58
424.679	2256.01
424.887	2301.06
425.094	2356.36
425.302	2450.57
425.51	2473.09
425.718	2522.24
425.925	2657.41
426.133	2718.85
426.341	2851.97
426.548	2927.74
426.756	2899.07
426.964	2960.51
427.171	3177.59
427.379	3230.84
427.586	3325.05
427.794	3302.52
428.001	3550.32
428.209	3714.16
428.417	3624.05
428.624	3976.3
428.832	3974.25
429.039	3849.33
429.247	3843.18
429.454	4260.97
429.662	4465.77
429.869	4367.46
430.076	4488.29
430.284	4508.77
430.491	4729.95
430.699	4930.66
430.906	4840.54
431.114	5061.73
431.321	5184.6
431.528	5346.39
431.736	5514.33
431.943	5821.52
432.15	5612.63
432.358	5743.7
432.565	5885.01
432.772	5907.54
432.979	6231.12
433.187	6519.88
433.394	6636.61
433.601	6808.64
433.808	7044.16
434.016	6868.03
434.223	7216.19
434.43	7633.97
434.637	7507
434.844	7975.98
435.052	8201.26
435.259	8150.06
435.466	8133.68
435.673	7947.31
435.88	8518.7
436.087	9018.4
436.294	9065.5
436.501	8842.28
436.708	8965.15
436.915	9432.09
437.122	9845.78
437.329	9458.71
437.537	9925.65
437.743	10130.45
437.95	10146.83
438.157	10808.33
438.364	11015.17
438.571	10863.62
438.778	11090.95
438.985	11949.04
439.192	11508.73
439.399	11947
439.606	11637.75
439.813	12268.53
440.02	13050.85
440.227	12784.62
440.433	12798.95
440.64	13095.91
440.847	13044.71
441.054	13100
441.261	14185.43
441.467	14105.56
441.674	14363.6
441.881	15002.57
442.088	15035.33
442.294	14857.16
442.501	15197.12
442.708	15502.27
442.914	16018.36
443.121	16815.02
443.328	16198.58
443.534	17370.02
443.741	16995.24
443.948	16790.44
444.154	17736.6
444.361	17834.91
444.568	17851.29
444.774	18062.23
444.981	18144.15
445.187	18783.12
445.394	19714.94
445.6	19334.02
445.807	21175.14
446.013	19938.17
446.22	20566.9
446.426	21238.63
446.633	21166.95
446.839	22240.09
447.046	21271.4
447.252	22578
447.459	22438.74
447.665	22412.12
447.871	23425.86
448.078	24437.56
448.284	23231.3
448.491	23835.45
448.697	25000.75
448.903	25371.43
449.11	25359.14
449.316	25064.24
449.522	25498.41
449.728	25924.38
449.935	26188.57
450.141	26299.16
450.347	26856.21
450.553	25699.11
450.76	26542.87
450.966	27222.8
451.172	26839.83
451.378	27626.25
451.584	27159.31
451.791	27409.16
451.997	27095.82
452.203	28115.71
452.409	28439.29
452.615	28039.93
452.821	27142.92
453.027	26596.12
453.233	27974.4
453.44	26829.59
453.646	27233.04
453.852	27382.54
454.058	27792.13
454.264	26559.25
454.47	27507.46
454.676	26735.38
454.882	27648.77
455.088	25082.67
455.294	25914.14
455.5	26161.95
455.705	26307.35
455.911	25254.7
456.117	24793.9
456.323	24746.8
456.529	23288.65
456.735	24519.48
456.941	23653.19
457.147	23126.86
457.352	22469.46
457.558	22344.53
457.764	22274.9
457.97	21654.37
458.176	21359.46
458.381	21361.51
458.587	20364.15
458.793	20585.33
458.999	19293.06
459.204	20304.76
459.41	20020.09
459.616	18774.92
459.821	18625.42
460.027	18713.49
460.233	18355.09
460.438	17269.67
460.644	17384.35
460.85	16624.56
461.055	16626.6
461.261	16339.89
461.466	14965.7
461.672	14904.26
461.878	15795.13
462.083	14662.6
462.289	14705.61
462.494	14322.64
462.7	13839.32
462.905	13628.38
463.111	13925.33
463.316	13892.57
463.522	13614.04
463.727	13589.47
463.932	13585.37
464.138	13388.77
464.343	13411.29
464.549	12882.92
464.754	13769.69
464.959	13534.17
465.165	13378.53
465.37	12577.77
465.575	12372.97
465.781	12909.54
465.986	12956.64
466.191	12471.28
466.397	12303.34
466.602	11658.23
466.807	12352.49
467.012	12063.73
467.218	12020.72
467.423	11736.06
467.628	11869.17
467.833	12473.32
468.038	12217.33
