Data from USB4F104151__98__11-38-01-357.txt Node

Date: Fri Mar 14 11:38:01 EDT 2025
User: louis
Spectrometer: USB4F10415
Trigger mode: 4
Integration Time (sec): 2.000000E-2
Scans to average: 1
Electric dark correction enabled: true
Nonlinearity correction enabled: false
Boxcar width: 0
XAxis mode: Wavelengths
Number of Pixels in Spectrum: 3648
>>>>>Begin Spectral Data<<<<<
178.204	-139.77
178.424	-139.77
178.644	-139.77
178.864	-133.63
179.084	-37.38
179.304	-2.56
179.524	-2.56
179.744	13.82
179.964	13.82
180.184	3.58
180.404	9.73
180.624	44.54
180.844	28.16
181.064	-23.04
181.283	-27.14
181.503	-8.7
181.723	-49.66
181.943	-4.61
182.163	44.54
182.383	46.59
182.602	19.97
182.822	-25.09
183.042	22.02
183.262	-47.62
183.482	22.02
183.701	-14.85
183.921	30.21
184.141	38.4
184.361	7.68
184.58	-4.61
184.8	34.3
185.02	-14.85
185.239	54.78
185.459	-47.62
185.679	28.16
185.898	-39.42
186.118	26.11
186.338	3.58
186.557	58.88
186.777	15.87
186.997	13.82
187.216	-59.9
187.436	-37.38
187.655	-43.52
187.875	15.87
188.095	-41.47
188.314	-2.56
188.534	-23.04
188.753	-2.56
188.973	71.17
189.192	44.54
189.412	26.11
189.631	-23.04
189.851	30.21
190.07	38.4
190.29	-66.05
190.509	-14.85
190.729	58.88
190.948	69.12
191.168	114.17
191.387	56.83
191.607	-20.99
191.826	-2.56
192.045	-16.9
192.265	9.73
192.484	9.73
192.704	34.3
192.923	30.21
193.142	17.92
193.362	7.68
193.581	42.5
193.8	-0.51
194.02	28.16
194.239	7.68
194.458	-68.09
194.678	-43.52
194.897	17.92
195.116	46.59
195.335	-0.51
195.555	3.58
195.774	73.21
195.993	26.11
196.212	77.31
196.432	-10.75
196.651	-2.56
196.87	9.73
197.089	95.74
197.308	69.12
197.528	71.17
197.747	17.92
197.966	67.07
198.185	19.97
198.404	11.78
198.623	-39.42
198.842	50.69
199.062	62.98
199.281	87.55
199.5	22.02
199.719	30.21
199.938	-31.23
200.157	48.64
200.376	1.54
200.595	95.74
200.814	-41.47
201.033	36.35
201.252	9.73
201.471	1.54
201.69	22.02
201.909	34.3
202.128	-10.75
202.347	54.78
202.566	-43.52
202.785	11.78
203.004	-10.75
203.223	67.07
203.442	5.63
203.661	-16.9
203.879	3.58
204.098	38.4
204.317	17.92
204.536	24.06
204.755	50.69
204.974	34.3
205.193	28.16
205.411	50.69
205.63	30.21
205.849	9.73
206.068	1.54
206.287	-31.23
206.505	-0.51
206.724	-18.94
206.943	11.78
207.162	22.02
207.381	-35.33
207.599	-18.94
207.818	22.02
208.037	46.59
208.255	-18.94
208.474	-14.85
208.693	13.82
208.911	-2.56
209.13	-16.9
209.349	17.92
209.567	3.58
209.786	44.54
210.005	3.58
210.223	65.02
210.442	22.02
210.661	52.74
210.879	-6.66
211.098	7.68
211.316	3.58
211.535	52.74
211.753	73.21
211.972	73.21
212.191	1.54
212.409	-6.66
212.628	69.12
212.846	1.54
213.065	19.97
213.283	17.92
213.502	54.78
213.72	22.02
213.938	-37.38
214.157	11.78
214.375	83.45
214.594	19.97
214.812	48.64
215.031	75.26
215.249	17.92
215.467	36.35
215.686	36.35
215.904	44.54
216.122	-12.8
216.341	52.74
216.559	-55.81
216.778	32.26
216.996	42.5
217.214	-4.61
217.432	48.64
217.651	-4.61
217.869	52.74
218.087	95.74
218.306	-68.09
218.524	-29.18
218.742	48.64
218.96	-47.62
219.179	-37.38
219.397	-2.56
219.615	17.92
219.833	38.4
220.051	-68.09
220.27	-18.94
220.488	50.69
220.706	-4.61
220.924	-10.75
221.142	42.5
221.36	-16.9
221.578	40.45
221.796	-18.94
222.015	81.41
222.233	-49.66
222.451	52.74
222.669	26.11
222.887	56.83
223.105	22.02
223.323	-2.56
223.541	15.87
223.759	65.02
223.977	46.59
224.195	7.68
224.413	-2.56
224.631	50.69
224.849	-29.18
225.067	58.88
225.285	-74.24
225.503	50.69
225.721	108.03
225.939	-37.38
226.157	15.87
226.375	40.45
226.592	-10.75
226.81	42.5
227.028	-14.85
227.246	30.21
227.464	24.06
227.682	-31.23
227.9	71.17
228.117	46.59
228.335	32.26
228.553	-12.8
228.771	-0.51
228.989	42.5
229.206	71.17
229.424	87.55
229.642	40.45
229.86	-14.85
230.077	28.16
230.295	-12.8
230.513	13.82
230.731	58.88
230.948	56.83
231.166	50.69
231.384	-0.51
231.601	28.16
231.819	15.87
232.037	-6.66
232.254	24.06
232.472	-37.38
232.689	13.82
232.907	97.79
233.125	9.73
233.342	-23.04
233.56	-10.75
233.777	26.11
233.995	-4.61
234.213	81.41
234.43	79.36
234.648	-6.66
234.865	-31.23
235.083	5.63
235.3	-14.85
235.518	22.02
235.735	97.79
235.953	101.89
236.17	26.11
236.388	-2.56
236.605	22.02
236.822	85.5
237.04	-4.61
237.257	-29.18
237.475	-20.99
237.692	-47.62
237.909	-18.94
238.127	5.63
238.344	-18.94
238.562	-64
238.779	13.82
238.996	-2.56
239.214	38.4
239.431	65.02
239.648	5.63
239.865	-2.56
240.083	17.92
240.3	-72.19
240.517	-10.75
240.735	1.54
240.952	3.58
241.169	-4.61
241.386	-16.9
241.603	-29.18
241.821	38.4
242.038	-12.8
242.255	3.58
242.472	81.41
242.689	34.3
242.907	26.11
243.124	-12.8
243.341	-18.94
243.558	-33.28
243.775	26.11
243.992	-4.61
244.209	28.16
244.426	36.35
244.643	71.17
244.86	-16.9
245.078	1.54
245.295	-45.57
245.512	-23.04
245.729	-27.14
245.946	24.06
246.163	128.51
246.38	-2.56
246.597	52.74
246.814	-0.51
247.031	54.78
247.248	77.31
247.464	22.02
247.681	13.82
247.898	-16.9
248.115	79.36
248.332	-27.14
248.549	130.56
248.766	22.02
248.983	73.21
249.2	28.16
249.417	81.41
249.633	-6.66
249.85	-2.56
250.067	-16.9
250.284	77.31
250.501	-35.33
250.717	46.59
250.934	58.88
251.151	-6.66
251.368	-8.7
251.585	-41.47
251.801	-20.99
252.018	1.54
252.235	-27.14
252.451	24.06
252.668	17.92
252.885	75.26
253.102	62.98
253.318	118.27
253.535	30.21
253.752	30.21
253.968	-2.56
254.185	17.92
254.401	69.12
254.618	71.17
254.835	30.21
255.051	-25.09
255.268	-4.61
255.484	-29.18
255.701	-14.85
255.917	85.5
256.134	-2.56
256.351	-37.38
256.567	32.26
256.784	-64
257	-6.66
257.217	108.03
257.433	17.92
257.65	52.74
257.866	22.02
258.082	5.63
258.299	13.82
258.515	34.3
258.732	3.58
258.948	-12.8
259.165	50.69
259.381	-4.61
259.597	17.92
259.814	28.16
260.03	103.93
260.246	3.58
260.463	5.63
260.679	17.92
260.895	22.02
261.112	44.54
261.328	52.74
261.544	-18.94
261.761	101.89
261.977	-37.38
262.193	22.02
262.409	-51.71
262.626	65.02
262.842	38.4
263.058	-53.76
263.274	1.54
263.49	71.17
263.707	124.41
263.923	87.55
264.139	19.97
264.355	9.73
264.571	11.78
264.787	-49.66
265.004	85.5
265.22	-39.42
265.436	-8.7
265.652	-45.57
265.868	44.54
266.084	71.17
266.3	-35.33
266.516	87.55
266.732	7.68
266.948	13.82
267.164	9.73
267.38	-8.7
267.596	-43.52
267.812	81.41
268.028	-23.04
268.244	46.59
268.46	-10.75
268.676	73.21
268.892	36.35
269.108	28.16
269.324	-10.75
269.54	9.73
269.756	22.02
269.972	34.3
270.188	77.31
270.403	-2.56
270.619	71.17
270.835	-14.85
271.051	62.98
271.267	9.73
271.483	-80.38
271.698	-6.66
271.914	-8.7
272.13	17.92
272.346	54.78
272.562	11.78
272.777	81.41
272.993	65.02
273.209	30.21
273.425	46.59
273.64	22.02
273.856	-8.7
274.072	9.73
274.287	60.93
274.503	87.55
274.719	38.4
274.934	-10.75
275.15	22.02
275.366	-27.14
275.581	1.54
275.797	36.35
276.012	-10.75
276.228	48.64
276.444	-41.47
276.659	24.06
276.875	-0.51
277.09	-10.75
277.306	-33.28
277.521	-20.99
277.737	-25.09
277.952	62.98
278.168	75.26
278.383	26.11
278.599	77.31
278.814	26.11
279.03	-4.61
279.245	52.74
279.461	58.88
279.676	40.45
279.892	13.82
280.107	-16.9
280.322	-4.61
280.538	22.02
280.753	85.5
280.969	-43.52
281.184	3.58
281.399	22.02
281.615	19.97
281.83	28.16
282.045	-2.56
282.26	34.3
282.476	13.82
282.691	-10.75
282.906	-37.38
283.122	42.5
283.337	22.02
283.552	-14.85
283.767	30.21
283.983	77.31
284.198	95.74
284.413	-18.94
284.628	-14.85
284.843	3.58
285.058	-61.95
285.274	9.73
285.489	-6.66
285.704	3.58
285.919	38.4
286.134	-8.7
286.349	-2.56
286.564	11.78
286.779	30.21
286.995	34.3
287.21	-4.61
287.425	-14.85
287.64	44.54
287.855	101.89
288.07	44.54
288.285	1.54
288.5	58.88
288.715	5.63
288.93	26.11
289.145	32.26
289.36	36.35
289.575	81.41
289.79	1.54
290.004	54.78
290.219	-31.23
290.434	-18.94
290.649	-18.94
290.864	52.74
291.079	-20.99
291.294	-0.51
291.509	120.32
291.724	36.35
291.938	7.68
292.153	-39.42
292.368	60.93
292.583	1.54
292.798	36.35
293.012	-14.85
293.227	-39.42
293.442	19.97
293.657	5.63
293.871	3.58
294.086	19.97
294.301	15.87
294.516	-16.9
294.73	38.4
294.945	5.63
295.16	1.54
295.374	42.5
295.589	-33.28
295.804	-16.9
296.018	58.88
296.233	-10.75
296.447	-16.9
296.662	-31.23
296.877	54.78
297.091	46.59
297.306	9.73
297.52	-55.81
297.735	7.68
297.949	5.63
298.164	67.07
298.378	-8.7
298.593	138.75
298.807	-0.51
299.022	-12.8
299.236	44.54
299.451	17.92
299.665	38.4
299.88	69.12
300.094	-39.42
300.309	32.26
300.523	62.98
300.737	-8.7
300.952	60.93
301.166	-2.56
301.381	11.78
301.595	1.54
301.809	22.02
302.024	-18.94
302.238	7.68
302.452	97.79
302.667	44.54
302.881	26.11
303.095	15.87
303.309	-20.99
303.524	-16.9
303.738	65.02
303.952	-2.56
304.166	38.4
304.381	22.02
304.595	28.16
304.809	11.78
305.023	34.3
305.237	5.63
305.452	38.4
305.666	89.6
305.88	116.22
306.094	34.3
306.308	-16.9
306.522	50.69
306.736	9.73
306.95	-18.94
307.164	54.78
307.379	44.54
307.593	28.16
307.807	-39.42
308.021	79.36
308.235	65.02
308.449	1.54
308.663	-10.75
308.877	15.87
309.091	-16.9
309.305	32.26
309.519	19.97
309.733	52.74
309.947	62.98
310.161	87.55
310.374	28.16
310.588	60.93
310.802	3.58
311.016	44.54
311.23	83.45
311.444	-10.75
311.658	-25.09
311.872	22.02
312.085	62.98
312.299	40.45
312.513	-10.75
312.727	15.87
312.941	-45.57
313.154	3.58
313.368	46.59
313.582	40.45
313.796	13.82
314.009	11.78
314.223	69.12
314.437	13.82
314.651	5.63
314.864	-2.56
315.078	36.35
315.292	-10.75
315.505	46.59
315.719	-33.28
315.933	50.69
316.146	-2.56
316.36	-45.57
316.573	28.16
316.787	128.51
317.001	1.54
317.214	-61.95
317.428	42.5
317.641	30.21
317.855	15.87
318.068	30.21
318.282	58.88
318.495	40.45
318.709	36.35
318.922	-33.28
319.136	50.69
319.349	81.41
319.563	60.93
319.776	19.97
319.99	-2.56
320.203	-27.14
320.417	30.21
320.63	58.88
320.843	24.06
321.057	48.64
321.27	122.37
321.483	30.21
321.697	40.45
321.91	5.63
322.124	-8.7
322.337	-2.56
322.55	-27.14
322.763	79.36
322.977	22.02
323.19	11.78
323.403	-57.86
323.617	75.26
323.83	54.78
324.043	-80.38
324.256	62.98
324.469	-59.9
324.683	58.88
324.896	73.21
325.109	17.92
325.322	-10.75
325.535	-16.9
325.748	19.97
325.962	58.88
326.175	40.45
326.388	58.88
326.601	-72.19
326.814	24.06
327.027	-2.56
327.24	132.61
327.453	-14.85
327.666	67.07
327.879	42.5
328.092	32.26
328.305	56.83
328.518	65.02
328.731	-27.14
328.944	71.17
329.157	50.69
329.37	46.59
329.583	67.07
329.796	128.51
330.009	-45.57
330.222	9.73
330.435	-6.66
330.648	-16.9
330.861	26.11
331.073	87.55
331.286	17.92
331.499	-31.23
331.712	44.54
331.925	-2.56
332.138	-45.57
332.35	52.74
332.563	22.02
332.776	32.26
332.989	-23.04
333.202	-8.7
333.414	50.69
333.627	22.02
333.84	28.16
334.053	13.82
334.265	34.3
334.478	60.93
334.691	54.78
334.903	36.35
335.116	26.11
335.329	-12.8
335.541	50.69
335.754	36.35
335.966	-14.85
336.179	17.92
336.392	-23.04
336.604	75.26
336.817	60.93
337.029	71.17
337.242	87.55
337.454	-2.56
337.667	-27.14
337.88	24.06
338.092	13.82
338.305	34.3
338.517	24.06
338.729	-57.86
338.942	-4.61
339.154	-4.61
339.367	-8.7
339.579	97.79
339.792	36.35
340.004	58.88
340.217	-12.8
340.429	46.59
340.641	30.21
340.854	3.58
341.066	-59.9
341.278	58.88
341.491	36.35
341.703	62.98
341.915	-4.61
342.128	19.97
342.34	15.87
342.552	9.73
342.764	44.54
342.977	28.16
343.189	118.27
343.401	34.3
343.613	79.36
343.826	48.64
344.038	-59.9
344.25	36.35
344.462	24.06
344.674	34.3
344.886	-43.52
345.099	5.63
345.311	-20.99
345.523	1.54
345.735	13.82
345.947	112.13
346.159	-2.56
346.371	5.63
346.583	54.78
346.795	60.93
347.007	-0.51
347.219	93.69
347.431	67.07
347.643	89.6
347.855	50.69
348.067	50.69
348.279	38.4
348.491	-6.66
348.703	9.73
348.915	54.78
349.127	-0.51
349.339	40.45
349.551	22.02
349.763	48.64
349.975	42.5
350.187	38.4
350.399	17.92
350.61	22.02
350.822	-10.75
351.034	30.21
351.246	-43.52
351.458	81.41
351.669	-10.75
351.881	15.87
352.093	-0.51
352.305	50.69
352.517	97.79
352.728	62.98
352.94	97.79
353.152	116.22
353.363	-35.33
353.575	1.54
353.787	44.54
353.999	26.11
354.21	1.54
354.422	30.21
354.633	30.21
354.845	-0.51
355.057	32.26
355.268	75.26
355.48	44.54
355.692	34.3
355.903	22.02
356.115	-0.51
356.326	19.97
356.538	-10.75
356.749	65.02
356.961	71.17
357.172	-8.7
357.384	-25.09
357.595	114.17
357.807	17.92
358.018	48.64
358.23	50.69
358.441	65.02
358.653	46.59
358.864	69.12
359.075	-12.8
359.287	93.69
359.498	15.87
359.709	58.88
359.921	26.11
360.132	11.78
360.344	-14.85
360.555	36.35
360.766	71.17
360.977	26.11
361.189	69.12
361.4	52.74
361.611	42.5
361.823	46.59
362.034	69.12
362.245	38.4
362.456	40.45
362.667	38.4
362.879	38.4
363.09	38.4
363.301	36.35
363.512	105.98
363.723	58.88
363.935	1.54
364.146	83.45
364.357	26.11
364.568	-23.04
364.779	65.02
364.99	13.82
365.201	-20.99
365.412	103.93
365.623	-27.14
365.834	-27.14
366.045	7.68
366.256	38.4
366.467	56.83
366.678	44.54
366.889	89.6
367.1	-18.94
367.311	79.36
367.522	26.11
367.733	89.6
367.944	19.97
368.155	46.59
368.366	54.78
368.577	52.74
368.788	128.51
368.999	24.06
369.209	79.36
369.42	132.61
369.631	116.22
369.842	24.06
370.053	75.26
370.264	120.32
370.474	3.58
370.685	5.63
370.896	50.69
371.107	-31.23
371.317	54.78
371.528	81.41
371.739	11.78
371.95	-0.51
372.16	54.78
372.371	26.11
372.582	93.69
372.792	9.73
373.003	11.78
373.214	46.59
373.424	28.16
373.635	7.68
373.846	34.3
374.056	103.93
374.267	71.17
374.477	101.89
374.688	52.74
374.898	-14.85
375.109	15.87
375.319	17.92
375.53	60.93
375.74	13.82
375.951	81.41
376.161	5.63
376.372	26.11
376.582	36.35
376.793	54.78
377.003	-4.61
377.214	5.63
377.424	62.98
377.635	69.12
377.845	15.87
378.055	126.46
378.266	50.69
378.476	52.74
378.686	30.21
378.897	28.16
379.107	22.02
379.317	32.26
379.528	34.3
379.738	-14.85
379.948	-29.18
380.158	62.98
380.369	54.78
380.579	65.02
380.789	77.31
380.999	42.5
381.21	34.3
381.42	97.79
381.63	42.5
381.84	116.22
382.05	81.41
382.261	38.4
382.471	17.92
382.681	67.07
382.891	67.07
383.101	30.21
383.311	67.07
383.521	-23.04
383.731	19.97
383.941	3.58
384.151	97.79
384.361	-14.85
384.571	87.55
384.781	93.69
384.991	26.11
385.201	85.5
385.411	60.93
385.621	140.8
385.831	-6.66
386.041	60.93
386.251	44.54
386.461	60.93
386.671	-12.8
386.881	56.83
387.091	38.4
387.301	77.31
387.511	79.36
387.72	105.98
387.93	69.12
388.14	62.98
388.35	15.87
388.56	71.17
388.769	83.45
388.979	26.11
389.189	89.6
389.399	-2.56
389.609	52.74
389.818	13.82
390.028	-35.33
390.238	26.11
390.447	3.58
390.657	87.55
390.867	46.59
391.076	44.54
391.286	46.59
391.496	65.02
391.705	30.21
391.915	48.64
392.125	17.92
392.334	24.06
392.544	62.98
392.753	52.74
392.963	46.59
393.172	67.07
393.382	24.06
393.591	67.07
393.801	97.79
394.01	65.02
394.22	40.45
394.429	95.74
394.639	-2.56
394.848	-10.75
395.058	83.45
395.267	38.4
395.477	77.31
395.686	58.88
395.895	101.89
396.105	167.42
396.314	79.36
396.524	52.74
396.733	60.93
396.942	58.88
397.152	77.31
397.361	75.26
397.57	91.65
397.78	118.27
397.989	79.36
398.198	122.37
398.407	36.35
398.617	112.13
398.826	97.79
399.035	112.13
399.244	48.64
399.453	60.93
399.663	26.11
399.872	134.65
400.081	87.55
400.29	79.36
400.499	36.35
400.708	69.12
400.917	54.78
401.127	89.6
401.336	-2.56
401.545	118.27
401.754	97.79
401.963	151.04
402.172	148.99
402.381	77.31
402.59	95.74
402.799	58.88
403.008	155.13
403.217	198.14
403.426	136.7
403.635	65.02
403.844	173.57
404.053	112.13
404.262	153.09
404.471	142.85
404.68	146.94
404.888	161.28
405.097	112.13
405.306	108.03
405.515	243.2
405.724	179.71
405.933	259.58
406.142	194.05
406.35	91.65
406.559	237.05
406.768	187.9
406.977	202.24
407.185	235
407.394	224.76
407.603	181.76
407.812	265.72
408.02	212.48
408.229	202.24
408.438	239.1
408.646	161.28
408.855	204.28
409.064	243.2
409.272	275.96
409.481	282.11
409.69	275.96
409.898	294.4
410.107	288.25
410.315	275.96
410.524	304.64
410.733	335.35
410.941	259.58
411.15	316.92
411.358	343.55
411.567	409.08
411.775	343.55
411.984	318.97
412.192	357.88
412.401	376.31
412.609	398.84
412.818	427.51
413.026	491
413.234	462.33
413.443	521.72
413.651	519.67
413.86	470.52
414.068	540.15
414.276	546.3
414.485	579.06
414.693	579.06
414.901	667.13
415.11	503.29
415.318	587.26
415.526	685.56
415.734	642.55
415.943	749.04
416.151	763.38
416.359	804.34
416.567	861.68
416.776	841.2
416.984	886.26
417.192	896.5
417.4	947.7
417.608	775.67
417.817	1029.62
418.025	1056.24
418.233	1164.78
418.441	980.47
418.649	1113.58
418.857	1177.07
419.065	1134.06
419.273	1103.34
419.481	1215.98
419.689	1168.88
419.897	1383.91
420.105	1365.48
420.313	1349.1
420.521	1451.5
420.729	1486.31
420.937	1512.94
421.145	1588.71
421.353	1750.5
421.561	1697.25
421.769	1740.26
421.977	1922.53
422.185	1803.75
422.393	1873.38
422.601	2086.37
422.809	2119.14
423.017	2260.45
423.224	2196.96
423.432	2272.73
423.64	2190.81
423.848	2500.06
424.056	2420.19
424.263	2622.94
424.471	2784.73
424.679	2624.98
424.887	2786.77
425.094	2856.4
425.302	2627.03
425.51	2977.23
425.718	3005.91
425.925	3081.68
426.133	3274.19
426.341	3321.29
426.548	3624.39
426.756	3587.53
426.964	3618.25
427.171	3976.64
427.379	4019.65
427.586	3958.21
427.794	4154.82
428.001	4339.13
428.209	4597.18
428.417	4431.29
428.624	4789.69
428.832	4814.26
429.039	4777.4
429.247	4699.58
429.454	5180.85
429.662	5461.42
429.869	5031.35
430.076	5690.79
430.284	5262.77
430.491	5670.31
430.699	5854.63
430.906	5971.36
431.114	6000.04
431.321	6317.47
431.528	6325.66
431.736	6800.79
431.943	7161.23
432.15	6727.07
432.358	6862.23
432.565	7304.59
432.772	7378.32
432.979	7540.11
433.187	7878.02
433.394	7798.15
433.601	8371.58
433.808	8441.22
434.016	8383.87
434.223	8738.17
434.43	9385.33
434.637	9074.04
434.844	9641.32
435.052	9641.32
435.259	9784.68
435.466	9745.77
435.673	9799.02
435.88	10409.31
436.087	11124.05
436.294	10925.4
436.501	10605.92
436.708	11031.9
436.915	11218.26
437.122	11720.01
437.329	11726.16
437.537	11992.39
437.743	12252.49
437.95	12166.47
438.157	12891.45
438.364	13282.61
438.571	13100.34
438.778	13235.51
438.985	14462.24
439.192	14060.84
439.399	14396.71
439.606	14185.77
439.813	15000.86
440.02	15953.16
440.227	15668.5
440.433	15574.29
440.64	15895.82
440.847	16024.84
441.054	16135.43
441.261	17214.71
441.467	17132.79
441.674	17466.61
441.881	18134.25
442.088	17999.09
442.294	17933.55
442.501	18713.83
442.708	18607.33
442.914	19385.56
443.121	20202.7
443.328	19778.77
443.534	21136.57
443.741	20427.98
443.948	20440.26
444.154	21949.62
444.361	21877.94
444.568	21765.3
444.774	21722.29
444.981	22265
445.187	22582.44
445.394	23725.21
445.6	23563.42
445.807	25758.84
446.013	24628.36
446.22	24865.92
446.426	26008.69
446.633	26518.64
446.839	27186.27
447.046	26084.47
447.252	27550.81
447.459	27825.24
447.665	27559
447.871	28709.96
448.078	29836.34
448.284	28759.11
448.491	29170.75
448.697	30630.96
448.903	31190.05
449.11	30897.19
449.316	30458.93
449.522	30837.8
449.728	32076.82
449.935	32150.55
450.141	32334.87
450.347	33446.91
450.553	32046.1
450.76	32308.24
450.966	33428.48
451.172	33172.49
451.378	34223.09
451.584	33463.3
451.791	34069.5
451.997	34474.99
452.203	34526.19
452.409	34655.22
452.615	34460.66
452.821	33408
453.027	32992.26
453.233	34604.02
453.44	33045.51
453.646	33610.75
453.852	33948.67
454.058	34491.38
454.264	33022.98
454.47	33723.39
454.676	33199.11
454.882	34444.27
455.088	31341.6
455.294	31777.82
455.5	32062.49
455.705	32773.13
455.911	31538.21
456.117	30776.36
456.323	30397.49
456.529	28914.76
456.735	29731.9
456.941	29443.13
457.147	28496.97
457.352	27802.71
457.558	27491.42
457.764	27628.63
457.97	27229.28
458.176	26582.12
458.381	26850.41
458.587	25158.78
458.793	25107.58
458.999	24016.02
459.204	25558.14
459.41	24769.67
459.616	23420.06
459.821	23276.7
460.027	23157.92
460.233	22957.22
460.438	21583.03
460.644	21912.75
460.85	20733.12
461.055	20509.9
461.261	20495.56
461.466	19035.36
461.672	18568.42
461.878	19700.95
462.083	18562.28
462.289	18138.35
462.494	17911.02
462.7	17097.98
462.905	16641.28
463.111	17384.69
463.316	17480.95
463.522	16841.98
463.727	17110.27
463.932	16811.26
464.138	16895.23
464.343	16848.13
464.549	16313.61
464.754	16817.41
464.959	16628.99
465.165	16680.19
465.37	15918.35
465.575	15449.36
465.781	16168.2
465.986	16282.89
466.191	15582.48
466.397	15373.59
466.602	14556.45
466.807	15117.59
467.012	15271.19
467.218	15097.11
467.423	14916.89
467.628	15093.02
467.833	15553.81
