Data from USB4F104151__85__11-37-48-239.txt Node

Date: Fri Mar 14 11:37:48 EDT 2025
User: louis
Spectrometer: USB4F10415
Trigger mode: 4
Integration Time (sec): 2.000000E-2
Scans to average: 1
Electric dark correction enabled: true
Nonlinearity correction enabled: false
Boxcar width: 0
XAxis mode: Wavelengths
Number of Pixels in Spectrum: 3648
>>>>>Begin Spectral Data<<<<<
178.204	-47.96
178.424	-47.96
178.644	-47.96
178.864	-74.58
179.084	-21.33
179.304	31.91
179.524	-76.63
179.744	-2.9
179.964	36.01
180.184	-7
180.404	31.91
180.624	-41.81
180.844	33.96
181.064	-54.1
181.283	-64.34
181.503	31.91
181.723	81.07
181.943	-31.57
182.163	111.78
182.383	23.72
182.602	15.53
182.822	36.01
183.042	-9.05
183.262	11.43
183.482	-33.62
183.701	-11.09
183.921	-0.85
184.141	93.35
184.361	85.16
184.58	74.92
184.8	33.96
185.02	44.2
185.239	27.82
185.459	31.91
185.679	72.87
185.898	-43.86
186.118	158.89
186.338	-33.62
186.557	105.64
186.777	3.24
186.997	48.3
187.216	-15.19
187.436	66.73
187.655	-35.67
187.875	97.45
188.095	-0.85
188.314	52.39
188.534	-33.62
188.753	13.48
188.973	68.78
189.192	-19.29
189.412	79.02
189.631	-13.14
189.851	29.87
190.07	60.59
190.29	-0.85
190.509	23.72
190.729	-2.9
190.948	29.87
191.168	62.63
191.387	76.97
191.607	-9.05
191.826	85.16
192.045	111.78
192.265	17.58
192.484	5.29
192.704	64.68
192.923	27.82
193.142	62.63
193.362	62.63
193.581	-25.43
193.8	42.15
194.02	56.49
194.239	50.35
194.458	64.68
194.678	64.68
194.897	52.39
195.116	42.15
195.335	83.11
195.555	-15.19
195.774	72.87
195.993	19.63
196.212	31.91
196.432	9.39
196.651	-31.57
196.87	-41.81
197.089	66.73
197.308	83.11
197.528	56.49
197.747	31.91
197.966	-39.76
198.185	62.63
198.404	29.87
198.623	91.31
198.842	23.72
199.062	99.5
199.281	60.59
199.5	7.34
199.719	64.68
199.938	79.02
200.157	21.67
200.376	36.01
200.595	50.35
200.814	42.15
201.033	68.78
201.252	101.55
201.471	38.06
201.69	64.68
201.909	42.15
202.128	5.29
202.347	48.3
202.566	36.01
202.785	-9.05
203.004	17.58
203.223	95.4
203.442	29.87
203.661	-25.43
203.879	160.94
204.098	62.63
204.317	-13.14
204.536	74.92
204.755	64.68
204.974	-2.9
205.193	79.02
205.411	-0.85
205.63	74.92
205.849	29.87
206.068	36.01
206.287	103.59
206.505	3.24
206.724	7.34
206.943	11.43
207.162	46.25
207.381	27.82
207.599	44.2
207.818	54.44
208.037	68.78
208.255	46.25
208.474	76.97
208.693	3.24
208.911	58.54
209.13	-47.96
209.349	-4.95
209.567	81.07
209.786	40.11
210.005	-4.95
210.223	56.49
210.442	70.83
210.661	19.63
210.879	42.15
211.098	13.48
211.316	81.07
211.535	13.48
211.753	40.11
211.972	89.26
212.191	46.25
212.409	101.55
212.628	31.91
212.846	-0.85
213.065	36.01
213.283	93.35
213.502	-0.85
213.72	89.26
213.938	33.96
214.157	40.11
214.375	79.02
214.594	48.3
214.812	44.2
215.031	68.78
215.249	-37.72
215.467	89.26
215.686	64.68
215.904	103.59
216.122	23.72
216.341	101.55
216.559	72.87
216.778	42.15
216.996	87.21
217.214	91.31
217.432	50.35
217.651	87.21
217.869	85.16
218.087	11.43
218.306	52.39
218.524	93.35
218.742	105.64
218.96	17.58
219.179	-0.85
219.397	64.68
219.615	19.63
219.833	38.06
220.051	-4.95
220.27	29.87
220.488	40.11
220.706	50.35
220.924	-2.9
221.142	23.72
221.36	1.19
221.578	103.59
221.796	68.78
222.015	33.96
222.233	13.48
222.451	97.45
222.669	5.29
222.887	33.96
223.105	-2.9
223.323	-31.57
223.541	-2.9
223.759	5.29
223.977	44.2
224.195	115.88
224.413	3.24
224.631	91.31
224.849	64.68
225.067	3.24
225.285	-2.9
225.503	46.25
225.721	13.48
225.939	11.43
226.157	48.3
226.375	97.45
226.592	62.63
226.81	48.3
227.028	31.91
227.246	23.72
227.464	48.3
227.682	19.63
227.9	11.43
228.117	64.68
228.335	62.63
228.553	101.55
228.771	62.63
228.989	40.11
229.206	56.49
229.424	72.87
229.642	31.91
229.86	54.44
230.077	150.7
230.295	103.59
230.513	83.11
230.731	36.01
230.948	-19.29
231.166	72.87
231.384	89.26
231.601	115.88
231.819	48.3
232.037	15.53
232.254	52.39
232.472	111.78
232.689	44.2
232.907	105.64
233.125	54.44
233.342	66.73
233.56	-15.19
233.777	-4.95
233.995	44.2
234.213	25.77
234.43	23.72
234.648	109.74
234.865	27.82
235.083	72.87
235.3	54.44
235.518	70.83
235.735	79.02
235.953	36.01
236.17	66.73
236.388	29.87
236.605	142.5
236.822	66.73
237.04	48.3
237.257	54.44
237.475	48.3
237.692	87.21
237.909	17.58
238.127	68.78
238.344	27.82
238.562	58.54
238.779	-25.43
238.996	36.01
239.214	60.59
239.431	81.07
239.648	48.3
239.865	42.15
240.083	105.64
240.3	46.25
240.517	68.78
240.735	48.3
240.952	42.15
241.169	87.21
241.386	-27.48
241.603	54.44
241.821	50.35
242.038	122.02
242.255	9.39
242.472	66.73
242.689	15.53
242.907	91.31
243.124	5.29
243.341	99.5
243.558	42.15
243.775	60.59
243.992	-45.91
244.209	27.82
244.426	31.91
244.643	25.77
244.86	42.15
245.078	89.26
245.295	36.01
245.512	40.11
245.729	-45.91
245.946	62.63
246.163	101.55
246.38	68.78
246.597	15.53
246.814	91.31
247.031	-4.95
247.248	101.55
247.464	93.35
247.681	-35.67
247.898	15.53
248.115	33.96
248.332	58.54
248.549	97.45
248.766	107.69
248.983	29.87
249.2	70.83
249.417	60.59
249.633	54.44
249.85	87.21
250.067	38.06
250.284	19.63
250.501	74.92
250.717	31.91
250.934	9.39
251.151	62.63
251.368	62.63
251.585	-2.9
251.801	56.49
252.018	44.2
252.235	44.2
252.451	56.49
252.668	11.43
252.885	38.06
253.102	17.58
253.318	56.49
253.535	99.5
253.752	11.43
253.968	72.87
254.185	87.21
254.401	31.91
254.618	95.4
254.835	1.19
255.051	38.06
255.268	79.02
255.484	76.97
255.701	62.63
255.917	56.49
256.134	38.06
256.351	50.35
256.567	66.73
256.784	97.45
257	-11.09
257.217	62.63
257.433	33.96
257.65	25.77
257.866	23.72
258.082	-31.57
258.299	56.49
258.515	31.91
258.732	21.67
258.948	42.15
259.165	11.43
259.381	56.49
259.597	9.39
259.814	23.72
260.03	36.01
260.246	54.44
260.463	54.44
260.679	64.68
260.895	-19.29
261.112	-0.85
261.328	-72.53
261.544	44.2
261.761	7.34
261.977	-35.67
262.193	60.59
262.409	29.87
262.626	36.01
262.842	52.39
263.058	19.63
263.274	85.16
263.49	101.55
263.707	60.59
263.923	31.91
264.139	89.26
264.355	-0.85
264.571	128.17
264.787	68.78
265.004	62.63
265.22	15.53
265.436	91.31
265.652	19.63
265.868	40.11
266.084	64.68
266.3	27.82
266.516	46.25
266.732	38.06
266.948	17.58
267.164	64.68
267.38	9.39
267.596	62.63
267.812	54.44
268.028	40.11
268.244	52.39
268.46	1.19
268.676	-29.52
268.892	50.35
269.108	25.77
269.324	-13.14
269.54	40.11
269.756	89.26
269.972	-11.09
270.188	3.24
270.403	17.58
270.619	-45.91
270.835	9.39
271.051	-35.67
271.267	48.3
271.483	-0.85
271.698	54.44
271.914	115.88
272.13	40.11
272.346	74.92
272.562	-17.24
272.777	36.01
272.993	58.54
273.209	29.87
273.425	64.68
273.64	33.96
273.856	-17.24
274.072	64.68
274.287	56.49
274.503	52.39
274.719	52.39
274.934	23.72
275.15	46.25
275.366	15.53
275.581	62.63
275.797	52.39
276.012	85.16
276.228	46.25
276.444	-0.85
276.659	-17.24
276.875	40.11
277.09	40.11
277.306	44.2
277.521	89.26
277.737	31.91
277.952	48.3
278.168	56.49
278.383	113.83
278.599	50.35
278.814	-23.38
279.03	17.58
279.245	81.07
279.461	76.97
279.676	60.59
279.892	36.01
280.107	97.45
280.322	-33.62
280.538	83.11
280.753	56.49
280.969	-0.85
281.184	50.35
281.399	89.26
281.615	-58.2
281.83	36.01
282.045	-4.95
282.26	-39.76
282.476	52.39
282.691	62.63
282.906	42.15
283.122	48.3
283.337	93.35
283.552	64.68
283.767	64.68
283.983	50.35
284.198	40.11
284.413	15.53
284.628	64.68
284.843	19.63
285.058	31.91
285.274	31.91
285.489	146.6
285.704	38.06
285.919	33.96
286.134	81.07
286.349	58.54
286.564	54.44
286.779	142.5
286.995	70.83
287.21	48.3
287.425	60.59
287.64	72.87
287.855	83.11
288.07	-54.1
288.285	89.26
288.5	111.78
288.715	38.06
288.93	-7
289.145	117.93
289.36	33.96
289.575	15.53
289.79	46.25
290.004	117.93
290.219	97.45
290.434	64.68
290.649	62.63
290.864	31.91
291.079	70.83
291.294	38.06
291.509	46.25
291.724	76.97
291.938	48.3
292.153	97.45
292.368	81.07
292.583	7.34
292.798	89.26
293.012	-11.09
293.227	27.82
293.442	23.72
293.657	31.91
293.871	29.87
294.086	56.49
294.301	103.59
294.516	68.78
294.73	175.27
294.945	27.82
295.16	11.43
295.374	72.87
295.589	52.39
295.804	33.96
296.018	29.87
296.233	3.24
296.447	56.49
296.662	5.29
296.877	81.07
297.091	25.77
297.306	-4.95
297.52	31.91
297.735	93.35
297.949	72.87
298.164	113.83
298.378	68.78
298.593	60.59
298.807	36.01
299.022	25.77
299.236	56.49
299.451	60.59
299.665	-2.9
299.88	29.87
300.094	27.82
300.309	93.35
300.523	99.5
300.737	87.21
300.952	87.21
301.166	7.34
301.381	95.4
301.595	31.91
301.809	40.11
302.024	89.26
302.238	60.59
302.452	40.11
302.667	23.72
302.881	93.35
303.095	115.88
303.309	3.24
303.524	70.83
303.738	46.25
303.952	128.17
304.166	89.26
304.381	48.3
304.595	72.87
304.809	60.59
305.023	111.78
305.237	68.78
305.452	105.64
305.666	60.59
305.88	62.63
306.094	101.55
306.308	11.43
306.522	119.98
306.736	25.77
306.95	15.53
307.164	105.64
307.379	38.06
307.593	85.16
307.807	87.21
308.021	54.44
308.235	128.17
308.449	7.34
308.663	60.59
308.877	52.39
309.091	52.39
309.305	60.59
309.519	7.34
309.733	119.98
309.947	7.34
310.161	76.97
310.374	44.2
310.588	81.07
310.802	-2.9
311.016	81.07
311.23	81.07
311.444	19.63
311.658	83.11
311.872	105.64
312.085	56.49
312.299	83.11
312.513	95.4
312.727	13.48
312.941	-29.52
313.154	117.93
313.368	19.63
313.582	76.97
313.796	54.44
314.009	33.96
314.223	68.78
314.437	87.21
314.651	36.01
314.864	38.06
315.078	97.45
315.292	23.72
315.505	48.3
315.719	42.15
315.933	36.01
316.146	-0.85
316.36	58.54
316.573	38.06
316.787	142.5
317.001	31.91
317.214	42.15
317.428	23.72
317.641	11.43
317.855	81.07
318.068	38.06
318.282	128.17
318.495	72.87
318.709	126.12
318.922	25.77
319.136	29.87
319.349	21.67
319.563	19.63
319.776	72.87
319.99	91.31
320.203	76.97
320.417	83.11
320.63	126.12
320.843	140.46
321.057	76.97
321.27	97.45
321.483	101.55
321.697	64.68
321.91	11.43
322.124	101.55
322.337	64.68
322.55	64.68
322.763	7.34
322.977	40.11
323.19	58.54
323.403	91.31
323.617	56.49
323.83	60.59
324.043	25.77
324.256	29.87
324.469	40.11
324.683	107.69
324.896	128.17
325.109	95.4
325.322	54.44
325.535	85.16
325.748	36.01
325.962	-29.52
326.175	72.87
326.388	25.77
326.601	68.78
326.814	40.11
327.027	72.87
327.24	48.3
327.453	19.63
327.666	50.35
327.879	3.24
328.092	103.59
328.305	38.06
328.518	29.87
328.731	72.87
328.944	99.5
329.157	99.5
329.37	81.07
329.583	91.31
329.796	117.93
330.009	42.15
330.222	44.2
330.435	70.83
330.648	87.21
330.861	105.64
331.073	64.68
331.286	101.55
331.499	58.54
331.712	48.3
331.925	113.83
332.138	40.11
332.35	19.63
332.563	81.07
332.776	79.02
332.989	85.16
333.202	31.91
333.414	38.06
333.627	48.3
333.84	29.87
334.053	105.64
334.265	85.16
334.478	44.2
334.691	19.63
334.903	21.67
335.116	17.58
335.329	29.87
335.541	70.83
335.754	64.68
335.966	-2.9
336.179	60.59
336.392	58.54
336.604	11.43
336.817	50.35
337.029	42.15
337.242	103.59
337.454	76.97
337.667	124.07
337.88	95.4
338.092	72.87
338.305	122.02
338.517	95.4
338.729	29.87
338.942	19.63
339.154	81.07
339.367	68.78
339.579	50.35
339.792	-11.09
340.004	42.15
340.217	79.02
340.429	76.97
340.641	107.69
340.854	62.63
341.066	33.96
341.278	48.3
341.491	72.87
341.703	66.73
341.915	31.91
342.128	85.16
342.34	40.11
342.552	15.53
342.764	115.88
342.977	38.06
343.189	70.83
343.401	72.87
343.613	40.11
343.826	109.74
344.038	7.34
344.25	33.96
344.462	38.06
344.674	58.54
344.886	79.02
345.099	85.16
345.311	115.88
345.523	68.78
345.735	31.91
345.947	62.63
346.159	-13.14
346.371	42.15
346.583	-11.09
346.795	169.13
347.007	9.39
347.219	56.49
347.431	-64.34
347.643	95.4
347.855	38.06
348.067	60.59
348.279	-9.05
348.491	38.06
348.703	46.25
348.915	56.49
349.127	-35.67
349.339	36.01
349.551	48.3
349.763	103.59
349.975	72.87
350.187	93.35
350.399	79.02
350.61	66.73
350.822	62.63
351.034	5.29
351.246	87.21
351.458	42.15
351.669	124.07
351.881	64.68
352.093	85.16
352.305	79.02
352.517	48.3
352.728	48.3
352.94	54.44
353.152	66.73
353.363	97.45
353.575	42.15
353.787	5.29
353.999	62.63
354.21	136.36
354.422	48.3
354.633	46.25
354.845	81.07
355.057	40.11
355.268	74.92
355.48	60.59
355.692	68.78
355.903	70.83
356.115	89.26
356.326	54.44
356.538	15.53
356.749	54.44
356.961	177.32
357.172	62.63
357.384	87.21
357.595	74.92
357.807	23.72
358.018	44.2
358.23	107.69
358.441	68.78
358.653	115.88
358.864	91.31
359.075	46.25
359.287	11.43
359.498	76.97
359.709	-21.33
359.921	62.63
360.132	58.54
360.344	134.31
360.555	79.02
360.766	44.2
360.977	27.82
361.189	105.64
361.4	13.48
361.611	111.78
361.823	97.45
362.034	62.63
362.245	126.12
362.456	99.5
362.667	9.39
362.879	72.87
363.09	97.45
363.301	85.16
363.512	70.83
363.723	11.43
363.935	60.59
364.146	93.35
364.357	89.26
364.568	119.98
364.779	31.91
364.99	25.77
365.201	5.29
365.412	72.87
365.623	91.31
365.834	115.88
366.045	97.45
366.256	23.72
366.467	70.83
366.678	-0.85
366.889	76.97
367.1	91.31
367.311	64.68
367.522	48.3
367.733	79.02
367.944	119.98
368.155	68.78
368.366	132.26
368.577	36.01
368.788	105.64
368.999	-15.19
369.209	68.78
369.42	64.68
369.631	81.07
369.842	64.68
370.053	40.11
370.264	146.6
370.474	83.11
370.685	56.49
370.896	60.59
371.107	79.02
371.317	72.87
371.528	48.3
371.739	76.97
371.95	25.77
372.16	91.31
372.371	17.58
372.582	56.49
372.792	27.82
373.003	38.06
373.214	91.31
373.424	93.35
373.635	64.68
373.846	62.63
374.056	91.31
374.267	64.68
374.477	40.11
374.688	87.21
374.898	87.21
375.109	115.88
375.319	56.49
375.53	132.26
375.74	128.17
375.951	81.07
376.161	38.06
376.372	130.22
376.582	130.22
376.793	72.87
377.003	126.12
377.214	21.67
377.424	38.06
377.635	60.59
377.845	122.02
378.055	79.02
378.266	111.78
378.476	76.97
378.686	40.11
378.897	152.74
379.107	156.84
379.317	79.02
379.528	64.68
379.738	89.26
379.948	93.35
380.158	72.87
380.369	23.72
380.579	138.41
380.789	52.39
380.999	140.46
381.21	29.87
381.42	124.07
381.63	72.87
381.84	101.55
382.05	103.59
382.261	60.59
382.471	140.46
382.681	99.5
382.891	101.55
383.101	128.17
383.311	105.64
383.521	76.97
383.731	126.12
383.941	134.31
384.151	66.73
384.361	136.36
384.571	97.45
384.781	89.26
384.991	101.55
385.201	99.5
385.411	48.3
385.621	72.87
385.831	7.34
386.041	54.44
386.251	52.39
386.461	126.12
386.671	38.06
386.881	83.11
387.091	27.82
387.301	58.54
387.511	89.26
387.72	83.11
387.93	93.35
388.14	95.4
388.35	74.92
388.56	105.64
388.769	107.69
388.979	56.49
389.189	56.49
389.399	109.74
389.609	58.54
389.818	107.69
390.028	140.46
390.238	124.07
390.447	36.01
390.657	40.11
390.867	89.26
391.076	138.41
391.286	44.2
391.496	136.36
391.705	70.83
391.915	66.73
392.125	101.55
392.334	113.83
392.544	56.49
392.753	130.22
392.963	70.83
393.172	122.02
393.382	56.49
393.591	93.35
393.801	85.16
394.01	160.94
394.22	195.75
394.429	99.5
394.639	97.45
394.848	154.79
395.058	134.31
395.267	142.5
395.477	111.78
395.686	111.78
395.895	179.37
396.105	142.5
396.314	81.07
396.524	109.74
396.733	154.79
396.942	68.78
397.152	31.91
397.361	117.93
397.57	124.07
397.78	91.31
397.989	115.88
398.198	175.27
398.407	111.78
398.617	101.55
398.826	162.98
399.035	138.41
399.244	201.9
399.453	126.12
399.663	126.12
399.872	234.66
400.081	146.6
400.29	156.84
400.499	134.31
400.708	132.26
400.917	165.03
401.127	140.46
401.336	185.51
401.545	144.55
401.754	103.59
401.963	148.65
402.172	189.61
402.381	142.5
402.59	122.02
402.799	128.17
403.008	203.94
403.217	191.66
403.426	140.46
403.635	124.07
403.844	173.22
404.053	171.18
404.262	187.56
404.471	232.62
404.68	179.37
404.888	246.95
405.097	169.13
405.306	150.7
405.515	167.08
405.724	224.42
405.933	203.94
406.142	242.85
406.35	189.61
406.559	244.9
406.768	249
406.977	220.33
407.185	259.24
407.394	205.99
407.603	167.08
407.812	267.43
408.02	253.09
408.229	294.05
408.438	283.81
408.646	218.28
408.855	261.29
409.064	330.92
409.272	246.95
409.481	361.64
409.69	285.86
409.898	341.16
410.107	324.77
410.315	359.59
410.524	353.45
410.733	396.45
410.941	412.84
411.15	386.21
411.358	488.61
411.567	474.28
411.775	511.14
411.984	453.8
412.192	480.42
412.401	511.14
412.609	541.86
412.818	584.87
413.026	560.29
413.234	556.19
413.443	611.49
413.651	650.4
413.86	603.3
414.068	760.99
414.276	724.13
414.485	685.22
414.693	783.52
414.901	789.66
415.11	787.61
415.318	711.84
415.526	853.15
415.734	943.26
415.943	941.21
416.151	949.4
416.359	869.53
416.567	990.36
416.776	1004.7
416.984	1143.96
417.192	1146.01
417.4	1137.82
417.608	1090.71
417.817	1076.38
418.025	1283.22
418.233	1311.89
418.441	1330.33
418.649	1307.8
418.857	1352.85
419.065	1522.84
419.273	1408.15
419.481	1514.64
419.689	1705.1
419.897	1688.72
420.105	1735.82
420.313	1727.63
420.521	1848.46
420.729	1897.61
420.937	1967.24
421.145	2000.01
421.353	2059.4
421.561	2137.23
421.769	2200.71
421.977	2387.08
422.185	2301.06
422.393	2399.37
422.601	2784.38
422.809	2585.73
423.017	2686.08
423.224	2786.43
423.432	2739.33
423.64	2886.78
423.848	3153.02
424.056	3030.14
424.263	3198.07
424.471	3196.03
424.679	3343.48
424.887	3554.42
425.094	3628.15
425.302	3535.99
425.51	3673.2
425.718	3785.84
425.925	3839.09
426.133	3929.2
426.341	4306.02
426.548	4441.19
426.756	4529.25
426.964	4480.1
427.171	4744.29
427.379	4887.65
427.586	4955.23
427.794	5012.57
428.001	5364.82
428.209	5563.48
428.417	5534.81
428.624	5882.96
428.832	5823.57
429.039	5792.85
429.247	5880.91
429.454	6450.25
429.662	6784.07
429.869	6321.23
430.076	6849.6
430.284	6648.9
430.491	6929.47
430.699	7228.48
430.906	7285.82
431.114	7453.75
431.321	7676.98
431.528	7861.3
431.736	8395.82
431.943	8717.35
432.15	8492.07
432.358	8520.74
432.565	9063.46
432.772	8959.01
432.979	9436.19
433.187	9509.91
433.394	9747.48
433.601	10447.88
433.808	10478.6
434.016	10259.47
434.223	10740.74
434.43	11295.74
434.637	11107.33
434.844	11965.43
435.052	12186.61
435.259	12024.82
435.466	12221.42
435.673	12024.82
435.88	12966.88
436.087	13304.8
436.294	13534.17
436.501	13241.31
436.708	13454.3
436.915	13847.51
437.122	14683.08
437.329	14728.14
437.537	15123.4
437.743	15276.99
437.95	15078.34
438.157	15924.15
438.364	16462.77
438.571	16395.18
438.778	16423.86
438.985	18099.09
439.192	17355.68
439.399	17976.22
439.606	17554.33
439.813	18289.56
440.02	19454.85
440.227	18998.15
440.433	19094.41
440.64	19821.44
440.847	19772.28
441.054	20104.06
441.261	21642.08
441.467	21175.14
441.674	21494.63
441.881	22336.34
442.088	22412.12
442.294	22023
442.501	22872.91
442.708	23466.82
442.914	24218.43
443.121	25277.22
443.328	24687.41
443.534	26137.37
443.741	25461.54
443.948	24888.11
444.154	27312.91
444.361	26841.87
444.568	27112.2
444.774	27007.76
444.981	27415.3
445.187	28171
445.394	29352.68
445.6	29342.44
445.807	32008.9
446.013	30778.07
446.22	31081.17
446.426	32172.74
446.633	32547.51
446.839	33917.61
447.046	32236.22
447.252	34103.97
447.459	34474.65
447.665	33757.86
447.871	35302.03
448.078	37010.04
448.284	35537.55
448.491	36614.78
448.697	37827.18
448.903	38890.07
449.11	38412.9
449.316	37956.2
449.522	38767.2
449.728	40237.64
449.935	39846.47
450.141	39961.16
450.347	40948.28
450.553	39776.84
450.76	40168.01
450.966	41660.97
451.172	41187.89
451.378	42248.74
451.584	41173.56
451.791	42191.4
451.997	42215.97
452.203	42928.67
452.409	42795.55
452.615	43035.16
452.821	41413.17
453.027	41138.74
453.233	43364.88
453.44	41212.47
453.646	41882.16
453.852	41935.4
454.058	43010.59
454.264	41323.06
454.47	42172.97
454.676	41159.22
454.882	42566.18
455.088	39440.98
455.294	39305.81
455.5	40323.65
455.705	40686.14
455.911	39172.69
456.117	38355.55
456.323	37585.52
456.529	35685
456.735	37835.37
456.941	36547.2
457.147	35785.35
457.352	34300.58
457.558	34202.27
457.764	34282.14
457.97	33966.76
458.176	33141.42
458.381	33059.51
458.587	31713.99
458.793	31267.53
458.999	29825.76
459.204	31994.56
459.41	31308.49
459.616	28791.54
459.821	29272.81
460.027	29045.49
460.233	28510.97
460.438	26977.04
460.644	27573
460.85	25955.1
461.055	25701.15
461.261	25895.71
461.466	23634.75
461.672	23053.13
461.878	25121.58
462.083	22821.71
462.289	22578
462.494	22442.84
462.7	21400.42
462.905	20835.18
463.111	21754.72
463.316	21576.55
463.522	21138.28
463.727	21439.33
463.932	21117.8
464.138	21226.34
464.343	20978.54
464.549	20683.63
464.754	20872.04
464.959	20632.43
465.165	20947.82
465.37	20007.8
465.575	19678.08
465.781	20188.02
465.986	19954.55
466.191	19604.35
466.397	19315.59
466.602	18355.09
466.807	19069.83
467.012	19090.31
467.218	18832.27
