Data from USB4F104151__23__11-36-34-727.txt Node

Date: Fri Mar 14 11:36:34 EDT 2025
User: louis
Spectrometer: USB4F10415
Trigger mode: 4
Integration Time (sec): 2.000000E-2
Scans to average: 1
Electric dark correction enabled: true
Nonlinearity correction enabled: false
Boxcar width: 0
XAxis mode: Wavelengths
Number of Pixels in Spectrum: 3648
>>>>>Begin Spectral Data<<<<<
178.204	-61.44
178.424	-61.44
178.644	-61.44
178.864	-61.44
179.084	-38.91
179.304	73.73
179.524	8.19
179.744	-12.29
179.964	75.77
180.184	20.48
180.404	-69.63
180.624	-20.48
180.844	45.06
181.064	-40.96
181.283	-30.72
181.503	-53.25
181.723	4.1
181.943	-14.34
182.163	45.06
182.383	10.24
182.602	-6.14
182.822	-8.19
183.042	40.96
183.262	-16.38
183.482	18.43
183.701	-20.48
183.921	2.05
184.141	18.43
184.361	43.01
184.58	86.01
184.8	16.38
185.02	55.3
185.239	88.06
185.459	26.62
185.679	57.34
185.898	75.77
186.118	8.19
186.338	45.06
186.557	69.63
186.777	55.3
186.997	-24.58
187.216	26.62
187.436	57.34
187.655	65.53
187.875	32.77
188.095	90.11
188.314	122.88
188.534	-8.19
188.753	-6.14
188.973	43.01
189.192	40.96
189.412	26.62
189.631	81.92
189.851	83.97
190.07	88.06
190.29	28.67
190.509	-34.82
190.729	59.39
190.948	120.83
191.168	45.06
191.387	59.39
191.607	26.62
191.826	2.05
192.045	75.77
192.265	-20.48
192.484	6.14
192.704	28.67
192.923	92.16
193.142	43.01
193.362	45.06
193.581	65.53
193.8	65.53
194.02	53.25
194.239	-2.05
194.458	-24.58
194.678	-12.29
194.897	90.11
195.116	47.1
195.335	-16.38
195.555	-10.24
195.774	-18.43
195.993	133.12
196.212	-4.1
196.432	-32.77
196.651	77.82
196.87	-8.19
197.089	153.6
197.308	26.62
197.528	30.72
197.747	12.29
197.966	-55.3
198.185	86.01
198.404	2.05
198.623	26.62
198.842	73.73
199.062	124.93
199.281	151.55
199.5	-28.67
199.719	65.53
199.938	94.21
200.157	73.73
200.376	81.92
200.595	94.21
200.814	73.73
201.033	6.14
201.252	98.3
201.471	98.3
201.69	4.1
201.909	61.44
202.128	49.15
202.347	59.39
202.566	81.92
202.785	30.72
203.004	65.53
203.223	81.92
203.442	38.91
203.661	8.19
203.879	57.34
204.098	65.53
204.317	65.53
204.536	45.06
204.755	8.19
204.974	75.77
205.193	16.38
205.411	102.4
205.63	106.49
205.849	88.06
206.068	2.05
206.287	63.49
206.505	65.53
206.724	20.48
206.943	-51.2
207.162	57.34
207.381	40.96
207.599	24.58
207.818	45.06
208.037	6.14
208.255	73.73
208.474	108.54
208.693	36.86
208.911	77.82
209.13	-10.24
209.349	49.15
209.567	47.1
209.786	26.62
210.005	8.19
210.223	67.58
210.442	10.24
210.661	45.06
210.879	-22.53
211.098	16.38
211.316	69.63
211.535	65.53
211.753	43.01
211.972	53.25
212.191	-53.25
212.409	6.14
212.628	28.67
212.846	59.39
213.065	53.25
213.283	10.24
213.502	51.2
213.72	45.06
213.938	90.11
214.157	57.34
214.375	16.38
214.594	4.1
214.812	-12.29
215.031	6.14
215.249	69.63
215.467	106.49
215.686	24.58
215.904	88.06
216.122	126.97
216.341	10.24
216.559	26.62
216.778	81.92
216.996	67.58
217.214	-28.67
217.432	77.82
217.651	83.97
217.869	6.14
218.087	12.29
218.306	98.3
218.524	57.34
218.742	57.34
218.96	75.77
219.179	28.67
219.397	40.96
219.615	22.53
219.833	77.82
220.051	53.25
220.27	20.48
220.488	8.19
220.706	36.86
220.924	40.96
221.142	26.62
221.36	43.01
221.578	45.06
221.796	61.44
222.015	110.59
222.233	28.67
222.451	108.54
222.669	-26.62
222.887	67.58
223.105	10.24
223.323	45.06
223.541	12.29
223.759	-34.82
223.977	75.77
224.195	110.59
224.413	18.43
224.631	-2.05
224.849	57.34
225.067	159.74
225.285	47.1
225.503	28.67
225.721	38.91
225.939	45.06
226.157	16.38
226.375	135.17
226.592	-0
226.81	-40.96
227.028	45.06
227.246	77.82
227.464	36.86
227.682	53.25
227.9	98.3
228.117	4.1
228.335	-12.29
228.553	-4.1
228.771	61.44
228.989	-16.38
229.206	75.77
229.424	28.67
229.642	57.34
229.86	96.25
230.077	57.34
230.295	36.86
230.513	18.43
230.731	22.53
230.948	104.45
231.166	-14.34
231.384	32.77
231.601	18.43
231.819	34.82
232.037	14.34
232.254	-49.15
232.472	61.44
232.689	96.25
232.907	28.67
233.125	51.2
233.342	18.43
233.56	22.53
233.777	-24.58
233.995	57.34
234.213	55.3
234.43	28.67
234.648	55.3
234.865	110.59
235.083	75.77
235.3	61.44
235.518	96.25
235.735	79.87
235.953	40.96
236.17	34.82
236.388	36.86
236.605	26.62
236.822	51.2
237.04	-40.96
237.257	59.39
237.475	98.3
237.692	53.25
237.909	-2.05
238.127	75.77
238.344	49.15
238.562	77.82
238.779	55.3
238.996	-8.19
239.214	108.54
239.431	65.53
239.648	40.96
239.865	131.07
240.083	65.53
240.3	28.67
240.517	77.82
240.735	61.44
240.952	102.4
241.169	71.68
241.386	55.3
241.603	22.53
241.821	20.48
242.038	53.25
242.255	51.2
242.472	69.63
242.689	53.25
242.907	10.24
243.124	61.44
243.341	12.29
243.558	-43.01
243.775	-32.77
243.992	63.49
244.209	57.34
244.426	77.82
244.643	124.93
244.86	43.01
245.078	106.49
245.295	30.72
245.512	55.3
245.729	4.1
245.946	40.96
246.163	36.86
246.38	-0
246.597	22.53
246.814	67.58
247.031	16.38
247.248	26.62
247.464	73.73
247.681	86.01
247.898	-0
248.115	92.16
248.332	14.34
248.549	65.53
248.766	83.97
248.983	110.59
249.2	61.44
249.417	4.1
249.633	-4.1
249.85	28.67
250.067	47.1
250.284	47.1
250.501	118.78
250.717	83.97
250.934	45.06
251.151	8.19
251.368	24.58
251.585	-20.48
251.801	53.25
252.018	22.53
252.235	12.29
252.451	36.86
252.668	18.43
252.885	108.54
253.102	8.19
253.318	77.82
253.535	-18.43
253.752	124.93
253.968	90.11
254.185	-10.24
254.401	71.68
254.618	14.34
254.835	61.44
255.051	57.34
255.268	73.73
255.484	75.77
255.701	-4.1
255.917	36.86
256.134	32.77
256.351	38.91
256.567	34.82
256.784	55.3
257	2.05
257.217	81.92
257.433	-22.53
257.65	36.86
257.866	75.77
258.082	-6.14
258.299	20.48
258.515	69.63
258.732	-36.86
258.948	34.82
259.165	-0
259.381	36.86
259.597	86.01
259.814	28.67
260.03	-10.24
260.246	102.4
260.463	55.3
260.679	28.67
260.895	-28.67
261.112	-14.34
261.328	53.25
261.544	67.58
261.761	59.39
261.977	4.1
262.193	77.82
262.409	28.67
262.626	2.05
262.842	10.24
263.058	81.92
263.274	28.67
263.49	10.24
263.707	155.65
263.923	126.97
264.139	6.14
264.355	98.3
264.571	174.08
264.787	-36.86
265.004	-73.73
265.22	10.24
265.436	28.67
265.652	16.38
265.868	51.2
266.084	59.39
266.3	28.67
266.516	45.06
266.732	63.49
266.948	63.49
267.164	114.69
267.38	55.3
267.596	65.53
267.812	38.91
268.028	73.73
268.244	53.25
268.46	18.43
268.676	-8.19
268.892	86.01
269.108	73.73
269.324	94.21
269.54	-6.14
269.756	94.21
269.972	81.92
270.188	26.62
270.403	-10.24
270.619	36.86
270.835	81.92
271.051	24.58
271.267	32.77
271.483	59.39
271.698	83.97
271.914	73.73
272.13	-59.39
272.346	36.86
272.562	10.24
272.777	77.82
272.993	-24.58
273.209	-2.05
273.425	61.44
273.64	59.39
273.856	20.48
274.072	16.38
274.287	36.86
274.503	86.01
274.719	16.38
274.934	-6.14
275.15	-2.05
275.366	-6.14
275.581	36.86
275.797	-24.58
276.012	69.63
276.228	57.34
276.444	75.77
276.659	55.3
276.875	110.59
277.09	34.82
277.306	40.96
277.521	88.06
277.737	6.14
277.952	-30.72
278.168	92.16
278.383	20.48
278.599	20.48
278.814	90.11
279.03	59.39
279.245	61.44
279.461	6.14
279.676	49.15
279.892	43.01
280.107	43.01
280.322	-81.92
280.538	43.01
280.753	51.2
280.969	8.19
281.184	81.92
281.399	57.34
281.615	6.14
281.83	77.82
282.045	57.34
282.26	77.82
282.476	-0
282.691	51.2
282.906	10.24
283.122	110.59
283.337	10.24
283.552	86.01
283.767	4.1
283.983	65.53
284.198	34.82
284.413	79.87
284.628	14.34
284.843	159.74
285.058	-18.43
285.274	26.62
285.489	16.38
285.704	-10.24
285.919	116.73
286.134	8.19
286.349	81.92
286.564	43.01
286.779	57.34
286.995	32.77
287.21	14.34
287.425	53.25
287.64	51.2
287.855	30.72
288.07	55.3
288.285	-4.1
288.5	12.29
288.715	96.25
288.93	16.38
289.145	36.86
289.36	38.91
289.575	65.53
289.79	79.87
290.004	83.97
290.219	102.4
290.434	-28.67
290.649	102.4
290.864	-26.62
291.079	77.82
291.294	36.86
291.509	47.1
291.724	-16.38
291.938	-40.96
292.153	43.01
292.368	116.73
292.583	45.06
292.798	75.77
293.012	43.01
293.227	94.21
293.442	67.58
293.657	77.82
293.871	83.97
294.086	92.16
294.301	71.68
294.516	24.58
294.73	75.77
294.945	-94.21
295.16	-4.1
295.374	120.83
295.589	38.91
295.804	34.82
296.018	-8.19
296.233	65.53
296.447	57.34
296.662	16.38
296.877	61.44
297.091	22.53
297.306	28.67
297.52	86.01
297.735	53.25
297.949	65.53
298.164	30.72
298.378	10.24
298.593	18.43
298.807	45.06
299.022	-20.48
299.236	-22.53
299.451	18.43
299.665	2.05
299.88	108.54
300.094	6.14
300.309	10.24
300.523	12.29
300.737	-2.05
300.952	69.63
301.166	36.86
301.381	-22.53
301.595	61.44
301.809	61.44
302.024	71.68
302.238	120.83
302.452	38.91
302.667	83.97
302.881	32.77
303.095	69.63
303.309	14.34
303.524	61.44
303.738	81.92
303.952	94.21
304.166	98.3
304.381	-0
304.595	77.82
304.809	43.01
305.023	28.67
305.237	28.67
305.452	75.77
305.666	-10.24
305.88	77.82
306.094	-12.29
306.308	34.82
306.522	100.35
306.736	69.63
306.95	59.39
307.164	100.35
307.379	55.3
307.593	100.35
307.807	63.49
308.021	16.38
308.235	151.55
308.449	49.15
308.663	61.44
308.877	75.77
309.091	4.1
309.305	-0
309.519	18.43
309.733	53.25
309.947	2.05
310.161	26.62
310.374	40.96
310.588	83.97
310.802	-36.86
311.016	-8.19
311.23	4.1
311.444	77.82
311.658	65.53
311.872	102.4
312.085	22.53
312.299	22.53
312.513	12.29
312.727	-16.38
312.941	36.86
313.154	45.06
313.368	110.59
313.582	-0
313.796	90.11
314.009	-8.19
314.223	26.62
314.437	20.48
314.651	71.68
314.864	34.82
315.078	-14.34
315.292	-0
315.505	69.63
315.719	40.96
315.933	22.53
316.146	2.05
316.36	2.05
316.573	32.77
316.787	36.86
317.001	16.38
317.214	24.58
317.428	6.14
317.641	28.67
317.855	55.3
318.068	45.06
318.282	47.1
318.495	69.63
318.709	59.39
318.922	53.25
319.136	94.21
319.349	47.1
319.563	86.01
319.776	-16.38
319.99	-16.38
320.203	28.67
320.417	36.86
320.63	96.25
320.843	90.11
321.057	32.77
321.27	24.58
321.483	122.88
321.697	69.63
321.91	-18.43
322.124	75.77
322.337	32.77
322.55	88.06
322.763	51.2
322.977	55.3
323.19	34.82
323.403	36.86
323.617	-28.67
323.83	20.48
324.043	65.53
324.256	12.29
324.469	40.96
324.683	96.25
324.896	2.05
325.109	38.91
325.322	-43.01
325.535	49.15
325.748	-30.72
325.962	34.82
326.175	73.73
326.388	53.25
326.601	14.34
326.814	-2.05
327.027	24.58
327.24	94.21
327.453	100.35
327.666	59.39
327.879	24.58
328.092	122.88
328.305	36.86
328.518	47.1
328.731	20.48
328.944	86.01
329.157	75.77
329.37	49.15
329.583	92.16
329.796	108.54
330.009	-0
330.222	102.4
330.435	96.25
330.648	40.96
330.861	163.84
331.073	34.82
331.286	36.86
331.499	63.49
331.712	10.24
331.925	77.82
332.138	106.49
332.35	98.3
332.563	22.53
332.776	98.3
332.989	-6.14
333.202	45.06
333.414	26.62
333.627	79.87
333.84	65.53
334.053	110.59
334.265	-0
334.478	14.34
334.691	49.15
334.903	98.3
335.116	61.44
335.329	34.82
335.541	71.68
335.754	118.78
335.966	104.45
336.179	36.86
336.392	-53.25
336.604	88.06
336.817	57.34
337.029	53.25
337.242	32.77
337.454	34.82
337.667	4.1
337.88	126.97
338.092	118.78
338.305	55.3
338.517	73.73
338.729	96.25
338.942	57.34
339.154	16.38
339.367	-24.58
339.579	75.77
339.792	22.53
340.004	22.53
340.217	69.63
340.429	20.48
340.641	-32.77
340.854	30.72
341.066	83.97
341.278	71.68
341.491	18.43
341.703	83.97
341.915	53.25
342.128	73.73
342.34	79.87
342.552	90.11
342.764	36.86
342.977	51.2
343.189	77.82
343.401	77.82
343.613	43.01
343.826	47.1
344.038	26.62
344.25	102.4
344.462	81.92
344.674	94.21
344.886	36.86
345.099	102.4
345.311	4.1
345.523	67.58
345.735	53.25
345.947	110.59
346.159	90.11
346.371	43.01
346.583	108.54
346.795	131.07
347.007	106.49
347.219	135.17
347.431	32.77
347.643	61.44
347.855	61.44
348.067	83.97
348.279	77.82
348.491	79.87
348.703	83.97
348.915	-0
349.127	-2.05
349.339	118.78
349.551	67.58
349.763	14.34
349.975	30.72
350.187	61.44
350.399	4.1
350.61	51.2
350.822	81.92
351.034	32.77
351.246	36.86
351.458	98.3
351.669	98.3
351.881	79.87
352.093	28.67
352.305	14.34
352.517	-34.82
352.728	131.07
352.94	20.48
353.152	22.53
353.363	-12.29
353.575	61.44
353.787	75.77
353.999	79.87
354.21	116.73
354.422	8.19
354.633	75.77
354.845	53.25
355.057	40.96
355.268	69.63
355.48	190.46
355.692	71.68
355.903	71.68
356.115	75.77
356.326	69.63
356.538	67.58
356.749	137.21
356.961	96.25
357.172	106.49
357.384	4.1
357.595	120.83
357.807	-8.19
358.018	20.48
358.23	161.79
358.441	86.01
358.653	94.21
358.864	57.34
359.075	24.58
359.287	75.77
359.498	90.11
359.709	102.4
359.921	65.53
360.132	65.53
360.344	61.44
360.555	10.24
360.766	57.34
360.977	4.1
361.189	77.82
361.4	79.87
361.611	-2.05
361.823	45.06
362.034	106.49
362.245	28.67
362.456	36.86
362.667	53.25
362.879	49.15
363.09	110.59
363.301	92.16
363.512	108.54
363.723	36.86
363.935	18.43
364.146	61.44
364.357	36.86
364.568	73.73
364.779	10.24
364.99	102.4
365.201	28.67
365.412	57.34
365.623	40.96
365.834	86.01
366.045	24.58
366.256	108.54
366.467	34.82
366.678	57.34
366.889	22.53
367.1	26.62
367.311	86.01
367.522	30.72
367.733	155.65
367.944	92.16
368.155	67.58
368.366	34.82
368.577	45.06
368.788	79.87
368.999	-14.34
369.209	59.39
369.42	176.13
369.631	65.53
369.842	55.3
370.053	28.67
370.264	69.63
370.474	90.11
370.685	69.63
370.896	6.14
371.107	18.43
371.317	104.45
371.528	61.44
371.739	10.24
371.95	81.92
372.16	16.38
372.371	4.1
372.582	114.69
372.792	102.4
373.003	61.44
373.214	36.86
373.424	55.3
373.635	12.29
373.846	73.73
374.056	53.25
374.267	112.64
374.477	94.21
374.688	43.01
374.898	118.78
375.109	65.53
375.319	81.92
375.53	92.16
375.74	126.97
375.951	98.3
376.161	20.48
376.372	71.68
376.582	43.01
376.793	47.1
377.003	65.53
377.214	28.67
377.424	63.49
377.635	102.4
377.845	61.44
378.055	71.68
378.266	83.97
378.476	71.68
378.686	77.82
378.897	69.63
379.107	126.97
379.317	86.01
379.528	92.16
379.738	63.49
379.948	34.82
380.158	124.93
380.369	28.67
380.579	108.54
380.789	81.92
380.999	4.1
381.21	108.54
381.42	71.68
381.63	16.38
381.84	110.59
382.05	36.86
382.261	88.06
382.471	86.01
382.681	67.58
382.891	122.88
383.101	55.3
383.311	112.64
383.521	45.06
383.731	40.96
383.941	137.21
384.151	114.69
384.361	40.96
384.571	55.3
384.781	143.36
384.991	94.21
385.201	81.92
385.411	-24.58
385.621	20.48
385.831	6.14
386.041	124.93
386.251	65.53
386.461	32.77
386.671	32.77
386.881	90.11
387.091	49.15
387.301	114.69
387.511	32.77
387.72	114.69
387.93	86.01
388.14	47.1
388.35	69.63
388.56	120.83
388.769	65.53
388.979	108.54
389.189	30.72
389.399	83.97
389.609	114.69
389.818	98.3
390.028	71.68
390.238	32.77
390.447	47.1
390.657	79.87
390.867	90.11
391.076	34.82
391.286	57.34
391.496	59.39
391.705	47.1
391.915	104.45
392.125	32.77
392.334	81.92
392.544	159.74
392.753	75.77
392.963	83.97
393.172	110.59
393.382	53.25
393.591	67.58
393.801	122.88
394.01	116.73
394.22	96.25
394.429	40.96
394.639	77.82
394.848	77.82
395.058	32.77
395.267	147.45
395.477	83.97
395.686	83.97
395.895	129.02
396.105	172.03
396.314	86.01
396.524	92.16
396.733	36.86
396.942	126.97
397.152	106.49
397.361	133.12
397.57	32.77
397.78	112.64
397.989	67.58
398.198	143.36
398.407	77.82
398.617	165.89
398.826	88.06
399.035	147.45
399.244	81.92
399.453	118.78
399.663	126.97
399.872	67.58
400.081	38.91
400.29	184.32
400.499	102.4
400.708	61.44
400.917	149.5
401.127	86.01
401.336	139.26
401.545	217.08
401.754	102.4
401.963	186.37
402.172	155.65
402.381	135.17
402.59	122.88
402.799	155.65
403.008	190.46
403.217	196.6
403.426	135.17
403.635	159.74
403.844	186.37
404.053	92.16
404.262	92.16
404.471	157.69
404.68	169.98
404.888	110.59
405.097	137.21
405.306	159.74
405.515	155.65
405.724	192.51
405.933	256
406.142	200.7
406.35	208.89
406.559	198.65
406.768	245.76
406.977	247.8
407.185	221.18
407.394	270.33
407.603	245.76
407.812	174.08
408.02	317.44
408.229	335.87
408.438	221.18
408.646	249.85
408.855	264.19
409.064	348.15
409.272	294.91
409.481	374.78
409.69	337.91
409.898	307.2
410.107	417.79
410.315	303.1
410.524	339.96
410.733	358.39
410.941	309.24
411.15	401.4
411.358	438.27
411.567	452.6
411.775	352.25
411.984	475.13
412.192	415.74
412.401	444.41
412.609	530.42
412.818	522.23
413.026	485.37
413.234	538.62
413.443	567.29
413.651	524.28
413.86	628.73
414.068	675.83
414.276	630.77
414.485	657.4
414.693	673.78
414.901	681.97
415.11	727.03
415.318	757.75
415.526	755.7
415.734	767.99
415.943	811
416.151	897.01
416.359	827.38
416.567	843.76
416.776	892.91
416.984	923.63
417.192	978.93
417.4	1011.7
417.608	958.45
417.817	1044.46
418.025	1167.34
418.233	1257.45
418.441	1159.15
418.649	1216.49
418.857	1433.58
419.065	1288.17
419.273	1335.28
419.481	1316.84
419.689	1409
419.897	1490.92
420.105	1658.85
420.313	1589.22
420.521	1746.92
420.729	1642.47
420.937	1738.73
421.145	1802.21
421.353	1894.37
421.561	1994.72
421.769	2025.44
421.977	2230.24
422.185	2074.59
422.393	2277.34
422.601	2285.53
422.809	2359.26
423.017	2492.38
423.224	2363.36
423.432	2623.45
423.64	2531.29
423.848	2815.96
424.056	2752.47
424.263	3006.42
424.471	2947.03
424.679	3018.71
424.887	3153.87
425.094	3198.93
425.302	3280.85
425.51	3319.76
425.718	3348.43
425.925	3538.89
426.133	3669.96
426.341	3964.87
426.548	4095.94
426.756	3983.3
426.964	4169.66
427.171	4163.52
427.379	4388.8
427.586	4521.91
427.794	4396.99
428.001	4757.43
428.209	5173.17
428.417	5148.59
428.624	5384.11
428.832	5341.1
429.039	5242.8
429.247	5478.32
429.454	5779.37
429.662	6223.78
429.869	5805.99
430.076	6225.82
430.284	6016.93
430.491	6256.54
430.699	6705.05
430.906	6553.5
431.114	6829.98
431.321	7167.89
431.528	7214.99
431.736	7616.4
431.943	7903.11
432.15	7612.3
432.358	7714.7
432.565	8316.8
432.772	8370.05
432.979	8556.41
433.187	8863.61
433.394	8742.78
433.601	9258.87
433.808	9338.74
434.016	9404.27
434.223	9768.81
434.43	10178.4
434.637	10192.74
434.844	10817.37
435.052	11063.13
435.259	10841.95
435.466	10747.74
435.673	10940.25
435.88	11720.53
436.087	12273.48
436.294	12357.44
436.501	12058.44
436.708	12369.73
436.915	12762.94
437.122	13164.34
437.329	13281.08
437.537	13479.73
437.743	13721.39
437.95	13616.94
438.157	14327.59
438.364	14894.88
438.571	14960.41
438.778	14962.46
438.985	16293.64
439.192	15755.02
439.399	16250.63
439.606	15628.05
439.813	16795.39
440.02	17743.6
440.227	17274.62
440.433	17219.32
440.64	17934.06
440.847	17473.27
441.054	18110.19
441.261	19488.47
441.467	19209.95
441.674	19408.6
441.881	20385.48
442.088	20111.05
442.294	19701.46
442.501	20285.13
442.708	20942.53
442.914	21882.55
443.121	22566.57
443.328	22122.16
443.534	23512.73
443.741	22881.95
443.948	22671.01
444.154	24116.88
444.361	23850.64
444.568	24448.65
444.774	24309.39
444.981	24530.57
445.187	24997.51
445.394	26234.48
445.6	25736.82
445.807	28532.3
446.013	26992.23
446.22	27874.9
446.426	28855.88
446.633	29118.02
446.839	30486.06
447.046	28843.59
447.252	30178.87
447.459	30742.06
447.665	30283.31
447.871	31841.82
448.078	33064.46
448.284	31501.86
448.491	32695.82
448.697	33562.11
448.903	34313.72
449.11	34135.54
449.316	33789.44
449.522	34422.26
449.728	35306.98
449.935	35583.46
450.141	35429.86
450.347	36335.06
450.553	35268.07
450.76	35362.28
450.966	36613.59
451.172	36582.87
451.378	37043.66
451.584	36720.08
451.791	37217.74
451.997	37371.33
452.203	38139.32
452.409	37762.5
452.615	37512.64
452.821	36081.11
453.027	35538.4
453.233	37623.23
453.44	36310.49
453.646	36933.07
453.852	37027.27
454.058	37168.58
454.264	36599.25
454.47	37002.7
454.676	36011.48
454.882	37551.55
455.088	34012.66
455.294	34526.71
455.5	35079.66
455.705	35749.34
455.911	33924.6
456.117	33527.3
456.323	32826.89
456.529	31170.08
456.735	32613.9
456.941	31634.97
457.147	31137.32
457.352	30234.16
457.558	30021.17
457.764	30074.42
457.97	29472.32
458.176	28931.65
458.381	28812.87
458.587	27319.9
458.793	27508.32
458.999	25796.21
459.204	27840.09
459.41	26846.82
459.616	25378.43
459.821	25239.17
460.027	25312.89
460.233	24815.24
460.438	23240.35
460.644	23817.88
460.85	22757.03
461.055	22484.65
461.261	22091.44
461.466	20643.52
461.672	19893.97
461.878	21223.1
462.083	19828.43
462.289	19654.36
462.494	19240.67
462.7	18433.77
462.905	18015.98
463.111	18767.59
463.316	18902.75
463.522	18562.79
463.727	18390.76
463.932	18126.57
464.138	18198.25
464.343	18231.02
464.549	17657.59
464.754	18161.39
464.959	18188.01
465.165	17841.9
465.37	17245.94
465.575	16742.14
465.781	17393.4
465.986	17561.33
466.191	16826.11
466.397	16742.14
466.602	15669.01
466.807	16502.53
467.012	16553.73
467.218	16406.28
467.423	16281.35
467.628	15970.06
467.833	16793.34
