Data from USB4F104151__62__11-37-25-780.txt Node

Date: Fri Mar 14 11:37:25 EDT 2025
User: louis
Spectrometer: USB4F10415
Trigger mode: 4
Integration Time (sec): 2.000000E-2
Scans to average: 1
Electric dark correction enabled: true
Nonlinearity correction enabled: false
Boxcar width: 0
XAxis mode: Wavelengths
Number of Pixels in Spectrum: 3648
>>>>>Begin Spectral Data<<<<<
178.204	-97.11
178.424	-97.11
178.644	-97.11
178.864	-95.06
179.084	-72.53
179.304	-21.33
179.524	11.43
179.744	-23.38
179.964	-17.24
180.184	-23.38
180.404	50.35
180.624	5.29
180.844	15.53
181.064	-29.52
181.283	-29.52
181.503	36.01
181.723	25.77
181.943	-13.14
182.163	11.43
182.383	13.48
182.602	17.58
182.822	25.77
183.042	9.39
183.262	9.39
183.482	68.78
183.701	-45.91
183.921	-97.11
184.141	5.29
184.361	-0.85
184.58	-29.52
184.8	31.91
185.02	-43.86
185.239	-13.14
185.459	64.68
185.679	-17.24
185.898	-80.72
186.118	11.43
186.338	13.48
186.557	33.96
186.777	-17.24
186.997	-23.38
187.216	31.91
187.436	23.72
187.655	19.63
187.875	68.78
188.095	-68.44
188.314	46.25
188.534	142.5
188.753	48.3
188.973	27.82
189.192	-45.91
189.412	29.87
189.631	-19.29
189.851	-39.76
190.07	44.2
190.29	-123.73
190.509	50.35
190.729	-80.72
190.948	-0.85
191.168	17.58
191.387	11.43
191.607	50.35
191.826	-21.33
192.045	-17.24
192.265	-25.43
192.484	-13.14
192.704	62.63
192.923	-23.38
193.142	48.3
193.362	31.91
193.581	58.54
193.8	-33.62
194.02	11.43
194.239	-2.9
194.458	33.96
194.678	-0.85
194.897	79.02
195.116	-66.39
195.335	5.29
195.555	68.78
195.774	15.53
195.993	-68.44
196.212	-33.62
196.432	-29.52
196.651	19.63
196.87	-11.09
197.089	11.43
197.308	-9.05
197.528	36.01
197.747	9.39
197.966	93.35
198.185	13.48
198.404	56.49
198.623	42.15
198.842	44.2
199.062	-11.09
199.281	-0.85
199.5	-62.29
199.719	79.02
199.938	70.83
200.157	-13.14
200.376	56.49
200.595	-29.52
200.814	-37.72
201.033	-33.62
201.252	33.96
201.471	7.34
201.69	5.29
201.909	117.93
202.128	-64.34
202.347	134.31
202.566	31.91
202.785	-35.67
203.004	-72.53
203.223	52.39
203.442	-17.24
203.661	21.67
203.879	64.68
204.098	1.19
204.317	-80.72
204.536	21.67
204.755	46.25
204.974	72.87
205.193	33.96
205.411	31.91
205.63	56.49
205.849	44.2
206.068	13.48
206.287	11.43
206.505	-37.72
206.724	-41.81
206.943	15.53
207.162	-7
207.381	3.24
207.599	-25.43
207.818	3.24
208.037	101.55
208.255	3.24
208.474	-7
208.693	11.43
208.911	29.87
209.13	-21.33
209.349	-13.14
209.567	23.72
209.786	46.25
210.005	31.91
210.223	-9.05
210.442	7.34
210.661	-0.85
210.879	-17.24
211.098	58.54
211.316	-11.09
211.535	50.35
211.753	1.19
211.972	7.34
212.191	-45.91
212.409	25.77
212.628	-56.15
212.846	17.58
213.065	-13.14
213.283	68.78
213.502	-4.95
213.72	-25.43
213.938	119.98
214.157	23.72
214.375	36.01
214.594	-19.29
214.812	3.24
215.031	60.59
215.249	3.24
215.467	-17.24
215.686	68.78
215.904	19.63
216.122	-29.52
216.341	27.82
216.559	52.39
216.778	-33.62
216.996	-21.33
217.214	-54.1
217.432	-97.11
217.651	-0.85
217.869	-23.38
218.087	36.01
218.306	-7
218.524	-21.33
218.742	-0.85
218.96	50.35
219.179	-39.76
219.397	3.24
219.615	97.45
219.833	11.43
220.051	-9.05
220.27	60.59
220.488	56.49
220.706	-13.14
220.924	-56.15
221.142	23.72
221.36	56.49
221.578	66.73
221.796	13.48
222.015	33.96
222.233	-37.72
222.451	11.43
222.669	-31.57
222.887	-33.62
223.105	-33.62
223.323	70.83
223.541	9.39
223.759	-74.58
223.977	66.73
224.195	58.54
224.413	-17.24
224.631	66.73
224.849	7.34
225.067	13.48
225.285	11.43
225.503	-41.81
225.721	-25.43
225.939	-13.14
226.157	66.73
226.375	1.19
226.592	9.39
226.81	25.77
227.028	19.63
227.246	-25.43
227.464	-9.05
227.682	29.87
227.9	38.06
228.117	33.96
228.335	31.91
228.553	-7
228.771	33.96
228.989	40.11
229.206	31.91
229.424	-4.95
229.642	-47.96
229.86	66.73
230.077	76.97
230.295	11.43
230.513	21.67
230.731	52.39
230.948	27.82
231.166	76.97
231.384	-37.72
231.601	-7
231.819	74.92
232.037	29.87
232.254	-21.33
232.472	-33.62
232.689	-39.76
232.907	109.74
233.125	-37.72
233.342	-50
233.56	17.58
233.777	-45.91
233.995	-41.81
234.213	54.44
234.43	29.87
234.648	-4.95
234.865	-4.95
235.083	48.3
235.3	15.53
235.518	-27.48
235.735	23.72
235.953	27.82
236.17	-21.33
236.388	-41.81
236.605	50.35
236.822	48.3
237.04	27.82
237.257	7.34
237.475	-15.19
237.692	36.01
237.909	1.19
238.127	-37.72
238.344	-17.24
238.562	50.35
238.779	-45.91
238.996	3.24
239.214	-62.29
239.431	99.5
239.648	36.01
239.865	-25.43
240.083	3.24
240.3	66.73
240.517	15.53
240.735	9.39
240.952	52.39
241.169	40.11
241.386	-39.76
241.603	-23.38
241.821	-7
242.038	36.01
242.255	64.68
242.472	7.34
242.689	-23.38
242.907	-7
243.124	-21.33
243.341	52.39
243.558	40.11
243.775	46.25
243.992	19.63
244.209	87.21
244.426	-9.05
244.643	36.01
244.86	23.72
245.078	40.11
245.295	19.63
245.512	9.39
245.729	11.43
245.946	36.01
246.163	48.3
246.38	25.77
246.597	46.25
246.814	-27.48
247.031	-17.24
247.248	62.63
247.464	48.3
247.681	52.39
247.898	46.25
248.115	46.25
248.332	-25.43
248.549	38.06
248.766	70.83
248.983	72.87
249.2	7.34
249.417	62.63
249.633	50.35
249.85	17.58
250.067	42.15
250.284	36.01
250.501	-29.52
250.717	19.63
250.934	7.34
251.151	5.29
251.368	-29.52
251.585	21.67
251.801	21.67
252.018	-58.2
252.235	97.45
252.451	3.24
252.668	15.53
252.885	25.77
253.102	-17.24
253.318	-0.85
253.535	19.63
253.752	31.91
253.968	46.25
254.185	23.72
254.401	27.82
254.618	-25.43
254.835	25.77
255.051	-66.39
255.268	44.2
255.484	50.35
255.701	70.83
255.917	76.97
256.134	-37.72
256.351	-4.95
256.567	60.59
256.784	119.98
257	19.63
257.217	-39.76
257.433	85.16
257.65	13.48
257.866	-23.38
258.082	9.39
258.299	27.82
258.515	85.16
258.732	3.24
258.948	68.78
259.165	38.06
259.381	-21.33
259.597	3.24
259.814	29.87
260.03	-58.2
260.246	-11.09
260.463	1.19
260.679	97.45
260.895	40.11
261.112	-9.05
261.328	-2.9
261.544	40.11
261.761	15.53
261.977	3.24
262.193	-52.05
262.409	62.63
262.626	40.11
262.842	-27.48
263.058	-23.38
263.274	19.63
263.49	-4.95
263.707	5.29
263.923	19.63
264.139	48.3
264.355	99.5
264.571	107.69
264.787	-37.72
265.004	33.96
265.22	17.58
265.436	-13.14
265.652	36.01
265.868	15.53
266.084	-4.95
266.3	5.29
266.516	13.48
266.732	15.53
266.948	81.07
267.164	27.82
267.38	17.58
267.596	66.73
267.812	48.3
268.028	93.35
268.244	-7
268.46	-4.95
268.676	1.19
268.892	38.06
269.108	-2.9
269.324	27.82
269.54	-21.33
269.756	38.06
269.972	-29.52
270.188	50.35
270.403	-37.72
270.619	50.35
270.835	-0.85
271.051	13.48
271.267	56.49
271.483	27.82
271.698	-11.09
271.914	50.35
272.13	68.78
272.346	29.87
272.562	38.06
272.777	11.43
272.993	33.96
273.209	-13.14
273.425	19.63
273.64	21.67
273.856	-39.76
274.072	13.48
274.287	25.77
274.503	9.39
274.719	3.24
274.934	25.77
275.15	-25.43
275.366	60.59
275.581	23.72
275.797	58.54
276.012	29.87
276.228	93.35
276.444	44.2
276.659	-17.24
276.875	17.58
277.09	17.58
277.306	42.15
277.521	-33.62
277.737	40.11
277.952	13.48
278.168	58.54
278.383	33.96
278.599	-78.68
278.814	-4.95
279.03	44.2
279.245	103.59
279.461	-39.76
279.676	44.2
279.892	-39.76
280.107	56.49
280.322	21.67
280.538	85.16
280.753	-4.95
280.969	31.91
281.184	40.11
281.399	48.3
281.615	42.15
281.83	-0.85
282.045	-7
282.26	33.96
282.476	17.58
282.691	-9.05
282.906	56.49
283.122	3.24
283.337	36.01
283.552	-43.86
283.767	44.2
283.983	103.59
284.198	-17.24
284.413	-27.48
284.628	68.78
284.843	38.06
285.058	44.2
285.274	31.91
285.489	-74.58
285.704	33.96
285.919	44.2
286.134	-23.38
286.349	27.82
286.564	21.67
286.779	36.01
286.995	7.34
287.21	17.58
287.425	13.48
287.64	19.63
287.855	40.11
288.07	-0.85
288.285	46.25
288.5	27.82
288.715	66.73
288.93	15.53
289.145	36.01
289.36	11.43
289.575	17.58
289.79	-2.9
290.004	-43.86
290.219	21.67
290.434	42.15
290.649	-9.05
290.864	-41.81
291.079	15.53
291.294	-27.48
291.509	50.35
291.724	-7
291.938	-29.52
292.153	-4.95
292.368	27.82
292.583	72.87
292.798	109.74
293.012	60.59
293.227	91.31
293.442	42.15
293.657	-19.29
293.871	48.3
294.086	-2.9
294.301	15.53
294.516	36.01
294.73	33.96
294.945	-21.33
295.16	-29.52
295.374	33.96
295.589	40.11
295.804	52.39
296.018	31.91
296.233	17.58
296.447	44.2
296.662	11.43
296.877	21.67
297.091	52.39
297.306	91.31
297.52	-78.68
297.735	31.91
297.949	-13.14
298.164	36.01
298.378	81.07
298.593	-45.91
298.807	72.87
299.022	21.67
299.236	7.34
299.451	-11.09
299.665	-50
299.88	60.59
300.094	62.63
300.309	46.25
300.523	3.24
300.737	-45.91
300.952	-33.62
301.166	36.01
301.381	-15.19
301.595	-19.29
301.809	17.58
302.024	23.72
302.238	3.24
302.452	117.93
302.667	-4.95
302.881	99.5
303.095	27.82
303.309	-2.9
303.524	5.29
303.738	-17.24
303.952	31.91
304.166	15.53
304.381	-11.09
304.595	68.78
304.809	17.58
305.023	-7
305.237	33.96
305.452	-7
305.666	-19.29
305.88	42.15
306.094	66.73
306.308	74.92
306.522	46.25
306.736	68.78
306.95	15.53
307.164	-7
307.379	25.77
307.593	31.91
307.807	31.91
308.021	62.63
308.235	36.01
308.449	-37.72
308.663	1.19
308.877	36.01
309.091	-13.14
309.305	-37.72
309.519	13.48
309.733	1.19
309.947	-27.48
310.161	27.82
310.374	21.67
310.588	31.91
310.802	-2.9
311.016	13.48
311.23	42.15
311.444	111.78
311.658	79.02
311.872	-9.05
312.085	7.34
312.299	-31.57
312.513	23.72
312.727	3.24
312.941	60.59
313.154	48.3
313.368	-2.9
313.582	13.48
313.796	-4.95
314.009	-2.9
314.223	46.25
314.437	60.59
314.651	27.82
314.864	29.87
315.078	23.72
315.292	27.82
315.505	15.53
315.719	9.39
315.933	19.63
316.146	33.96
316.36	36.01
316.573	124.07
316.787	-7
317.001	13.48
317.214	54.44
317.428	83.11
317.641	25.77
317.855	36.01
318.068	46.25
318.282	42.15
318.495	64.68
318.709	-4.95
318.922	81.07
319.136	74.92
319.349	-23.38
319.563	-17.24
319.776	52.39
319.99	-23.38
320.203	-31.57
320.417	52.39
320.63	38.06
320.843	76.97
321.057	58.54
321.27	1.19
321.483	3.24
321.697	103.59
321.91	-4.95
322.124	40.11
322.337	36.01
322.55	-11.09
322.763	15.53
322.977	38.06
323.19	-17.24
323.403	64.68
323.617	48.3
323.83	56.49
324.043	103.59
324.256	66.73
324.469	-21.33
324.683	46.25
324.896	-21.33
325.109	111.78
325.322	68.78
325.535	66.73
325.748	29.87
325.962	76.97
326.175	36.01
326.388	44.2
326.601	19.63
326.814	66.73
327.027	27.82
327.24	64.68
327.453	27.82
327.666	-7
327.879	52.39
328.092	9.39
328.305	15.53
328.518	70.83
328.731	1.19
328.944	62.63
329.157	25.77
329.37	60.59
329.583	60.59
329.796	72.87
330.009	-9.05
330.222	19.63
330.435	-13.14
330.648	17.58
330.861	44.2
331.073	62.63
331.286	70.83
331.499	19.63
331.712	52.39
331.925	101.55
332.138	19.63
332.35	17.58
332.563	52.39
332.776	85.16
332.989	-45.91
333.202	-0.85
333.414	25.77
333.627	42.15
333.84	-25.43
334.053	-19.29
334.265	-45.91
334.478	66.73
334.691	64.68
334.903	3.24
335.116	64.68
335.329	-9.05
335.541	-2.9
335.754	21.67
335.966	54.44
336.179	-39.76
336.392	-9.05
336.604	1.19
336.817	-4.95
337.029	91.31
337.242	-7
337.454	46.25
337.667	81.07
337.88	27.82
338.092	23.72
338.305	-25.43
338.517	60.59
338.729	-31.57
338.942	46.25
339.154	-52.05
339.367	-41.81
339.579	23.72
339.792	21.67
340.004	134.31
340.217	54.44
340.429	31.91
340.641	9.39
340.854	50.35
341.066	27.82
341.278	-4.95
341.491	3.24
341.703	-29.52
341.915	19.63
342.128	50.35
342.34	-39.76
342.552	7.34
342.764	17.58
342.977	-4.95
343.189	3.24
343.401	44.2
343.613	40.11
343.826	36.01
344.038	36.01
344.25	58.54
344.462	31.91
344.674	7.34
344.886	52.39
345.099	25.77
345.311	36.01
345.523	31.91
345.735	3.24
345.947	42.15
346.159	42.15
346.371	29.87
346.583	64.68
346.795	68.78
347.007	-17.24
347.219	48.3
347.431	48.3
347.643	-23.38
347.855	76.97
348.067	44.2
348.279	46.25
348.491	-9.05
348.703	7.34
348.915	-25.43
349.127	-4.95
349.339	122.02
349.551	-4.95
349.763	119.98
349.975	-47.96
350.187	46.25
350.399	44.2
350.61	11.43
350.822	-0.85
351.034	31.91
351.246	62.63
351.458	29.87
351.669	17.58
351.881	1.19
352.093	101.55
352.305	21.67
352.517	1.19
352.728	27.82
352.94	25.77
353.152	-13.14
353.363	15.53
353.575	27.82
353.787	31.91
353.999	83.11
354.21	5.29
354.422	-9.05
354.633	91.31
354.845	15.53
355.057	85.16
355.268	89.26
355.48	-15.19
355.692	85.16
355.903	33.96
356.115	130.22
356.326	17.58
356.538	60.59
356.749	1.19
356.961	68.78
357.172	38.06
357.384	27.82
357.595	126.12
357.807	33.96
358.018	21.67
358.23	76.97
358.441	29.87
358.653	48.3
358.864	9.39
359.075	105.64
359.287	19.63
359.498	-33.62
359.709	50.35
359.921	-27.48
360.132	33.96
360.344	-2.9
360.555	-31.57
360.766	-15.19
360.977	-33.62
361.189	-7
361.4	36.01
361.611	85.16
361.823	5.29
362.034	13.48
362.245	-4.95
362.456	9.39
362.667	40.11
362.879	-54.1
363.09	27.82
363.301	64.68
363.512	29.87
363.723	97.45
363.935	-2.9
364.146	21.67
364.357	31.91
364.568	46.25
364.779	-47.96
364.99	21.67
365.201	25.77
365.412	52.39
365.623	-64.34
365.834	23.72
366.045	44.2
366.256	1.19
366.467	79.02
366.678	81.07
366.889	3.24
367.1	-11.09
367.311	31.91
367.522	27.82
367.733	46.25
367.944	48.3
368.155	144.55
368.366	99.5
368.577	56.49
368.788	64.68
368.999	5.29
369.209	1.19
369.42	42.15
369.631	107.69
369.842	40.11
370.053	31.91
370.264	36.01
370.474	44.2
370.685	83.11
370.896	27.82
371.107	13.48
371.317	122.02
371.528	9.39
371.739	93.35
371.95	7.34
372.16	7.34
372.371	33.96
372.582	101.55
372.792	19.63
373.003	58.54
373.214	17.58
373.424	64.68
373.635	44.2
373.846	97.45
374.056	-2.9
374.267	76.97
374.477	50.35
374.688	9.39
374.898	52.39
375.109	15.53
375.319	31.91
375.53	81.07
375.74	-7
375.951	36.01
376.161	50.35
376.372	74.92
376.582	15.53
376.793	21.67
377.003	36.01
377.214	9.39
377.424	15.53
377.635	68.78
377.845	27.82
378.055	83.11
378.266	44.2
378.476	138.41
378.686	33.96
378.897	21.67
379.107	44.2
379.317	70.83
379.528	-2.9
379.738	31.91
379.948	79.02
380.158	23.72
380.369	15.53
380.579	33.96
380.789	56.49
380.999	62.63
381.21	46.25
381.42	142.5
381.63	-13.14
381.84	101.55
382.05	66.73
382.261	99.5
382.471	58.54
382.681	21.67
382.891	81.07
383.101	42.15
383.311	44.2
383.521	76.97
383.731	87.21
383.941	31.91
384.151	-0.85
384.361	17.58
384.571	27.82
384.781	42.15
384.991	62.63
385.201	105.64
385.411	19.63
385.621	72.87
385.831	85.16
386.041	74.92
386.251	42.15
386.461	79.02
386.671	15.53
386.881	81.07
387.091	89.26
387.301	38.06
387.511	93.35
387.72	68.78
387.93	25.77
388.14	38.06
388.35	29.87
388.56	-13.14
388.769	11.43
388.979	74.92
389.189	44.2
389.399	40.11
389.609	115.88
389.818	40.11
390.028	23.72
390.238	-7
390.447	42.15
390.657	87.21
390.867	17.58
391.076	52.39
391.286	-9.05
391.496	62.63
391.705	9.39
391.915	-7
392.125	52.39
392.334	85.16
392.544	81.07
392.753	-21.33
392.963	13.48
393.172	111.78
393.382	19.63
393.591	109.74
393.801	87.21
394.01	89.26
394.22	99.5
394.429	89.26
394.639	87.21
394.848	38.06
395.058	165.03
395.267	21.67
395.477	138.41
395.686	76.97
395.895	83.11
396.105	70.83
396.314	-17.24
396.524	70.83
396.733	58.54
396.942	146.6
397.152	101.55
397.361	40.11
397.57	144.55
397.78	124.07
397.989	76.97
398.198	107.69
398.407	36.01
398.617	36.01
398.826	76.97
399.035	93.35
399.244	83.11
399.453	105.64
399.663	122.02
399.872	179.37
400.081	122.02
400.29	97.45
400.499	111.78
400.708	138.41
400.917	64.68
401.127	7.34
401.336	93.35
401.545	101.55
401.754	107.69
401.963	185.51
402.172	124.07
402.381	60.59
402.59	93.35
402.799	122.02
403.008	74.92
403.217	128.17
403.426	181.42
403.635	72.87
403.844	148.65
404.053	74.92
404.262	142.5
404.471	142.5
404.68	99.5
404.888	111.78
405.097	181.42
405.306	154.79
405.515	130.22
405.724	142.5
405.933	113.83
406.142	212.14
406.35	220.33
406.559	132.26
406.768	195.75
406.977	177.32
407.185	222.38
407.394	205.99
407.603	146.6
407.812	173.22
408.02	169.13
408.229	232.62
408.438	203.94
408.646	199.85
408.855	281.77
409.064	306.34
409.272	238.76
409.481	292.01
409.69	269.48
409.898	320.68
410.107	337.06
410.315	289.96
410.524	339.11
410.733	382.12
410.941	316.58
411.15	355.49
411.358	330.92
411.567	390.31
411.775	373.92
411.984	373.92
412.192	402.6
412.401	335.01
412.609	453.8
412.818	513.19
413.026	492.71
413.234	507.04
413.443	537.76
413.651	488.61
413.86	631.97
414.068	703.65
414.276	605.35
414.485	617.63
414.693	562.34
414.901	699.55
415.11	685.22
415.318	701.6
415.526	707.74
415.734	715.94
415.943	730.27
416.151	808.09
416.359	773.28
416.567	812.19
416.776	904.35
416.984	1096.86
417.192	947.36
417.4	1019.04
417.608	1025.18
417.817	959.64
418.025	1111.19
418.233	1121.43
418.441	1080.47
418.649	1205.4
418.857	1346.71
419.065	1289.37
419.273	1123.48
419.481	1330.33
419.689	1369.24
419.897	1614.99
420.105	1477.78
420.313	1598.61
420.521	1676.43
420.729	1627.28
420.937	1686.67
421.145	1795.22
421.353	1827.98
421.561	1903.76
421.769	1895.57
421.977	2133.13
422.185	2092.17
422.393	2276.49
422.601	2382.98
422.809	2313.35
423.017	2268.3
423.224	2399.37
423.432	2491.52
423.64	2561.16
423.848	2718.85
424.056	2632.83
424.263	2952.32
424.471	2911.36
424.679	3013.76
424.887	3177.59
425.094	3069.05
425.302	3148.92
425.51	3337.34
425.718	3417.21
425.925	3507.32
426.133	3595.38
426.341	3751.03
426.548	3869.81
426.756	4004.97
426.964	4060.27
427.171	4359.27
427.379	4428.9
427.586	4373.61
427.794	4447.33
428.001	4588.64
428.209	5129.31
428.417	4988
428.624	5381.21
428.832	5317.72
429.039	5233.75
429.247	5370.97
429.454	5805.14
429.662	6110.29
429.869	5786.71
430.076	6267.98
430.284	5749.84
430.491	6325.32
430.699	6583.37
430.906	6683.72
431.114	6630.47
431.321	7085.12
431.528	7048.26
431.736	7515.19
431.943	7926.83
432.15	7781.43
432.358	7629.88
432.565	8082.48
432.772	7916.59
432.979	8608.81
433.187	8698.92
433.394	8743.97
433.601	9221.15
433.808	9272.35
434.016	9432.09
434.223	9657.37
434.43	10298.38
434.637	10066.96
434.844	10736.65
435.052	11131.9
435.259	11015.17
435.466	10994.69
435.673	10765.32
435.88	11586.55
436.087	12102.64
436.294	12008.44
436.501	11852.79
436.708	12252.14
436.915	12704.74
437.122	13110.24
437.329	13255.65
437.537	13556.7
437.743	13904.85
437.95	13339.62
438.157	14373.84
438.364	14926.79
438.571	14973.89
438.778	14883.78
438.985	16421.81
439.192	15576
439.399	15881.14
439.606	15825.85
439.813	16587.69
440.02	17482.66
440.227	17294.24
440.433	17490.85
440.64	17990.55
440.847	17714.08
441.054	17855.39
441.261	19192.71
441.467	19166.09
441.674	19381.12
441.881	20368.24
442.088	19946.36
442.294	20151.16
442.501	20577.14
442.708	20896.62
442.914	21959.52
443.121	22586.19
443.328	22016.86
443.534	23534.4
443.741	23010.12
443.948	22653.78
444.154	24286.01
444.361	24138.55
444.568	24609.59
444.774	24568.63
444.981	24816.43
445.187	25537.32
445.394	26401.56
445.6	26071.84
445.807	28490.49
446.013	27499.27
446.22	27972.35
446.426	29088.49
446.633	29367.02
446.839	30280.41
447.046	29133.55
447.252	30434.01
447.459	30806.74
447.665	31146.7
447.871	32121.54
448.078	33436.33
448.284	31599.3
448.491	32690.87
448.697	33745.58
448.903	34392.73
449.11	34532
449.316	33995.43
449.522	34529.95
449.728	35502.73
449.935	35793.54
450.141	35910.28
450.347	36932.22
450.553	35527.31
450.76	35787.4
450.966	37319.28
451.172	36987.51
451.378	37653.1
451.584	37030.52
451.791	37950.06
451.997	37565.04
452.203	38328.93
452.409	38615.65
452.615	37966.44
452.821	37038.71
453.027	36518.53
453.233	38322.79
453.44	36995.7
453.646	37317.23
453.852	37380.72
454.058	38177.38
454.264	36969.08
454.47	37491.31
454.676	36469.37
454.882	38201.96
455.088	34828.95
455.294	35449.49
455.5	35936.9
455.705	35637.9
455.911	34695.83
456.117	33749.67
456.323	33788.58
456.529	31464.14
456.735	33338.03
456.941	32627.38
457.147	31703.75
457.352	30800.6
457.558	30335.71
457.764	30724.82
457.97	29979.36
458.176	29612.77
458.381	29600.49
458.587	27636.48
458.793	27935.49
458.999	26463
459.204	28457.72
459.41	27491.08
459.616	25889.57
459.821	25959.2
460.027	26055.45
460.233	25234.22
460.438	23900.99
460.644	24167.23
460.85	23243.59
461.055	22881.1
461.261	22891.34
461.466	21117.8
461.672	20507.51
461.878	21850.97
462.083	20474.74
462.289	20142.97
462.494	19884.92
462.7	19372.93
462.905	18377.62
463.111	18910.09
463.316	19211.14
463.522	18785.16
463.727	18783.12
463.932	18740.11
464.138	18506.64
464.343	18430.87
464.549	18369.43
464.754	18674.57
464.959	18439.06
465.165	18385.81
465.37	17511.33
465.575	17181.6
465.781	17933.21
465.986	17847.19
466.191	17036.2
466.397	17077.16
466.602	16186.29
466.807	16714.67
467.012	16905.13
467.218	16743.34
467.423	16475.06
467.628	16456.62
