Data from USB4F104151__75__11-37-36-059.txt Node

Date: Fri Mar 14 11:37:36 EDT 2025
User: louis
Spectrometer: USB4F10415
Trigger mode: 4
Integration Time (sec): 2.000000E-2
Scans to average: 1
Electric dark correction enabled: true
Nonlinearity correction enabled: false
Boxcar width: 0
XAxis mode: Wavelengths
Number of Pixels in Spectrum: 3648
>>>>>Begin Spectral Data<<<<<
178.204	-90.79
178.424	-90.79
178.644	-90.79
178.864	-53.93
179.084	-96.94
179.304	36.18
179.524	50.52
179.744	32.08
179.964	1.37
180.184	-47.79
180.404	-60.07
180.624	44.37
180.844	-37.55
181.064	-62.12
181.283	7.51
181.503	15.7
181.723	19.8
181.943	-33.45
182.163	-0.68
182.383	48.47
182.602	25.94
182.822	64.85
183.042	62.8
183.262	1.37
183.482	-10.92
183.701	56.66
183.921	-10.92
184.141	-17.07
184.361	30.04
184.58	-33.45
184.8	34.13
185.02	36.18
185.239	64.85
185.459	-4.78
185.679	-10.92
185.898	5.46
186.118	68.95
186.338	-37.55
186.557	27.99
186.777	-21.16
186.997	89.43
187.216	-33.45
187.436	5.46
187.655	1.37
187.875	-4.78
188.095	-49.83
188.314	114
188.534	42.32
188.753	7.51
188.973	73.04
189.192	42.32
189.412	-17.07
189.631	7.51
189.851	19.8
190.07	101.72
190.29	-25.26
190.509	-41.64
190.729	-8.87
190.948	-39.59
191.168	79.19
191.387	46.42
191.607	44.37
191.826	-0.68
192.045	64.85
192.265	1.37
192.484	-35.5
192.704	-25.26
192.923	3.41
193.142	93.52
193.362	107.86
193.581	30.04
193.8	15.7
194.02	25.94
194.239	60.76
194.458	-6.83
194.678	3.41
194.897	56.66
195.116	77.14
195.335	27.99
195.555	-2.73
195.774	-6.83
195.993	30.04
196.212	13.65
196.432	15.7
196.651	-6.83
196.87	75.09
197.089	77.14
197.308	9.56
197.528	13.65
197.747	-2.73
197.966	5.46
198.185	30.04
198.404	-27.31
198.623	50.52
198.842	50.52
199.062	-37.55
199.281	1.37
199.5	-2.73
199.719	-6.83
199.938	-21.16
200.157	1.37
200.376	11.61
200.595	-19.11
200.814	42.32
201.033	7.51
201.252	58.71
201.471	-15.02
201.69	81.24
201.909	11.61
202.128	7.51
202.347	-4.78
202.566	42.32
202.785	50.52
203.004	-62.12
203.223	34.13
203.442	-47.79
203.661	58.71
203.879	36.18
204.098	114
204.317	-6.83
204.536	-8.87
204.755	44.37
204.974	15.7
205.193	56.66
205.411	38.23
205.63	-4.78
205.849	-33.45
206.068	-82.6
206.287	56.66
206.505	7.51
206.724	-31.4
206.943	50.52
207.162	-21.16
207.381	62.8
207.599	13.65
207.818	-47.79
208.037	-86.7
208.255	46.42
208.474	52.56
208.693	66.9
208.911	-70.31
209.13	93.52
209.349	-41.64
209.567	-6.83
209.786	15.7
210.005	58.71
210.223	-68.27
210.442	-23.21
210.661	44.37
210.879	40.28
211.098	-10.92
211.316	3.41
211.535	93.52
211.753	32.08
211.972	75.09
212.191	-47.79
212.409	-33.45
212.628	44.37
212.846	25.94
213.065	48.47
213.283	79.19
213.502	-27.31
213.72	66.9
213.938	40.28
214.157	48.47
214.375	1.37
214.594	-17.07
214.812	25.94
215.031	83.28
215.249	36.18
215.467	64.85
215.686	38.23
215.904	15.7
216.122	-47.79
216.341	140.63
216.559	-82.6
216.778	25.94
216.996	54.61
217.214	56.66
217.432	25.94
217.651	-23.21
217.869	-33.45
218.087	-0.68
218.306	3.41
218.524	25.94
218.742	-31.4
218.96	9.56
219.179	-15.02
219.397	-23.21
219.615	-17.07
219.833	44.37
220.051	27.99
220.27	83.28
220.488	23.89
220.706	-8.87
220.924	-23.21
221.142	52.56
221.36	-37.55
221.578	-19.11
221.796	-15.02
222.015	36.18
222.233	-35.5
222.451	27.99
222.669	-45.74
222.887	9.56
223.105	-6.83
223.323	91.48
223.541	-21.16
223.759	-43.69
223.977	42.32
224.195	1.37
224.413	-15.02
224.631	15.7
224.849	-4.78
225.067	30.04
225.285	3.41
225.503	34.13
225.721	34.13
225.939	40.28
226.157	-21.16
226.375	73.04
226.592	-55.98
226.81	46.42
227.028	42.32
227.246	-0.68
227.464	-49.83
227.682	11.61
227.9	-27.31
228.117	36.18
228.335	79.19
228.553	1.37
228.771	-6.83
228.989	40.28
229.206	-2.73
229.424	3.41
229.642	50.52
229.86	3.41
230.077	40.28
230.295	38.23
230.513	48.47
230.731	-12.97
230.948	38.23
231.166	-17.07
231.384	56.66
231.601	5.46
231.819	-21.16
232.037	-12.97
232.254	15.7
232.472	-39.59
232.689	11.61
232.907	130.39
233.125	62.8
233.342	-4.78
233.56	-53.93
233.777	64.85
233.995	107.86
234.213	60.76
234.43	23.89
234.648	9.56
234.865	-27.31
235.083	-27.31
235.3	79.19
235.518	23.89
235.735	-4.78
235.953	19.8
236.17	23.89
236.388	-8.87
236.605	7.51
236.822	50.52
237.04	40.28
237.257	83.28
237.475	23.89
237.692	1.37
237.909	-4.78
238.127	48.47
238.344	-62.12
238.562	40.28
238.779	-17.07
238.996	-45.74
239.214	7.51
239.431	54.61
239.648	-8.87
239.865	25.94
240.083	42.32
240.3	83.28
240.517	23.89
240.735	68.95
240.952	62.8
241.169	-21.16
241.386	19.8
241.603	46.42
241.821	-45.74
242.038	54.61
242.255	38.23
242.472	11.61
242.689	75.09
242.907	46.42
243.124	46.42
243.341	101.72
243.558	-10.92
243.775	17.75
243.992	-6.83
244.209	40.28
244.426	42.32
244.643	34.13
244.86	-23.21
245.078	5.46
245.295	-12.97
245.512	32.08
245.729	-23.21
245.946	-27.31
246.163	25.94
246.38	-41.64
246.597	50.52
246.814	32.08
247.031	-41.64
247.248	75.09
247.464	44.37
247.681	73.04
247.898	-41.64
248.115	73.04
248.332	107.86
248.549	-17.07
248.766	68.95
248.983	48.47
249.2	1.37
249.417	-23.21
249.633	46.42
249.85	60.76
250.067	44.37
250.284	5.46
250.501	-31.4
250.717	68.95
250.934	-37.55
251.151	79.19
251.368	46.42
251.585	42.32
251.801	56.66
252.018	-27.31
252.235	97.62
252.451	11.61
252.668	1.37
252.885	34.13
253.102	44.37
253.318	-10.92
253.535	-12.97
253.752	34.13
253.968	-0.68
254.185	40.28
254.401	66.9
254.618	9.56
254.835	-0.68
255.051	64.85
255.268	46.42
255.484	-0.68
255.701	36.18
255.917	27.99
256.134	44.37
256.351	23.89
256.567	19.8
256.784	-41.64
257	-2.73
257.217	-10.92
257.433	93.52
257.65	-0.68
257.866	48.47
258.082	25.94
258.299	5.46
258.515	-8.87
258.732	11.61
258.948	23.89
259.165	-29.35
259.381	87.38
259.597	64.85
259.814	75.09
260.03	-8.87
260.246	5.46
260.463	-12.97
260.679	91.48
260.895	30.04
261.112	56.66
261.328	9.56
261.544	-0.68
261.761	-23.21
261.977	23.89
262.193	13.65
262.409	7.51
262.626	38.23
262.842	-15.02
263.058	46.42
263.274	38.23
263.49	58.71
263.707	66.9
263.923	27.99
264.139	91.48
264.355	-41.64
264.571	46.42
264.787	58.71
265.004	81.24
265.22	-0.68
265.436	75.09
265.652	-43.69
265.868	13.65
266.084	66.9
266.3	36.18
266.516	-15.02
266.732	42.32
266.948	-4.78
267.164	9.56
267.38	-51.88
267.596	13.65
267.812	36.18
268.028	60.76
268.244	17.75
268.46	7.51
268.676	58.71
268.892	79.19
269.108	-23.21
269.324	97.62
269.54	1.37
269.756	36.18
269.972	-23.21
270.188	64.85
270.403	75.09
270.619	64.85
270.835	3.41
271.051	25.94
271.267	27.99
271.483	-8.87
271.698	-23.21
271.914	85.33
272.13	11.61
272.346	40.28
272.562	42.32
272.777	68.95
272.993	-35.5
273.209	44.37
273.425	60.76
273.64	15.7
273.856	-29.35
274.072	101.72
274.287	66.9
274.503	120.15
274.719	34.13
274.934	56.66
275.15	3.41
275.366	19.8
275.581	17.75
275.797	25.94
276.012	34.13
276.228	23.89
276.444	19.8
276.659	73.04
276.875	-31.4
277.09	73.04
277.306	11.61
277.521	93.52
277.737	68.95
277.952	114
278.168	11.61
278.383	71
278.599	-0.68
278.814	19.8
279.03	-0.68
279.245	40.28
279.461	-12.97
279.676	62.8
279.892	-4.78
280.107	-17.07
280.322	36.18
280.538	40.28
280.753	7.51
280.969	3.41
281.184	-62.12
281.399	77.14
281.615	32.08
281.83	54.61
282.045	-66.22
282.26	-19.11
282.476	58.71
282.691	91.48
282.906	23.89
283.122	-12.97
283.337	60.76
283.552	25.94
283.767	-25.26
283.983	58.71
284.198	38.23
284.413	62.8
284.628	-39.59
284.843	-19.11
285.058	75.09
285.274	-23.21
285.489	-41.64
285.704	-55.98
285.919	9.56
286.134	32.08
286.349	-21.16
286.564	-37.55
286.779	40.28
286.995	-2.73
287.21	-2.73
287.425	-82.6
287.64	23.89
287.855	-66.22
288.07	36.18
288.285	13.65
288.5	66.9
288.715	32.08
288.93	27.99
289.145	62.8
289.36	-15.02
289.575	-19.11
289.79	-2.73
290.004	7.51
290.219	13.65
290.434	38.23
290.649	-15.02
290.864	5.46
291.079	-23.21
291.294	9.56
291.509	64.85
291.724	13.65
291.938	-8.87
292.153	73.04
292.368	15.7
292.583	15.7
292.798	91.48
293.012	46.42
293.227	21.85
293.442	-58.03
293.657	50.52
293.871	9.56
294.086	-8.87
294.301	60.76
294.516	23.89
294.73	-29.35
294.945	21.85
295.16	5.46
295.374	60.76
295.589	5.46
295.804	97.62
296.018	27.99
296.233	19.8
296.447	54.61
296.662	64.85
296.877	58.71
297.091	21.85
297.306	44.37
297.52	-15.02
297.735	19.8
297.949	54.61
298.164	95.57
298.378	-4.78
298.593	-0.68
298.807	-64.17
299.022	71
299.236	19.8
299.451	25.94
299.665	-45.74
299.88	62.8
300.094	-0.68
300.309	-35.5
300.523	32.08
300.737	17.75
300.952	-0.68
301.166	17.75
301.381	40.28
301.595	58.71
301.809	-21.16
302.024	91.48
302.238	11.61
302.452	-19.11
302.667	25.94
302.881	58.71
303.095	15.7
303.309	56.66
303.524	15.7
303.738	21.85
303.952	9.56
304.166	66.9
304.381	17.75
304.595	9.56
304.809	-33.45
305.023	54.61
305.237	11.61
305.452	27.99
305.666	19.8
305.88	97.62
306.094	40.28
306.308	21.85
306.522	15.7
306.736	89.43
306.95	7.51
307.164	19.8
307.379	1.37
307.593	40.28
307.807	27.99
308.021	-64.17
308.235	9.56
308.449	-4.78
308.663	40.28
308.877	17.75
309.091	3.41
309.305	48.47
309.519	-55.98
309.733	36.18
309.947	60.76
310.161	-23.21
310.374	7.51
310.588	32.08
310.802	44.37
311.016	-37.55
311.23	56.66
311.444	38.23
311.658	71
311.872	103.76
312.085	56.66
312.299	101.72
312.513	44.37
312.727	66.9
312.941	68.95
313.154	44.37
313.368	21.85
313.582	60.76
313.796	-2.73
314.009	42.32
314.223	3.41
314.437	21.85
314.651	62.8
314.864	38.23
315.078	60.76
315.292	48.47
315.505	-8.87
315.719	97.62
315.933	64.85
316.146	25.94
316.36	81.24
316.573	30.04
316.787	5.46
317.001	13.65
317.214	30.04
317.428	21.85
317.641	81.24
317.855	73.04
318.068	19.8
318.282	19.8
318.495	11.61
318.709	25.94
318.922	58.71
319.136	3.41
319.349	85.33
319.563	-21.16
319.776	50.52
319.99	34.13
320.203	83.28
320.417	44.37
320.63	11.61
320.843	5.46
321.057	1.37
321.27	77.14
321.483	17.75
321.697	-51.88
321.91	-8.87
322.124	19.8
322.337	36.18
322.55	91.48
322.763	9.56
322.977	42.32
323.19	-0.68
323.403	73.04
323.617	11.61
323.83	36.18
324.043	21.85
324.256	-25.26
324.469	30.04
324.683	40.28
324.896	34.13
325.109	46.42
325.322	-6.83
325.535	9.56
325.748	-8.87
325.962	7.51
326.175	50.52
326.388	95.57
326.601	30.04
326.814	64.85
327.027	38.23
327.24	42.32
327.453	32.08
327.666	9.56
327.879	15.7
328.092	64.85
328.305	30.04
328.518	15.7
328.731	-6.83
328.944	-12.97
329.157	-27.31
329.37	56.66
329.583	68.95
329.796	56.66
330.009	40.28
330.222	19.8
330.435	87.38
330.648	15.7
330.861	17.75
331.073	19.8
331.286	34.13
331.499	42.32
331.712	19.8
331.925	85.33
332.138	60.76
332.35	60.76
332.563	-31.4
332.776	109.91
332.989	68.95
333.202	19.8
333.414	1.37
333.627	38.23
333.84	3.41
334.053	58.71
334.265	9.56
334.478	30.04
334.691	-31.4
334.903	-0.68
335.116	62.8
335.329	23.89
335.541	56.66
335.754	93.52
335.966	-4.78
336.179	109.91
336.392	-45.74
336.604	-2.73
336.817	44.37
337.029	34.13
337.242	42.32
337.454	93.52
337.667	52.56
337.88	-17.07
338.092	32.08
338.305	3.41
338.517	52.56
338.729	64.85
338.942	60.76
339.154	66.9
339.367	13.65
339.579	11.61
339.792	-29.35
340.004	46.42
340.217	64.85
340.429	89.43
340.641	17.75
340.854	-10.92
341.066	11.61
341.278	25.94
341.491	71
341.703	-4.78
341.915	52.56
342.128	116.05
342.34	17.75
342.552	-10.92
342.764	79.19
342.977	34.13
343.189	99.67
343.401	23.89
343.613	27.99
343.826	19.8
344.038	44.37
344.25	126.29
344.462	3.41
344.674	19.8
344.886	-4.78
345.099	85.33
345.311	79.19
345.523	114
345.735	-53.93
345.947	109.91
346.159	23.89
346.371	-0.68
346.583	-76.46
346.795	58.71
347.007	5.46
347.219	-29.35
347.431	34.13
347.643	75.09
347.855	77.14
348.067	32.08
348.279	58.71
348.491	56.66
348.703	-58.03
348.915	19.8
349.127	56.66
349.339	62.8
349.551	7.51
349.763	36.18
349.975	52.56
350.187	34.13
350.399	46.42
350.61	13.65
350.822	-2.73
351.034	40.28
351.246	-29.35
351.458	11.61
351.669	34.13
351.881	50.52
352.093	85.33
352.305	36.18
352.517	42.32
352.728	111.96
352.94	99.67
353.152	81.24
353.363	34.13
353.575	77.14
353.787	-17.07
353.999	52.56
354.21	50.52
354.422	54.61
354.633	1.37
354.845	36.18
355.057	99.67
355.268	17.75
355.48	36.18
355.692	38.23
355.903	-33.45
356.115	25.94
356.326	48.47
356.538	42.32
356.749	25.94
356.961	27.99
357.172	15.7
357.384	-35.5
357.595	73.04
357.807	21.85
358.018	27.99
358.23	-15.02
358.441	7.51
358.653	71
358.864	54.61
359.075	44.37
359.287	-6.83
359.498	56.66
359.709	75.09
359.921	25.94
360.132	44.37
360.344	103.76
360.555	44.37
360.766	68.95
360.977	-49.83
361.189	114
361.4	-19.11
361.611	116.05
361.823	11.61
362.034	93.52
362.245	17.75
362.456	19.8
362.667	21.85
362.879	126.29
363.09	44.37
363.301	-2.73
363.512	64.85
363.723	-29.35
363.935	81.24
364.146	101.72
364.357	1.37
364.568	32.08
364.779	30.04
364.99	58.71
365.201	-39.59
365.412	52.56
365.623	58.71
365.834	44.37
366.045	83.28
366.256	27.99
366.467	75.09
366.678	36.18
366.889	-31.4
367.1	19.8
367.311	56.66
367.522	38.23
367.733	97.62
367.944	66.9
368.155	30.04
368.366	54.61
368.577	19.8
368.788	85.33
368.999	30.04
369.209	15.7
369.42	54.61
369.631	62.8
369.842	25.94
370.053	42.32
370.264	44.37
370.474	42.32
370.685	32.08
370.896	17.75
371.107	34.13
371.317	91.48
371.528	58.71
371.739	3.41
371.95	75.09
372.16	15.7
372.371	-15.02
372.582	77.14
372.792	9.56
373.003	-0.68
373.214	-0.68
373.424	93.52
373.635	-17.07
373.846	52.56
374.056	40.28
374.267	64.85
374.477	19.8
374.688	-6.83
374.898	27.99
375.109	146.77
375.319	77.14
375.53	56.66
375.74	38.23
375.951	105.81
376.161	105.81
376.372	30.04
376.582	68.95
376.793	42.32
377.003	13.65
377.214	50.52
377.424	52.56
377.635	23.89
377.845	-82.6
378.055	-8.87
378.266	50.52
378.476	50.52
378.686	-6.83
378.897	93.52
379.107	79.19
379.317	91.48
379.528	89.43
379.738	126.29
379.948	-0.68
380.158	66.9
380.369	64.85
380.579	73.04
380.789	66.9
380.999	89.43
381.21	79.19
381.42	9.56
381.63	68.95
381.84	97.62
382.05	27.99
382.261	114
382.471	46.42
382.681	19.8
382.891	44.37
383.101	68.95
383.311	3.41
383.521	103.76
383.731	44.37
383.941	50.52
384.151	-15.02
384.361	27.99
384.571	85.33
384.781	50.52
384.991	25.94
385.201	85.33
385.411	71
385.621	114
385.831	7.51
386.041	27.99
386.251	107.86
386.461	54.61
386.671	13.65
386.881	95.57
387.091	101.72
387.301	60.76
387.511	32.08
387.72	21.85
387.93	3.41
388.14	77.14
388.35	52.56
388.56	97.62
388.769	46.42
388.979	95.57
389.189	60.76
389.399	103.76
389.609	32.08
389.818	93.52
390.028	71
390.238	46.42
390.447	5.46
390.657	34.13
390.867	3.41
391.076	64.85
391.286	68.95
391.496	97.62
391.705	54.61
391.915	50.52
392.125	60.76
392.334	93.52
392.544	105.81
392.753	44.37
392.963	60.76
393.172	64.85
393.382	109.91
393.591	52.56
393.801	95.57
394.01	85.33
394.22	32.08
394.429	126.29
394.639	81.24
394.848	109.91
395.058	66.9
395.267	60.76
395.477	93.52
395.686	21.85
395.895	52.56
396.105	130.39
396.314	126.29
396.524	109.91
396.733	93.52
396.942	159.06
397.152	109.91
397.361	44.37
397.57	97.62
397.78	85.33
397.989	79.19
398.198	152.92
398.407	97.62
398.617	93.52
398.826	42.32
399.035	93.52
399.244	75.09
399.453	77.14
399.663	87.38
399.872	126.29
400.081	105.81
400.29	73.04
400.499	36.18
400.708	140.63
400.917	140.63
401.127	101.72
401.336	107.86
401.545	148.82
401.754	142.68
401.963	75.09
402.172	48.47
402.381	159.06
402.59	189.78
402.799	140.63
403.008	142.68
403.217	148.82
403.426	177.49
403.635	111.96
403.844	114
404.053	120.15
404.262	154.96
404.471	214.35
404.68	118.1
404.888	122.2
405.097	144.72
405.306	171.35
405.515	83.28
405.724	109.91
405.933	208.21
406.142	173.39
406.35	148.82
406.559	271.7
406.768	224.59
406.977	279.89
407.185	163.15
407.394	238.93
407.603	216.4
407.812	234.83
408.02	283.99
408.229	191.83
408.438	253.27
408.646	257.36
408.855	320.85
409.064	392.53
409.272	267.6
409.481	257.36
409.69	224.59
409.898	302.42
410.107	378.19
410.315	324.94
410.524	294.22
410.733	363.86
410.941	380.24
411.15	433.49
411.358	427.34
411.567	458.06
411.775	441.68
411.984	458.06
412.192	482.64
412.401	480.59
412.609	503.12
412.818	599.37
413.026	595.28
413.234	511.31
413.443	585.04
413.651	587.08
413.86	599.37
414.068	652.62
414.276	716.11
414.485	757.07
414.693	720.2
414.901	781.64
415.11	716.11
415.318	820.55
415.526	888.14
415.734	894.28
415.943	900.42
416.151	994.63
416.359	937.29
416.567	941.38
416.776	1011.01
416.984	1148.23
417.192	1166.66
417.4	1178.95
417.608	1111.36
417.817	1197.38
418.025	1199.43
418.233	1267.01
418.441	1346.88
418.649	1301.83
418.857	1414.46
419.065	1406.27
419.273	1494.33
419.481	1639.74
419.689	1629.5
419.897	1758.52
420.105	1641.79
420.313	1791.29
420.521	1826.11
420.729	1838.39
420.937	1889.59
421.145	2051.38
421.353	2188.6
421.561	2219.32
421.769	2127.16
421.977	2336.05
422.185	2258.23
422.393	2405.68
422.601	2624.81
422.809	2514.22
423.017	2508.08
423.224	2800.94
423.432	2907.43
423.64	2862.38
423.848	3099.94
424.056	2964.78
424.263	3204.39
424.471	3286.31
424.679	3349.79
424.887	3583.26
425.094	3626.27
425.302	3726.62
425.51	3786.01
425.718	3921.18
425.925	3933.47
426.133	4060.44
426.341	4291.86
426.548	4496.66
426.756	4486.42
426.964	4482.32
427.171	4711.69
427.379	4922.63
427.586	4986.12
427.794	5332.23
428.001	5375.24
428.209	5643.52
428.417	5584.13
428.624	5922.04
428.832	6077.69
429.039	5856.51
429.247	5760.25
429.454	6417.65
429.662	6835.44
429.869	6343.92
430.076	6817.01
430.284	6880.49
430.491	7023.85
430.699	7361.77
430.906	7496.93
431.114	7498.98
431.321	7695.58
431.528	7943.39
431.736	8414.42
431.943	8926.41
432.15	8551.63
432.358	8664.27
432.565	9094.35
432.772	9155.79
432.979	9845.95
433.187	9776.32
433.394	9784.51
433.601	10493.11
433.808	10587.32
434.016	10251.45
434.223	10845.36
434.43	11498.66
434.637	11287.72
434.844	11973.79
435.052	12219.55
435.259	12256.41
435.466	12268.7
435.673	12104.86
435.88	12930.19
436.087	13878.4
436.294	13468.81
436.501	13497.48
436.708	13593.73
436.915	14013.57
437.122	14683.25
437.329	14695.54
437.537	15168.62
437.743	15338.6
437.95	15271.02
438.157	15912.03
438.364	16497.75
438.571	16514.14
438.778	16567.38
438.985	18293.82
439.192	17396.81
439.399	17996.87
439.606	17415.24
439.813	18682.94
440.02	19590.19
440.227	19217.46
440.433	19172.4
440.64	19788.84
440.847	19469.36
441.054	19977.25
441.261	21589
441.467	21500.94
441.674	21826.57
441.881	22631.42
442.088	22557.69
442.294	22107.14
442.501	22531.07
442.708	23225.33
442.914	24114.15
443.121	24996.82
443.328	24230.88
443.534	26512.32
443.741	25474
443.948	25363.41
444.154	27102.14
444.361	27251.64
444.568	26938.3
444.774	26858.43
444.981	27315.12
445.187	28033.96
445.394	28898.2
445.6	28998.55
445.807	31607.67
446.013	30303.11
446.22	30839.68
446.426	31949.68
446.633	31871.85
446.839	33358.68
447.046	31861.62
447.252	33512.28
447.459	33459.03
447.665	33334.1
447.871	35298.11
448.078	36283.18
448.284	35087.17
448.491	35881.78
448.697	37098.27
448.903	37759.77
449.11	37802.77
449.316	37059.36
449.522	37538.58
449.728	38818.57
449.935	39131.9
450.141	39084.8
450.347	40338.16
450.553	38892.29
450.76	39047.94
450.966	40325.87
451.172	40366.83
451.378	41140.96
451.584	40729.32
451.791	41140.96
451.997	41241.31
452.203	41603.8
452.409	41880.28
452.615	41362.14
452.821	40289.01
453.027	39252.73
453.233	41892.57
453.44	40381.17
453.646	40659.69
453.852	40983.27
454.058	41509.6
454.264	40166.13
454.47	41155.3
454.676	39805.69
454.882	41011.94
455.088	37683.99
455.294	38331.15
455.5	38990.59
455.705	39262.97
455.911	37749.53
456.117	37047.07
456.323	36569.9
456.529	34272.07
456.735	36256.56
456.941	35156.8
457.147	34812.74
457.352	33655.64
457.558	32930.65
457.764	33446.74
457.97	32744.29
458.176	31972.21
458.381	32181.1
458.587	30167.94
458.793	30262.15
458.999	28861.34
459.204	31112.06
459.41	30118.79
459.616	28099.5
459.821	28124.07
460.027	28056.49
460.233	27513.78
460.438	26229.7
460.644	26160.07
460.85	25164.76
461.055	25099.22
461.261	24677.34
461.466	22955
461.672	22025.22
461.878	23616.49
462.083	22371.33
462.289	21644.3
462.494	21437.45
462.7	20683.8
462.905	20067.36
463.111	20798.49
463.316	20839.45
463.522	20495.39
463.727	20180
463.932	20882.45
464.138	20272.16
464.343	20450.33
464.549	19758.12
464.754	20417.57
464.959	19868.71
465.165	19842.09
465.37	19033.14
465.575	18578.49
465.781	19538.99
465.986	19704.87
466.191	18785.33
466.397	18574.39
466.602	17667.14
466.807	18189.38
467.012	18146.37
467.218	17996.87
467.423	17945.67
467.628	18023.49
467.833	18615.35
468.038	17767.49
