Data from USB4F104151__0__11-36-14-485.txt Node

Date: Fri Mar 14 11:36:14 EDT 2025
User: louis
Spectrometer: USB4F10415
Trigger mode: 4
Integration Time (sec): 2.000000E-2
Scans to average: 1
Electric dark correction enabled: true
Nonlinearity correction enabled: false
Boxcar width: 0
XAxis mode: Wavelengths
Number of Pixels in Spectrum: 3648
>>>>>Begin Spectral Data<<<<<
178.204	-150.36
178.424	-150.36
178.644	-150.36
178.864	-66.39
179.084	-15.19
179.304	25.77
179.524	-11.09
179.744	9.39
179.964	64.68
180.184	9.39
180.404	50.35
180.624	1.19
180.844	-43.86
181.064	-121.68
181.283	-27.48
181.503	44.2
181.723	-0.85
181.943	-45.91
182.163	-9.05
182.383	-4.95
182.602	31.91
182.822	38.06
183.042	7.34
183.262	-31.57
183.482	-43.86
183.701	-50
183.921	52.39
184.141	-50
184.361	66.73
184.58	70.83
184.8	9.39
185.02	36.01
185.239	70.83
185.459	66.73
185.679	5.29
185.898	-19.29
186.118	33.96
186.338	9.39
186.557	87.21
186.777	17.58
186.997	-27.48
187.216	1.19
187.436	42.15
187.655	9.39
187.875	-2.9
188.095	-15.19
188.314	74.92
188.534	44.2
188.753	68.78
188.973	25.77
189.192	46.25
189.412	3.24
189.631	44.2
189.851	7.34
190.07	93.35
190.29	17.58
190.509	-0.85
190.729	58.54
190.948	-25.43
191.168	97.45
191.387	42.15
191.607	83.11
191.826	23.72
192.045	-31.57
192.265	21.67
192.484	-13.14
192.704	50.35
192.923	40.11
193.142	50.35
193.362	38.06
193.581	38.06
193.8	-52.05
194.02	9.39
194.239	-11.09
194.458	-80.72
194.678	-11.09
194.897	-33.62
195.116	25.77
195.335	9.39
195.555	70.83
195.774	-17.24
195.993	52.39
196.212	42.15
196.432	-58.2
196.651	62.63
196.87	25.77
197.089	50.35
197.308	62.63
197.528	-41.81
197.747	11.43
197.966	1.19
198.185	95.4
198.404	-9.05
198.623	29.87
198.842	5.29
199.062	58.54
199.281	58.54
199.5	109.74
199.719	-15.19
199.938	1.19
200.157	38.06
200.376	44.2
200.595	31.91
200.814	-27.48
201.033	9.39
201.252	58.54
201.471	19.63
201.69	58.54
201.909	1.19
202.128	7.34
202.347	9.39
202.566	29.87
202.785	40.11
203.004	23.72
203.223	56.49
203.442	-7
203.661	19.63
203.879	5.29
204.098	62.63
204.317	33.96
204.536	27.82
204.755	36.01
204.974	21.67
205.193	74.92
205.411	29.87
205.63	-7
205.849	60.59
206.068	42.15
206.287	31.91
206.505	-0.85
206.724	44.2
206.943	48.3
207.162	25.77
207.381	-2.9
207.599	-15.19
207.818	-7
208.037	38.06
208.255	13.48
208.474	-27.48
208.693	-27.48
208.911	68.78
209.13	64.68
209.349	5.29
209.567	25.77
209.786	25.77
210.005	-19.29
210.223	3.24
210.442	-0.85
210.661	46.25
210.879	56.49
211.098	56.49
211.316	25.77
211.535	23.72
211.753	66.73
211.972	-9.05
212.191	13.48
212.409	-62.29
212.628	-11.09
212.846	21.67
213.065	25.77
213.283	56.49
213.502	31.91
213.72	50.35
213.938	-15.19
214.157	54.44
214.375	-43.86
214.594	-31.57
214.812	-11.09
215.031	33.96
215.249	60.59
215.467	-7
215.686	29.87
215.904	101.55
216.122	5.29
216.341	1.19
216.559	40.11
216.778	9.39
216.996	66.73
217.214	-23.38
217.432	7.34
217.651	62.63
217.869	-64.34
218.087	-11.09
218.306	-27.48
218.524	58.54
218.742	17.58
218.96	31.91
219.179	-33.62
219.397	-39.76
219.615	52.39
219.833	109.74
220.051	-15.19
220.27	54.44
220.488	56.49
220.706	5.29
220.924	-70.48
221.142	5.29
221.36	-39.76
221.578	11.43
221.796	-58.2
222.015	38.06
222.233	-19.29
222.451	42.15
222.669	-33.62
222.887	21.67
223.105	-37.72
223.323	-74.58
223.541	89.26
223.759	25.77
223.977	-11.09
224.195	76.97
224.413	74.92
224.631	70.83
224.849	33.96
225.067	72.87
225.285	38.06
225.503	9.39
225.721	-23.38
225.939	36.01
226.157	54.44
226.375	111.78
226.592	70.83
226.81	54.44
227.028	29.87
227.246	21.67
227.464	-13.14
227.682	17.58
227.9	-41.81
228.117	-27.48
228.335	-7
228.553	17.58
228.771	42.15
228.989	25.77
229.206	13.48
229.424	-82.77
229.642	5.29
229.86	-58.2
230.077	44.2
230.295	68.78
230.513	31.91
230.731	44.2
230.948	21.67
231.166	66.73
231.384	25.77
231.601	25.77
231.819	29.87
232.037	21.67
232.254	70.83
232.472	52.39
232.689	33.96
232.907	29.87
233.125	21.67
233.342	54.44
233.56	-21.33
233.777	25.77
233.995	25.77
234.213	5.29
234.43	64.68
234.648	38.06
234.865	-35.67
235.083	-17.24
235.3	29.87
235.518	-4.95
235.735	-4.95
235.953	-37.72
236.17	33.96
236.388	23.72
236.605	5.29
236.822	-7
237.04	15.53
237.257	33.96
237.475	13.48
237.692	40.11
237.909	1.19
238.127	-39.76
238.344	9.39
238.562	-2.9
238.779	-19.29
238.996	-41.81
239.214	91.31
239.431	5.29
239.648	11.43
239.865	42.15
240.083	62.63
240.3	68.78
240.517	19.63
240.735	74.92
240.952	25.77
241.169	38.06
241.386	-43.86
241.603	-29.52
241.821	-31.57
242.038	29.87
242.255	31.91
242.472	-50
242.689	21.67
242.907	56.49
243.124	33.96
243.341	58.54
243.558	9.39
243.775	17.58
243.992	7.34
244.209	-15.19
244.426	68.78
244.643	-4.95
244.86	42.15
245.078	-9.05
245.295	-33.62
245.512	25.77
245.729	-7
245.946	11.43
246.163	42.15
246.38	9.39
246.597	17.58
246.814	3.24
247.031	17.58
247.248	11.43
247.464	1.19
247.681	52.39
247.898	5.29
248.115	31.91
248.332	-11.09
248.549	25.77
248.766	5.29
248.983	-0.85
249.2	-2.9
249.417	11.43
249.633	7.34
249.85	-9.05
250.067	25.77
250.284	-17.24
250.501	36.01
250.717	81.07
250.934	-72.53
251.151	-2.9
251.368	-23.38
251.585	-41.81
251.801	23.72
252.018	-13.14
252.235	56.49
252.451	29.87
252.668	36.01
252.885	-21.33
253.102	-23.38
253.318	13.48
253.535	-35.67
253.752	19.63
253.968	-25.43
254.185	83.11
254.401	109.74
254.618	81.07
254.835	17.58
255.051	-0.85
255.268	52.39
255.484	-11.09
255.701	25.77
255.917	36.01
256.134	-27.48
256.351	-11.09
256.567	21.67
256.784	91.31
257	29.87
257.217	33.96
257.433	-7
257.65	-0.85
257.866	-21.33
258.082	31.91
258.299	-2.9
258.515	-17.24
258.732	25.77
258.948	31.91
259.165	-0.85
259.381	79.02
259.597	62.63
259.814	31.91
260.03	-17.24
260.246	48.3
260.463	-52.05
260.679	64.68
260.895	25.77
261.112	-9.05
261.328	9.39
261.544	70.83
261.761	74.92
261.977	-23.38
262.193	40.11
262.409	74.92
262.626	25.77
262.842	44.2
263.058	-2.9
263.274	40.11
263.49	23.72
263.707	83.11
263.923	33.96
264.139	-19.29
264.355	83.11
264.571	-17.24
264.787	7.34
265.004	95.4
265.22	74.92
265.436	54.44
265.652	70.83
265.868	48.3
266.084	33.96
266.3	7.34
266.516	-2.9
266.732	31.91
266.948	-29.52
267.164	25.77
267.38	62.63
267.596	-19.29
267.812	103.59
268.028	9.39
268.244	-2.9
268.46	-0.85
268.676	-33.62
268.892	17.58
269.108	-0.85
269.324	-39.76
269.54	-31.57
269.756	11.43
269.972	-15.19
270.188	66.73
270.403	13.48
270.619	40.11
270.835	54.44
271.051	13.48
271.267	29.87
271.483	1.19
271.698	54.44
271.914	56.49
272.13	21.67
272.346	68.78
272.562	74.92
272.777	29.87
272.993	15.53
273.209	21.67
273.425	40.11
273.64	74.92
273.856	76.97
274.072	74.92
274.287	-21.33
274.503	11.43
274.719	23.72
274.934	15.53
275.15	-23.38
275.366	7.34
275.581	15.53
275.797	66.73
276.012	44.2
276.228	7.34
276.444	7.34
276.659	52.39
276.875	-17.24
277.09	1.19
277.306	40.11
277.521	27.82
277.737	29.87
277.952	-13.14
278.168	13.48
278.383	1.19
278.599	-9.05
278.814	52.39
279.03	21.67
279.245	9.39
279.461	64.68
279.676	31.91
279.892	21.67
280.107	-17.24
280.322	13.48
280.538	-2.9
280.753	7.34
280.969	50.35
281.184	-27.48
281.399	74.92
281.615	-35.67
281.83	21.67
282.045	3.24
282.26	44.2
282.476	-0.85
282.691	38.06
282.906	44.2
283.122	50.35
283.337	7.34
283.552	38.06
283.767	21.67
283.983	91.31
284.198	83.11
284.413	17.58
284.628	-2.9
284.843	76.97
285.058	-54.1
285.274	31.91
285.489	13.48
285.704	64.68
285.919	-33.62
286.134	21.67
286.349	-9.05
286.564	17.58
286.779	48.3
286.995	17.58
287.21	-2.9
287.425	9.39
287.64	33.96
287.855	50.35
288.07	13.48
288.285	9.39
288.5	19.63
288.715	44.2
288.93	-17.24
289.145	5.29
289.36	33.96
289.575	-25.43
289.79	23.72
290.004	74.92
290.219	9.39
290.434	7.34
290.649	-41.81
290.864	31.91
291.079	58.54
291.294	38.06
291.509	29.87
291.724	1.19
291.938	21.67
292.153	42.15
292.368	-58.2
292.583	29.87
292.798	19.63
293.012	15.53
293.227	46.25
293.442	-19.29
293.657	-0.85
293.871	66.73
294.086	-43.86
294.301	5.29
294.516	33.96
294.73	23.72
294.945	79.02
295.16	33.96
295.374	56.49
295.589	-15.19
295.804	-13.14
296.018	1.19
296.233	74.92
296.447	23.72
296.662	27.82
296.877	17.58
297.091	3.24
297.306	50.35
297.52	-0.85
297.735	54.44
297.949	-35.67
298.164	29.87
298.378	36.01
298.593	25.77
298.807	38.06
299.022	29.87
299.236	58.54
299.451	17.58
299.665	50.35
299.88	46.25
300.094	1.19
300.309	13.48
300.523	42.15
300.737	-60.24
300.952	52.39
301.166	58.54
301.381	-13.14
301.595	36.01
301.809	72.87
302.024	38.06
302.238	-27.48
302.452	-19.29
302.667	17.58
302.881	17.58
303.095	23.72
303.309	40.11
303.524	105.64
303.738	25.77
303.952	85.16
304.166	1.19
304.381	-21.33
304.595	70.83
304.809	11.43
305.023	1.19
305.237	25.77
305.452	31.91
305.666	38.06
305.88	103.59
306.094	74.92
306.308	-31.57
306.522	31.91
306.736	-13.14
306.95	36.01
307.164	52.39
307.379	-33.62
307.593	44.2
307.807	-31.57
308.021	9.39
308.235	1.19
308.449	62.63
308.663	-2.9
308.877	46.25
309.091	-17.24
309.305	50.35
309.519	1.19
309.733	25.77
309.947	50.35
310.161	1.19
310.374	50.35
310.588	-2.9
310.802	21.67
311.016	52.39
311.23	62.63
311.444	-9.05
311.658	17.58
311.872	99.5
312.085	7.34
312.299	7.34
312.513	62.63
312.727	21.67
312.941	-33.62
313.154	3.24
313.368	58.54
313.582	33.96
313.796	21.67
314.009	17.58
314.223	66.73
314.437	42.15
314.651	40.11
314.864	-25.43
315.078	-23.38
315.292	13.48
315.505	40.11
315.719	1.19
315.933	44.2
316.146	21.67
316.36	40.11
316.573	31.91
316.787	-9.05
317.001	33.96
317.214	-2.9
317.428	109.74
317.641	3.24
317.855	1.19
318.068	-60.24
318.282	46.25
318.495	5.29
318.709	9.39
318.922	1.19
319.136	52.39
319.349	48.3
319.563	-4.95
319.776	40.11
319.99	25.77
320.203	38.06
320.417	105.64
320.63	9.39
320.843	136.36
321.057	-47.96
321.27	36.01
321.483	46.25
321.697	89.26
321.91	-19.29
322.124	11.43
322.337	42.15
322.55	15.53
322.763	-39.76
322.977	33.96
323.19	-27.48
323.403	11.43
323.617	91.31
323.83	72.87
324.043	9.39
324.256	23.72
324.469	33.96
324.683	36.01
324.896	38.06
325.109	33.96
325.322	19.63
325.535	38.06
325.748	33.96
325.962	93.35
326.175	105.64
326.388	109.74
326.601	42.15
326.814	93.35
327.027	50.35
327.24	74.92
327.453	-7
327.666	25.77
327.879	58.54
328.092	64.68
328.305	19.63
328.518	52.39
328.731	29.87
328.944	31.91
329.157	-2.9
329.37	-11.09
329.583	31.91
329.796	42.15
330.009	66.73
330.222	-35.67
330.435	52.39
330.648	-11.09
330.861	54.44
331.073	101.55
331.286	36.01
331.499	-39.76
331.712	13.48
331.925	-0.85
332.138	-19.29
332.35	99.5
332.563	9.39
332.776	13.48
332.989	44.2
333.202	60.59
333.414	-11.09
333.627	29.87
333.84	-11.09
334.053	-0.85
334.265	58.54
334.478	33.96
334.691	25.77
334.903	54.44
335.116	-17.24
335.329	79.02
335.541	25.77
335.754	13.48
335.966	-11.09
336.179	17.58
336.392	64.68
336.604	54.44
336.817	31.91
337.029	1.19
337.242	62.63
337.454	52.39
337.667	-13.14
337.88	19.63
338.092	27.82
338.305	11.43
338.517	23.72
338.729	50.35
338.942	130.22
339.154	50.35
339.367	-33.62
339.579	62.63
339.792	115.88
340.004	19.63
340.217	-2.9
340.429	17.58
340.641	31.91
340.854	5.29
341.066	25.77
341.278	72.87
341.491	89.26
341.703	68.78
341.915	76.97
342.128	68.78
342.34	31.91
342.552	58.54
342.764	-15.19
342.977	38.06
343.189	21.67
343.401	7.34
343.613	-0.85
343.826	27.82
344.038	11.43
344.25	113.83
344.462	38.06
344.674	40.11
344.886	5.29
345.099	-27.48
345.311	25.77
345.523	36.01
345.735	36.01
345.947	54.44
346.159	19.63
346.371	74.92
346.583	11.43
346.795	66.73
347.007	40.11
347.219	25.77
347.431	-21.33
347.643	-19.29
347.855	58.54
348.067	-23.38
348.279	29.87
348.491	25.77
348.703	21.67
348.915	-25.43
349.127	25.77
349.339	19.63
349.551	93.35
349.763	-47.96
349.975	29.87
350.187	33.96
350.399	48.3
350.61	70.83
350.822	-35.67
351.034	-37.72
351.246	5.29
351.458	42.15
351.669	33.96
351.881	97.45
352.093	36.01
352.305	103.59
352.517	50.35
352.728	27.82
352.94	81.07
353.152	42.15
353.363	-60.24
353.575	107.69
353.787	21.67
353.999	97.45
354.21	58.54
354.422	103.59
354.633	-41.81
354.845	-7
355.057	33.96
355.268	62.63
355.48	48.3
355.692	17.58
355.903	17.58
356.115	7.34
356.326	-19.29
356.538	52.39
356.749	17.58
356.961	33.96
357.172	-11.09
357.384	3.24
357.595	52.39
357.807	115.88
358.018	9.39
358.23	56.49
358.441	58.54
358.653	46.25
358.864	117.93
359.075	33.96
359.287	25.77
359.498	68.78
359.709	-11.09
359.921	31.91
360.132	85.16
360.344	21.67
360.555	-2.9
360.766	19.63
360.977	91.31
361.189	58.54
361.4	-15.19
361.611	42.15
361.823	-4.95
362.034	9.39
362.245	-0.85
362.456	105.64
362.667	1.19
362.879	62.63
363.09	25.77
363.301	25.77
363.512	117.93
363.723	-41.81
363.935	3.24
364.146	21.67
364.357	83.11
364.568	-4.95
364.779	-27.48
364.99	33.96
365.201	42.15
365.412	54.44
365.623	11.43
365.834	15.53
366.045	-0.85
366.256	44.2
366.467	50.35
366.678	76.97
366.889	85.16
367.1	-21.33
367.311	21.67
367.522	62.63
367.733	70.83
367.944	140.46
368.155	33.96
368.366	-9.05
368.577	-15.19
368.788	29.87
368.999	74.92
369.209	54.44
369.42	-7
369.631	50.35
369.842	21.67
370.053	23.72
370.264	119.98
370.474	33.96
370.685	-15.19
370.896	25.77
371.107	-72.53
371.317	42.15
371.528	-29.52
371.739	52.39
371.95	113.83
372.16	-21.33
372.371	81.07
372.582	1.19
372.792	60.59
373.003	58.54
373.214	83.11
373.424	89.26
373.635	40.11
373.846	58.54
374.056	-9.05
374.267	89.26
374.477	40.11
374.688	19.63
374.898	74.92
375.109	56.49
375.319	38.06
375.53	48.3
375.74	17.58
375.951	27.82
376.161	23.72
376.372	42.15
376.582	33.96
376.793	54.44
377.003	33.96
377.214	15.53
377.424	-7
377.635	1.19
377.845	31.91
378.055	1.19
378.266	33.96
378.476	115.88
378.686	11.43
378.897	25.77
379.107	15.53
379.317	25.77
379.528	48.3
379.738	48.3
379.948	11.43
380.158	1.19
380.369	21.67
380.579	-4.95
380.789	-21.33
380.999	70.83
381.21	103.59
381.42	87.21
381.63	74.92
381.84	62.63
382.05	-58.2
382.261	-2.9
382.471	62.63
382.681	-19.29
382.891	70.83
383.101	29.87
383.311	19.63
383.521	50.35
383.731	29.87
383.941	21.67
384.151	-11.09
384.361	21.67
384.571	25.77
384.781	33.96
384.991	50.35
385.201	76.97
385.411	-11.09
385.621	115.88
385.831	-19.29
386.041	25.77
386.251	40.11
386.461	101.55
386.671	-41.81
386.881	-23.38
387.091	64.68
387.301	54.44
387.511	68.78
387.72	33.96
387.93	21.67
388.14	44.2
388.35	29.87
388.56	-23.38
388.769	25.77
388.979	38.06
389.189	56.49
389.399	44.2
389.609	115.88
389.818	9.39
390.028	46.25
390.238	91.31
390.447	64.68
390.657	56.49
390.867	-19.29
391.076	1.19
391.286	99.5
391.496	38.06
391.705	-31.57
391.915	15.53
392.125	31.91
392.334	7.34
392.544	19.63
392.753	152.74
392.963	105.64
393.172	21.67
393.382	83.11
393.591	101.55
393.801	56.49
394.01	66.73
394.22	29.87
394.429	85.16
394.639	103.59
394.848	31.91
395.058	95.4
395.267	23.72
395.477	74.92
395.686	81.07
395.895	76.97
396.105	111.78
396.314	56.49
396.524	128.17
396.733	97.45
396.942	142.5
397.152	31.91
397.361	54.44
397.57	72.87
397.78	68.78
397.989	13.48
398.198	83.11
398.407	113.83
398.617	160.94
398.826	58.54
399.035	62.63
399.244	40.11
399.453	79.02
399.663	60.59
399.872	122.02
400.081	64.68
400.29	103.59
400.499	122.02
400.708	128.17
400.917	19.63
401.127	183.46
401.336	107.69
401.545	124.07
401.754	99.5
401.963	72.87
402.172	93.35
402.381	111.78
402.59	60.59
402.799	64.68
403.008	189.61
403.217	109.74
403.426	54.44
403.635	17.58
403.844	81.07
404.053	91.31
404.262	38.06
404.471	158.89
404.68	101.55
404.888	160.94
405.097	109.74
405.306	99.5
405.515	138.41
405.724	156.84
405.933	130.22
406.142	160.94
406.35	167.08
406.559	187.56
406.768	54.44
406.977	132.26
407.185	205.99
407.394	238.76
407.603	185.51
407.812	162.98
408.02	148.65
408.229	169.13
408.438	226.47
408.646	246.95
408.855	199.85
409.064	212.14
409.272	154.79
409.481	189.61
409.69	167.08
409.898	152.74
410.107	255.14
410.315	210.09
410.524	140.46
410.733	271.53
410.941	203.94
411.15	195.75
411.358	277.67
411.567	259.24
411.775	292.01
411.984	318.63
412.192	285.86
412.401	375.97
412.609	332.97
412.818	431.27
413.026	378.02
413.234	404.64
413.443	373.92
413.651	392.36
413.86	402.6
414.068	494.76
414.276	476.32
414.485	502.95
414.693	484.52
414.901	517.28
415.11	470.18
415.318	564.39
415.526	582.82
415.734	529.57
415.943	564.39
416.151	613.54
416.359	558.24
416.567	584.87
416.776	617.63
416.984	734.37
417.192	744.61
417.4	754.85
417.608	689.31
417.817	697.5
418.025	844.96
418.233	877.73
418.441	722.08
418.649	824.48
418.857	933.02
419.065	924.83
419.273	1008.8
419.481	990.36
419.689	1039.51
419.897	963.74
420.105	1236.12
420.313	1254.55
420.521	1176.73
420.729	1213.59
420.937	1209.5
421.145	1223.83
421.353	1375.38
421.561	1389.72
421.769	1498.26
421.977	1535.12
422.185	1406.1
422.393	1588.37
422.601	1701.01
422.809	1672.34
423.017	1803.41
423.224	1719.44
423.432	1799.31
423.64	1901.71
423.848	1991.82
424.056	1965.2
424.263	2053.26
424.471	1983.63
424.679	2151.56
424.887	2202.76
425.094	2260.1
425.302	2331.78
425.51	2454.66
425.718	2495.62
425.925	2559.11
426.133	2761.86
426.341	2735.23
426.548	2849.92
426.756	2804.86
426.964	2890.88
427.171	3038.33
427.379	3216.51
427.586	3112.06
427.794	3306.62
428.001	3380.34
428.209	3587.19
428.417	3572.85
428.624	3802.22
428.832	3705.97
429.039	3847.28
429.247	3841.14
429.454	4138.09
429.662	4490.34
429.869	4258.92
430.076	4447.33
430.284	4228.2
430.491	4457.57
430.699	4914.27
430.906	4820.07
431.114	4949.09
431.321	5055.58
431.528	5137.5
431.736	5405.78
431.943	5839.95
432.15	5549.14
432.358	5678.16
432.565	5895.25
432.772	5844.05
432.979	6177.87
433.187	6239.31
433.394	6239.31
433.601	6784.07
433.808	6751.3
434.016	6779.97
434.223	7091.26
434.43	7507
434.637	7423.03
434.844	7701.56
435.052	7765.04
435.259	7775.28
435.466	7785.52
435.673	7867.44
435.88	8293.42
436.087	8834.08
436.294	8905.76
436.501	8600.62
436.708	8844.32
436.915	8862.76
437.122	9309.21
437.329	9393.18
437.537	9712.66
437.743	9896.98
437.95	9847.83
438.157	10193.94
438.364	10494.99
438.571	10710.02
438.778	10734.6
438.985	11746.3
439.192	11265.02
439.399	11658.23
439.606	11213.82
439.813	12043.25
440.02	12561.39
440.227	12463.08
440.433	12372.97
440.64	12817.38
440.847	12645.35
441.054	13036.52
441.261	13741.02
441.467	13738.97
441.674	13824.98
441.881	14341.07
442.088	14611.4
442.294	14253.01
442.501	14617.55
442.708	15094.72
442.914	15637.44
443.121	16223.16
443.328	15786.94
443.534	16853.93
443.741	16374.7
443.948	16268.21
444.154	17372.07
444.361	17236.9
444.568	17648.54
444.774	17271.72
444.981	17562.53
445.187	18117.53
445.394	18791.31
445.6	18785.16
445.807	20493.17
446.013	19612.54
446.22	19843.96
446.426	20790.13
446.633	20818.8
446.839	21586.79
447.046	20460.4
447.252	21781.34
447.459	21756.77
447.665	21629.79
447.871	22932.3
448.078	23673.67
448.284	22891.34
448.491	23214.92
448.697	24437.56
448.903	24513.33
449.11	24234.81
449.316	24171.32
449.522	24822.58
449.728	25191.21
449.935	25531.17
450.141	25420.58
450.347	26135.32
450.553	25150.25
450.76	25776.93
450.966	26213.15
451.172	25922.34
451.378	26776.34
451.584	26090.27
451.791	26639.12
451.997	26665.75
452.203	27253.51
452.409	27319.05
452.615	26966.8
452.821	26250.01
453.027	25744.16
453.233	27190.03
453.44	25987.87
453.646	26563.35
453.852	26516.25
454.058	26667.8
454.264	25901.86
454.47	26690.32
454.676	25756.45
454.882	26739.47
455.088	24277.82
455.294	25131.82
455.5	24857.39
455.705	25412.39
455.911	24212.28
456.117	24093.5
456.323	23554.88
456.529	22344.53
456.735	23366.47
456.941	22461.27
457.147	22276.95
457.352	21738.33
457.558	21341.03
457.764	21697.38
457.97	21142.38
458.176	20826.99
458.381	20839.28
458.587	19356.55
458.793	20005.75
458.999	18529.17
459.204	19903.35
459.41	19262.34
459.616	17900.44
459.821	18076.57
460.027	18097.05
460.233	17644.45
460.438	16714.67
460.644	16878.51
460.85	16233.39
461.055	15977.4
461.261	15924.15
461.466	14775.24
461.672	14261.2
461.878	15184.83
462.083	14246.87
462.289	13964.25
462.494	13779.93
462.7	13112.29
462.905	12813.29
463.111	13286.37
463.316	13394.91
463.522	13020.13
463.727	13059.04
463.932	12981.22
464.138	13040.61
464.343	12930.02
464.549	12487.66
464.754	12846.05
464.959	12911.59
465.165	12631.02
465.37	12035.06
465.575	11957.24
465.781	12442.6
465.986	12463.08
466.191	11836.41
466.397	11615.23
466.602	11154.43
466.807	11666.42
467.012	11629.56
467.218	11627.51
467.423	11445.24
467.628	11545.59
467.833	12030.96
468.038	11664.38
468.244	11344.89
