Data from USB4F104151__78__11-37-39-799.txt Node

Date: Fri Mar 14 11:37:39 EDT 2025
User: louis
Spectrometer: USB4F10415
Trigger mode: 4
Integration Time (sec): 2.000000E-2
Scans to average: 1
Electric dark correction enabled: true
Nonlinearity correction enabled: false
Boxcar width: 0
XAxis mode: Wavelengths
Number of Pixels in Spectrum: 3648
>>>>>Begin Spectral Data<<<<<
178.204	-93.01
178.424	-93.01
178.644	-93.01
178.864	-86.87
179.084	-74.58
179.304	25.77
179.524	42.15
179.744	19.63
179.964	113.83
180.184	-56.15
180.404	-33.62
180.624	-19.29
180.844	-95.06
181.064	-54.1
181.283	19.63
181.503	9.39
181.723	27.82
181.943	-35.67
182.163	58.54
182.383	9.39
182.602	31.91
182.822	56.49
183.042	-56.15
183.262	-52.05
183.482	21.67
183.701	-2.9
183.921	-7
184.141	-0.85
184.361	83.11
184.58	50.35
184.8	44.2
185.02	-7
185.239	9.39
185.459	23.72
185.679	-76.63
185.898	-47.96
186.118	27.82
186.338	23.72
186.557	1.19
186.777	-23.38
186.997	38.06
187.216	-13.14
187.436	64.68
187.655	27.82
187.875	5.29
188.095	-29.52
188.314	52.39
188.534	124.07
188.753	1.19
188.973	-13.14
189.192	-21.33
189.412	31.91
189.631	3.24
189.851	25.77
190.07	36.01
190.29	-0.85
190.509	-7
190.729	-37.72
190.948	-4.95
191.168	54.44
191.387	1.19
191.607	-50
191.826	36.01
192.045	42.15
192.265	36.01
192.484	-15.19
192.704	11.43
192.923	-131.92
193.142	-13.14
193.362	1.19
193.581	33.96
193.8	126.12
194.02	1.19
194.239	-11.09
194.458	11.43
194.678	-13.14
194.897	87.21
195.116	-43.86
195.335	60.59
195.555	56.49
195.774	76.97
195.993	29.87
196.212	-9.05
196.432	-13.14
196.651	38.06
196.87	-23.38
197.089	99.5
197.308	60.59
197.528	11.43
197.747	42.15
197.966	-9.05
198.185	68.78
198.404	19.63
198.623	54.44
198.842	56.49
199.062	27.82
199.281	33.96
199.5	19.63
199.719	58.54
199.938	31.91
200.157	19.63
200.376	68.78
200.595	17.58
200.814	13.48
201.033	-17.24
201.252	91.31
201.471	19.63
201.69	19.63
201.909	-70.48
202.128	-13.14
202.347	101.55
202.566	25.77
202.785	44.2
203.004	-78.68
203.223	42.15
203.442	68.78
203.661	60.59
203.879	-31.57
204.098	54.44
204.317	5.29
204.536	58.54
204.755	17.58
204.974	-25.43
205.193	-0.85
205.411	68.78
205.63	-9.05
205.849	36.01
206.068	27.82
206.287	7.34
206.505	85.16
206.724	-43.86
206.943	36.01
207.162	-19.29
207.381	9.39
207.599	58.54
207.818	-33.62
208.037	-37.72
208.255	-4.95
208.474	-0.85
208.693	31.91
208.911	-19.29
209.13	81.07
209.349	-23.38
209.567	-15.19
209.786	-9.05
210.005	-4.95
210.223	25.77
210.442	19.63
210.661	72.87
210.879	-13.14
211.098	1.19
211.316	-7
211.535	19.63
211.753	-2.9
211.972	42.15
212.191	-4.95
212.409	83.11
212.628	-4.95
212.846	52.39
213.065	15.53
213.283	64.68
213.502	-9.05
213.72	89.26
213.938	70.83
214.157	-2.9
214.375	25.77
214.594	97.45
214.812	5.29
215.031	50.35
215.249	-27.48
215.467	31.91
215.686	66.73
215.904	126.12
216.122	54.44
216.341	50.35
216.559	-27.48
216.778	-17.24
216.996	52.39
217.214	17.58
217.432	19.63
217.651	29.87
217.869	3.24
218.087	36.01
218.306	-50
218.524	36.01
218.742	-2.9
218.96	62.63
219.179	-4.95
219.397	52.39
219.615	42.15
219.833	42.15
220.051	33.96
220.27	27.82
220.488	-15.19
220.706	-33.62
220.924	13.48
221.142	-7
221.36	19.63
221.578	17.58
221.796	15.53
222.015	-27.48
222.233	7.34
222.451	109.74
222.669	-19.29
222.887	40.11
223.105	5.29
223.323	9.39
223.541	-29.52
223.759	19.63
223.977	-4.95
224.195	109.74
224.413	27.82
224.631	27.82
224.849	5.29
225.067	44.2
225.285	33.96
225.503	85.16
225.721	-13.14
225.939	-33.62
226.157	27.82
226.375	74.92
226.592	27.82
226.81	7.34
227.028	-0.85
227.246	79.02
227.464	33.96
227.682	33.96
227.9	60.59
228.117	81.07
228.335	-0.85
228.553	38.06
228.771	19.63
228.989	-7
229.206	11.43
229.424	42.15
229.642	-62.29
229.86	-7
230.077	-13.14
230.295	-4.95
230.513	-7
230.731	9.39
230.948	54.44
231.166	76.97
231.384	40.11
231.601	-9.05
231.819	25.77
232.037	25.77
232.254	42.15
232.472	-0.85
232.689	27.82
232.907	-19.29
233.125	58.54
233.342	7.34
233.56	13.48
233.777	48.3
233.995	-11.09
234.213	62.63
234.43	70.83
234.648	21.67
234.865	1.19
235.083	1.19
235.3	-25.43
235.518	54.44
235.735	-17.24
235.953	46.25
236.17	42.15
236.388	-7
236.605	42.15
236.822	81.07
237.04	27.82
237.257	-21.33
237.475	-0.85
237.692	72.87
237.909	23.72
238.127	38.06
238.344	17.58
238.562	3.24
238.779	-4.95
238.996	42.15
239.214	33.96
239.431	119.98
239.648	19.63
239.865	42.15
240.083	38.06
240.3	1.19
240.517	44.2
240.735	19.63
240.952	83.11
241.169	33.96
241.386	-31.57
241.603	31.91
241.821	60.59
242.038	-7
242.255	99.5
242.472	42.15
242.689	17.58
242.907	64.68
243.124	1.19
243.341	-9.05
243.558	-13.14
243.775	46.25
243.992	44.2
244.209	74.92
244.426	27.82
244.643	52.39
244.86	52.39
245.078	33.96
245.295	11.43
245.512	52.39
245.729	7.34
245.946	15.53
246.163	36.01
246.38	76.97
246.597	-37.72
246.814	17.58
247.031	60.59
247.248	27.82
247.464	-29.52
247.681	-35.67
247.898	15.53
248.115	62.63
248.332	-11.09
248.549	23.72
248.766	48.3
248.983	11.43
249.2	21.67
249.417	-19.29
249.633	-56.15
249.85	124.07
250.067	64.68
250.284	76.97
250.501	76.97
250.717	36.01
250.934	-0.85
251.151	-33.62
251.368	-37.72
251.585	40.11
251.801	-4.95
252.018	40.11
252.235	76.97
252.451	-29.52
252.668	27.82
252.885	64.68
253.102	19.63
253.318	-43.86
253.535	17.58
253.752	-4.95
253.968	-47.96
254.185	-2.9
254.401	1.19
254.618	56.49
254.835	-4.95
255.051	52.39
255.268	21.67
255.484	36.01
255.701	23.72
255.917	68.78
256.134	-39.76
256.351	56.49
256.567	11.43
256.784	105.64
257	-54.1
257.217	-9.05
257.433	31.91
257.65	66.73
257.866	-35.67
258.082	15.53
258.299	-37.72
258.515	72.87
258.732	-70.48
258.948	-7
259.165	-15.19
259.381	-7
259.597	58.54
259.814	31.91
260.03	109.74
260.246	33.96
260.463	21.67
260.679	40.11
260.895	-13.14
261.112	31.91
261.328	-15.19
261.544	-41.81
261.761	40.11
261.977	11.43
262.193	7.34
262.409	25.77
262.626	19.63
262.842	19.63
263.058	13.48
263.274	-21.33
263.49	48.3
263.707	27.82
263.923	60.59
264.139	44.2
264.355	33.96
264.571	19.63
264.787	23.72
265.004	85.16
265.22	9.39
265.436	27.82
265.652	7.34
265.868	21.67
266.084	-29.52
266.3	-25.43
266.516	-13.14
266.732	40.11
266.948	25.77
267.164	21.67
267.38	5.29
267.596	46.25
267.812	93.35
268.028	95.4
268.244	11.43
268.46	27.82
268.676	5.29
268.892	-11.09
269.108	-7
269.324	70.83
269.54	-19.29
269.756	7.34
269.972	-23.38
270.188	5.29
270.403	31.91
270.619	42.15
270.835	83.11
271.051	29.87
271.267	21.67
271.483	42.15
271.698	42.15
271.914	156.84
272.13	-23.38
272.346	15.53
272.562	33.96
272.777	15.53
272.993	91.31
273.209	-25.43
273.425	48.3
273.64	89.26
273.856	15.53
274.072	27.82
274.287	-64.34
274.503	33.96
274.719	3.24
274.934	40.11
275.15	11.43
275.366	36.01
275.581	33.96
275.797	21.67
276.012	15.53
276.228	31.91
276.444	42.15
276.659	56.49
276.875	-47.96
277.09	33.96
277.306	23.72
277.521	25.77
277.737	-35.67
277.952	36.01
278.168	48.3
278.383	15.53
278.599	44.2
278.814	38.06
279.03	29.87
279.245	-4.95
279.461	33.96
279.676	42.15
279.892	-39.76
280.107	-37.72
280.322	58.54
280.538	27.82
280.753	21.67
280.969	25.77
281.184	17.58
281.399	44.2
281.615	68.78
281.83	7.34
282.045	50.35
282.26	70.83
282.476	85.16
282.691	81.07
282.906	9.39
283.122	-25.43
283.337	-21.33
283.552	54.44
283.767	13.48
283.983	60.59
284.198	-2.9
284.413	-4.95
284.628	83.11
284.843	25.77
285.058	-21.33
285.274	109.74
285.489	23.72
285.704	25.77
285.919	-43.86
286.134	33.96
286.349	74.92
286.564	3.24
286.779	103.59
286.995	21.67
287.21	13.48
287.425	17.58
287.64	81.07
287.855	31.91
288.07	-7
288.285	-7
288.5	99.5
288.715	-0.85
288.93	3.24
289.145	40.11
289.36	19.63
289.575	97.45
289.79	72.87
290.004	-45.91
290.219	-9.05
290.434	-52.05
290.649	3.24
290.864	44.2
291.079	-7
291.294	111.78
291.509	54.44
291.724	29.87
291.938	-29.52
292.153	3.24
292.368	50.35
292.583	48.3
292.798	3.24
293.012	21.67
293.227	-13.14
293.442	-33.62
293.657	21.67
293.871	60.59
294.086	19.63
294.301	52.39
294.516	44.2
294.73	66.73
294.945	9.39
295.16	70.83
295.374	48.3
295.589	-35.67
295.804	17.58
296.018	-25.43
296.233	58.54
296.447	7.34
296.662	40.11
296.877	7.34
297.091	-4.95
297.306	13.48
297.52	44.2
297.735	25.77
297.949	15.53
298.164	33.96
298.378	23.72
298.593	-15.19
298.807	-27.48
299.022	72.87
299.236	3.24
299.451	9.39
299.665	58.54
299.88	23.72
300.094	68.78
300.309	-7
300.523	15.53
300.737	-23.38
300.952	44.2
301.166	9.39
301.381	-15.19
301.595	33.96
301.809	15.53
302.024	33.96
302.238	17.58
302.452	52.39
302.667	38.06
302.881	48.3
303.095	-47.96
303.309	105.64
303.524	13.48
303.738	19.63
303.952	50.35
304.166	-0.85
304.381	-9.05
304.595	-31.57
304.809	46.25
305.023	21.67
305.237	7.34
305.452	50.35
305.666	-27.48
305.88	52.39
306.094	-33.62
306.308	29.87
306.522	42.15
306.736	68.78
306.95	3.24
307.164	52.39
307.379	64.68
307.593	58.54
307.807	-4.95
308.021	9.39
308.235	64.68
308.449	-2.9
308.663	-23.38
308.877	91.31
309.091	42.15
309.305	60.59
309.519	48.3
309.733	62.63
309.947	17.58
310.161	76.97
310.374	93.35
310.588	46.25
310.802	21.67
311.016	13.48
311.23	58.54
311.444	99.5
311.658	52.39
311.872	42.15
312.085	52.39
312.299	7.34
312.513	31.91
312.727	50.35
312.941	-9.05
313.154	42.15
313.368	52.39
313.582	7.34
313.796	21.67
314.009	9.39
314.223	44.2
314.437	52.39
314.651	13.48
314.864	27.82
315.078	60.59
315.292	-33.62
315.505	-19.29
315.719	56.49
315.933	50.35
316.146	29.87
316.36	-13.14
316.573	11.43
316.787	25.77
317.001	23.72
317.214	9.39
317.428	79.02
317.641	60.59
317.855	91.31
318.068	9.39
318.282	1.19
318.495	64.68
318.709	15.53
318.922	38.06
319.136	72.87
319.349	3.24
319.563	-41.81
319.776	17.58
319.99	-31.57
320.203	42.15
320.417	52.39
320.63	-33.62
320.843	38.06
321.057	29.87
321.27	50.35
321.483	7.34
321.697	25.77
321.91	58.54
322.124	11.43
322.337	40.11
322.55	48.3
322.763	36.01
322.977	-9.05
323.19	-41.81
323.403	144.55
323.617	21.67
323.83	-45.91
324.043	23.72
324.256	19.63
324.469	-33.62
324.683	-7
324.896	3.24
325.109	64.68
325.322	7.34
325.535	19.63
325.748	11.43
325.962	-33.62
326.175	17.58
326.388	48.3
326.601	64.68
326.814	15.53
327.027	-11.09
327.24	-9.05
327.453	40.11
327.666	56.49
327.879	85.16
328.092	91.31
328.305	27.82
328.518	-2.9
328.731	42.15
328.944	115.88
329.157	-11.09
329.37	56.49
329.583	56.49
329.796	9.39
330.009	-29.52
330.222	1.19
330.435	89.26
330.648	40.11
330.861	31.91
331.073	-7
331.286	-35.67
331.499	-43.86
331.712	-7
331.925	44.2
332.138	36.01
332.35	5.29
332.563	25.77
332.776	72.87
332.989	15.53
333.202	42.15
333.414	-27.48
333.627	15.53
333.84	-29.52
334.053	15.53
334.265	-80.72
334.478	21.67
334.691	50.35
334.903	-21.33
335.116	3.24
335.329	64.68
335.541	52.39
335.754	76.97
335.966	25.77
336.179	-17.24
336.392	42.15
336.604	60.59
336.817	7.34
337.029	83.11
337.242	-35.67
337.454	-25.43
337.667	11.43
337.88	64.68
338.092	-0.85
338.305	-23.38
338.517	48.3
338.729	33.96
338.942	156.84
339.154	27.82
339.367	7.34
339.579	91.31
339.792	-50
340.004	33.96
340.217	1.19
340.429	56.49
340.641	44.2
340.854	21.67
341.066	9.39
341.278	91.31
341.491	85.16
341.703	31.91
341.915	81.07
342.128	64.68
342.34	68.78
342.552	1.19
342.764	17.58
342.977	27.82
343.189	38.06
343.401	91.31
343.613	27.82
343.826	-19.29
344.038	25.77
344.25	3.24
344.462	-33.62
344.674	1.19
344.886	42.15
345.099	-2.9
345.311	27.82
345.523	9.39
345.735	15.53
345.947	42.15
346.159	-17.24
346.371	91.31
346.583	-4.95
346.795	50.35
347.007	9.39
347.219	42.15
347.431	44.2
347.643	111.78
347.855	70.83
348.067	54.44
348.279	-2.9
348.491	1.19
348.703	58.54
348.915	93.35
349.127	19.63
349.339	21.67
349.551	3.24
349.763	76.97
349.975	33.96
350.187	33.96
350.399	50.35
350.61	119.98
350.822	117.93
351.034	23.72
351.246	70.83
351.458	33.96
351.669	56.49
351.881	56.49
352.093	17.58
352.305	42.15
352.517	25.77
352.728	1.19
352.94	11.43
353.152	81.07
353.363	-4.95
353.575	-2.9
353.787	21.67
353.999	36.01
354.21	138.41
354.422	7.34
354.633	13.48
354.845	54.44
355.057	-54.1
355.268	40.11
355.48	5.29
355.692	-0.85
355.903	36.01
356.115	50.35
356.326	25.77
356.538	38.06
356.749	79.02
356.961	76.97
357.172	52.39
357.384	11.43
357.595	70.83
357.807	-37.72
358.018	-23.38
358.23	-41.81
358.441	81.07
358.653	126.12
358.864	29.87
359.075	-21.33
359.287	19.63
359.498	38.06
359.709	-0.85
359.921	46.25
360.132	40.11
360.344	3.24
360.555	-11.09
360.766	85.16
360.977	19.63
361.189	21.67
361.4	91.31
361.611	36.01
361.823	-13.14
362.034	38.06
362.245	-56.15
362.456	19.63
362.667	70.83
362.879	81.07
363.09	27.82
363.301	68.78
363.512	40.11
363.723	113.83
363.935	52.39
364.146	3.24
364.357	113.83
364.568	5.29
364.779	64.68
364.99	56.49
365.201	52.39
365.412	19.63
365.623	33.96
365.834	79.02
366.045	89.26
366.256	52.39
366.467	74.92
366.678	36.01
366.889	7.34
367.1	60.59
367.311	64.68
367.522	1.19
367.733	3.24
367.944	21.67
368.155	54.44
368.366	17.58
368.577	79.02
368.788	11.43
368.999	68.78
369.209	42.15
369.42	167.08
369.631	107.69
369.842	5.29
370.053	64.68
370.264	3.24
370.474	62.63
370.685	3.24
370.896	27.82
371.107	19.63
371.317	25.77
371.528	99.5
371.739	36.01
371.95	54.44
372.16	62.63
372.371	-9.05
372.582	64.68
372.792	17.58
373.003	-19.29
373.214	97.45
373.424	17.58
373.635	89.26
373.846	101.55
374.056	9.39
374.267	17.58
374.477	-25.43
374.688	36.01
374.898	33.96
375.109	19.63
375.319	76.97
375.53	15.53
375.74	33.96
375.951	56.49
376.161	17.58
376.372	17.58
376.582	-7
376.793	58.54
377.003	-23.38
377.214	101.55
377.424	68.78
377.635	48.3
377.845	3.24
378.055	81.07
378.266	5.29
378.476	58.54
378.686	87.21
378.897	33.96
379.107	-13.14
379.317	138.41
379.528	3.24
379.738	66.73
379.948	81.07
380.158	15.53
380.369	95.4
380.579	1.19
380.789	36.01
380.999	62.63
381.21	11.43
381.42	76.97
381.63	-4.95
381.84	19.63
382.05	124.07
382.261	46.25
382.471	42.15
382.681	-62.29
382.891	79.02
383.101	3.24
383.311	15.53
383.521	64.68
383.731	91.31
383.941	33.96
384.151	66.73
384.361	68.78
384.571	48.3
384.781	17.58
384.991	89.26
385.201	66.73
385.411	93.35
385.621	72.87
385.831	36.01
386.041	66.73
386.251	50.35
386.461	101.55
386.671	5.29
386.881	97.45
387.091	-62.29
387.301	81.07
387.511	19.63
387.72	31.91
387.93	85.16
388.14	-4.95
388.35	60.59
388.56	40.11
388.769	56.49
388.979	52.39
389.189	42.15
389.399	33.96
389.609	103.59
389.818	85.16
390.028	95.4
390.238	91.31
390.447	56.49
390.657	132.26
390.867	-7
391.076	64.68
391.286	81.07
391.496	58.54
391.705	27.82
391.915	95.4
392.125	95.4
392.334	40.11
392.544	93.35
392.753	85.16
392.963	42.15
393.172	126.12
393.382	72.87
393.591	9.39
393.801	83.11
394.01	15.53
394.22	74.92
394.429	101.55
394.639	44.2
394.848	152.74
395.058	52.39
395.267	103.59
395.477	85.16
395.686	130.22
395.895	52.39
396.105	156.84
396.314	44.2
396.524	48.3
396.733	152.74
396.942	109.74
397.152	119.98
397.361	50.35
397.57	42.15
397.78	48.3
397.989	85.16
398.198	103.59
398.407	105.64
398.617	60.59
398.826	1.19
399.035	44.2
399.244	60.59
399.453	70.83
399.663	93.35
399.872	128.17
400.081	109.74
400.29	126.12
400.499	109.74
400.708	130.22
400.917	167.08
401.127	70.83
401.336	66.73
401.545	66.73
401.754	70.83
401.963	117.93
402.172	165.03
402.381	83.11
402.59	76.97
402.799	74.92
403.008	105.64
403.217	66.73
403.426	81.07
403.635	95.4
403.844	154.79
404.053	74.92
404.262	117.93
404.471	152.74
404.68	134.31
404.888	68.78
405.097	150.7
405.306	179.37
405.515	97.45
405.724	154.79
405.933	171.18
406.142	140.46
406.35	148.65
406.559	111.78
406.768	197.8
406.977	142.5
407.185	165.03
407.394	232.62
407.603	167.08
407.812	236.71
408.02	277.67
408.229	279.72
408.438	316.58
408.646	335.01
408.855	320.68
409.064	287.91
409.272	216.23
409.481	308.39
409.69	294.05
409.898	357.54
410.107	298.15
410.315	363.69
410.524	244.9
410.733	320.68
410.941	371.88
411.15	433.32
411.358	435.36
411.567	492.71
411.775	447.65
411.984	402.6
412.192	439.46
412.401	406.69
412.609	421.03
412.818	521.38
413.026	502.95
413.234	537.76
413.443	576.67
413.651	629.92
413.86	607.39
414.068	640.16
414.276	623.78
414.485	681.12
414.693	691.36
414.901	660.64
415.11	789.66
415.318	736.42
415.526	722.08
415.734	801.95
415.943	855.2
416.151	890.01
416.359	881.82
416.567	924.83
416.776	904.35
416.984	984.22
417.192	1045.66
417.4	1027.23
417.608	1037.47
417.817	1074.33
418.025	1189.02
418.233	1203.35
418.441	1160.34
418.649	1168.54
418.857	1268.89
419.065	1426.58
419.273	1344.66
419.481	1334.42
419.689	1539.22
419.897	1481.88
420.105	1510.55
420.313	1590.42
420.521	1688.72
420.729	1686.67
420.937	1733.78
421.145	1817.74
421.353	2008.2
421.561	2043.02
421.769	2020.49
421.977	2225.29
422.185	2141.32
422.393	2247.82
422.601	2407.56
422.809	2247.82
423.017	2399.37
423.224	2528.39
423.432	2555.01
423.64	2548.87
423.848	2833.54
424.056	2847.87
424.263	3005.56
424.471	3015.8
424.679	3056.76
424.887	3206.27
425.094	3335.29
425.302	3374.2
425.51	3476.6
425.718	3556.47
425.925	3550.32
426.133	3656.82
426.341	4054.12
426.548	4095.08
426.756	4125.8
426.964	4121.71
427.171	4424.81
427.379	4467.81
427.586	4557.93
427.794	4734.05
428.001	4889.7
428.209	5147.74
428.417	5160.03
428.624	5551.19
428.832	5411.93
429.039	5424.22
429.247	5405.78
429.454	5966.93
429.662	6188.11
429.869	5956.69
430.076	6423.62
430.284	6069.33
430.491	6456.39
430.699	6751.3
430.906	6982.72
431.114	6968.38
431.321	7160.89
431.528	7240.76
431.736	7638.07
431.943	8066.1
432.15	7736.37
432.358	7951.41
432.565	8426.54
432.772	8301.61
432.979	8737.83
433.187	8838.18
433.394	9020.45
433.601	9679.89
433.808	9587.74
434.016	9731.09
434.223	9956.37
434.43	10497.03
434.637	10398.73
434.844	10984.45
435.052	11246.59
435.259	11162.62
435.466	11301.89
435.673	11146.24
435.88	11731.96
436.087	12391.41
436.294	12520.43
436.501	12155.89
436.708	12422.13
436.915	12874.73
437.122	13603.8
437.329	13321.18
437.537	13849.56
437.743	14146.51
437.95	13880.28
438.157	14732.23
438.364	15143.88
438.571	15270.85
438.778	14990.28
438.985	16483.25
439.192	16155.57
439.399	16497.58
439.606	16090.04
439.813	17015.72
440.02	18271.12
440.227	17996.7
440.433	17709.98
440.64	18480.02
440.847	18230.16
441.054	18615.18
441.261	19665.79
441.467	19248
441.674	19886.97
441.881	20663.15
442.088	20763.5
442.294	20110.2
442.501	21029.74
442.708	21316.45
442.914	22014.81
443.121	22999.88
443.328	22582.1
443.534	24107.83
443.741	23184.2
443.948	23006.03
444.154	25037.61
444.361	24441.65
444.568	24699.7
444.774	24953.65
444.981	25068.33
445.187	25514.79
445.394	26929.94
445.6	26663.7
445.807	28748.53
446.013	27888.39
446.22	28453.62
446.426	29047.54
446.633	29711.08
446.839	30460.63
447.046	29455.08
447.252	30767.83
447.459	31005.39
447.665	30792.4
447.871	32238.27
448.078	33450.67
448.284	31969.99
448.491	32889.52
448.697	34294.43
448.903	34726.55
449.11	34976.4
449.316	34429.6
449.522	34972.31
449.728	35422.86
449.935	36196.99
450.141	35742.35
450.347	36819.58
450.553	35805.83
450.76	36248.19
450.966	37366.38
451.172	37007.99
451.378	37816.94
451.584	36790.91
451.791	37978.73
451.997	37945.96
452.203	38285.92
452.409	38230.63
452.615	38249.06
452.821	36541.05
453.027	36592.25
453.233	38562.4
453.44	36991.61
453.646	37368.43
453.852	37659.24
454.058	38355.55
454.264	36981.37
454.47	37677.68
454.676	36371.07
454.882	37730.92
455.088	34650.78
455.294	35283.6
455.5	35744.39
455.705	35846.79
455.911	34917.01
456.117	34196.13
456.323	33622.7
456.529	31767.24
456.735	33432.24
456.941	32279.23
457.147	31924.93
457.352	30874.32
457.558	30536.41
457.764	30503.64
457.97	30087.9
458.176	29379.31
458.381	29397.74
458.587	27949.82
458.793	27904.77
458.999	26397.46
459.204	28242.68
459.41	27781.89
459.616	25645.86
459.821	25932.57
460.027	25854.75
460.233	25518.89
460.438	24048.44
460.644	23853.89
460.85	23266.12
461.055	23180.1
461.261	22803.28
461.466	21144.42
461.672	20472.69
461.878	21996.38
462.083	20532.08
462.289	19846.01
462.494	19884.92
462.7	18932.62
462.905	18502.54
463.111	18936.71
463.316	19100.55
463.522	18650
463.727	18586.51
463.932	18664.33
464.138	18561.94
464.343	18746.25
464.549	17752.99
464.754	18803.6
464.959	18420.63
465.165	18447.25
465.37	17562.53
465.575	17142.69
465.781	17998.74
465.986	17759.13
466.191	17300.39
466.397	16944.04
466.602	15969.21
466.807	16569.26
467.012	16872.36
467.218	16436.14
467.423	16331.7
467.628	16493.49
467.833	17187.75
468.038	16556.97
468.244	16249.78
468.449	16839.59
