Data from USB4F104151__66__11-37-30-240.txt Node

Date: Fri Mar 14 11:37:30 EDT 2025
User: louis
Spectrometer: USB4F10415
Trigger mode: 4
Integration Time (sec): 2.000000E-2
Scans to average: 1
Electric dark correction enabled: true
Nonlinearity correction enabled: false
Boxcar width: 0
XAxis mode: Wavelengths
Number of Pixels in Spectrum: 3648
>>>>>Begin Spectral Data<<<<<
178.204	-29.87
178.424	-29.87
178.644	-29.87
178.864	-122.02
179.084	-87.21
179.304	-21.67
179.524	-85.16
179.744	2.9
179.964	56.15
180.184	-50.35
180.404	76.63
180.624	35.67
180.844	15.19
181.064	-46.25
181.283	66.39
181.503	-91.31
181.723	41.81
181.943	-68.78
182.163	45.91
182.383	-56.49
182.602	-29.87
182.822	45.91
183.042	82.77
183.262	50
183.482	35.67
183.701	-46.25
183.921	82.77
184.141	-23.72
184.361	31.57
184.58	0.85
184.8	13.14
185.02	-7.34
185.239	88.92
185.459	-9.39
185.679	64.34
185.898	78.68
186.118	23.38
186.338	-48.3
186.557	13.14
186.777	-36.01
186.997	45.91
187.216	-11.43
187.436	68.44
187.655	19.29
187.875	62.29
188.095	103.25
188.314	15.19
188.534	95.06
188.753	68.44
188.973	-7.34
189.192	21.33
189.412	41.81
189.631	103.25
189.851	11.09
190.07	9.05
190.29	-7.34
190.509	-19.63
190.729	47.96
190.948	103.25
191.168	45.91
191.387	11.09
191.607	-38.06
191.826	-25.77
192.045	4.95
192.265	-27.82
192.484	13.14
192.704	-42.15
192.923	21.33
193.142	95.06
193.362	21.33
193.581	78.68
193.8	62.29
194.02	29.52
194.239	-9.39
194.458	-89.26
194.678	66.39
194.897	45.91
195.116	-56.49
195.335	19.29
195.555	-23.72
195.774	54.1
195.993	76.63
196.212	-21.67
196.432	31.57
196.651	-38.06
196.87	13.14
197.089	76.63
197.308	27.48
197.528	60.24
197.747	37.72
197.966	21.33
198.185	101.2
198.404	4.95
198.623	-21.67
198.842	-31.91
199.062	-19.63
199.281	162.64
199.5	0.85
199.719	113.49
199.938	29.52
200.157	70.48
200.376	-81.07
200.595	25.43
200.814	68.44
201.033	-33.96
201.252	97.11
201.471	9.05
201.69	9.05
201.909	25.43
202.128	86.87
202.347	-9.39
202.566	-36.01
202.785	-7.34
203.004	7
203.223	50
203.442	-9.39
203.661	2.9
203.879	-25.77
204.098	107.35
204.317	-74.92
204.536	-3.24
204.755	29.52
204.974	-36.01
205.193	62.29
205.411	76.63
205.63	17.24
205.849	70.48
206.068	-19.63
206.287	97.11
206.505	-25.77
206.724	43.86
206.943	56.15
207.162	11.09
207.381	-11.43
207.599	72.53
207.818	21.33
208.037	60.24
208.255	-91.31
208.474	29.52
208.693	25.43
208.911	66.39
209.13	-7.34
209.349	70.48
209.567	29.52
209.786	43.86
210.005	-11.43
210.223	29.52
210.442	19.29
210.661	33.62
210.879	-11.43
211.098	70.48
211.316	-13.48
211.535	31.57
211.753	66.39
211.972	103.25
212.191	19.29
212.409	2.9
212.628	23.38
212.846	41.81
213.065	52.05
213.283	78.68
213.502	-5.29
213.72	78.68
213.938	-1.19
214.157	0.85
214.375	64.34
214.594	35.67
214.812	35.67
215.031	25.43
215.249	62.29
215.467	88.92
215.686	93.01
215.904	17.24
216.122	-29.87
216.341	29.52
216.559	-52.39
216.778	-15.53
216.996	39.76
217.214	37.72
217.432	19.29
217.651	37.72
217.869	-33.96
218.087	33.62
218.306	-3.24
218.524	11.09
218.742	43.86
218.96	58.2
219.179	17.24
219.397	37.72
219.615	127.83
219.833	88.92
220.051	9.05
220.27	78.68
220.488	136.02
220.706	-15.53
220.924	4.95
221.142	-23.72
221.36	-19.63
221.578	103.25
221.796	21.33
222.015	47.96
222.233	52.05
222.451	117.59
222.669	-36.01
222.887	19.29
223.105	47.96
223.323	35.67
223.541	-1.19
223.759	19.29
223.977	-44.2
224.195	4.95
224.413	-11.43
224.631	43.86
224.849	25.43
225.067	37.72
225.285	-1.19
225.503	66.39
225.721	-33.96
225.939	74.58
226.157	31.57
226.375	88.92
226.592	41.81
226.81	66.39
227.028	62.29
227.246	66.39
227.464	21.33
227.682	27.48
227.9	62.29
228.117	58.2
228.335	58.2
228.553	113.49
228.771	11.09
228.989	19.29
229.206	23.38
229.424	60.24
229.642	41.81
229.86	35.67
230.077	54.1
230.295	17.24
230.513	-11.43
230.731	17.24
230.948	54.1
231.166	29.52
231.384	25.43
231.601	-21.67
231.819	54.1
232.037	41.81
232.254	-13.48
232.472	13.14
232.689	-25.77
232.907	41.81
233.125	-29.87
233.342	39.76
233.56	13.14
233.777	95.06
233.995	52.05
234.213	78.68
234.43	-17.58
234.648	37.72
234.865	54.1
235.083	39.76
235.3	78.68
235.518	47.96
235.735	82.77
235.953	39.76
236.17	70.48
236.388	45.91
236.605	17.24
236.822	15.19
237.04	68.44
237.257	9.05
237.475	2.9
237.692	70.48
237.909	41.81
238.127	78.68
238.344	-81.07
238.562	86.87
238.779	-40.11
238.996	-19.63
239.214	129.88
239.431	54.1
239.648	-19.63
239.865	13.14
240.083	-13.48
240.3	-89.26
240.517	15.19
240.735	15.19
240.952	21.33
241.169	50
241.386	0.85
241.603	0.85
241.821	11.09
242.038	56.15
242.255	21.33
242.472	45.91
242.689	-17.58
242.907	4.95
243.124	70.48
243.341	35.67
243.558	-5.29
243.775	9.05
243.992	43.86
244.209	0.85
244.426	146.26
244.643	15.19
244.86	31.57
245.078	29.52
245.295	99.16
245.512	-36.01
245.729	37.72
245.946	-7.34
246.163	15.19
246.38	-7.34
246.597	-15.53
246.814	21.33
247.031	17.24
247.248	70.48
247.464	52.05
247.681	90.96
247.898	2.9
248.115	35.67
248.332	-44.2
248.549	66.39
248.766	117.59
248.983	9.05
249.2	-29.87
249.417	31.57
249.633	-76.97
249.85	109.4
250.067	13.14
250.284	9.05
250.501	52.05
250.717	47.96
250.934	27.48
251.151	25.43
251.368	90.96
251.585	2.9
251.801	35.67
252.018	-5.29
252.235	0.85
252.451	-13.48
252.668	7
252.885	70.48
253.102	41.81
253.318	93.01
253.535	33.62
253.752	-5.29
253.968	-38.06
254.185	-58.54
254.401	21.33
254.618	0.85
254.835	45.91
255.051	56.15
255.268	-25.77
255.484	82.77
255.701	-13.48
255.917	86.87
256.134	4.95
256.351	58.2
256.567	70.48
256.784	56.15
257	-3.24
257.217	-25.77
257.433	60.24
257.65	54.1
257.866	50
258.082	19.29
258.299	19.29
258.515	13.14
258.732	45.91
258.948	41.81
259.165	25.43
259.381	68.44
259.597	50
259.814	-7.34
260.03	35.67
260.246	-11.43
260.463	-50.35
260.679	29.52
260.895	117.59
261.112	82.77
261.328	-29.87
261.544	50
261.761	68.44
261.977	56.15
262.193	-44.2
262.409	-5.29
262.626	25.43
262.842	78.68
263.058	88.92
263.274	105.3
263.49	52.05
263.707	-31.91
263.923	64.34
264.139	25.43
264.355	66.39
264.571	-31.91
264.787	33.62
265.004	50
265.22	43.86
265.436	66.39
265.652	47.96
265.868	7
266.084	-52.39
266.3	45.91
266.516	-9.39
266.732	88.92
266.948	-1.19
267.164	23.38
267.38	23.38
267.596	-1.19
267.812	27.48
268.028	2.9
268.244	27.48
268.46	66.39
268.676	4.95
268.892	-3.24
269.108	21.33
269.324	-11.43
269.54	56.15
269.756	17.24
269.972	78.68
270.188	115.54
270.403	11.09
270.619	50
270.835	41.81
271.051	25.43
271.267	37.72
271.483	45.91
271.698	13.14
271.914	-13.48
272.13	23.38
272.346	21.33
272.562	-31.91
272.777	52.05
272.993	105.3
273.209	29.52
273.425	29.52
273.64	2.9
273.856	31.57
274.072	11.09
274.287	-31.91
274.503	2.9
274.719	76.63
274.934	62.29
275.15	68.44
275.366	7
275.581	43.86
275.797	62.29
276.012	-13.48
276.228	101.2
276.444	0.85
276.659	45.91
276.875	70.48
277.09	33.62
277.306	-60.59
277.521	78.68
277.737	93.01
277.952	27.48
278.168	-15.53
278.383	-3.24
278.599	54.1
278.814	78.68
279.03	56.15
279.245	62.29
279.461	43.86
279.676	72.53
279.892	2.9
280.107	66.39
280.322	19.29
280.538	90.96
280.753	-29.87
280.969	58.2
281.184	37.72
281.399	54.1
281.615	-27.82
281.83	74.58
282.045	27.48
282.26	11.09
282.476	27.48
282.691	43.86
282.906	76.63
283.122	95.06
283.337	-48.3
283.552	45.91
283.767	-1.19
283.983	56.15
284.198	84.82
284.413	21.33
284.628	9.05
284.843	37.72
285.058	62.29
285.274	29.52
285.489	11.09
285.704	19.29
285.919	66.39
286.134	-15.53
286.349	60.24
286.564	9.05
286.779	27.48
286.995	140.12
287.21	43.86
287.425	2.9
287.64	-40.11
287.855	37.72
288.07	4.95
288.285	54.1
288.5	17.24
288.715	99.16
288.93	-5.29
289.145	33.62
289.36	37.72
289.575	50
289.79	115.54
290.004	13.14
290.219	52.05
290.434	4.95
290.649	-3.24
290.864	39.76
291.079	45.91
291.294	25.43
291.509	37.72
291.724	31.57
291.938	97.11
292.153	23.38
292.368	60.24
292.583	62.29
292.798	66.39
293.012	37.72
293.227	58.2
293.442	52.05
293.657	33.62
293.871	47.96
294.086	86.87
294.301	76.63
294.516	39.76
294.73	27.48
294.945	72.53
295.16	45.91
295.374	45.91
295.589	58.2
295.804	11.09
296.018	15.19
296.233	82.77
296.447	54.1
296.662	23.38
296.877	68.44
297.091	64.34
297.306	54.1
297.52	19.29
297.735	-31.91
297.949	90.96
298.164	62.29
298.378	84.82
298.593	-44.2
298.807	21.33
299.022	82.77
299.236	39.76
299.451	41.81
299.665	-25.77
299.88	39.76
300.094	-9.39
300.309	93.01
300.523	17.24
300.737	37.72
300.952	0.85
301.166	136.02
301.381	66.39
301.595	74.58
301.809	64.34
302.024	11.09
302.238	41.81
302.452	78.68
302.667	76.63
302.881	9.05
303.095	54.1
303.309	115.54
303.524	60.24
303.738	60.24
303.952	-72.87
304.166	60.24
304.381	25.43
304.595	-40.11
304.809	50
305.023	-5.29
305.237	54.1
305.452	25.43
305.666	41.81
305.88	35.67
306.094	41.81
306.308	27.48
306.522	29.52
306.736	105.3
306.95	35.67
307.164	29.52
307.379	-36.01
307.593	80.72
307.807	93.01
308.021	58.2
308.235	35.67
308.449	-3.24
308.663	86.87
308.877	82.77
309.091	-11.43
309.305	-3.24
309.519	-3.24
309.733	76.63
309.947	-19.63
310.161	41.81
310.374	70.48
310.588	68.44
310.802	-11.43
311.016	68.44
311.23	80.72
311.444	-1.19
311.658	21.33
311.872	37.72
312.085	-15.53
312.299	146.26
312.513	37.72
312.727	27.48
312.941	-19.63
313.154	54.1
313.368	-15.53
313.582	13.14
313.796	21.33
314.009	80.72
314.223	37.72
314.437	54.1
314.651	95.06
314.864	80.72
315.078	45.91
315.292	37.72
315.505	25.43
315.719	68.44
315.933	68.44
316.146	-7.34
316.36	52.05
316.573	4.95
316.787	-25.77
317.001	50
317.214	62.29
317.428	-7.34
317.641	-11.43
317.855	23.38
318.068	27.48
318.282	47.96
318.495	4.95
318.709	35.67
318.922	21.33
319.136	93.01
319.349	-3.24
319.563	74.58
319.776	54.1
319.99	11.09
320.203	58.2
320.417	64.34
320.63	13.14
320.843	123.73
321.057	4.95
321.27	76.63
321.483	74.58
321.697	-36.01
321.91	39.76
322.124	90.96
322.337	99.16
322.55	31.57
322.763	52.05
322.977	-7.34
323.19	29.52
323.403	78.68
323.617	123.73
323.83	88.92
324.043	35.67
324.256	25.43
324.469	31.57
324.683	95.06
324.896	39.76
325.109	72.53
325.322	33.62
325.535	-3.24
325.748	37.72
325.962	15.19
326.175	62.29
326.388	68.44
326.601	56.15
326.814	62.29
327.027	115.54
327.24	107.35
327.453	58.2
327.666	64.34
327.879	70.48
328.092	-38.06
328.305	66.39
328.518	127.83
328.731	52.05
328.944	68.44
329.157	74.58
329.37	35.67
329.583	17.24
329.796	103.25
330.009	19.29
330.222	37.72
330.435	86.87
330.648	76.63
330.861	84.82
331.073	84.82
331.286	45.91
331.499	-7.34
331.712	-1.19
331.925	93.01
332.138	45.91
332.35	103.25
332.563	4.95
332.776	54.1
332.989	88.92
333.202	66.39
333.414	41.81
333.627	-7.34
333.84	62.29
334.053	19.29
334.265	101.2
334.478	58.2
334.691	-15.53
334.903	0.85
335.116	52.05
335.329	64.34
335.541	27.48
335.754	58.2
335.966	17.24
336.179	52.05
336.392	29.52
336.604	43.86
336.817	39.76
337.029	66.39
337.242	-11.43
337.454	88.92
337.667	13.14
337.88	66.39
338.092	45.91
338.305	123.73
338.517	86.87
338.729	21.33
338.942	43.86
339.154	-11.43
339.367	-15.53
339.579	140.12
339.792	86.87
340.004	50
340.217	31.57
340.429	45.91
340.641	-11.43
340.854	4.95
341.066	43.86
341.278	58.2
341.491	99.16
341.703	62.29
341.915	13.14
342.128	136.02
342.34	58.2
342.552	52.05
342.764	52.05
342.977	33.62
343.189	35.67
343.401	-7.34
343.613	-9.39
343.826	101.2
344.038	-5.29
344.25	-44.2
344.462	50
344.674	84.82
344.886	117.59
345.099	50
345.311	-29.87
345.523	66.39
345.735	37.72
345.947	82.77
346.159	25.43
346.371	19.29
346.583	37.72
346.795	52.05
347.007	58.2
347.219	105.3
347.431	0.85
347.643	47.96
347.855	29.52
348.067	58.2
348.279	-50.35
348.491	109.4
348.703	66.39
348.915	31.57
349.127	-17.58
349.339	62.29
349.551	62.29
349.763	68.44
349.975	-5.29
350.187	93.01
350.399	90.96
350.61	58.2
350.822	86.87
351.034	117.59
351.246	33.62
351.458	37.72
351.669	15.19
351.881	64.34
352.093	68.44
352.305	25.43
352.517	66.39
352.728	78.68
352.94	68.44
353.152	13.14
353.363	60.24
353.575	52.05
353.787	37.72
353.999	17.24
354.21	66.39
354.422	-38.06
354.633	9.05
354.845	64.34
355.057	25.43
355.268	45.91
355.48	142.16
355.692	-27.82
355.903	25.43
356.115	25.43
356.326	13.14
356.538	-25.77
356.749	66.39
356.961	29.52
357.172	76.63
357.384	-44.2
357.595	111.44
357.807	70.48
358.018	-17.58
358.23	78.68
358.441	54.1
358.653	90.96
358.864	76.63
359.075	19.29
359.287	43.86
359.498	41.81
359.709	41.81
359.921	-3.24
360.132	25.43
360.344	54.1
360.555	11.09
360.766	33.62
360.977	-19.63
361.189	45.91
361.4	115.54
361.611	23.38
361.823	41.81
362.034	84.82
362.245	2.9
362.456	117.59
362.667	43.86
362.879	62.29
363.09	80.72
363.301	35.67
363.512	45.91
363.723	37.72
363.935	90.96
364.146	80.72
364.357	95.06
364.568	119.64
364.779	64.34
364.99	99.16
365.201	70.48
365.412	37.72
365.623	50
365.834	35.67
366.045	62.29
366.256	113.49
366.467	64.34
366.678	107.35
366.889	93.01
367.1	64.34
367.311	29.52
367.522	4.95
367.733	115.54
367.944	60.24
368.155	-5.29
368.366	95.06
368.577	70.48
368.788	37.72
368.999	13.14
369.209	140.12
369.42	109.4
369.631	127.83
369.842	60.24
370.053	-3.24
370.264	70.48
370.474	41.81
370.685	23.38
370.896	29.52
371.107	31.57
371.317	68.44
371.528	25.43
371.739	88.92
371.95	58.2
372.16	29.52
372.371	21.33
372.582	88.92
372.792	-11.43
373.003	84.82
373.214	56.15
373.424	35.67
373.635	56.15
373.846	52.05
374.056	23.38
374.267	119.64
374.477	-15.53
374.688	78.68
374.898	50
375.109	52.05
375.319	80.72
375.53	47.96
375.74	27.48
375.951	-3.24
376.161	52.05
376.372	19.29
376.582	39.76
376.793	41.81
377.003	21.33
377.214	35.67
377.424	21.33
377.635	9.05
377.845	54.1
378.055	76.63
378.266	43.86
378.476	103.25
378.686	74.58
378.897	117.59
379.107	37.72
379.317	66.39
379.528	78.68
379.738	93.01
379.948	7
380.158	52.05
380.369	37.72
380.579	121.68
380.789	80.72
380.999	115.54
381.21	121.68
381.42	54.1
381.63	11.09
381.84	107.35
382.05	33.62
382.261	58.2
382.471	35.67
382.681	80.72
382.891	95.06
383.101	80.72
383.311	9.05
383.521	80.72
383.731	11.09
383.941	68.44
384.151	66.39
384.361	127.83
384.571	72.53
384.781	105.3
384.991	119.64
385.201	45.91
385.411	76.63
385.621	84.82
385.831	70.48
386.041	54.1
386.251	39.76
386.461	105.3
386.671	-13.48
386.881	70.48
387.091	29.52
387.301	90.96
387.511	-7.34
387.72	56.15
387.93	136.02
388.14	43.86
388.35	119.64
388.56	41.81
388.769	11.09
388.979	78.68
389.189	84.82
389.399	-44.2
389.609	52.05
389.818	93.01
390.028	95.06
390.238	78.68
390.447	25.43
390.657	86.87
390.867	86.87
391.076	93.01
391.286	84.82
391.496	133.97
391.705	45.91
391.915	82.77
392.125	68.44
392.334	82.77
392.544	131.92
392.753	41.81
392.963	72.53
393.172	58.2
393.382	58.2
393.591	90.96
393.801	11.09
394.01	76.63
394.22	99.16
394.429	103.25
394.639	25.43
394.848	148.31
395.058	68.44
395.267	144.21
395.477	72.53
395.686	125.78
395.895	119.64
396.105	111.44
396.314	99.16
396.524	74.58
396.733	86.87
396.942	107.35
397.152	117.59
397.361	68.44
397.57	152.4
397.78	101.2
397.989	150.36
398.198	142.16
398.407	76.63
398.617	136.02
398.826	164.69
399.035	133.97
399.244	191.31
399.453	84.82
399.663	101.2
399.872	144.21
400.081	99.16
400.29	174.93
400.499	123.73
400.708	162.64
400.917	62.29
401.127	70.48
401.336	170.83
401.545	252.75
401.754	119.64
401.963	168.79
402.172	111.44
402.381	144.21
402.59	121.68
402.799	78.68
403.008	66.39
403.217	127.83
403.426	150.36
403.635	162.64
403.844	172.88
404.053	176.98
404.262	142.16
404.471	189.27
404.68	205.65
404.888	174.93
405.097	127.83
405.306	154.45
405.515	158.55
405.724	164.69
405.933	197.46
406.142	279.38
406.35	181.07
406.559	248.66
406.768	242.51
406.977	265.04
407.185	314.19
407.394	289.62
407.603	301.9
407.812	215.89
408.02	289.62
408.229	316.24
408.438	242.51
408.646	316.24
408.855	310.1
409.064	293.71
409.272	242.51
409.481	404.3
409.69	336.72
409.898	359.25
410.107	334.67
410.315	432.97
410.524	430.93
410.733	355.15
410.941	467.79
411.15	490.32
411.358	549.71
411.567	545.61
411.775	525.13
411.984	467.79
412.192	572.24
412.401	586.57
412.609	582.48
412.818	557.9
413.026	641.87
413.234	613.2
413.443	623.44
413.651	658.25
413.86	664.4
414.068	783.18
414.276	779.08
414.485	746.31
414.693	762.7
414.901	865.1
415.11	936.78
415.318	891.72
415.526	916.3
415.734	977.73
415.943	1016.65
416.151	1045.32
416.359	1090.37
416.567	1084.23
416.776	1182.53
416.984	1211.2
417.192	1194.82
417.4	1211.2
417.608	1409.86
417.817	1303.36
418.025	1354.56
418.233	1477.44
418.441	1538.88
418.649	1624.89
418.857	1596.22
419.065	1592.13
419.273	1661.76
419.481	1813.31
419.689	1854.27
419.897	1913.66
420.105	1954.62
420.313	2102.07
420.521	2007.86
420.729	2030.39
420.937	2214.71
421.145	2302.77
421.353	2411.31
421.561	2474.8
421.769	2550.57
421.977	2552.62
422.185	2505.52
422.393	2786.09
422.601	2939.69
422.809	2921.26
423.017	2884.39
423.224	2990.89
423.432	3185.44
423.64	3134.25
423.848	3355.43
424.056	3410.72
424.263	3722.01
424.471	3779.36
424.679	3595.04
424.887	4043.54
425.094	4051.74
425.302	4055.83
425.51	4307.73
425.718	4246.29
425.925	4363.03
426.133	4645.65
426.341	5006.09
426.548	4989.71
426.756	4956.94
426.964	5075.72
427.171	5468.93
427.379	5561.09
427.586	5612.29
427.794	5808.89
428.001	6032.12
428.209	6351.6
428.417	6183.67
428.624	6660.85
428.832	6798.06
429.039	6703.86
429.247	6849.26
429.454	7133.93
429.662	7746.27
429.869	7287.53
430.076	7844.57
430.284	7541.47
430.491	7926.49
430.699	8315.61
430.906	8176.34
431.114	8436.44
431.321	8745.68
431.528	8954.57
431.736	9470.66
431.943	9976.51
432.15	9781.95
432.358	9796.29
432.565	10205.88
432.772	10351.29
432.979	10695.35
433.187	11033.26
433.394	11004.59
433.601	11635.36
433.808	11811.49
434.016	11596.45
434.223	12212.89
434.43	12829.33
434.637	12728.98
434.844	13599.37
435.052	13625.99
435.259	13511.3
435.466	13810.31
435.673	13390.47
435.88	14553.72
436.087	15446.63
436.294	15215.21
436.501	14867.06
436.708	15393.39
436.915	15776.36
437.122	16458.33
437.329	16159.33
437.537	17125.97
437.743	17093.2
437.95	17232.46
438.157	18025.03
438.364	18752.06
438.571	18383.42
438.778	18803.25
438.985	20275.74
439.192	19554.86
439.399	20042.28
439.606	19931.69
439.813	20765.21
440.02	22096.39
440.227	21633.55
440.433	21719.56
440.64	22034.95
440.847	22342.14
441.054	22718.97
441.261	24107.49
441.467	23755.24
441.674	24293.86
441.881	25074.13
442.088	25092.57
442.294	24895.96
442.501	25487.82
442.708	26147.27
442.914	27009.47
443.121	28127.66
443.328	27191.73
443.534	29469.08
443.741	28727.71
443.948	28070.31
444.154	30171.53
444.361	30026.12
444.568	30695.81
444.774	30167.43
444.981	30581.12
445.187	31682.93
445.394	33132.89
445.6	32510.31
445.807	35649.85
446.013	34142.54
446.22	34113.87
446.426	36092.21
446.633	36358.44
446.839	37161.25
447.046	35649.85
447.252	37931.28
447.459	37697.81
447.665	37566.74
447.871	39158.02
448.078	40980.71
448.284	39176.45
448.491	40024.31
448.697	41648.35
448.903	42369.23
449.11	42469.58
449.316	41732.31
449.522	42334.42
449.728	43473.09
449.935	43661.5
450.141	44341.42
450.347	44660.91
450.553	43610.3
450.76	44163.25
450.966	45688.99
451.172	45017.25
451.378	45938.84
451.584	44652.72
451.791	46295.19
451.997	46119.06
452.203	46774.41
452.409	46995.59
452.615	47059.08
452.821	44808.36
453.027	44386.48
453.233	46813.32
453.44	44970.15
453.646	45355.17
453.852	45871.26
454.058	46215.32
454.264	45129.89
454.47	46315.67
454.676	44685.48
454.882	46180.5
455.088	42076.37
455.294	42989.77
455.5	43694.27
455.705	44159.16
455.911	42387.66
456.117	41335.01
456.323	40693.99
456.529	38881.54
456.735	40302.83
456.941	39397.63
457.147	38752.52
457.352	37357.85
457.558	37185.82
457.764	37181.73
457.97	36811.04
458.176	35764.53
458.381	36165.93
458.587	34220.36
458.793	33892.69
458.999	32364.9
459.204	34650.44
459.41	33691.99
459.616	31259
459.821	31727.99
460.027	31154.55
460.233	30886.27
460.438	29530.51
460.644	29401.49
460.85	28211.62
461.055	27869.61
461.261	27976.11
461.466	25786.83
461.672	25072.09
461.878	26687.93
462.083	24887.77
462.289	24599.01
462.494	24148.45
462.7	23036.41
462.905	22239.75
463.111	23190
463.316	23581.17
463.522	22901.24
463.727	23058.93
463.932	22880.76
464.138	22553.09
464.343	22661.63
464.549	22057.48
464.754	22678.01
464.959	22503.93
465.165	22237.7
465.37	21563.92
465.575	21115.41
465.781	21895.69
465.986	21899.78
466.191	20845.08
466.397	20568.6
466.602	19622.44
466.807	20433.44
467.012	20359.71
467.218	20240.93
467.423	19878.44
