Data from USB4F104151__87__11-37-51-738.txt Node

Date: Fri Mar 14 11:37:51 EDT 2025
User: louis
Spectrometer: USB4F10415
Trigger mode: 4
Integration Time (sec): 2.000000E-2
Scans to average: 1
Electric dark correction enabled: true
Nonlinearity correction enabled: false
Boxcar width: 0
XAxis mode: Wavelengths
Number of Pixels in Spectrum: 3648
>>>>>Begin Spectral Data<<<<<
178.204	-75.09
178.424	-75.09
178.644	-75.09
178.864	-73.04
179.084	-44.37
179.304	6.83
179.524	37.55
179.744	10.92
179.964	-34.13
180.184	-66.9
180.404	29.35
180.624	-1.37
180.844	62.12
181.064	-13.65
181.283	-19.8
181.503	-11.61
181.723	0.68
181.943	-9.56
182.163	64.17
182.383	45.74
182.602	51.88
182.822	121.51
183.042	70.31
183.262	80.55
183.482	60.07
183.701	64.17
183.921	-30.04
184.141	37.55
184.361	33.45
184.58	-1.37
184.8	43.69
185.02	49.83
185.239	80.55
185.459	15.02
185.679	8.87
185.898	15.02
186.118	64.17
186.338	53.93
186.557	-34.13
186.777	49.83
186.997	8.87
187.216	88.75
187.436	39.59
187.655	29.35
187.875	53.93
188.095	31.4
188.314	4.78
188.534	-3.41
188.753	29.35
188.973	70.31
189.192	86.7
189.412	15.02
189.631	12.97
189.851	58.03
190.07	-30.04
190.29	0.68
190.509	35.5
190.729	51.88
190.948	55.98
191.168	25.26
191.387	58.03
191.607	41.64
191.826	17.07
192.045	4.78
192.265	64.17
192.484	47.79
192.704	17.07
192.923	39.59
193.142	17.07
193.362	-17.75
193.581	2.73
193.8	-1.37
194.02	162.47
194.239	2.73
194.458	80.55
194.678	53.93
194.897	47.79
195.116	43.69
195.335	53.93
195.555	94.89
195.774	47.79
195.993	68.27
196.212	78.51
196.432	58.03
196.651	101.03
196.87	49.83
197.089	80.55
197.308	25.26
197.528	53.93
197.747	-7.51
197.966	103.08
198.185	62.12
198.404	23.21
198.623	72.36
198.842	39.59
199.062	-21.85
199.281	10.92
199.5	39.59
199.719	19.11
199.938	55.98
200.157	154.28
200.376	162.47
200.595	37.55
200.814	29.35
201.033	-13.65
201.252	31.4
201.471	72.36
201.69	41.64
201.909	55.98
202.128	70.31
202.347	35.5
202.566	8.87
202.785	-15.7
203.004	37.55
203.223	68.27
203.442	80.55
203.661	47.79
203.879	60.07
204.098	53.93
204.317	-42.32
204.536	27.31
204.755	21.16
204.974	51.88
205.193	6.83
205.411	58.03
205.63	-1.37
205.849	62.12
206.068	47.79
206.287	27.31
206.505	94.89
206.724	98.99
206.943	25.26
207.162	-27.99
207.381	8.87
207.599	23.21
207.818	33.45
208.037	41.64
208.255	-23.89
208.474	115.37
208.693	15.02
208.911	-11.61
209.13	37.55
209.349	-11.61
209.567	8.87
209.786	101.03
210.005	45.74
210.223	-17.75
210.442	12.97
210.661	39.59
210.879	41.64
211.098	103.08
211.316	92.84
211.535	70.31
211.753	74.41
211.972	152.23
212.191	8.87
212.409	-36.18
212.628	66.22
212.846	39.59
213.065	74.41
213.283	94.89
213.502	35.5
213.72	74.41
213.938	29.35
214.157	23.21
214.375	82.6
214.594	74.41
214.812	39.59
215.031	66.22
215.249	43.69
215.467	35.5
215.686	51.88
215.904	53.93
216.122	19.11
216.341	23.21
216.559	49.83
216.778	58.03
216.996	78.51
217.214	43.69
217.432	70.31
217.651	-19.8
217.869	27.31
218.087	27.31
218.306	66.22
218.524	39.59
218.742	107.18
218.96	37.55
219.179	-3.41
219.397	15.02
219.615	103.08
219.833	-11.61
220.051	27.31
220.27	74.41
220.488	39.59
220.706	58.03
220.924	-3.41
221.142	0.68
221.36	113.32
221.578	25.26
221.796	39.59
222.015	53.93
222.233	115.37
222.451	78.51
222.669	66.22
222.887	8.87
223.105	-27.99
223.323	-11.61
223.541	-73.04
223.759	66.22
223.977	17.07
224.195	107.18
224.413	33.45
224.631	66.22
224.849	4.78
225.067	152.23
225.285	-5.46
225.503	-17.75
225.721	33.45
225.939	90.79
226.157	-15.7
226.375	119.46
226.592	-17.75
226.81	-15.7
227.028	66.22
227.246	115.37
227.464	25.26
227.682	80.55
227.9	49.83
228.117	107.18
228.335	98.99
228.553	123.56
228.771	23.21
228.989	80.55
229.206	60.07
229.424	105.13
229.642	17.07
229.86	21.16
230.077	92.84
230.295	64.17
230.513	15.02
230.731	-32.08
230.948	107.18
231.166	29.35
231.384	39.59
231.601	-3.41
231.819	49.83
232.037	66.22
232.254	45.74
232.472	-13.65
232.689	35.5
232.907	-30.04
233.125	55.98
233.342	33.45
233.56	15.02
233.777	41.64
233.995	8.87
234.213	-27.99
234.43	51.88
234.648	60.07
234.865	66.22
235.083	74.41
235.3	96.94
235.518	66.22
235.735	76.46
235.953	103.08
236.17	6.83
236.388	72.36
236.605	29.35
236.822	47.79
237.04	12.97
237.257	-30.04
237.475	-46.42
237.692	70.31
237.909	39.59
238.127	21.16
238.344	12.97
238.562	68.27
238.779	15.02
238.996	105.13
239.214	39.59
239.431	25.26
239.648	0.68
239.865	62.12
240.083	41.64
240.3	86.7
240.517	101.03
240.735	0.68
240.952	10.92
241.169	66.22
241.386	0.68
241.603	58.03
241.821	60.07
242.038	80.55
242.255	31.4
242.472	47.79
242.689	92.84
242.907	49.83
243.124	25.26
243.341	94.89
243.558	96.94
243.775	33.45
243.992	-38.23
244.209	45.74
244.426	107.18
244.643	113.32
244.86	47.79
245.078	90.79
245.295	43.69
245.512	111.27
245.729	123.56
245.946	53.93
246.163	72.36
246.38	111.27
246.597	-7.51
246.814	47.79
247.031	-38.23
247.248	4.78
247.464	31.4
247.681	55.98
247.898	-9.56
248.115	86.7
248.332	-44.37
248.549	12.97
248.766	62.12
248.983	162.47
249.2	72.36
249.417	-48.47
249.633	37.55
249.85	70.31
250.067	55.98
250.284	37.55
250.501	76.46
250.717	23.21
250.934	35.5
251.151	74.41
251.368	90.79
251.585	60.07
251.801	4.78
252.018	21.16
252.235	105.13
252.451	58.03
252.668	62.12
252.885	39.59
253.102	58.03
253.318	33.45
253.535	-44.37
253.752	12.97
253.968	-19.8
254.185	29.35
254.401	68.27
254.618	58.03
254.835	25.26
255.051	60.07
255.268	49.83
255.484	2.73
255.701	35.5
255.917	70.31
256.134	25.26
256.351	37.55
256.567	8.87
256.784	76.46
257	41.64
257.217	86.7
257.433	96.94
257.65	62.12
257.866	37.55
258.082	43.69
258.299	90.79
258.515	78.51
258.732	70.31
258.948	-3.41
259.165	43.69
259.381	31.4
259.597	53.93
259.814	66.22
260.03	-15.7
260.246	17.07
260.463	60.07
260.679	82.6
260.895	25.26
261.112	43.69
261.328	17.07
261.544	19.11
261.761	86.7
261.977	82.6
262.193	-32.08
262.409	53.93
262.626	64.17
262.842	4.78
263.058	25.26
263.274	37.55
263.49	49.83
263.707	19.11
263.923	76.46
264.139	58.03
264.355	64.17
264.571	113.32
264.787	98.99
265.004	74.41
265.22	37.55
265.436	74.41
265.652	17.07
265.868	-23.89
266.084	12.97
266.3	51.88
266.516	49.83
266.732	33.45
266.948	25.26
267.164	96.94
267.38	49.83
267.596	98.99
267.812	133.8
268.028	92.84
268.244	55.98
268.46	43.69
268.676	19.11
268.892	58.03
269.108	35.5
269.324	45.74
269.54	10.92
269.756	123.56
269.972	-44.37
270.188	33.45
270.403	90.79
270.619	90.79
270.835	29.35
271.051	82.6
271.267	41.64
271.483	49.83
271.698	88.75
271.914	15.02
272.13	43.69
272.346	10.92
272.562	41.64
272.777	37.55
272.993	17.07
273.209	45.74
273.425	31.4
273.64	-19.8
273.856	92.84
274.072	41.64
274.287	27.31
274.503	35.5
274.719	53.93
274.934	29.35
275.15	33.45
275.366	66.22
275.581	17.07
275.797	84.65
276.012	23.21
276.228	49.83
276.444	80.55
276.659	27.31
276.875	37.55
277.09	8.87
277.306	55.98
277.521	53.93
277.737	17.07
277.952	29.35
278.168	72.36
278.383	74.41
278.599	66.22
278.814	45.74
279.03	113.32
279.245	41.64
279.461	86.7
279.676	68.27
279.892	39.59
280.107	45.74
280.322	58.03
280.538	-36.18
280.753	58.03
280.969	-27.99
281.184	-1.37
281.399	29.35
281.615	8.87
281.83	86.7
282.045	2.73
282.26	6.83
282.476	53.93
282.691	82.6
282.906	72.36
283.122	78.51
283.337	74.41
283.552	39.59
283.767	68.27
283.983	127.66
284.198	60.07
284.413	68.27
284.628	45.74
284.843	64.17
285.058	62.12
285.274	90.79
285.489	66.22
285.704	80.55
285.919	115.37
286.134	17.07
286.349	0.68
286.564	49.83
286.779	31.4
286.995	115.37
287.21	-44.37
287.425	39.59
287.64	23.21
287.855	58.03
288.07	70.31
288.285	53.93
288.5	129.7
288.715	66.22
288.93	8.87
289.145	98.99
289.36	129.7
289.575	41.64
289.79	82.6
290.004	25.26
290.219	37.55
290.434	43.69
290.649	29.35
290.864	25.26
291.079	-27.99
291.294	-44.37
291.509	17.07
291.724	21.16
291.938	0.68
292.153	53.93
292.368	8.87
292.583	2.73
292.798	96.94
293.012	49.83
293.227	35.5
293.442	33.45
293.657	4.78
293.871	86.7
294.086	103.08
294.301	135.85
294.516	51.88
294.73	80.55
294.945	25.26
295.16	62.12
295.374	94.89
295.589	129.7
295.804	39.59
296.018	101.03
296.233	60.07
296.447	64.17
296.662	27.31
296.877	17.07
297.091	111.27
297.306	98.99
297.52	115.37
297.735	35.5
297.949	2.73
298.164	60.07
298.378	37.55
298.593	-11.61
298.807	-44.37
299.022	25.26
299.236	37.55
299.451	21.16
299.665	8.87
299.88	58.03
300.094	105.13
300.309	25.26
300.523	-9.56
300.737	-17.75
300.952	74.41
301.166	15.02
301.381	78.51
301.595	41.64
301.809	23.21
302.024	82.6
302.238	96.94
302.452	53.93
302.667	2.73
302.881	115.37
303.095	76.46
303.309	113.32
303.524	119.46
303.738	66.22
303.952	-21.85
304.166	23.21
304.381	66.22
304.595	25.26
304.809	70.31
305.023	72.36
305.237	-11.61
305.452	70.31
305.666	96.94
305.88	133.8
306.094	4.78
306.308	68.27
306.522	96.94
306.736	96.94
306.95	-23.89
307.164	80.55
307.379	17.07
307.593	53.93
307.807	121.51
308.021	105.13
308.235	168.62
308.449	84.65
308.663	37.55
308.877	66.22
309.091	21.16
309.305	21.16
309.519	39.59
309.733	113.32
309.947	-23.89
310.161	68.27
310.374	27.31
310.588	66.22
310.802	8.87
311.016	43.69
311.23	21.16
311.444	35.5
311.658	39.59
311.872	72.36
312.085	129.7
312.299	45.74
312.513	150.18
312.727	90.79
312.941	6.83
313.154	55.98
313.368	123.56
313.582	51.88
313.796	107.18
314.009	37.55
314.223	98.99
314.437	-23.89
314.651	58.03
314.864	58.03
315.078	55.98
315.292	-1.37
315.505	17.07
315.719	15.02
315.933	45.74
316.146	53.93
316.36	82.6
316.573	70.31
316.787	55.98
317.001	66.22
317.214	45.74
317.428	121.51
317.641	58.03
317.855	45.74
318.068	55.98
318.282	29.35
318.495	66.22
318.709	49.83
318.922	53.93
319.136	88.75
319.349	88.75
319.563	115.37
319.776	-23.89
319.99	-23.89
320.203	94.89
320.417	6.83
320.63	12.97
320.843	76.46
321.057	-17.75
321.27	78.51
321.483	47.79
321.697	51.88
321.91	-7.51
322.124	43.69
322.337	60.07
322.55	37.55
322.763	37.55
322.977	39.59
323.19	131.75
323.403	10.92
323.617	43.69
323.83	19.11
324.043	-5.46
324.256	82.6
324.469	4.78
324.683	58.03
324.896	-17.75
325.109	127.66
325.322	82.6
325.535	135.85
325.748	64.17
325.962	60.07
326.175	80.55
326.388	49.83
326.601	10.92
326.814	41.64
327.027	33.45
327.24	129.7
327.453	35.5
327.666	27.31
327.879	103.08
328.092	103.08
328.305	86.7
328.518	37.55
328.731	47.79
328.944	17.07
329.157	64.17
329.37	15.02
329.583	94.89
329.796	35.5
330.009	37.55
330.222	70.31
330.435	103.08
330.648	113.32
330.861	84.65
331.073	37.55
331.286	82.6
331.499	37.55
331.712	19.11
331.925	4.78
332.138	129.7
332.35	105.13
332.563	33.45
332.776	84.65
332.989	62.12
333.202	62.12
333.414	19.11
333.627	8.87
333.84	43.69
334.053	98.99
334.265	70.31
334.478	109.22
334.691	137.9
334.903	103.08
335.116	33.45
335.329	66.22
335.541	111.27
335.754	98.99
335.966	12.97
336.179	109.22
336.392	49.83
336.604	53.93
336.817	82.6
337.029	35.5
337.242	88.75
337.454	78.51
337.667	25.26
337.88	47.79
338.092	96.94
338.305	55.98
338.517	37.55
338.729	64.17
338.942	60.07
339.154	45.74
339.367	-7.51
339.579	133.8
339.792	25.26
340.004	172.71
340.217	45.74
340.429	58.03
340.641	31.4
340.854	39.59
341.066	-3.41
341.278	27.31
341.491	111.27
341.703	8.87
341.915	45.74
342.128	80.55
342.34	64.17
342.552	49.83
342.764	62.12
342.977	98.99
343.189	64.17
343.401	90.79
343.613	72.36
343.826	-9.56
344.038	-17.75
344.25	41.64
344.462	37.55
344.674	58.03
344.886	82.6
345.099	66.22
345.311	12.97
345.523	25.26
345.735	51.88
345.947	8.87
346.159	58.03
346.371	103.08
346.583	21.16
346.795	101.03
347.007	25.26
347.219	49.83
347.431	88.75
347.643	127.66
347.855	43.69
348.067	58.03
348.279	74.41
348.491	92.84
348.703	74.41
348.915	6.83
349.127	45.74
349.339	31.4
349.551	55.98
349.763	156.33
349.975	23.21
350.187	72.36
350.399	146.09
350.61	111.27
350.822	-44.37
351.034	62.12
351.246	66.22
351.458	47.79
351.669	60.07
351.881	150.18
352.093	123.56
352.305	72.36
352.517	105.13
352.728	58.03
352.94	49.83
353.152	49.83
353.363	70.31
353.575	127.66
353.787	137.9
353.999	66.22
354.21	121.51
354.422	68.27
354.633	31.4
354.845	2.73
355.057	90.79
355.268	94.89
355.48	33.45
355.692	12.97
355.903	107.18
356.115	51.88
356.326	31.4
356.538	17.07
356.749	127.66
356.961	164.52
357.172	51.88
357.384	8.87
357.595	66.22
357.807	82.6
358.018	-71
358.23	90.79
358.441	70.31
358.653	88.75
358.864	33.45
359.075	64.17
359.287	4.78
359.498	115.37
359.709	55.98
359.921	86.7
360.132	94.89
360.344	25.26
360.555	39.59
360.766	49.83
360.977	70.31
361.189	127.66
361.4	37.55
361.611	139.94
361.823	76.46
362.034	92.84
362.245	74.41
362.456	101.03
362.667	39.59
362.879	55.98
363.09	-13.65
363.301	68.27
363.512	78.51
363.723	51.88
363.935	117.42
364.146	62.12
364.357	31.4
364.568	49.83
364.779	58.03
364.99	41.64
365.201	101.03
365.412	92.84
365.623	-27.99
365.834	109.22
366.045	45.74
366.256	92.84
366.467	154.28
366.678	58.03
366.889	92.84
367.1	111.27
367.311	137.9
367.522	45.74
367.733	88.75
367.944	21.16
368.155	33.45
368.366	43.69
368.577	88.75
368.788	125.61
368.999	4.78
369.209	-34.13
369.42	19.11
369.631	109.22
369.842	174.76
370.053	31.4
370.264	45.74
370.474	25.26
370.685	45.74
370.896	37.55
371.107	148.14
371.317	107.18
371.528	8.87
371.739	172.71
371.95	39.59
372.16	139.94
372.371	43.69
372.582	146.09
372.792	27.31
373.003	66.22
373.214	2.73
373.424	92.84
373.635	43.69
373.846	78.51
374.056	115.37
374.267	47.79
374.477	144.04
374.688	-1.37
374.898	80.55
375.109	84.65
375.319	98.99
375.53	53.93
375.74	88.75
375.951	103.08
376.161	45.74
376.372	115.37
376.582	-13.65
376.793	49.83
377.003	37.55
377.214	80.55
377.424	94.89
377.635	96.94
377.845	62.12
378.055	45.74
378.266	49.83
378.476	41.64
378.686	70.31
378.897	39.59
379.107	115.37
379.317	152.23
379.528	105.13
379.738	86.7
379.948	72.36
380.158	133.8
380.369	98.99
380.579	43.69
380.789	90.79
380.999	121.51
381.21	131.75
381.42	96.94
381.63	29.35
381.84	70.31
382.05	92.84
382.261	84.65
382.471	88.75
382.681	82.6
382.891	164.52
383.101	49.83
383.311	68.27
383.521	88.75
383.731	131.75
383.941	119.46
384.151	37.55
384.361	74.41
384.571	74.41
384.781	92.84
384.991	146.09
385.201	76.46
385.411	74.41
385.621	105.13
385.831	39.59
386.041	76.46
386.251	60.07
386.461	64.17
386.671	84.65
386.881	92.84
387.091	62.12
387.301	98.99
387.511	47.79
387.72	127.66
387.93	103.08
388.14	35.5
388.35	60.07
388.56	70.31
388.769	92.84
388.979	117.42
389.189	115.37
389.399	66.22
389.609	66.22
389.818	49.83
390.028	144.04
390.238	78.51
390.447	29.35
390.657	101.03
390.867	41.64
391.076	90.79
391.286	74.41
391.496	62.12
391.705	98.99
391.915	88.75
392.125	90.79
392.334	68.27
392.544	29.35
392.753	189.1
392.963	92.84
393.172	58.03
393.382	74.41
393.591	92.84
393.801	113.32
394.01	115.37
394.22	123.56
394.429	113.32
394.639	78.51
394.848	107.18
395.058	115.37
395.267	39.59
395.477	117.42
395.686	111.27
395.895	109.22
396.105	115.37
396.314	152.23
396.524	98.99
396.733	72.36
396.942	103.08
397.152	70.31
397.361	119.46
397.57	123.56
397.78	115.37
397.989	111.27
398.198	141.99
398.407	127.66
398.617	123.56
398.826	125.61
399.035	90.79
399.244	43.69
399.453	205.48
399.663	98.99
399.872	115.37
400.081	109.22
400.29	162.47
400.499	41.64
400.708	129.7
400.917	135.85
401.127	109.22
401.336	111.27
401.545	164.52
401.754	17.07
401.963	180.9
402.172	139.94
402.381	195.24
402.59	86.7
402.799	109.22
403.008	203.43
403.217	156.33
403.426	152.23
403.635	113.32
403.844	148.14
404.053	164.52
404.262	168.62
404.471	254.63
404.68	156.33
404.888	148.14
405.097	162.47
405.306	141.99
405.515	189.1
405.724	178.86
405.933	141.99
406.142	148.14
406.35	197.29
406.559	248.49
406.768	260.77
406.977	273.06
407.185	205.48
407.394	264.87
407.603	168.62
407.812	211.62
408.02	254.63
408.229	287.4
408.438	178.86
408.646	271.01
408.855	250.53
409.064	230.06
409.272	225.96
409.481	275.11
409.69	309.93
409.898	307.88
410.107	363.17
410.315	357.03
410.524	293.54
410.733	418.47
410.941	385.7
411.15	432.8
411.358	451.24
411.567	414.37
411.775	443.04
411.984	481.96
412.192	434.85
412.401	512.67
412.609	531.11
412.818	512.67
413.026	500.39
413.234	584.35
413.443	524.96
413.651	592.55
413.86	551.59
414.068	613.03
414.276	662.18
414.485	647.84
414.693	672.42
414.901	713.38
415.11	754.34
415.318	787.1
415.526	721.57
415.734	768.67
415.943	809.63
416.151	846.49
416.359	852.64
416.567	838.3
416.776	914.08
416.984	1006.24
417.192	1047.19
417.4	1047.19
417.608	1041.05
417.817	1143.45
418.025	1098.39
418.233	1268.38
418.441	1227.42
418.649	1217.18
418.857	1229.46
419.065	1288.85
419.273	1272.47
419.481	1493.65
419.689	1378.97
419.897	1393.3
420.105	1507.99
420.313	1569.43
420.521	1507.99
420.729	1677.97
420.937	1761.94
421.145	1747.6
421.353	1884.81
421.561	1954.44
421.769	1905.29
421.977	2114.19
422.185	2089.61
422.393	2118.28
422.601	2364.04
422.809	2294.41
423.017	2247.3
423.224	2472.58
423.432	2462.34
423.64	2624.13
423.848	2761.34
424.056	2787.97
424.263	2843.26
424.471	2990.72
424.679	3101.31
424.887	3101.31
425.094	3193.47
425.302	3261.05
425.51	3308.15
425.718	3519.09
425.925	3519.09
426.133	3687.03
426.341	3865.2
426.548	4051.56
426.756	3928.69
426.964	4006.51
427.171	4344.42
427.379	4467.3
427.586	4403.82
427.794	4674.15
428.001	4817.51
428.209	4901.47
428.417	4842.08
428.624	5376.6
428.832	5186.14
429.039	5431.9
429.247	5055.07
429.454	5769.81
429.662	6072.91
429.869	5683.8
430.076	6257.23
430.284	5939.79
430.491	6437.45
430.699	6486.6
430.906	6734.4
431.114	6783.56
431.321	7004.74
431.528	7096.89
431.736	7578.17
431.943	7760.44
432.15	7737.91
432.358	7793.2
432.565	8063.54
432.772	8307.24
432.979	8770.08
433.187	8839.72
433.394	8626.73
433.601	9398.81
433.808	9388.57
434.016	9331.23
434.223	9687.57
434.43	10058.26
434.637	10101.26
434.844	10658.31
435.052	10961.41
435.259	10942.98
435.466	11125.25
435.673	10971.65
435.88	11512.32
436.087	12161.52
436.294	11977.2
436.501	11805.17
436.708	12130.8
436.915	12710.38
437.122	13173.22
437.329	13132.26
437.537	13294.05
437.743	13722.07
437.95	13636.06
438.157	14395.85
438.364	14813.64
438.571	14787.02
438.778	14928.33
438.985	16206.26
439.192	15602.11
439.399	16091.57
439.606	15647.16
439.813	16544.17
440.02	17873.31
440.227	17314.21
440.433	17185.19
440.64	17496.48
440.847	17725.85
441.054	18127.25
441.261	19472.77
441.467	19024.26
441.674	19671.42
441.881	20177.27
442.088	20140.41
442.294	20038.01
442.501	20341.11
442.708	20904.3
442.914	21956.96
443.121	22505.81
443.328	22208.86
443.534	23707.97
443.741	22939.98
443.948	22604.11
444.154	24486.2
444.361	24193.34
444.568	24346.94
444.774	24535.35
444.981	24713.52
445.187	25571.62
445.394	26595.6
445.6	26272.03
445.807	28948.72
446.013	27635.97
446.22	28147.97
446.426	29112.56
446.633	29329.64
446.839	30181.6
447.046	29382.89
447.252	30826.71
447.459	30814.42
447.665	30707.93
447.871	32129.22
448.078	33652.91
448.284	31910.08
448.491	32622.78
448.697	34039.97
448.903	34590.87
449.11	34842.77
449.316	34072.74
449.522	34859.16
449.728	35539.08
449.935	36513.92
450.141	36372.61
450.347	37154.93
450.553	35899.53
450.76	36409.47
450.966	37722.22
451.172	37032.05
451.378	38172.77
451.584	37388.4
451.791	38385.76
451.997	38105.19
452.203	38787.16
452.409	39217.24
452.615	38680.67
452.821	37380.21
453.027	36937.85
453.233	38828.12
453.44	37064.82
453.646	37519.47
453.852	38078.57
454.058	38635.61
454.264	37322.87
454.47	38099.05
454.676	37390.45
454.882	38504.54
455.088	35289.23
455.294	35686.54
455.5	36384.9
455.705	36567.16
455.911	35252.37
456.117	34867.35
456.323	33999.01
456.529	32643.26
456.735	34037.92
456.941	32950.45
457.147	32557.24
457.352	31592.65
457.558	31033.55
457.764	31332.56
457.97	30437.59
458.176	29956.32
458.381	29939.94
458.587	28756.21
458.793	28510.46
458.999	27064.59
459.204	29006.06
459.41	28389.63
459.616	26155.29
459.821	26532.12
460.027	26063.13
460.233	25243.95
460.438	24609.08
460.644	25030.96
460.85	23695.68
461.055	23062.86
461.261	23089.48
461.466	21428.58
461.672	20808.05
461.878	22536.53
462.083	20754.8
462.289	20265.33
462.494	20175.22
462.7	19452.29
462.905	18958.73
463.111	19763.58
463.316	19364.23
463.522	19227.01
463.727	19175.81
463.932	19159.43
464.138	18880.91
464.343	18885
464.549	18278.8
464.754	19138.95
464.959	18807.18
465.165	18614.67
465.37	18006.42
465.575	17555.87
465.781	18323.86
465.986	18207.12
466.191	17613.21
466.397	17504.67
466.602	16613.81
466.807	17265.06
