Data from USB4F104151__83__11-37-47-338.txt Node

Date: Fri Mar 14 11:37:47 EDT 2025
User: louis
Spectrometer: USB4F10415
Trigger mode: 4
Integration Time (sec): 2.000000E-2
Scans to average: 1
Electric dark correction enabled: true
Nonlinearity correction enabled: false
Boxcar width: 0
XAxis mode: Wavelengths
Number of Pixels in Spectrum: 3648
>>>>>Begin Spectral Data<<<<<
178.204	-132.26
178.424	-132.26
178.644	-132.26
178.864	-15.53
179.084	-89.26
179.304	-23.72
179.524	15.19
179.744	-54.44
179.964	13.14
180.184	-7.34
180.404	2.9
180.624	-54.44
180.844	39.76
181.064	-70.83
181.283	76.63
181.503	7
181.723	56.15
181.943	-9.39
182.163	-7.34
182.383	66.39
182.602	50
182.822	68.44
183.042	43.86
183.262	-7.34
183.482	107.35
183.701	68.44
183.921	-60.59
184.141	-33.96
184.361	25.43
184.58	-25.77
184.8	11.09
185.02	-5.29
185.239	-11.43
185.459	-7.34
185.679	-33.96
185.898	-15.53
186.118	64.34
186.338	-17.58
186.557	74.58
186.777	-5.29
186.997	0.85
187.216	-58.54
187.436	41.81
187.655	43.86
187.875	72.53
188.095	0.85
188.314	68.44
188.534	4.95
188.753	27.48
188.973	45.91
189.192	17.24
189.412	31.57
189.631	-9.39
189.851	43.86
190.07	68.44
190.29	2.9
190.509	31.57
190.729	37.72
190.948	62.29
191.168	-3.24
191.387	70.48
191.607	-38.06
191.826	93.01
192.045	0.85
192.265	11.09
192.484	35.67
192.704	-11.43
192.923	-29.87
193.142	95.06
193.362	97.11
193.581	13.14
193.8	-27.82
194.02	41.81
194.239	-52.39
194.458	31.57
194.678	-56.49
194.897	76.63
195.116	43.86
195.335	39.76
195.555	60.24
195.774	9.05
195.993	50
196.212	-40.11
196.432	7
196.651	-5.29
196.87	37.72
197.089	60.24
197.308	23.38
197.528	45.91
197.747	31.57
197.966	-21.67
198.185	-11.43
198.404	31.57
198.623	-11.43
198.842	-17.58
199.062	93.01
199.281	84.82
199.5	45.91
199.719	-9.39
199.938	-1.19
200.157	25.43
200.376	19.29
200.595	-9.39
200.814	19.29
201.033	64.34
201.252	-5.29
201.471	58.2
201.69	-7.34
201.909	31.57
202.128	25.43
202.347	-33.96
202.566	7
202.785	-25.77
203.004	-5.29
203.223	31.57
203.442	58.2
203.661	9.05
203.879	31.57
204.098	-23.72
204.317	-11.43
204.536	31.57
204.755	13.14
204.974	107.35
205.193	-9.39
205.411	62.29
205.63	25.43
205.849	17.24
206.068	33.62
206.287	113.49
206.505	35.67
206.724	39.76
206.943	33.62
207.162	-9.39
207.381	58.2
207.599	45.91
207.818	23.38
208.037	-15.53
208.255	-27.82
208.474	64.34
208.693	50
208.911	11.09
209.13	58.2
209.349	39.76
209.567	93.01
209.786	86.87
210.005	68.44
210.223	2.9
210.442	-9.39
210.661	56.15
210.879	47.96
211.098	11.09
211.316	2.9
211.535	103.25
211.753	93.01
211.972	47.96
212.191	17.24
212.409	74.58
212.628	39.76
212.846	7
213.065	105.3
213.283	58.2
213.502	9.05
213.72	-31.91
213.938	-31.91
214.157	2.9
214.375	58.2
214.594	23.38
214.812	15.19
215.031	-1.19
215.249	-19.63
215.467	27.48
215.686	39.76
215.904	-21.67
216.122	-42.15
216.341	2.9
216.559	58.2
216.778	25.43
216.996	-3.24
217.214	-13.48
217.432	-48.3
217.651	-31.91
217.869	-48.3
218.087	-1.19
218.306	-48.3
218.524	123.73
218.742	2.9
218.96	0.85
219.179	-3.24
219.397	43.86
219.615	88.92
219.833	43.86
220.051	-13.48
220.27	45.91
220.488	97.11
220.706	56.15
220.924	23.38
221.142	11.09
221.36	41.81
221.578	27.48
221.796	-13.48
222.015	-3.24
222.233	-13.48
222.451	93.01
222.669	-42.15
222.887	35.67
223.105	15.19
223.323	47.96
223.541	-29.87
223.759	31.57
223.977	7
224.195	23.38
224.413	2.9
224.631	101.2
224.849	39.76
225.067	93.01
225.285	9.05
225.503	15.19
225.721	-29.87
225.939	47.96
226.157	2.9
226.375	39.76
226.592	66.39
226.81	4.95
227.028	9.05
227.246	25.43
227.464	17.24
227.682	50
227.9	-13.48
228.117	4.95
228.335	43.86
228.553	31.57
228.771	17.24
228.989	-9.39
229.206	-7.34
229.424	27.48
229.642	52.05
229.86	23.38
230.077	86.87
230.295	105.3
230.513	31.57
230.731	58.2
230.948	4.95
231.166	7
231.384	37.72
231.601	-5.29
231.819	70.48
232.037	-5.29
232.254	-46.25
232.472	-5.29
232.689	21.33
232.907	78.68
233.125	-17.58
233.342	88.92
233.56	-9.39
233.777	31.57
233.995	66.39
234.213	64.34
234.43	-40.11
234.648	-7.34
234.865	64.34
235.083	27.48
235.3	52.05
235.518	64.34
235.735	27.48
235.953	54.1
236.17	31.57
236.388	-27.82
236.605	-17.58
236.822	-23.72
237.04	19.29
237.257	35.67
237.475	19.29
237.692	54.1
237.909	7
238.127	-19.63
238.344	-13.48
238.562	27.48
238.779	-7.34
238.996	-25.77
239.214	-1.19
239.431	37.72
239.648	25.43
239.865	35.67
240.083	56.15
240.3	60.24
240.517	-3.24
240.735	27.48
240.952	56.15
241.169	50
241.386	23.38
241.603	-17.58
241.821	4.95
242.038	37.72
242.255	15.19
242.472	-42.15
242.689	39.76
242.907	43.86
243.124	56.15
243.341	11.09
243.558	19.29
243.775	-9.39
243.992	-48.3
244.209	7
244.426	121.68
244.643	23.38
244.86	-27.82
245.078	27.48
245.295	80.72
245.512	13.14
245.729	-56.49
245.946	54.1
246.163	66.39
246.38	39.76
246.597	-17.58
246.814	27.48
247.031	-1.19
247.248	78.68
247.464	0.85
247.681	23.38
247.898	39.76
248.115	-9.39
248.332	-44.2
248.549	52.05
248.766	2.9
248.983	-23.72
249.2	82.77
249.417	0.85
249.633	7
249.85	50
250.067	33.62
250.284	-5.29
250.501	47.96
250.717	39.76
250.934	11.09
251.151	23.38
251.368	76.63
251.585	54.1
251.801	-68.78
252.018	-17.58
252.235	13.14
252.451	0.85
252.668	43.86
252.885	41.81
253.102	17.24
253.318	-31.91
253.535	-9.39
253.752	11.09
253.968	60.24
254.185	-62.63
254.401	11.09
254.618	25.43
254.835	-44.2
255.051	29.52
255.268	17.24
255.484	-38.06
255.701	-58.54
255.917	23.38
256.134	25.43
256.351	-15.53
256.567	-70.83
256.784	56.15
257	19.29
257.217	-11.43
257.433	23.38
257.65	43.86
257.866	31.57
258.082	9.05
258.299	80.72
258.515	0.85
258.732	68.44
258.948	-19.63
259.165	39.76
259.381	17.24
259.597	17.24
259.814	58.2
260.03	23.38
260.246	-13.48
260.463	-21.67
260.679	25.43
260.895	33.62
261.112	-15.53
261.328	15.19
261.544	47.96
261.761	27.48
261.977	-5.29
262.193	-27.82
262.409	-21.67
262.626	60.24
262.842	-17.58
263.058	47.96
263.274	95.06
263.49	47.96
263.707	19.29
263.923	35.67
264.139	41.81
264.355	66.39
264.571	35.67
264.787	2.9
265.004	117.59
265.22	-9.39
265.436	60.24
265.652	-44.2
265.868	54.1
266.084	-48.3
266.3	60.24
266.516	37.72
266.732	-19.63
266.948	19.29
267.164	43.86
267.38	-23.72
267.596	15.19
267.812	101.2
268.028	107.35
268.244	29.52
268.46	-1.19
268.676	23.38
268.892	54.1
269.108	-13.48
269.324	27.48
269.54	35.67
269.756	-15.53
269.972	27.48
270.188	15.19
270.403	-1.19
270.619	-29.87
270.835	80.72
271.051	50
271.267	70.48
271.483	2.9
271.698	39.76
271.914	29.52
272.13	-5.29
272.346	17.24
272.562	43.86
272.777	15.19
272.993	-7.34
273.209	47.96
273.425	41.81
273.64	-23.72
273.856	41.81
274.072	-15.53
274.287	9.05
274.503	43.86
274.719	60.24
274.934	56.15
275.15	-1.19
275.366	70.48
275.581	43.86
275.797	66.39
276.012	-56.49
276.228	9.05
276.444	19.29
276.659	2.9
276.875	39.76
277.09	27.48
277.306	-13.48
277.521	11.09
277.737	9.05
277.952	-29.87
278.168	50
278.383	-17.58
278.599	54.1
278.814	56.15
279.03	84.82
279.245	-27.82
279.461	84.82
279.676	97.11
279.892	11.09
280.107	82.77
280.322	41.81
280.538	50
280.753	-25.77
280.969	107.35
281.184	13.14
281.399	23.38
281.615	66.39
281.83	52.05
282.045	4.95
282.26	70.48
282.476	93.01
282.691	43.86
282.906	50
283.122	82.77
283.337	52.05
283.552	90.96
283.767	-68.78
283.983	41.81
284.198	56.15
284.413	39.76
284.628	-62.63
284.843	11.09
285.058	45.91
285.274	56.15
285.489	2.9
285.704	35.67
285.919	27.48
286.134	121.68
286.349	35.67
286.564	58.2
286.779	52.05
286.995	111.44
287.21	17.24
287.425	27.48
287.64	15.19
287.855	17.24
288.07	-19.63
288.285	45.91
288.5	-5.29
288.715	60.24
288.93	-5.29
289.145	52.05
289.36	27.48
289.575	-52.39
289.79	101.2
290.004	60.24
290.219	9.05
290.434	56.15
290.649	21.33
290.864	121.68
291.079	-5.29
291.294	-27.82
291.509	66.39
291.724	2.9
291.938	0.85
292.153	11.09
292.368	35.67
292.583	78.68
292.798	-13.48
293.012	54.1
293.227	27.48
293.442	25.43
293.657	74.58
293.871	72.53
294.086	19.29
294.301	52.05
294.516	47.96
294.73	-1.19
294.945	107.35
295.16	-3.24
295.374	101.2
295.589	109.4
295.804	41.81
296.018	-5.29
296.233	-19.63
296.447	43.86
296.662	50
296.877	35.67
297.091	56.15
297.306	45.91
297.52	80.72
297.735	64.34
297.949	109.4
298.164	47.96
298.378	2.9
298.593	39.76
298.807	47.96
299.022	11.09
299.236	93.01
299.451	17.24
299.665	7
299.88	25.43
300.094	88.92
300.309	25.43
300.523	-15.53
300.737	31.57
300.952	35.67
301.166	41.81
301.381	19.29
301.595	13.14
301.809	4.95
302.024	15.19
302.238	56.15
302.452	68.44
302.667	154.45
302.881	86.87
303.095	-5.29
303.309	-13.48
303.524	11.09
303.738	-5.29
303.952	68.44
304.166	47.96
304.381	-11.43
304.595	60.24
304.809	95.06
305.023	29.52
305.237	11.09
305.452	50
305.666	-23.72
305.88	25.43
306.094	9.05
306.308	84.82
306.522	19.29
306.736	33.62
306.95	64.34
307.164	9.05
307.379	9.05
307.593	25.43
307.807	25.43
308.021	19.29
308.235	82.77
308.449	19.29
308.663	82.77
308.877	127.83
309.091	7
309.305	86.87
309.519	9.05
309.733	-9.39
309.947	-40.11
310.161	9.05
310.374	43.86
310.588	68.44
310.802	45.91
311.016	43.86
311.23	66.39
311.444	-17.58
311.658	43.86
311.872	21.33
312.085	82.77
312.299	86.87
312.513	60.24
312.727	43.86
312.941	39.76
313.154	52.05
313.368	-9.39
313.582	80.72
313.796	68.44
314.009	7
314.223	35.67
314.437	27.48
314.651	27.48
314.864	62.29
315.078	-58.54
315.292	-1.19
315.505	-7.34
315.719	15.19
315.933	35.67
316.146	93.01
316.36	99.16
316.573	41.81
316.787	50
317.001	7
317.214	-17.58
317.428	52.05
317.641	43.86
317.855	-17.58
318.068	54.1
318.282	7
318.495	-19.63
318.709	54.1
318.922	64.34
319.136	56.15
319.349	105.3
319.563	-33.96
319.776	0.85
319.99	21.33
320.203	31.57
320.417	27.48
320.63	82.77
320.843	54.1
321.057	-13.48
321.27	95.06
321.483	-38.06
321.697	74.58
321.91	13.14
322.124	72.53
322.337	37.72
322.55	56.15
322.763	56.15
322.977	21.33
323.19	-13.48
323.403	19.29
323.617	41.81
323.83	25.43
324.043	31.57
324.256	-38.06
324.469	39.76
324.683	50
324.896	68.44
325.109	72.53
325.322	62.29
325.535	21.33
325.748	62.29
325.962	50
326.175	-56.49
326.388	31.57
326.601	25.43
326.814	58.2
327.027	19.29
327.24	47.96
327.453	66.39
327.666	17.24
327.879	15.19
328.092	52.05
328.305	2.9
328.518	-9.39
328.731	2.9
328.944	84.82
329.157	109.4
329.37	-79.02
329.583	11.09
329.796	101.2
330.009	23.38
330.222	72.53
330.435	70.48
330.648	-17.58
330.861	111.44
331.073	58.2
331.286	15.19
331.499	33.62
331.712	-1.19
331.925	84.82
332.138	70.48
332.35	99.16
332.563	7
332.776	60.24
332.989	-1.19
333.202	2.9
333.414	-9.39
333.627	101.2
333.84	-48.3
334.053	35.67
334.265	37.72
334.478	23.38
334.691	9.05
334.903	109.4
335.116	0.85
335.329	72.53
335.541	33.62
335.754	72.53
335.966	-62.63
336.179	15.19
336.392	21.33
336.604	-19.63
336.817	74.58
337.029	-21.67
337.242	-21.67
337.454	127.83
337.667	-1.19
337.88	56.15
338.092	-48.3
338.305	52.05
338.517	-15.53
338.729	78.68
338.942	76.63
339.154	80.72
339.367	-17.58
339.579	15.19
339.792	39.76
340.004	72.53
340.217	27.48
340.429	78.68
340.641	52.05
340.854	64.34
341.066	45.91
341.278	136.02
341.491	70.48
341.703	31.57
341.915	43.86
342.128	29.52
342.34	109.4
342.552	62.29
342.764	15.19
342.977	54.1
343.189	31.57
343.401	70.48
343.613	-17.58
343.826	27.48
344.038	25.43
344.25	19.29
344.462	37.72
344.674	58.2
344.886	37.72
345.099	41.81
345.311	52.05
345.523	-50.35
345.735	9.05
345.947	56.15
346.159	41.81
346.371	-15.53
346.583	0.85
346.795	170.83
347.007	-40.11
347.219	15.19
347.431	109.4
347.643	72.53
347.855	-31.91
348.067	11.09
348.279	21.33
348.491	19.29
348.703	-13.48
348.915	84.82
349.127	50
349.339	0.85
349.551	4.95
349.763	84.82
349.975	97.11
350.187	60.24
350.399	82.77
350.61	45.91
350.822	35.67
351.034	15.19
351.246	90.96
351.458	80.72
351.669	74.58
351.881	-38.06
352.093	66.39
352.305	35.67
352.517	19.29
352.728	72.53
352.94	39.76
353.152	21.33
353.363	47.96
353.575	-21.67
353.787	31.57
353.999	119.64
354.21	99.16
354.422	33.62
354.633	0.85
354.845	21.33
355.057	54.1
355.268	90.96
355.48	4.95
355.692	17.24
355.903	19.29
356.115	47.96
356.326	-33.96
356.538	125.78
356.749	84.82
356.961	25.43
357.172	60.24
357.384	-48.3
357.595	84.82
357.807	97.11
358.018	52.05
358.23	74.58
358.441	64.34
358.653	58.2
358.864	41.81
359.075	47.96
359.287	80.72
359.498	35.67
359.709	27.48
359.921	86.87
360.132	39.76
360.344	25.43
360.555	62.29
360.766	-17.58
360.977	2.9
361.189	-21.67
361.4	60.24
361.611	160.59
361.823	33.62
362.034	11.09
362.245	-17.58
362.456	113.49
362.667	125.78
362.879	25.43
363.09	-1.19
363.301	35.67
363.512	97.11
363.723	11.09
363.935	50
364.146	45.91
364.357	-1.19
364.568	68.44
364.779	78.68
364.99	15.19
365.201	60.24
365.412	113.49
365.623	76.63
365.834	39.76
366.045	31.57
366.256	64.34
366.467	-27.82
366.678	60.24
366.889	64.34
367.1	31.57
367.311	187.22
367.522	39.76
367.733	35.67
367.944	60.24
368.155	19.29
368.366	76.63
368.577	37.72
368.788	43.86
368.999	-21.67
369.209	93.01
369.42	50
369.631	103.25
369.842	109.4
370.053	56.15
370.264	39.76
370.474	-25.77
370.685	45.91
370.896	50
371.107	62.29
371.317	35.67
371.528	-1.19
371.739	88.92
371.95	45.91
372.16	56.15
372.371	39.76
372.582	68.44
372.792	23.38
373.003	58.2
373.214	50
373.424	11.09
373.635	103.25
373.846	52.05
374.056	11.09
374.267	80.72
374.477	52.05
374.688	50
374.898	45.91
375.109	84.82
375.319	-7.34
375.53	62.29
375.74	39.76
375.951	41.81
376.161	15.19
376.372	35.67
376.582	19.29
376.793	64.34
377.003	64.34
377.214	68.44
377.424	23.38
377.635	62.29
377.845	4.95
378.055	90.96
378.266	39.76
378.476	0.85
378.686	-13.48
378.897	84.82
379.107	68.44
379.317	66.39
379.528	13.14
379.738	123.73
379.948	19.29
380.158	84.82
380.369	95.06
380.579	56.15
380.789	60.24
380.999	66.39
381.21	39.76
381.42	121.68
381.63	29.52
381.84	-5.29
382.05	76.63
382.261	-9.39
382.471	52.05
382.681	54.1
382.891	39.76
383.101	101.2
383.311	-1.19
383.521	9.05
383.731	140.12
383.941	54.1
384.151	33.62
384.361	70.48
384.571	72.53
384.781	-13.48
384.991	129.88
385.201	62.29
385.411	35.67
385.621	43.86
385.831	56.15
386.041	43.86
386.251	45.91
386.461	131.92
386.671	37.72
386.881	82.77
387.091	-46.25
387.301	17.24
387.511	-42.15
387.72	84.82
387.93	101.2
388.14	56.15
388.35	113.49
388.56	129.88
388.769	109.4
388.979	101.2
389.189	-13.48
389.399	33.62
389.609	43.86
389.818	80.72
390.028	82.77
390.238	148.31
390.447	105.3
390.657	78.68
390.867	60.24
391.076	4.95
391.286	129.88
391.496	109.4
391.705	60.24
391.915	29.52
392.125	154.45
392.334	142.16
392.544	66.39
392.753	76.63
392.963	66.39
393.172	52.05
393.382	97.11
393.591	117.59
393.801	31.57
394.01	123.73
394.22	119.64
394.429	68.44
394.639	133.97
394.848	179.03
395.058	84.82
395.267	148.31
395.477	84.82
395.686	99.16
395.895	136.02
396.105	107.35
396.314	174.93
396.524	119.64
396.733	97.11
396.942	142.16
397.152	117.59
397.361	156.5
397.57	52.05
397.78	25.43
397.989	52.05
398.198	189.27
398.407	93.01
398.617	78.68
398.826	19.29
399.035	148.31
399.244	35.67
399.453	99.16
399.663	56.15
399.872	183.12
400.081	133.97
400.29	199.51
400.499	150.36
400.708	129.88
400.917	99.16
401.127	172.88
401.336	156.5
401.545	152.4
401.754	142.16
401.963	117.59
402.172	191.31
402.381	43.86
402.59	144.21
402.799	115.54
403.008	152.4
403.217	52.05
403.426	181.07
403.635	119.64
403.844	107.35
404.053	103.25
404.262	148.31
404.471	211.79
404.68	150.36
404.888	136.02
405.097	138.07
405.306	142.16
405.515	183.12
405.724	129.88
405.933	172.88
406.142	189.27
406.35	191.31
406.559	244.56
406.768	303.95
406.977	191.31
407.185	281.43
407.394	207.7
407.603	222.03
407.812	224.08
408.02	224.08
408.229	334.67
408.438	197.46
408.646	209.75
408.855	236.37
409.064	306
409.272	228.18
409.481	373.58
409.69	265.04
409.898	267.09
410.107	322.38
410.315	428.88
410.524	320.34
410.733	394.06
410.941	332.62
411.15	396.11
411.358	463.69
411.567	383.82
411.775	439.12
411.984	435.02
412.192	521.04
412.401	475.98
412.609	535.37
412.818	545.61
413.026	525.13
413.234	559.95
413.443	613.2
413.651	609.1
413.86	582.48
414.068	627.53
414.276	756.55
414.485	707.4
414.693	764.75
414.901	760.65
415.11	750.41
415.318	822.09
415.526	824.14
415.734	858.95
415.943	914.25
416.151	912.2
416.359	932.68
416.567	957.25
416.776	1131.33
416.984	1133.38
417.192	1123.14
417.4	1119.04
417.608	1133.38
417.817	1166.15
418.025	1174.34
418.233	1319.75
418.441	1215.3
418.649	1383.23
418.857	1436.48
419.065	1434.43
419.273	1424.19
419.481	1497.92
419.689	1565.5
419.897	1665.85
420.105	1715
420.313	1794.87
420.521	1897.27
420.729	1839.93
420.937	2005.81
421.145	2032.44
421.353	2128.69
421.561	2270
421.769	2120.5
421.977	2366.26
422.185	2315.06
422.393	2517.81
422.601	2632.49
422.809	2587.44
423.017	2564.91
423.224	2612.01
423.432	2923.3
423.64	2923.3
423.848	3255.08
424.056	2933.54
424.263	3400.48
424.471	3115.81
424.679	3265.32
424.887	3564.32
425.094	3492.64
425.302	3676.96
425.51	3638.05
425.718	3889.95
425.925	3777.31
426.133	4127.51
426.341	4123.41
426.548	4399.89
426.756	4379.41
426.964	4412.18
427.171	4670.22
427.379	4868.88
427.586	4922.12
427.794	5028.62
428.001	5376.77
428.209	5538.56
428.417	5456.64
428.624	5839.61
428.832	5892.86
429.039	5909.24
429.247	5806.84
429.454	6437.62
429.662	6861.55
429.869	6206.2
430.076	6697.71
430.284	6646.51
430.491	6787.82
430.699	7197.42
430.906	7387.88
431.114	7537.38
431.321	7617.25
431.528	7840.48
431.736	8434.39
431.943	8753.87
432.15	8514.26
432.358	8405.72
432.565	9061.07
432.772	8854.22
432.979	9151.18
433.187	9544.39
433.394	9685.7
433.601	10465.97
433.808	10427.06
434.016	10320.57
434.223	10672.82
434.43	11326.12
434.637	11264.68
434.844	11754.15
435.052	11981.47
435.259	11911.84
435.466	12028.57
435.673	12077.73
435.88	12567.19
436.087	13419.14
436.294	13552.26
436.501	13142.67
436.708	13376.14
436.915	13773.44
437.122	14617.21
437.329	14250.62
437.537	14862.96
437.743	15063.66
437.95	14899.83
438.157	15835.75
438.364	16317.02
438.571	16114.27
438.778	16310.88
438.985	17971.78
439.192	17281.61
439.399	17777.22
439.606	17418.83
439.813	18379.32
440.02	19640.87
440.227	19388.97
440.433	19141.17
440.64	19751.46
440.847	19466.8
441.054	20140.58
441.261	21492.24
441.467	21152.27
441.674	21666.31
441.881	22499.84
442.088	22383.1
442.294	22067.72
442.501	23087.61
442.708	23421.42
442.914	24140.26
443.121	25252.31
443.328	24709.6
443.534	26374.59
443.741	25514.45
443.948	25037.27
444.154	27079.1
444.361	27124.15
444.568	27161.01
444.774	26950.07
444.981	27476.4
445.187	28316.07
445.394	29354.39
445.6	29137.3
445.807	31830.38
446.013	30521.73
446.22	30790.02
446.426	32051.56
446.633	32493.93
446.839	33671.51
447.046	32346.47
447.252	34263.37
447.459	34287.95
447.665	34302.28
447.871	35498.3
448.078	37130.53
448.284	35389.75
448.491	36370.73
448.697	37808.4
448.903	38367.5
449.11	38736.13
449.316	38326.54
449.522	38701.32
449.728	39678.2
449.935	40100.08
450.141	39907.57
450.347	40941.8
450.553	39532.79
450.76	40177.9
450.966	41525.47
451.172	40632.55
451.378	42606.8
451.584	41459.93
451.791	42207.44
451.997	42000.6
452.203	42936.52
452.409	42834.12
452.615	42717.39
452.821	41414.88
453.027	40669.42
453.233	43090.12
453.44	41472.22
453.646	41722.07
453.852	42203.35
454.058	42850.5
454.264	41292
454.47	42291.41
454.676	41150.69
454.882	42778.82
455.088	39110.91
455.294	39555.32
455.5	40065.27
455.705	40505.58
455.911	38957.31
456.117	38203.66
456.323	37542.17
456.529	35565.88
456.735	37114.14
456.941	36122.93
457.147	35676.47
457.352	34906.43
457.558	34158.92
457.764	34363.72
457.97	33702.23
458.176	33071.45
458.381	33108.32
458.587	31113.59
458.793	31349.11
458.999	30007.69
459.204	31949.17
459.41	31136.12
459.616	29266.33
459.821	28756.38
460.027	28950.94
460.233	28397.99
460.438	27214.26
460.644	27347.38
460.85	26012.1
461.055	25500.11
461.261	25498.06
461.466	23755.24
461.672	23171.57
461.878	24687.07
462.083	23101.94
462.289	22661.63
462.494	22565.37
462.7	21420.56
462.905	20810.26
463.111	21500.43
463.316	21490.19
463.522	21037.59
463.727	21084.69
463.932	21023.25
464.138	20683.29
464.343	21068.31
464.549	20431.39
464.754	20851.22
464.959	21180.95
465.165	20601.37
465.37	19937.83
465.575	19520.04
465.781	20331.04
465.986	20378.14
466.191	19333.68
466.397	19104.31
466.602	18059.84
466.807	18950.71
467.012	18958.9
467.218	19155.51
467.423	18600.51
467.628	19046.96
467.833	19712.55
468.038	18735.67
468.244	18063.94
468.449	19173.94
