Data from USB4F104151__37__11-36-52-745.txt Node

Date: Fri Mar 14 11:36:52 EDT 2025
User: louis
Spectrometer: USB4F10415
Trigger mode: 4
Integration Time (sec): 2.000000E-2
Scans to average: 1
Electric dark correction enabled: true
Nonlinearity correction enabled: false
Boxcar width: 0
XAxis mode: Wavelengths
Number of Pixels in Spectrum: 3648
>>>>>Begin Spectral Data<<<<<
178.204	-116.39
178.424	-116.39
178.644	-116.39
178.864	-54.95
179.084	-9.9
179.304	10.58
179.524	20.82
179.744	-5.8
179.964	2.39
180.184	-59.05
180.404	-7.85
180.624	14.68
180.844	0.34
181.064	57.68
181.283	-81.58
181.503	-22.19
181.723	69.97
181.943	26.96
182.163	72.02
182.383	59.73
182.602	8.53
182.822	59.73
183.042	20.82
183.262	-32.43
183.482	80.21
183.701	55.64
183.921	59.73
184.141	59.73
184.361	53.59
184.58	63.83
184.8	18.77
185.02	76.12
185.239	121.17
185.459	-26.28
185.679	18.77
185.898	45.4
186.118	57.68
186.338	121.17
186.557	86.36
186.777	-28.33
186.997	74.07
187.216	18.77
187.436	102.74
187.655	133.46
187.875	88.4
188.095	61.78
188.314	74.07
188.534	22.87
188.753	53.59
188.973	53.59
189.192	6.49
189.412	10.58
189.631	45.4
189.851	72.02
190.07	121.17
190.29	6.49
190.509	26.96
190.729	26.96
190.948	6.49
191.168	49.49
191.387	117.08
191.607	47.44
191.826	119.12
192.045	10.58
192.265	43.35
192.484	102.74
192.704	39.25
192.923	72.02
193.142	84.31
193.362	0.34
193.581	76.12
193.8	69.97
194.02	63.83
194.239	80.21
194.458	43.35
194.678	-13.99
194.897	31.06
195.116	18.77
195.335	96.6
195.555	69.97
195.774	31.06
195.993	51.54
196.212	45.4
196.432	51.54
196.651	18.77
196.87	14.68
197.089	61.78
197.308	125.27
197.528	55.64
197.747	16.73
197.966	12.63
198.185	117.08
198.404	0.34
198.623	59.73
198.842	-3.75
199.062	26.96
199.281	102.74
199.5	41.3
199.719	51.54
199.938	55.64
200.157	37.2
200.376	35.16
200.595	74.07
200.814	-26.28
201.033	31.06
201.252	39.25
201.471	53.59
201.69	119.12
201.909	82.26
202.128	43.35
202.347	45.4
202.566	67.92
202.785	51.54
203.004	65.88
203.223	112.98
203.442	74.07
203.661	16.73
203.879	123.22
204.098	98.64
204.317	80.21
204.536	16.73
204.755	98.64
204.974	24.92
205.193	-11.95
205.411	119.12
205.63	51.54
205.849	-30.38
206.068	6.49
206.287	104.79
206.505	20.82
206.724	84.31
206.943	-22.19
207.162	29.01
207.381	92.5
207.599	20.82
207.818	49.49
208.037	-5.8
208.255	84.31
208.474	37.2
208.693	57.68
208.911	10.58
209.13	26.96
209.349	29.01
209.567	102.74
209.786	33.11
210.005	59.73
210.223	69.97
210.442	55.64
210.661	22.87
210.879	2.39
211.098	39.25
211.316	26.96
211.535	65.88
211.753	51.54
211.972	35.16
212.191	16.73
212.409	35.16
212.628	76.12
212.846	-32.43
213.065	51.54
213.283	131.41
213.502	104.79
213.72	110.93
213.938	78.16
214.157	31.06
214.375	29.01
214.594	80.21
214.812	100.69
215.031	100.69
215.249	90.45
215.467	72.02
215.686	51.54
215.904	78.16
216.122	88.4
216.341	117.08
216.559	51.54
216.778	117.08
216.996	72.02
217.214	6.49
217.432	24.92
217.651	10.58
217.869	74.07
218.087	43.35
218.306	102.74
218.524	82.26
218.742	8.53
218.96	76.12
219.179	18.77
219.397	98.64
219.615	49.49
219.833	94.55
220.051	92.5
220.27	145.75
220.488	67.92
220.706	82.26
220.924	47.44
221.142	14.68
221.36	49.49
221.578	18.77
221.796	57.68
222.015	84.31
222.233	26.96
222.451	127.32
222.669	55.64
222.887	92.5
223.105	104.79
223.323	47.44
223.541	51.54
223.759	43.35
223.977	37.2
224.195	72.02
224.413	90.45
224.631	141.65
224.849	43.35
225.067	37.2
225.285	57.68
225.503	78.16
225.721	22.87
225.939	26.96
226.157	55.64
226.375	92.5
226.592	63.83
226.81	67.92
227.028	82.26
227.246	72.02
227.464	47.44
227.682	92.5
227.9	100.69
228.117	-5.8
228.335	24.92
228.553	29.01
228.771	108.88
228.989	57.68
229.206	69.97
229.424	-1.71
229.642	-16.04
229.86	0.34
230.077	55.64
230.295	53.59
230.513	22.87
230.731	108.88
230.948	18.77
231.166	55.64
231.384	45.4
231.601	14.68
231.819	55.64
232.037	26.96
232.254	84.31
232.472	45.4
232.689	2.39
232.907	84.31
233.125	49.49
233.342	49.49
233.56	8.53
233.777	59.73
233.995	65.88
234.213	53.59
234.43	55.64
234.648	67.92
234.865	10.58
235.083	106.84
235.3	55.64
235.518	74.07
235.735	76.12
235.953	57.68
236.17	76.12
236.388	96.6
236.605	35.16
236.822	115.03
237.04	55.64
237.257	57.68
237.475	84.31
237.692	67.92
237.909	88.4
238.127	100.69
238.344	51.54
238.562	33.11
238.779	72.02
238.996	76.12
239.214	74.07
239.431	57.68
239.648	4.44
239.865	47.44
240.083	112.98
240.3	18.77
240.517	76.12
240.735	-30.38
240.952	125.27
241.169	16.73
241.386	139.6
241.603	8.53
241.821	18.77
242.038	-7.85
242.255	57.68
242.472	67.92
242.689	55.64
242.907	145.75
243.124	67.92
243.341	22.87
243.558	-16.04
243.775	51.54
243.992	-18.09
244.209	39.25
244.426	125.27
244.643	43.35
244.86	104.79
245.078	22.87
245.295	76.12
245.512	72.02
245.729	76.12
245.946	4.44
246.163	20.82
246.38	47.44
246.597	41.3
246.814	6.49
247.031	35.16
247.248	24.92
247.464	88.4
247.681	69.97
247.898	43.35
248.115	100.69
248.332	59.73
248.549	188.75
248.766	41.3
248.983	35.16
249.2	108.88
249.417	63.83
249.633	4.44
249.85	33.11
250.067	72.02
250.284	63.83
250.501	117.08
250.717	35.16
250.934	49.49
251.151	-28.33
251.368	84.31
251.585	90.45
251.801	-20.14
252.018	-57
252.235	63.83
252.451	22.87
252.668	6.49
252.885	96.6
253.102	57.68
253.318	69.97
253.535	39.25
253.752	63.83
253.968	-16.04
254.185	55.64
254.401	92.5
254.618	82.26
254.835	24.92
255.051	84.31
255.268	35.16
255.484	6.49
255.701	0.34
255.917	39.25
256.134	53.59
256.351	33.11
256.567	55.64
256.784	26.96
257	47.44
257.217	72.02
257.433	55.64
257.65	123.22
257.866	43.35
258.082	37.2
258.299	31.06
258.515	108.88
258.732	127.32
258.948	39.25
259.165	26.96
259.381	53.59
259.597	41.3
259.814	74.07
260.03	33.11
260.246	-7.85
260.463	57.68
260.679	35.16
260.895	6.49
261.112	84.31
261.328	96.6
261.544	51.54
261.761	106.84
261.977	88.4
262.193	106.84
262.409	104.79
262.626	49.49
262.842	74.07
263.058	82.26
263.274	115.03
263.49	76.12
263.707	96.6
263.923	-16.04
264.139	78.16
264.355	92.5
264.571	139.6
264.787	72.02
265.004	18.77
265.22	18.77
265.436	57.68
265.652	67.92
265.868	-7.85
266.084	18.77
266.3	102.74
266.516	80.21
266.732	102.74
266.948	67.92
267.164	65.88
267.38	53.59
267.596	106.84
267.812	84.31
268.028	69.97
268.244	14.68
268.46	84.31
268.676	55.64
268.892	135.51
269.108	82.26
269.324	92.5
269.54	43.35
269.756	69.97
269.972	35.16
270.188	16.73
270.403	57.68
270.619	102.74
270.835	78.16
271.051	20.82
271.267	125.27
271.483	26.96
271.698	82.26
271.914	65.88
272.13	57.68
272.346	10.58
272.562	55.64
272.777	84.31
272.993	12.63
273.209	49.49
273.425	29.01
273.64	6.49
273.856	86.36
274.072	153.94
274.287	-24.23
274.503	8.53
274.719	43.35
274.934	57.68
275.15	133.46
275.366	90.45
275.581	0.34
275.797	4.44
276.012	65.88
276.228	63.83
276.444	102.74
276.659	84.31
276.875	106.84
277.09	67.92
277.306	31.06
277.521	22.87
277.737	22.87
277.952	53.59
278.168	2.39
278.383	55.64
278.599	96.6
278.814	47.44
279.03	67.92
279.245	63.83
279.461	119.12
279.676	39.25
279.892	39.25
280.107	35.16
280.322	-34.47
280.538	57.68
280.753	-30.38
280.969	39.25
281.184	10.58
281.399	121.17
281.615	51.54
281.83	119.12
282.045	6.49
282.26	-13.99
282.476	80.21
282.691	125.27
282.906	55.64
283.122	123.22
283.337	61.78
283.552	92.5
283.767	29.01
283.983	108.88
284.198	63.83
284.413	80.21
284.628	39.25
284.843	14.68
285.058	86.36
285.274	55.64
285.489	10.58
285.704	117.08
285.919	33.11
286.134	76.12
286.349	8.53
286.564	47.44
286.779	47.44
286.995	33.11
287.21	26.96
287.425	55.64
287.64	12.63
287.855	26.96
288.07	100.69
288.285	141.65
288.5	59.73
288.715	53.59
288.93	76.12
289.145	106.84
289.36	145.75
289.575	51.54
289.79	104.79
290.004	33.11
290.219	123.22
290.434	39.25
290.649	59.73
290.864	67.92
291.079	16.73
291.294	22.87
291.509	0.34
291.724	8.53
291.938	57.68
292.153	145.75
292.368	133.46
292.583	26.96
292.798	26.96
293.012	98.64
293.227	72.02
293.442	43.35
293.657	137.56
293.871	72.02
294.086	96.6
294.301	67.92
294.516	139.6
294.73	65.88
294.945	65.88
295.16	96.6
295.374	51.54
295.589	69.97
295.804	90.45
296.018	65.88
296.233	94.55
296.447	39.25
296.662	67.92
296.877	-3.75
297.091	67.92
297.306	55.64
297.52	61.78
297.735	106.84
297.949	59.73
298.164	-1.71
298.378	100.69
298.593	51.54
298.807	16.73
299.022	53.59
299.236	2.39
299.451	14.68
299.665	41.3
299.88	4.44
300.094	14.68
300.309	115.03
300.523	84.31
300.737	43.35
300.952	84.31
301.166	67.92
301.381	-5.8
301.595	69.97
301.809	72.02
302.024	22.87
302.238	55.64
302.452	92.5
302.667	10.58
302.881	33.11
303.095	117.08
303.309	100.69
303.524	88.4
303.738	51.54
303.952	92.5
304.166	55.64
304.381	65.88
304.595	110.93
304.809	55.64
305.023	31.06
305.237	59.73
305.452	45.4
305.666	33.11
305.88	115.03
306.094	57.68
306.308	37.2
306.522	76.12
306.736	69.97
306.95	65.88
307.164	31.06
307.379	-57
307.593	94.55
307.807	61.78
308.021	92.5
308.235	59.73
308.449	43.35
308.663	53.59
308.877	108.88
309.091	-26.28
309.305	80.21
309.519	74.07
309.733	49.49
309.947	35.16
310.161	135.51
310.374	33.11
310.588	51.54
310.802	57.68
311.016	24.92
311.23	10.58
311.444	94.55
311.658	82.26
311.872	47.44
312.085	63.83
312.299	18.77
312.513	61.78
312.727	98.64
312.941	72.02
313.154	55.64
313.368	18.77
313.582	18.77
313.796	35.16
314.009	43.35
314.223	55.64
314.437	43.35
314.651	65.88
314.864	57.68
315.078	90.45
315.292	47.44
315.505	55.64
315.719	98.64
315.933	94.55
316.146	35.16
316.36	33.11
316.573	84.31
316.787	88.4
317.001	84.31
317.214	57.68
317.428	80.21
317.641	47.44
317.855	69.97
318.068	49.49
318.282	8.53
318.495	108.88
318.709	92.5
318.922	45.4
319.136	24.92
319.349	41.3
319.563	37.2
319.776	94.55
319.99	90.45
320.203	127.32
320.417	82.26
320.63	41.3
320.843	82.26
321.057	92.5
321.27	67.92
321.483	63.83
321.697	72.02
321.91	31.06
322.124	14.68
322.337	-20.14
322.55	39.25
322.763	82.26
322.977	90.45
323.19	55.64
323.403	102.74
323.617	63.83
323.83	88.4
324.043	80.21
324.256	61.78
324.469	67.92
324.683	151.89
324.896	88.4
325.109	82.26
325.322	20.82
325.535	72.02
325.748	67.92
325.962	35.16
326.175	35.16
326.388	74.07
326.601	88.4
326.814	110.93
327.027	-7.85
327.24	61.78
327.453	108.88
327.666	117.08
327.879	49.49
328.092	39.25
328.305	53.59
328.518	72.02
328.731	59.73
328.944	72.02
329.157	33.11
329.37	63.83
329.583	57.68
329.796	158.03
330.009	-9.9
330.222	92.5
330.435	88.4
330.648	16.73
330.861	33.11
331.073	84.31
331.286	47.44
331.499	-11.95
331.712	76.12
331.925	-22.19
332.138	80.21
332.35	49.49
332.563	26.96
332.776	49.49
332.989	74.07
333.202	147.8
333.414	74.07
333.627	47.44
333.84	72.02
334.053	72.02
334.265	24.92
334.478	6.49
334.691	12.63
334.903	63.83
335.116	57.68
335.329	37.2
335.541	69.97
335.754	78.16
335.966	39.25
336.179	61.78
336.392	8.53
336.604	39.25
336.817	57.68
337.029	43.35
337.242	67.92
337.454	110.93
337.667	112.98
337.88	67.92
338.092	57.68
338.305	65.88
338.517	10.58
338.729	125.27
338.942	84.31
339.154	-34.47
339.367	37.2
339.579	6.49
339.792	8.53
340.004	72.02
340.217	18.77
340.429	125.27
340.641	49.49
340.854	37.2
341.066	12.63
341.278	41.3
341.491	110.93
341.703	61.78
341.915	35.16
342.128	80.21
342.34	55.64
342.552	125.27
342.764	49.49
342.977	0.34
343.189	59.73
343.401	74.07
343.613	65.88
343.826	110.93
344.038	33.11
344.25	131.41
344.462	39.25
344.674	108.88
344.886	20.82
345.099	123.22
345.311	63.83
345.523	63.83
345.735	49.49
345.947	-26.28
346.159	55.64
346.371	26.96
346.583	57.68
346.795	129.36
347.007	76.12
347.219	88.4
347.431	31.06
347.643	96.6
347.855	63.83
348.067	135.51
348.279	41.3
348.491	72.02
348.703	65.88
348.915	115.03
349.127	49.49
349.339	8.53
349.551	61.78
349.763	125.27
349.975	96.6
350.187	88.4
350.399	16.73
350.61	72.02
350.822	86.36
351.034	78.16
351.246	39.25
351.458	153.94
351.669	63.83
351.881	119.12
352.093	67.92
352.305	84.31
352.517	33.11
352.728	98.64
352.94	55.64
353.152	153.94
353.363	20.82
353.575	78.16
353.787	86.36
353.999	84.31
354.21	76.12
354.422	49.49
354.633	49.49
354.845	119.12
355.057	115.03
355.268	39.25
355.48	88.4
355.692	51.54
355.903	47.44
356.115	106.84
356.326	117.08
356.538	67.92
356.749	82.26
356.961	65.88
357.172	49.49
357.384	29.01
357.595	100.69
357.807	59.73
358.018	74.07
358.23	67.92
358.441	110.93
358.653	43.35
358.864	-11.95
359.075	45.4
359.287	94.55
359.498	100.69
359.709	67.92
359.921	22.87
360.132	76.12
360.344	86.36
360.555	53.59
360.766	76.12
360.977	108.88
361.189	92.5
361.4	8.53
361.611	137.56
361.823	131.41
362.034	22.87
362.245	72.02
362.456	18.77
362.667	104.79
362.879	137.56
363.09	72.02
363.301	94.55
363.512	-16.04
363.723	67.92
363.935	115.03
364.146	90.45
364.357	51.54
364.568	63.83
364.779	16.73
364.99	112.98
365.201	133.46
365.412	63.83
365.623	24.92
365.834	123.22
366.045	29.01
366.256	131.41
366.467	76.12
366.678	90.45
366.889	65.88
367.1	131.41
367.311	33.11
367.522	35.16
367.733	39.25
367.944	33.11
368.155	72.02
368.366	90.45
368.577	112.98
368.788	0.34
368.999	121.17
369.209	84.31
369.42	100.69
369.631	153.94
369.842	94.55
370.053	53.59
370.264	43.35
370.474	22.87
370.685	59.73
370.896	166.23
371.107	2.39
371.317	63.83
371.528	96.6
371.739	63.83
371.95	43.35
372.16	94.55
372.371	49.49
372.582	82.26
372.792	76.12
373.003	174.42
373.214	141.65
373.424	24.92
373.635	90.45
373.846	63.83
374.056	31.06
374.267	88.4
374.477	98.64
374.688	2.39
374.898	67.92
375.109	20.82
375.319	115.03
375.53	94.55
375.74	92.5
375.951	96.6
376.161	55.64
376.372	88.4
376.582	26.96
376.793	139.6
377.003	51.54
377.214	57.68
377.424	88.4
377.635	92.5
377.845	84.31
378.055	143.7
378.266	10.58
378.476	59.73
378.686	121.17
378.897	57.68
379.107	141.65
379.317	125.27
379.528	35.16
379.738	102.74
379.948	41.3
380.158	102.74
380.369	90.45
380.579	143.7
380.789	88.4
380.999	47.44
381.21	84.31
381.42	117.08
381.63	18.77
381.84	80.21
382.05	115.03
382.261	119.12
382.471	127.32
382.681	112.98
382.891	141.65
383.101	166.23
383.311	65.88
383.521	82.26
383.731	63.83
383.941	182.61
384.151	43.35
384.361	158.03
384.571	125.27
384.781	90.45
384.991	125.27
385.201	158.03
385.411	82.26
385.621	155.99
385.831	47.44
386.041	84.31
386.251	63.83
386.461	67.92
386.671	80.21
386.881	139.6
387.091	29.01
387.301	115.03
387.511	74.07
387.72	45.4
387.93	168.27
388.14	14.68
388.35	24.92
388.56	182.61
388.769	174.42
388.979	112.98
389.189	90.45
389.399	108.88
389.609	108.88
389.818	92.5
390.028	67.92
390.238	100.69
390.447	164.18
390.657	125.27
390.867	51.54
391.076	51.54
391.286	88.4
391.496	153.94
391.705	106.84
391.915	106.84
392.125	129.36
392.334	117.08
392.544	182.61
392.753	63.83
392.963	61.78
393.172	86.36
393.382	41.3
393.591	201.04
393.801	76.12
394.01	78.16
394.22	57.68
394.429	88.4
394.639	112.98
394.848	88.4
395.058	112.98
395.267	112.98
395.477	125.27
395.686	88.4
395.895	96.6
396.105	178.51
396.314	145.75
396.524	125.27
396.733	108.88
396.942	125.27
397.152	166.23
397.361	178.51
397.57	59.73
397.78	194.9
397.989	162.13
398.198	151.89
398.407	170.32
398.617	135.51
398.826	72.02
399.035	174.42
399.244	145.75
399.453	149.84
399.663	131.41
399.872	125.27
400.081	160.08
400.29	78.16
400.499	65.88
400.708	127.32
400.917	155.99
401.127	153.94
401.336	72.02
401.545	198.99
401.754	168.27
401.963	190.8
402.172	229.71
402.381	184.66
402.59	153.94
402.799	143.7
403.008	256.34
403.217	158.03
403.426	262.48
403.635	190.8
403.844	188.75
404.053	131.41
404.262	205.14
404.471	260.43
404.68	164.18
404.888	219.47
405.097	262.48
405.306	207.19
405.515	194.9
405.724	229.71
405.933	262.48
406.142	264.53
406.35	264.53
406.559	209.23
406.768	194.9
406.977	301.39
407.185	180.56
407.394	237.91
407.603	287.06
407.812	268.63
408.02	207.19
408.229	233.81
408.438	278.87
408.646	352.59
408.855	332.11
409.064	321.87
409.272	239.95
409.481	325.97
409.69	248.15
409.898	317.78
410.107	393.55
410.315	395.6
410.524	373.07
410.733	397.65
410.941	407.89
411.15	399.7
411.358	506.19
411.567	514.38
411.775	418.13
411.984	450.89
412.192	377.17
412.401	563.53
412.609	577.87
412.818	622.92
413.026	487.76
413.234	579.92
413.443	633.16
413.651	639.31
413.86	657.74
414.068	715.08
414.276	635.21
414.485	649.55
414.693	639.31
414.901	829.77
415.11	837.96
415.318	792.91
415.526	932.17
415.734	749.9
415.943	969.03
416.151	989.51
416.359	915.78
416.567	1014.09
416.776	1007.94
416.984	1083.72
417.192	1100.1
417.4	1255.75
417.608	1001.8
417.817	1157.44
418.025	1220.93
418.233	1376.58
418.441	1329.47
418.649	1347.9
418.857	1435.97
419.065	1538.37
419.273	1360.19
419.481	1612.09
419.689	1663.29
419.897	1800.51
420.105	1700.16
420.313	1734.97
420.521	1755.45
420.729	1898.81
420.937	1841.47
421.145	1950.01
421.353	2107.7
421.561	2230.58
421.769	2169.14
421.977	2318.64
422.185	2230.58
422.393	2459.95
422.601	2617.65
422.809	2728.24
423.017	2627.89
423.224	2711.85
423.432	2816.3
423.64	2828.59
423.848	3070.25
424.056	2871.59
424.263	3242.28
424.471	3295.52
424.679	3203.36
424.887	3498.27
425.094	3602.72
425.302	3606.81
425.51	3584.29
425.718	3914.01
425.925	4030.74
426.133	4108.57
426.341	4337.94
426.548	4512.02
426.756	4378.9
426.964	4499.73
427.171	4778.25
427.379	4811.02
427.586	5056.78
427.794	4999.43
428.001	5349.64
428.209	5566.72
428.417	5540.1
428.624	5847.29
428.832	5923.07
429.039	5783.81
429.247	5884.16
429.454	6496.5
429.662	6799.6
429.869	6351.09
430.076	6897.9
430.284	6473.97
430.491	6930.67
430.699	7346.41
430.906	7164.14
431.114	7424.23
431.321	7743.71
431.528	7948.51
431.736	8388.82
431.943	8724.69
432.15	8573.14
432.358	8646.87
432.565	9162.95
432.772	9199.82
432.979	9539.78
433.187	9650.37
433.394	9777.34
433.601	10455.22
433.808	10543.28
434.016	10266.81
434.223	10873.01
434.43	11354.28
434.637	11096.24
434.844	11790.5
435.052	12075.17
435.259	11892.9
435.466	11882.66
435.673	12124.32
435.88	12730.52
436.087	13412.49
436.294	13508.74
436.501	13207.69
436.708	13353.1
436.915	13865.09
437.122	14526.58
437.329	14280.83
437.537	14979.18
437.743	15173.74
437.95	15093.87
438.157	15943.78
438.364	16175.2
438.571	16304.22
438.778	16451.67
438.985	17821.77
439.192	17203.28
439.399	17789
439.606	17510.47
439.813	18331.71
440.02	19265.58
440.227	19179.57
440.433	18892.85
440.64	19734.57
440.847	19705.9
441.054	19957.8
441.261	21297.17
441.467	20916.25
441.674	21727.24
441.881	22405.12
442.088	21907.46
442.294	22081.54
442.501	22644.73
442.708	22933.5
442.914	24016.87
443.121	24899.55
443.328	24070.12
443.534	26396.61
443.741	25235.41
443.948	25108.44
444.154	26726.33
444.361	26501.06
444.568	26771.39
444.774	26896.31
444.981	27111.35
445.187	28139.43
445.394	29163.42
445.6	28766.11
445.807	31627.12
446.013	30015.37
446.22	30617.47
446.426	31813.49
446.633	31940.46
446.839	33113.95
447.046	31932.27
447.252	33992.53
447.459	33599.32
447.665	33664.85
447.871	34770.75
448.078	36511.53
448.284	34742.08
448.491	35860.27
448.697	37277.47
448.903	37900.05
449.11	37840.66
449.316	37453.59
449.522	38094.61
449.728	38850.31
449.935	39487.23
450.141	39444.22
450.347	40185.58
450.553	39200.51
450.76	39841.53
450.966	40865.51
451.172	40152.82
451.378	41590.49
451.584	40582.89
451.791	41242.34
451.997	41397.98
452.203	41965.27
452.409	41991.89
452.615	41871.06
452.821	40158.96
453.027	40142.58
453.233	41866.97
453.44	40046.32
453.646	40924.9
453.852	41137.89
454.058	41981.65
454.264	40591.08
454.47	41570.01
454.676	40308.46
454.882	41701.08
455.088	38147.86
455.294	38584.07
455.5	39089.92
455.705	40056.56
455.911	38272.78
456.117	37109.54
456.323	36726.56
456.529	34672.45
456.735	36491.05
456.941	35569.46
457.147	34912.06
457.352	34068.3
457.558	33539.93
457.764	33498.97
457.97	32642.92
458.176	32073.58
458.381	32143.21
458.587	30687.11
458.793	30605.19
458.999	29067.16
459.204	31242.1
459.41	30103.43
459.616	28141.48
459.821	28716.96
460.027	28235.69
460.233	27547.57
460.438	26054.6
460.644	26744.77
460.85	25501.65
461.055	25169.88
461.261	24571.87
461.466	23193.59
461.672	22267.91
461.878	24094.69
462.083	22325.25
462.289	22290.43
462.494	21776.39
462.7	20817.94
462.905	20506.65
463.111	20924.44
463.316	20899.86
463.522	20787.22
463.727	20662.3
463.932	20494.36
464.138	20299.81
464.343	20373.53
464.549	19877.93
464.754	20531.23
464.959	20258.85
465.165	20254.75
465.37	19347.5
465.575	18866.23
465.781	19664.94
465.986	19689.51
466.191	18942
466.397	18546.75
466.602	17815.62
466.807	18427.96
