Data from USB4F104151__46__11-37-02-343.txt Node

Date: Fri Mar 14 11:37:02 EDT 2025
User: louis
Spectrometer: USB4F10415
Trigger mode: 4
Integration Time (sec): 2.000000E-2
Scans to average: 1
Electric dark correction enabled: true
Nonlinearity correction enabled: false
Boxcar width: 0
XAxis mode: Wavelengths
Number of Pixels in Spectrum: 3648
>>>>>Begin Spectral Data<<<<<
178.204	-103.59
178.424	-103.59
178.644	-103.59
178.864	-54.44
179.084	-85.16
179.304	-3.24
179.524	-7.34
179.744	7
179.964	27.48
180.184	-7.34
180.404	-7.34
180.624	17.24
180.844	-15.53
181.064	-42.15
181.283	90.96
181.503	-33.96
181.723	-25.77
181.943	-97.45
182.163	29.52
182.383	23.38
182.602	0.85
182.822	74.58
183.042	-21.67
183.262	31.57
183.482	60.24
183.701	-5.29
183.921	19.29
184.141	19.29
184.361	-17.58
184.58	9.05
184.8	33.62
185.02	35.67
185.239	76.63
185.459	19.29
185.679	27.48
185.898	27.48
186.118	60.24
186.338	19.29
186.557	97.11
186.777	37.72
186.997	-5.29
187.216	62.29
187.436	-17.58
187.655	74.58
187.875	84.82
188.095	41.81
188.314	50
188.534	37.72
188.753	27.48
188.973	-21.67
189.192	23.38
189.412	-56.49
189.631	-3.24
189.851	15.19
190.07	60.24
190.29	-29.87
190.509	-27.82
190.729	25.43
190.948	72.53
191.168	17.24
191.387	19.29
191.607	-19.63
191.826	68.44
192.045	43.86
192.265	21.33
192.484	-17.58
192.704	41.81
192.923	-29.87
193.142	19.29
193.362	0.85
193.581	62.29
193.8	27.48
194.02	84.82
194.239	15.19
194.458	60.24
194.678	-27.82
194.897	2.9
195.116	-29.87
195.335	-7.34
195.555	2.9
195.774	39.76
195.993	-40.11
196.212	82.77
196.432	82.77
196.651	-3.24
196.87	25.43
197.089	31.57
197.308	31.57
197.528	97.11
197.747	-25.77
197.966	74.58
198.185	60.24
198.404	-5.29
198.623	15.19
198.842	50
199.062	-21.67
199.281	23.38
199.5	-5.29
199.719	-15.53
199.938	90.96
200.157	123.73
200.376	-5.29
200.595	19.29
200.814	27.48
201.033	-11.43
201.252	47.96
201.471	-27.82
201.69	-15.53
201.909	35.67
202.128	31.57
202.347	37.72
202.566	11.09
202.785	19.29
203.004	-15.53
203.223	15.19
203.442	-1.19
203.661	60.24
203.879	47.96
204.098	72.53
204.317	-9.39
204.536	13.14
204.755	19.29
204.974	11.09
205.193	-1.19
205.411	97.11
205.63	43.86
205.849	41.81
206.068	31.57
206.287	43.86
206.505	17.24
206.724	33.62
206.943	7
207.162	35.67
207.381	31.57
207.599	2.9
207.818	27.48
208.037	-33.96
208.255	43.86
208.474	23.38
208.693	27.48
208.911	-11.43
209.13	101.2
209.349	107.35
209.567	-1.19
209.786	88.92
210.005	-95.4
210.223	27.48
210.442	41.81
210.661	-25.77
210.879	4.95
211.098	-13.48
211.316	86.87
211.535	-15.53
211.753	50
211.972	25.43
212.191	4.95
212.409	7
212.628	-5.29
212.846	-31.91
213.065	52.05
213.283	11.09
213.502	0.85
213.72	11.09
213.938	0.85
214.157	-7.34
214.375	9.05
214.594	-81.07
214.812	56.15
215.031	80.72
215.249	27.48
215.467	-11.43
215.686	-5.29
215.904	76.63
216.122	-13.48
216.341	93.01
216.559	-17.58
216.778	84.82
216.996	15.19
217.214	37.72
217.432	23.38
217.651	-15.53
217.869	52.05
218.087	45.91
218.306	-25.77
218.524	37.72
218.742	-17.58
218.96	33.62
219.179	-29.87
219.397	41.81
219.615	60.24
219.833	17.24
220.051	86.87
220.27	64.34
220.488	33.62
220.706	-9.39
220.924	27.48
221.142	78.68
221.36	66.39
221.578	21.33
221.796	88.92
222.015	39.76
222.233	52.05
222.451	11.09
222.669	17.24
222.887	105.3
223.105	35.67
223.323	35.67
223.541	23.38
223.759	-9.39
223.977	15.19
224.195	23.38
224.413	17.24
224.631	37.72
224.849	25.43
225.067	25.43
225.285	-23.72
225.503	19.29
225.721	-40.11
225.939	0.85
226.157	-46.25
226.375	43.86
226.592	-36.01
226.81	27.48
227.028	54.1
227.246	52.05
227.464	11.09
227.682	74.58
227.9	19.29
228.117	-38.06
228.335	33.62
228.553	13.14
228.771	-42.15
228.989	2.9
229.206	62.29
229.424	-52.39
229.642	41.81
229.86	56.15
230.077	66.39
230.295	31.57
230.513	37.72
230.731	84.82
230.948	33.62
231.166	27.48
231.384	9.05
231.601	41.81
231.819	31.57
232.037	133.97
232.254	33.62
232.472	43.86
232.689	-42.15
232.907	25.43
233.125	31.57
233.342	25.43
233.56	-3.24
233.777	-46.25
233.995	2.9
234.213	105.3
234.43	-1.19
234.648	0.85
234.865	109.4
235.083	78.68
235.3	21.33
235.518	23.38
235.735	47.96
235.953	0.85
236.17	31.57
236.388	-7.34
236.605	58.2
236.822	35.67
237.04	19.29
237.257	-46.25
237.475	78.68
237.692	4.95
237.909	19.29
238.127	-11.43
238.344	27.48
238.562	17.24
238.779	-23.72
238.996	17.24
239.214	9.05
239.431	13.14
239.648	0.85
239.865	19.29
240.083	54.1
240.3	-54.44
240.517	50
240.735	-9.39
240.952	35.67
241.169	47.96
241.386	84.82
241.603	-46.25
241.821	-48.3
242.038	25.43
242.255	-13.48
242.472	-38.06
242.689	-11.43
242.907	-7.34
243.124	-31.91
243.341	-13.48
243.558	-29.87
243.775	-5.29
243.992	25.43
244.209	4.95
244.426	43.86
244.643	-7.34
244.86	97.11
245.078	37.72
245.295	15.19
245.512	41.81
245.729	19.29
245.946	33.62
246.163	-15.53
246.38	45.91
246.597	82.77
246.814	-52.39
247.031	74.58
247.248	19.29
247.464	-19.63
247.681	43.86
247.898	64.34
248.115	15.19
248.332	-13.48
248.549	39.76
248.766	27.48
248.983	35.67
249.2	4.95
249.417	0.85
249.633	-23.72
249.85	105.3
250.067	45.91
250.284	43.86
250.501	39.76
250.717	9.05
250.934	7
251.151	-11.43
251.368	27.48
251.585	43.86
251.801	-17.58
252.018	0.85
252.235	50
252.451	-44.2
252.668	-5.29
252.885	17.24
253.102	74.58
253.318	138.07
253.535	-62.63
253.752	15.19
253.968	19.29
254.185	56.15
254.401	74.58
254.618	84.82
254.835	21.33
255.051	15.19
255.268	27.48
255.484	23.38
255.701	-23.72
255.917	13.14
256.134	101.2
256.351	31.57
256.567	43.86
256.784	9.05
257	-58.54
257.217	27.48
257.433	39.76
257.65	29.52
257.866	-29.87
258.082	-29.87
258.299	37.72
258.515	31.57
258.732	17.24
258.948	17.24
259.165	64.34
259.381	80.72
259.597	-11.43
259.814	35.67
260.03	68.44
260.246	-19.63
260.463	27.48
260.679	-21.67
260.895	35.67
261.112	-38.06
261.328	25.43
261.544	23.38
261.761	33.62
261.977	21.33
262.193	2.9
262.409	31.57
262.626	9.05
262.842	82.77
263.058	-79.02
263.274	93.01
263.49	19.29
263.707	17.24
263.923	33.62
264.139	-50.35
264.355	2.9
264.571	-42.15
264.787	2.9
265.004	39.76
265.22	47.96
265.436	95.06
265.652	50
265.868	39.76
266.084	13.14
266.3	-11.43
266.516	80.72
266.732	54.1
266.948	58.2
267.164	39.76
267.38	2.9
267.596	60.24
267.812	21.33
268.028	-13.48
268.244	66.39
268.46	35.67
268.676	31.57
268.892	27.48
269.108	-7.34
269.324	-13.48
269.54	23.38
269.756	43.86
269.972	-29.87
270.188	64.34
270.403	37.72
270.619	41.81
270.835	-52.39
271.051	15.19
271.267	-11.43
271.483	72.53
271.698	72.53
271.914	23.38
272.13	9.05
272.346	-40.11
272.562	-9.39
272.777	72.53
272.993	52.05
273.209	37.72
273.425	70.48
273.64	-15.53
273.856	-5.29
274.072	37.72
274.287	-27.82
274.503	17.24
274.719	-40.11
274.934	-9.39
275.15	19.29
275.366	39.76
275.581	9.05
275.797	17.24
276.012	-11.43
276.228	-21.67
276.444	-31.91
276.659	80.72
276.875	7
277.09	64.34
277.306	37.72
277.521	35.67
277.737	-5.29
277.952	2.9
278.168	-50.35
278.383	33.62
278.599	52.05
278.814	11.09
279.03	50
279.245	17.24
279.461	-3.24
279.676	-5.29
279.892	17.24
280.107	-64.68
280.322	-23.72
280.538	23.38
280.753	-11.43
280.969	37.72
281.184	107.35
281.399	47.96
281.615	52.05
281.83	17.24
282.045	-27.82
282.26	-29.87
282.476	72.53
282.691	119.64
282.906	29.52
283.122	-29.87
283.337	66.39
283.552	47.96
283.767	15.19
283.983	-1.19
284.198	31.57
284.413	-9.39
284.628	15.19
284.843	58.2
285.058	37.72
285.274	88.92
285.489	-36.01
285.704	50
285.919	9.05
286.134	2.9
286.349	41.81
286.564	31.57
286.779	35.67
286.995	17.24
287.21	-25.77
287.425	33.62
287.64	47.96
287.855	58.2
288.07	-38.06
288.285	37.72
288.5	70.48
288.715	-1.19
288.93	62.29
289.145	27.48
289.36	-1.19
289.575	-1.19
289.79	97.11
290.004	19.29
290.219	23.38
290.434	25.43
290.649	15.19
290.864	-29.87
291.079	-42.15
291.294	13.14
291.509	19.29
291.724	11.09
291.938	56.15
292.153	-21.67
292.368	56.15
292.583	52.05
292.798	19.29
293.012	25.43
293.227	-66.73
293.442	27.48
293.657	35.67
293.871	95.06
294.086	80.72
294.301	74.58
294.516	35.67
294.73	19.29
294.945	17.24
295.16	33.62
295.374	52.05
295.589	-33.96
295.804	52.05
296.018	60.24
296.233	60.24
296.447	2.9
296.662	-27.82
296.877	-68.78
297.091	56.15
297.306	-36.01
297.52	23.38
297.735	4.95
297.949	52.05
298.164	35.67
298.378	25.43
298.593	-23.72
298.807	-1.19
299.022	-9.39
299.236	31.57
299.451	33.62
299.665	-29.87
299.88	31.57
300.094	-21.67
300.309	-33.96
300.523	37.72
300.737	-58.54
300.952	45.91
301.166	84.82
301.381	-21.67
301.595	-15.53
301.809	68.44
302.024	-23.72
302.238	41.81
302.452	76.63
302.667	27.48
302.881	105.3
303.095	66.39
303.309	82.77
303.524	39.76
303.738	11.09
303.952	29.52
304.166	21.33
304.381	50
304.595	23.38
304.809	-46.25
305.023	13.14
305.237	9.05
305.452	70.48
305.666	52.05
305.88	121.68
306.094	25.43
306.308	47.96
306.522	-15.53
306.736	23.38
306.95	-27.82
307.164	56.15
307.379	-15.53
307.593	66.39
307.807	68.44
308.021	27.48
308.235	103.25
308.449	35.67
308.663	62.29
308.877	86.87
309.091	-11.43
309.305	101.2
309.519	-56.49
309.733	56.15
309.947	11.09
310.161	115.54
310.374	27.48
310.588	-21.67
310.802	27.48
311.016	41.81
311.23	29.52
311.444	35.67
311.658	35.67
311.872	-42.15
312.085	76.63
312.299	4.95
312.513	39.76
312.727	35.67
312.941	25.43
313.154	129.88
313.368	66.39
313.582	-29.87
313.796	-7.34
314.009	-5.29
314.223	27.48
314.437	17.24
314.651	-19.63
314.864	-3.24
315.078	-15.53
315.292	43.86
315.505	19.29
315.719	95.06
315.933	7
316.146	-9.39
316.36	43.86
316.573	29.52
316.787	45.91
317.001	7
317.214	-17.58
317.428	76.63
317.641	-7.34
317.855	45.91
318.068	56.15
318.282	-1.19
318.495	21.33
318.709	25.43
318.922	-5.29
319.136	21.33
319.349	29.52
319.563	72.53
319.776	52.05
319.99	17.24
320.203	56.15
320.417	2.9
320.63	84.82
320.843	68.44
321.057	72.53
321.27	62.29
321.483	25.43
321.697	19.29
321.91	35.67
322.124	15.19
322.337	80.72
322.55	-23.72
322.763	37.72
322.977	33.62
323.19	74.58
323.403	27.48
323.617	82.77
323.83	93.01
324.043	33.62
324.256	-40.11
324.469	-9.39
324.683	17.24
324.896	-76.97
325.109	45.91
325.322	-3.24
325.535	29.52
325.748	27.48
325.962	-25.77
326.175	-31.91
326.388	43.86
326.601	58.2
326.814	19.29
327.027	45.91
327.24	11.09
327.453	-27.82
327.666	15.19
327.879	-9.39
328.092	29.52
328.305	-7.34
328.518	-21.67
328.731	27.48
328.944	7
329.157	15.19
329.37	-1.19
329.583	-17.58
329.796	82.77
330.009	43.86
330.222	7
330.435	66.39
330.648	80.72
330.861	97.11
331.073	64.34
331.286	9.05
331.499	31.57
331.712	19.29
331.925	60.24
332.138	7
332.35	29.52
332.563	-13.48
332.776	111.44
332.989	9.05
333.202	-5.29
333.414	2.9
333.627	31.57
333.84	115.54
334.053	64.34
334.265	56.15
334.478	58.2
334.691	70.48
334.903	43.86
335.116	-3.24
335.329	21.33
335.541	17.24
335.754	29.52
335.966	-48.3
336.179	95.06
336.392	-13.48
336.604	140.12
336.817	111.44
337.029	47.96
337.242	-9.39
337.454	39.76
337.667	-52.39
337.88	7
338.092	78.68
338.305	35.67
338.517	68.44
338.729	93.01
338.942	-15.53
339.154	0.85
339.367	39.76
339.579	70.48
339.792	43.86
340.004	-11.43
340.217	88.92
340.429	25.43
340.641	82.77
340.854	-3.24
341.066	17.24
341.278	60.24
341.491	11.09
341.703	82.77
341.915	-1.19
342.128	-40.11
342.34	7
342.552	-3.24
342.764	19.29
342.977	-33.96
343.189	41.81
343.401	-29.87
343.613	33.62
343.826	43.86
344.038	93.01
344.25	56.15
344.462	-31.91
344.674	88.92
344.886	50
345.099	187.22
345.311	-48.3
345.523	13.14
345.735	-29.87
345.947	82.77
346.159	-54.44
346.371	-21.67
346.583	0.85
346.795	64.34
347.007	58.2
347.219	-3.24
347.431	-21.67
347.643	-27.82
347.855	-48.3
348.067	23.38
348.279	11.09
348.491	45.91
348.703	50
348.915	-48.3
349.127	35.67
349.339	-38.06
349.551	13.14
349.763	13.14
349.975	23.38
350.187	31.57
350.399	15.19
350.61	27.48
350.822	13.14
351.034	11.09
351.246	43.86
351.458	52.05
351.669	17.24
351.881	66.39
352.093	103.25
352.305	107.35
352.517	31.57
352.728	72.53
352.94	13.14
353.152	80.72
353.363	31.57
353.575	52.05
353.787	101.2
353.999	47.96
354.21	50
354.422	-5.29
354.633	4.95
354.845	76.63
355.057	93.01
355.268	60.24
355.48	37.72
355.692	86.87
355.903	80.72
356.115	7
356.326	-7.34
356.538	95.06
356.749	-15.53
356.961	78.68
357.172	60.24
357.384	68.44
357.595	84.82
357.807	86.87
358.018	41.81
358.23	47.96
358.441	9.05
358.653	19.29
358.864	-31.91
359.075	50
359.287	68.44
359.498	-17.58
359.709	66.39
359.921	13.14
360.132	39.76
360.344	37.72
360.555	43.86
360.766	47.96
360.977	-56.49
361.189	29.52
361.4	2.9
361.611	31.57
361.823	68.44
362.034	76.63
362.245	41.81
362.456	47.96
362.667	31.57
362.879	17.24
363.09	88.92
363.301	-3.24
363.512	68.44
363.723	-3.24
363.935	35.67
364.146	31.57
364.357	76.63
364.568	39.76
364.779	64.34
364.99	52.05
365.201	41.81
365.412	31.57
365.623	-3.24
365.834	52.05
366.045	90.96
366.256	84.82
366.467	33.62
366.678	68.44
366.889	-13.48
367.1	4.95
367.311	33.62
367.522	25.43
367.733	72.53
367.944	64.34
368.155	11.09
368.366	-5.29
368.577	140.12
368.788	60.24
368.999	35.67
369.209	45.91
369.42	64.34
369.631	4.95
369.842	52.05
370.053	-9.39
370.264	4.95
370.474	43.86
370.685	15.19
370.896	99.16
371.107	68.44
371.317	33.62
371.528	45.91
371.739	52.05
371.95	37.72
372.16	47.96
372.371	11.09
372.582	35.67
372.792	33.62
373.003	-7.34
373.214	35.67
373.424	-38.06
373.635	13.14
373.846	97.11
374.056	15.19
374.267	19.29
374.477	64.34
374.688	33.62
374.898	35.67
375.109	47.96
375.319	41.81
375.53	50
375.74	52.05
375.951	21.33
376.161	33.62
376.372	68.44
376.582	54.1
376.793	25.43
377.003	50
377.214	-33.96
377.424	117.59
377.635	47.96
377.845	-9.39
378.055	72.53
378.266	-5.29
378.476	11.09
378.686	4.95
378.897	4.95
379.107	82.77
379.317	76.63
379.528	84.82
379.738	35.67
379.948	35.67
380.158	19.29
380.369	60.24
380.579	54.1
380.789	27.48
380.999	17.24
381.21	50
381.42	136.02
381.63	-7.34
381.84	66.39
382.05	88.92
382.261	142.16
382.471	7
382.681	31.57
382.891	-1.19
383.101	23.38
383.311	0.85
383.521	82.77
383.731	93.01
383.941	17.24
384.151	35.67
384.361	35.67
384.571	52.05
384.781	-33.96
384.991	37.72
385.201	13.14
385.411	2.9
385.621	9.05
385.831	66.39
386.041	33.62
386.251	47.96
386.461	84.82
386.671	52.05
386.881	27.48
387.091	117.59
387.301	47.96
387.511	-11.43
387.72	66.39
387.93	43.86
388.14	39.76
388.35	74.58
388.56	66.39
388.769	93.01
388.979	2.9
389.189	41.81
389.399	17.24
389.609	82.77
389.818	13.14
390.028	-54.44
390.238	43.86
390.447	45.91
390.657	74.58
390.867	-29.87
391.076	43.86
391.286	41.81
391.496	82.77
391.705	58.2
391.915	43.86
392.125	56.15
392.334	70.48
392.544	125.78
392.753	-17.58
392.963	27.48
393.172	74.58
393.382	68.44
393.591	31.57
393.801	101.2
394.01	47.96
394.22	11.09
394.429	11.09
394.639	21.33
394.848	74.58
395.058	62.29
395.267	97.11
395.477	88.92
395.686	21.33
395.895	60.24
396.105	76.63
396.314	31.57
396.524	15.19
396.733	101.2
396.942	82.77
397.152	68.44
397.361	74.58
397.57	11.09
397.78	125.78
397.989	35.67
398.198	80.72
398.407	138.07
398.617	90.96
398.826	107.35
399.035	90.96
399.244	88.92
399.453	76.63
399.663	93.01
399.872	109.4
400.081	72.53
400.29	84.82
400.499	78.68
400.708	74.58
400.917	101.2
401.127	60.24
401.336	93.01
401.545	74.58
401.754	93.01
401.963	140.12
402.172	23.38
402.381	74.58
402.59	154.45
402.799	41.81
403.008	93.01
403.217	66.39
403.426	105.3
403.635	88.92
403.844	142.16
404.053	121.68
404.262	101.2
404.471	158.55
404.68	76.63
404.888	125.78
405.097	97.11
405.306	158.55
405.515	142.16
405.724	144.21
405.933	76.63
406.142	150.36
406.35	174.93
406.559	105.3
406.768	152.4
406.977	123.73
407.185	97.11
407.394	109.4
407.603	78.68
407.812	170.83
408.02	224.08
408.229	142.16
408.438	168.79
408.646	203.6
408.855	244.56
409.064	289.62
409.272	187.22
409.481	174.93
409.69	172.88
409.898	232.27
410.107	269.14
410.315	222.03
410.524	207.7
410.733	207.7
410.941	207.7
411.15	273.23
411.358	306
411.567	359.25
411.775	238.42
411.984	320.34
412.192	297.81
412.401	363.34
412.609	310.1
412.818	412.5
413.026	332.62
413.234	404.3
413.443	363.34
413.651	367.44
413.86	351.06
414.068	418.64
414.276	441.17
414.485	482.13
414.693	502.61
414.901	605
415.11	537.42
415.318	574.28
415.526	615.24
415.734	650.06
415.943	555.85
416.151	598.86
416.359	670.54
416.567	664.4
416.776	697.16
416.984	750.41
417.192	789.32
417.4	742.22
417.608	744.27
417.817	817.99
418.025	801.61
418.233	930.63
418.441	885.58
418.649	828.23
418.857	1018.69
419.065	1012.55
419.273	928.58
419.481	1047.37
419.689	1157.96
419.897	1096.52
420.105	1196.87
420.313	1178.44
420.521	1219.39
420.729	1276.74
420.937	1229.63
421.145	1272.64
421.353	1332.03
421.561	1430.34
421.769	1465.15
421.977	1534.78
422.185	1428.29
422.393	1569.6
422.601	1764.15
422.809	1733.43
423.017	1721.15
423.224	1899.32
423.432	1958.71
423.64	1907.51
423.848	2034.49
424.056	2022.2
424.263	2153.27
424.471	2126.64
424.679	2210.61
424.887	2282.29
425.094	2472.75
425.302	2474.8
425.51	2450.22
425.718	2450.22
425.925	2620.21
426.133	2603.82
426.341	2837.29
426.548	3015.46
426.756	2970.41
426.964	2876.2
427.171	3109.67
427.379	3347.23
427.586	3207.97
427.794	3418.91
428.001	3631.9
428.209	3746.59
428.417	3738.4
428.624	3951.39
428.832	3973.91
429.039	3818.27
429.247	3935
429.454	4211.48
429.662	4442.9
429.869	4303.64
430.076	4588.3
430.284	4403.99
430.491	4670.22
430.699	5018.38
430.906	4795.15
431.114	5092.1
431.321	5159.69
431.528	5427.97
431.736	5669.63
431.943	5954.3
432.15	5591.81
432.358	5710.59
432.565	5958.39
432.772	6044.41
432.979	6316.79
433.187	6382.32
433.394	6472.43
433.601	6957.8
433.808	7070.44
434.016	7043.82
434.223	7355.11
434.43	7543.52
434.637	7531.23
434.844	8080.09
435.052	8016.6
435.259	7903.96
435.466	8143.58
435.673	8104.67
435.88	8622.8
436.087	9138.89
436.294	8948.43
436.501	8956.62
436.708	9192.14
436.915	9347.78
437.122	9675.46
437.329	9673.41
437.537	9937.6
437.743	10158.78
437.95	10121.91
438.157	10683.06
438.364	11115.18
438.571	10859.18
438.778	10980.01
438.985	11997.85
439.192	11616.93
439.399	11856.54
439.606	11629.22
439.813	12460.7
440.02	13200.01
440.227	12550.81
440.433	12872.34
440.64	13077.13
440.847	13185.68
441.054	13329.03
441.261	14215.8
441.467	14221.95
441.674	14586.49
441.881	15010.42
442.088	14684.79
442.294	14795.38
442.501	15100.53
442.708	15348.33
442.914	16120.42
443.121	16652.89
443.328	16206.43
443.534	17226.32
443.741	16802.39
443.948	16949.84
444.154	17900.1
444.361	17736.26
444.568	18125.38
444.774	18084.42
444.981	18266.69
445.187	18723.38
445.394	19460.65
445.6	19378.73
445.807	21211.67
446.013	20025.89
446.22	20507.16
446.426	21158.42
446.633	21209.62
446.839	22401.54
447.046	21322.26
447.252	22485.5
447.459	22614.52
447.665	22434.3
447.871	23505.39
448.078	24818.14
448.284	23591.41
448.491	24056.29
448.697	24404.45
448.903	25258.45
449.11	25205.2
449.316	25164.25
449.522	25352.66
449.728	26274.24
449.935	26028.49
450.141	26216.9
450.347	26847.68
450.553	25711.05
450.76	26345.92
450.966	27113.91
451.172	26495.43
451.378	27605.42
451.584	27148.73
451.791	27615.66
451.997	27369.91
452.203	27851.18
452.409	28078.5
452.615	27871.66
452.821	26888.64
453.027	26669.5
453.233	27896.24
453.44	26845.63
453.646	27273.65
453.852	27210.17
454.058	27820.46
454.264	26819
454.47	27566.51
454.676	26513.86
454.882	27787.69
455.088	25244.12
455.294	25373.14
455.5	26018.25
455.705	26552.77
455.911	25473.49
456.117	24674.78
456.323	24543.71
456.529	23347.7
456.735	23716.33
456.941	23435.76
457.147	23015.93
457.352	22594.04
457.558	22329.86
457.764	22217.22
457.97	21858.82
458.176	21293.58
458.381	21090.84
458.587	20320.8
458.793	20216.35
458.999	19022.39
459.204	20488.73
459.41	20161.06
459.616	18702.9
459.821	18723.38
460.027	18717.24
460.233	18324.03
460.438	17422.92
460.644	17623.62
460.85	16843.35
461.055	16497.24
461.261	16470.62
461.466	15200.88
461.672	14971.5
461.878	15686.25
462.083	14738.04
462.289	14576.25
462.494	14387.83
462.7	13894.27
462.905	13288.07
463.111	13906.56
463.316	13705.86
463.522	13554.31
463.727	13537.93
463.932	13660.8
464.138	13458.06
464.343	13564.55
464.549	13171.34
464.754	13447.82
464.959	13349.51
465.165	13312.65
465.37	12626.58
465.575	12202.65
465.781	12903.06
465.986	13101.71
466.191	12683.92
466.397	12253.85
466.602	11666.08
466.807	12122.78
467.012	12253.85
467.218	11809.44
467.423	11872.93
467.628	12018.33
467.833	12524.18
468.038	12102.3
468.244	11805.35
468.449	12352.15
468.654	11633.32
