Data from USB4F104151__63__11-37-26-200.txt Node

Date: Fri Mar 14 11:37:26 EDT 2025
User: louis
Spectrometer: USB4F10415
Trigger mode: 4
Integration Time (sec): 2.000000E-2
Scans to average: 1
Electric dark correction enabled: true
Nonlinearity correction enabled: false
Boxcar width: 0
XAxis mode: Wavelengths
Number of Pixels in Spectrum: 3648
>>>>>Begin Spectral Data<<<<<
178.204	-42.67
178.424	-42.67
178.644	-42.67
178.864	-100.01
179.084	-42.67
179.304	-42.67
179.524	20.82
179.744	78.16
179.964	-36.52
180.184	-30.38
180.404	47.44
180.624	22.87
180.844	-71.34
181.064	-3.75
181.283	-44.71
181.503	20.82
181.723	39.25
181.943	-38.57
182.163	26.96
182.383	14.68
182.602	6.49
182.822	22.87
183.042	47.44
183.262	22.87
183.482	-26.28
183.701	37.2
183.921	51.54
184.141	35.16
184.361	2.39
184.58	16.73
184.8	24.92
185.02	-63.15
185.239	-5.8
185.459	33.11
185.679	121.17
185.898	-34.47
186.118	-5.8
186.338	41.3
186.557	4.44
186.777	53.59
186.997	43.35
187.216	-42.67
187.436	18.77
187.655	61.78
187.875	29.01
188.095	-1.71
188.314	20.82
188.534	-28.33
188.753	-16.04
188.973	31.06
189.192	59.73
189.412	0.34
189.631	53.59
189.851	90.45
190.07	31.06
190.29	-7.85
190.509	-24.23
190.729	-26.28
190.948	55.64
191.168	39.25
191.387	78.16
191.607	16.73
191.826	80.21
192.045	18.77
192.265	-81.58
192.484	-20.14
192.704	-3.75
192.923	53.59
193.142	80.21
193.362	10.58
193.581	35.16
193.8	31.06
194.02	96.6
194.239	24.92
194.458	8.53
194.678	29.01
194.897	55.64
195.116	65.88
195.335	41.3
195.555	20.82
195.774	0.34
195.993	22.87
196.212	47.44
196.432	10.58
196.651	43.35
196.87	-9.9
197.089	43.35
197.308	55.64
197.528	59.73
197.747	6.49
197.966	-50.86
198.185	78.16
198.404	8.53
198.623	29.01
198.842	39.25
199.062	14.68
199.281	-11.95
199.5	88.4
199.719	31.06
199.938	10.58
200.157	-48.81
200.376	33.11
200.595	16.73
200.814	80.21
201.033	18.77
201.252	67.92
201.471	69.97
201.69	153.94
201.909	33.11
202.128	-48.81
202.347	41.3
202.566	-22.19
202.785	26.96
203.004	33.11
203.223	78.16
203.442	20.82
203.661	-63.15
203.879	39.25
204.098	51.54
204.317	22.87
204.536	43.35
204.755	49.49
204.974	18.77
205.193	31.06
205.411	63.83
205.63	31.06
205.849	88.4
206.068	92.5
206.287	22.87
206.505	39.25
206.724	-106.15
206.943	12.63
207.162	41.3
207.381	29.01
207.599	10.58
207.818	37.2
208.037	51.54
208.255	16.73
208.474	67.92
208.693	26.96
208.911	51.54
209.13	35.16
209.349	8.53
209.567	80.21
209.786	59.73
210.005	-20.14
210.223	8.53
210.442	-26.28
210.661	35.16
210.879	67.92
211.098	20.82
211.316	39.25
211.535	-24.23
211.753	-18.09
211.972	8.53
212.191	49.49
212.409	26.96
212.628	-26.28
212.846	6.49
213.065	47.44
213.283	12.63
213.502	-30.38
213.72	-13.99
213.938	143.7
214.157	63.83
214.375	74.07
214.594	63.83
214.812	129.36
215.031	51.54
215.249	0.34
215.467	8.53
215.686	26.96
215.904	12.63
216.122	41.3
216.341	41.3
216.559	18.77
216.778	84.31
216.996	106.84
217.214	0.34
217.432	2.39
217.651	149.84
217.869	74.07
218.087	-54.95
218.306	41.3
218.524	37.2
218.742	39.25
218.96	12.63
219.179	-9.9
219.397	135.51
219.615	115.03
219.833	26.96
220.051	-50.86
220.27	26.96
220.488	35.16
220.706	33.11
220.924	4.44
221.142	-9.9
221.36	14.68
221.578	65.88
221.796	82.26
222.015	-36.52
222.233	53.59
222.451	33.11
222.669	6.49
222.887	-36.52
223.105	-7.85
223.323	65.88
223.541	-9.9
223.759	78.16
223.977	61.78
224.195	47.44
224.413	67.92
224.631	31.06
224.849	-61.1
225.067	108.88
225.285	-38.57
225.503	-18.09
225.721	4.44
225.939	14.68
226.157	49.49
226.375	69.97
226.592	-22.19
226.81	-28.33
227.028	2.39
227.246	0.34
227.464	4.44
227.682	31.06
227.9	41.3
228.117	127.32
228.335	39.25
228.553	20.82
228.771	20.82
228.989	18.77
229.206	2.39
229.424	47.44
229.642	14.68
229.86	29.01
230.077	-9.9
230.295	84.31
230.513	115.03
230.731	84.31
230.948	57.68
231.166	55.64
231.384	16.73
231.601	69.97
231.819	51.54
232.037	76.12
232.254	-9.9
232.472	24.92
232.689	-13.99
232.907	125.27
233.125	12.63
233.342	90.45
233.56	-30.38
233.777	37.2
233.995	59.73
234.213	51.54
234.43	-57
234.648	104.79
234.865	14.68
235.083	43.35
235.3	-30.38
235.518	88.4
235.735	20.82
235.953	18.77
236.17	-42.67
236.388	22.87
236.605	88.4
236.822	63.83
237.04	14.68
237.257	26.96
237.475	-1.71
237.692	82.26
237.909	47.44
238.127	4.44
238.344	104.79
238.562	49.49
238.779	24.92
238.996	47.44
239.214	20.82
239.431	74.07
239.648	12.63
239.865	22.87
240.083	31.06
240.3	35.16
240.517	94.55
240.735	37.2
240.952	-26.28
241.169	61.78
241.386	12.63
241.603	61.78
241.821	14.68
242.038	-22.19
242.255	63.83
242.472	55.64
242.689	-50.86
242.907	61.78
243.124	22.87
243.341	-22.19
243.558	-18.09
243.775	-18.09
243.992	4.44
244.209	18.77
244.426	72.02
244.643	33.11
244.86	33.11
245.078	69.97
245.295	88.4
245.512	6.49
245.729	80.21
245.946	33.11
246.163	8.53
246.38	22.87
246.597	4.44
246.814	18.77
247.031	84.31
247.248	-38.57
247.464	26.96
247.681	-5.8
247.898	31.06
248.115	33.11
248.332	6.49
248.549	67.92
248.766	168.27
248.983	51.54
249.2	51.54
249.417	8.53
249.633	-3.75
249.85	6.49
250.067	-18.09
250.284	39.25
250.501	63.83
250.717	92.5
250.934	47.44
251.151	-18.09
251.368	-18.09
251.585	-11.95
251.801	43.35
252.018	-26.28
252.235	41.3
252.451	6.49
252.668	18.77
252.885	100.69
253.102	20.82
253.318	67.92
253.535	-30.38
253.752	-13.99
253.968	18.77
254.185	31.06
254.401	80.21
254.618	14.68
254.835	18.77
255.051	63.83
255.268	6.49
255.484	8.53
255.701	37.2
255.917	-44.71
256.134	-26.28
256.351	6.49
256.567	39.25
256.784	94.55
257	4.44
257.217	43.35
257.433	88.4
257.65	86.36
257.866	76.12
258.082	39.25
258.299	67.92
258.515	14.68
258.732	6.49
258.948	29.01
259.165	37.2
259.381	-18.09
259.597	2.39
259.814	67.92
260.03	10.58
260.246	-22.19
260.463	41.3
260.679	61.78
260.895	24.92
261.112	33.11
261.328	20.82
261.544	-20.14
261.761	45.4
261.977	-52.91
262.193	-34.47
262.409	37.2
262.626	41.3
262.842	29.01
263.058	-16.04
263.274	47.44
263.49	-5.8
263.707	20.82
263.923	8.53
264.139	-1.71
264.355	69.97
264.571	37.2
264.787	26.96
265.004	14.68
265.22	43.35
265.436	31.06
265.652	2.39
265.868	84.31
266.084	0.34
266.3	12.63
266.516	69.97
266.732	63.83
266.948	-13.99
267.164	-13.99
267.38	100.69
267.596	76.12
267.812	51.54
268.028	61.78
268.244	33.11
268.46	-28.33
268.676	10.58
268.892	31.06
269.108	16.73
269.324	20.82
269.54	47.44
269.756	39.25
269.972	-1.71
270.188	47.44
270.403	47.44
270.619	10.58
270.835	76.12
271.051	26.96
271.267	2.39
271.483	12.63
271.698	82.26
271.914	59.73
272.13	-38.57
272.346	69.97
272.562	98.64
272.777	88.4
272.993	31.06
273.209	61.78
273.425	69.97
273.64	-18.09
273.856	53.59
274.072	47.44
274.287	43.35
274.503	-1.71
274.719	84.31
274.934	47.44
275.15	39.25
275.366	-11.95
275.581	55.64
275.797	37.2
276.012	37.2
276.228	86.36
276.444	8.53
276.659	29.01
276.875	2.39
277.09	63.83
277.306	39.25
277.521	26.96
277.737	14.68
277.952	45.4
278.168	8.53
278.383	-1.71
278.599	2.39
278.814	51.54
279.03	18.77
279.245	39.25
279.461	53.59
279.676	43.35
279.892	-22.19
280.107	22.87
280.322	49.49
280.538	160.08
280.753	14.68
280.969	98.64
281.184	61.78
281.399	82.26
281.615	82.26
281.83	20.82
282.045	-16.04
282.26	-75.43
282.476	106.84
282.691	41.3
282.906	49.49
283.122	24.92
283.337	16.73
283.552	12.63
283.767	47.44
283.983	-20.14
284.198	-5.8
284.413	51.54
284.628	-5.8
284.843	47.44
285.058	-13.99
285.274	6.49
285.489	43.35
285.704	31.06
285.919	16.73
286.134	67.92
286.349	59.73
286.564	53.59
286.779	72.02
286.995	145.75
287.21	-18.09
287.425	57.68
287.64	37.2
287.855	20.82
288.07	37.2
288.285	65.88
288.5	29.01
288.715	39.25
288.93	-67.24
289.145	10.58
289.36	-26.28
289.575	10.58
289.79	49.49
290.004	72.02
290.219	-7.85
290.434	131.41
290.649	59.73
290.864	8.53
291.079	-54.95
291.294	57.68
291.509	86.36
291.724	57.68
291.938	12.63
292.153	47.44
292.368	16.73
292.583	22.87
292.798	45.4
293.012	33.11
293.227	2.39
293.442	20.82
293.657	-57
293.871	119.12
294.086	-1.71
294.301	141.65
294.516	80.21
294.73	39.25
294.945	-1.71
295.16	41.3
295.374	6.49
295.589	78.16
295.804	-3.75
296.018	39.25
296.233	100.69
296.447	10.58
296.662	78.16
296.877	43.35
297.091	72.02
297.306	55.64
297.52	63.83
297.735	14.68
297.949	26.96
298.164	61.78
298.378	18.77
298.593	10.58
298.807	39.25
299.022	61.78
299.236	61.78
299.451	51.54
299.665	61.78
299.88	82.26
300.094	-38.57
300.309	69.97
300.523	-9.9
300.737	26.96
300.952	-1.71
301.166	-9.9
301.381	-7.85
301.595	33.11
301.809	59.73
302.024	-3.75
302.238	69.97
302.452	82.26
302.667	59.73
302.881	-3.75
303.095	-22.19
303.309	55.64
303.524	18.77
303.738	20.82
303.952	24.92
304.166	49.49
304.381	47.44
304.595	-1.71
304.809	0.34
305.023	37.2
305.237	55.64
305.452	37.2
305.666	12.63
305.88	78.16
306.094	8.53
306.308	47.44
306.522	-1.71
306.736	61.78
306.95	43.35
307.164	24.92
307.379	110.93
307.593	53.59
307.807	41.3
308.021	22.87
308.235	35.16
308.449	39.25
308.663	22.87
308.877	-91.82
309.091	14.68
309.305	96.6
309.519	-50.86
309.733	55.64
309.947	2.39
310.161	80.21
310.374	-1.71
310.588	26.96
310.802	-9.9
311.016	22.87
311.23	-9.9
311.444	22.87
311.658	-18.09
311.872	55.64
312.085	80.21
312.299	80.21
312.513	-7.85
312.727	10.58
312.941	67.92
313.154	-1.71
313.368	0.34
313.582	104.79
313.796	51.54
314.009	82.26
314.223	31.06
314.437	123.22
314.651	53.59
314.864	76.12
315.078	39.25
315.292	88.4
315.505	47.44
315.719	33.11
315.933	59.73
316.146	80.21
316.36	41.3
316.573	51.54
316.787	37.2
317.001	82.26
317.214	78.16
317.428	4.44
317.641	-24.23
317.855	51.54
318.068	53.59
318.282	104.79
318.495	6.49
318.709	20.82
318.922	-9.9
319.136	-13.99
319.349	90.45
319.563	10.58
319.776	29.01
319.99	35.16
320.203	92.5
320.417	43.35
320.63	4.44
320.843	-32.43
321.057	35.16
321.27	119.12
321.483	45.4
321.697	39.25
321.91	-28.33
322.124	14.68
322.337	63.83
322.55	43.35
322.763	72.02
322.977	10.58
323.19	55.64
323.403	14.68
323.617	18.77
323.83	67.92
324.043	53.59
324.256	18.77
324.469	22.87
324.683	18.77
324.896	88.4
325.109	69.97
325.322	-1.71
325.535	78.16
325.748	69.97
325.962	78.16
326.175	12.63
326.388	2.39
326.601	63.83
326.814	49.49
327.027	-38.57
327.24	80.21
327.453	80.21
327.666	92.5
327.879	-9.9
328.092	100.69
328.305	65.88
328.518	57.68
328.731	2.39
328.944	51.54
329.157	41.3
329.37	26.96
329.583	94.55
329.796	51.54
330.009	14.68
330.222	47.44
330.435	63.83
330.648	10.58
330.861	-5.8
331.073	-1.71
331.286	67.92
331.499	43.35
331.712	72.02
331.925	31.06
332.138	24.92
332.35	33.11
332.563	72.02
332.776	16.73
332.989	76.12
333.202	49.49
333.414	-50.86
333.627	22.87
333.84	49.49
334.053	59.73
334.265	45.4
334.478	22.87
334.691	80.21
334.903	117.08
335.116	-3.75
335.329	53.59
335.541	104.79
335.754	37.2
335.966	72.02
336.179	26.96
336.392	39.25
336.604	139.6
336.817	55.64
337.029	108.88
337.242	-11.95
337.454	69.97
337.667	-9.9
337.88	63.83
338.092	26.96
338.305	86.36
338.517	29.01
338.729	92.5
338.942	39.25
339.154	84.31
339.367	2.39
339.579	2.39
339.792	37.2
340.004	35.16
340.217	41.3
340.429	41.3
340.641	-3.75
340.854	123.22
341.066	90.45
341.278	76.12
341.491	49.49
341.703	76.12
341.915	41.3
342.128	61.78
342.34	0.34
342.552	92.5
342.764	14.68
342.977	55.64
343.189	43.35
343.401	55.64
343.613	-26.28
343.826	26.96
344.038	2.39
344.25	104.79
344.462	18.77
344.674	41.3
344.886	-11.95
345.099	-3.75
345.311	39.25
345.523	80.21
345.735	6.49
345.947	6.49
346.159	69.97
346.371	51.54
346.583	10.58
346.795	100.69
347.007	-30.38
347.219	-24.23
347.431	67.92
347.643	92.5
347.855	-13.99
348.067	104.79
348.279	125.27
348.491	37.2
348.703	-22.19
348.915	53.59
349.127	6.49
349.339	18.77
349.551	20.82
349.763	53.59
349.975	26.96
350.187	88.4
350.399	-11.95
350.61	63.83
350.822	59.73
351.034	14.68
351.246	96.6
351.458	18.77
351.669	-22.19
351.881	72.02
352.093	47.44
352.305	76.12
352.517	22.87
352.728	69.97
352.94	14.68
353.152	-7.85
353.363	47.44
353.575	74.07
353.787	86.36
353.999	33.11
354.21	43.35
354.422	43.35
354.633	55.64
354.845	43.35
355.057	35.16
355.268	14.68
355.48	26.96
355.692	65.88
355.903	92.5
356.115	-1.71
356.326	-67.24
356.538	22.87
356.749	-42.67
356.961	43.35
357.172	59.73
357.384	-11.95
357.595	112.98
357.807	72.02
358.018	51.54
358.23	129.36
358.441	88.4
358.653	67.92
358.864	47.44
359.075	80.21
359.287	100.69
359.498	86.36
359.709	12.63
359.921	74.07
360.132	-32.43
360.344	51.54
360.555	14.68
360.766	24.92
360.977	31.06
361.189	100.69
361.4	-3.75
361.611	39.25
361.823	76.12
362.034	22.87
362.245	6.49
362.456	72.02
362.667	117.08
362.879	61.78
363.09	47.44
363.301	76.12
363.512	69.97
363.723	92.5
363.935	29.01
364.146	-52.91
364.357	22.87
364.568	37.2
364.779	14.68
364.99	74.07
365.201	-34.47
365.412	117.08
365.623	6.49
365.834	59.73
366.045	72.02
366.256	8.53
366.467	61.78
366.678	31.06
366.889	22.87
367.1	143.7
367.311	69.97
367.522	20.82
367.733	51.54
367.944	69.97
368.155	102.74
368.366	26.96
368.577	43.35
368.788	39.25
368.999	59.73
369.209	45.4
369.42	74.07
369.631	94.55
369.842	26.96
370.053	-50.86
370.264	119.12
370.474	41.3
370.685	45.4
370.896	49.49
371.107	55.64
371.317	18.77
371.528	20.82
371.739	20.82
371.95	-9.9
372.16	20.82
372.371	6.49
372.582	129.36
372.792	24.92
373.003	10.58
373.214	102.74
373.424	14.68
373.635	53.59
373.846	158.03
374.056	78.16
374.267	121.17
374.477	49.49
374.688	26.96
374.898	82.26
375.109	-1.71
375.319	74.07
375.53	86.36
375.74	53.59
375.951	43.35
376.161	74.07
376.372	33.11
376.582	8.53
376.793	74.07
377.003	33.11
377.214	45.4
377.424	39.25
377.635	43.35
377.845	72.02
378.055	47.44
378.266	78.16
378.476	96.6
378.686	63.83
378.897	10.58
379.107	37.2
379.317	92.5
379.528	57.68
379.738	69.97
379.948	90.45
380.158	135.51
380.369	26.96
380.579	-26.28
380.789	33.11
380.999	39.25
381.21	69.97
381.42	43.35
381.63	127.32
381.84	69.97
382.05	-3.75
382.261	100.69
382.471	29.01
382.681	14.68
382.891	29.01
383.101	59.73
383.311	12.63
383.521	63.83
383.731	72.02
383.941	96.6
384.151	78.16
384.361	31.06
384.571	112.98
384.781	65.88
384.991	16.73
385.201	110.93
385.411	55.64
385.621	51.54
385.831	26.96
386.041	63.83
386.251	72.02
386.461	80.21
386.671	51.54
386.881	-7.85
387.091	106.84
387.301	102.74
387.511	59.73
387.72	-1.71
387.93	61.78
388.14	82.26
388.35	80.21
388.56	108.88
388.769	14.68
388.979	45.4
389.189	96.6
389.399	59.73
389.609	67.92
389.818	-11.95
390.028	31.06
390.238	39.25
390.447	125.27
390.657	108.88
390.867	65.88
391.076	72.02
391.286	24.92
391.496	29.01
391.705	45.4
391.915	82.26
392.125	80.21
392.334	0.34
392.544	96.6
392.753	137.56
392.963	63.83
393.172	133.46
393.382	29.01
393.591	135.51
393.801	20.82
394.01	80.21
394.22	69.97
394.429	123.22
394.639	47.44
394.848	39.25
395.058	92.5
395.267	33.11
395.477	63.83
395.686	135.51
395.895	72.02
396.105	135.51
396.314	121.17
396.524	78.16
396.733	61.78
396.942	170.32
397.152	110.93
397.361	137.56
397.57	137.56
397.78	84.31
397.989	74.07
398.198	125.27
398.407	90.45
398.617	141.65
398.826	-1.71
399.035	82.26
399.244	102.74
399.453	92.5
399.663	129.36
399.872	121.17
400.081	141.65
400.29	198.99
400.499	125.27
400.708	147.8
400.917	33.11
401.127	133.46
401.336	151.89
401.545	219.47
401.754	164.18
401.963	129.36
402.172	92.5
402.381	153.94
402.59	88.4
402.799	51.54
403.008	158.03
403.217	135.51
403.426	149.84
403.635	139.6
403.844	125.27
404.053	127.32
404.262	100.69
404.471	125.27
404.68	160.08
404.888	196.95
405.097	203.09
405.306	129.36
405.515	233.81
405.724	115.03
405.933	211.28
406.142	121.17
406.35	248.15
406.559	221.52
406.768	186.71
406.977	223.57
407.185	172.37
407.394	276.82
407.603	139.6
407.812	244.05
408.02	268.63
408.229	205.14
408.438	287.06
408.646	276.82
408.855	239.95
409.064	256.34
409.272	276.82
409.481	258.39
409.69	301.39
409.898	307.54
410.107	282.96
410.315	344.4
410.524	330.06
410.733	336.21
410.941	432.46
411.15	409.94
411.358	375.12
411.567	389.46
411.775	399.7
411.984	434.51
412.192	381.26
412.401	483.66
412.609	409.94
412.818	520.53
413.026	463.18
413.234	457.04
413.443	473.42
413.651	495.95
413.86	600.4
414.068	538.96
414.276	721.23
414.485	604.49
414.693	694.6
414.901	676.17
415.11	817.48
415.318	665.93
415.526	715.08
415.734	678.22
415.943	821.58
416.151	833.86
416.359	817.48
416.567	829.77
416.776	971.08
416.984	1030.47
417.192	1014.09
417.4	1087.81
417.608	915.78
417.817	1014.09
418.025	1139.01
418.233	1141.06
418.441	1038.66
418.649	1161.54
418.857	1284.42
419.065	1198.4
419.273	1270.08
419.481	1296.71
419.689	1415.49
419.897	1446.21
420.105	1511.74
420.313	1583.42
420.521	1564.99
420.729	1773.88
420.937	1708.35
421.145	1700.16
421.353	1806.65
421.561	1976.63
421.769	1976.63
421.977	2091.32
422.185	2085.17
422.393	2167.09
422.601	2271.54
422.809	2249.01
423.017	2316.59
423.224	2515.25
423.432	2586.93
423.64	2550.06
423.848	2705.71
424.056	2738.48
424.263	2869.55
424.471	2853.16
424.679	2951.46
424.887	3060.01
425.094	3258.66
425.302	3119.4
425.51	3303.71
425.718	3455.26
425.925	3471.65
426.133	3627.29
426.341	3897.63
426.548	3959.06
426.756	3891.48
426.964	3997.98
427.171	4221.2
427.379	4342.04
427.586	4571.41
427.794	4671.76
428.001	4839.69
428.209	5015.82
428.417	4851.98
428.624	5396.74
428.832	5271.81
429.039	5212.42
429.247	5214.47
429.454	5855.48
429.662	5980.41
429.869	5589.25
430.076	6131.96
430.284	6000.89
430.491	6281.46
430.699	6680.82
430.906	6562.03
431.114	6695.15
431.321	6936.81
431.528	7016.68
431.736	7508.19
431.943	7880.93
432.15	7649.5
432.358	7837.92
432.565	8138.97
432.772	8181.98
432.979	8476.88
433.187	8589.52
433.394	8648.91
433.601	9367.75
433.808	9384.13
434.016	9302.22
434.223	9754.82
434.43	10221.75
434.637	10109.12
434.844	10649.78
435.052	10942.64
435.259	10809.52
435.466	11086
435.673	10748.08
435.88	11641
436.087	12044.45
436.294	12310.68
436.501	11911.33
436.708	12331.16
436.915	12834.96
437.122	13121.68
437.329	13283.47
437.537	13451.4
437.743	13817.99
437.95	13680.77
438.157	14397.56
438.364	15003.76
438.571	14827.64
438.778	15003.76
438.985	16373.85
439.192	15855.72
439.399	16187.49
439.606	15700.07
439.813	16838.74
440.02	17467.47
440.227	17373.26
440.433	17242.19
440.64	17883.2
440.847	17856.58
441.054	18360.38
441.261	19564.59
441.467	19157.04
441.674	19597.35
441.881	20234.27
442.088	19963.94
442.294	20064.29
442.501	20547.61
442.708	21114.9
442.914	21954.57
443.121	22425.6
443.328	22091.78
443.534	23908.33
443.741	23039.99
443.948	22552.57
444.154	24289.25
444.361	24084.45
444.568	24322.02
444.774	24569.82
444.981	24565.73
445.187	25378.77
445.394	26603.46
445.6	25966.54
445.807	28751.77
446.013	27502.51
446.22	28186.54
446.426	28739.49
446.633	29378.45
446.839	30246.79
447.046	28909.47
447.252	30646.15
447.459	31088.51
447.665	30433.16
447.871	31823.73
448.078	33118.04
448.284	31631.22
448.491	32905.06
448.697	34160.46
448.903	34705.22
449.11	34656.07
449.316	33982.29
449.522	34443.08
449.728	35481.4
449.935	35626.81
450.141	35897.14
450.347	36638.5
450.553	35718.96
450.76	36212.52
450.966	37091.1
451.172	36728.61
451.378	37627.67
451.584	36745
451.791	37799.7
451.997	37711.64
452.203	38508.3
452.409	38211.34
452.615	38022.93
452.821	36712.23
453.027	36831.01
453.233	38383.37
453.44	36986.66
453.646	37168.93
453.852	37369.63
454.058	38160.14
454.264	36730.66
454.47	37680.92
454.676	36953.89
454.882	37887.76
455.088	34791.23
455.294	35104.57
455.5	35864.37
455.705	36235.05
455.911	34744.13
456.117	33763.15
456.323	33630.04
456.529	31813.49
456.735	33152.86
456.941	32331.62
457.147	31666.03
457.352	30605.19
457.558	30594.95
457.764	30486.4
457.97	29833.1
458.176	29271.96
458.381	29585.3
458.587	27895.72
458.793	27803.57
458.999	26449.86
459.204	28313.51
459.41	27613.1
459.616	25972.68
459.821	25966.54
460.027	25677.77
460.233	25309.14
460.438	23873.51
460.644	24360.93
460.85	23179.25
461.055	22829.05
461.261	22927.35
461.466	21303.31
461.672	20727.83
461.878	22106.12
462.083	20191.27
462.289	20293.66
462.494	19685.42
462.7	19154.99
462.905	18518.07
463.111	19296.3
463.316	19050.55
463.522	18880.57
463.727	18663.48
463.932	18960.44
464.138	18645.05
464.343	18815.03
464.549	18010.18
464.754	18726.97
464.959	18399.29
465.165	18116.67
465.37	17533
465.575	16947.28
465.781	17975.36
465.986	17891.4
466.191	17217.61
466.397	16988.24
466.602	16109.66
466.807	16928.85
467.012	16728.15
467.218	16685.14
467.423	16369.76
467.628	16652.38
467.833	17217.61
