Data from USB4F104151__38__11-36-53-244.txt Node

Date: Fri Mar 14 11:36:53 EDT 2025
User: louis
Spectrometer: USB4F10415
Trigger mode: 4
Integration Time (sec): 2.000000E-2
Scans to average: 1
Electric dark correction enabled: true
Nonlinearity correction enabled: false
Boxcar width: 0
XAxis mode: Wavelengths
Number of Pixels in Spectrum: 3648
>>>>>Begin Spectral Data<<<<<
178.204	-86.87
178.424	-86.87
178.644	-86.87
178.864	-45.91
179.084	-117.59
179.304	-33.62
179.524	9.39
179.744	11.43
179.964	27.82
180.184	-43.86
180.404	-4.95
180.624	-47.96
180.844	5.29
181.064	9.39
181.283	70.83
181.503	-21.33
181.723	17.58
181.943	74.92
182.163	52.39
182.383	-4.95
182.602	-21.33
182.822	-27.48
183.042	31.91
183.262	-64.34
183.482	-19.29
183.701	-115.54
183.921	13.48
184.141	17.58
184.361	-37.72
184.58	31.91
184.8	85.16
185.02	3.24
185.239	-0.85
185.459	15.53
185.679	44.2
185.898	46.25
186.118	58.54
186.338	99.5
186.557	58.54
186.777	-13.14
186.997	-58.2
187.216	5.29
187.436	25.77
187.655	62.63
187.875	3.24
188.095	33.96
188.314	25.77
188.534	89.26
188.753	13.48
188.973	-0.85
189.192	5.29
189.412	83.11
189.631	64.68
189.851	21.67
190.07	52.39
190.29	5.29
190.509	21.67
190.729	13.48
190.948	46.25
191.168	105.64
191.387	19.63
191.607	-4.95
191.826	44.2
192.045	15.53
192.265	-41.81
192.484	21.67
192.704	9.39
192.923	36.01
193.142	60.59
193.362	23.72
193.581	33.96
193.8	38.06
194.02	109.74
194.239	33.96
194.458	23.72
194.678	38.06
194.897	68.78
195.116	-19.29
195.335	-7
195.555	54.44
195.774	5.29
195.993	38.06
196.212	-17.24
196.432	-52.05
196.651	-15.19
196.87	-52.05
197.089	60.59
197.308	48.3
197.528	1.19
197.747	-88.92
197.966	38.06
198.185	87.21
198.404	76.97
198.623	-60.24
198.842	-13.14
199.062	93.35
199.281	50.35
199.5	-23.38
199.719	58.54
199.938	-2.9
200.157	-52.05
200.376	95.4
200.595	38.06
200.814	-60.24
201.033	-27.48
201.252	9.39
201.471	-47.96
201.69	36.01
201.909	72.87
202.128	115.88
202.347	-68.44
202.566	-2.9
202.785	15.53
203.004	9.39
203.223	60.59
203.442	-23.38
203.661	29.87
203.879	15.53
204.098	-56.15
204.317	-39.76
204.536	13.48
204.755	-0.85
204.974	-31.57
205.193	21.67
205.411	62.63
205.63	60.59
205.849	1.19
206.068	36.01
206.287	50.35
206.505	9.39
206.724	13.48
206.943	-11.09
207.162	25.77
207.381	54.44
207.599	-56.15
207.818	-68.44
208.037	54.44
208.255	68.78
208.474	46.25
208.693	-39.76
208.911	-72.53
209.13	-0.85
209.349	101.55
209.567	23.72
209.786	-2.9
210.005	36.01
210.223	-2.9
210.442	-54.1
210.661	5.29
210.879	7.34
211.098	-21.33
211.316	87.21
211.535	-13.14
211.753	-2.9
211.972	60.59
212.191	13.48
212.409	111.78
212.628	46.25
212.846	29.87
213.065	-43.86
213.283	66.73
213.502	-39.76
213.72	25.77
213.938	-13.14
214.157	29.87
214.375	44.2
214.594	44.2
214.812	46.25
215.031	50.35
215.249	38.06
215.467	15.53
215.686	-9.05
215.904	81.07
216.122	-9.05
216.341	79.02
216.559	13.48
216.778	101.55
216.996	50.35
217.214	27.82
217.432	-7
217.651	-84.82
217.869	11.43
218.087	62.63
218.306	66.73
218.524	15.53
218.742	23.72
218.96	-39.76
219.179	5.29
219.397	11.43
219.615	-27.48
219.833	70.83
220.051	25.77
220.27	62.63
220.488	21.67
220.706	62.63
220.924	1.19
221.142	-39.76
221.36	-35.67
221.578	17.58
221.796	111.78
222.015	31.91
222.233	-4.95
222.451	29.87
222.669	-88.92
222.887	5.29
223.105	13.48
223.323	13.48
223.541	13.48
223.759	68.78
223.977	25.77
224.195	11.43
224.413	25.77
224.631	72.87
224.849	11.43
225.067	13.48
225.285	62.63
225.503	21.67
225.721	-11.09
225.939	-35.67
226.157	-35.67
226.375	17.58
226.592	3.24
226.81	5.29
227.028	5.29
227.246	17.58
227.464	54.44
227.682	29.87
227.9	21.67
228.117	40.11
228.335	11.43
228.553	52.39
228.771	-7
228.989	-25.43
229.206	9.39
229.424	-27.48
229.642	-7
229.86	3.24
230.077	38.06
230.295	46.25
230.513	95.4
230.731	-82.77
230.948	1.19
231.166	31.91
231.384	13.48
231.601	9.39
231.819	7.34
232.037	15.53
232.254	3.24
232.472	5.29
232.689	13.48
232.907	1.19
233.125	66.73
233.342	19.63
233.56	-19.29
233.777	29.87
233.995	-13.14
234.213	21.67
234.43	-29.52
234.648	31.91
234.865	58.54
235.083	36.01
235.3	-13.14
235.518	66.73
235.735	29.87
235.953	-17.24
236.17	29.87
236.388	9.39
236.605	70.83
236.822	91.31
237.04	42.15
237.257	119.98
237.475	1.19
237.692	-4.95
237.909	52.39
238.127	-45.91
238.344	38.06
238.562	-11.09
238.779	42.15
238.996	21.67
239.214	13.48
239.431	113.83
239.648	-2.9
239.865	38.06
240.083	-7
240.3	50.35
240.517	54.44
240.735	36.01
240.952	62.63
241.169	70.83
241.386	-7
241.603	25.77
241.821	-47.96
242.038	40.11
242.255	99.5
242.472	9.39
242.689	-19.29
242.907	48.3
243.124	25.77
243.341	-19.29
243.558	17.58
243.775	-45.91
243.992	9.39
244.209	58.54
244.426	70.83
244.643	54.44
244.86	36.01
245.078	52.39
245.295	13.48
245.512	-52.05
245.729	-52.05
245.946	-4.95
246.163	-31.57
246.38	5.29
246.597	70.83
246.814	-17.24
247.031	27.82
247.248	7.34
247.464	66.73
247.681	-9.05
247.898	62.63
248.115	66.73
248.332	44.2
248.549	-7
248.766	29.87
248.983	-9.05
249.2	25.77
249.417	7.34
249.633	29.87
249.85	33.96
250.067	-39.76
250.284	-4.95
250.501	42.15
250.717	36.01
250.934	-19.29
251.151	56.49
251.368	36.01
251.585	103.59
251.801	17.58
252.018	-29.52
252.235	13.48
252.451	105.64
252.668	-54.1
252.885	21.67
253.102	60.59
253.318	-4.95
253.535	-21.33
253.752	62.63
253.968	33.96
254.185	-72.53
254.401	58.54
254.618	60.59
254.835	-29.52
255.051	46.25
255.268	-0.85
255.484	21.67
255.701	11.43
255.917	40.11
256.134	5.29
256.351	-31.57
256.567	-2.9
256.784	36.01
257	-90.96
257.217	25.77
257.433	3.24
257.65	-21.33
257.866	25.77
258.082	33.96
258.299	29.87
258.515	-21.33
258.732	-0.85
258.948	-45.91
259.165	50.35
259.381	-21.33
259.597	7.34
259.814	95.4
260.03	36.01
260.246	95.4
260.463	85.16
260.679	15.53
260.895	-43.86
261.112	13.48
261.328	29.87
261.544	-62.29
261.761	62.63
261.977	-4.95
262.193	27.82
262.409	58.54
262.626	-0.85
262.842	19.63
263.058	81.07
263.274	29.87
263.49	-11.09
263.707	50.35
263.923	23.72
264.139	-41.81
264.355	52.39
264.571	23.72
264.787	29.87
265.004	-19.29
265.22	7.34
265.436	36.01
265.652	-9.05
265.868	48.3
266.084	60.59
266.3	13.48
266.516	25.77
266.732	-4.95
266.948	56.49
267.164	36.01
267.38	13.48
267.596	46.25
267.812	31.91
268.028	-7
268.244	7.34
268.46	-37.72
268.676	-15.19
268.892	-2.9
269.108	21.67
269.324	-31.57
269.54	40.11
269.756	-7
269.972	-0.85
270.188	89.26
270.403	7.34
270.619	3.24
270.835	21.67
271.051	-7
271.267	17.58
271.483	-2.9
271.698	66.73
271.914	-45.91
272.13	-31.57
272.346	50.35
272.562	76.97
272.777	62.63
272.993	54.44
273.209	-17.24
273.425	5.29
273.64	5.29
273.856	11.43
274.072	17.58
274.287	-23.38
274.503	7.34
274.719	36.01
274.934	95.4
275.15	-43.86
275.366	21.67
275.581	40.11
275.797	68.78
276.012	58.54
276.228	52.39
276.444	33.96
276.659	60.59
276.875	-27.48
277.09	11.43
277.306	46.25
277.521	40.11
277.737	-2.9
277.952	91.31
278.168	-35.67
278.383	-31.57
278.599	-33.62
278.814	21.67
279.03	62.63
279.245	46.25
279.461	66.73
279.676	11.43
279.892	21.67
280.107	-21.33
280.322	-23.38
280.538	46.25
280.753	-25.43
280.969	85.16
281.184	-2.9
281.399	62.63
281.615	38.06
281.83	5.29
282.045	33.96
282.26	40.11
282.476	19.63
282.691	-11.09
282.906	-37.72
283.122	15.53
283.337	76.97
283.552	89.26
283.767	-11.09
283.983	99.5
284.198	-13.14
284.413	76.97
284.628	-52.05
284.843	64.68
285.058	-76.63
285.274	93.35
285.489	17.58
285.704	40.11
285.919	-4.95
286.134	38.06
286.349	46.25
286.564	-4.95
286.779	36.01
286.995	-45.91
287.21	25.77
287.425	3.24
287.64	-45.91
287.855	-9.05
288.07	25.77
288.285	-4.95
288.5	25.77
288.715	11.43
288.93	27.82
289.145	36.01
289.36	29.87
289.575	9.39
289.79	31.91
290.004	19.63
290.219	85.16
290.434	23.72
290.649	-54.1
290.864	7.34
291.079	48.3
291.294	38.06
291.509	44.2
291.724	21.67
291.938	58.54
292.153	66.73
292.368	-86.87
292.583	42.15
292.798	27.82
293.012	54.44
293.227	48.3
293.442	25.77
293.657	5.29
293.871	62.63
294.086	60.59
294.301	79.02
294.516	95.4
294.73	-2.9
294.945	5.29
295.16	66.73
295.374	21.67
295.589	70.83
295.804	-39.76
296.018	54.44
296.233	68.78
296.447	64.68
296.662	11.43
296.877	119.98
297.091	33.96
297.306	85.16
297.52	-72.53
297.735	-23.38
297.949	-13.14
298.164	74.92
298.378	-17.24
298.593	29.87
298.807	-101.2
299.022	48.3
299.236	19.63
299.451	54.44
299.665	21.67
299.88	85.16
300.094	-39.76
300.309	9.39
300.523	36.01
300.737	19.63
300.952	-11.09
301.166	85.16
301.381	-25.43
301.595	7.34
301.809	50.35
302.024	38.06
302.238	-13.14
302.452	21.67
302.667	46.25
302.881	76.97
303.095	-13.14
303.309	42.15
303.524	-13.14
303.738	33.96
303.952	40.11
304.166	54.44
304.381	-15.19
304.595	48.3
304.809	60.59
305.023	76.97
305.237	-27.48
305.452	-11.09
305.666	13.48
305.88	29.87
306.094	52.39
306.308	68.78
306.522	58.54
306.736	48.3
306.95	1.19
307.164	-35.67
307.379	13.48
307.593	19.63
307.807	36.01
308.021	36.01
308.235	50.35
308.449	-35.67
308.663	-21.33
308.877	44.2
309.091	105.64
309.305	42.15
309.519	-2.9
309.733	1.19
309.947	-19.29
310.161	42.15
310.374	1.19
310.588	87.21
310.802	-29.52
311.016	62.63
311.23	42.15
311.444	81.07
311.658	46.25
311.872	-2.9
312.085	48.3
312.299	25.77
312.513	58.54
312.727	60.59
312.941	29.87
313.154	52.39
313.368	9.39
313.582	13.48
313.796	31.91
314.009	64.68
314.223	93.35
314.437	40.11
314.651	19.63
314.864	9.39
315.078	87.21
315.292	1.19
315.505	-35.67
315.719	72.87
315.933	-23.38
316.146	-9.05
316.36	-50
316.573	64.68
316.787	33.96
317.001	54.44
317.214	36.01
317.428	-4.95
317.641	40.11
317.855	101.55
318.068	-31.57
318.282	79.02
318.495	9.39
318.709	70.83
318.922	36.01
319.136	105.64
319.349	66.73
319.563	50.35
319.776	87.21
319.99	-41.81
320.203	25.77
320.417	25.77
320.63	11.43
320.843	15.53
321.057	72.87
321.27	13.48
321.483	46.25
321.697	54.44
321.91	-33.62
322.124	42.15
322.337	54.44
322.55	105.64
322.763	58.54
322.977	58.54
323.19	-31.57
323.403	-19.29
323.617	-0.85
323.83	-0.85
324.043	70.83
324.256	91.31
324.469	-19.29
324.683	25.77
324.896	15.53
325.109	21.67
325.322	27.82
325.535	66.73
325.748	52.39
325.962	9.39
326.175	21.67
326.388	85.16
326.601	9.39
326.814	70.83
327.027	40.11
327.24	60.59
327.453	-62.29
327.666	52.39
327.879	81.07
328.092	38.06
328.305	44.2
328.518	9.39
328.731	52.39
328.944	-15.19
329.157	111.78
329.37	29.87
329.583	124.07
329.796	48.3
330.009	27.82
330.222	68.78
330.435	27.82
330.648	40.11
330.861	42.15
331.073	101.55
331.286	36.01
331.499	-13.14
331.712	66.73
331.925	95.4
332.138	46.25
332.35	44.2
332.563	27.82
332.776	29.87
332.989	56.49
333.202	19.63
333.414	66.73
333.627	70.83
333.84	68.78
334.053	-9.05
334.265	85.16
334.478	36.01
334.691	60.59
334.903	25.77
335.116	66.73
335.329	-7
335.541	19.63
335.754	-9.05
335.966	44.2
336.179	70.83
336.392	25.77
336.604	54.44
336.817	60.59
337.029	87.21
337.242	74.92
337.454	58.54
337.667	76.97
337.88	66.73
338.092	29.87
338.305	50.35
338.517	-43.86
338.729	29.87
338.942	91.31
339.154	21.67
339.367	-2.9
339.579	52.39
339.792	-21.33
340.004	62.63
340.217	66.73
340.429	70.83
340.641	23.72
340.854	42.15
341.066	117.93
341.278	50.35
341.491	33.96
341.703	93.35
341.915	9.39
342.128	103.59
342.34	81.07
342.552	23.72
342.764	7.34
342.977	93.35
343.189	58.54
343.401	17.58
343.613	52.39
343.826	27.82
344.038	-4.95
344.25	72.87
344.462	9.39
344.674	-19.29
344.886	44.2
345.099	101.55
345.311	93.35
345.523	-17.24
345.735	54.44
345.947	142.5
346.159	50.35
346.371	93.35
346.583	68.78
346.795	64.68
347.007	19.63
347.219	103.59
347.431	111.78
347.643	54.44
347.855	5.29
348.067	23.72
348.279	-11.09
348.491	3.24
348.703	111.78
348.915	25.77
349.127	58.54
349.339	38.06
349.551	38.06
349.763	111.78
349.975	56.49
350.187	83.11
350.399	33.96
350.61	46.25
350.822	11.43
351.034	31.91
351.246	33.96
351.458	38.06
351.669	3.24
351.881	19.63
352.093	44.2
352.305	124.07
352.517	23.72
352.728	81.07
352.94	54.44
353.152	103.59
353.363	38.06
353.575	9.39
353.787	93.35
353.999	58.54
354.21	91.31
354.422	13.48
354.633	1.19
354.845	74.92
355.057	46.25
355.268	27.82
355.48	29.87
355.692	66.73
355.903	-2.9
356.115	54.44
356.326	87.21
356.538	85.16
356.749	-25.43
356.961	48.3
357.172	17.58
357.384	70.83
357.595	70.83
357.807	17.58
358.018	70.83
358.23	54.44
358.441	5.29
358.653	56.49
358.864	21.67
359.075	72.87
359.287	93.35
359.498	31.91
359.709	33.96
359.921	56.49
360.132	31.91
360.344	89.26
360.555	-9.05
360.766	21.67
360.977	-11.09
361.189	38.06
361.4	-7
361.611	93.35
361.823	72.87
362.034	62.63
362.245	66.73
362.456	62.63
362.667	13.48
362.879	-33.62
363.09	122.02
363.301	68.78
363.512	25.77
363.723	42.15
363.935	11.43
364.146	72.87
364.357	74.92
364.568	5.29
364.779	44.2
364.99	101.55
365.201	21.67
365.412	-2.9
365.623	31.91
365.834	105.64
366.045	48.3
366.256	-54.1
366.467	-19.29
366.678	7.34
366.889	148.65
367.1	52.39
367.311	72.87
367.522	50.35
367.733	83.11
367.944	38.06
368.155	-0.85
368.366	124.07
368.577	25.77
368.788	13.48
368.999	70.83
369.209	83.11
369.42	50.35
369.631	66.73
369.842	9.39
370.053	-23.38
370.264	50.35
370.474	66.73
370.685	38.06
370.896	1.19
371.107	95.4
371.317	48.3
371.528	74.92
371.739	66.73
371.95	15.53
372.16	66.73
372.371	70.83
372.582	-4.95
372.792	50.35
373.003	-21.33
373.214	15.53
373.424	64.68
373.635	19.63
373.846	113.83
374.056	50.35
374.267	105.64
374.477	25.77
374.688	50.35
374.898	11.43
375.109	46.25
375.319	15.53
375.53	87.21
375.74	52.39
375.951	48.3
376.161	25.77
376.372	113.83
376.582	85.16
376.793	50.35
377.003	46.25
377.214	95.4
377.424	9.39
377.635	60.59
377.845	42.15
378.055	70.83
378.266	5.29
378.476	79.02
378.686	66.73
378.897	93.35
379.107	152.74
379.317	113.83
379.528	62.63
379.738	105.64
379.948	79.02
380.158	-4.95
380.369	-11.09
380.579	52.39
380.789	1.19
380.999	72.87
381.21	64.68
381.42	107.69
381.63	54.44
381.84	25.77
382.05	42.15
382.261	23.72
382.471	128.17
382.681	40.11
382.891	-9.05
383.101	68.78
383.311	-4.95
383.521	60.59
383.731	60.59
383.941	83.11
384.151	62.63
384.361	40.11
384.571	-4.95
384.781	58.54
384.991	85.16
385.201	50.35
385.411	46.25
385.621	42.15
385.831	119.98
386.041	66.73
386.251	25.77
386.461	72.87
386.671	46.25
386.881	60.59
387.091	-21.33
387.301	58.54
387.511	79.02
387.72	68.78
387.93	85.16
388.14	66.73
388.35	66.73
388.56	132.26
388.769	103.59
388.979	169.13
389.189	60.59
389.399	17.58
389.609	38.06
389.818	60.59
390.028	79.02
390.238	29.87
390.447	17.58
390.657	72.87
390.867	9.39
391.076	23.72
391.286	36.01
391.496	27.82
391.705	93.35
391.915	115.88
392.125	117.93
392.334	70.83
392.544	115.88
392.753	33.96
392.963	50.35
393.172	36.01
393.382	87.21
393.591	117.93
393.801	95.4
394.01	33.96
394.22	107.69
394.429	183.46
394.639	103.59
394.848	74.92
395.058	25.77
395.267	42.15
395.477	68.78
395.686	91.31
395.895	54.44
396.105	136.36
396.314	70.83
396.524	95.4
396.733	40.11
396.942	99.5
397.152	66.73
397.361	244.9
397.57	107.69
397.78	134.31
397.989	140.46
398.198	189.61
398.407	52.39
398.617	62.63
398.826	81.07
399.035	169.13
399.244	83.11
399.453	109.74
399.663	154.79
399.872	81.07
400.081	40.11
400.29	152.74
400.499	74.92
400.708	134.31
400.917	132.26
401.127	117.93
401.336	144.55
401.545	144.55
401.754	160.94
401.963	148.65
402.172	95.4
402.381	138.41
402.59	115.88
402.799	154.79
403.008	91.31
403.217	171.18
403.426	169.13
403.635	189.61
403.844	130.22
404.053	158.89
404.262	160.94
404.471	179.37
404.68	193.7
404.888	152.74
405.097	152.74
405.306	218.28
405.515	124.07
405.724	208.04
405.933	142.5
406.142	224.42
406.35	238.76
406.559	169.13
406.768	165.03
406.977	212.14
407.185	216.23
407.394	193.7
407.603	179.37
407.812	246.95
408.02	273.57
408.229	255.14
408.438	242.85
408.646	253.09
408.855	210.09
409.064	347.3
409.272	244.9
409.481	384.16
409.69	283.81
409.898	341.16
410.107	289.96
410.315	306.34
410.524	316.58
410.733	371.88
410.941	341.16
411.15	461.99
411.358	437.41
411.567	476.32
411.775	390.31
411.984	468.13
412.192	443.56
412.401	525.47
412.609	455.84
412.818	582.82
413.026	627.87
413.234	543.91
413.443	619.68
413.651	591.01
413.86	642.21
414.068	636.06
414.276	672.93
414.485	648.35
414.693	683.17
414.901	791.71
415.11	738.46
415.318	756.9
415.526	801.95
415.734	873.63
415.943	926.88
416.151	779.42
416.359	904.35
416.567	922.78
416.776	969.88
416.984	1033.37
417.192	1135.77
417.4	1076.38
417.608	1127.58
417.817	1186.97
418.025	1166.49
418.233	1203.35
418.441	1178.78
418.649	1311.89
418.857	1496.21
419.065	1406.1
419.273	1508.5
419.481	1451.16
419.689	1588.37
419.897	1827.98
420.105	1678.48
420.313	1846.41
420.521	1799.31
420.729	1893.52
420.937	1856.65
421.145	1922.19
421.353	1907.85
421.561	2069.64
421.769	2165.9
421.977	2354.31
422.185	2391.17
422.393	2378.89
422.601	2647.17
422.809	2534.53
423.017	2587.78
423.224	2675.84
423.432	2712.71
423.64	2892.93
423.848	2999.42
424.056	3036.28
424.263	3216.51
424.471	3153.02
424.679	3261.56
424.887	3343.48
425.094	3523.7
425.302	3476.6
425.51	3595.38
425.718	3822.7
425.925	3894.38
426.133	4043.88
426.341	4287.59
426.548	4402.28
426.756	4422.76
426.964	4453.48
427.171	4637.8
427.379	4908.13
427.586	4942.94
427.794	5080.16
428.001	5418.07
428.209	5616.72
428.417	5280.86
428.624	5893.2
428.832	5829.71
429.039	5768.27
429.247	5778.51
429.454	6534.21
429.662	6872.13
429.869	6237.26
430.076	6886.47
430.284	6511.69
430.491	6829.12
430.699	7316.54
430.906	7392.31
431.114	7427.13
431.321	7603.25
431.528	7709.75
431.736	8121.39
431.943	8662.05
432.15	8352.81
432.358	8461.35
432.565	9110.56
432.772	8907.81
432.979	9384.99
433.187	9561.11
433.394	9827.35
433.601	10325.01
433.808	10206.22
434.016	10218.51
434.223	10822.66
434.43	11541.5
434.637	11154.43
434.844	11852.79
435.052	11985.91
435.259	12080.11
435.466	12159.99
435.673	12321.77
435.88	12755.94
436.087	13267.94
436.294	13566.94
436.501	13020.13
436.708	13519.84
436.915	13949.91
437.122	14492.62
437.329	14236.63
437.537	14869.45
437.743	15064
437.95	15025.09
438.157	15786.94
438.364	16393.14
438.571	16475.06
438.778	16423.86
438.985	17927.07
439.192	17111.97
439.399	17693.6
439.606	17216.42
439.813	18527.12
440.02	19542.91
440.227	19272.58
440.433	19096.46
440.64	19331.97
440.847	19538.82
441.054	19958.65
441.261	21080.94
441.467	21134.18
441.674	21492.58
441.881	22023
442.088	22610.77
442.294	21793.63
442.501	22631.25
442.708	23200.58
442.914	23765.82
443.121	24965.93
443.328	24419.13
443.534	25836.32
443.741	25187.11
443.948	25183.02
444.154	26745.62
444.361	26317.59
444.568	26776.34
444.774	26891.02
444.981	27063.05
445.187	27974.4
445.394	29321.96
445.6	28558.07
445.807	31382.22
446.013	29971.17
446.22	30659.29
446.426	31501
446.633	32369.34
446.839	33493.68
447.046	31808.2
447.252	33815.21
447.459	33671.85
447.665	33446.57
447.871	35121.81
448.078	36516.48
448.284	34962.07
448.491	35850.89
448.697	37202.55
448.903	37870.18
449.11	37874.28
449.316	37210.74
449.522	37954.15
449.728	39338.58
449.935	39314
450.141	39230.04
450.347	39969.35
450.553	38636.13
450.76	39111.25
450.966	40456.77
451.172	40206.92
451.378	41245.24
451.584	40575.55
451.791	41384.5
451.997	41417.27
452.203	42437.16
452.409	42058.28
452.615	41591.34
452.821	40143.43
453.027	39707.21
453.233	41769.52
453.44	40360.51
453.646	40573.5
453.852	41003.58
454.058	41968.17
454.264	40473.15
454.47	41194.04
454.676	40155.72
454.882	41746.99
455.088	38003.3
455.294	38773.34
455.5	39529.04
455.705	39463.5
455.911	37849.71
456.117	37325.43
456.323	36536.96
456.529	34701.98
456.735	36244.1
456.941	35312.27
457.147	34806.42
457.352	33940.13
457.558	33680.04
457.764	33458.86
457.97	32893.62
458.176	32072.39
458.381	32326.33
458.587	30548.7
458.793	30864.08
458.999	28932.85
459.204	30937.81
459.41	30184.16
459.616	28343.03
459.821	28672.76
460.027	28500.73
460.233	27693.83
460.438	26245.91
460.644	26606.36
460.85	25172.78
461.055	25193.26
461.261	25029.42
461.466	23106.38
461.672	22168.41
461.878	24167.23
462.083	22195.03
462.289	21994.33
462.494	21703.52
462.7	20988.78
462.905	20157.3
463.111	20679.54
463.316	21076.84
463.522	20720.49
463.727	20716.4
463.932	20544.37
464.138	20370.29
464.343	20591.47
464.549	19512.19
464.754	20415.35
464.959	20065.14
465.165	20374.39
465.37	19192.71
465.575	18666.38
465.781	19628.93
465.986	19592.06
466.191	18953.1
466.397	18457.49
466.602	17578.91
466.807	18662.29
467.012	18174.87
467.218	18049.94
467.423	17992.6
467.628	18017.18
