Data from USB4F104151__34__11-36-48-645.txt Node

Date: Fri Mar 14 11:36:48 EDT 2025
User: louis
Spectrometer: USB4F10415
Trigger mode: 4
Integration Time (sec): 2.000000E-2
Scans to average: 1
Electric dark correction enabled: true
Nonlinearity correction enabled: false
Boxcar width: 0
XAxis mode: Wavelengths
Number of Pixels in Spectrum: 3648
>>>>>Begin Spectral Data<<<<<
178.204	-104.62
178.424	-104.62
178.644	-104.62
178.864	-145.58
179.084	-77.99
179.304	-61.61
179.524	-4.27
179.744	3.93
179.964	71.51
180.184	-28.84
180.404	44.88
180.624	24.4
180.844	-39.08
181.064	-41.13
181.283	5.97
181.503	1.88
181.723	22.36
181.943	-41.13
182.163	10.07
182.383	-32.94
182.602	-34.99
182.822	-0.17
183.042	-12.46
183.262	-22.7
183.482	-12.46
183.701	3.93
183.921	20.31
184.141	36.69
184.361	32.6
184.58	18.26
184.8	-30.89
185.02	20.31
185.239	61.27
185.459	-0.17
185.679	-10.41
185.898	-94.38
186.118	3.93
186.338	46.93
186.557	-49.32
186.777	-41.13
186.997	-20.65
187.216	-69.8
187.436	-12.46
187.655	-24.75
187.875	55.12
188.095	67.41
188.314	14.17
188.534	48.98
188.753	-59.56
188.973	12.12
189.192	-6.31
189.412	-45.23
189.631	-59.56
189.851	-20.65
190.07	73.56
190.29	-43.18
190.509	20.31
190.729	-8.36
190.948	24.4
191.168	48.98
191.387	51.03
191.607	-24.75
191.826	16.21
192.045	14.17
192.265	71.51
192.484	32.6
192.704	48.98
192.923	44.88
193.142	-10.41
193.362	-6.31
193.581	30.55
193.8	24.4
194.02	-2.22
194.239	22.36
194.458	1.88
194.678	-8.36
194.897	57.17
195.116	22.36
195.335	61.27
195.555	-61.61
195.774	-32.94
195.993	-18.6
196.212	24.4
196.432	14.17
196.651	57.17
196.87	8.02
197.089	24.4
197.308	32.6
197.528	1.88
197.747	-30.89
197.966	96.08
198.185	55.12
198.404	-24.75
198.623	-45.23
198.842	59.22
199.062	3.93
199.281	67.41
199.5	-32.94
199.719	28.5
199.938	-28.84
200.157	-43.18
200.376	-6.31
200.595	32.6
200.814	44.88
201.033	26.45
201.252	-4.27
201.471	8.02
201.69	69.46
201.909	55.12
202.128	8.02
202.347	36.69
202.566	-0.17
202.785	-6.31
203.004	3.93
203.223	61.27
203.442	-2.22
203.661	20.31
203.879	-34.99
204.098	135
204.317	22.36
204.536	-4.27
204.755	75.6
204.974	-4.27
205.193	14.17
205.411	128.85
205.63	1.88
205.849	-4.27
206.068	-2.22
206.287	-10.41
206.505	12.12
206.724	-4.27
206.943	-18.6
207.162	24.4
207.381	42.84
207.599	18.26
207.818	40.79
208.037	32.6
208.255	40.79
208.474	-47.27
208.693	1.88
208.911	-53.42
209.13	12.12
209.349	38.74
209.567	51.03
209.786	69.46
210.005	63.32
210.223	10.07
210.442	-65.71
210.661	1.88
210.879	-16.55
211.098	46.93
211.316	26.45
211.535	96.08
211.753	48.98
211.972	38.74
212.191	36.69
212.409	14.17
212.628	-30.89
212.846	59.22
213.065	46.93
213.283	-12.46
213.502	-24.75
213.72	38.74
213.938	-34.99
214.157	38.74
214.375	16.21
214.594	40.79
214.812	14.17
215.031	65.36
215.249	-8.36
215.467	16.21
215.686	22.36
215.904	-8.36
216.122	20.31
216.341	63.32
216.559	22.36
216.778	61.27
216.996	44.88
217.214	-39.08
217.432	69.46
217.651	-34.99
217.869	-2.22
218.087	51.03
218.306	5.97
218.524	16.21
218.742	57.17
218.96	8.02
219.179	12.12
219.397	16.21
219.615	48.98
219.833	3.93
220.051	-0.17
220.27	-16.55
220.488	12.12
220.706	32.6
220.924	40.79
221.142	-39.08
221.36	96.08
221.578	1.88
221.796	-12.46
222.015	34.64
222.233	-41.13
222.451	55.12
222.669	-41.13
222.887	38.74
223.105	14.17
223.323	53.08
223.541	5.97
223.759	96.08
223.977	-0.17
224.195	98.13
224.413	-0.17
224.631	22.36
224.849	81.75
225.067	-0.17
225.285	48.98
225.503	61.27
225.721	3.93
225.939	-28.84
226.157	20.31
226.375	26.45
226.592	-0.17
226.81	12.12
227.028	18.26
227.246	20.31
227.464	10.07
227.682	-8.36
227.9	61.27
228.117	67.41
228.335	-43.18
228.553	-37.03
228.771	24.4
228.989	40.79
229.206	12.12
229.424	-4.27
229.642	87.89
229.86	85.84
230.077	-16.55
230.295	-8.36
230.513	20.31
230.731	-0.17
230.948	32.6
231.166	-20.65
231.384	-4.27
231.601	61.27
231.819	-20.65
232.037	24.4
232.254	-26.79
232.472	-12.46
232.689	20.31
232.907	36.69
233.125	44.88
233.342	38.74
233.56	-26.79
233.777	1.88
233.995	30.55
234.213	12.12
234.43	8.02
234.648	-2.22
234.865	-6.31
235.083	77.65
235.3	94.04
235.518	69.46
235.735	46.93
235.953	57.17
236.17	-22.7
236.388	-22.7
236.605	-4.27
236.822	-55.47
237.04	-24.75
237.257	-43.18
237.475	163.67
237.692	20.31
237.909	83.8
238.127	-18.6
238.344	-10.41
238.562	77.65
238.779	-12.46
238.996	63.32
239.214	8.02
239.431	30.55
239.648	24.4
239.865	46.93
240.083	40.79
240.3	38.74
240.517	18.26
240.735	-10.41
240.952	-12.46
241.169	69.46
241.386	24.4
241.603	32.6
241.821	20.31
242.038	65.36
242.255	8.02
242.472	-2.22
242.689	20.31
242.907	77.65
243.124	5.97
243.341	8.02
243.558	-8.36
243.775	40.79
243.992	-30.89
244.209	-20.65
244.426	81.75
244.643	-37.03
244.86	40.79
245.078	124.76
245.295	22.36
245.512	32.6
245.729	5.97
245.946	30.55
246.163	38.74
246.38	36.69
246.597	40.79
246.814	22.36
247.031	57.17
247.248	-28.84
247.464	55.12
247.681	59.22
247.898	-4.27
248.115	32.6
248.332	-57.51
248.549	40.79
248.766	-0.17
248.983	20.31
249.2	40.79
249.417	53.08
249.633	-12.46
249.85	63.32
250.067	83.8
250.284	-22.7
250.501	81.75
250.717	77.65
250.934	-16.55
251.151	46.93
251.368	44.88
251.585	30.55
251.801	36.69
252.018	-43.18
252.235	32.6
252.451	-94.38
252.668	85.84
252.885	10.07
253.102	-8.36
253.318	-2.22
253.535	-0.17
253.752	26.45
253.968	-10.41
254.185	-57.51
254.401	-24.75
254.618	53.08
254.835	30.55
255.051	51.03
255.268	-14.51
255.484	-32.94
255.701	-8.36
255.917	18.26
256.134	46.93
256.351	28.5
256.567	-53.42
256.784	-26.79
257	-55.47
257.217	100.18
257.433	-2.22
257.65	8.02
257.866	87.89
258.082	-14.51
258.299	48.98
258.515	-0.17
258.732	-16.55
258.948	-16.55
259.165	55.12
259.381	44.88
259.597	42.84
259.814	71.51
260.03	26.45
260.246	-2.22
260.463	-43.18
260.679	32.6
260.895	-14.51
261.112	36.69
261.328	-73.9
261.544	-10.41
261.761	28.5
261.977	-37.03
262.193	-24.75
262.409	112.47
262.626	-92.33
262.842	-34.99
263.058	-86.19
263.274	-49.32
263.49	-18.6
263.707	-22.7
263.923	-61.61
264.139	10.07
264.355	24.4
264.571	24.4
264.787	65.36
265.004	48.98
265.22	63.32
265.436	14.17
265.652	10.07
265.868	-24.75
266.084	30.55
266.3	-26.79
266.516	-16.55
266.732	55.12
266.948	1.88
267.164	77.65
267.38	-20.65
267.596	-10.41
267.812	104.28
268.028	8.02
268.244	-10.41
268.46	-8.36
268.676	12.12
268.892	-34.99
269.108	34.64
269.324	-2.22
269.54	-8.36
269.756	89.94
269.972	12.12
270.188	67.41
270.403	-34.99
270.619	16.21
270.835	67.41
271.051	22.36
271.267	-2.22
271.483	5.97
271.698	28.5
271.914	-6.31
272.13	73.56
272.346	12.12
272.562	44.88
272.777	30.55
272.993	73.56
273.209	24.4
273.425	42.84
273.64	-16.55
273.856	20.31
274.072	-12.46
274.287	26.45
274.503	-65.71
274.719	40.79
274.934	55.12
275.15	5.97
275.366	-2.22
275.581	38.74
275.797	59.22
276.012	32.6
276.228	-12.46
276.444	-22.7
276.659	40.79
276.875	-10.41
277.09	36.69
277.306	28.5
277.521	34.64
277.737	-22.7
277.952	-45.23
278.168	57.17
278.383	16.21
278.599	22.36
278.814	48.98
279.03	-8.36
279.245	30.55
279.461	22.36
279.676	32.6
279.892	-57.51
280.107	16.21
280.322	3.93
280.538	1.88
280.753	-10.41
280.969	3.93
281.184	46.93
281.399	44.88
281.615	53.08
281.83	59.22
282.045	1.88
282.26	-24.75
282.476	38.74
282.691	59.22
282.906	26.45
283.122	-43.18
283.337	-26.79
283.552	1.88
283.767	-2.22
283.983	42.84
284.198	-100.52
284.413	40.79
284.628	-57.51
284.843	18.26
285.058	-26.79
285.274	-6.31
285.489	32.6
285.704	-26.79
285.919	81.75
286.134	-53.42
286.349	-16.55
286.564	-6.31
286.779	1.88
286.995	-4.27
287.21	5.97
287.425	-4.27
287.64	63.32
287.855	51.03
288.07	28.5
288.285	40.79
288.5	22.36
288.715	22.36
288.93	18.26
289.145	26.45
289.36	61.27
289.575	-14.51
289.79	5.97
290.004	65.36
290.219	42.84
290.434	8.02
290.649	-49.32
290.864	65.36
291.079	20.31
291.294	-20.65
291.509	-28.84
291.724	-28.84
291.938	36.69
292.153	-51.37
292.368	40.79
292.583	24.4
292.798	10.07
293.012	24.4
293.227	-18.6
293.442	44.88
293.657	-8.36
293.871	26.45
294.086	8.02
294.301	44.88
294.516	57.17
294.73	55.12
294.945	48.98
295.16	18.26
295.374	57.17
295.589	-4.27
295.804	-18.6
296.018	1.88
296.233	8.02
296.447	-12.46
296.662	5.97
296.877	61.27
297.091	-14.51
297.306	73.56
297.52	5.97
297.735	26.45
297.949	16.21
298.164	5.97
298.378	-32.94
298.593	-18.6
298.807	12.12
299.022	69.46
299.236	-12.46
299.451	40.79
299.665	32.6
299.88	32.6
300.094	73.56
300.309	42.84
300.523	36.69
300.737	-10.41
300.952	61.27
301.166	40.79
301.381	-10.41
301.595	8.02
301.809	57.17
302.024	-2.22
302.238	-0.17
302.452	40.79
302.667	-6.31
302.881	48.98
303.095	57.17
303.309	5.97
303.524	100.18
303.738	48.98
303.952	44.88
304.166	34.64
304.381	-37.03
304.595	110.42
304.809	65.36
305.023	-2.22
305.237	-75.95
305.452	12.12
305.666	55.12
305.88	-51.37
306.094	28.5
306.308	3.93
306.522	61.27
306.736	28.5
306.95	-16.55
307.164	12.12
307.379	30.55
307.593	63.32
307.807	20.31
308.021	38.74
308.235	81.75
308.449	26.45
308.663	24.4
308.877	57.17
309.091	-0.17
309.305	-24.75
309.519	32.6
309.733	40.79
309.947	-28.84
310.161	8.02
310.374	57.17
310.588	69.46
310.802	79.7
311.016	-12.46
311.23	-16.55
311.444	14.17
311.658	24.4
311.872	65.36
312.085	-18.6
312.299	-39.08
312.513	12.12
312.727	-4.27
312.941	8.02
313.154	112.47
313.368	44.88
313.582	20.31
313.796	24.4
314.009	28.5
314.223	12.12
314.437	24.4
314.651	-14.51
314.864	81.75
315.078	-0.17
315.292	-43.18
315.505	-34.99
315.719	5.97
315.933	3.93
316.146	42.84
316.36	-32.94
316.573	10.07
316.787	5.97
317.001	71.51
317.214	32.6
317.428	26.45
317.641	-24.75
317.855	38.74
318.068	-22.7
318.282	32.6
318.495	-8.36
318.709	69.46
318.922	10.07
319.136	28.5
319.349	91.99
319.563	55.12
319.776	-16.55
319.99	-8.36
320.203	14.17
320.417	63.32
320.63	81.75
320.843	163.67
321.057	-4.27
321.27	28.5
321.483	8.02
321.697	67.41
321.91	65.36
322.124	-28.84
322.337	114.52
322.55	87.89
322.763	46.93
322.977	63.32
323.19	-26.79
323.403	28.5
323.617	12.12
323.83	8.02
324.043	8.02
324.256	32.6
324.469	12.12
324.683	67.41
324.896	36.69
325.109	53.08
325.322	24.4
325.535	3.93
325.748	16.21
325.962	63.32
326.175	5.97
326.388	65.36
326.601	34.64
326.814	-16.55
327.027	34.64
327.24	73.56
327.453	-47.27
327.666	55.12
327.879	8.02
328.092	87.89
328.305	85.84
328.518	16.21
328.731	59.22
328.944	75.6
329.157	-2.22
329.37	3.93
329.583	61.27
329.796	98.13
330.009	16.21
330.222	40.79
330.435	32.6
330.648	-18.6
330.861	20.31
331.073	40.79
331.286	20.31
331.499	44.88
331.712	-57.51
331.925	57.17
332.138	-12.46
332.35	53.08
332.563	-41.13
332.776	77.65
332.989	-0.17
333.202	1.88
333.414	14.17
333.627	61.27
333.84	-16.55
334.053	-24.75
334.265	-43.18
334.478	3.93
334.691	-55.47
334.903	73.56
335.116	16.21
335.329	67.41
335.541	83.8
335.754	-26.79
335.966	-16.55
336.179	14.17
336.392	69.46
336.604	30.55
336.817	46.93
337.029	10.07
337.242	8.02
337.454	16.21
337.667	40.79
337.88	38.74
338.092	55.12
338.305	30.55
338.517	8.02
338.729	83.8
338.942	34.64
339.154	32.6
339.367	-0.17
339.579	-0.17
339.792	-6.31
340.004	85.84
340.217	32.6
340.429	73.56
340.641	79.7
340.854	42.84
341.066	-0.17
341.278	16.21
341.491	48.98
341.703	-32.94
341.915	73.56
342.128	20.31
342.34	32.6
342.552	34.64
342.764	67.41
342.977	48.98
343.189	3.93
343.401	71.51
343.613	77.65
343.826	-6.31
344.038	38.74
344.25	-2.22
344.462	-16.55
344.674	-12.46
344.886	-45.23
345.099	94.04
345.311	79.7
345.523	40.79
345.735	16.21
345.947	36.69
346.159	-4.27
346.371	-20.65
346.583	24.4
346.795	24.4
347.007	20.31
347.219	118.61
347.431	42.84
347.643	36.69
347.855	-24.75
348.067	-22.7
348.279	-34.99
348.491	42.84
348.703	77.65
348.915	-2.22
349.127	1.88
349.339	18.26
349.551	-34.99
349.763	28.5
349.975	40.79
350.187	73.56
350.399	73.56
350.61	18.26
350.822	5.97
351.034	-6.31
351.246	-14.51
351.458	89.94
351.669	59.22
351.881	96.08
352.093	73.56
352.305	12.12
352.517	51.03
352.728	91.99
352.94	24.4
353.152	61.27
353.363	53.08
353.575	38.74
353.787	20.31
353.999	57.17
354.21	-8.36
354.422	28.5
354.633	12.12
354.845	40.79
355.057	57.17
355.268	73.56
355.48	5.97
355.692	-4.27
355.903	-32.94
356.115	77.65
356.326	46.93
356.538	-12.46
356.749	48.98
356.961	67.41
357.172	20.31
357.384	-24.75
357.595	8.02
357.807	22.36
358.018	16.21
358.23	65.36
358.441	53.08
358.653	44.88
358.864	48.98
359.075	53.08
359.287	16.21
359.498	126.8
359.709	106.32
359.921	5.97
360.132	28.5
360.344	-4.27
360.555	-2.22
360.766	48.98
360.977	-10.41
361.189	32.6
361.4	46.93
361.611	106.32
361.823	73.56
362.034	48.98
362.245	16.21
362.456	77.65
362.667	57.17
362.879	-8.36
363.09	61.27
363.301	16.21
363.512	24.4
363.723	44.88
363.935	-12.46
364.146	81.75
364.357	32.6
364.568	-2.22
364.779	-6.31
364.99	53.08
365.201	14.17
365.412	94.04
365.623	-12.46
365.834	30.55
366.045	-4.27
366.256	22.36
366.467	-8.36
366.678	14.17
366.889	-4.27
367.1	-6.31
367.311	16.21
367.522	-2.22
367.733	65.36
367.944	79.7
368.155	46.93
368.366	89.94
368.577	51.03
368.788	1.88
368.999	-4.27
369.209	69.46
369.42	120.66
369.631	57.17
369.842	38.74
370.053	24.4
370.264	96.08
370.474	61.27
370.685	38.74
370.896	36.69
371.107	32.6
371.317	59.22
371.528	-0.17
371.739	-0.17
371.95	-24.75
372.16	-20.65
372.371	8.02
372.582	44.88
372.792	-20.65
373.003	55.12
373.214	53.08
373.424	98.13
373.635	28.5
373.846	42.84
374.056	-16.55
374.267	46.93
374.477	-34.99
374.688	44.88
374.898	42.84
375.109	36.69
375.319	59.22
375.53	69.46
375.74	24.4
375.951	3.93
376.161	-4.27
376.372	34.64
376.582	118.61
376.793	34.64
377.003	28.5
377.214	79.7
377.424	34.64
377.635	16.21
377.845	-20.65
378.055	83.8
378.266	65.36
378.476	94.04
378.686	28.5
378.897	36.69
379.107	-28.84
379.317	20.31
379.528	57.17
379.738	73.56
379.948	104.28
380.158	57.17
380.369	-45.23
380.579	102.23
380.789	55.12
380.999	44.88
381.21	51.03
381.42	112.47
381.63	10.07
381.84	48.98
382.05	110.42
382.261	16.21
382.471	18.26
382.681	5.97
382.891	48.98
383.101	46.93
383.311	44.88
383.521	-0.17
383.731	85.84
383.941	-49.32
384.151	-26.79
384.361	32.6
384.571	120.66
384.781	59.22
384.991	30.55
385.201	1.88
385.411	67.41
385.621	-32.94
385.831	8.02
386.041	79.7
386.251	96.08
386.461	102.23
386.671	96.08
386.881	3.93
387.091	22.36
387.301	87.89
387.511	73.56
387.72	108.37
387.93	-14.51
388.14	44.88
388.35	85.84
388.56	108.37
388.769	10.07
388.979	8.02
389.189	-10.41
389.399	48.98
389.609	94.04
389.818	87.89
390.028	14.17
390.238	57.17
390.447	14.17
390.657	57.17
390.867	10.07
391.076	61.27
391.286	59.22
391.496	32.6
391.705	-26.79
391.915	139.09
392.125	46.93
392.334	100.18
392.544	14.17
392.753	51.03
392.963	73.56
393.172	75.6
393.382	116.56
393.591	108.37
393.801	16.21
394.01	139.09
394.22	171.86
394.429	53.08
394.639	83.8
394.848	139.09
395.058	151.38
395.267	61.27
395.477	38.74
395.686	116.56
395.895	118.61
396.105	118.61
396.314	112.47
396.524	85.84
396.733	139.09
396.942	85.84
397.152	128.85
397.361	61.27
397.57	100.18
397.78	55.12
397.989	48.98
398.198	32.6
398.407	108.37
398.617	128.85
398.826	118.61
399.035	61.27
399.244	122.71
399.453	69.46
399.663	108.37
399.872	165.71
400.081	46.93
400.29	98.13
400.499	98.13
400.708	104.28
400.917	122.71
401.127	81.75
401.336	85.84
401.545	141.14
401.754	118.61
401.963	114.52
402.172	102.23
402.381	120.66
402.59	147.28
402.799	124.76
403.008	87.89
403.217	98.13
403.426	171.86
403.635	81.75
403.844	87.89
404.053	163.67
404.262	180.05
404.471	151.38
404.68	178
404.888	171.86
405.097	120.66
405.306	192.34
405.515	135
405.724	128.85
405.933	178
406.142	153.43
406.35	141.14
406.559	149.33
406.768	124.76
406.977	202.58
407.185	186.19
407.394	192.34
407.603	206.67
407.812	169.81
408.02	190.29
408.229	245.59
408.438	227.15
408.646	190.29
408.855	253.78
409.064	223.06
409.272	268.11
409.481	237.39
409.69	266.07
409.898	278.35
410.107	302.93
410.315	356.18
410.524	354.13
410.733	360.27
410.941	409.42
411.15	339.79
411.358	417.61
411.567	403.28
411.775	458.57
411.984	452.43
412.192	417.61
412.401	468.81
412.609	495.44
412.818	497.49
413.026	589.64
413.234	546.64
413.443	593.74
413.651	464.72
413.86	511.82
414.068	675.66
414.276	601.93
414.485	649.04
414.693	618.32
414.901	610.12
415.11	741.19
415.318	724.81
415.526	730.95
415.734	814.92
415.943	769.87
416.151	841.54
416.359	837.45
416.567	841.54
416.776	915.27
416.984	1052.49
417.192	982.85
417.4	972.61
417.608	1060.68
417.817	995.14
418.025	1197.89
418.233	1261.38
418.441	1130.31
418.649	1335.1
418.857	1290.05
419.065	1304.39
419.273	1412.93
419.481	1482.56
419.689	1490.75
419.897	1595.2
420.105	1689.4
420.313	1578.81
420.521	1756.99
420.729	1740.6
420.937	1793.85
421.145	1797.95
421.353	1931.06
421.561	2064.18
421.769	1972.02
421.977	2234.16
422.185	2193.2
422.393	2344.75
422.601	2361.14
422.809	2496.3
423.017	2496.3
423.224	2553.65
423.432	2559.79
423.64	2541.36
423.848	2871.08
424.056	2791.21
424.263	2996.01
424.471	2905.9
424.679	3073.83
424.887	3170.08
425.094	3381.03
425.302	3393.31
425.51	3432.22
425.718	3544.86
425.925	3573.53
426.133	3616.54
426.341	3968.79
426.548	4132.63
426.756	4165.4
426.964	4161.3
427.171	4466.45
427.379	4546.32
427.586	4634.38
427.794	4579.09
428.001	4865.8
428.209	5115.66
428.417	5152.52
428.624	5449.47
428.832	5461.76
429.039	5402.37
429.247	5601.02
429.454	5826.3
429.662	6360.82
429.869	5893.88
430.076	6287.09
430.284	6020.86
430.491	6504.18
430.699	6766.32
430.906	6758.13
431.114	6782.7
431.321	7106.28
431.528	7327.46
431.736	7825.12
431.943	8298.2
432.15	7782.11
432.358	7923.42
432.565	8367.83
432.772	8271.58
432.979	8904.4
433.187	9197.26
433.394	8928.97
433.601	9567.94
433.808	9608.9
434.016	9524.93
434.223	10055.36
434.43	10649.27
434.637	10393.27
434.844	10983.09
435.052	11013.81
435.259	11009.71
435.466	11237.03
435.673	11140.78
435.88	11865.76
436.087	12416.66
436.294	12598.93
436.501	12373.66
436.708	12580.5
436.915	12973.71
437.122	13448.84
437.329	13647.49
437.537	13893.25
437.743	13991.55
437.95	14032.51
438.157	14823.03
438.364	15257.2
438.571	15083.12
438.778	15435.37
438.985	16780.89
439.192	15935.07
439.399	16563.8
439.606	16182.88
439.813	17243.73
440.02	18390.59
440.227	17933.89
440.433	17792.58
440.64	18273.85
440.847	18155.07
441.054	18720.31
441.261	20004.39
441.467	19832.36
441.674	20051.49
441.881	20510.24
442.088	20661.79
442.294	20502.04
442.501	21358.1
442.708	21458.45
442.914	22326.78
443.121	23340.53
443.328	22642.17
443.534	24174.05
443.741	23653.87
443.948	23318
444.154	25136.6
444.361	24784.35
444.568	25091.54
444.774	25130.45
444.981	25277.91
445.187	26201.54
445.394	27385.27
445.6	27114.94
445.807	29601.17
446.013	28188.07
446.22	28951.96
446.426	29877.65
446.633	29945.23
446.839	31249.78
447.046	29476.24
447.252	31307.13
447.459	31741.3
447.665	31450.49
447.871	33295.71
448.078	34411.85
448.284	32863.58
448.491	33711.44
448.697	34788.67
448.903	35325.24
449.11	35652.92
449.316	34860.35
449.522	35554.61
449.728	36459.82
449.935	37117.21
450.141	36975.91
450.347	38012.18
450.553	36488.49
450.76	37479.71
450.966	38552.84
451.172	37874.96
451.378	38718.73
451.584	38335.76
451.791	38960.39
451.997	38966.53
452.203	39359.74
452.409	39402.75
452.615	39138.56
452.821	37637.4
453.027	37387.55
453.233	39691.51
453.44	37922.07
453.646	38622.47
453.852	38372.62
454.058	39093.5
454.264	37905.68
454.47	38886.66
454.676	38051.09
454.882	39206.14
455.088	35900.72
455.294	36293.93
455.5	36592.93
455.705	37147.93
455.911	35937.58
456.117	34962.75
456.323	34579.78
456.529	32652.64
456.735	34192.72
456.941	33156.44
457.147	32509.29
457.352	31888.75
457.558	31671.67
457.764	31262.07
457.97	30678.4
458.176	30623.11
458.381	30297.48
458.587	28691.87
458.793	28870.04
458.999	27106.74
459.204	29355.41
459.41	28362.15
459.616	26654.14
459.821	26617.28
460.027	26154.44
460.233	25945.55
460.438	24800.73
460.644	25337.3
460.85	23821.8
461.055	23528.94
461.261	23629.29
461.466	21702.15
461.672	20635.16
461.878	22529.53
462.083	21145.11
462.289	20708.89
462.494	20596.25
462.7	19371.57
462.905	18955.83
463.111	19666.47
463.316	19676.71
463.522	19418.67
463.727	19473.96
463.932	19426.86
464.138	19103.28
464.343	19256.88
464.549	18439.74
464.754	19170.86
464.959	19058.23
465.165	18937.4
465.37	18015.81
465.575	17747.53
465.781	18251.33
465.986	18587.19
466.191	17583.69
466.397	17278.54
466.602	16619.1
466.807	17178.19
467.012	17180.24
467.218	17083.98
