Data from USB4F104151__93__11-37-56-624.txt Node

Date: Fri Mar 14 11:37:56 EDT 2025
User: louis
Spectrometer: USB4F10415
Trigger mode: 4
Integration Time (sec): 2.000000E-2
Scans to average: 1
Electric dark correction enabled: true
Nonlinearity correction enabled: false
Boxcar width: 0
XAxis mode: Wavelengths
Number of Pixels in Spectrum: 3648
>>>>>Begin Spectral Data<<<<<
178.204	-83.28
178.424	-83.28
178.644	-83.28
178.864	-64.85
179.084	-68.95
179.304	-79.19
179.524	-25.94
179.744	-30.04
179.964	8.87
180.184	-38.23
180.404	35.5
180.624	-21.85
180.844	15.02
181.064	12.97
181.283	53.93
181.503	-11.61
181.723	80.55
181.943	62.12
182.163	-11.61
182.383	29.35
182.602	17.07
182.822	47.79
183.042	-9.56
183.262	-19.8
183.482	70.31
183.701	-50.52
183.921	4.78
184.141	-93.52
184.361	45.74
184.58	-7.51
184.8	-3.41
185.02	-5.46
185.239	98.99
185.459	4.78
185.679	39.59
185.898	-32.08
186.118	84.65
186.338	43.69
186.557	111.27
186.777	62.12
186.997	53.93
187.216	-11.61
187.436	-7.51
187.655	62.12
187.875	49.83
188.095	41.64
188.314	88.75
188.534	55.98
188.753	-32.08
188.973	-3.41
189.192	2.73
189.412	0.68
189.631	27.31
189.851	-32.08
190.07	6.83
190.29	-19.8
190.509	68.27
190.729	53.93
190.948	53.93
191.168	82.6
191.387	-3.41
191.607	82.6
191.826	47.79
192.045	-19.8
192.265	43.69
192.484	66.22
192.704	15.02
192.923	-23.89
193.142	66.22
193.362	21.16
193.581	19.11
193.8	23.21
194.02	17.07
194.239	-40.28
194.458	17.07
194.678	-27.99
194.897	33.45
195.116	8.87
195.335	37.55
195.555	37.55
195.774	66.22
195.993	49.83
196.212	-27.99
196.432	-27.99
196.651	-34.13
196.87	25.26
197.089	111.27
197.308	6.83
197.528	4.78
197.747	-66.9
197.966	31.4
198.185	45.74
198.404	-9.56
198.623	62.12
198.842	15.02
199.062	45.74
199.281	86.7
199.5	-71
199.719	-44.37
199.938	27.31
200.157	117.42
200.376	51.88
200.595	70.31
200.814	-36.18
201.033	25.26
201.252	49.83
201.471	53.93
201.69	-3.41
201.909	45.74
202.128	29.35
202.347	-11.61
202.566	-23.89
202.785	29.35
203.004	37.55
203.223	70.31
203.442	92.84
203.661	76.46
203.879	-11.61
204.098	74.41
204.317	-17.75
204.536	121.51
204.755	31.4
204.974	55.98
205.193	35.5
205.411	41.64
205.63	10.92
205.849	55.98
206.068	78.51
206.287	-27.99
206.505	27.31
206.724	49.83
206.943	33.45
207.162	-48.47
207.381	33.45
207.599	37.55
207.818	47.79
208.037	-32.08
208.255	29.35
208.474	-38.23
208.693	-11.61
208.911	55.98
209.13	33.45
209.349	8.87
209.567	41.64
209.786	-5.46
210.005	-62.8
210.223	35.5
210.442	-38.23
210.661	-27.99
210.879	23.21
211.098	21.16
211.316	-5.46
211.535	66.22
211.753	43.69
211.972	94.89
212.191	0.68
212.409	41.64
212.628	47.79
212.846	94.89
213.065	86.7
213.283	-3.41
213.502	58.03
213.72	98.99
213.938	49.83
214.157	29.35
214.375	-7.51
214.594	31.4
214.812	86.7
215.031	64.17
215.249	33.45
215.467	47.79
215.686	8.87
215.904	74.41
216.122	37.55
216.341	-48.47
216.559	-1.37
216.778	-11.61
216.996	19.11
217.214	58.03
217.432	-19.8
217.651	80.55
217.869	-30.04
218.087	25.26
218.306	51.88
218.524	31.4
218.742	62.12
218.96	41.64
219.179	4.78
219.397	62.12
219.615	37.55
219.833	-3.41
220.051	19.11
220.27	17.07
220.488	53.93
220.706	-15.7
220.924	-11.61
221.142	49.83
221.36	25.26
221.578	113.32
221.796	23.21
222.015	45.74
222.233	-1.37
222.451	10.92
222.669	-11.61
222.887	-30.04
223.105	-56.66
223.323	-13.65
223.541	-23.89
223.759	37.55
223.977	58.03
224.195	111.27
224.413	53.93
224.631	86.7
224.849	43.69
225.067	-48.47
225.285	12.97
225.503	-3.41
225.721	-27.99
225.939	53.93
226.157	12.97
226.375	64.17
226.592	41.64
226.81	12.97
227.028	27.31
227.246	55.98
227.464	41.64
227.682	-32.08
227.9	4.78
228.117	-27.99
228.335	23.21
228.553	27.31
228.771	6.83
228.989	49.83
229.206	-3.41
229.424	17.07
229.642	-91.48
229.86	84.65
230.077	123.56
230.295	-5.46
230.513	66.22
230.731	0.68
230.948	64.17
231.166	51.88
231.384	62.12
231.601	12.97
231.819	62.12
232.037	19.11
232.254	35.5
232.472	78.51
232.689	-9.56
232.907	31.4
233.125	-60.76
233.342	-32.08
233.56	49.83
233.777	8.87
233.995	-17.75
234.213	33.45
234.43	19.11
234.648	-9.56
234.865	-42.32
235.083	115.37
235.3	47.79
235.518	70.31
235.735	45.74
235.953	58.03
236.17	82.6
236.388	55.98
236.605	-34.13
236.822	55.98
237.04	41.64
237.257	51.88
237.475	-27.99
237.692	51.88
237.909	111.27
238.127	12.97
238.344	-11.61
238.562	109.22
238.779	98.99
238.996	55.98
239.214	37.55
239.431	125.61
239.648	45.74
239.865	53.93
240.083	35.5
240.3	-13.65
240.517	25.26
240.735	60.07
240.952	55.98
241.169	0.68
241.386	53.93
241.603	-23.89
241.821	-99.67
242.038	6.83
242.255	12.97
242.472	-60.76
242.689	55.98
242.907	27.31
243.124	62.12
243.341	17.07
243.558	27.31
243.775	-32.08
243.992	-5.46
244.209	74.41
244.426	-21.85
244.643	10.92
244.86	23.21
245.078	15.02
245.295	-36.18
245.512	0.68
245.729	39.59
245.946	64.17
246.163	78.51
246.38	-52.56
246.597	25.26
246.814	4.78
247.031	-25.94
247.248	43.69
247.464	21.16
247.681	-5.46
247.898	55.98
248.115	47.79
248.332	-54.61
248.549	60.07
248.766	35.5
248.983	66.22
249.2	70.31
249.417	68.27
249.633	12.97
249.85	17.07
250.067	-5.46
250.284	82.6
250.501	135.85
250.717	-3.41
250.934	-68.95
251.151	33.45
251.368	-66.9
251.585	76.46
251.801	39.59
252.018	47.79
252.235	51.88
252.451	12.97
252.668	84.65
252.885	-64.85
253.102	-36.18
253.318	109.22
253.535	19.11
253.752	25.26
253.968	27.31
254.185	-32.08
254.401	-13.65
254.618	19.11
254.835	-11.61
255.051	41.64
255.268	-34.13
255.484	0.68
255.701	33.45
255.917	94.89
256.134	12.97
256.351	66.22
256.567	-19.8
256.784	12.97
257	8.87
257.217	19.11
257.433	43.69
257.65	43.69
257.866	76.46
258.082	10.92
258.299	37.55
258.515	47.79
258.732	-19.8
258.948	4.78
259.165	0.68
259.381	12.97
259.597	-9.56
259.814	115.37
260.03	35.5
260.246	107.18
260.463	29.35
260.679	6.83
260.895	78.51
261.112	-3.41
261.328	19.11
261.544	66.22
261.761	111.27
261.977	58.03
262.193	62.12
262.409	27.31
262.626	51.88
262.842	21.16
263.058	86.7
263.274	82.6
263.49	37.55
263.707	105.13
263.923	17.07
264.139	23.21
264.355	-34.13
264.571	21.16
264.787	25.26
265.004	82.6
265.22	23.21
265.436	0.68
265.652	6.83
265.868	21.16
266.084	17.07
266.3	-54.61
266.516	37.55
266.732	74.41
266.948	8.87
267.164	15.02
267.38	10.92
267.596	37.55
267.812	86.7
268.028	66.22
268.244	27.31
268.46	-3.41
268.676	64.17
268.892	-27.99
269.108	4.78
269.324	-1.37
269.54	15.02
269.756	31.4
269.972	94.89
270.188	-34.13
270.403	-36.18
270.619	21.16
270.835	-27.99
271.051	2.73
271.267	21.16
271.483	86.7
271.698	19.11
271.914	17.07
272.13	4.78
272.346	2.73
272.562	-23.89
272.777	90.79
272.993	-27.99
273.209	-27.99
273.425	27.31
273.64	31.4
273.856	-36.18
274.072	10.92
274.287	4.78
274.503	33.45
274.719	-3.41
274.934	66.22
275.15	33.45
275.366	113.32
275.581	53.93
275.797	31.4
276.012	33.45
276.228	-3.41
276.444	12.97
276.659	74.41
276.875	15.02
277.09	12.97
277.306	41.64
277.521	49.83
277.737	78.51
277.952	66.22
278.168	-21.85
278.383	23.21
278.599	19.11
278.814	10.92
279.03	-21.85
279.245	-27.99
279.461	-7.51
279.676	39.59
279.892	27.31
280.107	58.03
280.322	-3.41
280.538	17.07
280.753	45.74
280.969	66.22
281.184	17.07
281.399	43.69
281.615	78.51
281.83	66.22
282.045	55.98
282.26	-5.46
282.476	4.78
282.691	45.74
282.906	-48.47
283.122	-9.56
283.337	10.92
283.552	76.46
283.767	-25.94
283.983	41.64
284.198	19.11
284.413	23.21
284.628	25.26
284.843	-30.04
285.058	4.78
285.274	74.41
285.489	10.92
285.704	98.99
285.919	41.64
286.134	17.07
286.349	60.07
286.564	78.51
286.779	33.45
286.995	37.55
287.21	62.12
287.425	37.55
287.64	39.59
287.855	33.45
288.07	74.41
288.285	92.84
288.5	27.31
288.715	47.79
288.93	47.79
289.145	21.16
289.36	-42.32
289.575	-19.8
289.79	4.78
290.004	-17.75
290.219	53.93
290.434	33.45
290.649	-17.75
290.864	72.36
291.079	105.13
291.294	94.89
291.509	-23.89
291.724	51.88
291.938	62.12
292.153	23.21
292.368	51.88
292.583	70.31
292.798	-21.85
293.012	68.27
293.227	6.83
293.442	33.45
293.657	21.16
293.871	88.75
294.086	41.64
294.301	55.98
294.516	55.98
294.73	51.88
294.945	-15.7
295.16	72.36
295.374	-11.61
295.589	78.51
295.804	17.07
296.018	31.4
296.233	84.65
296.447	27.31
296.662	2.73
296.877	60.07
297.091	82.6
297.306	43.69
297.52	25.26
297.735	62.12
297.949	8.87
298.164	45.74
298.378	-40.28
298.593	53.93
298.807	-13.65
299.022	-5.46
299.236	-62.8
299.451	-7.51
299.665	6.83
299.88	45.74
300.094	-32.08
300.309	80.55
300.523	-25.94
300.737	90.79
300.952	21.16
301.166	84.65
301.381	29.35
301.595	33.45
301.809	43.69
302.024	35.5
302.238	-27.99
302.452	10.92
302.667	-13.65
302.881	39.59
303.095	94.89
303.309	47.79
303.524	-3.41
303.738	15.02
303.952	70.31
304.166	76.46
304.381	51.88
304.595	29.35
304.809	-50.52
305.023	21.16
305.237	2.73
305.452	29.35
305.666	127.66
305.88	27.31
306.094	37.55
306.308	29.35
306.522	58.03
306.736	37.55
306.95	23.21
307.164	115.37
307.379	74.41
307.593	62.12
307.807	78.51
308.021	-36.18
308.235	76.46
308.449	4.78
308.663	0.68
308.877	86.7
309.091	33.45
309.305	144.04
309.519	10.92
309.733	-5.46
309.947	12.97
310.161	55.98
310.374	15.02
310.588	19.11
310.802	-11.61
311.016	31.4
311.23	37.55
311.444	66.22
311.658	82.6
311.872	111.27
312.085	119.46
312.299	37.55
312.513	66.22
312.727	80.55
312.941	70.31
313.154	62.12
313.368	47.79
313.582	41.64
313.796	49.83
314.009	37.55
314.223	23.21
314.437	86.7
314.651	55.98
314.864	45.74
315.078	49.83
315.292	33.45
315.505	66.22
315.719	45.74
315.933	-5.46
316.146	70.31
316.36	4.78
316.573	51.88
316.787	-21.85
317.001	51.88
317.214	2.73
317.428	125.61
317.641	35.5
317.855	107.18
318.068	58.03
318.282	35.5
318.495	60.07
318.709	-15.7
318.922	41.64
319.136	17.07
319.349	58.03
319.563	-11.61
319.776	47.79
319.99	-13.65
320.203	66.22
320.417	25.26
320.63	-3.41
320.843	55.98
321.057	25.26
321.27	70.31
321.483	8.87
321.697	29.35
321.91	51.88
322.124	-1.37
322.337	29.35
322.55	23.21
322.763	70.31
322.977	82.6
323.19	37.55
323.403	23.21
323.617	70.31
323.83	53.93
324.043	78.51
324.256	49.83
324.469	-1.37
324.683	37.55
324.896	45.74
325.109	90.79
325.322	-7.51
325.535	66.22
325.748	55.98
325.962	62.12
326.175	-21.85
326.388	21.16
326.601	47.79
326.814	2.73
327.027	58.03
327.24	152.23
327.453	51.88
327.666	33.45
327.879	10.92
328.092	111.27
328.305	31.4
328.518	131.75
328.731	25.26
328.944	-3.41
329.157	12.97
329.37	92.84
329.583	29.35
329.796	45.74
330.009	37.55
330.222	66.22
330.435	39.59
330.648	39.59
330.861	33.45
331.073	62.12
331.286	8.87
331.499	131.75
331.712	88.75
331.925	60.07
332.138	33.45
332.35	17.07
332.563	4.78
332.776	2.73
332.989	29.35
333.202	53.93
333.414	43.69
333.627	29.35
333.84	27.31
334.053	-52.56
334.265	-1.37
334.478	49.83
334.691	51.88
334.903	-13.65
335.116	39.59
335.329	29.35
335.541	41.64
335.754	60.07
335.966	31.4
336.179	23.21
336.392	-7.51
336.604	-3.41
336.817	66.22
337.029	51.88
337.242	45.74
337.454	62.12
337.667	12.97
337.88	41.64
338.092	12.97
338.305	29.35
338.517	70.31
338.729	43.69
338.942	41.64
339.154	115.37
339.367	12.97
339.579	43.69
339.792	12.97
340.004	27.31
340.217	12.97
340.429	72.36
340.641	27.31
340.854	37.55
341.066	-23.89
341.278	115.37
341.491	17.07
341.703	51.88
341.915	-3.41
342.128	119.46
342.34	19.11
342.552	82.6
342.764	33.45
342.977	6.83
343.189	43.69
343.401	0.68
343.613	29.35
343.826	70.31
344.038	-7.51
344.25	60.07
344.462	-1.37
344.674	47.79
344.886	-25.94
345.099	12.97
345.311	-1.37
345.523	6.83
345.735	29.35
345.947	70.31
346.159	64.17
346.371	17.07
346.583	17.07
346.795	12.97
347.007	-1.37
347.219	90.79
347.431	-9.56
347.643	60.07
347.855	39.59
348.067	111.27
348.279	41.64
348.491	33.45
348.703	117.42
348.915	66.22
349.127	15.02
349.339	86.7
349.551	47.79
349.763	-7.51
349.975	68.27
350.187	31.4
350.399	68.27
350.61	4.78
350.822	-19.8
351.034	80.55
351.246	66.22
351.458	49.83
351.669	105.13
351.881	58.03
352.093	45.74
352.305	92.84
352.517	111.27
352.728	12.97
352.94	80.55
353.152	41.64
353.363	33.45
353.575	78.51
353.787	33.45
353.999	49.83
354.21	94.89
354.422	-17.75
354.633	19.11
354.845	103.08
355.057	43.69
355.268	45.74
355.48	53.93
355.692	94.89
355.903	31.4
356.115	35.5
356.326	17.07
356.538	129.7
356.749	-30.04
356.961	90.79
357.172	55.98
357.384	-1.37
357.595	76.46
357.807	37.55
358.018	51.88
358.23	60.07
358.441	49.83
358.653	82.6
358.864	86.7
359.075	119.46
359.287	58.03
359.498	37.55
359.709	103.08
359.921	62.12
360.132	33.45
360.344	84.65
360.555	111.27
360.766	33.45
360.977	76.46
361.189	78.51
361.4	49.83
361.611	78.51
361.823	60.07
362.034	62.12
362.245	45.74
362.456	70.31
362.667	53.93
362.879	88.75
363.09	4.78
363.301	90.79
363.512	78.51
363.723	4.78
363.935	23.21
364.146	47.79
364.357	35.5
364.568	47.79
364.779	-54.61
364.99	105.13
365.201	-54.61
365.412	-19.8
365.623	-7.51
365.834	207.53
366.045	53.93
366.256	78.51
366.467	2.73
366.678	-1.37
366.889	103.08
367.1	27.31
367.311	35.5
367.522	62.12
367.733	33.45
367.944	23.21
368.155	55.98
368.366	90.79
368.577	101.03
368.788	82.6
368.999	41.64
369.209	66.22
369.42	107.18
369.631	111.27
369.842	62.12
370.053	29.35
370.264	39.59
370.474	47.79
370.685	39.59
370.896	53.93
371.107	25.26
371.317	41.64
371.528	86.7
371.739	103.08
371.95	107.18
372.16	47.79
372.371	39.59
372.582	92.84
372.792	17.07
373.003	78.51
373.214	33.45
373.424	43.69
373.635	35.5
373.846	39.59
374.056	78.51
374.267	60.07
374.477	-5.46
374.688	8.87
374.898	21.16
375.109	103.08
375.319	60.07
375.53	133.8
375.74	92.84
375.951	29.35
376.161	70.31
376.372	-9.56
376.582	60.07
376.793	49.83
377.003	62.12
377.214	74.41
377.424	109.22
377.635	25.26
377.845	92.84
378.055	144.04
378.266	84.65
378.476	53.93
378.686	111.27
378.897	51.88
379.107	53.93
379.317	60.07
379.528	86.7
379.738	45.74
379.948	88.75
380.158	125.61
380.369	49.83
380.579	0.68
380.789	-25.94
380.999	74.41
381.21	123.56
381.42	125.61
381.63	76.46
381.84	53.93
382.05	150.18
382.261	84.65
382.471	35.5
382.681	58.03
382.891	43.69
383.101	0.68
383.311	37.55
383.521	35.5
383.731	70.31
383.941	86.7
384.151	47.79
384.361	33.45
384.571	68.27
384.781	88.75
384.991	64.17
385.201	90.79
385.411	66.22
385.621	96.94
385.831	70.31
386.041	-36.18
386.251	49.83
386.461	111.27
386.671	119.46
386.881	90.79
387.091	60.07
387.301	131.75
387.511	101.03
387.72	10.92
387.93	17.07
388.14	43.69
388.35	10.92
388.56	74.41
388.769	148.14
388.979	66.22
389.189	90.79
389.399	66.22
389.609	82.6
389.818	109.22
390.028	101.03
390.238	86.7
390.447	115.37
390.657	105.13
390.867	64.17
391.076	78.51
391.286	131.75
391.496	35.5
391.705	33.45
391.915	10.92
392.125	8.87
392.334	15.02
392.544	105.13
392.753	86.7
392.963	94.89
393.172	96.94
393.382	58.03
393.591	125.61
393.801	47.79
394.01	82.6
394.22	35.5
394.429	70.31
394.639	64.17
394.848	43.69
395.058	64.17
395.267	86.7
395.477	144.04
395.686	182.95
395.895	133.8
396.105	98.99
396.314	88.75
396.524	84.65
396.733	101.03
396.942	158.38
397.152	37.55
397.361	33.45
397.57	146.09
397.78	53.93
397.989	62.12
398.198	242.34
398.407	160.42
398.617	98.99
398.826	98.99
399.035	111.27
399.244	156.33
399.453	58.03
399.663	25.26
399.872	152.23
400.081	105.13
400.29	62.12
400.499	119.46
400.708	193.19
400.917	92.84
401.127	127.66
401.336	103.08
401.545	135.85
401.754	109.22
401.963	182.95
402.172	160.42
402.381	133.8
402.59	113.32
402.799	176.81
403.008	125.61
403.217	152.23
403.426	160.42
403.635	137.9
403.844	156.33
404.053	193.19
404.262	209.58
404.471	133.8
404.68	125.61
404.888	139.94
405.097	174.76
405.306	219.82
405.515	234.15
405.724	131.75
405.933	168.62
406.142	109.22
406.35	205.48
406.559	217.77
406.768	189.1
406.977	197.29
407.185	203.43
407.394	203.43
407.603	275.11
407.812	340.65
408.02	236.2
408.229	287.4
408.438	252.58
408.646	182.95
408.855	273.06
409.064	291.49
409.272	287.4
409.481	377.51
409.69	379.56
409.898	379.56
410.107	410.28
410.315	395.94
410.524	391.84
410.733	422.56
410.941	418.47
411.15	488.1
411.358	473.76
411.567	576.16
411.775	490.15
411.984	504.48
412.192	463.52
412.401	557.73
412.609	563.87
412.818	533.15
413.026	522.91
413.234	586.4
413.443	690.85
413.651	588.45
413.86	674.46
414.068	699.04
414.276	762.53
414.485	735.9
414.693	760.48
414.901	885.41
415.11	840.35
415.318	807.58
415.526	866.97
415.734	875.17
415.943	893.6
416.151	996
416.359	963.23
416.567	991.9
416.776	1002.14
416.984	1102.49
417.192	1102.49
417.4	1155.74
417.608	1184.41
417.817	1184.41
418.025	1157.78
418.233	1356.44
418.441	1282.71
418.649	1456.79
418.857	1622.67
419.065	1491.6
419.273	1401.49
419.481	1575.57
419.689	1749.65
419.897	1610.39
420.105	1706.64
420.313	1792.66
420.521	1835.66
420.729	2011.79
420.937	1942.16
421.145	1962.64
421.353	2077.32
421.561	2325.13
421.769	2269.83
421.977	2347.65
422.185	2425.48
422.393	2431.62
422.601	2646.66
422.809	2607.75
423.017	2736.77
423.224	2822.78
423.432	2847.36
423.64	2851.46
423.848	3162.75
424.056	3205.75
424.263	3265.14
424.471	3248.76
424.679	3273.34
424.887	3621.49
425.094	3801.71
425.302	3791.47
425.51	3807.86
425.718	3887.73
425.925	3983.98
426.133	4207.21
426.341	4350.57
426.548	4536.93
426.756	4500.07
426.964	4608.61
427.171	4883.04
427.379	5255.77
427.586	5272.15
427.794	5286.49
428.001	5356.12
428.209	5622.36
428.417	5608.02
428.624	6097.49
428.832	6046.29
429.039	5941.84
429.247	6140.49
429.454	6591.05
429.662	6920.77
429.869	6656.58
430.076	7012.93
430.284	6922.82
430.491	7141.95
430.699	7494.2
430.906	7549.5
431.114	7557.69
431.321	7971.38
431.528	8237.61
431.736	8557.1
431.943	8987.17
432.15	8585.77
432.358	8925.73
432.565	9316.89
432.772	9318.94
432.979	9777.69
433.187	9892.37
433.394	10041.87
433.601	10514.95
433.808	10809.86
434.016	10715.66
434.223	11264.51
434.43	11653.62
434.637	11551.23
434.844	12382.7
435.052	12421.61
435.259	12392.94
435.466	12612.07
435.673	12485.1
435.88	13101.54
436.087	13849.05
436.294	13740.5
436.501	13529.56
436.708	13851.1
436.915	14248.4
437.122	15008.2
437.329	14778.83
437.537	15229.38
437.743	15794.62
437.95	15720.89
438.157	16501.17
438.364	16964.01
438.571	17066.41
438.778	17156.52
438.985	18338.19
439.192	17619.36
439.399	18213.27
439.606	17785.24
439.813	19100.04
440.02	20402.55
440.227	19687.81
440.433	19612.03
440.64	20525.43
440.847	20285.81
441.054	20687.22
441.261	21872.99
441.467	21496.16
441.674	22376.79
441.881	23021.9
442.088	22886.73
442.294	22524.24
442.501	23474.5
442.708	24011.07
442.914	24443.19
443.121	25981.21
443.328	24848.69
443.534	27160.84
443.741	25940.25
443.948	25712.93
444.154	27814.15
444.361	27711.75
444.568	27658.5
444.774	27752.71
444.981	28285.18
445.187	29112.56
445.394	29991.14
445.6	29563.11
445.807	32563.39
446.013	31187.15
446.22	31805.64
446.426	33243.31
446.633	33573.03
446.839	34449.57
447.046	32864.44
447.252	35092.63
447.459	34678.94
447.665	34422.94
447.871	35844.23
448.078	38025.32
448.284	36073.6
448.491	36962.42
448.697	38185.06
448.903	38705.24
449.11	38989.91
449.316	38545.5
449.522	38926.42
449.728	40597.57
449.935	40669.25
450.141	40685.63
450.347	41439.28
450.553	40179.78
450.76	40900.67
450.966	42063.91
451.172	41973.8
451.378	43026.46
451.584	41656.37
451.791	42891.29
451.997	42895.39
452.203	43137.05
452.409	43747.34
452.615	42997.79
452.821	41617.46
453.027	41211.96
453.233	43567.12
453.44	41754.67
453.646	42258.47
453.852	42211.37
454.058	43118.62
454.264	41623.6
454.47	42760.22
454.676	41613.36
454.882	42934.3
455.088	39157.85
455.294	39940.17
455.5	40509.5
455.705	41291.83
455.911	39131.22
456.117	38330.47
456.323	37953.64
456.529	35987.59
456.735	37961.83
456.941	36817.02
457.147	36257.92
457.352	35141.78
457.558	34418.85
457.764	34621.59
457.97	33986.72
458.176	33202.35
458.381	33417.39
458.587	31873.22
458.793	31514.83
458.999	30062.82
459.204	32213.18
459.41	31320.27
459.616	29219.05
459.821	29343.98
460.027	29763.81
460.233	28592.37
460.438	27277.58
460.644	27791.62
460.85	26122.52
461.055	25940.25
461.261	26102.04
461.466	23589.19
461.672	23390.53
461.878	25121.07
462.083	23281.99
462.289	22575.44
462.494	22491.48
462.7	21758.3
462.905	21191.02
463.111	21995.87
463.316	21918.04
463.522	21184.87
463.727	21264.74
463.932	21242.21
464.138	20953.45
464.343	21154.15
464.549	20382.07
464.754	21293.41
464.959	20775.28
465.165	21168.49
465.37	20121.98
465.575	19388.8
465.781	20345.2
465.986	20138.36
466.191	19782.01
466.397	19210.63
466.602	18422.16
466.807	18962.83
467.012	19050.89
