Data from USB4F104151__41__11-36-57-643.txt Node

Date: Fri Mar 14 11:36:57 EDT 2025
User: louis
Spectrometer: USB4F10415
Trigger mode: 4
Integration Time (sec): 2.000000E-2
Scans to average: 1
Electric dark correction enabled: true
Nonlinearity correction enabled: false
Boxcar width: 0
XAxis mode: Wavelengths
Number of Pixels in Spectrum: 3648
>>>>>Begin Spectral Data<<<<<
178.204	-60.42
178.424	-60.42
178.644	-60.42
178.864	-80.89
179.084	-72.7
179.304	-37.89
179.524	-39.94
179.744	41.98
179.964	27.65
180.184	-21.5
180.404	27.65
180.624	-1.02
180.844	7.17
181.064	62.46
181.283	-21.5
181.503	-27.65
181.723	-17.41
181.943	-19.46
182.163	54.27
182.383	13.31
182.602	72.7
182.822	56.32
183.042	35.84
183.262	58.37
183.482	60.42
183.701	25.6
183.921	48.13
184.141	-1.02
184.361	17.41
184.58	-7.17
184.8	76.8
185.02	-7.17
185.239	13.31
185.459	64.51
185.679	-9.22
185.898	-54.27
186.118	5.12
186.338	37.89
186.557	80.89
186.777	1.02
186.997	7.17
187.216	-15.36
187.436	64.51
187.655	17.41
187.875	13.31
188.095	-25.6
188.314	56.32
188.534	-17.41
188.753	50.18
188.973	44.03
189.192	25.6
189.412	46.08
189.631	93.18
189.851	7.17
190.07	-13.31
190.29	5.12
190.509	70.65
190.729	5.12
190.948	1.02
191.168	7.17
191.387	11.26
191.607	-54.27
191.826	-19.46
192.045	52.22
192.265	-29.7
192.484	-25.6
192.704	111.61
192.923	3.07
193.142	-1.02
193.362	50.18
193.581	39.94
193.8	-21.5
194.02	56.32
194.239	23.55
194.458	29.7
194.678	68.61
194.897	11.26
195.116	60.42
195.335	-9.22
195.555	15.36
195.774	5.12
195.993	-19.46
196.212	19.46
196.432	7.17
196.651	41.98
196.87	1.02
197.089	87.04
197.308	-54.27
197.528	-3.07
197.747	15.36
197.966	60.42
198.185	60.42
198.404	33.79
198.623	27.65
198.842	-5.12
199.062	23.55
199.281	-27.65
199.5	35.84
199.719	-7.17
199.938	37.89
200.157	11.26
200.376	-41.98
200.595	56.32
200.814	23.55
201.033	-1.02
201.252	39.94
201.471	15.36
201.69	15.36
201.909	-27.65
202.128	3.07
202.347	31.74
202.566	21.5
202.785	52.22
203.004	19.46
203.223	46.08
203.442	-11.26
203.661	19.46
203.879	115.71
204.098	62.46
204.317	-13.31
204.536	72.7
204.755	29.7
204.974	23.55
205.193	46.08
205.411	-17.41
205.63	15.36
205.849	50.18
206.068	9.22
206.287	-15.36
206.505	-21.5
206.724	62.46
206.943	39.94
207.162	-31.74
207.381	25.6
207.599	39.94
207.818	39.94
208.037	5.12
208.255	-21.5
208.474	-29.7
208.693	9.22
208.911	9.22
209.13	-13.31
209.349	44.03
209.567	-7.17
209.786	58.37
210.005	35.84
210.223	9.22
210.442	27.65
210.661	-82.94
210.879	-3.07
211.098	-66.56
211.316	1.02
211.535	27.65
211.753	48.13
211.972	-9.22
212.191	-5.12
212.409	66.56
212.628	23.55
212.846	54.27
213.065	-25.6
213.283	58.37
213.502	19.46
213.72	-46.08
213.938	35.84
214.157	1.02
214.375	66.56
214.594	11.26
214.812	7.17
215.031	29.7
215.249	87.04
215.467	60.42
215.686	-19.46
215.904	-37.89
216.122	7.17
216.341	17.41
216.559	41.98
216.778	60.42
216.996	-19.46
217.214	-19.46
217.432	-1.02
217.651	15.36
217.869	-48.13
218.087	33.79
218.306	33.79
218.524	19.46
218.742	72.7
218.96	44.03
219.179	93.18
219.397	-7.17
219.615	60.42
219.833	35.84
220.051	-72.7
220.27	56.32
220.488	-1.02
220.706	13.31
220.924	1.02
221.142	-31.74
221.36	66.56
221.578	-27.65
221.796	27.65
222.015	13.31
222.233	-19.46
222.451	56.32
222.669	33.79
222.887	9.22
223.105	19.46
223.323	9.22
223.541	17.41
223.759	33.79
223.977	13.31
224.195	41.98
224.413	-7.17
224.631	60.42
224.849	-3.07
225.067	91.13
225.285	27.65
225.503	-35.84
225.721	-29.7
225.939	7.17
226.157	-19.46
226.375	82.94
226.592	11.26
226.81	-72.7
227.028	41.98
227.246	-5.12
227.464	35.84
227.682	23.55
227.9	33.79
228.117	74.75
228.335	-7.17
228.553	74.75
228.771	25.6
228.989	21.5
229.206	37.89
229.424	62.46
229.642	-72.7
229.86	11.26
230.077	80.89
230.295	-5.12
230.513	31.74
230.731	87.04
230.948	27.65
231.166	70.65
231.384	-37.89
231.601	13.31
231.819	3.07
232.037	-58.37
232.254	-91.13
232.472	80.89
232.689	89.09
232.907	-44.03
233.125	41.98
233.342	23.55
233.56	89.09
233.777	-62.46
233.995	52.22
234.213	15.36
234.43	11.26
234.648	17.41
234.865	44.03
235.083	-52.22
235.3	-33.79
235.518	-3.07
235.735	58.37
235.953	39.94
236.17	-21.5
236.388	-50.18
236.605	87.04
236.822	125.95
237.04	52.22
237.257	39.94
237.475	9.22
237.692	25.6
237.909	-13.31
238.127	50.18
238.344	44.03
238.562	62.46
238.779	21.5
238.996	11.26
239.214	7.17
239.431	37.89
239.648	23.55
239.865	68.61
240.083	-89.09
240.3	15.36
240.517	-1.02
240.735	-7.17
240.952	44.03
241.169	29.7
241.386	39.94
241.603	68.61
241.821	82.94
242.038	48.13
242.255	31.74
242.472	-56.32
242.689	62.46
242.907	105.47
243.124	50.18
243.341	52.22
243.558	-13.31
243.775	33.79
243.992	-66.56
244.209	39.94
244.426	1.02
244.643	25.6
244.86	-33.79
245.078	31.74
245.295	-7.17
245.512	35.84
245.729	29.7
245.946	89.09
246.163	62.46
246.38	21.5
246.597	15.36
246.814	21.5
247.031	54.27
247.248	21.5
247.464	-11.26
247.681	89.09
247.898	27.65
248.115	25.6
248.332	1.02
248.549	105.47
248.766	72.7
248.983	-7.17
249.2	70.65
249.417	19.46
249.633	33.79
249.85	50.18
250.067	66.56
250.284	-13.31
250.501	19.46
250.717	7.17
250.934	25.6
251.151	-35.84
251.368	5.12
251.585	76.8
251.801	21.5
252.018	-1.02
252.235	-9.22
252.451	-33.79
252.668	87.04
252.885	64.51
253.102	31.74
253.318	-33.79
253.535	60.42
253.752	60.42
253.968	41.98
254.185	-17.41
254.401	-7.17
254.618	68.61
254.835	-15.36
255.051	-17.41
255.268	3.07
255.484	46.08
255.701	13.31
255.917	41.98
256.134	50.18
256.351	-27.65
256.567	-78.85
256.784	-13.31
257	-31.74
257.217	-15.36
257.433	64.51
257.65	68.61
257.866	-27.65
258.082	5.12
258.299	-19.46
258.515	15.36
258.732	-13.31
258.948	113.66
259.165	-13.31
259.381	-15.36
259.597	-21.5
259.814	-41.98
260.03	7.17
260.246	41.98
260.463	70.65
260.679	31.74
260.895	58.37
261.112	64.51
261.328	-25.6
261.544	-17.41
261.761	95.23
261.977	-66.56
262.193	-70.65
262.409	-39.94
262.626	11.26
262.842	27.65
263.058	-19.46
263.274	33.79
263.49	74.75
263.707	44.03
263.923	54.27
264.139	-23.55
264.355	-13.31
264.571	35.84
264.787	29.7
265.004	56.32
265.22	33.79
265.436	60.42
265.652	-1.02
265.868	23.55
266.084	-21.5
266.3	64.51
266.516	60.42
266.732	-50.18
266.948	-13.31
267.164	64.51
267.38	58.37
267.596	9.22
267.812	52.22
268.028	89.09
268.244	52.22
268.46	31.74
268.676	-54.27
268.892	19.46
269.108	11.26
269.324	-56.32
269.54	-29.7
269.756	-9.22
269.972	-29.7
270.188	72.7
270.403	-27.65
270.619	33.79
270.835	-9.22
271.051	-21.5
271.267	-25.6
271.483	21.5
271.698	31.74
271.914	27.65
272.13	3.07
272.346	-56.32
272.562	-9.22
272.777	60.42
272.993	48.13
273.209	50.18
273.425	-41.98
273.64	-35.84
273.856	29.7
274.072	-13.31
274.287	-31.74
274.503	80.89
274.719	72.7
274.934	9.22
275.15	41.98
275.366	9.22
275.581	31.74
275.797	-68.61
276.012	-35.84
276.228	1.02
276.444	-41.98
276.659	66.56
276.875	-3.07
277.09	25.6
277.306	33.79
277.521	109.57
277.737	-5.12
277.952	19.46
278.168	-7.17
278.383	99.33
278.599	60.42
278.814	-52.22
279.03	-15.36
279.245	64.51
279.461	-9.22
279.676	15.36
279.892	-33.79
280.107	84.99
280.322	31.74
280.538	13.31
280.753	11.26
280.969	-19.46
281.184	17.41
281.399	62.46
281.615	-7.17
281.83	-17.41
282.045	23.55
282.26	21.5
282.476	48.13
282.691	41.98
282.906	15.36
283.122	-9.22
283.337	37.89
283.552	44.03
283.767	31.74
283.983	11.26
284.198	1.02
284.413	54.27
284.628	48.13
284.843	48.13
285.058	62.46
285.274	11.26
285.489	3.07
285.704	46.08
285.919	46.08
286.134	29.7
286.349	7.17
286.564	-1.02
286.779	11.26
286.995	41.98
287.21	-5.12
287.425	5.12
287.64	27.65
287.855	-39.94
288.07	-1.02
288.285	80.89
288.5	52.22
288.715	-15.36
288.93	25.6
289.145	72.7
289.36	-17.41
289.575	25.6
289.79	-7.17
290.004	44.03
290.219	-23.55
290.434	80.89
290.649	9.22
290.864	1.02
291.079	-58.37
291.294	46.08
291.509	11.26
291.724	101.37
291.938	25.6
292.153	21.5
292.368	54.27
292.583	29.7
292.798	-66.56
293.012	52.22
293.227	23.55
293.442	64.51
293.657	3.07
293.871	19.46
294.086	52.22
294.301	50.18
294.516	-39.94
294.73	-5.12
294.945	-17.41
295.16	44.03
295.374	109.57
295.589	68.61
295.804	54.27
296.018	5.12
296.233	31.74
296.447	46.08
296.662	62.46
296.877	31.74
297.091	19.46
297.306	27.65
297.52	31.74
297.735	35.84
297.949	48.13
298.164	48.13
298.378	-9.22
298.593	-11.26
298.807	-9.22
299.022	1.02
299.236	72.7
299.451	109.57
299.665	-21.5
299.88	-21.5
300.094	23.55
300.309	33.79
300.523	3.07
300.737	-27.65
300.952	82.94
301.166	-52.22
301.381	-3.07
301.595	25.6
301.809	-1.02
302.024	19.46
302.238	-74.75
302.452	3.07
302.667	35.84
302.881	31.74
303.095	-5.12
303.309	27.65
303.524	-21.5
303.738	44.03
303.952	1.02
304.166	-41.98
304.381	-39.94
304.595	84.99
304.809	-19.46
305.023	41.98
305.237	56.32
305.452	33.79
305.666	25.6
305.88	35.84
306.094	-54.27
306.308	19.46
306.522	7.17
306.736	-41.98
306.95	76.8
307.164	31.74
307.379	11.26
307.593	70.65
307.807	19.46
308.021	1.02
308.235	3.07
308.449	58.37
308.663	-17.41
308.877	21.5
309.091	5.12
309.305	27.65
309.519	-15.36
309.733	39.94
309.947	-27.65
310.161	60.42
310.374	-11.26
310.588	3.07
310.802	21.5
311.016	93.18
311.23	-5.12
311.444	9.22
311.658	-21.5
311.872	72.7
312.085	29.7
312.299	78.85
312.513	17.41
312.727	17.41
312.941	39.94
313.154	-21.5
313.368	46.08
313.582	-13.31
313.796	25.6
314.009	60.42
314.223	23.55
314.437	19.46
314.651	-9.22
314.864	-46.08
315.078	58.37
315.292	-11.26
315.505	31.74
315.719	-5.12
315.933	-25.6
316.146	17.41
316.36	9.22
316.573	72.7
316.787	33.79
317.001	13.31
317.214	-9.22
317.428	46.08
317.641	-33.79
317.855	27.65
318.068	48.13
318.282	-19.46
318.495	-44.03
318.709	50.18
318.922	13.31
319.136	19.46
319.349	41.98
319.563	29.7
319.776	21.5
319.99	-50.18
320.203	-48.13
320.417	64.51
320.63	37.89
320.843	11.26
321.057	39.94
321.27	66.56
321.483	41.98
321.697	52.22
321.91	54.27
322.124	13.31
322.337	17.41
322.55	-9.22
322.763	80.89
322.977	-46.08
323.19	13.31
323.403	11.26
323.617	84.99
323.83	23.55
324.043	-29.7
324.256	125.95
324.469	-5.12
324.683	15.36
324.896	17.41
325.109	44.03
325.322	-25.6
325.535	50.18
325.748	-23.55
325.962	13.31
326.175	-58.37
326.388	50.18
326.601	70.65
326.814	109.57
327.027	-11.26
327.24	54.27
327.453	-60.42
327.666	60.42
327.879	27.65
328.092	41.98
328.305	72.7
328.518	-13.31
328.731	25.6
328.944	29.7
329.157	3.07
329.37	15.36
329.583	74.75
329.796	13.31
330.009	82.94
330.222	52.22
330.435	50.18
330.648	107.52
330.861	97.28
331.073	82.94
331.286	21.5
331.499	84.99
331.712	48.13
331.925	60.42
332.138	144.38
332.35	119.81
332.563	27.65
332.776	27.65
332.989	74.75
333.202	-76.8
333.414	41.98
333.627	-23.55
333.84	27.65
334.053	58.37
334.265	58.37
334.478	-50.18
334.691	-25.6
334.903	5.12
335.116	-23.55
335.329	-9.22
335.541	-31.74
335.754	-3.07
335.966	-17.41
336.179	-78.85
336.392	46.08
336.604	-9.22
336.817	58.37
337.029	50.18
337.242	17.41
337.454	23.55
337.667	46.08
337.88	58.37
338.092	58.37
338.305	9.22
338.517	3.07
338.729	5.12
338.942	-13.31
339.154	-13.31
339.367	33.79
339.579	-15.36
339.792	-11.26
340.004	5.12
340.217	44.03
340.429	58.37
340.641	52.22
340.854	-33.79
341.066	-39.94
341.278	56.32
341.491	1.02
341.703	56.32
341.915	-13.31
342.128	48.13
342.34	19.46
342.552	11.26
342.764	58.37
342.977	-5.12
343.189	87.04
343.401	93.18
343.613	-58.37
343.826	-1.02
344.038	-1.02
344.25	60.42
344.462	27.65
344.674	-13.31
344.886	-15.36
345.099	23.55
345.311	5.12
345.523	41.98
345.735	-19.46
345.947	11.26
346.159	39.94
346.371	78.85
346.583	31.74
346.795	99.33
347.007	-1.02
347.219	60.42
347.431	-23.55
347.643	48.13
347.855	-19.46
348.067	66.56
348.279	29.7
348.491	62.46
348.703	-13.31
348.915	-19.46
349.127	58.37
349.339	-5.12
349.551	21.5
349.763	-15.36
349.975	68.61
350.187	66.56
350.399	66.56
350.61	1.02
350.822	-5.12
351.034	50.18
351.246	56.32
351.458	60.42
351.669	7.17
351.881	3.07
352.093	35.84
352.305	50.18
352.517	48.13
352.728	58.37
352.94	-27.65
353.152	80.89
353.363	35.84
353.575	-7.17
353.787	17.41
353.999	41.98
354.21	44.03
354.422	76.8
354.633	15.36
354.845	74.75
355.057	-15.36
355.268	-5.12
355.48	109.57
355.692	-21.5
355.903	17.41
356.115	68.61
356.326	11.26
356.538	95.23
356.749	68.61
356.961	123.9
357.172	17.41
357.384	-46.08
357.595	35.84
357.807	35.84
358.018	-21.5
358.23	-29.7
358.441	-23.55
358.653	1.02
358.864	29.7
359.075	-7.17
359.287	27.65
359.498	31.74
359.709	113.66
359.921	27.65
360.132	19.46
360.344	-1.02
360.555	15.36
360.766	25.6
360.977	-7.17
361.189	27.65
361.4	25.6
361.611	107.52
361.823	3.07
362.034	19.46
362.245	-13.31
362.456	23.55
362.667	-7.17
362.879	13.31
363.09	-80.89
363.301	44.03
363.512	44.03
363.723	39.94
363.935	44.03
364.146	64.51
364.357	17.41
364.568	7.17
364.779	-5.12
364.99	3.07
365.201	-13.31
365.412	11.26
365.623	39.94
365.834	46.08
366.045	15.36
366.256	-23.55
366.467	52.22
366.678	1.02
366.889	-1.02
367.1	21.5
367.311	27.65
367.522	44.03
367.733	39.94
367.944	46.08
368.155	64.51
368.366	19.46
368.577	70.65
368.788	48.13
368.999	25.6
369.209	82.94
369.42	37.89
369.631	62.46
369.842	1.02
370.053	52.22
370.264	87.04
370.474	1.02
370.685	-25.6
370.896	103.42
371.107	35.84
371.317	44.03
371.528	44.03
371.739	68.61
371.95	5.12
372.16	76.8
372.371	-1.02
372.582	68.61
372.792	93.18
373.003	11.26
373.214	60.42
373.424	41.98
373.635	39.94
373.846	60.42
374.056	9.22
374.267	-3.07
374.477	23.55
374.688	125.95
374.898	-7.17
375.109	91.13
375.319	33.79
375.53	52.22
375.74	35.84
375.951	9.22
376.161	-15.36
376.372	41.98
376.582	70.65
376.793	48.13
377.003	-1.02
377.214	48.13
377.424	-1.02
377.635	101.37
377.845	87.04
378.055	56.32
378.266	29.7
378.476	-29.7
378.686	48.13
378.897	64.51
379.107	15.36
379.317	58.37
379.528	35.84
379.738	-5.12
379.948	-27.65
380.158	97.28
380.369	56.32
380.579	76.8
380.789	62.46
380.999	19.46
381.21	58.37
381.42	52.22
381.63	15.36
381.84	41.98
382.05	-9.22
382.261	-19.46
382.471	41.98
382.681	-33.79
382.891	68.61
383.101	64.51
383.311	7.17
383.521	-7.17
383.731	-82.94
383.941	128
384.151	-56.32
384.361	27.65
384.571	15.36
384.781	84.99
384.991	84.99
385.201	33.79
385.411	50.18
385.621	31.74
385.831	93.18
386.041	99.33
386.251	21.5
386.461	84.99
386.671	39.94
386.881	121.85
387.091	56.32
387.301	107.52
387.511	7.17
387.72	99.33
387.93	58.37
388.14	13.31
388.35	93.18
388.56	-9.22
388.769	52.22
388.979	125.95
389.189	27.65
389.399	138.24
389.609	-29.7
389.818	93.18
390.028	-7.17
390.238	-70.65
390.447	60.42
390.657	33.79
390.867	46.08
391.076	91.13
391.286	1.02
391.496	95.23
391.705	-3.07
391.915	89.09
392.125	-1.02
392.334	3.07
392.544	-3.07
392.753	76.8
392.963	19.46
393.172	58.37
393.382	37.89
393.591	44.03
393.801	60.42
394.01	76.8
394.22	44.03
394.429	130.05
394.639	52.22
394.848	76.8
395.058	46.08
395.267	121.85
395.477	68.61
395.686	95.23
395.895	27.65
396.105	68.61
396.314	7.17
396.524	93.18
396.733	41.98
396.942	140.29
397.152	37.89
397.361	72.7
397.57	109.57
397.78	76.8
397.989	93.18
398.198	41.98
398.407	84.99
398.617	39.94
398.826	1.02
399.035	72.7
399.244	44.03
399.453	68.61
399.663	93.18
399.872	93.18
400.081	95.23
400.29	107.52
400.499	80.89
400.708	82.94
400.917	68.61
401.127	46.08
401.336	76.8
401.545	97.28
401.754	95.23
401.963	97.28
402.172	56.32
402.381	46.08
402.59	109.57
402.799	146.43
403.008	162.81
403.217	130.05
403.426	76.8
403.635	97.28
403.844	76.8
404.053	50.18
404.262	72.7
404.471	113.66
404.68	99.33
404.888	91.13
405.097	80.89
405.306	113.66
405.515	105.47
405.724	117.76
405.933	195.58
406.142	70.65
406.35	236.54
406.559	50.18
406.768	80.89
406.977	107.52
407.185	152.57
407.394	101.37
407.603	146.43
407.812	154.62
408.02	97.28
408.229	158.72
408.438	195.58
408.646	197.63
408.855	107.52
409.064	197.63
409.272	179.2
409.481	93.18
409.69	179.2
409.898	115.71
410.107	183.29
410.315	238.59
410.524	168.96
410.733	263.16
410.941	232.44
411.15	271.36
411.358	285.69
411.567	244.73
411.775	230.4
411.984	240.64
412.192	281.6
412.401	244.73
412.609	353.27
412.818	381.95
413.026	357.37
413.234	287.74
413.443	277.5
413.651	279.55
413.86	328.7
414.068	357.37
414.276	400.38
414.485	422.91
414.693	484.34
414.901	492.54
415.11	455.67
415.318	437.24
415.526	584.7
415.734	490.49
415.943	465.91
416.151	627.7
416.359	519.16
416.567	478.2
416.776	609.27
416.984	648.18
417.192	619.51
417.4	631.8
417.608	637.94
417.817	705.53
418.025	621.56
418.233	764.92
418.441	683
418.649	797.68
418.857	807.92
419.065	766.96
419.273	801.78
419.481	844.79
419.689	953.33
419.897	957.43
420.105	967.67
420.313	1020.91
420.521	1051.63
420.729	1166.32
420.937	1082.35
421.145	1147.89
421.353	1215.47
421.561	1272.81
421.769	1309.68
421.977	1344.49
422.185	1330.16
422.393	1459.18
422.601	1424.36
422.809	1430.51
423.017	1426.41
423.224	1594.34
423.432	1633.26
423.64	1702.89
423.848	1745.89
424.056	1704.93
424.263	1872.87
424.471	1825.76
424.679	1985.51
424.887	2022.37
425.094	2067.42
425.302	2122.72
425.51	2057.18
425.718	2196.45
425.925	2163.68
426.133	2296.8
426.341	2431.96
426.548	2608.09
426.756	2472.92
426.964	2718.68
427.171	2681.82
427.379	2690.01
427.586	2788.31
427.794	2890.71
428.001	3083.22
428.209	3288.01
428.417	3115.98
428.624	3369.93
428.832	3326.93
429.039	3408.84
429.247	3351.5
429.454	3701.7
429.662	3935.17
429.869	3832.77
430.076	3926.98
430.284	3734.47
430.491	4033.47
430.699	4299.71
430.906	4166.59
431.114	4248.51
431.321	4502.46
431.528	4432.83
431.736	4680.63
431.943	4944.82
432.15	4981.68
432.358	4940.72
432.565	5194.67
432.772	5114.8
432.979	5434.29
433.187	5489.58
433.394	5499.82
433.601	5878.69
433.808	5880.74
434.016	5704.62
434.223	6077.35
434.43	6507.42
434.637	6509.47
434.844	6589.34
435.052	6912.92
435.259	7021.46
435.466	7072.66
435.673	6921.11
435.88	7431.05
436.087	7850.89
436.294	7730.06
436.501	7480.21
436.708	7615.37
436.915	8192.9
437.122	8248.19
437.329	8338.3
437.537	8405.89
437.743	8674.17
437.95	8797.05
438.157	9102.2
438.364	9364.34
438.571	9341.81
438.778	9487.22
438.985	10349.41
439.192	9890.67
439.399	10220.39
439.606	10060.65
439.813	10349.41
440.02	11180.89
440.227	11039.58
440.433	10906.46
440.64	11248.47
440.847	11058.01
441.054	11623.25
441.261	12223.3
441.467	12057.42
441.674	12215.11
441.881	12677.95
442.088	12684.09
442.294	12770.11
442.501	13112.12
442.708	13114.17
442.914	13521.71
443.121	14162.73
443.328	13906.73
443.534	14981.92
443.741	14322.47
443.948	14398.24
444.154	15344.41
444.361	15225.62
444.568	15272.73
444.774	15297.3
444.981	15747.86
445.187	15983.37
445.394	16569.09
445.6	16460.55
445.807	18043.63
446.013	17332.98
446.22	17558.26
446.426	18299.62
446.633	18461.41
446.839	19036.89
447.046	18125.55
447.252	19276.51
447.459	19432.15
447.665	19104.48
447.871	20191.95
448.078	20810.43
448.284	19991.25
448.491	20398.79
448.697	21435.06
448.903	21713.59
449.11	21742.26
449.316	21439.16
449.522	21746.36
449.728	22483.62
449.935	22528.68
450.141	22313.64
450.347	22624.93
450.553	22086.32
450.76	22413.99
450.966	23147.17
451.172	23009.95
451.378	23587.48
451.584	23024.29
451.791	23728.79
451.997	23489.18
452.203	23818.9
452.409	24064.66
452.615	23919.25
452.821	23130.78
453.027	22633.13
453.233	23818.9
453.44	22917.79
453.646	23327.39
453.852	23505.56
454.058	24017.55
454.264	22788.77
454.47	23399.07
454.676	22907.55
454.882	23743.13
455.088	21584.57
455.294	22063.79
455.5	22379.18
455.705	22743.72
455.911	21764.79
456.117	21334.71
456.323	20759.24
456.529	19671.76
456.735	20470.47
456.941	19923.66
457.147	20032.21
457.352	19063.52
457.558	18969.31
457.764	19084
457.97	18701.03
458.176	18062.06
458.381	18350.82
458.587	17711.86
458.793	17443.57
458.999	16454.4
459.204	17703.67
459.41	16843.52
459.616	15989.52
459.821	16032.52
460.027	16104.2
460.233	15553.3
460.438	14711.58
460.644	15235.86
460.85	14451.49
461.055	14117.67
461.261	14328.61
461.466	13028.15
461.672	12723.01
461.878	13443.89
462.083	12622.66
462.289	12499.78
462.494	12317.51
462.7	11686.73
462.905	11588.43
463.111	11993.93
463.316	11819.85
463.522	11742.03
463.727	11748.17
463.932	11924.3
464.138	11465.55
464.343	11774.8
464.549	11113.3
464.754	11680.59
464.959	11535.18
465.165	11133.78
465.37	10836.83
465.575	10781.53
465.781	11082.58
465.986	11006.81
466.191	10646.37
466.397	10603.36
466.602	10222.44
466.807	10394.47
467.012	10384.23
467.218	10345.31
467.423	10271.59
467.628	10296.16
467.833	10597.21
468.038	10199.91
468.244	9888.62
