Data from USB4F104151__10__11-36-22-492.txt Node

Date: Fri Mar 14 11:36:22 EDT 2025
User: louis
Spectrometer: USB4F10415
Trigger mode: 4
Integration Time (sec): 2.000000E-2
Scans to average: 1
Electric dark correction enabled: true
Nonlinearity correction enabled: false
Boxcar width: 0
XAxis mode: Wavelengths
Number of Pixels in Spectrum: 3648
>>>>>Begin Spectral Data<<<<<
178.204	58.37
178.424	58.37
178.644	58.37
178.864	-78.85
179.084	-64.51
179.304	31.74
179.524	-11.26
179.744	-21.5
179.964	33.79
180.184	-41.98
180.404	19.46
180.624	-3.07
180.844	-1.02
181.064	-48.13
181.283	27.65
181.503	-9.22
181.723	23.55
181.943	-54.27
182.163	11.26
182.383	48.13
182.602	35.84
182.822	-5.12
183.042	33.79
183.262	-7.17
183.482	89.09
183.701	-58.37
183.921	31.74
184.141	64.51
184.361	50.18
184.58	25.6
184.8	103.42
185.02	66.56
185.239	95.23
185.459	-13.31
185.679	52.22
185.898	-11.26
186.118	60.42
186.338	54.27
186.557	15.36
186.777	21.5
186.997	93.18
187.216	23.55
187.436	117.76
187.655	-19.46
187.875	44.03
188.095	56.32
188.314	74.75
188.534	-15.36
188.753	-1.02
188.973	50.18
189.192	109.57
189.412	-19.46
189.631	11.26
189.851	44.03
190.07	31.74
190.29	9.22
190.509	-33.79
190.729	-33.79
190.948	-19.46
191.168	84.99
191.387	31.74
191.607	-1.02
191.826	23.55
192.045	39.94
192.265	76.8
192.484	56.32
192.704	27.65
192.923	-25.6
193.142	21.5
193.362	1.02
193.581	-1.02
193.8	-7.17
194.02	52.22
194.239	44.03
194.458	50.18
194.678	-62.46
194.897	-9.22
195.116	17.41
195.335	111.61
195.555	50.18
195.774	29.7
195.993	31.74
196.212	105.47
196.432	13.31
196.651	72.7
196.87	13.31
197.089	82.94
197.308	9.22
197.528	68.61
197.747	21.5
197.966	-31.74
198.185	60.42
198.404	58.37
198.623	-46.08
198.842	76.8
199.062	25.6
199.281	35.84
199.5	44.03
199.719	56.32
199.938	35.84
200.157	-25.6
200.376	-13.31
200.595	-5.12
200.814	-11.26
201.033	60.42
201.252	-11.26
201.471	1.02
201.69	17.41
201.909	21.5
202.128	68.61
202.347	17.41
202.566	107.52
202.785	3.07
203.004	44.03
203.223	82.94
203.442	41.98
203.661	44.03
203.879	44.03
204.098	52.22
204.317	37.89
204.536	-21.5
204.755	21.5
204.974	-31.74
205.193	48.13
205.411	50.18
205.63	35.84
205.849	44.03
206.068	109.57
206.287	7.17
206.505	-3.07
206.724	-25.6
206.943	35.84
207.162	64.51
207.381	21.5
207.599	39.94
207.818	23.55
208.037	-11.26
208.255	-21.5
208.474	54.27
208.693	13.31
208.911	3.07
209.13	48.13
209.349	44.03
209.567	62.46
209.786	41.98
210.005	3.07
210.223	9.22
210.442	-44.03
210.661	-5.12
210.879	58.37
211.098	39.94
211.316	11.26
211.535	25.6
211.753	15.36
211.972	44.03
212.191	31.74
212.409	84.99
212.628	58.37
212.846	72.7
213.065	-37.89
213.283	39.94
213.502	23.55
213.72	-23.55
213.938	-41.98
214.157	52.22
214.375	44.03
214.594	60.42
214.812	-25.6
215.031	23.55
215.249	3.07
215.467	19.46
215.686	11.26
215.904	31.74
216.122	41.98
216.341	-21.5
216.559	35.84
216.778	25.6
216.996	64.51
217.214	27.65
217.432	68.61
217.651	50.18
217.869	23.55
218.087	58.37
218.306	78.85
218.524	109.57
218.742	60.42
218.96	52.22
219.179	68.61
219.397	21.5
219.615	115.71
219.833	-39.94
220.051	9.22
220.27	29.7
220.488	7.17
220.706	76.8
220.924	-29.7
221.142	11.26
221.36	3.07
221.578	13.31
221.796	78.85
222.015	35.84
222.233	-15.36
222.451	11.26
222.669	19.46
222.887	21.5
223.105	11.26
223.323	-13.31
223.541	3.07
223.759	15.36
223.977	-15.36
224.195	25.6
224.413	60.42
224.631	-5.12
224.849	44.03
225.067	78.85
225.285	17.41
225.503	99.33
225.721	-29.7
225.939	62.46
226.157	21.5
226.375	76.8
226.592	-15.36
226.81	46.08
227.028	11.26
227.246	117.76
227.464	21.5
227.682	23.55
227.9	37.89
228.117	41.98
228.335	50.18
228.553	19.46
228.771	84.99
228.989	72.7
229.206	-9.22
229.424	-3.07
229.642	60.42
229.86	-44.03
230.077	15.36
230.295	17.41
230.513	95.23
230.731	39.94
230.948	101.37
231.166	-23.55
231.384	78.85
231.601	29.7
231.819	23.55
232.037	-19.46
232.254	9.22
232.472	41.98
232.689	39.94
232.907	-48.13
233.125	39.94
233.342	19.46
233.56	-21.5
233.777	39.94
233.995	50.18
234.213	39.94
234.43	-5.12
234.648	-1.02
234.865	41.98
235.083	35.84
235.3	-1.02
235.518	70.65
235.735	50.18
235.953	52.22
236.17	54.27
236.388	-9.22
236.605	15.36
236.822	76.8
237.04	31.74
237.257	74.75
237.475	56.32
237.692	-9.22
237.909	48.13
238.127	64.51
238.344	52.22
238.562	105.47
238.779	23.55
238.996	76.8
239.214	103.42
239.431	27.65
239.648	-25.6
239.865	13.31
240.083	17.41
240.3	-9.22
240.517	33.79
240.735	39.94
240.952	46.08
241.169	-17.41
241.386	-58.37
241.603	66.56
241.821	13.31
242.038	52.22
242.255	44.03
242.472	62.46
242.689	58.37
242.907	31.74
243.124	58.37
243.341	17.41
243.558	11.26
243.775	17.41
243.992	31.74
244.209	-27.65
244.426	33.79
244.643	-13.31
244.86	37.89
245.078	17.41
245.295	35.84
245.512	13.31
245.729	-11.26
245.946	39.94
246.163	15.36
246.38	-1.02
246.597	41.98
246.814	66.56
247.031	64.51
247.248	27.65
247.464	7.17
247.681	23.55
247.898	50.18
248.115	19.46
248.332	48.13
248.549	109.57
248.766	74.75
248.983	35.84
249.2	121.85
249.417	95.23
249.633	-21.5
249.85	50.18
250.067	-9.22
250.284	-5.12
250.501	-1.02
250.717	46.08
250.934	-19.46
251.151	50.18
251.368	5.12
251.585	56.32
251.801	-23.55
252.018	-41.98
252.235	-5.12
252.451	44.03
252.668	68.61
252.885	-64.51
253.102	-29.7
253.318	-66.56
253.535	-9.22
253.752	74.75
253.968	19.46
254.185	56.32
254.401	11.26
254.618	1.02
254.835	33.79
255.051	97.28
255.268	56.32
255.484	-1.02
255.701	21.5
255.917	31.74
256.134	41.98
256.351	-29.7
256.567	35.84
256.784	66.56
257	-15.36
257.217	11.26
257.433	-21.5
257.65	-35.84
257.866	19.46
258.082	62.46
258.299	1.02
258.515	37.89
258.732	-5.12
258.948	44.03
259.165	-52.22
259.381	-58.37
259.597	52.22
259.814	-3.07
260.03	19.46
260.246	60.42
260.463	37.89
260.679	15.36
260.895	-13.31
261.112	5.12
261.328	-5.12
261.544	64.51
261.761	46.08
261.977	27.65
262.193	-1.02
262.409	95.23
262.626	-25.6
262.842	52.22
263.058	-7.17
263.274	37.89
263.49	70.65
263.707	50.18
263.923	111.61
264.139	-25.6
264.355	56.32
264.571	95.23
264.787	-5.12
265.004	46.08
265.22	39.94
265.436	23.55
265.652	113.66
265.868	11.26
266.084	64.51
266.3	66.56
266.516	25.6
266.732	27.65
266.948	23.55
267.164	21.5
267.38	31.74
267.596	7.17
267.812	121.85
268.028	80.89
268.244	9.22
268.46	-5.12
268.676	21.5
268.892	95.23
269.108	70.65
269.324	19.46
269.54	72.7
269.756	19.46
269.972	-5.12
270.188	60.42
270.403	-7.17
270.619	13.31
270.835	80.89
271.051	1.02
271.267	50.18
271.483	35.84
271.698	76.8
271.914	11.26
272.13	23.55
272.346	35.84
272.562	17.41
272.777	19.46
272.993	46.08
273.209	27.65
273.425	62.46
273.64	9.22
273.856	89.09
274.072	-37.89
274.287	-19.46
274.503	93.18
274.719	50.18
274.934	37.89
275.15	-5.12
275.366	31.74
275.581	-21.5
275.797	33.79
276.012	11.26
276.228	-15.36
276.444	-7.17
276.659	17.41
276.875	-3.07
277.09	-3.07
277.306	9.22
277.521	25.6
277.737	-3.07
277.952	-9.22
278.168	87.04
278.383	82.94
278.599	15.36
278.814	35.84
279.03	-1.02
279.245	68.61
279.461	70.65
279.676	44.03
279.892	-15.36
280.107	35.84
280.322	3.07
280.538	31.74
280.753	19.46
280.969	54.27
281.184	11.26
281.399	109.57
281.615	54.27
281.83	64.51
282.045	-17.41
282.26	-17.41
282.476	25.6
282.691	60.42
282.906	46.08
283.122	-13.31
283.337	29.7
283.552	13.31
283.767	-41.98
283.983	64.51
284.198	82.94
284.413	56.32
284.628	-37.89
284.843	-21.5
285.058	-21.5
285.274	15.36
285.489	56.32
285.704	95.23
285.919	19.46
286.134	56.32
286.349	-27.65
286.564	25.6
286.779	99.33
286.995	33.79
287.21	-17.41
287.425	11.26
287.64	-41.98
287.855	5.12
288.07	13.31
288.285	33.79
288.5	117.76
288.715	68.61
288.93	17.41
289.145	-1.02
289.36	31.74
289.575	19.46
289.79	60.42
290.004	33.79
290.219	37.89
290.434	27.65
290.649	3.07
290.864	25.6
291.079	-23.55
291.294	48.13
291.509	35.84
291.724	27.65
291.938	82.94
292.153	44.03
292.368	101.37
292.583	27.65
292.798	58.37
293.012	130.05
293.227	-13.31
293.442	25.6
293.657	48.13
293.871	17.41
294.086	23.55
294.301	60.42
294.516	37.89
294.73	46.08
294.945	11.26
295.16	115.71
295.374	-5.12
295.589	-48.13
295.804	-21.5
296.018	82.94
296.233	1.02
296.447	17.41
296.662	-41.98
296.877	-1.02
297.091	82.94
297.306	29.7
297.52	52.22
297.735	64.51
297.949	50.18
298.164	23.55
298.378	1.02
298.593	-15.36
298.807	-5.12
299.022	11.26
299.236	52.22
299.451	58.37
299.665	-13.31
299.88	54.27
300.094	52.22
300.309	27.65
300.523	44.03
300.737	11.26
300.952	15.36
301.166	48.13
301.381	9.22
301.595	27.65
301.809	-7.17
302.024	29.7
302.238	19.46
302.452	89.09
302.667	9.22
302.881	19.46
303.095	91.13
303.309	84.99
303.524	33.79
303.738	64.51
303.952	9.22
304.166	82.94
304.381	-15.36
304.595	52.22
304.809	64.51
305.023	78.85
305.237	56.32
305.452	50.18
305.666	31.74
305.88	50.18
306.094	46.08
306.308	23.55
306.522	7.17
306.736	31.74
306.95	74.75
307.164	60.42
307.379	35.84
307.593	80.89
307.807	-27.65
308.021	41.98
308.235	15.36
308.449	-17.41
308.663	9.22
308.877	25.6
309.091	-29.7
309.305	50.18
309.519	1.02
309.733	33.79
309.947	-7.17
310.161	76.8
310.374	3.07
310.588	7.17
310.802	66.56
311.016	60.42
311.23	-15.36
311.444	60.42
311.658	121.85
311.872	48.13
312.085	68.61
312.299	27.65
312.513	44.03
312.727	27.65
312.941	25.6
313.154	-7.17
313.368	17.41
313.582	19.46
313.796	27.65
314.009	87.04
314.223	33.79
314.437	68.61
314.651	39.94
314.864	48.13
315.078	35.84
315.292	54.27
315.505	7.17
315.719	82.94
315.933	-39.94
316.146	95.23
316.36	54.27
316.573	25.6
316.787	33.79
317.001	54.27
317.214	39.94
317.428	54.27
317.641	29.7
317.855	11.26
318.068	21.5
318.282	60.42
318.495	121.85
318.709	60.42
318.922	72.7
319.136	103.42
319.349	132.09
319.563	23.55
319.776	39.94
319.99	-9.22
320.203	-25.6
320.417	68.61
320.63	25.6
320.843	130.05
321.057	35.84
321.27	89.09
321.483	66.56
321.697	19.46
321.91	33.79
322.124	9.22
322.337	78.85
322.55	3.07
322.763	130.05
322.977	-1.02
323.19	68.61
323.403	50.18
323.617	-46.08
323.83	1.02
324.043	107.52
324.256	-46.08
324.469	44.03
324.683	31.74
324.896	3.07
325.109	50.18
325.322	56.32
325.535	-17.41
325.748	72.7
325.962	33.79
326.175	72.7
326.388	11.26
326.601	31.74
326.814	52.22
327.027	-17.41
327.24	39.94
327.453	19.46
327.666	84.99
327.879	44.03
328.092	138.24
328.305	72.7
328.518	62.46
328.731	62.46
328.944	113.66
329.157	50.18
329.37	31.74
329.583	7.17
329.796	7.17
330.009	72.7
330.222	99.33
330.435	74.75
330.648	74.75
330.861	19.46
331.073	35.84
331.286	35.84
331.499	64.51
331.712	-21.5
331.925	74.75
332.138	19.46
332.35	27.65
332.563	7.17
332.776	72.7
332.989	19.46
333.202	9.22
333.414	105.47
333.627	72.7
333.84	39.94
334.053	-21.5
334.265	11.26
334.478	76.8
334.691	52.22
334.903	13.31
335.116	7.17
335.329	11.26
335.541	13.31
335.754	80.89
335.966	52.22
336.179	15.36
336.392	48.13
336.604	44.03
336.817	109.57
337.029	-13.31
337.242	60.42
337.454	115.71
337.667	25.6
337.88	68.61
338.092	99.33
338.305	76.8
338.517	39.94
338.729	3.07
338.942	64.51
339.154	19.46
339.367	-19.46
339.579	60.42
339.792	29.7
340.004	76.8
340.217	39.94
340.429	29.7
340.641	15.36
340.854	54.27
341.066	-1.02
341.278	29.7
341.491	29.7
341.703	25.6
341.915	64.51
342.128	68.61
342.34	21.5
342.552	27.65
342.764	-5.12
342.977	44.03
343.189	27.65
343.401	109.57
343.613	-39.94
343.826	5.12
344.038	1.02
344.25	64.51
344.462	-29.7
344.674	46.08
344.886	23.55
345.099	46.08
345.311	125.95
345.523	56.32
345.735	-9.22
345.947	132.09
346.159	46.08
346.371	97.28
346.583	125.95
346.795	84.99
347.007	101.37
347.219	56.32
347.431	-9.22
347.643	93.18
347.855	78.85
348.067	3.07
348.279	93.18
348.491	64.51
348.703	44.03
348.915	97.28
349.127	27.65
349.339	142.33
349.551	-5.12
349.763	125.95
349.975	64.51
350.187	35.84
350.399	41.98
350.61	84.99
350.822	39.94
351.034	82.94
351.246	35.84
351.458	23.55
351.669	123.9
351.881	50.18
352.093	35.84
352.305	39.94
352.517	17.41
352.728	68.61
352.94	64.51
353.152	23.55
353.363	72.7
353.575	23.55
353.787	58.37
353.999	33.79
354.21	103.42
354.422	-13.31
354.633	84.99
354.845	41.98
355.057	78.85
355.268	64.51
355.48	50.18
355.692	3.07
355.903	41.98
356.115	84.99
356.326	39.94
356.538	37.89
356.749	70.65
356.961	84.99
357.172	-9.22
357.384	52.22
357.595	25.6
357.807	54.27
358.018	41.98
358.23	27.65
358.441	46.08
358.653	109.57
358.864	58.37
359.075	29.7
359.287	70.65
359.498	19.46
359.709	17.41
359.921	44.03
360.132	41.98
360.344	82.94
360.555	35.84
360.766	-17.41
360.977	91.13
361.189	121.85
361.4	50.18
361.611	41.98
361.823	39.94
362.034	105.47
362.245	37.89
362.456	41.98
362.667	-25.6
362.879	23.55
363.09	101.37
363.301	87.04
363.512	44.03
363.723	35.84
363.935	11.26
364.146	123.9
364.357	27.65
364.568	17.41
364.779	-1.02
364.99	84.99
365.201	52.22
365.412	31.74
365.623	-1.02
365.834	70.65
366.045	5.12
366.256	115.71
366.467	1.02
366.678	29.7
366.889	33.79
367.1	9.22
367.311	44.03
367.522	93.18
367.733	187.39
367.944	80.89
368.155	31.74
368.366	54.27
368.577	74.75
368.788	95.23
368.999	27.65
369.209	89.09
369.42	72.7
369.631	11.26
369.842	136.19
370.053	15.36
370.264	72.7
370.474	66.56
370.685	62.46
370.896	3.07
371.107	27.65
371.317	35.84
371.528	44.03
371.739	39.94
371.95	158.72
372.16	87.04
372.371	19.46
372.582	33.79
372.792	52.22
373.003	54.27
373.214	13.31
373.424	91.13
373.635	74.75
373.846	109.57
374.056	54.27
374.267	11.26
374.477	99.33
374.688	54.27
374.898	35.84
375.109	121.85
375.319	52.22
375.53	31.74
375.74	64.51
375.951	105.47
376.161	52.22
376.372	99.33
376.582	44.03
376.793	99.33
377.003	31.74
377.214	35.84
377.424	46.08
377.635	76.8
377.845	87.04
378.055	31.74
378.266	-58.37
378.476	84.99
378.686	74.75
378.897	66.56
379.107	60.42
379.317	58.37
379.528	-46.08
379.738	1.02
379.948	-13.31
380.158	125.95
380.369	60.42
380.579	50.18
380.789	48.13
380.999	101.37
381.21	105.47
381.42	50.18
381.63	15.36
381.84	15.36
382.05	44.03
382.261	84.99
382.471	56.32
382.681	25.6
382.891	91.13
383.101	31.74
383.311	31.74
383.521	64.51
383.731	-13.31
383.941	130.05
384.151	35.84
384.361	105.47
384.571	84.99
384.781	-3.07
384.991	72.7
385.201	103.42
385.411	93.18
385.621	58.37
385.831	76.8
386.041	33.79
386.251	80.89
386.461	46.08
386.671	101.37
386.881	82.94
387.091	84.99
387.301	60.42
387.511	29.7
387.72	66.56
387.93	64.51
388.14	29.7
388.35	60.42
388.56	125.95
388.769	78.85
388.979	7.17
389.189	35.84
389.399	17.41
389.609	64.51
389.818	125.95
390.028	84.99
390.238	72.7
390.447	15.36
390.657	109.57
390.867	50.18
391.076	95.23
391.286	128
391.496	164.86
391.705	-5.12
391.915	80.89
392.125	89.09
392.334	132.09
392.544	41.98
392.753	72.7
392.963	58.37
393.172	93.18
393.382	91.13
393.591	50.18
393.801	46.08
394.01	107.52
394.22	142.33
394.429	99.33
394.639	107.52
394.848	52.22
395.058	72.7
395.267	130.05
395.477	48.13
395.686	66.56
395.895	154.62
396.105	158.72
396.314	195.58
396.524	123.9
396.733	138.24
396.942	111.61
397.152	93.18
397.361	89.09
397.57	80.89
397.78	95.23
397.989	125.95
398.198	158.72
398.407	52.22
398.617	50.18
398.826	72.7
399.035	130.05
399.244	95.23
399.453	113.66
399.663	156.67
399.872	78.85
400.081	150.53
400.29	148.48
400.499	46.08
400.708	150.53
400.917	142.33
401.127	113.66
401.336	175.1
401.545	82.94
401.754	84.99
401.963	74.75
402.172	54.27
402.381	107.52
402.59	113.66
402.799	68.61
403.008	121.85
403.217	117.76
403.426	142.33
403.635	132.09
403.844	150.53
404.053	175.1
404.262	117.76
404.471	234.49
404.68	211.96
404.888	152.57
405.097	91.13
405.306	138.24
405.515	183.29
405.724	199.68
405.933	171.01
406.142	242.68
406.35	181.25
406.559	205.82
406.768	199.68
406.977	240.64
407.185	211.96
407.394	222.2
407.603	138.24
407.812	158.72
408.02	250.88
408.229	199.68
408.438	220.16
408.646	199.68
408.855	179.2
409.064	349.18
409.272	285.69
409.481	275.45
409.69	222.2
409.898	291.84
410.107	318.46
410.315	379.9
410.524	361.47
410.733	363.51
410.941	306.17
411.15	386.04
411.358	369.66
411.567	412.67
411.775	429.05
411.984	377.85
412.192	461.82
412.401	439.29
412.609	383.99
412.818	541.69
413.026	486.39
413.234	525.3
413.443	523.26
413.651	523.26
413.86	541.69
414.068	633.85
414.276	576.5
414.485	580.6
414.693	738.29
414.901	676.85
415.11	689.14
415.318	736.24
415.526	652.28
415.734	836.6
415.943	838.64
416.151	834.55
416.359	777.2
416.567	893.94
416.776	969.71
416.984	895.99
417.192	982
417.4	977.91
417.608	967.67
417.817	1037.3
418.025	1098.74
418.233	1221.61
418.441	1164.27
418.649	1229.81
418.857	1287.15
419.065	1248.24
419.273	1182.7
419.481	1315.82
419.689	1463.27
419.897	1547.24
420.105	1602.54
420.313	1561.58
420.521	1602.54
420.729	1612.78
420.937	1725.41
421.145	1694.69
421.353	1924.07
421.561	1971.17
421.769	1965.03
421.977	2098.14
422.185	1950.69
422.393	2173.92
422.601	2270.17
422.809	2327.52
423.017	2225.12
423.224	2520.03
423.432	2311.13
423.64	2454.49
423.848	2841.56
424.056	2649.05
424.263	2823.12
424.471	2943.96
424.679	2958.29
424.887	2948.05
425.094	3120.08
425.302	3107.79
425.51	3359.69
425.718	3316.69
425.925	3466.19
426.133	3646.41
426.341	3738.57
426.548	3949.51
426.756	4029.38
426.964	3902.4
427.171	4131.78
427.379	4334.53
427.586	4381.63
427.794	4686.78
428.001	4871.09
428.209	4934.58
428.417	4877.24
428.624	5301.17
428.832	5299.12
429.039	5366.7
429.247	5303.22
429.454	5815.21
429.662	6073.25
429.869	5743.53
430.076	6161.31
430.284	5907.37
430.491	6333.34
430.699	6601.63
430.906	6380.45
431.114	6681.5
431.321	7035.8
431.528	7062.42
431.736	7605.13
431.943	7748.49
432.15	7637.9
432.358	7480.21
432.565	8133.51
432.772	8237.95
432.979	8434.56
433.187	8620.92
433.394	8797.05
433.601	9245.55
433.808	9208.69
434.016	9194.36
434.223	9491.31
434.43	10152.81
434.637	9905
434.844	10589.02
435.052	10666.85
435.259	10705.76
435.466	10951.51
435.673	10834.78
435.88	11440.98
436.087	12151.62
436.294	12143.43
436.501	11897.67
436.708	12102.47
436.915	12378.95
437.122	12923.71
437.329	13214.52
437.537	13404.98
437.743	13579.06
437.95	13710.13
438.157	14211.88
438.364	14732.06
438.571	14826.27
438.778	14654.24
438.985	16341.77
439.192	15559.44
439.399	15852.3
439.606	15500.05
439.813	16481.03
440.02	17363.7
440.227	17091.32
440.433	17105.66
440.64	17816.3
440.847	17711.86
441.054	18258.67
441.261	19090.14
441.467	18846.43
441.674	19516.12
441.881	20009.68
442.088	20054.73
442.294	19774.16
442.501	20345.55
442.708	20646.6
442.914	21777.08
443.121	22549.16
443.328	21985.97
443.534	23683.73
443.741	22760.1
443.948	22586.02
444.154	23894.68
444.361	24060.56
444.568	24109.71
444.774	24203.92
444.981	24709.77
445.187	25209.47
445.394	26247.79
445.6	25698.94
445.807	28443.21
446.013	27499.1
446.22	27877.97
446.426	28899.91
446.633	29297.22
446.839	30296.63
447.046	29188.67
447.252	30159.41
447.459	30691.88
447.665	30536.24
447.871	31605.28
448.078	32907.79
448.284	31308.32
448.491	32516.62
448.697	33872.38
448.903	34466.29
449.11	34468.34
449.316	33837.56
449.522	34660.85
449.728	35488.23
449.935	35533.28
450.141	35770.85
450.347	36135.38
450.553	35283.43
450.76	35568.1
450.966	36856.27
451.172	36082.14
451.378	37327.3
451.584	36321.75
451.791	37687.74
451.997	37700.03
452.203	37777.86
452.409	37931.45
452.615	37665.22
452.821	36528.59
453.027	36387.28
453.233	38121.91
453.44	36575.7
453.646	36979.15
453.852	37048.78
454.058	37548.48
454.264	36436.44
454.47	37292.49
454.676	36407.76
454.882	37503.43
455.088	34179.57
455.294	35041.77
455.5	35504.61
455.705	35385.83
455.911	34306.55
456.117	33747.45
456.323	33067.53
456.529	31332.9
456.735	33241.6
456.941	32221.72
457.147	31623.71
457.352	30349.87
457.558	30259.76
457.764	30362.16
457.97	29637.18
458.176	29291.07
458.381	28861
458.587	27724.38
458.793	27605.59
458.999	26385.01
459.204	27992.66
459.41	27325.02
459.616	25209.47
459.821	25428.6
460.027	25268.86
460.233	24933
460.438	23952.02
460.644	24175.25
460.85	22919.84
461.055	22680.23
461.261	22528.68
461.466	20708.04
461.672	20251.34
461.878	21559.99
462.083	20097.74
462.289	19854.03
462.494	19706.58
462.7	18866.91
462.905	18096.88
463.111	18881.25
463.316	19071.71
463.522	18438.89
463.727	18506.47
463.932	18240.23
464.138	18301.67
464.343	18496.23
464.549	17820.4
464.754	18422.5
464.959	18152.17
465.165	18131.69
465.37	17328.89
465.575	16896.77
465.781	17462.01
465.986	17789.68
466.191	17005.31
466.397	16691.97
466.602	15956.75
466.807	16575.24
467.012	16317.19
467.218	16208.65
467.423	16136.97
467.628	16401.16
467.833	16917.25
