Data from USB4F104151__37__12-00-49-490.txt Node

Date: Fri Mar 14 12:00:49 EDT 2025
User: louis
Spectrometer: USB4F10415
Trigger mode: 4
Integration Time (sec): 2.000000E-2
Scans to average: 1
Electric dark correction enabled: true
Nonlinearity correction enabled: false
Boxcar width: 0
XAxis mode: Wavelengths
Number of Pixels in Spectrum: 3648
>>>>>Begin Spectral Data<<<<<
178.204	-45.74
178.424	-45.74
178.644	-45.74
178.864	-74.41
179.084	-37.55
179.304	50.52
179.524	-43.69
179.744	-58.03
179.964	9.56
180.184	13.65
180.404	46.42
180.624	21.84
180.844	-12.97
181.064	-0.68
181.283	-27.31
181.503	-10.92
181.723	11.61
181.943	-33.45
182.163	58.71
182.383	101.72
182.602	13.65
182.822	-4.78
183.042	-8.87
183.262	73.04
183.482	-21.16
183.701	-45.74
183.921	-19.11
184.141	11.61
184.361	42.32
184.58	15.7
184.8	17.75
185.02	77.14
185.239	9.56
185.459	46.42
185.679	34.13
185.898	3.41
186.118	52.56
186.338	-15.02
186.557	30.04
186.777	5.46
186.997	13.65
187.216	9.56
187.436	93.52
187.655	-31.4
187.875	58.71
188.095	34.13
188.314	27.99
188.534	11.61
188.753	111.96
188.973	48.47
189.192	3.41
189.412	17.75
189.631	124.24
189.851	73.04
190.07	60.76
190.29	-15.02
190.509	52.56
190.729	17.75
190.948	-2.73
191.168	136.53
191.387	44.37
191.607	30.04
191.826	27.99
192.045	-60.07
192.265	-2.73
192.484	58.71
192.704	13.65
192.923	17.75
193.142	60.76
193.362	-2.73
193.581	46.42
193.8	42.32
194.02	21.84
194.239	62.8
194.458	99.67
194.678	-2.73
194.897	11.61
195.116	13.65
195.335	3.41
195.555	58.71
195.774	21.84
195.993	52.56
196.212	9.56
196.432	40.28
196.651	7.51
196.87	5.46
197.089	71
197.308	58.71
197.528	91.48
197.747	-23.21
197.966	64.85
198.185	58.71
198.404	83.28
198.623	66.9
198.842	27.99
199.062	52.56
199.281	87.38
199.5	-35.5
199.719	-10.92
199.938	27.99
200.157	34.13
200.376	-2.73
200.595	58.71
200.814	5.46
201.033	13.65
201.252	73.04
201.471	85.33
201.69	124.24
201.909	19.8
202.128	-19.11
202.347	83.28
202.566	21.84
202.785	-10.92
203.004	-25.26
203.223	73.04
203.442	-15.02
203.661	-43.69
203.879	99.67
204.098	40.28
204.317	46.42
204.536	66.9
204.755	-12.97
204.974	124.24
205.193	130.39
205.411	48.47
205.63	32.08
205.849	89.43
206.068	75.09
206.287	38.23
206.505	107.86
206.724	11.61
206.943	-17.07
207.162	46.42
207.381	5.46
207.599	-2.73
207.818	46.42
208.037	25.94
208.255	-58.03
208.474	48.47
208.693	38.23
208.911	-19.11
209.13	50.52
209.349	25.94
209.567	27.99
209.786	-31.4
210.005	32.08
210.223	13.65
210.442	-47.79
210.661	54.61
210.879	77.14
211.098	105.81
211.316	60.76
211.535	62.8
211.753	25.94
211.972	32.08
212.191	-17.07
212.409	-4.78
212.628	7.51
212.846	1.37
213.065	11.61
213.283	25.94
213.502	-19.11
213.72	-33.45
213.938	68.95
214.157	34.13
214.375	-8.87
214.594	-10.92
214.812	-2.73
215.031	13.65
215.249	34.13
215.467	52.56
215.686	54.61
215.904	122.2
216.122	11.61
216.341	66.9
216.559	19.8
216.778	40.28
216.996	56.66
217.214	68.95
217.432	38.23
217.651	-6.83
217.869	-2.73
218.087	9.56
218.306	15.7
218.524	-25.26
218.742	50.52
218.96	9.56
219.179	56.66
219.397	-62.12
219.615	48.47
219.833	-55.98
220.051	66.9
220.27	95.57
220.488	7.51
220.706	19.8
220.924	9.56
221.142	30.04
221.36	7.51
221.578	83.28
221.796	17.75
222.015	56.66
222.233	25.94
222.451	91.48
222.669	-4.78
222.887	27.99
223.105	-39.59
223.323	-15.02
223.541	-17.07
223.759	7.51
223.977	66.9
224.195	93.52
224.413	5.46
224.631	101.72
224.849	11.61
225.067	64.85
225.285	30.04
225.503	46.42
225.721	48.47
225.939	9.56
226.157	64.85
226.375	116.05
226.592	-19.11
226.81	-6.83
227.028	-33.45
227.246	56.66
227.464	42.32
227.682	3.41
227.9	46.42
228.117	75.09
228.335	30.04
228.553	46.42
228.771	9.56
228.989	62.8
229.206	17.75
229.424	-70.31
229.642	-23.21
229.86	46.42
230.077	3.41
230.295	64.85
230.513	48.47
230.731	3.41
230.948	66.9
231.166	44.37
231.384	-41.64
231.601	85.33
231.819	-23.21
232.037	5.46
232.254	-12.97
232.472	30.04
232.689	-12.97
232.907	66.9
233.125	-17.07
233.342	13.65
233.56	40.28
233.777	75.09
233.995	50.52
234.213	85.33
234.43	42.32
234.648	60.76
234.865	30.04
235.083	58.71
235.3	17.75
235.518	27.99
235.735	1.37
235.953	11.61
236.17	52.56
236.388	64.85
236.605	-8.87
236.822	75.09
237.04	99.67
237.257	52.56
237.475	30.04
237.692	48.47
237.909	64.85
238.127	60.76
238.344	54.61
238.562	-31.4
238.779	-21.16
238.996	-10.92
239.214	17.75
239.431	-23.21
239.648	21.84
239.865	-35.5
240.083	56.66
240.3	44.37
240.517	32.08
240.735	54.61
240.952	-0.68
241.169	64.85
241.386	83.28
241.603	52.56
241.821	38.23
242.038	64.85
242.255	7.51
242.472	62.8
242.689	3.41
242.907	52.56
243.124	56.66
243.341	-37.55
243.558	3.41
243.775	-35.5
243.992	9.56
244.209	40.28
244.426	79.19
244.643	32.08
244.86	-49.83
245.078	62.8
245.295	19.8
245.512	15.7
245.729	15.7
245.946	15.7
246.163	3.41
246.38	52.56
246.597	66.9
246.814	42.32
247.031	32.08
247.248	93.52
247.464	17.75
247.681	-31.4
247.898	118.1
248.115	79.19
248.332	30.04
248.549	15.7
248.766	54.61
248.983	101.72
249.2	44.37
249.417	52.56
249.633	140.63
249.85	44.37
250.067	-25.26
250.284	40.28
250.501	60.76
250.717	52.56
250.934	11.61
251.151	77.14
251.368	5.46
251.585	79.19
251.801	42.32
252.018	40.28
252.235	25.94
252.451	64.85
252.668	-0.68
252.885	58.71
253.102	52.56
253.318	81.24
253.535	9.56
253.752	42.32
253.968	34.13
254.185	-2.73
254.401	111.96
254.618	64.85
254.835	64.85
255.051	134.48
255.268	3.41
255.484	23.89
255.701	-41.64
255.917	-2.73
256.134	-4.78
256.351	38.23
256.567	52.56
256.784	34.13
257	23.89
257.217	13.65
257.433	56.66
257.65	50.52
257.866	23.89
258.082	48.47
258.299	62.8
258.515	54.61
258.732	21.84
258.948	64.85
259.165	62.8
259.381	103.76
259.597	64.85
259.814	-21.16
260.03	7.51
260.246	-29.35
260.463	58.71
260.679	56.66
260.895	40.28
261.112	44.37
261.328	34.13
261.544	-10.92
261.761	46.42
261.977	-2.73
262.193	-6.83
262.409	23.89
262.626	68.95
262.842	60.76
263.058	75.09
263.274	89.43
263.49	77.14
263.707	114
263.923	5.46
264.139	-2.73
264.355	-33.45
264.571	77.14
264.787	23.89
265.004	71
265.22	42.32
265.436	19.8
265.652	93.52
265.868	71
266.084	30.04
266.3	7.51
266.516	5.46
266.732	68.95
266.948	-23.21
267.164	25.94
267.38	-2.73
267.596	25.94
267.812	105.81
268.028	36.18
268.244	-78.51
268.46	66.9
268.676	3.41
268.892	89.43
269.108	27.99
269.324	97.62
269.54	46.42
269.756	75.09
269.972	17.75
270.188	38.23
270.403	3.41
270.619	36.18
270.835	17.75
271.051	-12.97
271.267	64.85
271.483	46.42
271.698	124.24
271.914	21.84
272.13	21.84
272.346	60.76
272.562	19.8
272.777	56.66
272.993	77.14
273.209	7.51
273.425	17.75
273.64	-2.73
273.856	44.37
274.072	71
274.287	1.37
274.503	23.89
274.719	-8.87
274.934	36.18
275.15	7.51
275.366	79.19
275.581	13.65
275.797	23.89
276.012	-45.74
276.228	58.71
276.444	73.04
276.659	36.18
276.875	-58.03
277.09	13.65
277.306	42.32
277.521	154.96
277.737	34.13
277.952	62.8
278.168	-8.87
278.383	11.61
278.599	54.61
278.814	23.89
279.03	38.23
279.245	30.04
279.461	3.41
279.676	-60.07
279.892	73.04
280.107	11.61
280.322	-4.78
280.538	-0.68
280.753	-17.07
280.969	44.37
281.184	62.8
281.399	64.85
281.615	56.66
281.83	19.8
282.045	64.85
282.26	56.66
282.476	15.7
282.691	23.89
282.906	64.85
283.122	25.94
283.337	23.89
283.552	87.38
283.767	1.37
283.983	19.8
284.198	-6.83
284.413	52.56
284.628	-43.69
284.843	54.61
285.058	60.76
285.274	34.13
285.489	-31.4
285.704	48.47
285.919	-10.92
286.134	-35.5
286.349	105.81
286.564	-8.87
286.779	66.9
286.995	66.9
287.21	-17.07
287.425	50.52
287.64	64.85
287.855	25.94
288.07	-17.07
288.285	124.24
288.5	99.67
288.715	79.19
288.93	9.56
289.145	44.37
289.36	83.28
289.575	79.19
289.79	30.04
290.004	17.75
290.219	44.37
290.434	42.32
290.649	44.37
290.864	34.13
291.079	21.84
291.294	38.23
291.509	-10.92
291.724	38.23
291.938	-41.64
292.153	81.24
292.368	48.47
292.583	25.94
292.798	15.7
293.012	44.37
293.227	40.28
293.442	-6.83
293.657	81.24
293.871	185.68
294.086	85.33
294.301	54.61
294.516	97.62
294.73	5.46
294.945	-51.88
295.16	46.42
295.374	40.28
295.589	83.28
295.804	-35.5
296.018	3.41
296.233	101.72
296.447	36.18
296.662	23.89
296.877	40.28
297.091	25.94
297.306	60.76
297.52	79.19
297.735	11.61
297.949	-35.5
298.164	23.89
298.378	1.37
298.593	77.14
298.807	21.84
299.022	-21.16
299.236	54.61
299.451	64.85
299.665	54.61
299.88	-0.68
300.094	44.37
300.309	27.99
300.523	34.13
300.737	25.94
300.952	38.23
301.166	54.61
301.381	15.7
301.595	9.56
301.809	40.28
302.024	79.19
302.238	56.66
302.452	-27.31
302.667	38.23
302.881	50.52
303.095	83.28
303.309	46.42
303.524	34.13
303.738	-2.73
303.952	21.84
304.166	75.09
304.381	9.56
304.595	85.33
304.809	81.24
305.023	7.51
305.237	79.19
305.452	-2.73
305.666	165.2
305.88	48.47
306.094	1.37
306.308	17.75
306.522	27.99
306.736	75.09
306.95	62.8
307.164	75.09
307.379	54.61
307.593	71
307.807	124.24
308.021	-23.21
308.235	-6.83
308.449	-37.55
308.663	-2.73
308.877	89.43
309.091	87.38
309.305	46.42
309.519	-27.31
309.733	58.71
309.947	62.8
310.161	19.8
310.374	77.14
310.588	54.61
310.802	5.46
311.016	68.95
311.23	50.52
311.444	50.52
311.658	83.28
311.872	32.08
312.085	36.18
312.299	83.28
312.513	27.99
312.727	30.04
312.941	13.65
313.154	17.75
313.368	25.94
313.582	38.23
313.796	32.08
314.009	-25.26
314.223	95.57
314.437	42.32
314.651	66.9
314.864	77.14
315.078	-25.26
315.292	85.33
315.505	54.61
315.719	44.37
315.933	60.76
316.146	46.42
316.36	19.8
316.573	148.82
316.787	44.37
317.001	79.19
317.214	-6.83
317.428	42.32
317.641	93.52
317.855	77.14
318.068	-0.68
318.282	30.04
318.495	114
318.709	-0.68
318.922	36.18
319.136	89.43
319.349	54.61
319.563	19.8
319.776	75.09
319.99	9.56
320.203	60.76
320.417	38.23
320.63	19.8
320.843	71
321.057	-6.83
321.27	36.18
321.483	-10.92
321.697	103.76
321.91	-23.21
322.124	48.47
322.337	64.85
322.55	75.09
322.763	73.04
322.977	-35.5
323.19	-17.07
323.403	-25.26
323.617	27.99
323.83	62.8
324.043	15.7
324.256	11.61
324.469	25.94
324.683	46.42
324.896	21.84
325.109	142.68
325.322	46.42
325.535	-53.93
325.748	34.13
325.962	-21.16
326.175	77.14
326.388	95.57
326.601	91.48
326.814	71
327.027	60.76
327.24	79.19
327.453	44.37
327.666	21.84
327.879	64.85
328.092	81.24
328.305	97.62
328.518	-19.11
328.731	40.28
328.944	83.28
329.157	27.99
329.37	25.94
329.583	83.28
329.796	93.52
330.009	25.94
330.222	79.19
330.435	-10.92
330.648	30.04
330.861	62.8
331.073	50.52
331.286	-8.87
331.499	122.2
331.712	122.2
331.925	54.61
332.138	103.76
332.35	114
332.563	44.37
332.776	85.33
332.989	-10.92
333.202	64.85
333.414	40.28
333.627	54.61
333.84	17.75
334.053	9.56
334.265	34.13
334.478	85.33
334.691	87.38
334.903	62.8
335.116	30.04
335.329	56.66
335.541	40.28
335.754	50.52
335.966	23.89
336.179	79.19
336.392	111.96
336.604	32.08
336.817	21.84
337.029	56.66
337.242	95.57
337.454	27.99
337.667	23.89
337.88	46.42
338.092	21.84
338.305	42.32
338.517	11.61
338.729	99.67
338.942	124.24
339.154	27.99
339.367	60.76
339.579	38.23
339.792	-10.92
340.004	36.18
340.217	11.61
340.429	128.34
340.641	36.18
340.854	30.04
341.066	60.76
341.278	60.76
341.491	17.75
341.703	-8.87
341.915	87.38
342.128	30.04
342.34	116.05
342.552	56.66
342.764	7.51
342.977	17.75
343.189	27.99
343.401	38.23
343.613	-17.07
343.826	48.47
344.038	-4.78
344.25	15.7
344.462	19.8
344.674	71
344.886	87.38
345.099	-49.83
345.311	13.65
345.523	42.32
345.735	25.94
345.947	13.65
346.159	60.76
346.371	32.08
346.583	118.1
346.795	60.76
347.007	-31.4
347.219	64.85
347.431	44.37
347.643	58.71
347.855	66.9
348.067	66.9
348.279	64.85
348.491	-53.93
348.703	11.61
348.915	17.75
349.127	3.41
349.339	52.56
349.551	46.42
349.763	71
349.975	-6.83
350.187	107.86
350.399	-12.97
350.61	66.9
350.822	40.28
351.034	68.95
351.246	48.47
351.458	52.56
351.669	50.52
351.881	5.46
352.093	71
352.305	79.19
352.517	-4.78
352.728	103.76
352.94	42.32
353.152	75.09
353.363	118.1
353.575	34.13
353.787	154.96
353.999	42.32
354.21	1.37
354.422	21.84
354.633	25.94
354.845	83.28
355.057	-27.31
355.268	9.56
355.48	34.13
355.692	-2.73
355.903	85.33
356.115	89.43
356.326	9.56
356.538	66.9
356.749	44.37
356.961	109.91
357.172	17.75
357.384	77.14
357.595	83.28
357.807	-4.78
358.018	32.08
358.23	83.28
358.441	89.43
358.653	77.14
358.864	-10.92
359.075	-0.68
359.287	75.09
359.498	58.71
359.709	48.47
359.921	56.66
360.132	30.04
360.344	-33.45
360.555	87.38
360.766	64.85
360.977	54.61
361.189	54.61
361.4	42.32
361.611	103.76
361.823	97.62
362.034	23.89
362.245	-17.07
362.456	3.41
362.667	34.13
362.879	52.56
363.09	36.18
363.301	87.38
363.512	36.18
363.723	66.9
363.935	-21.16
364.146	71
364.357	17.75
364.568	114
364.779	56.66
364.99	46.42
365.201	46.42
365.412	42.32
365.623	-19.11
365.834	73.04
366.045	19.8
366.256	36.18
366.467	79.19
366.678	42.32
366.889	7.51
367.1	50.52
367.311	25.94
367.522	27.99
367.733	-15.02
367.944	17.75
368.155	-29.35
368.366	105.81
368.577	15.7
368.788	105.81
368.999	58.71
369.209	25.94
369.42	93.52
369.631	60.76
369.842	64.85
370.053	60.76
370.264	15.7
370.474	44.37
370.685	40.28
370.896	7.51
371.107	3.41
371.317	79.19
371.528	11.61
371.739	38.23
371.95	93.52
372.16	48.47
372.371	-41.64
372.582	25.94
372.792	30.04
373.003	81.24
373.214	13.65
373.424	66.9
373.635	50.52
373.846	161.11
374.056	81.24
374.267	13.65
374.477	130.39
374.688	128.34
374.898	42.32
375.109	66.9
375.319	19.8
375.53	91.48
375.74	128.34
375.951	5.46
376.161	52.56
376.372	48.47
376.582	25.94
376.793	62.8
377.003	5.46
377.214	116.05
377.424	122.2
377.635	-12.97
377.845	66.9
378.055	75.09
378.266	-15.02
378.476	140.63
378.686	19.8
378.897	52.56
379.107	46.42
379.317	91.48
379.528	87.38
379.738	50.52
379.948	89.43
380.158	89.43
380.369	46.42
380.579	118.1
380.789	19.8
380.999	116.05
381.21	56.66
381.42	87.38
381.63	81.24
381.84	165.2
382.05	62.8
382.261	23.89
382.471	124.24
382.681	17.75
382.891	66.9
383.101	64.85
383.311	62.8
383.521	79.19
383.731	105.81
383.941	48.47
384.151	85.33
384.361	60.76
384.571	64.85
384.781	114
384.991	71
385.201	85.33
385.411	60.76
385.621	48.47
385.831	44.37
386.041	89.43
386.251	32.08
386.461	46.42
386.671	85.33
386.881	97.62
387.091	40.28
387.301	103.76
387.511	-23.21
387.72	3.41
387.93	111.96
388.14	62.8
388.35	17.75
388.56	109.91
388.769	68.95
388.979	9.56
389.189	32.08
389.399	-21.16
389.609	46.42
389.818	44.37
390.028	36.18
390.238	52.56
390.447	30.04
390.657	126.29
390.867	71
391.076	71
391.286	58.71
391.496	34.13
391.705	87.38
391.915	89.43
392.125	36.18
392.334	56.66
392.544	103.76
392.753	73.04
392.963	1.37
393.172	73.04
393.382	44.37
393.591	77.14
393.801	11.61
394.01	116.05
394.22	95.57
394.429	134.48
394.639	132.44
394.848	44.37
395.058	99.67
395.267	81.24
395.477	185.68
395.686	66.9
395.895	36.18
396.105	126.29
396.314	56.66
396.524	68.95
396.733	101.72
396.942	114
397.152	87.38
397.361	189.78
397.57	81.24
397.78	62.8
397.989	52.56
398.198	195.92
398.407	105.81
398.617	105.81
398.826	93.52
399.035	64.85
399.244	91.48
399.453	97.62
399.663	118.1
399.872	99.67
400.081	52.56
400.29	122.2
400.499	107.86
400.708	89.43
400.917	101.72
401.127	118.1
401.336	38.23
401.545	81.24
401.754	91.48
401.963	177.49
402.172	73.04
402.381	58.71
402.59	71
402.799	144.72
403.008	124.24
403.217	183.63
403.426	111.96
403.635	83.28
403.844	173.39
404.053	79.19
404.262	159.06
404.471	214.35
404.68	60.76
404.888	152.91
405.097	89.43
405.306	150.87
405.515	187.73
405.724	245.07
405.933	197.97
406.142	218.45
406.35	128.34
406.559	226.64
406.768	200.02
406.977	144.72
407.185	304.46
407.394	210.26
407.603	189.78
407.812	259.41
408.02	200.02
408.229	179.54
408.438	234.83
408.646	140.63
408.855	159.06
409.064	283.98
409.272	224.59
409.481	292.18
409.69	302.42
409.898	238.93
410.107	195.92
410.315	273.75
410.524	343.38
410.733	423.25
410.941	286.03
411.15	306.51
411.358	396.62
411.567	335.18
411.775	378.19
411.984	382.29
412.192	421.2
412.401	388.43
412.609	458.06
412.818	396.62
413.026	478.54
413.234	425.29
413.443	521.55
413.651	464.21
413.86	490.83
414.068	537.93
414.276	494.93
414.485	548.17
414.693	564.56
414.901	673.1
415.11	646.48
415.318	654.67
415.526	632.14
415.734	738.63
415.943	695.63
416.151	724.3
416.359	742.73
416.567	703.82
416.776	828.74
416.984	849.22
417.192	875.85
417.4	855.37
417.608	951.62
417.817	849.22
418.025	920.9
418.233	998.73
418.441	937.29
418.649	1158.47
418.857	1123.65
419.065	1152.32
419.273	1146.18
419.481	1099.08
419.689	1232.19
419.897	1242.43
420.105	1355.07
420.313	1445.18
420.521	1432.9
420.729	1539.39
420.937	1502.53
421.145	1600.83
421.353	1660.22
421.561	1713.47
421.769	1668.41
421.977	1660.22
422.185	1795.39
422.393	1987.89
422.601	1926.46
422.809	1895.74
423.017	2043.19
423.224	2213.17
423.432	2272.56
423.64	2139.44
423.848	2544.94
424.056	2356.53
424.263	2608.43
424.471	2563.37
424.679	2544.94
424.887	2751.79
425.094	2866.47
425.302	2731.31
425.51	2684.2
425.718	2845.99
425.925	3116.33
426.133	3173.67
426.341	3206.44
426.548	3409.19
426.756	3413.28
426.964	3460.38
427.171	3667.23
427.379	3822.87
427.586	3796.25
427.794	4070.68
428.001	4234.52
428.209	4259.09
428.417	4166.93
428.624	4572.43
428.832	4654.35
429.039	4564.24
429.247	4515.09
429.454	4941.07
429.662	5459.2
429.869	4969.74
430.076	5403.91
430.284	5010.7
430.491	5516.55
430.699	5707.01
430.906	5809.4
431.114	5758.21
431.321	6122.74
431.528	6112.5
431.736	6618.35
431.943	6900.97
432.15	6608.11
432.358	6642.93
432.565	7148.78
432.772	6917.36
432.979	7384.29
433.187	7640.29
433.394	7458.02
433.601	8223.96
433.808	8289.49
434.016	8031.45
434.223	8482
434.43	8858.83
434.637	8740.05
434.844	9196.75
435.052	9585.86
435.259	9583.81
435.466	9274.57
435.673	9381.06
435.88	10050.75
436.087	10517.68
436.294	10716.34
436.501	10394.81
436.708	10462.39
436.915	10890.42
437.122	11375.78
437.329	11359.4
437.537	11648.16
437.743	11877.54
437.95	11725.99
438.157	12428.44
438.364	12711.06
438.571	12543.13
438.778	12811.41
438.985	13798.53
439.192	13522.06
439.399	13888.64
439.606	13712.52
439.813	14425.21
440.02	15436.91
440.227	15160.43
440.433	14980.21
440.64	15449.19
440.847	15293.55
441.054	15725.67
441.261	16893.01
441.467	16669.78
441.674	16976.98
441.881	17658.95
442.088	17482.83
442.294	17202.25
442.501	17628.23
442.708	18105.41
442.914	18926.64
443.121	19500.08
443.328	19235.89
443.534	20503.58
443.741	19907.62
443.948	19725.35
444.154	21036.05
444.361	20872.21
444.568	21017.62
444.774	21445.65
444.981	21169.17
445.187	22078.47
445.394	23122.93
445.6	22526.97
445.807	24620
446.013	23587.82
446.22	24081.38
446.426	25203.67
446.633	25191.38
446.839	26047.43
447.046	25125.85
447.252	26512.32
447.459	26336.2
447.665	26454.98
447.871	27376.56
448.078	28787.61
448.284	27569.07
448.491	27909.04
448.697	28996.51
448.903	29475.73
449.11	29715.34
449.316	29180.82
449.522	29899.66
449.728	30804.86
449.935	31081.34
450.141	30669.7
450.347	31595.38
450.553	30796.67
450.76	30901.12
450.966	31880.05
451.172	31067
451.378	32369.51
451.584	31642.48
451.791	32404.33
451.997	32490.34
452.203	32844.64
452.409	32922.46
452.615	33053.53
452.821	31644.53
453.027	31425.4
453.233	32758.63
453.44	31435.64
453.646	31662.96
453.852	31624.05
454.058	32670.56
454.264	31150.97
454.47	31794.03
454.676	31712.11
454.882	32152.43
455.088	29508.5
455.294	29791.12
455.5	30274.44
455.705	30843.77
455.911	29340.57
456.117	28701.6
456.323	28408.74
456.529	26604.48
456.735	28119.98
456.941	27212.73
457.147	26891.19
457.352	25873.35
457.558	25777.1
457.764	25435.09
457.97	25230.29
458.176	24656.86
458.381	24841.18
458.587	23569.39
458.793	23774.19
458.999	22479.87
459.204	23622.64
459.41	23110.64
459.616	21683.21
459.821	21525.52
460.027	21666.83
460.233	21208.08
460.438	20171.81
460.644	20057.12
460.85	19598.38
461.055	18963.51
461.261	18852.92
461.466	17648.71
461.672	17015.89
461.878	18271.29
462.083	17085.52
462.289	16770.13
462.494	16682.07
462.7	15713.38
462.905	15492.2
463.111	15967.33
463.316	15967.33
463.522	15512.68
463.727	15866.98
463.932	15475.82
464.138	15412.33
464.343	15570.02
464.549	15094.89
464.754	15520.87
464.959	15393.9
465.165	15477.87
465.37	14615.67
465.575	14396.54
465.781	14734.45
465.986	14929.01
466.191	14417.02
466.397	14138.49
466.602	13468.81
466.807	14027.9
467.012	14099.58
467.218	13735.04
467.423	13638.79
467.628	13839.49
467.833	14414.97
468.038	13720.71
468.244	13216.91
468.449	13843.59
468.654	13427.85
