Data from USB4F104151__73__12-02-05-947.txt Node

Date: Fri Mar 14 12:02:05 EDT 2025
User: louis
Spectrometer: USB4F10415
Trigger mode: 4
Integration Time (sec): 2.000000E-2
Scans to average: 1
Electric dark correction enabled: true
Nonlinearity correction enabled: false
Boxcar width: 0
XAxis mode: Wavelengths
Number of Pixels in Spectrum: 3648
>>>>>Begin Spectral Data<<<<<
178.204	-123.05
178.424	-123.05
178.644	-123.05
178.864	-80.04
179.084	-94.38
179.304	-20.65
179.524	-16.55
179.744	8.02
179.964	-0.17
180.184	30.55
180.404	14.17
180.624	-26.79
180.844	53.08
181.064	-53.42
181.283	8.02
181.503	-4.27
181.723	8.02
181.943	-84.14
182.163	14.17
182.383	-14.51
182.602	59.22
182.822	63.32
183.042	59.22
183.262	-24.75
183.482	18.26
183.701	20.31
183.921	12.12
184.141	1.88
184.361	-59.56
184.58	40.79
184.8	57.17
185.02	8.02
185.239	18.26
185.459	-37.03
185.679	94.04
185.898	-49.32
186.118	-4.27
186.338	-8.36
186.557	1.88
186.777	-39.08
186.997	3.93
187.216	-12.46
187.436	53.08
187.655	67.41
187.875	8.02
188.095	12.12
188.314	36.69
188.534	1.88
188.753	-28.84
188.973	-51.37
189.192	83.8
189.412	89.94
189.631	34.64
189.851	53.08
190.07	-22.7
190.29	26.45
190.509	28.5
190.729	-47.27
190.948	-51.37
191.168	163.67
191.387	61.27
191.607	5.97
191.826	24.4
192.045	28.5
192.265	-8.36
192.484	3.93
192.704	57.17
192.923	-67.75
193.142	83.8
193.362	16.21
193.581	141.14
193.8	57.17
194.02	16.21
194.239	16.21
194.458	100.18
194.678	-18.6
194.897	-14.51
195.116	-14.51
195.335	-10.41
195.555	24.4
195.774	-18.6
195.993	-8.36
196.212	-4.27
196.432	-51.37
196.651	-12.46
196.87	79.7
197.089	77.65
197.308	75.6
197.528	51.03
197.747	22.36
197.966	-26.79
198.185	-14.51
198.404	26.45
198.623	10.07
198.842	61.27
199.062	53.08
199.281	24.4
199.5	-37.03
199.719	-28.84
199.938	-16.55
200.157	8.02
200.376	36.69
200.595	30.55
200.814	59.22
201.033	-61.61
201.252	48.98
201.471	8.02
201.69	28.5
201.909	-20.65
202.128	122.71
202.347	51.03
202.566	-10.41
202.785	8.02
203.004	-12.46
203.223	91.99
203.442	22.36
203.661	-45.23
203.879	38.74
204.098	18.26
204.317	1.88
204.536	87.89
204.755	51.03
204.974	8.02
205.193	32.6
205.411	81.75
205.63	48.98
205.849	10.07
206.068	104.28
206.287	16.21
206.505	12.12
206.724	42.84
206.943	8.02
207.162	26.45
207.381	-10.41
207.599	-71.85
207.818	10.07
208.037	1.88
208.255	71.51
208.474	55.12
208.693	-30.89
208.911	22.36
209.13	67.41
209.349	38.74
209.567	20.31
209.786	69.46
210.005	24.4
210.223	22.36
210.442	-20.65
210.661	38.74
210.879	1.88
211.098	-28.84
211.316	-12.46
211.535	1.88
211.753	-4.27
211.972	10.07
212.191	30.55
212.409	14.17
212.628	26.45
212.846	55.12
213.065	-28.84
213.283	120.66
213.502	-59.56
213.72	48.98
213.938	32.6
214.157	-67.75
214.375	53.08
214.594	18.26
214.812	10.07
215.031	-0.17
215.249	59.22
215.467	44.88
215.686	-34.99
215.904	65.36
216.122	8.02
216.341	24.4
216.559	32.6
216.778	16.21
216.996	5.97
217.214	-4.27
217.432	-18.6
217.651	-10.41
217.869	79.7
218.087	32.6
218.306	-55.47
218.524	-0.17
218.742	22.36
218.96	34.64
219.179	30.55
219.397	-51.37
219.615	42.84
219.833	20.31
220.051	71.51
220.27	89.94
220.488	16.21
220.706	59.22
220.924	51.03
221.142	22.36
221.36	16.21
221.578	-26.79
221.796	-10.41
222.015	-28.84
222.233	63.32
222.451	71.51
222.669	18.26
222.887	10.07
223.105	30.55
223.323	36.69
223.541	-20.65
223.759	38.74
223.977	38.74
224.195	32.6
224.413	24.4
224.631	63.32
224.849	12.12
225.067	63.32
225.285	-20.65
225.503	3.93
225.721	-88.23
225.939	5.97
226.157	34.64
226.375	65.36
226.592	-96.43
226.81	36.69
227.028	65.36
227.246	3.93
227.464	85.84
227.682	57.17
227.9	-14.51
228.117	5.97
228.335	-2.22
228.553	40.79
228.771	26.45
228.989	59.22
229.206	8.02
229.424	-8.36
229.642	16.21
229.86	-43.18
230.077	-24.75
230.295	63.32
230.513	12.12
230.731	79.7
230.948	22.36
231.166	22.36
231.384	-22.7
231.601	-4.27
231.819	81.75
232.037	44.88
232.254	-65.71
232.472	5.97
232.689	-12.46
232.907	18.26
233.125	26.45
233.342	-2.22
233.56	-12.46
233.777	28.5
233.995	-18.6
234.213	18.26
234.43	-26.79
234.648	-32.94
234.865	14.17
235.083	-28.84
235.3	3.93
235.518	85.84
235.735	83.8
235.953	65.36
236.17	34.64
236.388	5.97
236.605	59.22
236.822	12.12
237.04	12.12
237.257	-14.51
237.475	79.7
237.692	-41.13
237.909	40.79
238.127	1.88
238.344	-30.89
238.562	79.7
238.779	1.88
238.996	-49.32
239.214	-22.7
239.431	8.02
239.648	34.64
239.865	-34.99
240.083	102.23
240.3	57.17
240.517	-86.19
240.735	-26.79
240.952	61.27
241.169	94.04
241.386	40.79
241.603	40.79
241.821	18.26
242.038	98.13
242.255	12.12
242.472	-16.55
242.689	57.17
242.907	5.97
243.124	3.93
243.341	51.03
243.558	-24.75
243.775	-22.7
243.992	26.45
244.209	10.07
244.426	18.26
244.643	-51.37
244.86	36.69
245.078	79.7
245.295	-12.46
245.512	-110.76
245.729	10.07
245.946	40.79
246.163	96.08
246.38	14.17
246.597	42.84
246.814	143.19
247.031	-0.17
247.248	48.98
247.464	28.5
247.681	26.45
247.898	34.64
248.115	5.97
248.332	12.12
248.549	59.22
248.766	73.56
248.983	46.93
249.2	16.21
249.417	40.79
249.633	42.84
249.85	30.55
250.067	-45.23
250.284	18.26
250.501	1.88
250.717	24.4
250.934	12.12
251.151	-24.75
251.368	20.31
251.585	108.37
251.801	63.32
252.018	48.98
252.235	65.36
252.451	77.65
252.668	-43.18
252.885	61.27
253.102	-24.75
253.318	132.95
253.535	75.6
253.752	-14.51
253.968	-0.17
254.185	-57.51
254.401	-45.23
254.618	65.36
254.835	-41.13
255.051	61.27
255.268	32.6
255.484	-30.89
255.701	-6.31
255.917	53.08
256.134	53.08
256.351	-30.89
256.567	18.26
256.784	48.98
257	8.02
257.217	20.31
257.433	100.18
257.65	32.6
257.866	-0.17
258.082	42.84
258.299	16.21
258.515	108.37
258.732	14.17
258.948	26.45
259.165	3.93
259.381	26.45
259.597	28.5
259.814	-0.17
260.03	55.12
260.246	8.02
260.463	5.97
260.679	42.84
260.895	-2.22
261.112	20.31
261.328	34.64
261.544	48.98
261.761	81.75
261.977	20.31
262.193	-0.17
262.409	26.45
262.626	3.93
262.842	61.27
263.058	-24.75
263.274	34.64
263.49	18.26
263.707	-10.41
263.923	-22.7
264.139	-4.27
264.355	108.37
264.571	77.65
264.787	5.97
265.004	79.7
265.22	18.26
265.436	-16.55
265.652	106.32
265.868	-55.47
266.084	-112.81
266.3	30.55
266.516	-14.51
266.732	40.79
266.948	114.52
267.164	46.93
267.38	1.88
267.596	20.31
267.812	61.27
268.028	55.12
268.244	36.69
268.46	5.97
268.676	-14.51
268.892	20.31
269.108	22.36
269.324	-8.36
269.54	-16.55
269.756	-10.41
269.972	3.93
270.188	-12.46
270.403	-75.95
270.619	20.31
270.835	10.07
271.051	-12.46
271.267	-49.32
271.483	-6.31
271.698	75.6
271.914	30.55
272.13	46.93
272.346	-65.71
272.562	3.93
272.777	24.4
272.993	-4.27
273.209	-51.37
273.425	20.31
273.64	1.88
273.856	16.21
274.072	44.88
274.287	22.36
274.503	-24.75
274.719	20.31
274.934	-0.17
275.15	26.45
275.366	69.46
275.581	42.84
275.797	-14.51
276.012	14.17
276.228	16.21
276.444	12.12
276.659	53.08
276.875	1.88
277.09	-37.03
277.306	-100.52
277.521	-16.55
277.737	16.21
277.952	40.79
278.168	46.93
278.383	71.51
278.599	-14.51
278.814	75.6
279.03	14.17
279.245	79.7
279.461	18.26
279.676	18.26
279.892	10.07
280.107	8.02
280.322	44.88
280.538	-82.09
280.753	-37.03
280.969	40.79
281.184	-28.84
281.399	10.07
281.615	5.97
281.83	69.46
282.045	-32.94
282.26	63.32
282.476	34.64
282.691	18.26
282.906	-98.47
283.122	-88.23
283.337	-41.13
283.552	40.79
283.767	53.08
283.983	30.55
284.198	30.55
284.413	12.12
284.628	-22.7
284.843	-28.84
285.058	22.36
285.274	61.27
285.489	-8.36
285.704	40.79
285.919	22.36
286.134	44.88
286.349	34.64
286.564	46.93
286.779	24.4
286.995	59.22
287.21	-10.41
287.425	59.22
287.64	40.79
287.855	22.36
288.07	-18.6
288.285	40.79
288.5	30.55
288.715	38.74
288.93	85.84
289.145	-0.17
289.36	26.45
289.575	20.31
289.79	57.17
290.004	8.02
290.219	83.8
290.434	-10.41
290.649	-63.66
290.864	38.74
291.079	-0.17
291.294	30.55
291.509	-22.7
291.724	-18.6
291.938	67.41
292.153	69.46
292.368	3.93
292.583	-26.79
292.798	87.89
293.012	67.41
293.227	-16.55
293.442	16.21
293.657	63.32
293.871	55.12
294.086	36.69
294.301	32.6
294.516	20.31
294.73	10.07
294.945	16.21
295.16	12.12
295.374	5.97
295.589	81.75
295.804	-14.51
296.018	34.64
296.233	16.21
296.447	26.45
296.662	-61.61
296.877	24.4
297.091	18.26
297.306	-6.31
297.52	30.55
297.735	44.88
297.949	51.03
298.164	65.36
298.378	75.6
298.593	5.97
298.807	26.45
299.022	-45.23
299.236	26.45
299.451	-16.55
299.665	75.6
299.88	10.07
300.094	57.17
300.309	75.6
300.523	77.65
300.737	3.93
300.952	40.79
301.166	57.17
301.381	-12.46
301.595	10.07
301.809	12.12
302.024	-10.41
302.238	22.36
302.452	51.03
302.667	18.26
302.881	42.84
303.095	8.02
303.309	38.74
303.524	-10.41
303.738	98.13
303.952	63.32
304.166	-6.31
304.381	-45.23
304.595	38.74
304.809	-10.41
305.023	53.08
305.237	40.79
305.452	44.88
305.666	61.27
305.88	40.79
306.094	32.6
306.308	44.88
306.522	-0.17
306.736	16.21
306.95	65.36
307.164	-53.42
307.379	5.97
307.593	65.36
307.807	40.79
308.021	22.36
308.235	48.98
308.449	10.07
308.663	1.88
308.877	63.32
309.091	118.61
309.305	139.09
309.519	51.03
309.733	-10.41
309.947	42.84
310.161	65.36
310.374	38.74
310.588	79.7
310.802	24.4
311.016	65.36
311.23	-2.22
311.444	48.98
311.658	26.45
311.872	-6.31
312.085	40.79
312.299	77.65
312.513	3.93
312.727	10.07
312.941	28.5
313.154	112.47
313.368	32.6
313.582	40.79
313.796	-28.84
314.009	-0.17
314.223	98.13
314.437	42.84
314.651	10.07
314.864	48.98
315.078	16.21
315.292	61.27
315.505	-22.7
315.719	40.79
315.933	26.45
316.146	-57.51
316.36	8.02
316.573	26.45
316.787	12.12
317.001	-0.17
317.214	12.12
317.428	100.18
317.641	-8.36
317.855	42.84
318.068	-8.36
318.282	51.03
318.495	8.02
318.709	48.98
318.922	-0.17
319.136	38.74
319.349	51.03
319.563	44.88
319.776	44.88
319.99	5.97
320.203	-43.18
320.417	16.21
320.63	20.31
320.843	24.4
321.057	73.56
321.27	-4.27
321.483	61.27
321.697	63.32
321.91	12.12
322.124	10.07
322.337	46.93
322.55	-63.66
322.763	16.21
322.977	40.79
323.19	40.79
323.403	-4.27
323.617	-16.55
323.83	46.93
324.043	73.56
324.256	-24.75
324.469	-2.22
324.683	114.52
324.896	38.74
325.109	-28.84
325.322	16.21
325.535	75.6
325.748	22.36
325.962	12.12
326.175	-10.41
326.388	38.74
326.601	-22.7
326.814	59.22
327.027	59.22
327.24	61.27
327.453	-61.61
327.666	40.79
327.879	28.5
328.092	30.55
328.305	-24.75
328.518	-30.89
328.731	-28.84
328.944	114.52
329.157	20.31
329.37	-14.51
329.583	61.27
329.796	30.55
330.009	55.12
330.222	59.22
330.435	44.88
330.648	-28.84
330.861	98.13
331.073	1.88
331.286	48.98
331.499	69.46
331.712	18.26
331.925	69.46
332.138	30.55
332.35	87.89
332.563	59.22
332.776	34.64
332.989	38.74
333.202	10.07
333.414	61.27
333.627	30.55
333.84	38.74
334.053	-49.32
334.265	48.98
334.478	-26.79
334.691	63.32
334.903	26.45
335.116	16.21
335.329	83.8
335.541	53.08
335.754	71.51
335.966	-8.36
336.179	104.28
336.392	16.21
336.604	48.98
336.817	59.22
337.029	89.94
337.242	12.12
337.454	73.56
337.667	-82.09
337.88	-24.75
338.092	10.07
338.305	59.22
338.517	32.6
338.729	-32.94
338.942	77.65
339.154	18.26
339.367	-53.42
339.579	53.08
339.792	-20.65
340.004	55.12
340.217	-24.75
340.429	14.17
340.641	10.07
340.854	-63.66
341.066	-2.22
341.278	10.07
341.491	-2.22
341.703	-16.55
341.915	36.69
342.128	100.18
342.34	8.02
342.552	67.41
342.764	-61.61
342.977	-4.27
343.189	85.84
343.401	91.99
343.613	-2.22
343.826	14.17
344.038	-2.22
344.25	-8.36
344.462	26.45
344.674	83.8
344.886	85.84
345.099	-0.17
345.311	48.98
345.523	40.79
345.735	-12.46
345.947	46.93
346.159	75.6
346.371	46.93
346.583	34.64
346.795	75.6
347.007	-32.94
347.219	118.61
347.431	36.69
347.643	100.18
347.855	38.74
348.067	63.32
348.279	34.64
348.491	112.47
348.703	32.6
348.915	14.17
349.127	61.27
349.339	108.37
349.551	10.07
349.763	79.7
349.975	20.31
350.187	85.84
350.399	38.74
350.61	91.99
350.822	-4.27
351.034	30.55
351.246	-8.36
351.458	149.33
351.669	14.17
351.881	30.55
352.093	69.46
352.305	32.6
352.517	3.93
352.728	51.03
352.94	69.46
353.152	48.98
353.363	26.45
353.575	87.89
353.787	77.65
353.999	102.23
354.21	69.46
354.422	22.36
354.633	18.26
354.845	26.45
355.057	12.12
355.268	10.07
355.48	124.76
355.692	75.6
355.903	3.93
356.115	59.22
356.326	38.74
356.538	87.89
356.749	51.03
356.961	98.13
357.172	26.45
357.384	5.97
357.595	96.08
357.807	24.4
358.018	26.45
358.23	16.21
358.441	81.75
358.653	5.97
358.864	81.75
359.075	-30.89
359.287	67.41
359.498	94.04
359.709	104.28
359.921	81.75
360.132	26.45
360.344	-20.65
360.555	53.08
360.766	55.12
360.977	73.56
361.189	89.94
361.4	-6.31
361.611	110.42
361.823	67.41
362.034	65.36
362.245	55.12
362.456	-10.41
362.667	-24.75
362.879	3.93
363.09	-18.6
363.301	5.97
363.512	-18.6
363.723	5.97
363.935	-37.03
364.146	55.12
364.357	73.56
364.568	91.99
364.779	51.03
364.99	14.17
365.201	24.4
365.412	57.17
365.623	48.98
365.834	-10.41
366.045	-32.94
366.256	75.6
366.467	79.7
366.678	32.6
366.889	-45.23
367.1	-28.84
367.311	22.36
367.522	3.93
367.733	12.12
367.944	30.55
368.155	63.32
368.366	51.03
368.577	-16.55
368.788	87.89
368.999	18.26
369.209	48.98
369.42	65.36
369.631	110.42
369.842	20.31
370.053	22.36
370.264	10.07
370.474	-24.75
370.685	59.22
370.896	85.84
371.107	71.51
371.317	30.55
371.528	83.8
371.739	81.75
371.95	-30.89
372.16	42.84
372.371	24.4
372.582	-2.22
372.792	-43.18
373.003	48.98
373.214	53.08
373.424	-8.36
373.635	8.02
373.846	42.84
374.056	10.07
374.267	106.32
374.477	65.36
374.688	42.84
374.898	40.79
375.109	22.36
375.319	48.98
375.53	46.93
375.74	55.12
375.951	20.31
376.161	85.84
376.372	1.88
376.582	44.88
376.793	5.97
377.003	24.4
377.214	46.93
377.424	94.04
377.635	79.7
377.845	24.4
378.055	59.22
378.266	8.02
378.476	40.79
378.686	20.31
378.897	61.27
379.107	75.6
379.317	-55.47
379.528	20.31
379.738	102.23
379.948	10.07
380.158	46.93
380.369	51.03
380.579	75.6
380.789	55.12
380.999	10.07
381.21	48.98
381.42	20.31
381.63	81.75
381.84	34.64
382.05	69.46
382.261	75.6
382.471	128.85
382.681	77.65
382.891	42.84
383.101	100.18
383.311	22.36
383.521	-6.31
383.731	16.21
383.941	48.98
384.151	26.45
384.361	12.12
384.571	8.02
384.781	83.8
384.991	32.6
385.201	59.22
385.411	10.07
385.621	81.75
385.831	48.98
386.041	-47.27
386.251	3.93
386.461	5.97
386.671	63.32
386.881	104.28
387.091	-61.61
387.301	59.22
387.511	40.79
387.72	85.84
387.93	79.7
388.14	20.31
388.35	-16.55
388.56	18.26
388.769	14.17
388.979	32.6
389.189	24.4
389.399	42.84
389.609	1.88
389.818	110.42
390.028	38.74
390.238	69.46
390.447	34.64
390.657	102.23
390.867	42.84
391.076	5.97
391.286	22.36
391.496	24.4
391.705	18.26
391.915	120.66
392.125	10.07
392.334	36.69
392.544	51.03
392.753	77.65
392.963	16.21
393.172	65.36
393.382	48.98
393.591	137.04
393.801	24.4
394.01	104.28
394.22	26.45
394.429	18.26
394.639	36.69
394.848	147.28
395.058	24.4
395.267	102.23
395.477	91.99
395.686	38.74
395.895	83.8
396.105	89.94
396.314	100.18
396.524	108.37
396.733	96.08
396.942	104.28
397.152	126.8
397.361	69.46
397.57	81.75
397.78	106.32
397.989	44.88
398.198	108.37
398.407	81.75
398.617	63.32
398.826	65.36
399.035	26.45
399.244	106.32
399.453	141.14
399.663	32.6
399.872	135
400.081	120.66
400.29	178
400.499	48.98
400.708	135
400.917	108.37
401.127	143.19
401.336	116.56
401.545	120.66
401.754	124.76
401.963	124.76
402.172	94.04
402.381	61.27
402.59	77.65
402.799	128.85
403.008	102.23
403.217	63.32
403.426	118.61
403.635	126.8
403.844	102.23
404.053	57.17
404.262	186.19
404.471	178
404.68	122.71
404.888	83.8
405.097	87.89
405.306	114.52
405.515	145.24
405.724	173.91
405.933	155.47
406.142	96.08
406.35	175.95
406.559	194.39
406.768	126.8
406.977	272.21
407.185	155.47
407.394	165.71
407.603	216.91
407.812	159.57
408.02	245.59
408.229	169.81
408.438	178
408.646	196.43
408.855	161.62
409.064	223.06
409.272	202.58
409.481	241.49
409.69	208.72
409.898	237.39
410.107	221.01
410.315	374.61
410.524	239.44
410.733	343.89
410.941	325.46
411.15	407.38
411.358	374.61
411.567	403.28
411.775	354.13
411.984	364.37
412.192	425.81
412.401	415.57
412.609	468.81
412.818	483.15
413.026	444.24
413.234	530.25
413.443	520.01
413.651	464.72
413.86	497.49
414.068	515.92
414.276	532.3
414.485	552.78
414.693	575.31
414.901	640.84
415.11	665.42
415.318	624.46
415.526	706.38
415.734	638.8
415.943	728.91
416.151	823.11
416.359	730.95
416.567	786.25
416.776	872.26
416.984	874.31
417.192	931.66
417.4	855.88
417.608	937.8
417.817	931.66
418.025	964.42
418.233	1091.4
418.441	1115.97
418.649	1007.43
418.857	1187.65
419.065	1199.94
419.273	1156.93
419.481	1195.84
419.689	1367.87
419.897	1363.78
420.105	1443.65
420.313	1417.02
420.521	1531.71
420.729	1521.47
420.937	1515.33
421.145	1630.01
421.353	1699.64
421.561	1736.51
421.769	1752.89
421.977	1859.38
422.185	1769.27
422.393	2074.42
422.601	2058.04
422.809	2146.1
423.017	2154.29
423.224	2197.3
423.432	2258.74
423.64	2234.16
423.848	2430.77
424.056	2389.81
424.263	2553.65
424.471	2572.08
424.679	2758.44
424.887	2760.49
425.094	2860.84
425.302	2940.71
425.51	3122.98
425.718	3104.55
425.925	3200.8
426.133	3325.73
426.341	3411.75
426.548	3708.7
426.756	3516.19
426.964	3751.71
427.171	3936.03
427.379	3976.98
427.586	4007.7
427.794	4185.88
428.001	4327.19
428.209	4441.87
428.417	4448.02
428.624	4792.08
428.832	4634.38
429.039	4759.31
429.247	4765.45
429.454	5289.73
429.662	5562.11
429.869	5119.75
430.076	5680.89
430.284	5410.56
430.491	5771.01
430.699	5969.66
430.906	5961.47
431.114	6115.06
431.321	6283
431.528	6473.46
431.736	6760.17
431.943	7165.67
432.15	6881
432.358	6924.01
432.565	7286.5
432.772	7313.13
432.979	7677.66
433.187	7911.13
433.394	7896.8
433.601	8459.99
433.808	8406.74
434.016	8410.84
434.223	8636.11
434.43	9277.13
434.637	8957.64
434.844	9707.2
435.052	9873.09
435.259	9969.34
435.466	9928.38
435.673	9815.74
435.88	10278.58
436.087	11071.15
436.294	10997.42
436.501	10825.39
436.708	11196.07
436.915	11417.26
437.122	12064.41
437.329	11900.58
437.537	12170.91
437.743	12482.2
437.95	12424.86
438.157	12930.7
438.364	13565.57
438.571	13282.95
438.778	13551.24
438.985	14720.63
439.192	14280.32
439.399	14720.63
439.606	14448.25
439.813	15126.13
440.02	16082.53
440.227	15898.21
440.433	15806.05
440.64	15896.16
440.847	15961.7
441.054	16359
441.261	17628.74
441.467	17448.52
441.674	17841.73
441.881	18400.83
442.088	18318.91
442.294	18177.6
442.501	18626.11
442.708	18826.81
442.914	19891.75
443.121	20495.9
443.328	20037.16
443.534	21773.83
443.741	20829.72
443.948	20532.76
444.154	22154.76
444.361	22038.02
444.568	22515.2
444.774	21913.09
444.981	22453.76
445.187	22869.5
445.394	24038.89
445.6	23639.53
445.807	25888.2
446.013	24833.5
446.22	25232.85
446.426	26179.01
446.633	26512.83
446.839	27268.53
447.046	26262.98
447.252	27989.42
447.459	27927.98
447.665	27633.07
447.871	29109.66
448.078	30193.03
448.284	28806.56
448.491	29494.68
448.697	30754.18
448.903	31212.92
449.11	31315.32
449.316	30766.46
449.522	31190.39
449.728	32236.91
449.935	32267.62
450.141	32390.5
450.347	33113.44
450.553	31905.13
450.76	32257.39
450.966	33434.97
451.172	32798.05
451.378	33920.34
451.584	33563.99
451.791	34323.79
451.997	34176.33
452.203	34968.9
452.409	34704.71
452.615	34721.09
452.821	33119.58
453.027	33002.85
453.233	34655.56
453.44	33291.61
453.646	33389.91
453.852	33928.53
454.058	34469.19
454.264	33228.12
454.47	34241.87
454.676	33512.79
454.882	34370.89
455.088	31434.1
455.294	31483.25
455.5	32316.78
455.705	32621.92
455.911	31389.05
456.117	30702.98
456.323	30309.77
456.529	28667.3
456.735	29918.6
456.941	29089.18
457.147	28755.36
457.352	27770.29
457.558	27442.61
457.764	27508.15
457.97	26887.61
458.176	26127.81
458.381	26398.15
458.587	25069.01
458.793	25427.41
458.999	23825.9
459.204	25370.07
459.41	24997.34
459.616	23397.87
459.821	23027.19
460.027	23078.39
460.233	22613.5
460.438	21368.34
460.644	21751.31
460.85	20624.92
461.055	20375.07
461.261	20155.94
461.466	18941.49
461.672	18144.83
461.878	19523.12
462.083	18210.37
462.289	17860.16
462.494	17802.82
462.7	17165.9
462.905	16668.25
463.111	17028.69
463.316	17126.99
463.522	16928.34
463.727	17000.02
463.932	16635.48
464.138	16662.1
464.343	16520.79
464.549	16180.83
464.754	16574.04
464.959	16481.88
465.165	16406.11
465.37	15705.7
465.575	15521.38
465.781	15935.07
465.986	16242.27
466.191	15545.96
466.397	15167.09
466.602	14564.98
466.807	14859.89
467.012	14712.44
467.218	14763.64
467.423	14653.05
467.628	14696.05
