Data from USB4F104151__98__12-02-40-803.txt Node

Date: Fri Mar 14 12:02:40 EDT 2025
User: louis
Spectrometer: USB4F10415
Trigger mode: 4
Integration Time (sec): 2.000000E-2
Scans to average: 1
Electric dark correction enabled: true
Nonlinearity correction enabled: false
Boxcar width: 0
XAxis mode: Wavelengths
Number of Pixels in Spectrum: 3648
>>>>>Begin Spectral Data<<<<<
178.204	-32.77
178.424	-32.77
178.644	-32.77
178.864	-51.2
179.084	-12.29
179.304	-18.43
179.524	53.25
179.744	47.1
179.964	6.14
180.184	24.58
180.404	12.29
180.624	-38.91
180.844	-55.3
181.064	-34.82
181.283	-16.38
181.503	-30.72
181.723	51.2
181.943	-28.67
182.163	40.96
182.383	6.14
182.602	69.63
182.822	67.58
183.042	57.34
183.262	-22.53
183.482	2.05
183.701	32.77
183.921	-2.05
184.141	16.38
184.361	86.01
184.58	-51.2
184.8	12.29
185.02	-26.62
185.239	24.58
185.459	12.29
185.679	-75.77
185.898	45.06
186.118	65.53
186.338	-28.67
186.557	81.92
186.777	-20.48
186.997	14.34
187.216	-0
187.436	-18.43
187.655	86.01
187.875	108.54
188.095	-47.1
188.314	38.91
188.534	-8.19
188.753	26.62
188.973	32.77
189.192	20.48
189.412	-51.2
189.631	53.25
189.851	20.48
190.07	45.06
190.29	104.45
190.509	51.2
190.729	-26.62
190.948	141.31
191.168	118.78
191.387	18.43
191.607	34.82
191.826	4.1
192.045	30.72
192.265	-12.29
192.484	32.77
192.704	20.48
192.923	14.34
193.142	51.2
193.362	10.24
193.581	38.91
193.8	-26.62
194.02	69.63
194.239	-47.1
194.458	-38.91
194.678	-24.58
194.897	-12.29
195.116	71.68
195.335	6.14
195.555	-47.1
195.774	112.64
195.993	61.44
196.212	-34.82
196.432	69.63
196.651	47.1
196.87	24.58
197.089	108.54
197.308	94.21
197.528	53.25
197.747	2.05
197.966	-12.29
198.185	24.58
198.404	-61.44
198.623	16.38
198.842	69.63
199.062	12.29
199.281	30.72
199.5	-61.44
199.719	4.1
199.938	-4.1
200.157	-34.82
200.376	43.01
200.595	22.53
200.814	-22.53
201.033	-18.43
201.252	28.67
201.471	79.87
201.69	32.77
201.909	77.82
202.128	38.91
202.347	-51.2
202.566	40.96
202.785	-24.58
203.004	24.58
203.223	57.34
203.442	10.24
203.661	32.77
203.879	18.43
204.098	40.96
204.317	-16.38
204.536	4.1
204.755	12.29
204.974	8.19
205.193	45.06
205.411	75.77
205.63	43.01
205.849	47.1
206.068	53.25
206.287	20.48
206.505	10.24
206.724	38.91
206.943	-18.43
207.162	26.62
207.381	51.2
207.599	43.01
207.818	-2.05
208.037	32.77
208.255	61.44
208.474	81.92
208.693	69.63
208.911	79.87
209.13	57.34
209.349	67.58
209.567	32.77
209.786	86.01
210.005	47.1
210.223	51.2
210.442	-38.91
210.661	55.3
210.879	14.34
211.098	-8.19
211.316	28.67
211.535	61.44
211.753	20.48
211.972	-53.25
212.191	30.72
212.409	108.54
212.628	57.34
212.846	98.3
213.065	-0
213.283	51.2
213.502	45.06
213.72	16.38
213.938	6.14
214.157	2.05
214.375	24.58
214.594	-6.14
214.812	2.05
215.031	-14.34
215.249	-18.43
215.467	12.29
215.686	18.43
215.904	104.45
216.122	71.68
216.341	61.44
216.559	34.82
216.778	43.01
216.996	59.39
217.214	20.48
217.432	71.68
217.651	-8.19
217.869	16.38
218.087	20.48
218.306	-45.06
218.524	65.53
218.742	-22.53
218.96	-2.05
219.179	49.15
219.397	-40.96
219.615	86.01
219.833	43.01
220.051	24.58
220.27	90.11
220.488	-34.82
220.706	-8.19
220.924	59.39
221.142	47.1
221.36	18.43
221.578	-18.43
221.796	57.34
222.015	22.53
222.233	86.01
222.451	49.15
222.669	61.44
222.887	-6.14
223.105	14.34
223.323	12.29
223.541	12.29
223.759	38.91
223.977	61.44
224.195	-30.72
224.413	30.72
224.631	36.86
224.849	59.39
225.067	22.53
225.285	63.49
225.503	-6.14
225.721	-40.96
225.939	86.01
226.157	49.15
226.375	59.39
226.592	20.48
226.81	18.43
227.028	83.97
227.246	30.72
227.464	-51.2
227.682	-65.54
227.9	-55.3
228.117	36.86
228.335	-4.1
228.553	14.34
228.771	-20.48
228.989	69.63
229.206	38.91
229.424	14.34
229.642	67.58
229.86	28.67
230.077	38.91
230.295	49.15
230.513	49.15
230.731	55.3
230.948	61.44
231.166	57.34
231.384	-6.14
231.601	55.3
231.819	4.1
232.037	57.34
232.254	-43.01
232.472	20.48
232.689	-36.86
232.907	12.29
233.125	59.39
233.342	51.2
233.56	-16.38
233.777	26.62
233.995	79.87
234.213	30.72
234.43	-30.72
234.648	12.29
234.865	-8.19
235.083	2.05
235.3	43.01
235.518	36.86
235.735	57.34
235.953	57.34
236.17	57.34
236.388	12.29
236.605	75.77
236.822	43.01
237.04	10.24
237.257	-51.2
237.475	18.43
237.692	73.73
237.909	-18.43
238.127	32.77
238.344	-30.72
238.562	90.11
238.779	-6.14
238.996	-0
239.214	-34.82
239.431	20.48
239.648	38.91
239.865	59.39
240.083	-4.1
240.3	40.96
240.517	-14.34
240.735	10.24
240.952	43.01
241.169	73.73
241.386	75.77
241.603	63.49
241.821	57.34
242.038	8.19
242.255	53.25
242.472	137.21
242.689	2.05
242.907	6.14
243.124	-0
243.341	45.06
243.558	-53.25
243.775	24.58
243.992	10.24
244.209	61.44
244.426	163.84
244.643	22.53
244.86	57.34
245.078	14.34
245.295	26.62
245.512	55.3
245.729	-24.58
245.946	-2.05
246.163	24.58
246.38	-26.62
246.597	-6.14
246.814	43.01
247.031	81.92
247.248	-32.77
247.464	16.38
247.681	34.82
247.898	22.53
248.115	55.3
248.332	38.91
248.549	77.82
248.766	22.53
248.983	-14.34
249.2	-43.01
249.417	73.73
249.633	12.29
249.85	32.77
250.067	-2.05
250.284	59.39
250.501	24.58
250.717	8.19
250.934	-55.3
251.151	53.25
251.368	-6.14
251.585	61.44
251.801	47.1
252.018	12.29
252.235	79.87
252.451	47.1
252.668	12.29
252.885	100.35
253.102	118.78
253.318	30.72
253.535	-8.19
253.752	26.62
253.968	83.97
254.185	20.48
254.401	-40.96
254.618	34.82
254.835	16.38
255.051	59.39
255.268	79.87
255.484	47.1
255.701	36.86
255.917	75.77
256.134	-12.29
256.351	61.44
256.567	-40.96
256.784	81.92
257	18.43
257.217	30.72
257.433	24.58
257.65	12.29
257.866	59.39
258.082	-45.06
258.299	77.82
258.515	51.2
258.732	20.48
258.948	-34.82
259.165	67.58
259.381	6.14
259.597	20.48
259.814	-26.62
260.03	16.38
260.246	-53.25
260.463	-40.96
260.679	-10.24
260.895	47.1
261.112	61.44
261.328	28.67
261.544	-10.24
261.761	30.72
261.977	24.58
262.193	-34.82
262.409	-26.62
262.626	67.58
262.842	8.19
263.058	77.82
263.274	63.49
263.49	-2.05
263.707	63.49
263.923	38.91
264.139	22.53
264.355	10.24
264.571	51.2
264.787	96.25
265.004	73.73
265.22	-4.1
265.436	4.1
265.652	51.2
265.868	18.43
266.084	-16.38
266.3	51.2
266.516	10.24
266.732	71.68
266.948	18.43
267.164	26.62
267.38	63.49
267.596	38.91
267.812	22.53
268.028	61.44
268.244	51.2
268.46	20.48
268.676	83.97
268.892	18.43
269.108	4.1
269.324	110.59
269.54	40.96
269.756	-10.24
269.972	112.64
270.188	57.34
270.403	45.06
270.619	16.38
270.835	18.43
271.051	-38.91
271.267	26.62
271.483	73.73
271.698	36.86
271.914	88.06
272.13	8.19
272.346	-28.67
272.562	-24.58
272.777	104.45
272.993	14.34
273.209	32.77
273.425	83.97
273.64	65.53
273.856	-2.05
274.072	43.01
274.287	-43.01
274.503	-8.19
274.719	-8.19
274.934	36.86
275.15	-8.19
275.366	77.82
275.581	-12.29
275.797	-24.58
276.012	-88.06
276.228	32.77
276.444	32.77
276.659	2.05
276.875	-14.34
277.09	26.62
277.306	40.96
277.521	67.58
277.737	18.43
277.952	51.2
278.168	67.58
278.383	59.39
278.599	4.1
278.814	36.86
279.03	-6.14
279.245	102.4
279.461	36.86
279.676	10.24
279.892	-4.1
280.107	49.15
280.322	24.58
280.538	65.53
280.753	108.54
280.969	-2.05
281.184	-4.1
281.399	81.92
281.615	20.48
281.83	6.14
282.045	6.14
282.26	-14.34
282.476	24.58
282.691	30.72
282.906	26.62
283.122	10.24
283.337	88.06
283.552	24.58
283.767	38.91
283.983	77.82
284.198	-36.86
284.413	14.34
284.628	-34.82
284.843	18.43
285.058	10.24
285.274	88.06
285.489	18.43
285.704	16.38
285.919	38.91
286.134	40.96
286.349	106.49
286.564	36.86
286.779	2.05
286.995	12.29
287.21	38.91
287.425	106.49
287.64	57.34
287.855	83.97
288.07	34.82
288.285	8.19
288.5	38.91
288.715	67.58
288.93	40.96
289.145	20.48
289.36	57.34
289.575	-34.82
289.79	63.49
290.004	30.72
290.219	55.3
290.434	73.73
290.649	-18.43
290.864	100.35
291.079	-0
291.294	-10.24
291.509	-22.53
291.724	22.53
291.938	57.34
292.153	61.44
292.368	4.1
292.583	51.2
292.798	-55.3
293.012	36.86
293.227	45.06
293.442	57.34
293.657	77.82
293.871	12.29
294.086	45.06
294.301	45.06
294.516	57.34
294.73	47.1
294.945	75.77
295.16	120.83
295.374	102.4
295.589	51.2
295.804	10.24
296.018	8.19
296.233	30.72
296.447	8.19
296.662	10.24
296.877	-12.29
297.091	-20.48
297.306	53.25
297.52	20.48
297.735	81.92
297.949	43.01
298.164	100.35
298.378	47.1
298.593	75.77
298.807	-47.1
299.022	59.39
299.236	-0
299.451	20.48
299.665	4.1
299.88	2.05
300.094	12.29
300.309	-0
300.523	49.15
300.737	-34.82
300.952	-18.43
301.166	-47.1
301.381	73.73
301.595	30.72
301.809	28.67
302.024	8.19
302.238	53.25
302.452	26.62
302.667	16.38
302.881	38.91
303.095	90.11
303.309	4.1
303.524	-34.82
303.738	-22.53
303.952	4.1
304.166	24.58
304.381	-2.05
304.595	92.16
304.809	69.63
305.023	53.25
305.237	43.01
305.452	30.72
305.666	63.49
305.88	57.34
306.094	77.82
306.308	16.38
306.522	110.59
306.736	-0
306.95	71.68
307.164	6.14
307.379	-28.67
307.593	-26.62
307.807	22.53
308.021	-38.91
308.235	4.1
308.449	104.45
308.663	32.77
308.877	118.78
309.091	77.82
309.305	47.1
309.519	-12.29
309.733	24.58
309.947	-6.14
310.161	102.4
310.374	102.4
310.588	53.25
310.802	14.34
311.016	-2.05
311.23	34.82
311.444	-12.29
311.658	2.05
311.872	55.3
312.085	24.58
312.299	51.2
312.513	38.91
312.727	-18.43
312.941	34.82
313.154	38.91
313.368	8.19
313.582	36.86
313.796	65.53
314.009	55.3
314.223	-12.29
314.437	47.1
314.651	-4.1
314.864	20.48
315.078	51.2
315.292	22.53
315.505	-8.19
315.719	96.25
315.933	81.92
316.146	65.53
316.36	40.96
316.573	8.19
316.787	10.24
317.001	-12.29
317.214	36.86
317.428	6.14
317.641	18.43
317.855	53.25
318.068	51.2
318.282	69.63
318.495	53.25
318.709	57.34
318.922	28.67
319.136	112.64
319.349	10.24
319.563	-6.14
319.776	51.2
319.99	-12.29
320.203	30.72
320.417	10.24
320.63	100.35
320.843	67.58
321.057	40.96
321.27	8.19
321.483	79.87
321.697	69.63
321.91	-4.1
322.124	51.2
322.337	98.3
322.55	94.21
322.763	8.19
322.977	-32.77
323.19	-6.14
323.403	32.77
323.617	10.24
323.83	40.96
324.043	-38.91
324.256	40.96
324.469	6.14
324.683	61.44
324.896	28.67
325.109	24.58
325.322	47.1
325.535	51.2
325.748	73.73
325.962	51.2
326.175	2.05
326.388	-6.14
326.601	49.15
326.814	83.97
327.027	-24.58
327.24	49.15
327.453	8.19
327.666	57.34
327.879	120.83
328.092	75.77
328.305	34.82
328.518	-0
328.731	43.01
328.944	-10.24
329.157	59.39
329.37	4.1
329.583	40.96
329.796	67.58
330.009	53.25
330.222	36.86
330.435	57.34
330.648	32.77
330.861	-22.53
331.073	30.72
331.286	-38.91
331.499	61.44
331.712	-14.34
331.925	-18.43
332.138	51.2
332.35	65.53
332.563	-10.24
332.776	28.67
332.989	-8.19
333.202	-71.68
333.414	38.91
333.627	-12.29
333.84	69.63
334.053	112.64
334.265	12.29
334.478	-69.63
334.691	-51.2
334.903	92.16
335.116	75.77
335.329	53.25
335.541	22.53
335.754	67.58
335.966	18.43
336.179	71.68
336.392	28.67
336.604	4.1
336.817	16.38
337.029	102.4
337.242	30.72
337.454	96.25
337.667	47.1
337.88	104.45
338.092	2.05
338.305	73.73
338.517	-12.29
338.729	120.83
338.942	43.01
339.154	-22.53
339.367	14.34
339.579	67.58
339.792	43.01
340.004	47.1
340.217	77.82
340.429	34.82
340.641	12.29
340.854	-28.67
341.066	18.43
341.278	24.58
341.491	57.34
341.703	30.72
341.915	26.62
342.128	100.35
342.34	-14.34
342.552	26.62
342.764	88.06
342.977	45.06
343.189	34.82
343.401	26.62
343.613	-8.19
343.826	83.97
344.038	8.19
344.25	-43.01
344.462	55.3
344.674	55.3
344.886	57.34
345.099	86.01
345.311	34.82
345.523	-12.29
345.735	14.34
345.947	49.15
346.159	-26.62
346.371	-22.53
346.583	61.44
346.795	57.34
347.007	-8.19
347.219	34.82
347.431	-6.14
347.643	49.15
347.855	73.73
348.067	55.3
348.279	-18.43
348.491	81.92
348.703	61.44
348.915	65.53
349.127	-45.06
349.339	30.72
349.551	61.44
349.763	73.73
349.975	59.39
350.187	47.1
350.399	77.82
350.61	28.67
350.822	47.1
351.034	18.43
351.246	20.48
351.458	-63.49
351.669	40.96
351.881	86.01
352.093	98.3
352.305	81.92
352.517	65.53
352.728	40.96
352.94	112.64
353.152	51.2
353.363	-16.38
353.575	30.72
353.787	59.39
353.999	-34.82
354.21	45.06
354.422	96.25
354.633	34.82
354.845	-30.72
355.057	-0
355.268	126.97
355.48	-16.38
355.692	-45.06
355.903	61.44
356.115	77.82
356.326	47.1
356.538	114.69
356.749	67.58
356.961	61.44
357.172	32.77
357.384	30.72
357.595	90.11
357.807	51.2
358.018	26.62
358.23	20.48
358.441	40.96
358.653	65.53
358.864	4.1
359.075	129.02
359.287	10.24
359.498	81.92
359.709	30.72
359.921	22.53
360.132	96.25
360.344	98.3
360.555	79.87
360.766	63.49
360.977	28.67
361.189	-20.48
361.4	36.86
361.611	55.3
361.823	86.01
362.034	108.54
362.245	28.67
362.456	20.48
362.667	104.45
362.879	32.77
363.09	36.86
363.301	61.44
363.512	63.49
363.723	55.3
363.935	14.34
364.146	38.91
364.357	-2.05
364.568	98.3
364.779	10.24
364.99	-2.05
365.201	38.91
365.412	63.49
365.623	65.53
365.834	88.06
366.045	49.15
366.256	81.92
366.467	4.1
366.678	55.3
366.889	79.87
367.1	34.82
367.311	-10.24
367.522	49.15
367.733	26.62
367.944	26.62
368.155	30.72
368.366	90.11
368.577	-28.67
368.788	18.43
368.999	4.1
369.209	-36.86
369.42	79.87
369.631	149.5
369.842	26.62
370.053	38.91
370.264	38.91
370.474	86.01
370.685	12.29
370.896	28.67
371.107	59.39
371.317	73.73
371.528	40.96
371.739	63.49
371.95	92.16
372.16	40.96
372.371	75.77
372.582	47.1
372.792	-12.29
373.003	47.1
373.214	40.96
373.424	-2.05
373.635	45.06
373.846	57.34
374.056	10.24
374.267	49.15
374.477	26.62
374.688	36.86
374.898	73.73
375.109	90.11
375.319	92.16
375.53	81.92
375.74	77.82
375.951	12.29
376.161	53.25
376.372	36.86
376.582	57.34
376.793	38.91
377.003	10.24
377.214	73.73
377.424	116.73
377.635	43.01
377.845	-0
378.055	-0
378.266	6.14
378.476	116.73
378.686	18.43
378.897	-30.72
379.107	63.49
379.317	100.35
379.528	24.58
379.738	43.01
379.948	-0
380.158	57.34
380.369	24.58
380.579	43.01
380.789	43.01
380.999	6.14
381.21	98.3
381.42	30.72
381.63	100.35
381.84	94.21
382.05	81.92
382.261	51.2
382.471	59.39
382.681	104.45
382.891	96.25
383.101	81.92
383.311	-0
383.521	26.62
383.731	2.05
383.941	57.34
384.151	47.1
384.361	16.38
384.571	73.73
384.781	59.39
384.991	67.58
385.201	32.77
385.411	36.86
385.621	20.48
385.831	-14.34
386.041	116.73
386.251	79.87
386.461	40.96
386.671	47.1
386.881	49.15
387.091	-2.05
387.301	-34.82
387.511	6.14
387.72	79.87
387.93	81.92
388.14	12.29
388.35	-0
388.56	81.92
388.769	92.16
388.979	65.53
389.189	59.39
389.399	69.63
389.609	100.35
389.818	32.77
390.028	32.77
390.238	88.06
390.447	26.62
390.657	71.68
390.867	73.73
391.076	24.58
391.286	55.3
391.496	43.01
391.705	40.96
391.915	24.58
392.125	124.93
392.334	-0
392.544	116.73
392.753	102.4
392.963	73.73
393.172	8.19
393.382	14.34
393.591	92.16
393.801	36.86
394.01	86.01
394.22	24.58
394.429	114.69
394.639	2.05
394.848	86.01
395.058	36.86
395.267	-6.14
395.477	73.73
395.686	34.82
395.895	120.83
396.105	137.21
396.314	53.25
396.524	112.64
396.733	100.35
396.942	151.55
397.152	92.16
397.361	61.44
397.57	83.97
397.78	71.68
397.989	-10.24
398.198	184.32
398.407	108.54
398.617	45.06
398.826	159.74
399.035	22.53
399.244	124.93
399.453	67.58
399.663	169.98
399.872	83.97
400.081	4.1
400.29	55.3
400.499	133.12
400.708	124.93
400.917	77.82
401.127	83.97
401.336	118.78
401.545	126.97
401.754	110.59
401.963	133.12
402.172	67.58
402.381	104.45
402.59	88.06
402.799	143.36
403.008	155.65
403.217	126.97
403.426	124.93
403.635	94.21
403.844	165.89
404.053	112.64
404.262	96.25
404.471	200.7
404.68	169.98
404.888	131.07
405.097	71.68
405.306	112.64
405.515	172.03
405.724	104.45
405.933	163.84
406.142	221.18
406.35	141.31
406.559	124.93
406.768	137.21
406.977	110.59
407.185	245.76
407.394	190.46
407.603	163.84
407.812	172.03
408.02	282.62
408.229	204.8
408.438	253.95
408.646	231.42
408.855	229.37
409.064	229.37
409.272	223.23
409.481	325.63
409.69	286.72
409.898	245.76
410.107	301.05
410.315	339.96
410.524	270.33
410.733	264.19
410.941	374.78
411.15	350.2
411.358	325.63
411.567	368.63
411.775	368.63
411.984	325.63
412.192	419.83
412.401	415.74
412.609	419.83
412.818	524.28
413.026	473.08
413.234	509.94
413.443	530.42
413.651	497.66
413.86	524.28
414.068	552.95
414.276	573.43
414.485	573.43
414.693	589.81
414.901	589.81
415.11	600.05
415.318	606.2
415.526	780.28
415.734	708.6
415.943	718.84
416.151	724.98
416.359	759.8
416.567	819.19
416.776	806.9
416.984	933.87
417.192	927.73
417.4	897.01
417.608	931.83
417.817	905.2
418.025	958.45
418.233	1200.11
418.441	1032.18
418.649	1171.44
418.857	1073.14
419.065	1116.14
419.273	1198.06
419.481	1298.41
419.689	1288.17
419.897	1294.32
420.105	1386.47
420.313	1556.46
420.521	1560.55
420.729	1456.11
420.937	1726.44
421.145	1546.22
421.353	1689.57
421.561	1818.6
421.769	1875.94
421.977	1875.94
422.185	1896.42
422.393	1982.43
422.601	2035.68
422.809	2078.69
423.017	2088.93
423.224	2277.34
423.432	2349.02
423.64	2258.91
423.848	2600.92
424.056	2414.56
424.263	2701.27
424.471	2578.39
424.679	2779.09
424.887	2787.29
425.094	2764.76
425.302	2895.83
425.51	3024.85
425.718	3129.3
425.925	3194.83
426.133	3313.61
426.341	3479.5
426.548	3561.42
426.756	3594.19
426.964	3747.78
427.171	3772.36
427.379	3973.06
427.586	4102.08
427.794	4034.5
428.001	4446.14
428.209	4616.12
428.417	4493.24
428.624	4786.1
428.832	4759.48
429.039	4773.82
429.247	4693.94
429.454	5300.14
429.662	5509.04
429.869	5220.27
430.076	5599.15
430.284	5447.6
430.491	5732.26
430.699	6135.71
430.906	5900.2
431.114	5984.16
431.321	6295.46
431.528	6604.7
431.736	6965.14
431.943	7139.22
432.15	6752.15
432.358	6948.76
432.565	7493.52
432.772	7178.13
432.979	7763.85
433.187	7929.73
433.394	8007.56
433.601	8472.45
433.808	8546.17
434.016	8501.12
434.223	8662.91
434.43	9224.05
434.637	9017.21
434.844	9633.65
435.052	10057.57
435.259	9740.14
435.466	10116.97
435.673	9750.38
435.88	10430.3
436.087	11085.65
436.294	10966.87
436.501	10647.39
436.708	11028.31
436.915	11431.76
437.122	11722.57
437.329	11747.15
437.537	12201.8
437.743	12398.4
437.95	12162.89
438.157	13080.38
438.364	13422.39
438.571	13311.8
438.778	13422.39
438.985	14812.96
439.192	14069.55
439.399	14397.22
439.606	14280.49
439.813	14999.32
440.02	15916.81
440.227	15535.89
440.433	15525.65
440.64	16156.43
440.847	15816.46
441.054	16533.25
441.261	17362.68
441.467	17305.34
441.674	17559.28
441.881	18218.73
442.088	18188.01
442.294	17819.38
442.501	18616.04
442.708	18931.42
442.914	19447.51
443.121	20383.43
443.328	20037.33
443.534	21356.22
443.741	20539.08
443.948	20534.98
444.154	21700.28
444.361	21694.13
444.568	21731
444.774	21708.47
444.981	21939.89
445.187	22509.22
445.394	23850.64
445.6	23535.26
445.807	25558.65
446.013	24487.56
446.22	25161.34
446.426	26132.08
446.633	26175.09
446.839	27131.49
447.046	26087.03
447.252	27471.45
447.459	27510.36
447.665	27344.48
447.871	28597.84
448.078	30008.89
448.284	28202.58
448.491	29130.31
448.697	30373.42
448.903	30965.29
449.11	31047.21
449.316	30510.64
449.522	30930.47
449.728	31694.36
449.935	31964.7
450.141	31890.97
450.347	32996.87
450.553	31847.96
450.76	32130.58
450.966	32953.87
451.172	32734.73
451.378	33437.19
451.584	32572.94
451.791	33791.48
451.997	33375.75
452.203	34090.49
452.409	34129.4
452.615	33787.39
452.821	32863.75
453.027	32093.72
453.233	33664.51
453.44	32425.49
453.646	33019.4
453.852	33134.09
454.058	33605.12
454.264	32427.54
454.47	33508.86
454.676	32456.21
454.882	33443.33
455.088	30699.05
455.294	30936.62
455.5	31460.9
455.705	31784.47
455.911	30465.58
456.117	29826.62
456.323	29736.51
456.529	27848.28
456.735	29392.45
456.941	28603.98
457.147	28339.79
457.352	27164.26
457.558	27076.19
457.764	26969.7
457.97	26193.52
458.176	25822.84
458.381	25456.25
458.587	24639.11
458.793	23975.57
458.999	23185.05
459.204	24794.76
459.41	24172.18
459.616	22595.24
459.821	22851.24
460.027	22259.37
460.233	21817.01
460.438	20840.13
460.644	21270.2
460.85	20096.72
461.055	19967.7
461.261	19869.39
461.466	18278.12
461.672	18001.65
461.878	19013.34
462.083	17917.68
462.289	17336.06
462.494	17454.84
462.7	16596.74
462.905	16037.64
463.111	16525.06
463.316	16678.66
463.522	16518.92
463.727	16430.85
463.932	16398.09
464.138	16078.6
464.343	16078.6
464.549	15781.65
464.754	16219.91
464.959	16174.86
465.165	15974.16
465.37	15277.85
465.575	14941.98
465.781	15773.46
465.986	15664.91
466.191	14954.27
466.397	14823.2
466.602	14124.84
466.807	14755.61
467.012	14468.9
467.218	14470.95
467.423	14288.68
467.628	14407.46
467.833	14921.5
468.038	14466.85
468.244	14022.44
