Data from USB4F104151__88__12-02-31-564.txt Node

Date: Fri Mar 14 12:02:31 EDT 2025
User: louis
Spectrometer: USB4F10415
Trigger mode: 4
Integration Time (sec): 2.000000E-2
Scans to average: 1
Electric dark correction enabled: true
Nonlinearity correction enabled: false
Boxcar width: 0
XAxis mode: Wavelengths
Number of Pixels in Spectrum: 3648
>>>>>Begin Spectral Data<<<<<
178.204	-128.85
178.424	-128.85
178.644	-128.85
178.864	-94.04
179.084	-73.56
179.304	14.51
179.524	-14.17
179.744	-57.17
179.964	16.55
180.184	63.66
180.404	22.7
180.624	4.27
180.844	-1.88
181.064	-94.04
181.283	43.18
181.503	-48.98
181.723	51.37
181.943	10.41
182.163	14.51
182.383	-10.07
182.602	-18.26
182.822	-24.4
183.042	-38.74
183.262	-10.07
183.482	41.13
183.701	-42.84
183.921	-98.13
184.141	-53.08
184.361	49.32
184.58	4.27
184.8	-1.88
185.02	14.51
185.239	26.79
185.459	57.51
185.679	-46.93
185.898	-51.03
186.118	-32.6
186.338	-38.74
186.557	-10.07
186.777	-14.17
186.997	-18.26
187.216	-73.56
187.436	77.99
187.655	49.32
187.875	-3.93
188.095	45.23
188.314	6.31
188.534	-3.93
188.753	-22.36
188.973	20.65
189.192	-34.64
189.412	-46.93
189.631	12.46
189.851	-32.6
190.07	24.75
190.29	-26.45
190.509	-53.08
190.729	18.6
190.948	-28.5
191.168	51.37
191.387	49.32
191.607	32.94
191.826	43.18
192.045	-57.17
192.265	4.27
192.484	-24.4
192.704	-18.26
192.923	20.65
193.142	-36.69
193.362	-48.98
193.581	-14.17
193.8	34.99
194.02	-5.97
194.239	-38.74
194.458	39.08
194.678	-46.93
194.897	-57.17
195.116	0.17
195.335	-61.27
195.555	-20.31
195.774	-14.17
195.993	-8.02
196.212	12.46
196.432	-20.31
196.651	39.08
196.87	-30.55
197.089	-20.31
197.308	22.7
197.528	39.08
197.747	-65.36
197.966	71.85
198.185	12.46
198.404	49.32
198.623	57.51
198.842	6.31
199.062	-1.88
199.281	-5.97
199.5	-36.69
199.719	59.56
199.938	0.17
200.157	-5.97
200.376	51.37
200.595	-3.93
200.814	-30.55
201.033	-139.09
201.252	-20.31
201.471	-20.31
201.69	-57.17
201.909	71.85
202.128	-44.88
202.347	-5.97
202.566	24.75
202.785	0.17
203.004	-42.84
203.223	55.47
203.442	-34.64
203.661	-8.02
203.879	-44.88
204.098	4.27
204.317	-44.88
204.536	49.32
204.755	-1.88
204.974	0.17
205.193	2.22
205.411	10.41
205.63	-59.22
205.849	-73.56
206.068	4.27
206.287	55.47
206.505	-3.93
206.724	-8.02
206.943	-24.4
207.162	0.17
207.381	49.32
207.599	-12.12
207.818	28.84
208.037	-20.31
208.255	-55.12
208.474	-38.74
208.693	12.46
208.911	12.46
209.13	10.41
209.349	18.6
209.567	41.13
209.786	80.04
210.005	28.84
210.223	18.6
210.442	43.18
210.661	67.75
210.879	-46.93
211.098	34.99
211.316	14.51
211.535	26.79
211.753	-22.36
211.972	-83.8
212.191	-77.65
212.409	45.23
212.628	24.75
212.846	-10.07
213.065	28.84
213.283	73.9
213.502	-69.46
213.72	-65.36
213.938	4.27
214.157	-46.93
214.375	-57.17
214.594	8.36
214.812	37.03
215.031	-71.51
215.249	-32.6
215.467	-20.31
215.686	-3.93
215.904	-20.31
216.122	-22.36
216.341	14.51
216.559	8.36
216.778	-22.36
216.996	67.75
217.214	-18.26
217.432	-8.02
217.651	-67.41
217.869	18.6
218.087	-26.45
218.306	-71.51
218.524	-1.88
218.742	-28.5
218.96	39.08
219.179	-8.02
219.397	-85.84
219.615	65.71
219.833	-36.69
220.051	32.94
220.27	-40.79
220.488	39.08
220.706	-26.45
220.924	16.55
221.142	-44.88
221.36	-40.79
221.578	-22.36
221.796	8.36
222.015	-26.45
222.233	-16.21
222.451	59.56
222.669	-73.56
222.887	18.6
223.105	-48.98
223.323	16.55
223.541	-10.07
223.759	16.55
223.977	24.75
224.195	0.17
224.413	-26.45
224.631	-20.31
224.849	34.99
225.067	67.75
225.285	-42.84
225.503	-98.13
225.721	-61.27
225.939	-10.07
226.157	20.65
226.375	84.14
226.592	-65.36
226.81	18.6
227.028	-38.74
227.246	18.6
227.464	2.22
227.682	-8.02
227.9	-16.21
228.117	-42.84
228.335	-44.88
228.553	-26.45
228.771	-5.97
228.989	-38.74
229.206	6.31
229.424	-1.88
229.642	-38.74
229.86	-18.26
230.077	-1.88
230.295	-18.26
230.513	4.27
230.731	20.65
230.948	57.51
231.166	34.99
231.384	8.36
231.601	28.84
231.819	0.17
232.037	4.27
232.254	2.22
232.472	-1.88
232.689	-20.31
232.907	-22.36
233.125	6.31
233.342	-16.21
233.56	-3.93
233.777	-34.64
233.995	10.41
234.213	-12.12
234.43	30.89
234.648	16.55
234.865	-61.27
235.083	8.36
235.3	-5.97
235.518	88.23
235.735	-73.56
235.953	57.51
236.17	51.37
236.388	24.75
236.605	-5.97
236.822	18.6
237.04	-16.21
237.257	-55.12
237.475	55.47
237.692	14.51
237.909	-24.4
238.127	-67.41
238.344	-8.02
238.562	32.94
238.779	47.27
238.996	-1.88
239.214	-38.74
239.431	75.95
239.648	-3.93
239.865	-5.97
240.083	0.17
240.3	-71.51
240.517	-83.8
240.735	-18.26
240.952	4.27
241.169	32.94
241.386	22.7
241.603	-5.97
241.821	4.27
242.038	-38.74
242.255	39.08
242.472	-73.56
242.689	-1.88
242.907	26.79
243.124	8.36
243.341	-42.84
243.558	39.08
243.775	-71.51
243.992	-89.94
244.209	-14.17
244.426	133.29
244.643	47.27
244.86	-30.55
245.078	-53.08
245.295	22.7
245.512	34.99
245.729	-57.17
245.946	-40.79
246.163	-5.97
246.38	-26.45
246.597	-18.26
246.814	2.22
247.031	-46.93
247.248	-63.32
247.464	-12.12
247.681	-81.75
247.898	-16.21
248.115	12.46
248.332	-69.46
248.549	-16.21
248.766	-18.26
248.983	18.6
249.2	28.84
249.417	0.17
249.633	-20.31
249.85	10.41
250.067	-61.27
250.284	12.46
250.501	12.46
250.717	-30.55
250.934	-20.31
251.151	34.99
251.368	-40.79
251.585	59.56
251.801	-14.17
252.018	4.27
252.235	6.31
252.451	-5.97
252.668	-38.74
252.885	2.22
253.102	16.55
253.318	41.13
253.535	-67.41
253.752	-112.47
253.968	65.71
254.185	-18.26
254.401	-83.8
254.618	-71.51
254.835	-1.88
255.051	51.37
255.268	26.79
255.484	-67.41
255.701	28.84
255.917	18.6
256.134	-73.56
256.351	69.8
256.567	-18.26
256.784	24.75
257	-1.88
257.217	-14.17
257.433	6.31
257.65	-61.27
257.866	10.41
258.082	39.08
258.299	-5.97
258.515	24.75
258.732	-53.08
258.948	51.37
259.165	49.32
259.381	45.23
259.597	2.22
259.814	-14.17
260.03	10.41
260.246	8.36
260.463	28.84
260.679	-20.31
260.895	18.6
261.112	16.55
261.328	-5.97
261.544	-5.97
261.761	6.31
261.977	12.46
262.193	-16.21
262.409	-3.93
262.626	-26.45
262.842	-8.02
263.058	10.41
263.274	-18.26
263.49	-40.79
263.707	20.65
263.923	-94.04
264.139	-26.45
264.355	26.79
264.571	77.99
264.787	-53.08
265.004	16.55
265.22	-8.02
265.436	-14.17
265.652	0.17
265.868	28.84
266.084	-51.03
266.3	-57.17
266.516	-100.18
266.732	51.37
266.948	-42.84
267.164	-36.69
267.38	-5.97
267.596	37.03
267.812	20.65
268.028	-1.88
268.244	10.41
268.46	28.84
268.676	41.13
268.892	-3.93
269.108	34.99
269.324	10.41
269.54	39.08
269.756	34.99
269.972	-3.93
270.188	-36.69
270.403	0.17
270.619	-34.64
270.835	51.37
271.051	10.41
271.267	22.7
271.483	-20.31
271.698	37.03
271.914	26.79
272.13	-24.4
272.346	-24.4
272.562	41.13
272.777	47.27
272.993	-36.69
273.209	28.84
273.425	8.36
273.64	-79.7
273.856	37.03
274.072	-83.8
274.287	-71.51
274.503	-40.79
274.719	-1.88
274.934	24.75
275.15	-22.36
275.366	53.42
275.581	-20.31
275.797	-94.04
276.012	22.7
276.228	-14.17
276.444	2.22
276.659	45.23
276.875	-32.6
277.09	26.79
277.306	-16.21
277.521	-20.31
277.737	-12.12
277.952	-34.64
278.168	71.85
278.383	30.89
278.599	-42.84
278.814	-38.74
279.03	-22.36
279.245	71.85
279.461	24.75
279.676	92.33
279.892	-3.93
280.107	-20.31
280.322	-12.12
280.538	-20.31
280.753	-24.4
280.969	14.51
281.184	-24.4
281.399	61.61
281.615	20.65
281.83	61.61
282.045	-3.93
282.26	-40.79
282.476	-30.55
282.691	41.13
282.906	8.36
283.122	63.66
283.337	14.51
283.552	26.79
283.767	-24.4
283.983	-8.02
284.198	0.17
284.413	0.17
284.628	-46.93
284.843	-5.97
285.058	-18.26
285.274	-53.08
285.489	39.08
285.704	28.84
285.919	8.36
286.134	43.18
286.349	4.27
286.564	-36.69
286.779	-5.97
286.995	-79.7
287.21	-77.65
287.425	-38.74
287.64	-18.26
287.855	-14.17
288.07	-30.55
288.285	-1.88
288.5	-3.93
288.715	20.65
288.93	49.32
289.145	-34.64
289.36	2.22
289.575	-61.27
289.79	-16.21
290.004	-20.31
290.219	24.75
290.434	24.75
290.649	-18.26
290.864	-12.12
291.079	12.46
291.294	57.51
291.509	49.32
291.724	55.47
291.938	12.46
292.153	4.27
292.368	12.46
292.583	59.56
292.798	30.89
293.012	-40.79
293.227	-46.93
293.442	12.46
293.657	-67.41
293.871	24.75
294.086	-1.88
294.301	12.46
294.516	10.41
294.73	84.14
294.945	-61.27
295.16	30.89
295.374	10.41
295.589	8.36
295.804	63.66
296.018	18.6
296.233	-59.22
296.447	51.37
296.662	-36.69
296.877	14.51
297.091	12.46
297.306	39.08
297.52	-8.02
297.735	-14.17
297.949	-5.97
298.164	77.99
298.378	24.75
298.593	-63.32
298.807	-18.26
299.022	-48.98
299.236	73.9
299.451	14.51
299.665	8.36
299.88	26.79
300.094	26.79
300.309	-18.26
300.523	-69.46
300.737	28.84
300.952	-26.45
301.166	26.79
301.381	98.47
301.595	-71.51
301.809	-81.75
302.024	53.42
302.238	-51.03
302.452	51.37
302.667	-53.08
302.881	26.79
303.095	45.23
303.309	-46.93
303.524	-12.12
303.738	49.32
303.952	2.22
304.166	4.27
304.381	24.75
304.595	43.18
304.809	-28.5
305.023	51.37
305.237	-22.36
305.452	-18.26
305.666	-85.84
305.88	61.61
306.094	75.95
306.308	-28.5
306.522	-51.03
306.736	-57.17
306.95	75.95
307.164	-32.6
307.379	10.41
307.593	-3.93
307.807	-67.41
308.021	98.47
308.235	18.6
308.449	-8.02
308.663	-12.12
308.877	43.18
309.091	34.99
309.305	34.99
309.519	12.46
309.733	20.65
309.947	-20.31
310.161	6.31
310.374	-8.02
310.588	14.51
310.802	-40.79
311.016	24.75
311.23	-14.17
311.444	-5.97
311.658	8.36
311.872	57.51
312.085	-14.17
312.299	63.66
312.513	57.51
312.727	55.47
312.941	-16.21
313.154	10.41
313.368	-53.08
313.582	8.36
313.796	59.56
314.009	-20.31
314.223	28.84
314.437	143.53
314.651	49.32
314.864	-28.5
315.078	-5.97
315.292	-51.03
315.505	6.31
315.719	-14.17
315.933	16.55
316.146	16.55
316.36	-16.21
316.573	-20.31
316.787	67.75
317.001	22.7
317.214	-3.93
317.428	8.36
317.641	0.17
317.855	16.55
318.068	30.89
318.282	-102.23
318.495	43.18
318.709	-24.4
318.922	-26.45
319.136	0.17
319.349	61.61
319.563	-3.93
319.776	88.23
319.99	-16.21
320.203	-12.12
320.417	22.7
320.63	10.41
320.843	45.23
321.057	30.89
321.27	-22.36
321.483	-40.79
321.697	14.51
321.91	-22.36
322.124	24.75
322.337	26.79
322.55	-14.17
322.763	2.22
322.977	-44.88
323.19	8.36
323.403	-14.17
323.617	20.65
323.83	22.7
324.043	8.36
324.256	-69.46
324.469	-18.26
324.683	32.94
324.896	-53.08
325.109	10.41
325.322	-36.69
325.535	26.79
325.748	6.31
325.962	34.99
326.175	0.17
326.388	-48.98
326.601	-16.21
326.814	34.99
327.027	24.75
327.24	106.67
327.453	69.8
327.666	-12.12
327.879	12.46
328.092	16.55
328.305	0.17
328.518	-1.88
328.731	20.65
328.944	16.55
329.157	65.71
329.37	22.7
329.583	22.7
329.796	12.46
330.009	22.7
330.222	-46.93
330.435	41.13
330.648	43.18
330.861	4.27
331.073	20.65
331.286	37.03
331.499	-16.21
331.712	-16.21
331.925	-51.03
332.138	18.6
332.35	30.89
332.563	41.13
332.776	69.8
332.989	-40.79
333.202	63.66
333.414	12.46
333.627	-53.08
333.84	39.08
334.053	-46.93
334.265	12.46
334.478	-28.5
334.691	-12.12
334.903	57.51
335.116	88.23
335.329	-36.69
335.541	37.03
335.754	49.32
335.966	57.51
336.179	45.23
336.392	28.84
336.604	43.18
336.817	41.13
337.029	-32.6
337.242	-40.79
337.454	59.56
337.667	45.23
337.88	-34.64
338.092	-3.93
338.305	-10.07
338.517	-24.4
338.729	-14.17
338.942	8.36
339.154	37.03
339.367	-44.88
339.579	8.36
339.792	-16.21
340.004	16.55
340.217	43.18
340.429	57.51
340.641	-14.17
340.854	-42.84
341.066	61.61
341.278	-42.84
341.491	-3.93
341.703	-24.4
341.915	-77.65
342.128	106.67
342.34	4.27
342.552	-30.55
342.764	41.13
342.977	26.79
343.189	28.84
343.401	8.36
343.613	12.46
343.826	34.99
344.038	65.71
344.25	14.51
344.462	16.55
344.674	39.08
344.886	-8.02
345.099	-14.17
345.311	45.23
345.523	-22.36
345.735	-22.36
345.947	37.03
346.159	-10.07
346.371	-22.36
346.583	-5.97
346.795	108.71
347.007	65.71
347.219	55.47
347.431	-22.36
347.643	14.51
347.855	73.9
348.067	55.47
348.279	-30.55
348.491	30.89
348.703	0.17
348.915	6.31
349.127	-12.12
349.339	12.46
349.551	55.47
349.763	43.18
349.975	43.18
350.187	118.95
350.399	-46.93
350.61	57.51
350.822	-51.03
351.034	0.17
351.246	-26.45
351.458	41.13
351.669	51.37
351.881	39.08
352.093	24.75
352.305	-5.97
352.517	59.56
352.728	28.84
352.94	14.51
353.152	24.75
353.363	-53.08
353.575	84.14
353.787	12.46
353.999	34.99
354.21	45.23
354.422	73.9
354.633	14.51
354.845	-3.93
355.057	12.46
355.268	47.27
355.48	32.94
355.692	-34.64
355.903	28.84
356.115	-38.74
356.326	-67.41
356.538	43.18
356.749	47.27
356.961	65.71
357.172	8.36
357.384	8.36
357.595	-14.17
357.807	-42.84
358.018	-12.12
358.23	63.66
358.441	26.79
358.653	-20.31
358.864	0.17
359.075	45.23
359.287	28.84
359.498	41.13
359.709	-1.88
359.921	-42.84
360.132	71.85
360.344	-26.45
360.555	-32.6
360.766	47.27
360.977	-32.6
361.189	82.09
361.4	34.99
361.611	12.46
361.823	-5.97
362.034	28.84
362.245	-32.6
362.456	75.95
362.667	34.99
362.879	77.99
363.09	-55.12
363.301	43.18
363.512	49.32
363.723	28.84
363.935	-40.79
364.146	65.71
364.357	-3.93
364.568	53.42
364.779	-24.4
364.99	53.42
365.201	-57.17
365.412	28.84
365.623	-51.03
365.834	61.61
366.045	-36.69
366.256	45.23
366.467	-5.97
366.678	18.6
366.889	51.37
367.1	8.36
367.311	47.27
367.522	34.99
367.733	-14.17
367.944	69.8
368.155	59.56
368.366	22.7
368.577	92.33
368.788	26.79
368.999	10.41
369.209	41.13
369.42	-22.36
369.631	75.95
369.842	-16.21
370.053	59.56
370.264	-12.12
370.474	2.22
370.685	63.66
370.896	77.99
371.107	28.84
371.317	65.71
371.528	14.51
371.739	22.7
371.95	67.75
372.16	-12.12
372.371	30.89
372.582	51.37
372.792	26.79
373.003	-12.12
373.214	55.47
373.424	-18.26
373.635	-36.69
373.846	71.85
374.056	18.6
374.267	32.94
374.477	34.99
374.688	-73.56
374.898	-36.69
375.109	55.47
375.319	-24.4
375.53	30.89
375.74	-5.97
375.951	-26.45
376.161	24.75
376.372	45.23
376.582	55.47
376.793	39.08
377.003	49.32
377.214	2.22
377.424	6.31
377.635	24.75
377.845	-36.69
378.055	43.18
378.266	-1.88
378.476	0.17
378.686	4.27
378.897	24.75
379.107	32.94
379.317	37.03
379.528	-40.79
379.738	75.95
379.948	10.41
380.158	67.75
380.369	-18.26
380.579	6.31
380.789	-53.08
380.999	10.41
381.21	-10.07
381.42	43.18
381.63	-26.45
381.84	16.55
382.05	45.23
382.261	51.37
382.471	4.27
382.681	30.89
382.891	127.14
383.101	-10.07
383.311	-10.07
383.521	-24.4
383.731	-53.08
383.941	28.84
384.151	10.41
384.361	-67.41
384.571	8.36
384.781	14.51
384.991	57.51
385.201	92.33
385.411	-5.97
385.621	26.79
385.831	63.66
386.041	26.79
386.251	18.6
386.461	-1.88
386.671	51.37
386.881	51.37
387.091	47.27
387.301	123.05
387.511	2.22
387.72	53.42
387.93	6.31
388.14	43.18
388.35	-14.17
388.56	45.23
388.769	43.18
388.979	94.38
389.189	100.52
389.399	71.85
389.609	45.23
389.818	18.6
390.028	92.33
390.238	26.79
390.447	30.89
390.657	116.9
390.867	-1.88
391.076	-61.27
391.286	88.23
391.496	139.43
391.705	10.41
391.915	71.85
392.125	37.03
392.334	32.94
392.544	71.85
392.753	47.27
392.963	127.14
393.172	51.37
393.382	4.27
393.591	2.22
393.801	149.67
394.01	69.8
394.22	90.28
394.429	30.89
394.639	-38.74
394.848	47.27
395.058	80.04
395.267	121
395.477	94.38
395.686	102.57
395.895	98.47
396.105	84.14
396.314	61.61
396.524	32.94
396.733	108.71
396.942	166.06
397.152	65.71
397.361	80.04
397.57	71.85
397.78	121
397.989	84.14
398.198	80.04
398.407	98.47
398.617	32.94
398.826	86.19
399.035	86.19
399.244	100.52
399.453	100.52
399.663	114.86
399.872	116.9
400.081	37.03
400.29	184.49
400.499	49.32
400.708	90.28
400.917	118.95
401.127	161.96
401.336	157.86
401.545	147.62
401.754	147.62
401.963	104.62
402.172	147.62
402.381	129.19
402.59	57.51
402.799	71.85
403.008	77.99
403.217	149.67
403.426	180.39
403.635	118.95
403.844	92.33
404.053	282.79
404.262	82.09
404.471	196.78
404.68	172.2
404.888	80.04
405.097	123.05
405.306	178.34
405.515	194.73
405.724	92.33
405.933	114.86
406.142	155.82
406.35	157.86
406.559	231.59
406.768	137.38
406.977	200.87
407.185	262.31
407.394	307.37
407.603	254.12
407.812	276.65
408.02	231.59
408.229	233.64
408.438	247.97
408.646	243.88
408.855	233.64
409.064	272.55
409.272	321.7
409.481	368.81
409.69	237.74
409.898	284.84
410.107	340.13
410.315	391.33
410.524	333.99
410.733	438.44
410.941	395.43
411.15	413.86
411.358	481.44
411.567	489.64
411.775	546.98
411.984	495.78
412.192	526.5
412.401	467.11
412.609	598.18
412.818	569.51
413.026	663.71
413.234	667.81
413.443	680.1
413.651	647.33
413.86	694.43
414.068	778.4
414.276	721.06
414.485	831.65
414.693	712.86
414.901	903.32
415.11	825.5
415.318	841.89
415.526	997.53
415.734	962.72
415.943	1044.63
416.151	1042.59
416.359	1065.11
416.567	1091.74
416.776	1187.99
416.984	1243.29
417.192	1282.2
417.4	1274.01
417.608	1243.29
417.817	1245.34
418.025	1446.04
418.233	1421.46
418.441	1538.2
418.649	1548.44
418.857	1611.92
419.065	1747.09
419.273	1616.02
419.481	1683.6
419.689	1884.3
419.897	1964.17
420.105	1951.88
420.313	1931.41
420.521	2107.53
420.729	2070.67
420.937	2232.46
421.145	2369.67
421.353	2373.77
421.561	2613.38
421.769	2572.42
421.977	2717.83
422.185	2723.97
422.393	2883.71
422.601	2885.76
422.809	3059.84
423.017	3037.31
423.224	3231.87
423.432	3242.11
423.64	3403.89
423.848	3618.93
424.056	3541.11
424.263	3784.82
424.471	3729.52
424.679	3741.81
424.887	4079.72
425.094	4130.92
425.302	4259.95
425.51	4259.95
425.718	4517.99
425.925	4415.59
426.133	4841.57
426.341	4937.82
426.548	5247.07
426.756	5245.02
426.964	5210.2
427.171	5429.34
427.379	5714
427.586	5810.26
427.794	6115.41
428.001	6105.17
428.209	6658.12
428.417	6420.55
428.624	6891.59
428.832	7045.18
429.039	6809.67
429.247	6893.63
429.454	7694.39
429.662	8063.02
429.869	7569.46
430.076	8183.85
430.284	7942.19
430.491	8103.98
430.699	8591.4
430.906	8757.29
431.114	9003.04
431.321	9281.57
431.528	9494.55
431.736	10027.03
431.943	10280.97
432.15	10162.19
432.358	10332.17
432.565	10831.88
432.772	10854.41
432.979	11368.45
433.187	11360.25
433.394	11401.21
433.601	12312.56
433.808	12535.79
434.016	12193.78
434.223	13025.25
434.43	13479.9
434.637	13391.84
434.844	14045.14
435.052	14329.81
435.259	14307.28
435.466	14315.47
435.673	14417.87
435.88	15116.23
436.087	15998.9
436.294	15974.33
436.501	15583.16
436.708	15943.61
436.915	16334.77
437.122	17035.17
437.329	17002.41
437.537	17751.96
437.743	18122.65
437.95	17758.11
438.157	18933.64
438.364	19611.52
438.571	19808.12
438.778	19654.53
438.985	21489.51
439.192	20733.81
439.399	21213.03
439.606	20707.18
439.813	21989.21
440.02	23125.83
440.227	22601.55
440.433	22781.78
440.64	23236.42
440.847	23445.32
441.054	23523.14
441.261	25278.25
441.467	24946.48
441.674	25509.67
441.881	26416.92
442.088	26537.75
442.294	26181.4
442.501	26705.68
442.708	27639.56
442.914	28419.83
443.121	30037.73
443.328	28729.08
443.534	30588.63
443.741	30265.05
443.948	29611.75
444.154	31649.48
444.361	31430.35
444.568	32034.5
444.774	31545.03
444.981	32202.43
445.187	33404.59
445.394	34186.91
445.6	34143.91
445.807	37406.32
446.013	35538.57
446.22	36353.66
446.426	37539.44
446.633	37604.97
446.839	39437.9
447.046	37938.79
447.252	39628.37
447.459	39822.92
447.665	39700.04
447.871	41174.58
448.078	43169.3
448.284	40914.49
448.491	42104.36
448.697	43480.6
448.903	44547.59
449.11	44400.13
449.316	43871.76
449.522	44361.22
449.728	45575.67
449.935	45430.26
450.141	45762.03
450.347	47007.2
450.553	45344.25
450.76	45764.08
450.966	47545.81
451.172	46933.47
451.378	47830.48
451.584	47179.23
451.791	48090.57
451.997	48125.39
452.203	48920
452.409	48956.86
452.615	48014.8
452.821	46818.78
453.027	45995.5
453.233	48795.07
453.44	46544.36
453.646	46986.72
453.852	47136.22
454.058	47975.89
454.264	46278.12
454.47	47105.5
454.676	46298.6
454.882	48176.59
455.088	43982.35
455.294	44453.38
455.5	44969.47
455.705	45405.69
455.911	43746.83
456.117	42878.49
456.323	42145.32
456.529	39851.59
456.735	41637.42
456.941	40797.76
457.147	40095.3
457.352	38792.79
457.558	38372.96
457.764	38284.9
457.97	37893.74
458.176	36675.2
458.381	36759.16
458.587	34795.16
458.793	34633.37
458.999	32865.97
459.204	35298.96
459.41	34512.54
459.616	31905.48
459.821	31930.05
460.027	32136.9
460.233	31508.17
460.438	29830.88
460.644	30514.91
460.85	28536.57
461.055	28581.62
461.261	28399.35
461.466	26562.33
461.672	25419.56
461.878	27381.51
462.083	25104.17
462.289	24977.2
462.494	24297.27
462.7	23531.33
462.905	22710.1
463.111	23942.97
463.316	23834.43
463.522	23066.44
463.727	22925.13
463.932	23113.55
464.138	22873.93
464.343	22818.64
464.549	22368.09
464.754	23230.28
464.959	23121.74
465.165	22558.55
