Data from USB4F104151__50__12-01-33-410.txt Node

Date: Fri Mar 14 12:01:33 EDT 2025
User: louis
Spectrometer: USB4F10415
Trigger mode: 4
Integration Time (sec): 2.000000E-2
Scans to average: 1
Electric dark correction enabled: true
Nonlinearity correction enabled: false
Boxcar width: 0
XAxis mode: Wavelengths
Number of Pixels in Spectrum: 3648
>>>>>Begin Spectral Data<<<<<
178.204	-44.2
178.424	-44.2
178.644	-44.2
178.864	-58.54
179.084	-72.87
179.304	2.9
179.524	-1.19
179.744	52.05
179.964	21.33
180.184	13.14
180.404	62.29
180.624	-19.63
180.844	-56.49
181.064	-44.2
181.283	15.19
181.503	-17.58
181.723	-27.82
181.943	0.85
182.163	54.1
182.383	11.09
182.602	68.44
182.822	68.44
183.042	29.52
183.262	-38.06
183.482	25.43
183.701	50
183.921	54.1
184.141	-3.24
184.361	109.4
184.58	19.29
184.8	80.72
185.02	25.43
185.239	84.82
185.459	93.01
185.679	31.57
185.898	95.06
186.118	101.2
186.338	23.38
186.557	58.2
186.777	72.53
186.997	31.57
187.216	111.44
187.436	54.1
187.655	31.57
187.875	74.58
188.095	-36.01
188.314	99.16
188.534	115.54
188.753	90.96
188.973	66.39
189.192	15.19
189.412	68.44
189.631	64.34
189.851	-7.34
190.07	138.07
190.29	23.38
190.509	86.87
190.729	37.72
190.948	121.68
191.168	93.01
191.387	29.52
191.607	54.1
191.826	50
192.045	72.53
192.265	84.82
192.484	74.58
192.704	101.2
192.923	11.09
193.142	50
193.362	-9.39
193.581	86.87
193.8	74.58
194.02	31.57
194.239	60.24
194.458	37.72
194.678	86.87
194.897	15.19
195.116	-1.19
195.335	43.86
195.555	133.97
195.774	58.2
195.993	117.59
196.212	31.57
196.432	105.3
196.651	23.38
196.87	-17.58
197.089	123.73
197.308	64.34
197.528	45.91
197.747	31.57
197.966	93.01
198.185	45.91
198.404	43.86
198.623	95.06
198.842	107.35
199.062	101.2
199.281	111.44
199.5	9.05
199.719	56.15
199.938	15.19
200.157	45.91
200.376	17.24
200.595	60.24
200.814	60.24
201.033	15.19
201.252	45.91
201.471	45.91
201.69	90.96
201.909	93.01
202.128	54.1
202.347	33.62
202.566	101.2
202.785	93.01
203.004	35.67
203.223	60.24
203.442	60.24
203.661	74.58
203.879	99.16
204.098	13.14
204.317	84.82
204.536	95.06
204.755	29.52
204.974	-13.48
205.193	70.48
205.411	133.97
205.63	80.72
205.849	29.52
206.068	72.53
206.287	35.67
206.505	50
206.724	95.06
206.943	105.3
207.162	-42.15
207.381	52.05
207.599	60.24
207.818	11.09
208.037	21.33
208.255	35.67
208.474	60.24
208.693	64.34
208.911	54.1
209.13	117.59
209.349	62.29
209.567	56.15
209.786	54.1
210.005	17.24
210.223	58.2
210.442	66.39
210.661	0.85
210.879	113.49
211.098	82.77
211.316	60.24
211.535	142.16
211.753	-38.06
211.972	109.4
212.191	4.95
212.409	58.2
212.628	74.58
212.846	78.68
213.065	82.77
213.283	86.87
213.502	-7.34
213.72	70.48
213.938	31.57
214.157	17.24
214.375	45.91
214.594	66.39
214.812	62.29
215.031	-15.53
215.249	72.53
215.467	41.81
215.686	78.68
215.904	97.11
216.122	52.05
216.341	39.76
216.559	80.72
216.778	-1.19
216.996	41.81
217.214	19.29
217.432	80.72
217.651	50
217.869	82.77
218.087	58.2
218.306	-40.11
218.524	88.92
218.742	117.59
218.96	4.95
219.179	25.43
219.397	84.82
219.615	66.39
219.833	70.48
220.051	60.24
220.27	45.91
220.488	119.64
220.706	19.29
220.924	80.72
221.142	23.38
221.36	86.87
221.578	76.63
221.796	80.72
222.015	76.63
222.233	43.86
222.451	152.4
222.669	-5.29
222.887	47.96
223.105	95.06
223.323	15.19
223.541	113.49
223.759	17.24
223.977	7
224.195	95.06
224.413	70.48
224.631	154.45
224.849	84.82
225.067	93.01
225.285	78.68
225.503	97.11
225.721	9.05
225.939	68.44
226.157	125.78
226.375	64.34
226.592	52.05
226.81	58.2
227.028	131.92
227.246	78.68
227.464	37.72
227.682	-3.24
227.9	47.96
228.117	72.53
228.335	80.72
228.553	64.34
228.771	54.1
228.989	45.91
229.206	50
229.424	95.06
229.642	76.63
229.86	27.48
230.077	47.96
230.295	113.49
230.513	125.78
230.731	72.53
230.948	17.24
231.166	27.48
231.384	31.57
231.601	74.58
231.819	29.52
232.037	74.58
232.254	15.19
232.472	17.24
232.689	43.86
232.907	72.53
233.125	123.73
233.342	93.01
233.56	82.77
233.777	41.81
233.995	37.72
234.213	13.14
234.43	111.44
234.648	-19.63
234.865	45.91
235.083	-13.48
235.3	64.34
235.518	58.2
235.735	99.16
235.953	107.35
236.17	64.34
236.388	103.25
236.605	58.2
236.822	127.83
237.04	93.01
237.257	117.59
237.475	27.48
237.692	50
237.909	56.15
238.127	113.49
238.344	68.44
238.562	9.05
238.779	103.25
238.996	31.57
239.214	82.77
239.431	39.76
239.648	27.48
239.865	60.24
240.083	41.81
240.3	50
240.517	146.26
240.735	41.81
240.952	70.48
241.169	111.44
241.386	60.24
241.603	119.64
241.821	7
242.038	70.48
242.255	101.2
242.472	9.05
242.689	13.14
242.907	86.87
243.124	174.93
243.341	99.16
243.558	101.2
243.775	113.49
243.992	17.24
244.209	41.81
244.426	99.16
244.643	95.06
244.86	35.67
245.078	54.1
245.295	37.72
245.512	76.63
245.729	52.05
245.946	97.11
246.163	58.2
246.38	101.2
246.597	35.67
246.814	105.3
247.031	93.01
247.248	19.29
247.464	39.76
247.681	37.72
247.898	72.53
248.115	68.44
248.332	76.63
248.549	50
248.766	115.54
248.983	39.76
249.2	93.01
249.417	74.58
249.633	66.39
249.85	50
250.067	64.34
250.284	58.2
250.501	70.48
250.717	101.2
250.934	76.63
251.151	21.33
251.368	47.96
251.585	123.73
251.801	43.86
252.018	33.62
252.235	129.88
252.451	11.09
252.668	31.57
252.885	133.97
253.102	58.2
253.318	82.77
253.535	17.24
253.752	86.87
253.968	-5.29
254.185	-9.39
254.401	78.68
254.618	56.15
254.835	43.86
255.051	84.82
255.268	62.29
255.484	45.91
255.701	21.33
255.917	52.05
256.134	107.35
256.351	0.85
256.567	-21.67
256.784	17.24
257	39.76
257.217	31.57
257.433	25.43
257.65	54.1
257.866	97.11
258.082	11.09
258.299	37.72
258.515	164.69
258.732	99.16
258.948	39.76
259.165	78.68
259.381	82.77
259.597	33.62
259.814	-33.96
260.03	93.01
260.246	54.1
260.463	60.24
260.679	64.34
260.895	88.92
261.112	45.91
261.328	13.14
261.544	68.44
261.761	90.96
261.977	62.29
262.193	19.29
262.409	111.44
262.626	37.72
262.842	99.16
263.058	109.4
263.274	152.4
263.49	111.44
263.707	4.95
263.923	78.68
264.139	21.33
264.355	0.85
264.571	131.92
264.787	21.33
265.004	113.49
265.22	50
265.436	70.48
265.652	86.87
265.868	72.53
266.084	-1.19
266.3	97.11
266.516	-3.24
266.732	76.63
266.948	60.24
267.164	70.48
267.38	58.2
267.596	56.15
267.812	97.11
268.028	146.26
268.244	93.01
268.46	97.11
268.676	123.73
268.892	17.24
269.108	23.38
269.324	60.24
269.54	17.24
269.756	17.24
269.972	66.39
270.188	52.05
270.403	43.86
270.619	101.2
270.835	54.1
271.051	82.77
271.267	86.87
271.483	80.72
271.698	90.96
271.914	13.14
272.13	93.01
272.346	29.52
272.562	39.76
272.777	99.16
272.993	66.39
273.209	17.24
273.425	72.53
273.64	43.86
273.856	41.81
274.072	50
274.287	15.19
274.503	119.64
274.719	72.53
274.934	29.52
275.15	-11.43
275.366	101.2
275.581	2.9
275.797	101.2
276.012	62.29
276.228	37.72
276.444	80.72
276.659	129.88
276.875	47.96
277.09	45.91
277.306	123.73
277.521	107.35
277.737	82.77
277.952	99.16
278.168	90.96
278.383	93.01
278.599	78.68
278.814	62.29
279.03	129.88
279.245	97.11
279.461	27.48
279.676	29.52
279.892	23.38
280.107	15.19
280.322	9.05
280.538	68.44
280.753	45.91
280.969	113.49
281.184	-7.34
281.399	80.72
281.615	107.35
281.83	54.1
282.045	62.29
282.26	35.67
282.476	41.81
282.691	9.05
282.906	29.52
283.122	86.87
283.337	72.53
283.552	88.92
283.767	13.14
283.983	113.49
284.198	33.62
284.413	115.54
284.628	105.3
284.843	88.92
285.058	43.86
285.274	70.48
285.489	66.39
285.704	121.68
285.919	76.63
286.134	166.74
286.349	101.2
286.564	76.63
286.779	66.39
286.995	47.96
287.21	-1.19
287.425	105.3
287.64	146.26
287.855	-9.39
288.07	66.39
288.285	84.82
288.5	58.2
288.715	50
288.93	82.77
289.145	142.16
289.36	82.77
289.575	27.48
289.79	109.4
290.004	54.1
290.219	56.15
290.434	31.57
290.649	23.38
290.864	27.48
291.079	47.96
291.294	86.87
291.509	64.34
291.724	47.96
291.938	72.53
292.153	43.86
292.368	101.2
292.583	76.63
292.798	68.44
293.012	70.48
293.227	52.05
293.442	64.34
293.657	56.15
293.871	64.34
294.086	82.77
294.301	64.34
294.516	111.44
294.73	-15.53
294.945	35.67
295.16	29.52
295.374	82.77
295.589	70.48
295.804	13.14
296.018	117.59
296.233	82.77
296.447	93.01
296.662	99.16
296.877	140.12
297.091	93.01
297.306	80.72
297.52	33.62
297.735	43.86
297.949	39.76
298.164	131.92
298.378	90.96
298.593	52.05
298.807	80.72
299.022	70.48
299.236	78.68
299.451	93.01
299.665	60.24
299.88	70.48
300.094	80.72
300.309	76.63
300.523	82.77
300.737	70.48
300.952	-5.29
301.166	76.63
301.381	19.29
301.595	43.86
301.809	15.19
302.024	84.82
302.238	23.38
302.452	164.69
302.667	35.67
302.881	21.33
303.095	125.78
303.309	52.05
303.524	23.38
303.738	37.72
303.952	97.11
304.166	43.86
304.381	19.29
304.595	117.59
304.809	21.33
305.023	41.81
305.237	174.93
305.452	60.24
305.666	119.64
305.88	148.31
306.094	56.15
306.308	84.82
306.522	33.62
306.736	66.39
306.95	74.58
307.164	93.01
307.379	88.92
307.593	136.02
307.807	88.92
308.021	68.44
308.235	90.96
308.449	37.72
308.663	99.16
308.877	168.79
309.091	148.31
309.305	109.4
309.519	-19.63
309.733	123.73
309.947	19.29
310.161	72.53
310.374	19.29
310.588	95.06
310.802	119.64
311.016	95.06
311.23	37.72
311.444	45.91
311.658	138.07
311.872	29.52
312.085	105.3
312.299	80.72
312.513	82.77
312.727	103.25
312.941	43.86
313.154	72.53
313.368	58.2
313.582	54.1
313.796	78.68
314.009	45.91
314.223	84.82
314.437	90.96
314.651	129.88
314.864	43.86
315.078	43.86
315.292	37.72
315.505	58.2
315.719	15.19
315.933	29.52
316.146	101.2
316.36	68.44
316.573	80.72
316.787	172.88
317.001	45.91
317.214	43.86
317.428	144.21
317.641	93.01
317.855	64.34
318.068	39.76
318.282	136.02
318.495	105.3
318.709	90.96
318.922	58.2
319.136	123.73
319.349	78.68
319.563	80.72
319.776	39.76
319.99	121.68
320.203	35.67
320.417	97.11
320.63	7
320.843	56.15
321.057	95.06
321.27	21.33
321.483	17.24
321.697	97.11
321.91	31.57
322.124	105.3
322.337	95.06
322.55	29.52
322.763	35.67
322.977	125.78
323.19	56.15
323.403	47.96
323.617	56.15
323.83	121.68
324.043	127.83
324.256	129.88
324.469	-19.63
324.683	101.2
324.896	80.72
325.109	88.92
325.322	93.01
325.535	56.15
325.748	123.73
325.962	78.68
326.175	72.53
326.388	129.88
326.601	64.34
326.814	43.86
327.027	117.59
327.24	125.78
327.453	-79.02
327.666	-13.48
327.879	93.01
328.092	181.07
328.305	86.87
328.518	7
328.731	84.82
328.944	125.78
329.157	82.77
329.37	88.92
329.583	60.24
329.796	70.48
330.009	25.43
330.222	35.67
330.435	72.53
330.648	47.96
330.861	66.39
331.073	111.44
331.286	113.49
331.499	109.4
331.712	119.64
331.925	76.63
332.138	35.67
332.35	127.83
332.563	168.79
332.776	131.92
332.989	13.14
333.202	27.48
333.414	52.05
333.627	86.87
333.84	74.58
334.053	84.82
334.265	23.38
334.478	80.72
334.691	70.48
334.903	162.64
335.116	84.82
335.329	43.86
335.541	80.72
335.754	-5.29
335.966	103.25
336.179	88.92
336.392	4.95
336.604	4.95
336.817	146.26
337.029	105.3
337.242	109.4
337.454	93.01
337.667	66.39
337.88	74.58
338.092	86.87
338.305	107.35
338.517	56.15
338.729	82.77
338.942	80.72
339.154	82.77
339.367	121.68
339.579	121.68
339.792	19.29
340.004	50
340.217	-25.77
340.429	117.59
340.641	25.43
340.854	76.63
341.066	84.82
341.278	97.11
341.491	158.55
341.703	66.39
341.915	76.63
342.128	125.78
342.34	47.96
342.552	31.57
342.764	90.96
342.977	86.87
343.189	76.63
343.401	80.72
343.613	86.87
343.826	107.35
344.038	9.05
344.25	146.26
344.462	62.29
344.674	146.26
344.886	39.76
345.099	25.43
345.311	76.63
345.523	133.97
345.735	7
345.947	144.21
346.159	119.64
346.371	56.15
346.583	86.87
346.795	90.96
347.007	72.53
347.219	123.73
347.431	133.97
347.643	138.07
347.855	84.82
348.067	23.38
348.279	93.01
348.491	7
348.703	76.63
348.915	90.96
349.127	54.1
349.339	152.4
349.551	97.11
349.763	78.68
349.975	105.3
350.187	103.25
350.399	117.59
350.61	29.52
350.822	86.87
351.034	60.24
351.246	133.97
351.458	60.24
351.669	93.01
351.881	97.11
352.093	95.06
352.305	72.53
352.517	33.62
352.728	109.4
352.94	60.24
353.152	101.2
353.363	84.82
353.575	58.2
353.787	131.92
353.999	109.4
354.21	111.44
354.422	84.82
354.633	84.82
354.845	99.16
355.057	107.35
355.268	115.54
355.48	78.68
355.692	33.62
355.903	111.44
356.115	47.96
356.326	70.48
356.538	127.83
356.749	97.11
356.961	64.34
357.172	54.1
357.384	74.58
357.595	68.44
357.807	97.11
358.018	80.72
358.23	113.49
358.441	144.21
358.653	176.98
358.864	-23.72
359.075	52.05
359.287	115.54
359.498	111.44
359.709	72.53
359.921	125.78
360.132	15.19
360.344	52.05
360.555	144.21
360.766	64.34
360.977	109.4
361.189	127.83
361.4	93.01
361.611	90.96
361.823	146.26
362.034	39.76
362.245	76.63
362.456	58.2
362.667	72.53
362.879	76.63
363.09	105.3
363.301	142.16
363.512	78.68
363.723	66.39
363.935	119.64
364.146	62.29
364.357	56.15
364.568	101.2
364.779	23.38
364.99	123.73
365.201	72.53
365.412	93.01
365.623	21.33
365.834	125.78
366.045	17.24
366.256	52.05
366.467	95.06
366.678	4.95
366.889	31.57
367.1	86.87
367.311	105.3
367.522	117.59
367.733	66.39
367.944	164.69
368.155	35.67
368.366	103.25
368.577	70.48
368.788	105.3
368.999	31.57
369.209	39.76
369.42	103.25
369.631	144.21
369.842	119.64
370.053	138.07
370.264	109.4
370.474	152.4
370.685	68.44
370.896	84.82
371.107	76.63
371.317	127.83
371.528	119.64
371.739	74.58
371.95	86.87
372.16	121.68
372.371	-15.53
372.582	19.29
372.792	64.34
373.003	13.14
373.214	99.16
373.424	127.83
373.635	90.96
373.846	115.54
374.056	97.11
374.267	121.68
374.477	115.54
374.688	170.83
374.898	52.05
375.109	131.92
375.319	138.07
375.53	86.87
375.74	58.2
375.951	131.92
376.161	84.82
376.372	39.76
376.582	70.48
376.793	148.31
377.003	82.77
377.214	21.33
377.424	146.26
377.635	113.49
377.845	125.78
378.055	168.79
378.266	21.33
378.476	125.78
378.686	58.2
378.897	113.49
379.107	113.49
379.317	90.96
379.528	50
379.738	136.02
379.948	119.64
380.158	35.67
380.369	107.35
380.579	78.68
380.789	117.59
380.999	105.3
381.21	140.12
381.42	45.91
381.63	164.69
381.84	47.96
382.05	68.44
382.261	74.58
382.471	105.3
382.681	84.82
382.891	84.82
383.101	105.3
383.311	45.91
383.521	183.12
383.731	150.36
383.941	136.02
384.151	95.06
384.361	103.25
384.571	121.68
384.781	72.53
384.991	121.68
385.201	136.02
385.411	86.87
385.621	99.16
385.831	90.96
386.041	76.63
386.251	131.92
386.461	101.2
386.671	60.24
386.881	121.68
387.091	158.55
387.301	86.87
387.511	54.1
387.72	121.68
387.93	86.87
388.14	29.52
388.35	47.96
388.56	146.26
388.769	47.96
388.979	168.79
389.189	109.4
389.399	160.59
389.609	109.4
389.818	162.64
390.028	125.78
390.238	189.27
390.447	84.82
390.657	121.68
390.867	88.92
391.076	50
391.286	95.06
391.496	105.3
391.705	103.25
391.915	133.97
392.125	213.84
392.334	123.73
392.544	136.02
392.753	119.64
392.963	97.11
393.172	88.92
393.382	86.87
393.591	150.36
393.801	140.12
394.01	129.88
394.22	80.72
394.429	158.55
394.639	82.77
394.848	187.22
395.058	150.36
395.267	56.15
395.477	121.68
395.686	162.64
395.895	164.69
396.105	142.16
396.314	195.41
396.524	174.93
396.733	136.02
396.942	160.59
397.152	144.21
397.361	168.79
397.57	146.26
397.78	121.68
397.989	127.83
398.198	140.12
398.407	109.4
398.617	144.21
398.826	107.35
399.035	150.36
399.244	131.92
399.453	140.12
399.663	113.49
399.872	183.12
400.081	103.25
400.29	207.7
400.499	156.5
400.708	197.46
400.917	162.64
401.127	125.78
401.336	164.69
401.545	133.97
401.754	119.64
401.963	246.61
402.172	125.78
402.381	162.64
402.59	119.64
402.799	117.59
403.008	252.75
403.217	162.64
403.426	191.31
403.635	142.16
403.844	197.46
404.053	351.06
404.262	168.79
404.471	258.9
404.68	207.7
404.888	170.83
405.097	164.69
405.306	252.75
405.515	267.09
405.724	234.32
405.933	262.99
406.142	279.38
406.35	279.38
406.559	265.04
406.768	187.22
406.977	283.47
407.185	250.71
407.394	338.77
407.603	252.75
407.812	246.61
408.02	334.67
408.229	277.33
408.438	326.48
408.646	326.48
408.855	295.76
409.064	314.19
409.272	371.54
409.481	392.02
409.69	416.59
409.898	400.21
410.107	451.41
410.315	453.45
410.524	426.83
410.733	387.92
410.941	494.41
411.15	514.89
411.358	514.89
411.567	584.52
411.775	535.37
411.984	590.67
412.192	598.86
412.401	588.62
412.609	666.44
412.818	680.78
413.026	596.81
413.234	637.77
413.443	772.94
413.651	725.83
413.86	719.69
414.068	762.7
414.276	863.05
414.485	828.23
414.693	805.71
414.901	887.62
415.11	967.49
415.318	955.21
415.526	992.07
415.734	1080.13
415.943	1157.96
416.151	1147.72
416.359	1088.32
416.567	1237.83
416.776	1190.72
416.984	1389.38
417.192	1323.84
417.4	1266.5
417.608	1385.28
417.817	1473.34
418.025	1512.25
418.233	1520.45
418.441	1551.17
418.649	1651.52
418.857	1782.59
419.065	1651.52
419.273	1721.15
419.481	1837.88
419.689	1956.66
419.897	1966.9
420.105	2087.73
420.313	2224.95
420.521	2222.9
420.729	2253.62
420.937	2327.35
421.145	2493.23
421.353	2448.18
421.561	2642.73
421.769	2724.65
421.977	2888.49
422.185	2818.86
422.393	2986.79
422.601	3099.43
422.809	3068.71
423.017	3226.4
423.224	3242.79
423.432	3494.69
423.64	3468.06
423.848	3719.96
424.056	3578.65
424.263	3928.86
424.471	3971.86
424.679	4047.64
424.887	4201.24
425.094	4373.27
425.302	4334.36
425.51	4516.62
425.718	4707.09
425.925	4520.72
426.133	4926.22
426.341	5090.06
426.548	5366.53
426.756	5475.07
426.964	5487.36
427.171	5667.58
427.379	5909.24
427.586	6028.03
427.794	6105.85
428.001	6439.67
428.209	6806.25
428.417	6542.07
428.624	7207.66
428.832	7178.98
429.039	7060.2
429.247	7088.87
429.454	7811.81
429.662	8254.17
429.869	7832.29
430.076	8252.12
430.284	8125.15
430.491	8563.41
430.699	8989.39
430.906	9071.31
431.114	8964.81
431.321	9497.28
431.528	9552.58
431.736	10222.27
431.943	10572.47
432.15	10269.37
432.358	10523.32
432.565	10910.38
432.772	10885.81
432.979	11772.58
433.187	11823.78
433.394	11834.02
433.601	12769.94
433.808	12954.26
434.016	12526.23
434.223	13161.1
434.43	14094.97
434.637	13763.2
434.844	14338.68
435.052	14842.48
435.259	14711.41
435.466	14924.4
435.673	14684.79
435.88	15549.03
436.087	16284.25
436.294	16597.59
436.501	16194.14
436.708	16284.25
436.915	17044.05
437.122	17547.85
437.329	17734.21
437.537	18342.46
437.743	18577.98
437.95	18545.21
438.157	19565.1
438.364	19728.94
438.571	20326.94
438.778	20054.56
438.985	21623.31
439.192	21099.03
439.399	22065.67
439.606	21283.34
439.813	22600.19
440.02	23902.7
440.227	23392.75
440.433	23245.3
440.64	24213.99
440.847	23988.71
441.054	24594.91
441.261	26247.62
441.467	25637.33
441.674	26018.25
441.881	27535.79
442.088	27138.49
442.294	26937.79
442.501	27814.32
442.708	28072.36
442.914	29448.6
443.121	30738.82
443.328	29737.36
443.534	31859.06
443.741	30929.28
443.948	30380.42
444.154	32565.6
444.361	32903.52
444.568	32723.3
444.774	33120.6
444.981	33392.98
445.187	33964.37
445.394	35449.14
445.6	35289.4
445.807	38357.26
446.013	36743.46
446.22	37615.9
446.426	39119.1
446.633	39270.65
446.839	40390.89
447.046	38703.37
447.252	40943.84
447.459	40982.76
447.665	40866.02
447.871	42852.55
448.078	44447.92
448.284	42387.66
448.491	43286.72
448.697	44964.01
448.903	45768.86
449.11	45840.54
449.316	44941.48
449.522	46297.23
449.728	47349.89
449.935	47595.65
450.141	47523.97
450.347	48388.21
450.553	46860.43
450.76	47515.78
450.966	48984.17
451.172	48580.72
451.378	49553.51
451.584	48451.7
451.791	49803.36
451.997	49500.26
452.203	50202.71
452.409	50358.36
452.615	50108.5
452.821	48230.52
453.027	47771.77
453.233	50227.29
453.44	48201.85
453.646	48377.97
453.852	48627.82
454.058	49473.63
454.264	48124.02
454.47	49033.32
454.676	47804.54
454.882	49262.69
455.088	45248.67
455.294	45858.97
455.5	46180.5
455.705	46880.91
455.911	45205.67
456.117	44343.47
456.323	43577.53
456.529	41199.84
456.735	42805.45
456.941	42064.08
457.147	41361.63
457.352	39926
457.558	39434.49
457.764	39303.42
457.97	38619.4
458.176	38025.49
458.381	38195.47
458.587	36051.25
458.793	36483.37
458.999	34365.77
459.204	36645.16
459.41	35289.4
459.616	33149.28
459.821	33358.17
460.027	32807.26
460.233	32694.63
460.438	30701.95
460.644	31021.44
460.85	29886.86
461.055	29364.63
461.261	28979.61
461.466	26776
461.672	25745.87
461.878	27840.94
462.083	26243.52
462.289	25643.47
462.494	25309.65
462.7	24308.19
462.905	23661.04
463.111	24601.05
463.316	24644.06
463.522	23802.35
463.727	24066.53
463.932	24457.7
464.138	23679.47
464.343	23783.91
464.549	23204.34
464.754	24115.69
464.959	23523.82
465.165	23507.44
465.37	22495.74
465.575	21850.63
465.781	22872.57
465.986	22977.01
466.191	22110.72
