Data from USB4F104151__94__12-02-36-463.txt Node

Date: Fri Mar 14 12:02:36 EDT 2025
User: louis
Spectrometer: USB4F10415
Trigger mode: 4
Integration Time (sec): 2.000000E-2
Scans to average: 1
Electric dark correction enabled: true
Nonlinearity correction enabled: false
Boxcar width: 0
XAxis mode: Wavelengths
Number of Pixels in Spectrum: 3648
>>>>>Begin Spectral Data<<<<<
178.204	-107.69
178.424	-107.69
178.644	-107.69
178.864	4.95
179.084	-105.64
179.304	-44.2
179.524	-17.58
179.744	43.86
179.964	27.48
180.184	-27.82
180.404	19.29
180.624	17.24
180.844	11.09
181.064	-42.15
181.283	-42.15
181.503	4.95
181.723	50
181.943	-70.83
182.163	41.81
182.383	23.38
182.602	-27.82
182.822	-7.34
183.042	41.81
183.262	-15.53
183.482	88.92
183.701	-38.06
183.921	37.72
184.141	7
184.361	17.24
184.58	-83.11
184.8	84.82
185.02	21.33
185.239	-7.34
185.459	15.19
185.679	2.9
185.898	15.19
186.118	17.24
186.338	25.43
186.557	33.62
186.777	64.34
186.997	9.05
187.216	25.43
187.436	-38.06
187.655	23.38
187.875	111.44
188.095	-9.39
188.314	13.14
188.534	13.14
188.753	9.05
188.973	-3.24
189.192	56.15
189.412	41.81
189.631	9.05
189.851	31.57
190.07	105.3
190.29	50
190.509	23.38
190.729	33.62
190.948	74.58
191.168	52.05
191.387	7
191.607	62.29
191.826	66.39
192.045	68.44
192.265	-5.29
192.484	29.52
192.704	109.4
192.923	-40.11
193.142	176.98
193.362	29.52
193.581	-9.39
193.8	-25.77
194.02	52.05
194.239	-9.39
194.458	56.15
194.678	45.91
194.897	58.2
195.116	35.67
195.335	68.44
195.555	17.24
195.774	-27.82
195.993	-25.77
196.212	39.76
196.432	-31.91
196.651	74.58
196.87	-27.82
197.089	-1.19
197.308	-48.3
197.528	15.19
197.747	-64.68
197.966	-17.58
198.185	-19.63
198.404	70.48
198.623	84.82
198.842	23.38
199.062	50
199.281	25.43
199.5	17.24
199.719	-13.48
199.938	68.44
200.157	27.48
200.376	-52.39
200.595	52.05
200.814	76.63
201.033	-9.39
201.252	17.24
201.471	11.09
201.69	31.57
201.909	15.19
202.128	23.38
202.347	2.9
202.566	78.68
202.785	0.85
203.004	52.05
203.223	62.29
203.442	9.05
203.661	29.52
203.879	23.38
204.098	74.58
204.317	-31.91
204.536	88.92
204.755	88.92
204.974	4.95
205.193	107.35
205.411	45.91
205.63	60.24
205.849	-5.29
206.068	31.57
206.287	19.29
206.505	54.1
206.724	68.44
206.943	23.38
207.162	0.85
207.381	90.96
207.599	50
207.818	-5.29
208.037	43.86
208.255	33.62
208.474	-19.63
208.693	-5.29
208.911	54.1
209.13	66.39
209.349	-54.44
209.567	-36.01
209.786	62.29
210.005	-3.24
210.223	76.63
210.442	13.14
210.661	29.52
210.879	47.96
211.098	15.19
211.316	74.58
211.535	-15.53
211.753	60.24
211.972	-15.53
212.191	52.05
212.409	-29.87
212.628	54.1
212.846	9.05
213.065	52.05
213.283	33.62
213.502	86.87
213.72	58.2
213.938	-17.58
214.157	17.24
214.375	52.05
214.594	27.48
214.812	68.44
215.031	117.59
215.249	9.05
215.467	-72.87
215.686	27.48
215.904	82.77
216.122	-7.34
216.341	-15.53
216.559	31.57
216.778	23.38
216.996	27.48
217.214	35.67
217.432	-27.82
217.651	33.62
217.869	-40.11
218.087	17.24
218.306	50
218.524	88.92
218.742	-40.11
218.96	43.86
219.179	-81.07
219.397	-15.53
219.615	50
219.833	-1.19
220.051	-40.11
220.27	68.44
220.488	-11.43
220.706	58.2
220.924	64.34
221.142	13.14
221.36	-5.29
221.578	0.85
221.796	2.9
222.015	17.24
222.233	29.52
222.451	68.44
222.669	39.76
222.887	93.01
223.105	25.43
223.323	35.67
223.541	-1.19
223.759	9.05
223.977	39.76
224.195	66.39
224.413	-23.72
224.631	27.48
224.849	52.05
225.067	74.58
225.285	-5.29
225.503	41.81
225.721	7
225.939	58.2
226.157	19.29
226.375	133.97
226.592	-29.87
226.81	23.38
227.028	121.68
227.246	35.67
227.464	60.24
227.682	74.58
227.9	56.15
228.117	88.92
228.335	68.44
228.553	-1.19
228.771	62.29
228.989	80.72
229.206	11.09
229.424	37.72
229.642	7
229.86	2.9
230.077	-27.82
230.295	39.76
230.513	37.72
230.731	52.05
230.948	78.68
231.166	37.72
231.384	-31.91
231.601	-29.87
231.819	119.64
232.037	0.85
232.254	-19.63
232.472	13.14
232.689	-60.59
232.907	52.05
233.125	41.81
233.342	-1.19
233.56	2.9
233.777	0.85
233.995	33.62
234.213	64.34
234.43	93.01
234.648	-9.39
234.865	-3.24
235.083	47.96
235.3	13.14
235.518	37.72
235.735	52.05
235.953	84.82
236.17	66.39
236.388	-48.3
236.605	25.43
236.822	-3.24
237.04	90.96
237.257	39.76
237.475	-40.11
237.692	64.34
237.909	21.33
238.127	-1.19
238.344	56.15
238.562	-7.34
238.779	-68.78
238.996	37.72
239.214	72.53
239.431	107.35
239.648	-15.53
239.865	4.95
240.083	-38.06
240.3	27.48
240.517	-9.39
240.735	-7.34
240.952	-15.53
241.169	27.48
241.386	-13.48
241.603	47.96
241.821	99.16
242.038	43.86
242.255	45.91
242.472	-27.82
242.689	76.63
242.907	11.09
243.124	31.57
243.341	0.85
243.558	7
243.775	54.1
243.992	33.62
244.209	2.9
244.426	31.57
244.643	39.76
244.86	19.29
245.078	-21.67
245.295	52.05
245.512	7
245.729	33.62
245.946	-21.67
246.163	47.96
246.38	19.29
246.597	52.05
246.814	-15.53
247.031	9.05
247.248	156.5
247.464	82.77
247.681	31.57
247.898	68.44
248.115	-1.19
248.332	45.91
248.549	-50.35
248.766	-7.34
248.983	68.44
249.2	64.34
249.417	-29.87
249.633	-38.06
249.85	25.43
250.067	68.44
250.284	93.01
250.501	21.33
250.717	31.57
250.934	-50.35
251.151	-21.67
251.368	86.87
251.585	25.43
251.801	23.38
252.018	54.1
252.235	58.2
252.451	56.15
252.668	-11.43
252.885	4.95
253.102	52.05
253.318	41.81
253.535	60.24
253.752	-29.87
253.968	111.44
254.185	35.67
254.401	-3.24
254.618	82.77
254.835	33.62
255.051	107.35
255.268	62.29
255.484	4.95
255.701	29.52
255.917	19.29
256.134	2.9
256.351	-23.72
256.567	-25.77
256.784	47.96
257	2.9
257.217	-25.77
257.433	15.19
257.65	7
257.866	90.96
258.082	88.92
258.299	-27.82
258.515	37.72
258.732	11.09
258.948	45.91
259.165	31.57
259.381	43.86
259.597	54.1
259.814	-9.39
260.03	72.53
260.246	29.52
260.463	62.29
260.679	97.11
260.895	86.87
261.112	62.29
261.328	33.62
261.544	50
261.761	27.48
261.977	-17.58
262.193	-60.59
262.409	19.29
262.626	68.44
262.842	-15.53
263.058	52.05
263.274	37.72
263.49	-1.19
263.707	58.2
263.923	33.62
264.139	-13.48
264.355	35.67
264.571	23.38
264.787	33.62
265.004	19.29
265.22	52.05
265.436	60.24
265.652	17.24
265.868	43.86
266.084	68.44
266.3	15.19
266.516	54.1
266.732	41.81
266.948	13.14
267.164	93.01
267.38	-9.39
267.596	21.33
267.812	39.76
268.028	56.15
268.244	11.09
268.46	-31.91
268.676	121.68
268.892	13.14
269.108	35.67
269.324	-33.96
269.54	-52.39
269.756	127.83
269.972	-17.58
270.188	93.01
270.403	21.33
270.619	47.96
270.835	11.09
271.051	4.95
271.267	-31.91
271.483	21.33
271.698	39.76
271.914	47.96
272.13	-17.58
272.346	105.3
272.562	-3.24
272.777	64.34
272.993	117.59
273.209	17.24
273.425	-29.87
273.64	76.63
273.856	-27.82
274.072	41.81
274.287	2.9
274.503	-5.29
274.719	-13.48
274.934	90.96
275.15	-13.48
275.366	66.39
275.581	17.24
275.797	35.67
276.012	52.05
276.228	39.76
276.444	58.2
276.659	43.86
276.875	17.24
277.09	33.62
277.306	27.48
277.521	35.67
277.737	41.81
277.952	17.24
278.168	9.05
278.383	64.34
278.599	33.62
278.814	23.38
279.03	35.67
279.245	27.48
279.461	19.29
279.676	21.33
279.892	9.05
280.107	-9.39
280.322	-9.39
280.538	39.76
280.753	0.85
280.969	88.92
281.184	-3.24
281.399	125.78
281.615	-21.67
281.83	84.82
282.045	25.43
282.26	-25.77
282.476	41.81
282.691	52.05
282.906	15.19
283.122	33.62
283.337	35.67
283.552	33.62
283.767	19.29
283.983	7
284.198	105.3
284.413	58.2
284.628	15.19
284.843	50
285.058	111.44
285.274	54.1
285.489	64.34
285.704	15.19
285.919	7
286.134	15.19
286.349	21.33
286.564	15.19
286.779	82.77
286.995	41.81
287.21	29.52
287.425	146.26
287.64	121.68
287.855	13.14
288.07	31.57
288.285	64.34
288.5	-7.34
288.715	-44.2
288.93	68.44
289.145	-48.3
289.36	52.05
289.575	0.85
289.79	60.24
290.004	4.95
290.219	72.53
290.434	2.9
290.649	2.9
290.864	-11.43
291.079	23.38
291.294	9.05
291.509	25.43
291.724	95.06
291.938	115.54
292.153	68.44
292.368	29.52
292.583	29.52
292.798	56.15
293.012	2.9
293.227	-40.11
293.442	41.81
293.657	33.62
293.871	60.24
294.086	2.9
294.301	29.52
294.516	-9.39
294.73	15.19
294.945	-74.92
295.16	17.24
295.374	23.38
295.589	72.53
295.804	45.91
296.018	9.05
296.233	84.82
296.447	93.01
296.662	2.9
296.877	78.68
297.091	37.72
297.306	-17.58
297.52	39.76
297.735	129.88
297.949	39.76
298.164	56.15
298.378	66.39
298.593	-5.29
298.807	-5.29
299.022	82.77
299.236	27.48
299.451	119.64
299.665	23.38
299.88	82.77
300.094	-11.43
300.309	27.48
300.523	35.67
300.737	52.05
300.952	2.9
301.166	-38.06
301.381	-11.43
301.595	17.24
301.809	62.29
302.024	54.1
302.238	17.24
302.452	54.1
302.667	101.2
302.881	80.72
303.095	0.85
303.309	15.19
303.524	35.67
303.738	62.29
303.952	19.29
304.166	113.49
304.381	-29.87
304.595	41.81
304.809	13.14
305.023	23.38
305.237	-1.19
305.452	-38.06
305.666	93.01
305.88	19.29
306.094	37.72
306.308	45.91
306.522	25.43
306.736	76.63
306.95	7
307.164	-1.19
307.379	31.57
307.593	11.09
307.807	60.24
308.021	45.91
308.235	68.44
308.449	29.52
308.663	47.96
308.877	82.77
309.091	31.57
309.305	7
309.519	7
309.733	33.62
309.947	7
310.161	35.67
310.374	23.38
310.588	-50.35
310.802	17.24
311.016	-5.29
311.23	84.82
311.444	-25.77
311.658	-15.53
311.872	64.34
312.085	86.87
312.299	109.4
312.513	7
312.727	11.09
312.941	41.81
313.154	9.05
313.368	84.82
313.582	25.43
313.796	-9.39
314.009	29.52
314.223	9.05
314.437	95.06
314.651	127.83
314.864	-11.43
315.078	33.62
315.292	45.91
315.505	39.76
315.719	74.58
315.933	33.62
316.146	19.29
316.36	21.33
316.573	74.58
316.787	80.72
317.001	-36.01
317.214	37.72
317.428	82.77
317.641	72.53
317.855	109.4
318.068	21.33
318.282	19.29
318.495	45.91
318.709	17.24
318.922	17.24
319.136	158.55
319.349	47.96
319.563	88.92
319.776	31.57
319.99	66.39
320.203	35.67
320.417	29.52
320.63	93.01
320.843	74.58
321.057	15.19
321.27	13.14
321.483	21.33
321.697	13.14
321.91	60.24
322.124	19.29
322.337	60.24
322.55	2.9
322.763	37.72
322.977	-19.63
323.19	17.24
323.403	35.67
323.617	103.25
323.83	103.25
324.043	66.39
324.256	25.43
324.469	-7.34
324.683	68.44
324.896	43.86
325.109	78.68
325.322	-23.72
325.535	64.34
325.748	50
325.962	25.43
326.175	29.52
326.388	27.48
326.601	15.19
326.814	105.3
327.027	27.48
327.24	82.77
327.453	62.29
327.666	45.91
327.879	25.43
328.092	70.48
328.305	80.72
328.518	31.57
328.731	37.72
328.944	-33.96
329.157	-58.54
329.37	43.86
329.583	50
329.796	31.57
330.009	11.09
330.222	27.48
330.435	37.72
330.648	11.09
330.861	0.85
331.073	58.2
331.286	60.24
331.499	-5.29
331.712	66.39
331.925	33.62
332.138	-5.29
332.35	50
332.563	-11.43
332.776	60.24
332.989	27.48
333.202	103.25
333.414	-44.2
333.627	101.2
333.84	39.76
334.053	60.24
334.265	27.48
334.478	62.29
334.691	33.62
334.903	-7.34
335.116	50
335.329	27.48
335.541	84.82
335.754	101.2
335.966	-1.19
336.179	35.67
336.392	90.96
336.604	99.16
336.817	-31.91
337.029	-42.15
337.242	45.91
337.454	52.05
337.667	11.09
337.88	45.91
338.092	-9.39
338.305	9.05
338.517	17.24
338.729	-1.19
338.942	58.2
339.154	21.33
339.367	52.05
339.579	160.59
339.792	37.72
340.004	99.16
340.217	15.19
340.429	-1.19
340.641	-11.43
340.854	25.43
341.066	78.68
341.278	45.91
341.491	121.68
341.703	82.77
341.915	52.05
342.128	31.57
342.34	45.91
342.552	105.3
342.764	41.81
342.977	54.1
343.189	60.24
343.401	50
343.613	4.95
343.826	19.29
344.038	74.58
344.25	54.1
344.462	66.39
344.674	0.85
344.886	88.92
345.099	29.52
345.311	72.53
345.523	21.33
345.735	0.85
345.947	25.43
346.159	115.54
346.371	84.82
346.583	29.52
346.795	76.63
347.007	-7.34
347.219	25.43
347.431	35.67
347.643	25.43
347.855	33.62
348.067	60.24
348.279	15.19
348.491	93.01
348.703	35.67
348.915	-7.34
349.127	37.72
349.339	58.2
349.551	21.33
349.763	13.14
349.975	62.29
350.187	33.62
350.399	78.68
350.61	-7.34
350.822	-9.39
351.034	78.68
351.246	64.34
351.458	31.57
351.669	17.24
351.881	105.3
352.093	29.52
352.305	33.62
352.517	70.48
352.728	47.96
352.94	17.24
353.152	4.95
353.363	60.24
353.575	4.95
353.787	23.38
353.999	-11.43
354.21	64.34
354.422	7
354.633	43.86
354.845	72.53
355.057	82.77
355.268	27.48
355.48	109.4
355.692	-15.53
355.903	68.44
356.115	66.39
356.326	-56.49
356.538	58.2
356.749	60.24
356.961	76.63
357.172	11.09
357.384	76.63
357.595	127.83
357.807	60.24
358.018	-56.49
358.23	56.15
358.441	54.1
358.653	2.9
358.864	9.05
359.075	-21.67
359.287	54.1
359.498	150.36
359.709	27.48
359.921	-29.87
360.132	17.24
360.344	25.43
360.555	15.19
360.766	56.15
360.977	-1.19
361.189	-5.29
361.4	19.29
361.611	35.67
361.823	-21.67
362.034	2.9
362.245	-40.11
362.456	80.72
362.667	93.01
362.879	23.38
363.09	66.39
363.301	156.5
363.512	17.24
363.723	25.43
363.935	-64.68
364.146	142.16
364.357	54.1
364.568	93.01
364.779	80.72
364.99	60.24
365.201	64.34
365.412	43.86
365.623	70.48
365.834	103.25
366.045	-66.73
366.256	17.24
366.467	64.34
366.678	-19.63
366.889	29.52
367.1	64.34
367.311	50
367.522	111.44
367.733	82.77
367.944	25.43
368.155	105.3
368.366	72.53
368.577	27.48
368.788	31.57
368.999	-15.53
369.209	23.38
369.42	76.63
369.631	93.01
369.842	74.58
370.053	-1.19
370.264	15.19
370.474	13.14
370.685	90.96
370.896	113.49
371.107	97.11
371.317	101.2
371.528	-11.43
371.739	68.44
371.95	131.92
372.16	78.68
372.371	52.05
372.582	35.67
372.792	84.82
373.003	0.85
373.214	60.24
373.424	76.63
373.635	-13.48
373.846	-7.34
374.056	2.9
374.267	78.68
374.477	86.87
374.688	-9.39
374.898	13.14
375.109	90.96
375.319	105.3
375.53	25.43
375.74	39.76
375.951	2.9
376.161	45.91
376.372	103.25
376.582	88.92
376.793	105.3
377.003	31.57
377.214	4.95
377.424	70.48
377.635	95.06
377.845	-31.91
378.055	23.38
378.266	-54.44
378.476	82.77
378.686	66.39
378.897	56.15
379.107	60.24
379.317	66.39
379.528	74.58
379.738	95.06
379.948	52.05
380.158	68.44
380.369	86.87
380.579	39.76
380.789	-3.24
380.999	111.44
381.21	47.96
381.42	84.82
381.63	52.05
381.84	97.11
382.05	58.2
382.261	35.67
382.471	60.24
382.681	23.38
382.891	111.44
383.101	107.35
383.311	70.48
383.521	93.01
383.731	56.15
383.941	103.25
384.151	9.05
384.361	33.62
384.571	-23.72
384.781	54.1
384.991	88.92
385.201	70.48
385.411	52.05
385.621	58.2
385.831	39.76
386.041	43.86
386.251	78.68
386.461	45.91
386.671	64.34
386.881	74.58
387.091	25.43
387.301	76.63
387.511	43.86
387.72	60.24
387.93	127.83
388.14	70.48
388.35	62.29
388.56	99.16
388.769	80.72
388.979	70.48
389.189	35.67
389.399	-17.58
389.609	35.67
389.818	-9.39
390.028	45.91
390.238	66.39
390.447	-31.91
390.657	148.31
390.867	45.91
391.076	11.09
391.286	109.4
391.496	29.52
391.705	115.54
391.915	21.33
392.125	19.29
392.334	33.62
392.544	142.16
392.753	150.36
392.963	88.92
393.172	90.96
393.382	97.11
393.591	43.86
393.801	103.25
394.01	129.88
394.22	56.15
394.429	66.39
394.639	23.38
394.848	90.96
395.058	82.77
395.267	72.53
395.477	43.86
395.686	78.68
395.895	47.96
396.105	195.41
396.314	33.62
396.524	70.48
396.733	95.06
396.942	93.01
397.152	90.96
397.361	99.16
397.57	60.24
397.78	127.83
397.989	54.1
398.198	115.54
398.407	148.31
398.617	45.91
398.826	174.93
399.035	119.64
399.244	99.16
399.453	156.5
399.663	37.72
399.872	181.07
400.081	152.4
400.29	70.48
400.499	29.52
400.708	111.44
400.917	101.2
401.127	195.41
401.336	86.87
401.545	222.03
401.754	158.55
401.963	103.25
402.172	123.73
402.381	88.92
402.59	95.06
402.799	131.92
403.008	144.21
403.217	115.54
403.426	154.45
403.635	105.3
403.844	52.05
404.053	148.31
404.262	131.92
404.471	226.13
404.68	170.83
404.888	189.27
405.097	78.68
405.306	174.93
405.515	185.17
405.724	138.07
405.933	162.64
406.142	224.08
406.35	162.64
406.559	179.03
406.768	138.07
406.977	219.99
407.185	199.51
407.394	232.27
407.603	234.32
407.812	207.7
408.02	281.43
408.229	238.42
408.438	219.99
408.646	271.19
408.855	275.28
409.064	265.04
409.272	299.86
409.481	351.06
409.69	322.38
409.898	322.38
410.107	332.62
410.315	375.63
410.524	308.05
410.733	308.05
410.941	258.9
411.15	361.3
411.358	432.97
411.567	465.74
411.775	396.11
411.984	473.93
412.192	486.22
412.401	465.74
412.609	543.57
412.818	639.82
413.026	490.32
413.234	475.98
413.443	525.13
413.651	525.13
413.86	574.28
414.068	684.87
414.276	762.7
414.485	643.92
414.693	725.83
414.901	768.84
415.11	772.94
415.318	699.21
415.526	756.55
415.734	861
415.943	826.18
416.151	940.87
416.359	901.96
416.567	1010.5
416.776	994.12
416.984	957.25
417.192	990.02
417.4	944.97
417.608	1098.56
417.817	1117
418.025	1094.47
418.233	1231.68
418.441	1239.87
418.649	1256.26
418.857	1352.51
419.065	1444.67
419.273	1401.66
419.481	1489.73
419.689	1549.12
419.897	1692.48
420.105	1672
420.313	1608.51
420.521	1794.87
420.729	1766.2
420.937	1809.21
421.145	1973.05
421.353	2073.4
421.561	1981.24
421.769	1952.57
421.977	2042.68
422.185	2120.5
422.393	2349.87
422.601	2423.6
422.809	2452.27
423.017	2454.32
423.224	2589.49
423.432	2626.35
423.64	2726.7
423.848	2974.5
424.056	2900.78
424.263	3126.05
424.471	3201.83
424.679	3167.01
424.887	3361.57
425.094	3359.52
425.302	3425.06
425.51	3558.18
425.718	3617.57
425.925	3633.95
426.133	3816.22
426.341	4160.28
426.548	4174.61
426.756	4281.11
426.964	4381.46
427.171	4539.15
427.379	4619.02
427.586	4813.58
427.794	4924.17
428.001	4936.46
428.209	5346.05
428.417	5192.45
428.624	5595.9
428.832	5544.7
429.039	5436.16
429.247	5597.95
429.454	6126.33
429.662	6564.59
429.869	6249.21
430.076	6480.63
430.284	6439.67
430.491	6626.03
430.699	6970.09
430.906	6990.57
431.114	7058.15
431.321	7498.47
431.528	7533.28
431.736	8045.27
431.943	8383.19
432.15	8127.19
432.358	8162.01
432.565	8686.29
432.772	8622.8
432.979	9136.84
433.187	9085.64
433.394	9370.31
433.601	9984.7
433.808	9837.25
434.016	9921.21
434.223	10357.43
434.43	10867.38
434.637	10683.06
434.844	11422.38
435.052	11426.47
435.259	11571.88
435.466	11424.42
435.673	11498.15
435.88	12067.49
436.087	12880.53
436.294	12728.98
436.501	12526.23
436.708	12853.91
436.915	13214.35
437.122	13865.6
437.329	13736.58
437.537	14424.7
437.743	14424.7
437.95	14350.97
438.157	15061.62
438.364	15415.91
438.571	15514.22
438.778	15555.18
438.985	17089.1
439.192	16482.91
439.399	17005.14
439.606	16583.26
439.813	17635.91
440.02	18442.81
440.227	18158.14
440.433	18217.54
440.64	18565.69
440.847	18377.28
441.054	18934.32
441.261	20165.15
441.467	19864.1
441.674	20179.49
441.881	21174.8
442.088	21068.31
442.294	20832.79
442.501	21647.88
442.708	21699.08
442.914	22991.35
443.121	23919.08
443.328	22989.3
443.534	25063.89
443.741	24113.64
443.948	23693.8
444.154	25381.33
444.361	25469.39
444.568	25430.48
444.774	25483.73
444.981	25885.13
445.187	26368.45
445.394	27517.36
445.6	27040.18
445.807	29909.39
446.013	28371.36
446.22	28977.56
446.426	30335.37
446.633	30216.58
446.839	31326.58
447.046	29917.58
447.252	31648.11
447.459	32098.67
447.665	31652.21
447.871	33028.45
448.078	34527.56
448.284	32868.7
448.491	33845.58
448.697	35207.48
448.903	35578.17
449.11	35641.65
449.316	35377.47
449.522	35692.85
449.728	36692.26
449.935	36858.15
450.141	36954.4
450.347	37939.47
450.553	36612.39
450.76	36684.07
450.966	38291.73
451.172	37716.25
451.378	38674.7
451.584	37615.9
451.791	38639.88
451.997	38631.69
452.203	39125.25
452.409	39106.82
452.615	39188.74
452.821	37796.12
453.027	37339.42
453.233	39420.16
453.44	37542.17
453.646	37990.67
453.852	38105.36
454.058	38885.64
454.264	37525.78
454.47	38324.49
454.676	37146.91
454.882	38717.7
455.088	35029.31
455.294	35879.22
455.5	36251.95
455.705	36530.47
455.911	35299.64
456.117	34373.96
456.323	33724.75
456.529	31893.87
456.735	33593.68
456.941	32788.83
457.147	31705.46
457.352	31187.32
457.558	30931.33
457.764	30957.95
457.97	29948.3
458.176	29464.98
458.381	29194.65
458.587	27969.96
458.793	28344.74
458.999	26534.34
459.204	28434.85
459.41	27658.67
459.616	25930.19
459.821	25815.5
460.027	26128.84
460.233	25192.92
460.438	23732.72
460.644	24166.88
460.85	22847.99
461.055	22923.77
461.261	22661.63
461.466	21197.33
461.672	20361.76
461.878	21912.07
462.083	20455.97
462.289	20036.13
462.494	19661.35
462.7	19151.41
462.905	18537.02
463.111	18948.66
463.316	19343.92
463.522	18477.63
463.727	18782.77
463.932	18795.06
464.138	18461.24
464.343	18467.39
464.549	18098.75
464.754	18754.1
464.959	18266.69
465.165	18426.43
465.37	17556.04
465.575	17218.13
465.781	17773.13
465.986	17715.78
466.191	17197.65
466.397	16896.6
466.602	16181.85
466.807	16790.1
467.012	16779.86
467.218	16583.26
467.423	16380.51
467.628	16390.75
467.833	17115.73
468.038	16448.09
468.244	15962.72
468.449	16704.09
