Data from USB4F104151__63__12-01-51-408.txt Node

Date: Fri Mar 14 12:01:51 EDT 2025
User: louis
Spectrometer: USB4F10415
Trigger mode: 4
Integration Time (sec): 2.000000E-2
Scans to average: 1
Electric dark correction enabled: true
Nonlinearity correction enabled: false
Boxcar width: 0
XAxis mode: Wavelengths
Number of Pixels in Spectrum: 3648
>>>>>Begin Spectral Data<<<<<
178.204	-64.17
178.424	-64.17
178.644	-64.17
178.864	-150.18
179.084	-129.7
179.304	-64.17
179.524	-2.73
179.744	9.56
179.964	-4.78
180.184	38.23
180.404	-6.83
180.624	1.37
180.844	-37.55
181.064	-19.11
181.283	-49.83
181.503	46.42
181.723	89.43
181.943	-51.88
182.163	23.89
182.383	-35.5
182.602	58.71
182.822	54.61
183.042	36.18
183.262	19.8
183.482	-29.35
183.701	-35.5
183.921	89.43
184.141	-39.59
184.361	-21.16
184.58	25.94
184.8	9.56
185.02	-45.74
185.239	44.37
185.459	1.37
185.679	79.19
185.898	3.41
186.118	62.8
186.338	-35.5
186.557	7.51
186.777	-43.69
186.997	54.61
187.216	62.8
187.436	48.47
187.655	75.09
187.875	42.32
188.095	-39.59
188.314	34.13
188.534	5.46
188.753	23.89
188.973	71
189.192	62.8
189.412	54.61
189.631	23.89
189.851	-6.83
190.07	77.14
190.29	-8.87
190.509	71
190.729	-17.07
190.948	64.85
191.168	89.43
191.387	95.57
191.607	66.9
191.826	-23.21
192.045	46.42
192.265	7.51
192.484	46.42
192.704	34.13
192.923	-29.35
193.142	68.95
193.362	66.9
193.581	30.04
193.8	23.89
194.02	32.08
194.239	75.09
194.458	-10.92
194.678	7.51
194.897	103.76
195.116	48.47
195.335	-17.07
195.555	-12.97
195.774	66.9
195.993	17.75
196.212	17.75
196.432	-43.69
196.651	46.42
196.87	19.8
197.089	44.37
197.308	3.41
197.528	38.23
197.747	19.8
197.966	-0.68
198.185	62.8
198.404	11.61
198.623	7.51
198.842	-15.02
199.062	19.8
199.281	48.47
199.5	46.42
199.719	58.71
199.938	-29.35
200.157	56.66
200.376	32.08
200.595	36.18
200.814	-21.16
201.033	77.14
201.252	34.13
201.471	-8.87
201.69	17.75
201.909	-31.4
202.128	-35.5
202.347	81.24
202.566	13.65
202.785	27.99
203.004	-43.69
203.223	58.71
203.442	-10.92
203.661	-23.21
203.879	58.71
204.098	21.85
204.317	21.85
204.536	60.76
204.755	81.24
204.974	-2.73
205.193	-29.35
205.411	71
205.63	73.04
205.849	7.51
206.068	-2.73
206.287	-25.26
206.505	23.89
206.724	-21.16
206.943	-41.64
207.162	17.75
207.381	-27.31
207.599	9.56
207.818	15.7
208.037	-35.5
208.255	-15.02
208.474	5.46
208.693	71
208.911	-6.83
209.13	11.61
209.349	44.37
209.567	27.99
209.786	-8.87
210.005	15.7
210.223	25.94
210.442	-8.87
210.661	40.28
210.879	11.61
211.098	111.96
211.316	23.89
211.535	1.37
211.753	56.66
211.972	60.76
212.191	27.99
212.409	30.04
212.628	19.8
212.846	-55.98
213.065	19.8
213.283	75.09
213.502	83.28
213.72	-23.21
213.938	-12.97
214.157	99.67
214.375	64.85
214.594	95.57
214.812	50.52
215.031	-31.4
215.249	21.85
215.467	36.18
215.686	13.65
215.904	7.51
216.122	32.08
216.341	34.13
216.559	-12.97
216.778	77.14
216.996	-21.16
217.214	-37.55
217.432	48.47
217.651	75.09
217.869	9.56
218.087	17.75
218.306	-2.73
218.524	79.19
218.742	11.61
218.96	32.08
219.179	-15.02
219.397	-23.21
219.615	83.28
219.833	68.95
220.051	17.75
220.27	19.8
220.488	25.94
220.706	-4.78
220.924	-15.02
221.142	64.85
221.36	-21.16
221.578	30.04
221.796	-8.87
222.015	-10.92
222.233	62.8
222.451	77.14
222.669	-23.21
222.887	114
223.105	13.65
223.323	23.89
223.541	42.32
223.759	46.42
223.977	32.08
224.195	62.8
224.413	25.94
224.631	30.04
224.849	-27.31
225.067	85.33
225.285	-31.4
225.503	-10.92
225.721	-41.64
225.939	15.7
226.157	-15.02
226.375	66.9
226.592	44.37
226.81	-6.83
227.028	17.75
227.246	44.37
227.464	-51.88
227.682	62.8
227.9	89.43
228.117	-10.92
228.335	-23.21
228.553	75.09
228.771	15.7
228.989	-23.21
229.206	25.94
229.424	-15.02
229.642	58.71
229.86	56.66
230.077	11.61
230.295	7.51
230.513	21.85
230.731	68.95
230.948	77.14
231.166	7.51
231.384	-33.45
231.601	46.42
231.819	50.52
232.037	40.28
232.254	13.65
232.472	13.65
232.689	46.42
232.907	17.75
233.125	13.65
233.342	34.13
233.56	27.99
233.777	-45.74
233.995	3.41
234.213	46.42
234.43	101.72
234.648	66.9
234.865	21.85
235.083	52.56
235.3	79.19
235.518	46.42
235.735	1.37
235.953	60.76
236.17	81.24
236.388	109.91
236.605	-58.03
236.822	83.28
237.04	46.42
237.257	9.56
237.475	-6.83
237.692	95.57
237.909	-6.83
238.127	-10.92
238.344	27.99
238.562	-25.26
238.779	-78.51
238.996	1.37
239.214	-0.68
239.431	38.23
239.648	9.56
239.865	71
240.083	-8.87
240.3	11.61
240.517	38.23
240.735	38.23
240.952	62.8
241.169	50.52
241.386	32.08
241.603	-21.16
241.821	50.52
242.038	116.05
242.255	1.37
242.472	9.56
242.689	46.42
242.907	30.04
243.124	-29.35
243.341	56.66
243.558	7.51
243.775	32.08
243.992	-4.78
244.209	-0.68
244.426	44.37
244.643	56.66
244.86	-45.74
245.078	32.08
245.295	87.38
245.512	-29.35
245.729	71
245.946	52.56
246.163	21.85
246.38	-23.21
246.597	-35.5
246.814	40.28
247.031	-53.93
247.248	-10.92
247.464	13.65
247.681	42.32
247.898	13.65
248.115	-10.92
248.332	60.76
248.549	9.56
248.766	21.85
248.983	116.05
249.2	-35.5
249.417	5.46
249.633	-19.11
249.85	19.8
250.067	56.66
250.284	-6.83
250.501	1.37
250.717	34.13
250.934	-31.4
251.151	50.52
251.368	50.52
251.585	11.61
251.801	3.41
252.018	-8.87
252.235	75.09
252.451	23.89
252.668	50.52
252.885	-10.92
253.102	40.28
253.318	-23.21
253.535	-2.73
253.752	30.04
253.968	-0.68
254.185	-0.68
254.401	30.04
254.618	52.56
254.835	42.32
255.051	36.18
255.268	30.04
255.484	50.52
255.701	21.85
255.917	7.51
256.134	-10.92
256.351	73.04
256.567	64.85
256.784	34.13
257	40.28
257.217	118.1
257.433	62.8
257.65	15.7
257.866	-4.78
258.082	-15.02
258.299	-25.26
258.515	15.7
258.732	97.62
258.948	40.28
259.165	32.08
259.381	42.32
259.597	23.89
259.814	32.08
260.03	54.61
260.246	-0.68
260.463	-15.02
260.679	40.28
260.895	58.71
261.112	46.42
261.328	34.13
261.544	-62.12
261.761	52.56
261.977	71
262.193	71
262.409	40.28
262.626	73.04
262.842	44.37
263.058	32.08
263.274	64.85
263.49	114
263.707	32.08
263.923	56.66
264.139	77.14
264.355	7.51
264.571	-2.73
264.787	48.47
265.004	165.2
265.22	32.08
265.436	-43.69
265.652	60.76
265.868	-29.35
266.084	-29.35
266.3	1.37
266.516	-72.36
266.732	19.8
266.948	-17.07
267.164	21.85
267.38	38.23
267.596	1.37
267.812	-12.97
268.028	42.32
268.244	71
268.46	93.52
268.676	-37.55
268.892	62.8
269.108	9.56
269.324	-8.87
269.54	46.42
269.756	40.28
269.972	32.08
270.188	15.7
270.403	9.56
270.619	-37.55
270.835	34.13
271.051	27.99
271.267	52.56
271.483	85.33
271.698	-12.97
271.914	54.61
272.13	-19.11
272.346	-10.92
272.562	40.28
272.777	54.61
272.993	-8.87
273.209	46.42
273.425	87.38
273.64	83.28
273.856	81.24
274.072	40.28
274.287	32.08
274.503	21.85
274.719	38.23
274.934	32.08
275.15	-2.73
275.366	34.13
275.581	15.7
275.797	-15.02
276.012	25.94
276.228	-12.97
276.444	5.46
276.659	71
276.875	-0.68
277.09	11.61
277.306	7.51
277.521	54.61
277.737	27.99
277.952	19.8
278.168	52.56
278.383	15.7
278.599	93.52
278.814	7.51
279.03	21.85
279.245	99.67
279.461	79.19
279.676	99.67
279.892	19.8
280.107	-15.02
280.322	66.9
280.538	46.42
280.753	11.61
280.969	44.37
281.184	21.85
281.399	71
281.615	-45.74
281.83	36.18
282.045	-49.83
282.26	-4.78
282.476	99.67
282.691	89.43
282.906	64.85
283.122	73.04
283.337	75.09
283.552	23.89
283.767	36.18
283.983	93.52
284.198	93.52
284.413	66.9
284.628	17.75
284.843	30.04
285.058	60.76
285.274	32.08
285.489	3.41
285.704	42.32
285.919	23.89
286.134	19.8
286.349	15.7
286.564	13.65
286.779	9.56
286.995	71
287.21	-15.02
287.425	25.94
287.64	1.37
287.855	3.41
288.07	-15.02
288.285	71
288.5	79.19
288.715	30.04
288.93	7.51
289.145	30.04
289.36	13.65
289.575	-0.68
289.79	7.51
290.004	21.85
290.219	52.56
290.434	13.65
290.649	7.51
290.864	-23.21
291.079	-12.97
291.294	56.66
291.509	64.85
291.724	-49.83
291.938	3.41
292.153	36.18
292.368	21.85
292.583	56.66
292.798	58.71
293.012	83.28
293.227	42.32
293.442	-27.31
293.657	79.19
293.871	93.52
294.086	44.37
294.301	11.61
294.516	68.95
294.73	-6.83
294.945	50.52
295.16	75.09
295.374	58.71
295.589	118.1
295.804	-66.22
296.018	71
296.233	-37.55
296.447	30.04
296.662	46.42
296.877	66.9
297.091	75.09
297.306	-41.64
297.52	38.23
297.735	13.65
297.949	34.13
298.164	40.28
298.378	-6.83
298.593	66.9
298.807	-35.5
299.022	34.13
299.236	38.23
299.451	-10.92
299.665	-2.73
299.88	107.86
300.094	48.47
300.309	-35.5
300.523	38.23
300.737	15.7
300.952	83.28
301.166	60.76
301.381	21.85
301.595	77.14
301.809	3.41
302.024	44.37
302.238	25.94
302.452	30.04
302.667	-15.02
302.881	77.14
303.095	81.24
303.309	42.32
303.524	-19.11
303.738	40.28
303.952	-43.69
304.166	68.95
304.381	-41.64
304.595	85.33
304.809	21.85
305.023	91.48
305.237	-31.4
305.452	54.61
305.666	-4.78
305.88	73.04
306.094	99.67
306.308	27.99
306.522	50.52
306.736	97.62
306.95	34.13
307.164	-43.69
307.379	66.9
307.593	68.95
307.807	-21.16
308.021	15.7
308.235	-37.55
308.449	46.42
308.663	-12.97
308.877	30.04
309.091	32.08
309.305	7.51
309.519	25.94
309.733	109.91
309.947	40.28
310.161	54.61
310.374	11.61
310.588	66.9
310.802	-53.93
311.016	36.18
311.23	13.65
311.444	32.08
311.658	-10.92
311.872	89.43
312.085	132.44
312.299	46.42
312.513	17.75
312.727	52.56
312.941	27.99
313.154	19.8
313.368	64.85
313.582	-17.07
313.796	54.61
314.009	15.7
314.223	73.04
314.437	27.99
314.651	79.19
314.864	-17.07
315.078	9.56
315.292	-8.87
315.505	-55.98
315.719	89.43
315.933	66.9
316.146	3.41
316.36	-12.97
316.573	27.99
316.787	114
317.001	54.61
317.214	25.94
317.428	111.96
317.641	66.9
317.855	-4.78
318.068	5.46
318.282	103.76
318.495	64.85
318.709	-19.11
318.922	13.65
319.136	58.71
319.349	52.56
319.563	34.13
319.776	9.56
319.99	-41.64
320.203	111.96
320.417	-2.73
320.63	73.04
320.843	44.37
321.057	42.32
321.27	71
321.483	62.8
321.697	103.76
321.91	23.89
322.124	66.9
322.337	34.13
322.55	1.37
322.763	15.7
322.977	68.95
323.19	52.56
323.403	-21.16
323.617	56.66
323.83	46.42
324.043	-23.21
324.256	50.52
324.469	30.04
324.683	46.42
324.896	27.99
325.109	71
325.322	-74.41
325.535	44.37
325.748	52.56
325.962	48.47
326.175	79.19
326.388	83.28
326.601	48.47
326.814	-53.93
327.027	38.23
327.24	30.04
327.453	-0.68
327.666	30.04
327.879	15.7
328.092	42.32
328.305	19.8
328.518	68.95
328.731	-23.21
328.944	42.32
329.157	-12.97
329.37	62.8
329.583	-19.11
329.796	19.8
330.009	-27.31
330.222	13.65
330.435	81.24
330.648	81.24
330.861	85.33
331.073	-12.97
331.286	89.43
331.499	36.18
331.712	7.51
331.925	97.62
332.138	46.42
332.35	56.66
332.563	38.23
332.776	34.13
332.989	9.56
333.202	11.61
333.414	25.94
333.627	7.51
333.84	-37.55
334.053	9.56
334.265	-39.59
334.478	140.63
334.691	-0.68
334.903	73.04
335.116	-0.68
335.329	-8.87
335.541	62.8
335.754	40.28
335.966	38.23
336.179	9.56
336.392	73.04
336.604	-6.83
336.817	60.76
337.029	19.8
337.242	103.76
337.454	36.18
337.667	-15.02
337.88	89.43
338.092	-6.83
338.305	-21.16
338.517	60.76
338.729	68.95
338.942	99.67
339.154	34.13
339.367	5.46
339.579	111.96
339.792	-21.16
340.004	79.19
340.217	50.52
340.429	27.99
340.641	27.99
340.854	25.94
341.066	21.85
341.278	83.28
341.491	7.51
341.703	114
341.915	32.08
342.128	99.67
342.34	21.85
342.552	-29.35
342.764	120.15
342.977	83.28
343.189	30.04
343.401	58.71
343.613	34.13
343.826	75.09
344.038	9.56
344.25	60.76
344.462	-12.97
344.674	79.19
344.886	89.43
345.099	44.37
345.311	66.9
345.523	89.43
345.735	1.37
345.947	40.28
346.159	50.52
346.371	87.38
346.583	77.14
346.795	97.62
347.007	68.95
347.219	48.47
347.431	54.61
347.643	34.13
347.855	-4.78
348.067	87.38
348.279	-4.78
348.491	40.28
348.703	77.14
348.915	101.72
349.127	36.18
349.339	-15.02
349.551	3.41
349.763	48.47
349.975	25.94
350.187	-12.97
350.399	21.85
350.61	9.56
350.822	-21.16
351.034	5.46
351.246	36.18
351.458	11.61
351.669	23.89
351.881	62.8
352.093	87.38
352.305	25.94
352.517	-101.03
352.728	13.65
352.94	58.71
353.152	-31.4
353.363	-58.03
353.575	-25.26
353.787	21.85
353.999	36.18
354.21	56.66
354.422	50.52
354.633	48.47
354.845	95.57
355.057	30.04
355.268	21.85
355.48	11.61
355.692	-2.73
355.903	42.32
356.115	27.99
356.326	-17.07
356.538	64.85
356.749	48.47
356.961	62.8
357.172	-15.02
357.384	-0.68
357.595	95.57
357.807	46.42
358.018	13.65
358.23	54.61
358.441	56.66
358.653	93.52
358.864	58.71
359.075	46.42
359.287	83.28
359.498	105.81
359.709	44.37
359.921	58.71
360.132	1.37
360.344	9.56
360.555	1.37
360.766	73.04
360.977	83.28
361.189	40.28
361.4	60.76
361.611	27.99
361.823	19.8
362.034	25.94
362.245	9.56
362.456	25.94
362.667	-23.21
362.879	17.75
363.09	66.9
363.301	25.94
363.512	27.99
363.723	15.7
363.935	71
364.146	25.94
364.357	19.8
364.568	105.81
364.779	-6.83
364.99	-23.21
365.201	9.56
365.412	68.95
365.623	56.66
365.834	52.56
366.045	-37.55
366.256	25.94
366.467	79.19
366.678	52.56
366.889	-53.93
367.1	64.85
367.311	81.24
367.522	91.48
367.733	9.56
367.944	105.81
368.155	15.7
368.366	91.48
368.577	93.52
368.788	91.48
368.999	42.32
369.209	13.65
369.42	73.04
369.631	111.96
369.842	111.96
370.053	54.61
370.264	30.04
370.474	71
370.685	68.95
370.896	40.28
371.107	-25.26
371.317	71
371.528	50.52
371.739	73.04
371.95	-10.92
372.16	7.51
372.371	-15.02
372.582	23.89
372.792	15.7
373.003	85.33
373.214	-19.11
373.424	73.04
373.635	-0.68
373.846	138.58
374.056	62.8
374.267	52.56
374.477	46.42
374.688	68.95
374.898	56.66
375.109	48.47
375.319	87.38
375.53	75.09
375.74	13.65
375.951	27.99
376.161	36.18
376.372	40.28
376.582	30.04
376.793	34.13
377.003	44.37
377.214	-45.74
377.424	23.89
377.635	-6.83
377.845	-10.92
378.055	17.75
378.266	-29.35
378.476	91.48
378.686	91.48
378.897	25.94
379.107	85.33
379.317	30.04
379.528	25.94
379.738	-68.27
379.948	64.85
380.158	101.72
380.369	91.48
380.579	5.46
380.789	62.8
380.999	105.81
381.21	15.7
381.42	71
381.63	52.56
381.84	64.85
382.05	87.38
382.261	83.28
382.471	32.08
382.681	60.76
382.891	13.65
383.101	5.46
383.311	85.33
383.521	21.85
383.731	23.89
383.941	50.52
384.151	54.61
384.361	42.32
384.571	38.23
384.781	54.61
384.991	79.19
385.201	89.43
385.411	77.14
385.621	15.7
385.831	114
386.041	64.85
386.251	85.33
386.461	58.71
386.671	27.99
386.881	40.28
387.091	48.47
387.301	87.38
387.511	30.04
387.72	9.56
387.93	-10.92
388.14	19.8
388.35	32.08
388.56	73.04
388.769	68.95
388.979	83.28
389.189	60.76
389.399	46.42
389.609	17.75
389.818	34.13
390.028	44.37
390.238	58.71
390.447	30.04
390.657	56.66
390.867	-17.07
391.076	71
391.286	25.94
391.496	1.37
391.705	64.85
391.915	68.95
392.125	77.14
392.334	34.13
392.544	77.14
392.753	25.94
392.963	-8.87
393.172	48.47
393.382	36.18
393.591	111.96
393.801	17.75
394.01	136.53
394.22	40.28
394.429	132.44
394.639	15.7
394.848	77.14
395.058	46.42
395.267	71
395.477	116.05
395.686	81.24
395.895	118.1
396.105	42.32
396.314	93.52
396.524	95.57
396.733	52.56
396.942	93.52
397.152	36.18
397.361	79.19
397.57	89.43
397.78	95.57
397.989	42.32
398.198	21.85
398.407	107.86
398.617	42.32
398.826	132.44
399.035	17.75
399.244	103.76
399.453	50.52
399.663	138.58
399.872	95.57
400.081	75.09
400.29	130.39
400.499	71
400.708	107.86
400.917	62.8
401.127	124.24
401.336	87.38
401.545	183.63
401.754	142.68
401.963	144.72
402.172	116.05
402.381	126.29
402.59	105.81
402.799	97.62
403.008	124.24
403.217	114
403.426	97.62
403.635	79.19
403.844	85.33
404.053	91.48
404.262	103.76
404.471	157.01
404.68	103.76
404.888	85.33
405.097	83.28
405.306	179.54
405.515	167.25
405.724	175.44
405.933	157.01
406.142	161.11
406.35	208.21
406.559	146.77
406.768	163.15
406.977	197.97
407.185	136.53
407.394	290.13
407.603	169.3
407.812	167.25
408.02	245.07
408.229	220.5
408.438	165.2
408.646	208.21
408.855	187.73
409.064	214.35
409.272	208.21
409.481	257.36
409.69	243.03
409.898	261.46
410.107	288.08
410.315	253.27
410.524	324.94
410.733	359.76
410.941	251.22
411.15	415.06
411.358	413.01
411.567	329.04
411.775	308.56
411.984	363.86
412.192	417.1
412.401	406.86
412.609	417.1
412.818	488.78
413.026	519.5
413.234	406.86
413.443	388.43
413.651	423.25
413.86	490.83
414.068	574.8
414.276	615.76
414.485	507.21
414.693	560.46
414.901	611.66
415.11	552.27
415.318	636.24
415.526	666.96
415.734	738.63
415.943	693.58
416.151	728.39
416.359	810.31
416.567	843.08
416.776	822.6
416.984	890.18
417.192	935.24
417.4	902.47
417.608	922.95
417.817	871.75
418.025	992.58
418.233	1086.79
418.441	1027.4
418.649	1170.76
418.857	1209.67
419.065	1201.48
419.273	1133.89
419.481	1262.91
419.689	1269.06
419.897	1385.79
420.105	1371.46
420.313	1422.66
420.521	1377.6
420.729	1410.37
420.937	1469.76
421.145	1662.27
421.353	1645.88
421.561	1746.23
421.769	1633.6
421.977	1881.4
422.185	1946.94
422.393	1975.61
422.601	2055.48
422.809	2143.54
423.017	2100.53
423.224	2073.91
423.432	2200.88
423.64	2227.51
423.848	2467.12
424.056	2315.57
424.263	2579.76
424.471	2417.97
424.679	2628.91
424.887	2821.42
425.094	2891.05
425.302	2958.63
425.51	2905.38
425.718	3020.07
425.925	3054.89
426.133	3153.19
426.341	3503.39
426.548	3484.96
426.756	3607.84
426.964	3587.36
427.171	3773.72
427.379	3851.55
427.586	3878.17
427.794	4148.5
428.001	4306.2
428.209	4515.09
428.417	4463.89
428.624	4732.17
428.832	4642.06
429.039	4519.18
429.247	4642.06
429.454	5133.57
429.662	5518.59
429.869	5039.37
430.076	5563.65
430.284	5344.52
430.491	5649.66
430.699	5975.29
430.906	5862.65
431.114	5827.84
431.321	6165.75
431.528	6184.18
431.736	6567.15
431.943	6968.56
432.15	6730.99
432.358	6774
432.565	7384.29
432.772	7134.44
432.979	7771.36
433.187	7605.47
433.394	7955.68
433.601	8303.83
433.808	8344.79
434.016	8406.23
434.223	8686.8
434.43	9346.25
434.637	9004.24
434.844	9604.29
435.052	9852.09
435.259	9608.39
435.466	9858.24
435.673	9706.69
435.88	10325.18
436.087	10929.33
436.294	10990.77
436.501	10566.84
436.708	10853.55
436.915	11138.22
437.122	11637.92
437.329	11797.67
437.537	12240.03
437.743	12205.21
437.95	12106.91
438.157	12860.56
438.364	13128.84
438.571	13278.35
438.778	13341.83
438.985	14580.85
439.192	14064.77
439.399	14382.2
439.606	14228.6
439.813	14830.71
440.02	15543.4
440.227	15541.35
440.433	15254.64
440.64	15613.03
440.847	15801.44
441.054	16225.37
441.261	17259.6
441.467	17218.64
441.674	17253.45
441.881	18064.45
442.088	17908.8
442.294	17814.6
442.501	18312.25
442.708	18527.29
442.914	19342.38
443.121	19862.57
443.328	19596.33
443.534	21103.64
443.741	20358.17
443.948	20300.83
444.154	21752.84
444.361	21646.35
444.568	21675.02
444.774	21992.45
444.981	22035.46
445.187	22782.97
445.394	23403.5
445.6	23356.4
445.807	25605.07
446.013	24251.36
446.22	24761.31
446.426	25560.02
446.633	26149.83
446.839	27018.17
447.046	25959.37
447.252	27141.05
447.459	27691.95
447.665	26911.67
447.871	28435.36
448.078	29844.37
448.284	28244.9
448.491	28337.06
448.697	30008.2
448.903	30991.23
449.11	30819.2
449.316	30112.65
449.522	30753.66
449.728	31546.23
449.935	31609.72
450.141	31738.74
450.347	32555.88
450.553	31218.55
450.76	31570.8
450.966	33151.84
451.172	32129.9
451.378	33422.17
451.584	33000.29
451.791	33420.12
451.997	33338.2
452.203	34128.72
452.409	33782.61
452.615	33690.45
452.821	32605.03
453.027	32349.03
453.233	34143.05
453.44	32541.54
453.646	33194.84
453.852	32822.11
454.058	33370.97
454.264	32525.16
454.47	33033.05
454.676	32066.41
454.882	33569.62
455.088	30452.61
455.294	30974.84
455.5	31433.59
455.705	32013.16
455.911	30301.06
456.117	29885.33
456.323	29451.16
456.529	28081.06
456.735	29055.9
456.941	28400.55
457.147	27997.1
457.352	27036.6
457.558	26788.8
457.764	26678.21
457.97	26223.56
458.176	25619.41
458.381	25723.85
458.587	24296.42
458.793	24323.04
458.999	23167.99
459.204	24673.24
459.41	23645.16
459.616	22340.61
459.821	22440.96
460.027	22547.45
460.233	21822.47
460.438	20732.95
460.644	21173.27
460.85	20077.6
461.055	19956.77
461.261	19958.82
461.466	18324.54
461.672	17931.33
461.878	19121.2
462.083	17687.62
462.289	17517.64
462.494	16999.51
462.7	16528.47
462.905	16096.35
463.111	16557.14
463.316	16727.13
463.522	16151.65
463.727	16608.34
463.932	16350.3
464.138	16284.76
464.343	16249.95
464.549	15588.46
464.754	16229.47
464.959	15950.95
465.165	15936.61
465.37	15367.27
465.575	15023.22
465.781	15404.14
465.986	15602.79
466.191	14974.06
466.397	14756.98
466.602	13939.84
466.807	14435.45
467.012	14709.88
467.218	14466.17
467.423	14236.8
467.628	14509.18
467.833	14804.08
468.038	14443.64
468.244	14128.25
468.449	14419.07
468.654	14060.67
468.859	13931.65
