Data from USB4F104151__17__12-00-26-994.txt Node

Date: Fri Mar 14 12:00:26 EDT 2025
User: louis
Spectrometer: USB4F10415
Trigger mode: 4
Integration Time (sec): 2.000000E-2
Scans to average: 1
Electric dark correction enabled: true
Nonlinearity correction enabled: false
Boxcar width: 0
XAxis mode: Wavelengths
Number of Pixels in Spectrum: 3648
>>>>>Begin Spectral Data<<<<<
178.204	-47.96
178.424	-47.96
178.644	-47.96
178.864	-136.02
179.084	-70.48
179.304	-50
179.524	38.06
179.744	-0.85
179.964	17.58
180.184	15.53
180.404	11.43
180.624	-29.52
180.844	-39.76
181.064	-0.85
181.283	1.19
181.503	-9.05
181.723	46.25
181.943	-2.9
182.163	83.11
182.383	-2.9
182.602	17.58
182.822	52.39
183.042	-2.9
183.262	23.72
183.482	-13.14
183.701	11.43
183.921	25.77
184.141	42.15
184.361	40.11
184.58	13.48
184.8	33.96
185.02	7.34
185.239	60.59
185.459	5.29
185.679	5.29
185.898	-19.29
186.118	-4.95
186.338	-19.29
186.557	3.24
186.777	64.68
186.997	46.25
187.216	58.54
187.436	38.06
187.655	31.91
187.875	36.01
188.095	3.24
188.314	-23.38
188.534	-54.1
188.753	-60.24
188.973	52.39
189.192	5.29
189.412	13.48
189.631	76.97
189.851	9.39
190.07	50.35
190.29	5.29
190.509	3.24
190.729	-21.33
190.948	-11.09
191.168	36.01
191.387	62.63
191.607	85.16
191.826	29.87
192.045	-31.57
192.265	-15.19
192.484	89.26
192.704	85.16
192.923	91.31
193.142	-4.95
193.362	-23.38
193.581	79.02
193.8	-15.19
194.02	58.54
194.239	9.39
194.458	21.67
194.678	-33.62
194.897	33.96
195.116	97.45
195.335	11.43
195.555	52.39
195.774	19.63
195.993	31.91
196.212	-43.86
196.432	17.58
196.651	33.96
196.87	-21.33
197.089	107.69
197.308	-21.33
197.528	50.35
197.747	68.78
197.966	33.96
198.185	44.2
198.404	-35.67
198.623	19.63
198.842	50.35
199.062	85.16
199.281	62.63
199.5	19.63
199.719	15.53
199.938	1.19
200.157	107.69
200.376	-76.63
200.595	105.64
200.814	50.35
201.033	48.3
201.252	83.11
201.471	11.43
201.69	-43.86
201.909	1.19
202.128	-0.85
202.347	56.49
202.566	91.31
202.785	89.26
203.004	-25.43
203.223	62.63
203.442	23.72
203.661	3.24
203.879	21.67
204.098	72.87
204.317	13.48
204.536	21.67
204.755	5.29
204.974	56.49
205.193	21.67
205.411	89.26
205.63	54.44
205.849	87.21
206.068	-39.76
206.287	19.63
206.505	25.77
206.724	-7
206.943	33.96
207.162	54.44
207.381	-43.86
207.599	72.87
207.818	38.06
208.037	54.44
208.255	-7
208.474	46.25
208.693	-7
208.911	-21.33
209.13	3.24
209.349	-13.14
209.567	-47.96
209.786	1.19
210.005	38.06
210.223	40.11
210.442	-27.48
210.661	-54.1
210.879	33.96
211.098	46.25
211.316	5.29
211.535	38.06
211.753	-17.24
211.972	60.59
212.191	25.77
212.409	7.34
212.628	29.87
212.846	9.39
213.065	42.15
213.283	-25.43
213.502	-50
213.72	31.91
213.938	-19.29
214.157	-35.67
214.375	87.21
214.594	-25.43
214.812	-37.72
215.031	83.11
215.249	27.82
215.467	21.67
215.686	23.72
215.904	21.67
216.122	1.19
216.341	58.54
216.559	25.77
216.778	60.59
216.996	70.83
217.214	7.34
217.432	5.29
217.651	3.24
217.869	15.53
218.087	23.72
218.306	-41.81
218.524	56.49
218.742	33.96
218.96	31.91
219.179	5.29
219.397	-7
219.615	138.41
219.833	54.44
220.051	1.19
220.27	72.87
220.488	1.19
220.706	-15.19
220.924	-11.09
221.142	-17.24
221.36	-9.05
221.578	74.92
221.796	48.3
222.015	76.97
222.233	-11.09
222.451	9.39
222.669	83.11
222.887	27.82
223.105	7.34
223.323	44.2
223.541	-47.96
223.759	29.87
223.977	-9.05
224.195	-58.2
224.413	-21.33
224.631	115.88
224.849	109.74
225.067	60.59
225.285	27.82
225.503	5.29
225.721	5.29
225.939	21.67
226.157	38.06
226.375	19.63
226.592	21.67
226.81	52.39
227.028	13.48
227.246	83.11
227.464	66.73
227.682	54.44
227.9	40.11
228.117	40.11
228.335	79.02
228.553	-11.09
228.771	50.35
228.989	15.53
229.206	3.24
229.424	17.58
229.642	33.96
229.86	-39.76
230.077	97.45
230.295	74.92
230.513	17.58
230.731	-31.57
230.948	66.73
231.166	103.59
231.384	-27.48
231.601	54.44
231.819	15.53
232.037	9.39
232.254	-2.9
232.472	81.07
232.689	-0.85
232.907	91.31
233.125	19.63
233.342	19.63
233.56	33.96
233.777	9.39
233.995	54.44
234.213	38.06
234.43	17.58
234.648	-31.57
234.865	58.54
235.083	52.39
235.3	33.96
235.518	54.44
235.735	70.83
235.953	46.25
236.17	87.21
236.388	-95.06
236.605	-56.15
236.822	13.48
237.04	87.21
237.257	38.06
237.475	79.02
237.692	62.63
237.909	11.43
238.127	66.73
238.344	60.59
238.562	40.11
238.779	-35.67
238.996	-58.2
239.214	7.34
239.431	-15.19
239.648	-54.1
239.865	-7
240.083	-0.85
240.3	42.15
240.517	5.29
240.735	-15.19
240.952	66.73
241.169	50.35
241.386	7.34
241.603	1.19
241.821	-0.85
242.038	64.68
242.255	27.82
242.472	25.77
242.689	-29.52
242.907	50.35
243.124	-4.95
243.341	21.67
243.558	-2.9
243.775	85.16
243.992	25.77
244.209	15.53
244.426	42.15
244.643	66.73
244.86	81.07
245.078	44.2
245.295	31.91
245.512	31.91
245.729	-9.05
245.946	42.15
246.163	-2.9
246.38	54.44
246.597	-17.24
246.814	-2.9
247.031	64.68
247.248	74.92
247.464	25.77
247.681	-13.14
247.898	99.5
248.115	-52.05
248.332	25.77
248.549	91.31
248.766	19.63
248.983	113.83
249.2	-17.24
249.417	36.01
249.633	81.07
249.85	58.54
250.067	5.29
250.284	-25.43
250.501	29.87
250.717	101.55
250.934	-33.62
251.151	50.35
251.368	42.15
251.585	54.44
251.801	21.67
252.018	15.53
252.235	33.96
252.451	13.48
252.668	19.63
252.885	60.59
253.102	44.2
253.318	-31.57
253.535	19.63
253.752	93.35
253.968	40.11
254.185	-45.91
254.401	11.43
254.618	64.68
254.835	21.67
255.051	85.16
255.268	9.39
255.484	13.48
255.701	27.82
255.917	85.16
256.134	17.58
256.351	9.39
256.567	36.01
256.784	19.63
257	-35.67
257.217	48.3
257.433	56.49
257.65	66.73
257.866	3.24
258.082	31.91
258.299	-11.09
258.515	60.59
258.732	-27.48
258.948	46.25
259.165	72.87
259.381	70.83
259.597	11.43
259.814	81.07
260.03	95.4
260.246	58.54
260.463	72.87
260.679	111.78
260.895	36.01
261.112	25.77
261.328	-7
261.544	-70.48
261.761	76.97
261.977	5.29
262.193	62.63
262.409	23.72
262.626	40.11
262.842	31.91
263.058	21.67
263.274	-9.05
263.49	60.59
263.707	56.49
263.923	48.3
264.139	-29.52
264.355	-35.67
264.571	-15.19
264.787	-25.43
265.004	21.67
265.22	42.15
265.436	-9.05
265.652	-9.05
265.868	15.53
266.084	-31.57
266.3	3.24
266.516	-17.24
266.732	56.49
266.948	3.24
267.164	60.59
267.38	11.43
267.596	27.82
267.812	13.48
268.028	17.58
268.244	5.29
268.46	44.2
268.676	-17.24
268.892	72.87
269.108	62.63
269.324	50.35
269.54	-23.38
269.756	81.07
269.972	-9.05
270.188	11.43
270.403	42.15
270.619	23.72
270.835	52.39
271.051	33.96
271.267	-17.24
271.483	33.96
271.698	-21.33
271.914	31.91
272.13	62.63
272.346	29.87
272.562	31.91
272.777	101.55
272.993	13.48
273.209	-17.24
273.425	130.22
273.64	56.49
273.856	36.01
274.072	-13.14
274.287	3.24
274.503	76.97
274.719	-17.24
274.934	-0.85
275.15	95.4
275.366	76.97
275.581	13.48
275.797	52.39
276.012	-37.72
276.228	19.63
276.444	25.77
276.659	62.63
276.875	52.39
277.09	40.11
277.306	-2.9
277.521	15.53
277.737	-64.34
277.952	101.55
278.168	11.43
278.383	-35.67
278.599	56.49
278.814	56.49
279.03	5.29
279.245	5.29
279.461	25.77
279.676	76.97
279.892	-9.05
280.107	42.15
280.322	-0.85
280.538	27.82
280.753	-25.43
280.969	-0.85
281.184	-0.85
281.399	11.43
281.615	40.11
281.83	-19.29
282.045	-9.05
282.26	9.39
282.476	27.82
282.691	107.69
282.906	1.19
283.122	42.15
283.337	36.01
283.552	128.17
283.767	13.48
283.983	-0.85
284.198	36.01
284.413	56.49
284.628	33.96
284.843	-15.19
285.058	48.3
285.274	62.63
285.489	-50
285.704	50.35
285.919	7.34
286.134	87.21
286.349	38.06
286.564	21.67
286.779	62.63
286.995	-7
287.21	89.26
287.425	1.19
287.64	60.59
287.855	81.07
288.07	52.39
288.285	56.49
288.5	7.34
288.715	74.92
288.93	9.39
289.145	-43.86
289.36	40.11
289.575	17.58
289.79	64.68
290.004	23.72
290.219	128.17
290.434	-4.95
290.649	60.59
290.864	29.87
291.079	33.96
291.294	33.96
291.509	25.77
291.724	-23.38
291.938	-17.24
292.153	56.49
292.368	56.49
292.583	46.25
292.798	52.39
293.012	1.19
293.227	-2.9
293.442	46.25
293.657	-11.09
293.871	-19.29
294.086	31.91
294.301	64.68
294.516	64.68
294.73	36.01
294.945	29.87
295.16	11.43
295.374	60.59
295.589	44.2
295.804	13.48
296.018	-21.33
296.233	95.4
296.447	-0.85
296.662	5.29
296.877	89.26
297.091	1.19
297.306	85.16
297.52	64.68
297.735	5.29
297.949	62.63
298.164	29.87
298.378	-9.05
298.593	7.34
298.807	-43.86
299.022	-19.29
299.236	64.68
299.451	-27.48
299.665	70.83
299.88	40.11
300.094	9.39
300.309	-4.95
300.523	25.77
300.737	19.63
300.952	46.25
301.166	60.59
301.381	36.01
301.595	21.67
301.809	-15.19
302.024	21.67
302.238	7.34
302.452	173.22
302.667	36.01
302.881	62.63
303.095	91.31
303.309	-33.62
303.524	48.3
303.738	68.78
303.952	-15.19
304.166	44.2
304.381	-13.14
304.595	85.16
304.809	66.73
305.023	31.91
305.237	27.82
305.452	46.25
305.666	29.87
305.88	52.39
306.094	38.06
306.308	62.63
306.522	-0.85
306.736	36.01
306.95	31.91
307.164	54.44
307.379	-11.09
307.593	33.96
307.807	68.78
308.021	60.59
308.235	54.44
308.449	38.06
308.663	25.77
308.877	89.26
309.091	5.29
309.305	64.68
309.519	23.72
309.733	52.39
309.947	-37.72
310.161	101.55
310.374	64.68
310.588	-4.95
310.802	38.06
311.016	40.11
311.23	11.43
311.444	42.15
311.658	21.67
311.872	60.59
312.085	19.63
312.299	13.48
312.513	52.39
312.727	31.91
312.941	23.72
313.154	46.25
313.368	70.83
313.582	5.29
313.796	-25.43
314.009	-58.2
314.223	83.11
314.437	38.06
314.651	23.72
314.864	93.35
315.078	60.59
315.292	-25.43
315.505	95.4
315.719	58.54
315.933	56.49
316.146	93.35
316.36	-54.1
316.573	42.15
316.787	25.77
317.001	9.39
317.214	44.2
317.428	44.2
317.641	7.34
317.855	21.67
318.068	46.25
318.282	11.43
318.495	25.77
318.709	91.31
318.922	-21.33
319.136	76.97
319.349	46.25
319.563	31.91
319.776	62.63
319.99	52.39
320.203	-0.85
320.417	40.11
320.63	48.3
320.843	54.44
321.057	42.15
321.27	7.34
321.483	29.87
321.697	29.87
321.91	38.06
322.124	38.06
322.337	1.19
322.55	29.87
322.763	11.43
322.977	21.67
323.19	42.15
323.403	60.59
323.617	29.87
323.83	76.97
324.043	-21.33
324.256	76.97
324.469	7.34
324.683	58.54
324.896	-29.52
325.109	9.39
325.322	85.16
325.535	72.87
325.748	31.91
325.962	17.58
326.175	79.02
326.388	27.82
326.601	60.59
326.814	44.2
327.027	1.19
327.24	89.26
327.453	-33.62
327.666	36.01
327.879	21.67
328.092	66.73
328.305	50.35
328.518	1.19
328.731	46.25
328.944	19.63
329.157	27.82
329.37	44.2
329.583	93.35
329.796	109.74
330.009	52.39
330.222	101.55
330.435	111.78
330.648	-31.57
330.861	56.49
331.073	85.16
331.286	40.11
331.499	46.25
331.712	-2.9
331.925	-54.1
332.138	70.83
332.35	23.72
332.563	21.67
332.776	54.44
332.989	31.91
333.202	50.35
333.414	-2.9
333.627	-31.57
333.84	33.96
334.053	33.96
334.265	79.02
334.478	29.87
334.691	25.77
334.903	76.97
335.116	3.24
335.329	21.67
335.541	29.87
335.754	89.26
335.966	-47.96
336.179	60.59
336.392	42.15
336.604	-54.1
336.817	70.83
337.029	48.3
337.242	36.01
337.454	72.87
337.667	-64.34
337.88	-19.29
338.092	33.96
338.305	-9.05
338.517	-2.9
338.729	44.2
338.942	58.54
339.154	117.93
339.367	7.34
339.579	66.73
339.792	-0.85
340.004	58.54
340.217	89.26
340.429	23.72
340.641	66.73
340.854	66.73
341.066	29.87
341.278	74.92
341.491	21.67
341.703	-11.09
341.915	54.44
342.128	40.11
342.34	23.72
342.552	48.3
342.764	44.2
342.977	48.3
343.189	36.01
343.401	31.91
343.613	-64.34
343.826	25.77
344.038	31.91
344.25	115.88
344.462	-17.24
344.674	56.49
344.886	-27.48
345.099	38.06
345.311	25.77
345.523	-2.9
345.735	70.83
345.947	13.48
346.159	19.63
346.371	81.07
346.583	99.5
346.795	89.26
347.007	5.29
347.219	38.06
347.431	23.72
347.643	48.3
347.855	52.39
348.067	62.63
348.279	-70.48
348.491	33.96
348.703	74.92
348.915	-0.85
349.127	33.96
349.339	91.31
349.551	13.48
349.763	130.22
349.975	-64.34
350.187	29.87
350.399	89.26
350.61	54.44
350.822	-52.05
351.034	7.34
351.246	27.82
351.458	15.53
351.669	97.45
351.881	79.02
352.093	11.43
352.305	54.44
352.517	87.21
352.728	-21.33
352.94	-2.9
353.152	99.5
353.363	38.06
353.575	15.53
353.787	38.06
353.999	-27.48
354.21	81.07
354.422	-9.05
354.633	89.26
354.845	5.29
355.057	15.53
355.268	74.92
355.48	23.72
355.692	66.73
355.903	72.87
356.115	36.01
356.326	70.83
356.538	38.06
356.749	21.67
356.961	42.15
357.172	-17.24
357.384	42.15
357.595	38.06
357.807	52.39
358.018	-45.91
358.23	60.59
358.441	19.63
358.653	19.63
358.864	5.29
359.075	29.87
359.287	74.92
359.498	27.82
359.709	11.43
359.921	58.54
360.132	79.02
360.344	70.83
360.555	50.35
360.766	-23.38
360.977	60.59
361.189	33.96
361.4	19.63
361.611	117.93
361.823	58.54
362.034	66.73
362.245	3.24
362.456	38.06
362.667	-25.43
362.879	9.39
363.09	91.31
363.301	113.83
363.512	33.96
363.723	27.82
363.935	66.73
364.146	115.88
364.357	44.2
364.568	62.63
364.779	44.2
364.99	87.21
365.201	36.01
365.412	76.97
365.623	15.53
365.834	36.01
366.045	-43.86
366.256	3.24
366.467	50.35
366.678	17.58
366.889	27.82
367.1	-43.86
367.311	-7
367.522	60.59
367.733	13.48
367.944	33.96
368.155	25.77
368.366	76.97
368.577	72.87
368.788	44.2
368.999	17.58
369.209	9.39
369.42	95.4
369.631	97.45
369.842	74.92
370.053	68.78
370.264	52.39
370.474	-0.85
370.685	33.96
370.896	91.31
371.107	33.96
371.317	52.39
371.528	29.87
371.739	89.26
371.95	89.26
372.16	25.77
372.371	-58.2
372.582	11.43
372.792	25.77
373.003	44.2
373.214	42.15
373.424	115.88
373.635	-2.9
373.846	58.54
374.056	46.25
374.267	60.59
374.477	-37.72
374.688	-43.86
374.898	89.26
375.109	40.11
375.319	62.63
375.53	150.7
375.74	93.35
375.951	-58.2
376.161	-4.95
376.372	21.67
376.582	33.96
376.793	99.5
377.003	62.63
377.214	23.72
377.424	38.06
377.635	23.72
377.845	9.39
378.055	91.31
378.266	42.15
378.476	17.58
378.686	23.72
378.897	40.11
379.107	89.26
379.317	52.39
379.528	31.91
379.738	13.48
379.948	-25.43
380.158	25.77
380.369	58.54
380.579	13.48
380.789	15.53
380.999	99.5
381.21	44.2
381.42	130.22
381.63	52.39
381.84	15.53
382.05	19.63
382.261	79.02
382.471	17.58
382.681	33.96
382.891	91.31
383.101	46.25
383.311	64.68
383.521	44.2
383.731	74.92
383.941	21.67
384.151	23.72
384.361	64.68
384.571	11.43
384.781	23.72
384.991	74.92
385.201	130.22
385.411	31.91
385.621	62.63
385.831	1.19
386.041	87.21
386.251	62.63
386.461	85.16
386.671	81.07
386.881	11.43
387.091	60.59
387.301	81.07
387.511	13.48
387.72	148.65
387.93	19.63
388.14	62.63
388.35	103.59
388.56	11.43
388.769	29.87
388.979	119.98
389.189	17.58
389.399	81.07
389.609	83.11
389.818	70.83
390.028	60.59
390.238	13.48
390.447	36.01
390.657	74.92
390.867	52.39
391.076	46.25
391.286	-0.85
391.496	85.16
391.705	36.01
391.915	70.83
392.125	-7
392.334	85.16
392.544	81.07
392.753	64.68
392.963	42.15
393.172	54.44
393.382	31.91
393.591	74.92
393.801	66.73
394.01	74.92
394.22	-19.29
394.429	70.83
394.639	52.39
394.848	66.73
395.058	93.35
395.267	66.73
395.477	17.58
395.686	56.49
395.895	93.35
396.105	87.21
396.314	132.26
396.524	23.72
396.733	-2.9
396.942	87.21
397.152	119.98
397.361	134.31
397.57	99.5
397.78	38.06
397.989	169.13
398.198	83.11
398.407	130.22
398.617	33.96
398.826	99.5
399.035	87.21
399.244	226.47
399.453	72.87
399.663	91.31
399.872	150.7
400.081	126.12
400.29	115.88
400.499	101.55
400.708	146.6
400.917	54.44
401.127	146.6
401.336	126.12
401.545	95.4
401.754	126.12
401.963	109.74
402.172	36.01
402.381	113.83
402.59	165.03
402.799	138.41
403.008	93.35
403.217	142.5
403.426	144.55
403.635	115.88
403.844	42.15
404.053	33.96
404.262	146.6
404.471	105.64
404.68	109.74
404.888	134.31
405.097	119.98
405.306	144.55
405.515	124.07
405.724	154.79
405.933	175.27
406.142	191.66
406.35	160.94
406.559	173.22
406.768	181.42
406.977	134.31
407.185	236.71
407.394	195.75
407.603	109.74
407.812	144.55
408.02	265.38
408.229	167.08
408.438	298.15
408.646	244.9
408.855	232.62
409.064	261.29
409.272	279.72
409.481	300.2
409.69	240.81
409.898	318.63
410.107	308.39
410.315	322.73
410.524	294.05
410.733	310.44
410.941	353.45
411.15	339.11
411.358	375.97
411.567	335.01
411.775	388.26
411.984	480.42
412.192	382.12
412.401	427.17
412.609	369.83
412.818	461.99
413.026	445.6
413.234	466.08
413.443	451.75
413.651	582.82
413.86	591.01
414.068	586.91
414.276	654.5
414.485	541.86
414.693	615.59
414.901	736.42
415.11	697.5
415.318	697.5
415.526	699.55
415.734	730.27
415.943	750.75
416.151	812.19
416.359	801.95
416.567	767.13
416.776	844.96
416.984	812.19
417.192	994.46
417.4	935.07
417.608	937.12
417.817	1041.56
418.025	1062.04
418.233	1215.64
418.441	1041.56
418.649	1166.49
418.857	1236.12
419.065	1293.46
419.273	1234.07
419.481	1272.98
419.689	1412.25
419.897	1410.2
420.105	1477.78
420.313	1494.16
420.521	1496.21
420.729	1518.74
420.937	1666.19
421.145	1735.82
421.353	1805.46
421.561	1836.17
421.769	1950.86
421.977	2002.06
422.185	1975.44
422.393	2055.31
422.601	2098.31
422.809	2188.43
423.017	2165.9
423.224	2323.59
423.432	2374.79
423.64	2366.6
423.848	2587.78
424.056	2550.92
424.263	2690.18
424.471	2798.72
424.679	2839.68
424.887	2987.13
425.094	3048.57
425.302	3024
425.51	3101.82
425.718	3320.95
425.925	3279.99
426.133	3396.73
426.341	3542.13
426.548	3699.83
426.756	3783.79
426.964	3910.77
427.171	4129.9
427.379	4123.76
427.586	4306.02
427.794	4316.26
428.001	4566.12
428.209	4729.95
428.417	4656.23
428.624	4990.05
428.832	5043.29
429.039	5037.15
429.247	5069.92
429.454	5383.26
429.662	5846.1
429.869	5510.23
430.076	5993.55
430.284	5745.75
430.491	5899.34
430.699	6282.31
430.906	6143.05
431.114	6306.89
431.321	6444.1
431.528	6806.59
431.736	7048.26
431.943	7734.32
432.15	7222.33
432.358	7416.89
432.565	7736.37
432.772	7711.8
432.979	8164.4
433.187	8252.46
433.394	8193.07
433.601	8932.39
433.808	8985.63
434.016	8887.33
434.223	9317.4
434.43	9954.32
434.637	9516.06
434.844	10265.61
435.052	10298.38
435.259	10359.82
435.466	10445.84
435.673	10335.24
435.88	11107.33
436.087	11676.66
436.294	11543.55
436.501	11478.01
436.708	11375.61
436.915	12002.29
437.122	12485.61
437.329	12776.42
437.537	13093.86
437.743	13042.66
437.95	13130.72
438.157	13841.37
438.364	14250.96
438.571	14099.41
438.778	14341.07
438.985	15567.81
439.192	14670.79
439.399	15406.02
439.606	14916.55
439.813	16075.7
440.02	16888.74
440.227	16751.53
440.433	16587.69
440.64	17128.36
440.847	16806.83
441.054	17300.39
441.261	18246.55
441.467	18090.9
441.674	18697.1
441.881	19307.4
442.088	19366.79
442.294	18883.47
442.501	19577.73
442.708	20280.18
442.914	20849.52
443.121	21547.87
443.328	21316.45
443.534	22690.64
443.741	22119.26
443.948	21660.51
444.154	23548.74
444.361	23044.94
444.568	23020.36
444.774	23075.66
444.981	23587.65
445.187	24138.55
445.394	25271.08
445.6	25187.11
445.807	27093.77
446.013	26039.07
446.22	26733.33
446.426	27558.66
446.633	27849.47
446.839	28996.34
447.046	27826.95
447.252	29383.4
447.459	29137.65
447.665	28922.61
447.871	30403.29
448.078	31824.58
448.284	30251.74
448.491	31163.09
448.697	32021.19
448.903	32877.24
449.11	32879.28
449.316	32328.38
449.522	32914.1
449.728	33598.12
449.935	33970.85
450.141	33616.55
450.347	34831
450.553	33512.11
450.76	34005.67
450.966	35377.81
451.172	34744.98
451.378	36070.02
451.584	34912.92
451.791	35863.18
451.997	35547.79
452.203	36276.87
452.409	35945.09
452.615	36162.18
452.821	34667.16
453.027	34294.43
453.233	36256.39
453.44	34822.81
453.646	35232.4
453.852	34951.83
454.058	35740.3
454.264	34484.89
454.47	35232.4
454.676	34400.93
454.882	35402.38
455.088	32398.01
455.294	32670.39
455.5	33145.52
455.705	33682.09
455.911	32215.74
456.117	31830.72
456.323	31087.31
456.529	29459.18
456.735	31013.59
456.941	29969.12
457.147	29500.14
457.352	28574.45
457.558	28371.71
457.764	28482.3
457.97	27837.19
458.176	27163.4
458.381	27224.84
458.587	25758.5
458.793	25756.45
458.999	24357.69
459.204	26039.07
459.41	24945.45
459.616	23690.05
459.821	23616.32
460.027	23415.62
460.233	23141.19
460.438	22096.73
460.644	22297.43
460.85	21322.6
461.055	20814.7
461.261	20841.32
461.466	19260.29
461.672	18668.43
461.878	20171.64
462.083	18783.12
462.289	18742.16
462.494	18279.32
462.7	17034.15
462.905	16989.1
463.111	17513.38
463.316	17617.82
463.522	17056.68
463.727	17152.93
463.932	17183.65
464.138	17081.25
464.343	16868.27
464.549	16536.49
464.754	16946.09
464.959	17056.68
465.165	16858.03
465.37	15991.73
465.575	15805.37
465.781	16616.37
465.986	16573.36
466.191	15895.48
466.397	15662.01
466.602	14871.5
466.807	15440.83
467.012	15449.02
467.218	14998.47
467.423	15025.09
467.628	15180.74
467.833	15858.62
468.038	15268.8
468.244	15002.57
