Data from USB4F104151__22__12-00-30-653.txt Node

Date: Fri Mar 14 12:00:30 EDT 2025
User: louis
Spectrometer: USB4F10415
Trigger mode: 4
Integration Time (sec): 2.000000E-2
Scans to average: 1
Electric dark correction enabled: true
Nonlinearity correction enabled: false
Boxcar width: 0
XAxis mode: Wavelengths
Number of Pixels in Spectrum: 3648
>>>>>Begin Spectral Data<<<<<
178.204	-142.33
178.424	-142.33
178.644	-142.33
178.864	-91.13
179.084	-35.84
179.304	-29.7
179.524	-48.13
179.744	62.46
179.964	58.37
180.184	-39.94
180.404	19.46
180.624	29.7
180.844	-13.31
181.064	-60.42
181.283	5.12
181.503	35.84
181.723	-19.46
181.943	3.07
182.163	7.17
182.383	41.98
182.602	25.6
182.822	9.22
183.042	64.51
183.262	-9.22
183.482	-37.89
183.701	13.31
183.921	74.75
184.141	-1.02
184.361	74.75
184.58	-74.75
184.8	29.7
185.02	50.18
185.239	33.79
185.459	15.36
185.679	1.02
185.898	-5.12
186.118	68.61
186.338	-56.32
186.557	80.89
186.777	-35.84
186.997	-7.17
187.216	50.18
187.436	23.55
187.655	58.37
187.875	-9.22
188.095	60.42
188.314	72.7
188.534	101.37
188.753	5.12
188.973	56.32
189.192	29.7
189.412	-58.37
189.631	56.32
189.851	15.36
190.07	70.65
190.29	50.18
190.509	54.27
190.729	5.12
190.948	54.27
191.168	64.51
191.387	58.37
191.607	60.42
191.826	37.89
192.045	5.12
192.265	23.55
192.484	33.79
192.704	-15.36
192.923	25.6
193.142	111.61
193.362	46.08
193.581	99.33
193.8	60.42
194.02	25.6
194.239	41.98
194.458	52.22
194.678	-15.36
194.897	-9.22
195.116	44.03
195.335	54.27
195.555	78.85
195.774	-29.7
195.993	113.66
196.212	44.03
196.432	50.18
196.651	-15.36
196.87	48.13
197.089	101.37
197.308	27.65
197.528	1.02
197.747	9.22
197.966	121.85
198.185	80.89
198.404	35.84
198.623	58.37
198.842	80.89
199.062	84.99
199.281	48.13
199.5	25.6
199.719	-5.12
199.938	21.5
200.157	-1.02
200.376	29.7
200.595	62.46
200.814	-58.37
201.033	54.27
201.252	46.08
201.471	56.32
201.69	1.02
201.909	29.7
202.128	84.99
202.347	27.65
202.566	21.5
202.785	25.6
203.004	-11.26
203.223	66.56
203.442	-15.36
203.661	13.31
203.879	48.13
204.098	76.8
204.317	-25.6
204.536	50.18
204.755	-7.17
204.974	56.32
205.193	11.26
205.411	78.85
205.63	35.84
205.849	99.33
206.068	60.42
206.287	-27.65
206.505	66.56
206.724	82.94
206.943	105.47
207.162	13.31
207.381	9.22
207.599	82.94
207.818	19.46
208.037	74.75
208.255	5.12
208.474	37.89
208.693	41.98
208.911	37.89
209.13	37.89
209.349	41.98
209.567	78.85
209.786	39.94
210.005	76.8
210.223	13.31
210.442	74.75
210.661	-5.12
210.879	74.75
211.098	-9.22
211.316	23.55
211.535	95.23
211.753	29.7
211.972	70.65
212.191	41.98
212.409	72.7
212.628	13.31
212.846	54.27
213.065	-21.5
213.283	68.61
213.502	31.74
213.72	58.37
213.938	11.26
214.157	19.46
214.375	95.23
214.594	-35.84
214.812	21.5
215.031	95.23
215.249	23.55
215.467	-5.12
215.686	97.28
215.904	33.79
216.122	-41.98
216.341	44.03
216.559	35.84
216.778	33.79
216.996	48.13
217.214	70.65
217.432	23.55
217.651	9.22
217.869	-15.36
218.087	19.46
218.306	78.85
218.524	66.56
218.742	11.26
218.96	87.04
219.179	29.7
219.397	91.13
219.615	68.61
219.833	15.36
220.051	25.6
220.27	50.18
220.488	-15.36
220.706	17.41
220.924	33.79
221.142	52.22
221.36	72.7
221.578	50.18
221.796	27.65
222.015	9.22
222.233	3.07
222.451	25.6
222.669	3.07
222.887	35.84
223.105	13.31
223.323	-1.02
223.541	29.7
223.759	56.32
223.977	25.6
224.195	76.8
224.413	3.07
224.631	35.84
224.849	-54.27
225.067	5.12
225.285	-21.5
225.503	-23.55
225.721	-11.26
225.939	44.03
226.157	-37.89
226.375	111.61
226.592	27.65
226.81	7.17
227.028	41.98
227.246	107.52
227.464	-39.94
227.682	48.13
227.9	101.37
228.117	1.02
228.335	46.08
228.553	-13.31
228.771	3.07
228.989	7.17
229.206	39.94
229.424	56.32
229.642	-5.12
229.86	1.02
230.077	21.5
230.295	31.74
230.513	58.37
230.731	113.66
230.948	74.75
231.166	60.42
231.384	29.7
231.601	1.02
231.819	68.61
232.037	70.65
232.254	23.55
232.472	-3.07
232.689	-25.6
232.907	37.89
233.125	89.09
233.342	1.02
233.56	11.26
233.777	-25.6
233.995	107.52
234.213	31.74
234.43	76.8
234.648	91.13
234.865	54.27
235.083	74.75
235.3	5.12
235.518	41.98
235.735	46.08
235.953	68.61
236.17	31.74
236.388	56.32
236.605	23.55
236.822	23.55
237.04	46.08
237.257	-70.65
237.475	58.37
237.692	84.99
237.909	-9.22
238.127	39.94
238.344	123.9
238.562	25.6
238.779	7.17
238.996	-17.41
239.214	60.42
239.431	54.27
239.648	19.46
239.865	44.03
240.083	44.03
240.3	56.32
240.517	117.76
240.735	48.13
240.952	142.33
241.169	56.32
241.386	52.22
241.603	107.52
241.821	-21.5
242.038	37.89
242.255	13.31
242.472	25.6
242.689	13.31
242.907	99.33
243.124	58.37
243.341	80.89
243.558	13.31
243.775	35.84
243.992	17.41
244.209	13.31
244.426	125.95
244.643	76.8
244.86	66.56
245.078	99.33
245.295	-23.55
245.512	23.55
245.729	-19.46
245.946	-13.31
246.163	19.46
246.38	41.98
246.597	11.26
246.814	13.31
247.031	-60.42
247.248	31.74
247.464	62.46
247.681	64.51
247.898	-33.79
248.115	25.6
248.332	-9.22
248.549	62.46
248.766	87.04
248.983	76.8
249.2	-1.02
249.417	58.37
249.633	76.8
249.85	58.37
250.067	52.22
250.284	56.32
250.501	-5.12
250.717	117.76
250.934	39.94
251.151	101.37
251.368	13.31
251.585	50.18
251.801	17.41
252.018	35.84
252.235	58.37
252.451	93.18
252.668	46.08
252.885	29.7
253.102	-60.42
253.318	91.13
253.535	-15.36
253.752	80.89
253.968	37.89
254.185	-13.31
254.401	25.6
254.618	7.17
254.835	60.42
255.051	25.6
255.268	27.65
255.484	-9.22
255.701	-5.12
255.917	27.65
256.134	-37.89
256.351	60.42
256.567	-9.22
256.784	66.56
257	19.46
257.217	93.18
257.433	50.18
257.65	48.13
257.866	80.89
258.082	29.7
258.299	-27.65
258.515	39.94
258.732	60.42
258.948	50.18
259.165	46.08
259.381	27.65
259.597	35.84
259.814	56.32
260.03	19.46
260.246	27.65
260.463	29.7
260.679	101.37
260.895	91.13
261.112	27.65
261.328	9.22
261.544	23.55
261.761	58.37
261.977	-1.02
262.193	5.12
262.409	74.75
262.626	60.42
262.842	46.08
263.058	74.75
263.274	66.56
263.49	3.07
263.707	103.42
263.923	93.18
264.139	33.79
264.355	-1.02
264.571	11.26
264.787	41.98
265.004	64.51
265.22	74.75
265.436	-7.17
265.652	29.7
265.868	-13.31
266.084	3.07
266.3	48.13
266.516	-15.36
266.732	37.89
266.948	-5.12
267.164	13.31
267.38	5.12
267.596	-50.18
267.812	41.98
268.028	23.55
268.244	44.03
268.46	56.32
268.676	56.32
268.892	7.17
269.108	-35.84
269.324	-62.46
269.54	-23.55
269.756	82.94
269.972	5.12
270.188	27.65
270.403	33.79
270.619	48.13
270.835	37.89
271.051	64.51
271.267	58.37
271.483	41.98
271.698	-52.22
271.914	58.37
272.13	46.08
272.346	5.12
272.562	48.13
272.777	-17.41
272.993	-1.02
273.209	-1.02
273.425	70.65
273.64	39.94
273.856	87.04
274.072	72.7
274.287	52.22
274.503	7.17
274.719	25.6
274.934	13.31
275.15	11.26
275.366	-23.55
275.581	72.7
275.797	58.37
276.012	27.65
276.228	-17.41
276.444	58.37
276.659	-31.74
276.875	15.36
277.09	72.7
277.306	27.65
277.521	72.7
277.737	27.65
277.952	52.22
278.168	44.03
278.383	89.09
278.599	70.65
278.814	66.56
279.03	11.26
279.245	39.94
279.461	76.8
279.676	-11.26
279.892	33.79
280.107	21.5
280.322	-7.17
280.538	15.36
280.753	54.27
280.969	58.37
281.184	-48.13
281.399	78.85
281.615	-7.17
281.83	89.09
282.045	33.79
282.26	46.08
282.476	3.07
282.691	23.55
282.906	25.6
283.122	19.46
283.337	-27.65
283.552	44.03
283.767	-3.07
283.983	62.46
284.198	41.98
284.413	105.47
284.628	11.26
284.843	41.98
285.058	58.37
285.274	62.46
285.489	9.22
285.704	15.36
285.919	3.07
286.134	13.31
286.349	3.07
286.564	-15.36
286.779	62.46
286.995	66.56
287.21	15.36
287.425	25.6
287.64	-17.41
287.855	23.55
288.07	-31.74
288.285	17.41
288.5	97.28
288.715	60.42
288.93	-1.02
289.145	68.61
289.36	74.75
289.575	33.79
289.79	74.75
290.004	70.65
290.219	64.51
290.434	60.42
290.649	52.22
290.864	-27.65
291.079	68.61
291.294	23.55
291.509	87.04
291.724	21.5
291.938	60.42
292.153	15.36
292.368	44.03
292.583	41.98
292.798	68.61
293.012	-15.36
293.227	35.84
293.442	99.33
293.657	113.66
293.871	35.84
294.086	5.12
294.301	54.27
294.516	107.52
294.73	87.04
294.945	-9.22
295.16	27.65
295.374	99.33
295.589	64.51
295.804	21.5
296.018	70.65
296.233	82.94
296.447	97.28
296.662	15.36
296.877	99.33
297.091	109.57
297.306	58.37
297.52	-11.26
297.735	60.42
297.949	21.5
298.164	-3.07
298.378	80.89
298.593	23.55
298.807	64.51
299.022	31.74
299.236	3.07
299.451	37.89
299.665	15.36
299.88	93.18
300.094	-5.12
300.309	-23.55
300.523	5.12
300.737	48.13
300.952	27.65
301.166	1.02
301.381	46.08
301.595	3.07
301.809	31.74
302.024	87.04
302.238	-17.41
302.452	50.18
302.667	50.18
302.881	39.94
303.095	33.79
303.309	80.89
303.524	37.89
303.738	-58.37
303.952	107.52
304.166	72.7
304.381	-54.27
304.595	87.04
304.809	11.26
305.023	-31.74
305.237	107.52
305.452	33.79
305.666	1.02
305.88	130.05
306.094	48.13
306.308	19.46
306.522	50.18
306.736	29.7
306.95	62.46
307.164	-21.5
307.379	46.08
307.593	58.37
307.807	93.18
308.021	97.28
308.235	11.26
308.449	25.6
308.663	80.89
308.877	99.33
309.091	-1.02
309.305	74.75
309.519	68.61
309.733	74.75
309.947	103.42
310.161	50.18
310.374	80.89
310.588	46.08
310.802	115.71
311.016	82.94
311.23	82.94
311.444	15.36
311.658	31.74
311.872	58.37
312.085	52.22
312.299	41.98
312.513	25.6
312.727	99.33
312.941	44.03
313.154	15.36
313.368	58.37
313.582	19.46
313.796	48.13
314.009	99.33
314.223	72.7
314.437	7.17
314.651	41.98
314.864	109.57
315.078	60.42
315.292	50.18
315.505	-3.07
315.719	74.75
315.933	21.5
316.146	56.32
316.36	41.98
316.573	89.09
316.787	17.41
317.001	64.51
317.214	68.61
317.428	44.03
317.641	27.65
317.855	31.74
318.068	41.98
318.282	70.65
318.495	82.94
318.709	70.65
318.922	5.12
319.136	17.41
319.349	95.23
319.563	-5.12
319.776	70.65
319.99	89.09
320.203	-15.36
320.417	64.51
320.63	105.47
320.843	78.85
321.057	19.46
321.27	3.07
321.483	115.71
321.697	70.65
321.91	15.36
322.124	44.03
322.337	44.03
322.55	23.55
322.763	64.51
322.977	-21.5
323.19	31.74
323.403	13.31
323.617	11.26
323.83	74.75
324.043	44.03
324.256	-19.46
324.469	68.61
324.683	-31.74
324.896	-7.17
325.109	-7.17
325.322	5.12
325.535	33.79
325.748	3.07
325.962	56.32
326.175	58.37
326.388	21.5
326.601	-50.18
326.814	29.7
327.027	74.75
327.24	111.61
327.453	107.52
327.666	82.94
327.879	-56.32
328.092	9.22
328.305	111.61
328.518	29.7
328.731	27.65
328.944	-3.07
329.157	27.65
329.37	9.22
329.583	80.89
329.796	52.22
330.009	78.85
330.222	121.85
330.435	113.66
330.648	48.13
330.861	48.13
331.073	84.99
331.286	89.09
331.499	82.94
331.712	68.61
331.925	54.27
332.138	72.7
332.35	113.66
332.563	23.55
332.776	37.89
332.989	21.5
333.202	60.42
333.414	39.94
333.627	97.28
333.84	27.65
334.053	70.65
334.265	-23.55
334.478	-17.41
334.691	119.81
334.903	41.98
335.116	58.37
335.329	27.65
335.541	52.22
335.754	48.13
335.966	-23.55
336.179	15.36
336.392	46.08
336.604	60.42
336.817	68.61
337.029	109.57
337.242	9.22
337.454	-5.12
337.667	84.99
337.88	54.27
338.092	87.04
338.305	68.61
338.517	101.37
338.729	54.27
338.942	-1.02
339.154	31.74
339.367	80.89
339.579	25.6
339.792	80.89
340.004	80.89
340.217	93.18
340.429	74.75
340.641	76.8
340.854	23.55
341.066	48.13
341.278	15.36
341.491	78.85
341.703	48.13
341.915	62.46
342.128	109.57
342.34	31.74
342.552	62.46
342.764	48.13
342.977	150.53
343.189	58.37
343.401	48.13
343.613	19.46
343.826	84.99
344.038	54.27
344.25	17.41
344.462	11.26
344.674	29.7
344.886	60.42
345.099	-17.41
345.311	78.85
345.523	48.13
345.735	37.89
345.947	72.7
346.159	72.7
346.371	-11.26
346.583	-41.98
346.795	74.75
347.007	80.89
347.219	103.42
347.431	9.22
347.643	93.18
347.855	-23.55
348.067	128
348.279	56.32
348.491	115.71
348.703	132.09
348.915	39.94
349.127	7.17
349.339	80.89
349.551	27.65
349.763	119.81
349.975	46.08
350.187	164.86
350.399	89.09
350.61	68.61
350.822	44.03
351.034	52.22
351.246	87.04
351.458	80.89
351.669	7.17
351.881	128
352.093	58.37
352.305	15.36
352.517	91.13
352.728	125.95
352.94	76.8
353.152	39.94
353.363	56.32
353.575	101.37
353.787	66.56
353.999	39.94
354.21	70.65
354.422	74.75
354.633	78.85
354.845	64.51
355.057	87.04
355.268	50.18
355.48	7.17
355.692	39.94
355.903	52.22
356.115	56.32
356.326	25.6
356.538	101.37
356.749	115.71
356.961	89.09
357.172	60.42
357.384	66.56
357.595	76.8
357.807	17.41
358.018	33.79
358.23	11.26
358.441	80.89
358.653	48.13
358.864	60.42
359.075	5.12
359.287	29.7
359.498	62.46
359.709	121.85
359.921	97.28
360.132	58.37
360.344	25.6
360.555	44.03
360.766	50.18
360.977	33.79
361.189	105.47
361.4	119.81
361.611	52.22
361.823	113.66
362.034	-7.17
362.245	80.89
362.456	78.85
362.667	39.94
362.879	-3.07
363.09	68.61
363.301	91.13
363.512	37.89
363.723	66.56
363.935	52.22
364.146	74.75
364.357	80.89
364.568	93.18
364.779	27.65
364.99	99.33
365.201	107.52
365.412	64.51
365.623	27.65
365.834	21.5
366.045	91.13
366.256	62.46
366.467	27.65
366.678	115.71
366.889	-11.26
367.1	41.98
367.311	-3.07
367.522	23.55
367.733	82.94
367.944	1.02
368.155	29.7
368.366	25.6
368.577	-1.02
368.788	56.32
368.999	52.22
369.209	39.94
369.42	95.23
369.631	89.09
369.842	68.61
370.053	72.7
370.264	46.08
370.474	-11.26
370.685	54.27
370.896	-21.5
371.107	109.57
371.317	74.75
371.528	19.46
371.739	93.18
371.95	68.61
372.16	19.46
372.371	107.52
372.582	54.27
372.792	33.79
373.003	64.51
373.214	31.74
373.424	103.42
373.635	39.94
373.846	99.33
374.056	101.37
374.267	56.32
374.477	29.7
374.688	52.22
374.898	74.75
375.109	56.32
375.319	48.13
375.53	35.84
375.74	9.22
375.951	52.22
376.161	72.7
376.372	66.56
376.582	76.8
376.793	56.32
377.003	48.13
377.214	58.37
377.424	97.28
377.635	60.42
377.845	31.74
378.055	76.8
378.266	-48.13
378.476	23.55
378.686	44.03
378.897	21.5
379.107	-9.22
379.317	41.98
379.528	72.7
379.738	64.51
379.948	74.75
380.158	25.6
380.369	11.26
380.579	33.79
380.789	25.6
380.999	50.18
381.21	99.33
381.42	19.46
381.63	31.74
381.84	39.94
382.05	-17.41
382.261	46.08
382.471	84.99
382.681	66.56
382.891	99.33
383.101	95.23
383.311	-9.22
383.521	64.51
383.731	142.33
383.941	82.94
384.151	62.46
384.361	-39.94
384.571	13.31
384.781	50.18
384.991	89.09
385.201	105.47
385.411	80.89
385.621	91.13
385.831	37.89
386.041	54.27
386.251	80.89
386.461	111.61
386.671	54.27
386.881	97.28
387.091	74.75
387.301	5.12
387.511	82.94
387.72	103.42
387.93	50.18
388.14	80.89
388.35	-15.36
388.56	162.81
388.769	23.55
388.979	82.94
389.189	95.23
389.399	68.61
389.609	125.95
389.818	101.37
390.028	68.61
390.238	78.85
390.447	107.52
390.657	125.95
390.867	19.46
391.076	52.22
391.286	113.66
391.496	46.08
391.705	72.7
391.915	91.13
392.125	168.96
392.334	62.46
392.544	84.99
392.753	48.13
392.963	117.76
393.172	-11.26
393.382	91.13
393.591	80.89
393.801	46.08
394.01	48.13
394.22	91.13
394.429	44.03
394.639	39.94
394.848	113.66
395.058	56.32
395.267	171.01
395.477	128
395.686	132.09
395.895	136.19
396.105	64.51
396.314	64.51
396.524	39.94
396.733	48.13
396.942	185.34
397.152	103.42
397.361	87.04
397.57	168.96
397.78	97.28
397.989	103.42
398.198	140.29
398.407	84.99
398.617	130.05
398.826	111.61
399.035	214.01
399.244	107.52
399.453	27.65
399.663	128
399.872	181.25
400.081	142.33
400.29	39.94
400.499	171.01
400.708	209.92
400.917	173.05
401.127	107.52
401.336	58.37
401.545	123.9
401.754	123.9
401.963	224.25
402.172	132.09
402.381	97.28
402.59	173.05
402.799	117.76
403.008	111.61
403.217	191.49
403.426	103.42
403.635	150.53
403.844	168.96
404.053	156.67
404.262	195.58
404.471	140.29
404.68	158.72
404.888	171.01
405.097	142.33
405.306	197.63
405.515	203.77
405.724	162.81
405.933	224.25
406.142	201.72
406.35	175.1
406.559	166.91
406.768	238.59
406.977	230.4
407.185	244.73
407.394	205.82
407.603	252.92
407.812	244.73
408.02	248.83
408.229	295.93
408.438	238.59
408.646	236.54
408.855	308.22
409.064	269.31
409.272	295.93
409.481	361.47
409.69	293.88
409.898	293.88
410.107	383.99
410.315	381.95
410.524	371.71
410.733	357.37
410.941	457.72
411.15	424.95
411.358	431.1
411.567	449.53
411.775	386.04
411.984	476.15
412.192	404.47
412.401	424.95
412.609	521.21
412.818	504.82
413.026	492.54
413.234	615.41
413.443	615.41
413.651	562.17
413.86	506.87
414.068	621.56
414.276	644.09
414.485	709.62
414.693	642.04
414.901	795.64
415.11	691.19
415.318	678.9
415.526	836.6
415.734	875.51
415.943	807.92
416.151	885.75
416.359	936.95
416.567	941.04
416.776	916.47
416.984	1016.82
417.192	1117.17
417.4	1117.17
417.608	1143.79
417.817	1242.09
418.025	1164.27
418.233	1305.58
418.441	1330.16
418.649	1332.2
418.857	1428.46
419.065	1457.13
419.273	1453.03
419.481	1489.9
419.689	1661.93
419.897	1571.82
420.105	1666.02
420.313	1709.03
420.521	1815.52
420.729	1891.3
420.937	1817.57
421.145	1856.48
421.353	2096.1
421.561	2145.25
421.769	2245.6
421.977	2360.28
422.185	2243.55
422.393	2393.05
422.601	2546.65
422.809	2503.64
423.017	2503.64
423.224	2620.38
423.432	2769.88
423.64	2757.59
423.848	3056.59
424.056	3085.26
424.263	3206.1
424.471	3185.62
424.679	3259.34
424.887	3484.62
425.094	3466.19
425.302	3570.63
425.51	3703.75
425.718	3720.14
425.925	3945.41
426.133	4012.99
426.341	4127.68
426.548	4508.6
426.756	4328.38
426.964	4615.1
427.171	4809.65
427.379	4877.24
427.586	4965.3
427.794	5065.65
428.001	5338.03
428.209	5612.46
428.417	5391.28
428.624	5866.41
428.832	5944.23
429.039	5913.51
429.247	5874.6
429.454	6374.3
429.662	6867.86
429.869	6347.68
430.076	6800.28
430.284	6605.72
430.491	6921.11
430.699	7340.94
430.906	7304.08
431.114	7463.82
431.321	7783.31
431.528	7912.33
431.736	8452.99
431.943	8807.29
432.15	8518.53
432.358	8543.1
432.565	9220.98
432.772	9051
432.979	9569.13
433.187	9800.55
433.394	9827.18
433.601	10152.81
433.808	10656.61
434.016	10318.69
434.223	10992.47
434.43	11766.6
434.637	11295.57
434.844	11983.69
435.052	12127.05
435.259	12108.62
435.466	12319.56
435.673	12016.46
435.88	13042.49
436.087	13517.62
436.294	13691.7
436.501	13304.63
436.708	13579.06
436.915	14136.1
437.122	14582.56
437.329	14633.76
437.537	15211.29
437.743	15399.7
437.95	15203.1
438.157	16007.95
438.364	16677.63
438.571	16395.01
438.778	16759.55
438.985	18010.86
439.192	17363.7
439.399	17857.26
439.606	17615.6
439.813	18588.39
440.02	19708.63
440.227	19507.93
440.433	19124.96
440.64	19983.06
440.847	19712.72
441.054	20392.65
441.261	21648.05
441.467	21377.72
441.674	21787.32
441.881	22713
442.088	22438.57
442.294	22336.17
442.501	23126.69
442.708	23503.51
442.914	24021.65
443.121	25455.23
443.328	24683.14
443.534	26286.7
443.741	25655.93
443.948	25320.06
444.154	27136.61
444.361	27181.67
444.568	27273.82
444.774	27304.54
444.981	27482.72
445.187	28502.61
445.394	29446.72
445.6	29153.86
445.807	31963.67
446.013	30618.16
446.22	31136.29
446.426	32209.43
446.633	32490
446.839	33491.46
447.046	32639.5
447.252	34079.22
447.459	34195.96
447.665	33929.72
447.871	36010.46
448.078	37272.01
448.284	35439.08
448.491	36086.23
448.697	37886.4
448.903	38414.77
449.11	38576.56
449.316	37644.74
449.522	38388.15
449.728	39410.09
449.935	40073.63
450.141	39852.45
450.347	40767.89
450.553	39240.11
450.76	39686.56
450.966	40935.82
451.172	40581.52
451.378	41642.37
451.584	40747.41
451.791	42420.6
451.997	41310.6
452.203	42123.65
452.409	42436.98
452.615	42109.31
452.821	40497.56
453.027	39969.18
453.233	42013.05
453.44	40524.18
453.646	41171.34
453.852	41255.31
454.058	41838.98
454.264	40288.67
454.47	41228.68
454.676	39752.1
454.882	41238.92
455.088	37773.76
455.294	38242.74
455.5	38666.67
455.705	39084.46
455.911	37577.15
456.117	36837.84
456.323	36401.62
456.529	34562.54
456.735	36047.32
456.941	35181.03
457.147	34402.8
457.352	33610.24
457.558	33266.18
457.764	32815.63
457.97	32375.31
458.176	31902.23
458.381	31738.4
458.587	30245.43
458.793	30173.75
458.999	28643.91
459.204	30698.03
459.41	29573.69
459.616	27898.45
459.821	27808.34
460.027	27611.74
460.233	26972.77
460.438	25866.87
460.644	26022.51
460.85	24949.38
461.055	24859.27
461.261	24326.8
461.466	22698.66
461.672	21906.1
461.878	23521.95
462.083	21828.27
462.289	21572.28
462.494	21154.49
462.7	20478.66
462.905	19606.23
463.111	20536.01
463.316	20331.21
463.522	20142.8
463.727	19782.35
463.932	20069.07
464.138	19790.55
464.343	19985.1
464.549	19579.61
464.754	19948.24
464.959	19682
465.165	19727.06
465.37	19104.48
465.575	18340.58
465.781	19055.33
465.986	19321.56
466.191	18510.57
466.397	18186.99
466.602	17111.8
466.807	17935.09
467.012	18045.68
467.218	17867.5
467.423	17767.15
467.628	17568.5
467.833	18375.4
