Data from USB4F104151__35__12-00-43-352.txt Node

Date: Fri Mar 14 12:00:43 EDT 2025
User: louis
Spectrometer: USB4F10415
Trigger mode: 4
Integration Time (sec): 2.000000E-2
Scans to average: 1
Electric dark correction enabled: true
Nonlinearity correction enabled: false
Boxcar width: 0
XAxis mode: Wavelengths
Number of Pixels in Spectrum: 3648
>>>>>Begin Spectral Data<<<<<
178.204	-50.18
178.424	-50.18
178.644	-50.18
178.864	-52.22
179.084	-1.02
179.304	41.98
179.524	-33.79
179.744	58.37
179.964	5.12
180.184	-25.6
180.404	76.8
180.624	-72.7
180.844	31.74
181.064	-21.5
181.283	-62.46
181.503	17.41
181.723	-15.36
181.943	-97.28
182.163	-17.41
182.383	87.04
182.602	23.55
182.822	105.47
183.042	37.89
183.262	21.5
183.482	29.7
183.701	-13.31
183.921	56.32
184.141	31.74
184.361	13.31
184.58	44.03
184.8	-17.41
185.02	25.6
185.239	82.94
185.459	5.12
185.679	41.98
185.898	41.98
186.118	62.46
186.338	31.74
186.557	62.46
186.777	41.98
186.997	17.41
187.216	31.74
187.436	70.65
187.655	54.27
187.875	105.47
188.095	25.6
188.314	66.56
188.534	91.13
188.753	29.7
188.973	41.98
189.192	39.94
189.412	58.37
189.631	78.85
189.851	29.7
190.07	72.7
190.29	37.89
190.509	23.55
190.729	39.94
190.948	37.89
191.168	142.33
191.387	70.65
191.607	-11.26
191.826	-5.12
192.045	68.61
192.265	-48.13
192.484	17.41
192.704	7.17
192.923	-33.79
193.142	29.7
193.362	54.27
193.581	27.65
193.8	72.7
194.02	78.85
194.239	74.75
194.458	-48.13
194.678	-15.36
194.897	33.79
195.116	-15.36
195.335	-9.22
195.555	52.22
195.774	48.13
195.993	78.85
196.212	52.22
196.432	84.99
196.651	111.61
196.87	-19.46
197.089	93.18
197.308	19.46
197.528	74.75
197.747	1.02
197.966	-1.02
198.185	29.7
198.404	95.23
198.623	44.03
198.842	37.89
199.062	-15.36
199.281	-21.5
199.5	72.7
199.719	62.46
199.938	50.18
200.157	62.46
200.376	23.55
200.595	-29.7
200.814	23.55
201.033	78.85
201.252	93.18
201.471	62.46
201.69	35.84
201.909	105.47
202.128	35.84
202.347	13.31
202.566	-64.51
202.785	19.46
203.004	19.46
203.223	-15.36
203.442	44.03
203.661	44.03
203.879	99.33
204.098	62.46
204.317	39.94
204.536	109.57
204.755	33.79
204.974	-33.79
205.193	17.41
205.411	89.09
205.63	39.94
205.849	25.6
206.068	50.18
206.287	21.5
206.505	111.61
206.724	93.18
206.943	-27.65
207.162	-56.32
207.381	142.33
207.599	1.02
207.818	31.74
208.037	23.55
208.255	44.03
208.474	39.94
208.693	60.42
208.911	44.03
209.13	29.7
209.349	48.13
209.567	21.5
209.786	44.03
210.005	41.98
210.223	66.56
210.442	-25.6
210.661	29.7
210.879	48.13
211.098	35.84
211.316	-5.12
211.535	84.99
211.753	9.22
211.972	76.8
212.191	-21.5
212.409	17.41
212.628	52.22
212.846	72.7
213.065	54.27
213.283	-46.08
213.502	101.37
213.72	72.7
213.938	31.74
214.157	29.7
214.375	17.41
214.594	66.56
214.812	11.26
215.031	-31.74
215.249	33.79
215.467	-21.5
215.686	21.5
215.904	76.8
216.122	54.27
216.341	62.46
216.559	3.07
216.778	62.46
216.996	64.51
217.214	29.7
217.432	25.6
217.651	-11.26
217.869	-31.74
218.087	25.6
218.306	50.18
218.524	25.6
218.742	-27.65
218.96	52.22
219.179	29.7
219.397	-3.07
219.615	25.6
219.833	29.7
220.051	48.13
220.27	9.22
220.488	-15.36
220.706	95.23
220.924	31.74
221.142	19.46
221.36	35.84
221.578	64.51
221.796	11.26
222.015	50.18
222.233	9.22
222.451	58.37
222.669	74.75
222.887	66.56
223.105	-62.46
223.323	19.46
223.541	11.26
223.759	70.65
223.977	84.99
224.195	109.57
224.413	3.07
224.631	64.51
224.849	21.5
225.067	62.46
225.285	58.37
225.503	82.94
225.721	7.17
225.939	-35.84
226.157	101.37
226.375	146.43
226.592	21.5
226.81	-7.17
227.028	144.38
227.246	87.04
227.464	-1.02
227.682	-7.17
227.9	84.99
228.117	99.33
228.335	7.17
228.553	17.41
228.771	3.07
228.989	140.29
229.206	17.41
229.424	21.5
229.642	7.17
229.86	70.65
230.077	68.61
230.295	64.51
230.513	50.18
230.731	44.03
230.948	58.37
231.166	117.76
231.384	46.08
231.601	15.36
231.819	58.37
232.037	56.32
232.254	-62.46
232.472	119.81
232.689	5.12
232.907	74.75
233.125	50.18
233.342	93.18
233.56	33.79
233.777	31.74
233.995	23.55
234.213	9.22
234.43	17.41
234.648	50.18
234.865	87.04
235.083	76.8
235.3	5.12
235.518	62.46
235.735	23.55
235.953	68.61
236.17	54.27
236.388	44.03
236.605	-7.17
236.822	125.95
237.04	23.55
237.257	66.56
237.475	52.22
237.692	31.74
237.909	41.98
238.127	33.79
238.344	66.56
238.562	13.31
238.779	-21.5
238.996	9.22
239.214	56.32
239.431	19.46
239.648	-93.18
239.865	13.31
240.083	-3.07
240.3	33.79
240.517	62.46
240.735	13.31
240.952	95.23
241.169	-21.5
241.386	25.6
241.603	29.7
241.821	54.27
242.038	68.61
242.255	15.36
242.472	70.65
242.689	37.89
242.907	48.13
243.124	39.94
243.341	33.79
243.558	31.74
243.775	-62.46
243.992	3.07
244.209	44.03
244.426	35.84
244.643	121.85
244.86	31.74
245.078	5.12
245.295	-1.02
245.512	3.07
245.729	25.6
245.946	29.7
246.163	7.17
246.38	23.55
246.597	62.46
246.814	78.85
247.031	-21.5
247.248	25.6
247.464	101.37
247.681	41.98
247.898	80.89
248.115	66.56
248.332	21.5
248.549	66.56
248.766	25.6
248.983	115.71
249.2	89.09
249.417	62.46
249.633	62.46
249.85	87.04
250.067	60.42
250.284	46.08
250.501	35.84
250.717	29.7
250.934	15.36
251.151	-21.5
251.368	46.08
251.585	44.03
251.801	17.41
252.018	41.98
252.235	97.28
252.451	7.17
252.668	-13.31
252.885	11.26
253.102	29.7
253.318	87.04
253.535	3.07
253.752	52.22
253.968	-21.5
254.185	125.95
254.401	1.02
254.618	-17.41
254.835	41.98
255.051	31.74
255.268	105.47
255.484	-27.65
255.701	136.19
255.917	46.08
256.134	15.36
256.351	39.94
256.567	-1.02
256.784	17.41
257	31.74
257.217	37.89
257.433	78.85
257.65	9.22
257.866	52.22
258.082	46.08
258.299	21.5
258.515	39.94
258.732	-27.65
258.948	3.07
259.165	48.13
259.381	33.79
259.597	11.26
259.814	111.61
260.03	31.74
260.246	37.89
260.463	41.98
260.679	107.52
260.895	72.7
261.112	37.89
261.328	29.7
261.544	-1.02
261.761	101.37
261.977	7.17
262.193	13.31
262.409	3.07
262.626	-31.74
262.842	13.31
263.058	78.85
263.274	103.42
263.49	89.09
263.707	89.09
263.923	39.94
264.139	107.52
264.355	39.94
264.571	41.98
264.787	113.66
265.004	93.18
265.22	91.13
265.436	39.94
265.652	41.98
265.868	25.6
266.084	46.08
266.3	39.94
266.516	80.89
266.732	121.85
266.948	23.55
267.164	130.05
267.38	13.31
267.596	121.85
267.812	134.14
268.028	29.7
268.244	21.5
268.46	72.7
268.676	33.79
268.892	84.99
269.108	-41.98
269.324	41.98
269.54	-33.79
269.756	-7.17
269.972	-37.89
270.188	5.12
270.403	58.37
270.619	99.33
270.835	56.32
271.051	-7.17
271.267	128
271.483	37.89
271.698	146.43
271.914	48.13
272.13	39.94
272.346	54.27
272.562	3.07
272.777	52.22
272.993	66.56
273.209	52.22
273.425	19.46
273.64	46.08
273.856	33.79
274.072	25.6
274.287	5.12
274.503	44.03
274.719	84.99
274.934	48.13
275.15	41.98
275.366	-11.26
275.581	52.22
275.797	44.03
276.012	13.31
276.228	-44.03
276.444	60.42
276.659	13.31
276.875	-31.74
277.09	46.08
277.306	7.17
277.521	35.84
277.737	130.05
277.952	37.89
278.168	128
278.383	78.85
278.599	82.94
278.814	64.51
279.03	-17.41
279.245	111.61
279.461	15.36
279.676	52.22
279.892	-25.6
280.107	62.46
280.322	60.42
280.538	-9.22
280.753	-3.07
280.969	35.84
281.184	87.04
281.399	37.89
281.615	76.8
281.83	13.31
282.045	31.74
282.26	89.09
282.476	-5.12
282.691	140.29
282.906	25.6
283.122	99.33
283.337	74.75
283.552	72.7
283.767	-21.5
283.983	35.84
284.198	17.41
284.413	78.85
284.628	25.6
284.843	138.24
285.058	31.74
285.274	48.13
285.489	70.65
285.704	78.85
285.919	46.08
286.134	-37.89
286.349	66.56
286.564	84.99
286.779	70.65
286.995	23.55
287.21	37.89
287.425	41.98
287.64	7.17
287.855	52.22
288.07	52.22
288.285	72.7
288.5	7.17
288.715	93.18
288.93	-62.46
289.145	-17.41
289.36	-15.36
289.575	37.89
289.79	72.7
290.004	-41.98
290.219	46.08
290.434	5.12
290.649	13.31
290.864	37.89
291.079	17.41
291.294	44.03
291.509	58.37
291.724	25.6
291.938	17.41
292.153	52.22
292.368	70.65
292.583	60.42
292.798	-5.12
293.012	72.7
293.227	13.31
293.442	46.08
293.657	33.79
293.871	52.22
294.086	13.31
294.301	64.51
294.516	111.61
294.73	5.12
294.945	-9.22
295.16	52.22
295.374	68.61
295.589	56.32
295.804	31.74
296.018	19.46
296.233	23.55
296.447	74.75
296.662	-5.12
296.877	27.65
297.091	48.13
297.306	103.42
297.52	37.89
297.735	60.42
297.949	66.56
298.164	15.36
298.378	56.32
298.593	31.74
298.807	-35.84
299.022	33.79
299.236	23.55
299.451	29.7
299.665	1.02
299.88	33.79
300.094	-9.22
300.309	62.46
300.523	35.84
300.737	13.31
300.952	56.32
301.166	39.94
301.381	7.17
301.595	66.56
301.809	70.65
302.024	19.46
302.238	103.42
302.452	35.84
302.667	9.22
302.881	99.33
303.095	21.5
303.309	64.51
303.524	19.46
303.738	68.61
303.952	58.37
304.166	25.6
304.381	11.26
304.595	82.94
304.809	44.03
305.023	-31.74
305.237	17.41
305.452	78.85
305.666	23.55
305.88	44.03
306.094	60.42
306.308	107.52
306.522	70.65
306.736	103.42
306.95	13.31
307.164	44.03
307.379	-3.07
307.593	107.52
307.807	146.43
308.021	97.28
308.235	66.56
308.449	39.94
308.663	1.02
308.877	156.67
309.091	-13.31
309.305	56.32
309.519	33.79
309.733	87.04
309.947	113.66
310.161	52.22
310.374	56.32
310.588	72.7
310.802	15.36
311.016	46.08
311.23	15.36
311.444	-35.84
311.658	39.94
311.872	91.13
312.085	21.5
312.299	107.52
312.513	52.22
312.727	125.95
312.941	21.5
313.154	25.6
313.368	17.41
313.582	115.71
313.796	23.55
314.009	29.7
314.223	82.94
314.437	123.9
314.651	31.74
314.864	101.37
315.078	62.46
315.292	-1.02
315.505	-23.55
315.719	19.46
315.933	9.22
316.146	-3.07
316.36	35.84
316.573	125.95
316.787	54.27
317.001	44.03
317.214	9.22
317.428	103.42
317.641	41.98
317.855	-9.22
318.068	50.18
318.282	37.89
318.495	113.66
318.709	46.08
318.922	64.51
319.136	66.56
319.349	64.51
319.563	54.27
319.776	80.89
319.99	33.79
320.203	23.55
320.417	19.46
320.63	68.61
320.843	109.57
321.057	23.55
321.27	74.75
321.483	132.09
321.697	39.94
321.91	87.04
322.124	68.61
322.337	128
322.55	101.37
322.763	84.99
322.977	66.56
323.19	13.31
323.403	68.61
323.617	48.13
323.83	78.85
324.043	-13.31
324.256	39.94
324.469	-7.17
324.683	19.46
324.896	93.18
325.109	80.89
325.322	-23.55
325.535	78.85
325.748	35.84
325.962	29.7
326.175	33.79
326.388	1.02
326.601	168.96
326.814	80.89
327.027	21.5
327.24	103.42
327.453	25.6
327.666	97.28
327.879	140.29
328.092	35.84
328.305	25.6
328.518	99.33
328.731	60.42
328.944	50.18
329.157	87.04
329.37	142.33
329.583	50.18
329.796	68.61
330.009	117.76
330.222	-23.55
330.435	95.23
330.648	31.74
330.861	15.36
331.073	97.28
331.286	62.46
331.499	60.42
331.712	27.65
331.925	-41.98
332.138	44.03
332.35	19.46
332.563	39.94
332.776	64.51
332.989	17.41
333.202	31.74
333.414	3.07
333.627	89.09
333.84	70.65
334.053	25.6
334.265	111.61
334.478	48.13
334.691	52.22
334.903	76.8
335.116	31.74
335.329	31.74
335.541	70.65
335.754	60.42
335.966	27.65
336.179	80.89
336.392	37.89
336.604	132.09
336.817	46.08
337.029	37.89
337.242	29.7
337.454	84.99
337.667	52.22
337.88	99.33
338.092	115.71
338.305	58.37
338.517	54.27
338.729	89.09
338.942	-15.36
339.154	68.61
339.367	31.74
339.579	93.18
339.792	68.61
340.004	91.13
340.217	9.22
340.429	109.57
340.641	-19.46
340.854	97.28
341.066	39.94
341.278	70.65
341.491	72.7
341.703	37.89
341.915	44.03
342.128	146.43
342.34	56.32
342.552	29.7
342.764	84.99
342.977	35.84
343.189	17.41
343.401	93.18
343.613	-21.5
343.826	76.8
344.038	35.84
344.25	-7.17
344.462	21.5
344.674	76.8
344.886	-11.26
345.099	107.52
345.311	80.89
345.523	25.6
345.735	-3.07
345.947	44.03
346.159	58.37
346.371	15.36
346.583	-46.08
346.795	66.56
347.007	13.31
347.219	74.75
347.431	80.89
347.643	109.57
347.855	70.65
348.067	54.27
348.279	76.8
348.491	107.52
348.703	62.46
348.915	56.32
349.127	58.37
349.339	70.65
349.551	33.79
349.763	52.22
349.975	25.6
350.187	27.65
350.399	72.7
350.61	41.98
350.822	27.65
351.034	-7.17
351.246	99.33
351.458	89.09
351.669	107.52
351.881	128
352.093	33.79
352.305	82.94
352.517	33.79
352.728	11.26
352.94	39.94
353.152	101.37
353.363	87.04
353.575	54.27
353.787	111.61
353.999	50.18
354.21	37.89
354.422	119.81
354.633	48.13
354.845	76.8
355.057	27.65
355.268	60.42
355.48	93.18
355.692	21.5
355.903	19.46
356.115	58.37
356.326	50.18
356.538	87.04
356.749	11.26
356.961	62.46
357.172	93.18
357.384	19.46
357.595	113.66
357.807	31.74
358.018	54.27
358.23	64.51
358.441	101.37
358.653	140.29
358.864	48.13
359.075	74.75
359.287	123.9
359.498	103.42
359.709	113.66
359.921	72.7
360.132	-13.31
360.344	46.08
360.555	78.85
360.766	-5.12
360.977	19.46
361.189	62.46
361.4	54.27
361.611	87.04
361.823	80.89
362.034	99.33
362.245	58.37
362.456	70.65
362.667	33.79
362.879	23.55
363.09	39.94
363.301	89.09
363.512	99.33
363.723	54.27
363.935	87.04
364.146	115.71
364.357	62.46
364.568	74.75
364.779	35.84
364.99	54.27
365.201	87.04
365.412	52.22
365.623	64.51
365.834	44.03
366.045	-9.22
366.256	84.99
366.467	60.42
366.678	37.89
366.889	115.71
367.1	3.07
367.311	84.99
367.522	44.03
367.733	107.52
367.944	93.18
368.155	46.08
368.366	44.03
368.577	62.46
368.788	25.6
368.999	31.74
369.209	103.42
369.42	68.61
369.631	70.65
369.842	138.24
370.053	44.03
370.264	87.04
370.474	80.89
370.685	146.43
370.896	80.89
371.107	76.8
371.317	113.66
371.528	-5.12
371.739	109.57
371.95	48.13
372.16	72.7
372.371	46.08
372.582	89.09
372.792	82.94
373.003	91.13
373.214	19.46
373.424	58.37
373.635	44.03
373.846	109.57
374.056	52.22
374.267	101.37
374.477	31.74
374.688	68.61
374.898	39.94
375.109	48.13
375.319	58.37
375.53	33.79
375.74	39.94
375.951	-15.36
376.161	62.46
376.372	97.28
376.582	37.89
376.793	87.04
377.003	35.84
377.214	35.84
377.424	35.84
377.635	66.56
377.845	23.55
378.055	105.47
378.266	35.84
378.476	82.94
378.686	113.66
378.897	113.66
379.107	125.95
379.317	72.7
379.528	113.66
379.738	95.23
379.948	25.6
380.158	62.46
380.369	84.99
380.579	119.81
380.789	3.07
380.999	95.23
381.21	109.57
381.42	76.8
381.63	84.99
381.84	29.7
382.05	158.72
382.261	166.91
382.471	136.19
382.681	33.79
382.891	111.61
383.101	37.89
383.311	64.51
383.521	52.22
383.731	87.04
383.941	101.37
384.151	39.94
384.361	54.27
384.571	111.61
384.781	58.37
384.991	84.99
385.201	48.13
385.411	58.37
385.621	105.47
385.831	103.42
386.041	76.8
386.251	70.65
386.461	111.61
386.671	123.9
386.881	154.62
387.091	76.8
387.301	119.81
387.511	78.85
387.72	144.38
387.93	125.95
388.14	144.38
388.35	66.56
388.56	7.17
388.769	87.04
388.979	80.89
389.189	9.22
389.399	101.37
389.609	60.42
389.818	179.2
390.028	95.23
390.238	136.19
390.447	58.37
390.657	84.99
390.867	99.33
391.076	76.8
391.286	58.37
391.496	125.95
391.705	91.13
391.915	111.61
392.125	152.57
392.334	95.23
392.544	105.47
392.753	72.7
392.963	56.32
393.172	111.61
393.382	93.18
393.591	91.13
393.801	80.89
394.01	117.76
394.22	117.76
394.429	152.57
394.639	39.94
394.848	105.47
395.058	101.37
395.267	148.48
395.477	164.86
395.686	89.09
395.895	261.12
396.105	132.09
396.314	111.61
396.524	68.61
396.733	84.99
396.942	148.48
397.152	123.9
397.361	168.96
397.57	105.47
397.78	150.53
397.989	156.67
398.198	164.86
398.407	103.42
398.617	101.37
398.826	136.19
399.035	144.38
399.244	175.1
399.453	168.96
399.663	201.72
399.872	119.81
400.081	138.24
400.29	222.2
400.499	148.48
400.708	183.29
400.917	185.34
401.127	191.49
401.336	113.66
401.545	216.06
401.754	211.96
401.963	138.24
402.172	80.89
402.381	121.85
402.59	140.29
402.799	162.81
403.008	207.87
403.217	134.14
403.426	140.29
403.635	132.09
403.844	134.14
404.053	228.35
404.262	248.83
404.471	160.77
404.68	142.33
404.888	162.81
405.097	89.09
405.306	207.87
405.515	171.01
405.724	173.05
405.933	211.96
406.142	250.88
406.35	199.68
406.559	252.92
406.768	267.26
406.977	312.32
407.185	197.63
407.394	193.53
407.603	308.22
407.812	242.68
408.02	349.18
408.229	383.99
408.438	349.18
408.646	214.01
408.855	369.66
409.064	314.36
409.272	332.79
409.481	379.9
409.69	244.73
409.898	369.66
410.107	367.61
410.315	420.86
410.524	435.19
410.733	439.29
410.941	443.39
411.15	437.24
411.358	455.67
411.567	656.37
411.775	508.92
411.984	586.74
412.192	607.22
412.401	521.21
412.609	631.8
412.818	695.29
413.026	644.09
413.234	576.5
413.443	623.61
413.651	656.37
413.86	775.16
414.068	840.69
414.276	803.83
414.485	756.72
414.693	865.27
414.901	990.19
415.11	822.26
415.318	930.8
415.526	1022.96
415.734	1065.97
415.943	1123.31
416.151	1068.02
416.359	1131.5
416.567	1119.21
416.776	1291.24
416.984	1297.39
417.192	1375.21
417.4	1281
417.608	1328.11
417.817	1358.83
418.025	1487.85
418.233	1608.68
418.441	1580.01
418.649	1534.95
418.857	1625.06
419.065	1709.03
419.273	1672.17
419.481	1838.05
419.689	1911.78
419.897	2012.13
420.105	1985.51
420.313	1995.75
420.521	2159.58
420.729	2135.01
420.937	2362.33
421.145	2444.25
421.353	2460.63
421.561	2556.89
421.769	2759.64
421.977	2749.4
422.185	2819.03
422.393	2935.76
422.601	3154.9
422.809	3163.09
423.017	3171.28
423.224	3339.21
423.432	3314.64
423.64	3306.45
423.848	3587.02
424.056	3613.64
424.263	3941.32
424.471	3939.27
424.679	3869.64
424.887	4068.29
425.094	4350.91
425.302	4266.94
425.51	4395.96
425.718	4522.94
425.925	4649.91
426.133	4944.82
426.341	5143.47
426.548	5360.56
426.756	5471.15
426.964	5475.24
427.171	5841.83
427.379	5860.26
427.586	5991.33
427.794	6263.71
428.001	6396.83
428.209	6753.18
428.417	6669.21
428.624	6949.78
428.832	7250.83
429.039	7048.08
429.247	7136.15
429.454	7826.31
429.662	8397.7
429.869	7699.34
430.076	8278.91
430.284	8092.55
430.491	8563.58
430.699	8842.11
430.906	8876.92
431.114	8948.6
431.321	9530.22
431.528	9476.98
431.736	10195.81
431.943	10703.71
432.15	10208.1
432.358	10324.83
432.565	10888.03
432.772	10742.62
432.979	11465.55
433.187	11721.55
433.394	11627.34
433.601	12626.75
433.808	12645.18
434.016	12464.96
434.223	12899.13
434.43	14089
434.637	13452.08
434.844	14664.48
435.052	14723.87
435.259	14713.63
435.466	14924.57
435.673	14854.94
435.88	15641.36
436.087	16478.98
436.294	16392.97
436.501	16309
436.708	16337.67
436.915	16984.83
437.122	17685.23
437.329	17674.99
437.537	18324.2
437.743	18459.37
437.95	18369.26
438.157	19317.47
438.364	20073.17
438.571	20026.06
438.778	20200.14
438.985	22155.95
439.192	21109.44
439.399	21381.82
439.606	21648.05
439.813	22606.5
440.02	24001.17
440.227	23423.64
440.433	23503.51
440.64	23870.1
440.847	23943.83
441.054	24355.47
441.261	25815.67
441.467	26129.01
441.674	26342
441.881	27456.09
442.088	27337.31
442.294	27216.48
442.501	27611.74
442.708	28105.3
442.914	29303.36
443.121	30405.17
443.328	29575.74
443.534	31777.31
443.741	30855.72
443.948	30341.68
444.154	32913.93
444.361	32465.42
444.568	32782.86
444.774	33126.92
444.981	33081.86
445.187	34335.22
445.394	35613.15
445.6	35205.61
445.807	38201.79
446.013	37030.35
446.22	37419.46
446.426	38988.21
446.633	39076.27
446.839	40487.32
447.046	38961.58
447.252	41529.73
447.459	41351.56
447.665	40995.21
447.871	42479.99
448.078	44503.38
448.284	42529.14
448.491	43907.43
448.697	45085.01
448.903	45883.72
449.11	46049.6
449.316	44921.17
449.522	45715.78
449.728	47395.12
449.935	47384.88
450.141	47601.96
450.347	48245.02
450.553	46735.67
450.76	47667.5
450.966	49271.06
451.172	48445.72
451.378	49658.12
451.584	48599.32
451.791	49916.17
451.997	49582.35
452.203	50270.46
452.409	50297.09
452.615	50829.56
452.821	48564.51
453.027	47706.41
453.233	50137.35
453.44	48128.29
453.646	48273.7
453.852	48992.53
454.058	49735.95
454.264	48177.44
454.47	49148.18
454.676	47966.5
454.882	49568.01
455.088	44994.9
455.294	45640.01
455.5	46399.8
455.705	47008.05
455.911	44853.59
456.117	44061.02
456.323	43905.38
456.529	41173.39
456.735	42748.28
456.941	41820.55
457.147	41187.72
457.352	40196.51
457.558	39184.81
457.764	39465.38
457.97	38791.6
458.176	38074.81
458.381	38052.28
458.587	35985.88
458.793	36209.11
458.999	34040.31
459.204	36608.47
459.41	35527.14
459.616	33131.01
459.821	33436.16
460.027	32975.37
460.233	32455.18
460.438	30843.43
460.644	31472.16
460.85	29690.43
461.055	29125.19
461.261	29076.04
461.466	27050.6
461.672	26243.7
461.878	28240.47
462.083	26067.57
462.289	25647.74
462.494	25612.92
462.7	24466.06
462.905	23726.74
463.111	24492.68
463.316	24390.28
463.522	23949.97
463.727	23960.21
463.932	24025.75
464.138	23632.54
464.343	23882.39
464.549	23093.92
464.754	23896.72
464.959	23667.35
465.165	23685.78
465.37	22557.35
465.575	22139.57
465.781	23071.39
465.986	22997.67
466.191	22067.89
466.397	21709.49
466.602	20857.54
466.807	21455.54
467.012	21516.98
