Data from USB4F104151__77__12-02-10-553.txt Node

Date: Fri Mar 14 12:02:10 EDT 2025
User: louis
Spectrometer: USB4F10415
Trigger mode: 4
Integration Time (sec): 2.000000E-2
Scans to average: 1
Electric dark correction enabled: true
Nonlinearity correction enabled: false
Boxcar width: 0
XAxis mode: Wavelengths
Number of Pixels in Spectrum: 3648
>>>>>Begin Spectral Data<<<<<
178.204	-73.39
178.424	-73.39
178.644	-73.39
178.864	-63.15
179.084	-83.63
179.304	-5.8
179.524	47.44
179.744	-7.85
179.964	47.44
180.184	-7.85
180.404	-3.75
180.624	-24.23
180.844	-28.33
181.064	-42.67
181.283	31.06
181.503	-36.52
181.723	31.06
181.943	2.39
182.163	47.44
182.383	26.96
182.602	43.35
182.822	51.54
183.042	12.63
183.262	29.01
183.482	-16.04
183.701	14.68
183.921	35.16
184.141	8.53
184.361	16.73
184.58	31.06
184.8	47.44
185.02	-38.57
185.239	37.2
185.459	41.3
185.679	80.21
185.898	-9.9
186.118	24.92
186.338	86.36
186.557	74.07
186.777	-24.23
186.997	53.59
187.216	53.59
187.436	82.26
187.655	69.97
187.875	12.63
188.095	-108.2
188.314	39.25
188.534	53.59
188.753	-1.71
188.973	31.06
189.192	82.26
189.412	2.39
189.631	10.58
189.851	24.92
190.07	-9.9
190.29	-61.1
190.509	35.16
190.729	16.73
190.948	72.02
191.168	86.36
191.387	31.06
191.607	43.35
191.826	6.49
192.045	2.39
192.265	-5.8
192.484	94.55
192.704	69.97
192.923	26.96
193.142	80.21
193.362	24.92
193.581	82.26
193.8	10.58
194.02	18.77
194.239	65.88
194.458	4.44
194.678	12.63
194.897	22.87
195.116	10.58
195.335	33.11
195.555	69.97
195.774	16.73
195.993	22.87
196.212	18.77
196.432	-26.28
196.651	57.68
196.87	96.6
197.089	117.08
197.308	74.07
197.528	61.78
197.747	20.82
197.966	49.49
198.185	76.12
198.404	-7.85
198.623	-44.71
198.842	61.78
199.062	69.97
199.281	57.68
199.5	22.87
199.719	96.6
199.938	-11.95
200.157	96.6
200.376	-3.75
200.595	49.49
200.814	78.16
201.033	4.44
201.252	74.07
201.471	16.73
201.69	18.77
201.909	10.58
202.128	8.53
202.347	69.97
202.566	-1.71
202.785	-3.75
203.004	-24.23
203.223	110.93
203.442	10.58
203.661	31.06
203.879	16.73
204.098	24.92
204.317	33.11
204.536	86.36
204.755	57.68
204.974	74.07
205.193	39.25
205.411	43.35
205.63	37.2
205.849	139.6
206.068	-36.52
206.287	41.3
206.505	131.41
206.724	33.11
206.943	-16.04
207.162	31.06
207.381	72.02
207.599	31.06
207.818	65.88
208.037	88.4
208.255	12.63
208.474	4.44
208.693	57.68
208.911	24.92
209.13	78.16
209.349	88.4
209.567	37.2
209.786	22.87
210.005	74.07
210.223	-20.14
210.442	4.44
210.661	51.54
210.879	63.83
211.098	63.83
211.316	14.68
211.535	100.69
211.753	61.78
211.972	41.3
212.191	12.63
212.409	16.73
212.628	39.25
212.846	16.73
213.065	10.58
213.283	33.11
213.502	-36.52
213.72	49.49
213.938	47.44
214.157	24.92
214.375	74.07
214.594	16.73
214.812	78.16
215.031	4.44
215.249	-20.14
215.467	69.97
215.686	49.49
215.904	22.87
216.122	74.07
216.341	117.08
216.559	31.06
216.778	65.88
216.996	-3.75
217.214	47.44
217.432	33.11
217.651	2.39
217.869	31.06
218.087	41.3
218.306	49.49
218.524	131.41
218.742	31.06
218.96	82.26
219.179	53.59
219.397	0.34
219.615	24.92
219.833	22.87
220.051	-36.52
220.27	53.59
220.488	33.11
220.706	24.92
220.924	33.11
221.142	41.3
221.36	57.68
221.578	2.39
221.796	45.4
222.015	80.21
222.233	41.3
222.451	8.53
222.669	61.78
222.887	67.92
223.105	6.49
223.323	2.39
223.541	-18.09
223.759	53.59
223.977	18.77
224.195	63.83
224.413	8.53
224.631	72.02
224.849	10.58
225.067	84.31
225.285	-13.99
225.503	24.92
225.721	-7.85
225.939	37.2
226.157	98.64
226.375	88.4
226.592	-1.71
226.81	14.68
227.028	69.97
227.246	61.78
227.464	8.53
227.682	-13.99
227.9	12.63
228.117	4.44
228.335	4.44
228.553	84.31
228.771	47.44
228.989	92.5
229.206	45.4
229.424	65.88
229.642	29.01
229.86	104.79
230.077	59.73
230.295	61.78
230.513	41.3
230.731	-30.38
230.948	61.78
231.166	53.59
231.384	55.64
231.601	82.26
231.819	57.68
232.037	-40.62
232.254	-32.43
232.472	102.74
232.689	33.11
232.907	33.11
233.125	-16.04
233.342	39.25
233.56	14.68
233.777	16.73
233.995	41.3
234.213	78.16
234.43	-13.99
234.648	65.88
234.865	10.58
235.083	14.68
235.3	49.49
235.518	33.11
235.735	31.06
235.953	90.45
236.17	-42.67
236.388	59.73
236.605	26.96
236.822	37.2
237.04	43.35
237.257	47.44
237.475	-9.9
237.692	74.07
237.909	49.49
238.127	4.44
238.344	67.92
238.562	53.59
238.779	53.59
238.996	31.06
239.214	121.17
239.431	37.2
239.648	92.5
239.865	41.3
240.083	18.77
240.3	45.4
240.517	14.68
240.735	47.44
240.952	-13.99
241.169	37.2
241.386	20.82
241.603	67.92
241.821	49.49
242.038	35.16
242.255	35.16
242.472	55.64
242.689	-7.85
242.907	8.53
243.124	10.58
243.341	26.96
243.558	53.59
243.775	59.73
243.992	-1.71
244.209	51.54
244.426	86.36
244.643	61.78
244.86	35.16
245.078	22.87
245.295	41.3
245.512	47.44
245.729	10.58
245.946	33.11
246.163	-5.8
246.38	0.34
246.597	6.49
246.814	-11.95
247.031	4.44
247.248	74.07
247.464	76.12
247.681	69.97
247.898	41.3
248.115	57.68
248.332	59.73
248.549	63.83
248.766	125.27
248.983	24.92
249.2	108.88
249.417	6.49
249.633	47.44
249.85	57.68
250.067	-7.85
250.284	8.53
250.501	-3.75
250.717	65.88
250.934	-26.28
251.151	115.03
251.368	22.87
251.585	20.82
251.801	18.77
252.018	-16.04
252.235	-50.86
252.451	24.92
252.668	-18.09
252.885	57.68
253.102	51.54
253.318	0.34
253.535	98.64
253.752	88.4
253.968	43.35
254.185	26.96
254.401	18.77
254.618	39.25
254.835	39.25
255.051	41.3
255.268	33.11
255.484	39.25
255.701	53.59
255.917	69.97
256.134	39.25
256.351	31.06
256.567	16.73
256.784	8.53
257	24.92
257.217	41.3
257.433	-24.23
257.65	69.97
257.866	-32.43
258.082	41.3
258.299	86.36
258.515	22.87
258.732	41.3
258.948	18.77
259.165	26.96
259.381	24.92
259.597	135.51
259.814	41.3
260.03	-5.8
260.246	82.26
260.463	45.4
260.679	45.4
260.895	-9.9
261.112	49.49
261.328	39.25
261.544	26.96
261.761	55.64
261.977	51.54
262.193	-44.71
262.409	31.06
262.626	74.07
262.842	67.92
263.058	12.63
263.274	41.3
263.49	35.16
263.707	90.45
263.923	47.44
264.139	-7.85
264.355	49.49
264.571	96.6
264.787	31.06
265.004	102.74
265.22	29.01
265.436	63.83
265.652	26.96
265.868	74.07
266.084	6.49
266.3	88.4
266.516	10.58
266.732	41.3
266.948	20.82
267.164	65.88
267.38	18.77
267.596	29.01
267.812	94.55
268.028	49.49
268.244	33.11
268.46	72.02
268.676	49.49
268.892	69.97
269.108	59.73
269.324	12.63
269.54	37.2
269.756	35.16
269.972	16.73
270.188	20.82
270.403	61.78
270.619	-3.75
270.835	65.88
271.051	47.44
271.267	55.64
271.483	14.68
271.698	45.4
271.914	33.11
272.13	-67.24
272.346	90.45
272.562	2.39
272.777	8.53
272.993	12.63
273.209	69.97
273.425	86.36
273.64	18.77
273.856	127.32
274.072	47.44
274.287	14.68
274.503	51.54
274.719	24.92
274.934	65.88
275.15	59.73
275.366	20.82
275.581	22.87
275.797	78.16
276.012	-18.09
276.228	29.01
276.444	51.54
276.659	4.44
276.875	12.63
277.09	65.88
277.306	45.4
277.521	45.4
277.737	22.87
277.952	-16.04
278.168	35.16
278.383	53.59
278.599	16.73
278.814	20.82
279.03	49.49
279.245	88.4
279.461	18.77
279.676	12.63
279.892	14.68
280.107	-1.71
280.322	39.25
280.538	104.79
280.753	-28.33
280.969	26.96
281.184	-13.99
281.399	45.4
281.615	20.82
281.83	-22.19
282.045	59.73
282.26	24.92
282.476	78.16
282.691	-16.04
282.906	74.07
283.122	61.78
283.337	-32.43
283.552	20.82
283.767	65.88
283.983	84.31
284.198	78.16
284.413	61.78
284.628	24.92
284.843	80.21
285.058	-22.19
285.274	14.68
285.489	53.59
285.704	102.74
285.919	29.01
286.134	69.97
286.349	20.82
286.564	31.06
286.779	-22.19
286.995	55.64
287.21	-30.38
287.425	84.31
287.64	39.25
287.855	67.92
288.07	33.11
288.285	41.3
288.5	61.78
288.715	57.68
288.93	2.39
289.145	94.55
289.36	12.63
289.575	-1.71
289.79	53.59
290.004	47.44
290.219	43.35
290.434	14.68
290.649	53.59
290.864	72.02
291.079	4.44
291.294	76.12
291.509	8.53
291.724	-20.14
291.938	35.16
292.153	102.74
292.368	2.39
292.583	84.31
292.798	22.87
293.012	26.96
293.227	-50.86
293.442	33.11
293.657	112.98
293.871	47.44
294.086	-7.85
294.301	135.51
294.516	65.88
294.73	-18.09
294.945	43.35
295.16	16.73
295.374	72.02
295.589	88.4
295.804	14.68
296.018	-5.8
296.233	76.12
296.447	51.54
296.662	10.58
296.877	104.79
297.091	72.02
297.306	33.11
297.52	-26.28
297.735	24.92
297.949	20.82
298.164	115.03
298.378	59.73
298.593	78.16
298.807	74.07
299.022	29.01
299.236	100.69
299.451	41.3
299.665	29.01
299.88	29.01
300.094	-3.75
300.309	100.69
300.523	78.16
300.737	0.34
300.952	63.83
301.166	47.44
301.381	-28.33
301.595	8.53
301.809	-7.85
302.024	16.73
302.238	76.12
302.452	78.16
302.667	55.64
302.881	119.12
303.095	43.35
303.309	100.69
303.524	61.78
303.738	-38.57
303.952	78.16
304.166	57.68
304.381	-32.43
304.595	47.44
304.809	33.11
305.023	57.68
305.237	43.35
305.452	26.96
305.666	-24.23
305.88	90.45
306.094	35.16
306.308	84.31
306.522	74.07
306.736	59.73
306.95	-28.33
307.164	84.31
307.379	22.87
307.593	92.5
307.807	31.06
308.021	78.16
308.235	57.68
308.449	-32.43
308.663	6.49
308.877	90.45
309.091	82.26
309.305	108.88
309.519	-18.09
309.733	112.98
309.947	24.92
310.161	55.64
310.374	4.44
310.588	55.64
310.802	31.06
311.016	61.78
311.23	35.16
311.444	16.73
311.658	-57
311.872	76.12
312.085	100.69
312.299	74.07
312.513	43.35
312.727	72.02
312.941	16.73
313.154	16.73
313.368	22.87
313.582	53.59
313.796	22.87
314.009	61.78
314.223	12.63
314.437	35.16
314.651	74.07
314.864	117.08
315.078	51.54
315.292	22.87
315.505	59.73
315.719	18.77
315.933	59.73
316.146	88.4
316.36	94.55
316.573	121.17
316.787	82.26
317.001	119.12
317.214	6.49
317.428	26.96
317.641	65.88
317.855	115.03
318.068	127.32
318.282	45.4
318.495	67.92
318.709	45.4
318.922	-3.75
319.136	20.82
319.349	33.11
319.563	106.84
319.776	84.31
319.99	74.07
320.203	35.16
320.417	31.06
320.63	125.27
320.843	102.74
321.057	16.73
321.27	115.03
321.483	78.16
321.697	47.44
321.91	8.53
322.124	29.01
322.337	49.49
322.55	8.53
322.763	33.11
322.977	8.53
323.19	16.73
323.403	26.96
323.617	29.01
323.83	26.96
324.043	45.4
324.256	92.5
324.469	-26.28
324.683	57.68
324.896	-9.9
325.109	6.49
325.322	45.4
325.535	90.45
325.748	4.44
325.962	37.2
326.175	2.39
326.388	4.44
326.601	10.58
326.814	26.96
327.027	45.4
327.24	98.64
327.453	22.87
327.666	53.59
327.879	57.68
328.092	96.6
328.305	45.4
328.518	47.44
328.731	8.53
328.944	35.16
329.157	24.92
329.37	-5.8
329.583	92.5
329.796	84.31
330.009	12.63
330.222	18.77
330.435	57.68
330.648	76.12
330.861	-26.28
331.073	0.34
331.286	72.02
331.499	96.6
331.712	90.45
331.925	65.88
332.138	18.77
332.35	20.82
332.563	96.6
332.776	90.45
332.989	67.92
333.202	135.51
333.414	67.92
333.627	49.49
333.84	78.16
334.053	63.83
334.265	72.02
334.478	8.53
334.691	2.39
334.903	149.84
335.116	94.55
335.329	29.01
335.541	86.36
335.754	139.6
335.966	41.3
336.179	-3.75
336.392	0.34
336.604	37.2
336.817	47.44
337.029	106.84
337.242	88.4
337.454	69.97
337.667	-7.85
337.88	100.69
338.092	41.3
338.305	-24.23
338.517	-24.23
338.729	57.68
338.942	37.2
339.154	31.06
339.367	37.2
339.579	39.25
339.792	86.36
340.004	12.63
340.217	72.02
340.429	80.21
340.641	31.06
340.854	106.84
341.066	35.16
341.278	82.26
341.491	104.79
341.703	-3.75
341.915	-9.9
342.128	4.44
342.34	22.87
342.552	16.73
342.764	47.44
342.977	8.53
343.189	67.92
343.401	94.55
343.613	24.92
343.826	12.63
344.038	100.69
344.25	61.78
344.462	4.44
344.674	74.07
344.886	67.92
345.099	41.3
345.311	98.64
345.523	72.02
345.735	49.49
345.947	100.69
346.159	41.3
346.371	8.53
346.583	88.4
346.795	125.27
347.007	6.49
347.219	137.56
347.431	39.25
347.643	149.84
347.855	33.11
348.067	20.82
348.279	61.78
348.491	22.87
348.703	80.21
348.915	82.26
349.127	100.69
349.339	67.92
349.551	37.2
349.763	37.2
349.975	102.74
350.187	51.54
350.399	88.4
350.61	67.92
350.822	43.35
351.034	63.83
351.246	88.4
351.458	59.73
351.669	-11.95
351.881	47.44
352.093	57.68
352.305	59.73
352.517	6.49
352.728	43.35
352.94	78.16
353.152	24.92
353.363	-1.71
353.575	100.69
353.787	57.68
353.999	84.31
354.21	47.44
354.422	80.21
354.633	76.12
354.845	-7.85
355.057	10.58
355.268	94.55
355.48	51.54
355.692	65.88
355.903	80.21
356.115	20.82
356.326	82.26
356.538	55.64
356.749	76.12
356.961	104.79
357.172	12.63
357.384	47.44
357.595	112.98
357.807	86.36
358.018	-22.19
358.23	57.68
358.441	98.64
358.653	88.4
358.864	88.4
359.075	2.39
359.287	59.73
359.498	59.73
359.709	-24.23
359.921	57.68
360.132	84.31
360.344	51.54
360.555	82.26
360.766	80.21
360.977	12.63
361.189	72.02
361.4	53.59
361.611	65.88
361.823	49.49
362.034	133.46
362.245	65.88
362.456	22.87
362.667	88.4
362.879	55.64
363.09	110.93
363.301	131.41
363.512	65.88
363.723	59.73
363.935	78.16
364.146	26.96
364.357	119.12
364.568	112.98
364.779	31.06
364.99	74.07
365.201	67.92
365.412	39.25
365.623	20.82
365.834	57.68
366.045	106.84
366.256	190.8
366.467	43.35
366.678	92.5
366.889	49.49
367.1	33.11
367.311	65.88
367.522	80.21
367.733	69.97
367.944	119.12
368.155	123.22
368.366	110.93
368.577	65.88
368.788	6.49
368.999	29.01
369.209	72.02
369.42	96.6
369.631	121.17
369.842	49.49
370.053	61.78
370.264	26.96
370.474	12.63
370.685	55.64
370.896	76.12
371.107	63.83
371.317	49.49
371.528	57.68
371.739	78.16
371.95	16.73
372.16	65.88
372.371	29.01
372.582	88.4
372.792	76.12
373.003	108.88
373.214	84.31
373.424	63.83
373.635	53.59
373.846	39.25
374.056	82.26
374.267	110.93
374.477	90.45
374.688	20.82
374.898	100.69
375.109	133.46
375.319	51.54
375.53	94.55
375.74	63.83
375.951	33.11
376.161	78.16
376.372	57.68
376.582	29.01
376.793	72.02
377.003	135.51
377.214	88.4
377.424	-18.09
377.635	129.36
377.845	86.36
378.055	84.31
378.266	49.49
378.476	35.16
378.686	31.06
378.897	39.25
379.107	65.88
379.317	24.92
379.528	94.55
379.738	92.5
379.948	-11.95
380.158	123.22
380.369	37.2
380.579	98.64
380.789	65.88
380.999	86.36
381.21	47.44
381.42	90.45
381.63	4.44
381.84	104.79
382.05	86.36
382.261	65.88
382.471	112.98
382.681	121.17
382.891	86.36
383.101	145.75
383.311	100.69
383.521	133.46
383.731	65.88
383.941	164.18
384.151	55.64
384.361	80.21
384.571	53.59
384.781	139.6
384.991	57.68
385.201	94.55
385.411	59.73
385.621	184.66
385.831	74.07
386.041	78.16
386.251	16.73
386.461	63.83
386.671	43.35
386.881	153.94
387.091	43.35
387.301	106.84
387.511	90.45
387.72	76.12
387.93	102.74
388.14	76.12
388.35	108.88
388.56	96.6
388.769	100.69
388.979	106.84
389.189	24.92
389.399	78.16
389.609	106.84
389.818	82.26
390.028	65.88
390.238	110.93
390.447	84.31
390.657	123.22
390.867	22.87
391.076	61.78
391.286	39.25
391.496	98.64
391.705	84.31
391.915	43.35
392.125	125.27
392.334	82.26
392.544	125.27
392.753	86.36
392.963	86.36
393.172	90.45
393.382	84.31
393.591	108.88
393.801	49.49
394.01	164.18
394.22	90.45
394.429	108.88
394.639	90.45
394.848	94.55
395.058	155.99
395.267	143.7
395.477	112.98
395.686	100.69
395.895	211.28
396.105	164.18
396.314	112.98
396.524	43.35
396.733	84.31
396.942	143.7
397.152	102.74
397.361	104.79
397.57	147.8
397.78	131.41
397.989	133.46
398.198	215.38
398.407	90.45
398.617	67.92
398.826	129.36
399.035	102.74
399.244	147.8
399.453	131.41
399.663	168.27
399.872	196.95
400.081	115.03
400.29	123.22
400.499	102.74
400.708	182.61
400.917	74.07
401.127	131.41
401.336	215.38
401.545	72.02
401.754	172.37
401.963	131.41
402.172	117.08
402.381	123.22
402.59	129.36
402.799	133.46
403.008	166.23
403.217	164.18
403.426	168.27
403.635	139.6
403.844	115.03
404.053	196.95
404.262	106.84
404.471	250.19
404.68	211.28
404.888	217.43
405.097	141.65
405.306	151.89
405.515	160.08
405.724	205.14
405.933	190.8
406.142	231.76
406.35	266.58
406.559	237.91
406.768	233.81
406.977	264.53
407.185	276.82
407.394	237.91
407.603	237.91
407.812	297.3
408.02	264.53
408.229	321.87
408.438	280.91
408.646	360.78
408.855	315.73
409.064	387.41
409.272	276.82
409.481	377.17
409.69	313.68
409.898	414.03
410.107	385.36
410.315	416.08
410.524	315.73
410.733	473.42
410.941	414.03
411.15	471.37
411.358	473.42
411.567	512.33
411.775	514.38
411.984	555.34
412.192	489.81
412.401	565.58
412.609	629.07
412.818	647.5
413.026	588.11
413.234	553.29
413.443	592.2
413.651	704.84
413.86	655.69
414.068	678.22
414.276	717.13
414.485	864.58
414.693	774.47
414.901	833.86
415.11	909.64
415.318	960.84
415.526	870.73
415.734	956.74
415.943	917.83
416.151	1089.86
416.359	1016.13
416.567	1118.53
416.776	1241.41
416.984	1190.21
417.192	1229.12
417.4	1298.75
417.608	1198.4
417.817	1327.43
418.025	1405.25
418.233	1462.59
418.441	1442.11
418.649	1442.11
418.857	1618.24
419.065	1669.44
419.273	1575.23
419.481	1747.26
419.689	1884.47
419.897	1800.51
420.105	1843.51
420.313	1956.15
420.521	1958.2
420.729	2083.13
420.937	2107.7
421.145	2214.2
421.353	2232.63
421.561	2316.59
421.769	2523.44
421.977	2513.2
422.185	2515.25
422.393	2750.76
422.601	2830.63
422.809	2840.87
423.017	2746.67
423.224	3000.62
423.432	3213.6
423.64	2984.23
423.848	3340.58
424.056	3342.63
424.263	3655.97
424.471	3469.6
424.679	3639.58
424.887	3891.48
425.094	4061.46
425.302	4030.74
425.51	4083.99
425.718	4180.25
425.925	4352.27
426.133	4456.72
426.341	4638.99
426.548	4815.12
426.756	4878.6
426.964	4940.04
427.171	5331.2
427.379	5476.61
427.586	5458.18
427.794	5824.76
428.001	5832.96
428.209	6125.82
428.417	6082.81
428.624	6371.57
428.832	6562.03
429.039	6471.92
429.247	6424.82
429.454	7014.63
429.662	7467.24
429.869	6963.44
430.076	7579.87
430.284	7346.41
430.491	7848.16
430.699	8077.53
430.906	8104.15
431.114	8333.53
431.321	8562.9
431.528	8888.53
431.736	9287.88
431.943	9877.69
432.15	9402.57
432.358	9429.19
432.565	10311.86
432.772	10082.49
432.979	10576.05
433.187	10703.03
433.394	10920.11
433.601	11407.53
433.808	11339.94
434.016	11690.15
434.223	12122.27
434.43	12662.93
434.637	12544.15
434.844	13484.17
435.052	13611.14
435.259	13424.78
435.466	13559.94
435.673	13471.88
435.88	14250.11
436.087	15087.73
436.294	15054.96
436.501	14839.92
436.708	15175.79
436.915	15425.64
437.122	16377.95
437.329	16167.01
437.537	16791.64
437.743	16865.36
437.95	16898.13
438.157	17930.31
438.364	18251.84
438.571	18278.46
438.778	18323.52
438.985	20408.35
439.192	19091.51
439.399	19976.23
439.606	19781.67
439.813	20627.48
440.02	21774.35
440.227	21710.86
440.433	21106.71
440.64	21858.31
440.847	21862.41
441.054	22312.96
441.261	23990.25
441.467	23605.23
441.674	24111.08
441.881	25210.84
442.088	25010.14
442.294	24596.45
442.501	25470.93
442.708	25845.71
442.914	26970.04
443.121	27938.73
443.328	27457.46
443.534	29065.11
443.741	28215.21
443.948	27938.73
444.154	29927.31
444.361	30001.04
444.568	29935.5
444.774	29970.32
444.981	30529.41
445.187	31217.53
445.394	32431.97
445.6	32130.92
445.807	35362.62
446.013	33810.26
446.22	34447.18
446.426	35757.88
446.633	36009.78
446.839	37312.28
447.046	35546.93
447.252	37791.51
447.459	37676.82
447.665	37560.09
447.871	39452.41
448.078	40683.24
448.284	38717.19
448.491	39862.01
448.697	41576.15
448.903	42204.88
449.11	42151.63
449.316	41674.46
449.522	42755.78
449.728	43570.88
449.935	43759.29
450.141	43775.67
450.347	44852.9
450.553	43204.29
450.76	43943.61
450.966	45235.88
451.172	44902.06
451.378	45768.35
451.584	44836.52
451.791	45948.57
451.997	45717.15
452.203	46864.01
452.409	46470.8
452.615	46286.48
452.821	44299.95
453.027	44349.1
453.233	46579.34
453.44	44576.43
453.646	45041.32
453.852	45434.53
454.058	45952.66
454.264	44680.88
454.47	45526.69
454.676	44338.86
454.882	46108.31
455.088	41869.01
455.294	42630.86
455.5	43259.59
455.705	43484.86
455.911	41789.14
456.117	40861.41
456.323	40679.14
456.529	38690.57
456.735	40115.95
456.941	38895.36
457.147	38467.34
457.352	37000.99
457.558	36808.48
457.764	36544.3
457.97	36235.05
458.176	35292.99
458.381	35256.12
458.587	33525.59
458.793	33775.44
458.999	31995.76
459.204	33920.85
459.41	33466.2
459.616	31238.01
459.821	30992.25
460.027	30818.18
460.233	29980.56
460.438	28503.97
460.644	29206.42
460.85	27744.17
461.055	27195.32
461.261	27107.26
461.466	25311.19
461.672	24502.24
461.878	26013.64
462.083	24387.55
462.289	23619.56
462.494	23617.52
462.7	22552.57
462.905	22095.88
463.111	22759.42
463.316	22986.74
463.522	22697.98
463.727	22806.52
463.932	22439.93
464.138	22091.78
464.343	22376.45
464.549	21534.73
464.754	22329.34
464.959	22286.34
465.165	22040.58
465.37	21071.89
465.575	20498.46
465.781	21356.56
465.986	21555.21
466.191	20729.88
466.397	20146.21
466.602	19195.95
466.807	20074.53
467.012	20269.09
467.218	20013.09
467.423	19576.87
