Data from USB4F104151__68__12-01-56-888.txt Node

Date: Fri Mar 14 12:01:56 EDT 2025
User: louis
Spectrometer: USB4F10415
Trigger mode: 4
Integration Time (sec): 2.000000E-2
Scans to average: 1
Electric dark correction enabled: true
Nonlinearity correction enabled: false
Boxcar width: 0
XAxis mode: Wavelengths
Number of Pixels in Spectrum: 3648
>>>>>Begin Spectral Data<<<<<
178.204	-39.76
178.424	-39.76
178.644	-39.76
178.864	-93.01
179.084	-80.72
179.304	11.43
179.524	-17.24
179.744	13.48
179.964	-50
180.184	-39.76
180.404	-21.33
180.624	68.78
180.844	52.39
181.064	-35.67
181.283	56.49
181.503	-21.33
181.723	-17.24
181.943	-7
182.163	109.74
182.383	17.58
182.602	95.4
182.822	46.25
183.042	72.87
183.262	29.87
183.482	62.63
183.701	29.87
183.921	36.01
184.141	27.82
184.361	76.97
184.58	9.39
184.8	-17.24
185.02	33.96
185.239	36.01
185.459	19.63
185.679	87.21
185.898	13.48
186.118	93.35
186.338	-0.85
186.557	62.63
186.777	76.97
186.997	101.55
187.216	68.78
187.436	138.41
187.655	21.67
187.875	128.17
188.095	40.11
188.314	-7
188.534	107.69
188.753	21.67
188.973	29.87
189.192	74.92
189.412	9.39
189.631	66.73
189.851	79.02
190.07	72.87
190.29	52.39
190.509	56.49
190.729	46.25
190.948	81.07
191.168	105.64
191.387	76.97
191.607	23.72
191.826	-11.09
192.045	-56.15
192.265	21.67
192.484	-9.05
192.704	17.58
192.923	31.91
193.142	138.41
193.362	99.5
193.581	21.67
193.8	89.26
194.02	68.78
194.239	74.92
194.458	68.78
194.678	56.49
194.897	11.43
195.116	93.35
195.335	58.54
195.555	68.78
195.774	-17.24
195.993	29.87
196.212	36.01
196.432	-0.85
196.651	33.96
196.87	-9.05
197.089	33.96
197.308	107.69
197.528	50.35
197.747	-19.29
197.966	64.68
198.185	126.12
198.404	58.54
198.623	-9.05
198.842	-15.19
199.062	101.55
199.281	128.17
199.5	50.35
199.719	25.77
199.938	5.29
200.157	70.83
200.376	36.01
200.595	5.29
200.814	58.54
201.033	17.58
201.252	68.78
201.471	11.43
201.69	38.06
201.909	-19.29
202.128	72.87
202.347	33.96
202.566	25.77
202.785	46.25
203.004	25.77
203.223	40.11
203.442	50.35
203.661	76.97
203.879	-13.14
204.098	66.73
204.317	1.19
204.536	83.11
204.755	21.67
204.974	109.74
205.193	40.11
205.411	83.11
205.63	91.31
205.849	50.35
206.068	42.15
206.287	83.11
206.505	15.53
206.724	7.34
206.943	62.63
207.162	-2.9
207.381	31.91
207.599	58.54
207.818	93.35
208.037	-4.95
208.255	-25.43
208.474	17.58
208.693	29.87
208.911	36.01
209.13	15.53
209.349	60.59
209.567	36.01
209.786	111.78
210.005	54.44
210.223	9.39
210.442	50.35
210.661	128.17
210.879	23.72
211.098	107.69
211.316	48.3
211.535	74.92
211.753	15.53
211.972	56.49
212.191	46.25
212.409	25.77
212.628	85.16
212.846	21.67
213.065	70.83
213.283	66.73
213.502	48.3
213.72	-11.09
213.938	56.49
214.157	-0.85
214.375	-25.43
214.594	29.87
214.812	50.35
215.031	44.2
215.249	1.19
215.467	54.44
215.686	-17.24
215.904	21.67
216.122	68.78
216.341	74.92
216.559	-17.24
216.778	74.92
216.996	83.11
217.214	52.39
217.432	54.44
217.651	-0.85
217.869	33.96
218.087	154.79
218.306	29.87
218.524	27.82
218.742	93.35
218.96	27.82
219.179	-15.19
219.397	103.59
219.615	72.87
219.833	11.43
220.051	33.96
220.27	66.73
220.488	33.96
220.706	50.35
220.924	40.11
221.142	9.39
221.36	15.53
221.578	-7
221.796	44.2
222.015	54.44
222.233	23.72
222.451	144.55
222.669	-21.33
222.887	48.3
223.105	42.15
223.323	64.68
223.541	31.91
223.759	97.45
223.977	27.82
224.195	58.54
224.413	54.44
224.631	3.24
224.849	-9.05
225.067	76.97
225.285	56.49
225.503	33.96
225.721	29.87
225.939	54.44
226.157	15.53
226.375	89.26
226.592	3.24
226.81	54.44
227.028	70.83
227.246	52.39
227.464	60.59
227.682	91.31
227.9	7.34
228.117	89.26
228.335	54.44
228.553	13.48
228.771	87.21
228.989	89.26
229.206	11.43
229.424	-17.24
229.642	44.2
229.86	91.31
230.077	113.83
230.295	33.96
230.513	-9.05
230.731	-11.09
230.948	81.07
231.166	126.12
231.384	5.29
231.601	-37.72
231.819	68.78
232.037	83.11
232.254	13.48
232.472	9.39
232.689	52.39
232.907	19.63
233.125	-19.29
233.342	68.78
233.56	1.19
233.777	17.58
233.995	23.72
234.213	85.16
234.43	76.97
234.648	44.2
234.865	33.96
235.083	54.44
235.3	7.34
235.518	68.78
235.735	103.59
235.953	70.83
236.17	36.01
236.388	21.67
236.605	50.35
236.822	136.36
237.04	19.63
237.257	70.83
237.475	60.59
237.692	52.39
237.909	74.92
238.127	7.34
238.344	44.2
238.562	33.96
238.779	46.25
238.996	38.06
239.214	48.3
239.431	74.92
239.648	64.68
239.865	52.39
240.083	97.45
240.3	40.11
240.517	-15.19
240.735	79.02
240.952	87.21
241.169	62.63
241.386	42.15
241.603	66.73
241.821	-23.38
242.038	60.59
242.255	134.31
242.472	33.96
242.689	56.49
242.907	54.44
243.124	13.48
243.341	15.53
243.558	9.39
243.775	40.11
243.992	33.96
244.209	44.2
244.426	56.49
244.643	11.43
244.86	44.2
245.078	85.16
245.295	25.77
245.512	17.58
245.729	46.25
245.946	36.01
246.163	124.07
246.38	38.06
246.597	-58.2
246.814	15.53
247.031	33.96
247.248	154.79
247.464	113.83
247.681	33.96
247.898	46.25
248.115	103.59
248.332	64.68
248.549	19.63
248.766	5.29
248.983	11.43
249.2	5.29
249.417	50.35
249.633	21.67
249.85	15.53
250.067	87.21
250.284	31.91
250.501	1.19
250.717	15.53
250.934	19.63
251.151	-7
251.368	74.92
251.585	138.41
251.801	-56.15
252.018	-2.9
252.235	136.36
252.451	38.06
252.668	62.63
252.885	56.49
253.102	62.63
253.318	15.53
253.535	62.63
253.752	-21.33
253.968	29.87
254.185	-37.72
254.401	76.97
254.618	62.63
254.835	-13.14
255.051	91.31
255.268	29.87
255.484	25.77
255.701	46.25
255.917	9.39
256.134	-39.76
256.351	13.48
256.567	5.29
256.784	3.24
257	36.01
257.217	-4.95
257.433	33.96
257.65	40.11
257.866	101.55
258.082	17.58
258.299	29.87
258.515	9.39
258.732	48.3
258.948	15.53
259.165	31.91
259.381	-27.48
259.597	79.02
259.814	31.91
260.03	52.39
260.246	70.83
260.463	50.35
260.679	76.97
260.895	72.87
261.112	124.07
261.328	15.53
261.544	29.87
261.761	130.22
261.977	68.78
262.193	36.01
262.409	70.83
262.626	48.3
262.842	13.48
263.058	40.11
263.274	-4.95
263.49	52.39
263.707	60.59
263.923	85.16
264.139	-7
264.355	52.39
264.571	81.07
264.787	-15.19
265.004	-19.29
265.22	58.54
265.436	-4.95
265.652	-11.09
265.868	89.26
266.084	9.39
266.3	62.63
266.516	-47.96
266.732	76.97
266.948	68.78
267.164	79.02
267.38	44.2
267.596	132.26
267.812	46.25
268.028	40.11
268.244	13.48
268.46	40.11
268.676	48.3
268.892	3.24
269.108	48.3
269.324	93.35
269.54	11.43
269.756	81.07
269.972	9.39
270.188	3.24
270.403	48.3
270.619	74.92
270.835	74.92
271.051	7.34
271.267	23.72
271.483	29.87
271.698	-9.05
271.914	99.5
272.13	31.91
272.346	19.63
272.562	7.34
272.777	44.2
272.993	33.96
273.209	38.06
273.425	27.82
273.64	40.11
273.856	83.11
274.072	70.83
274.287	62.63
274.503	72.87
274.719	27.82
274.934	38.06
275.15	-25.43
275.366	-4.95
275.581	44.2
275.797	-19.29
276.012	44.2
276.228	48.3
276.444	36.01
276.659	19.63
276.875	-9.05
277.09	33.96
277.306	93.35
277.521	85.16
277.737	52.39
277.952	52.39
278.168	-41.81
278.383	1.19
278.599	97.45
278.814	1.19
279.03	40.11
279.245	103.59
279.461	7.34
279.676	105.64
279.892	72.87
280.107	64.68
280.322	40.11
280.538	19.63
280.753	13.48
280.969	31.91
281.184	29.87
281.399	134.31
281.615	-17.24
281.83	52.39
282.045	-25.43
282.26	-2.9
282.476	66.73
282.691	83.11
282.906	40.11
283.122	103.59
283.337	17.58
283.552	68.78
283.767	36.01
283.983	56.49
284.198	31.91
284.413	83.11
284.628	23.72
284.843	60.59
285.058	99.5
285.274	31.91
285.489	31.91
285.704	17.58
285.919	-7
286.134	29.87
286.349	54.44
286.564	-62.29
286.779	107.69
286.995	29.87
287.21	58.54
287.425	115.88
287.64	62.63
287.855	31.91
288.07	62.63
288.285	19.63
288.5	124.07
288.715	27.82
288.93	-4.95
289.145	70.83
289.36	105.64
289.575	74.92
289.79	-7
290.004	36.01
290.219	113.83
290.434	17.58
290.649	-11.09
290.864	64.68
291.079	91.31
291.294	23.72
291.509	70.83
291.724	66.73
291.938	58.54
292.153	117.93
292.368	3.24
292.583	105.64
292.798	93.35
293.012	54.44
293.227	23.72
293.442	52.39
293.657	23.72
293.871	115.88
294.086	79.02
294.301	68.78
294.516	36.01
294.73	64.68
294.945	44.2
295.16	109.74
295.374	64.68
295.589	115.88
295.804	64.68
296.018	9.39
296.233	101.55
296.447	21.67
296.662	9.39
296.877	68.78
297.091	109.74
297.306	56.49
297.52	62.63
297.735	79.02
297.949	-7
298.164	56.49
298.378	60.59
298.593	50.35
298.807	83.11
299.022	72.87
299.236	91.31
299.451	27.82
299.665	-2.9
299.88	93.35
300.094	60.59
300.309	97.45
300.523	50.35
300.737	33.96
300.952	27.82
301.166	132.26
301.381	-11.09
301.595	72.87
301.809	29.87
302.024	38.06
302.238	19.63
302.452	72.87
302.667	1.19
302.881	97.45
303.095	5.29
303.309	87.21
303.524	23.72
303.738	31.91
303.952	64.68
304.166	36.01
304.381	19.63
304.595	111.78
304.809	38.06
305.023	31.91
305.237	70.83
305.452	74.92
305.666	97.45
305.88	74.92
306.094	97.45
306.308	109.74
306.522	87.21
306.736	64.68
306.95	62.63
307.164	29.87
307.379	144.55
307.593	66.73
307.807	85.16
308.021	54.44
308.235	122.02
308.449	-33.62
308.663	33.96
308.877	5.29
309.091	72.87
309.305	101.55
309.519	-15.19
309.733	70.83
309.947	21.67
310.161	48.3
310.374	33.96
310.588	165.03
310.802	1.19
311.016	60.59
311.23	58.54
311.444	-23.38
311.658	56.49
311.872	105.64
312.085	76.97
312.299	68.78
312.513	50.35
312.727	85.16
312.941	29.87
313.154	21.67
313.368	79.02
313.582	56.49
313.796	23.72
314.009	1.19
314.223	3.24
314.437	60.59
314.651	-4.95
314.864	27.82
315.078	89.26
315.292	-31.57
315.505	72.87
315.719	95.4
315.933	62.63
316.146	124.07
316.36	68.78
316.573	85.16
316.787	111.78
317.001	48.3
317.214	62.63
317.428	72.87
317.641	38.06
317.855	44.2
318.068	66.73
318.282	-13.14
318.495	11.43
318.709	76.97
318.922	130.22
319.136	17.58
319.349	124.07
319.563	58.54
319.776	50.35
319.99	-21.33
320.203	134.31
320.417	58.54
320.63	68.78
320.843	107.69
321.057	52.39
321.27	74.92
321.483	50.35
321.697	107.69
321.91	60.59
322.124	17.58
322.337	-11.09
322.55	25.77
322.763	19.63
322.977	25.77
323.19	54.44
323.403	46.25
323.617	46.25
323.83	50.35
324.043	60.59
324.256	68.78
324.469	56.49
324.683	64.68
324.896	40.11
325.109	44.2
325.322	3.24
325.535	91.31
325.748	109.74
325.962	87.21
326.175	17.58
326.388	113.83
326.601	113.83
326.814	-19.29
327.027	60.59
327.24	83.11
327.453	21.67
327.666	64.68
327.879	74.92
328.092	21.67
328.305	36.01
328.518	21.67
328.731	17.58
328.944	40.11
329.157	21.67
329.37	89.26
329.583	56.49
329.796	72.87
330.009	5.29
330.222	46.25
330.435	36.01
330.648	48.3
330.861	42.15
331.073	29.87
331.286	79.02
331.499	21.67
331.712	56.49
331.925	89.26
332.138	64.68
332.35	89.26
332.563	76.97
332.776	95.4
332.989	-9.05
333.202	52.39
333.414	21.67
333.627	93.35
333.84	42.15
334.053	79.02
334.265	54.44
334.478	-7
334.691	72.87
334.903	40.11
335.116	-33.62
335.329	-9.05
335.541	50.35
335.754	64.68
335.966	85.16
336.179	87.21
336.392	64.68
336.604	29.87
336.817	101.55
337.029	31.91
337.242	52.39
337.454	56.49
337.667	62.63
337.88	117.93
338.092	93.35
338.305	33.96
338.517	60.59
338.729	117.93
338.942	74.92
339.154	91.31
339.367	50.35
339.579	136.36
339.792	142.5
340.004	89.26
340.217	54.44
340.429	60.59
340.641	23.72
340.854	76.97
341.066	56.49
341.278	64.68
341.491	101.55
341.703	93.35
341.915	89.26
342.128	105.64
342.34	64.68
342.552	5.29
342.764	17.58
342.977	40.11
343.189	31.91
343.401	83.11
343.613	54.44
343.826	54.44
344.038	64.68
344.25	-0.85
344.462	83.11
344.674	19.63
344.886	89.26
345.099	33.96
345.311	38.06
345.523	142.5
345.735	60.59
345.947	66.73
346.159	25.77
346.371	83.11
346.583	-39.76
346.795	146.6
347.007	46.25
347.219	60.59
347.431	111.78
347.643	107.69
347.855	9.39
348.067	109.74
348.279	97.45
348.491	113.83
348.703	52.39
348.915	109.74
349.127	7.34
349.339	105.64
349.551	-37.72
349.763	115.88
349.975	-2.9
350.187	21.67
350.399	36.01
350.61	56.49
350.822	33.96
351.034	23.72
351.246	19.63
351.458	11.43
351.669	15.53
351.881	54.44
352.093	56.49
352.305	36.01
352.517	36.01
352.728	42.15
352.94	64.68
353.152	101.55
353.363	54.44
353.575	70.83
353.787	83.11
353.999	27.82
354.21	111.78
354.422	5.29
354.633	48.3
354.845	60.59
355.057	85.16
355.268	48.3
355.48	99.5
355.692	44.2
355.903	21.67
356.115	23.72
356.326	9.39
356.538	93.35
356.749	72.87
356.961	99.5
357.172	40.11
357.384	46.25
357.595	111.78
357.807	68.78
358.018	46.25
358.23	66.73
358.441	38.06
358.653	60.59
358.864	29.87
359.075	-7
359.287	97.45
359.498	85.16
359.709	119.98
359.921	83.11
360.132	31.91
360.344	38.06
360.555	66.73
360.766	115.88
360.977	89.26
361.189	50.35
361.4	138.41
361.611	91.31
361.823	109.74
362.034	95.4
362.245	27.82
362.456	105.64
362.667	81.07
362.879	126.12
363.09	54.44
363.301	62.63
363.512	99.5
363.723	13.48
363.935	40.11
364.146	70.83
364.357	54.44
364.568	19.63
364.779	68.78
364.99	113.83
365.201	36.01
365.412	85.16
365.623	60.59
365.834	165.03
366.045	89.26
366.256	33.96
366.467	111.78
366.678	58.54
366.889	46.25
367.1	111.78
367.311	44.2
367.522	60.59
367.733	13.48
367.944	27.82
368.155	-15.19
368.366	99.5
368.577	122.02
368.788	76.97
368.999	93.35
369.209	58.54
369.42	74.92
369.631	103.59
369.842	148.65
370.053	68.78
370.264	109.74
370.474	115.88
370.685	31.91
370.896	115.88
371.107	52.39
371.317	46.25
371.528	27.82
371.739	62.63
371.95	64.68
372.16	68.78
372.371	76.97
372.582	29.87
372.792	50.35
373.003	99.5
373.214	38.06
373.424	138.41
373.635	-50
373.846	60.59
374.056	97.45
374.267	54.44
374.477	7.34
374.688	25.77
374.898	74.92
375.109	72.87
375.319	46.25
375.53	132.26
375.74	17.58
375.951	128.17
376.161	72.87
376.372	50.35
376.582	23.72
376.793	21.67
377.003	23.72
377.214	31.91
377.424	140.46
377.635	99.5
377.845	17.58
378.055	31.91
378.266	19.63
378.476	105.64
378.686	140.46
378.897	95.4
379.107	95.4
379.317	38.06
379.528	62.63
379.738	142.5
379.948	31.91
380.158	109.74
380.369	54.44
380.579	17.58
380.789	89.26
380.999	109.74
381.21	130.22
381.42	140.46
381.63	52.39
381.84	72.87
382.05	66.73
382.261	36.01
382.471	117.93
382.681	56.49
382.891	140.46
383.101	44.2
383.311	83.11
383.521	68.78
383.731	-4.95
383.941	111.78
384.151	97.45
384.361	27.82
384.571	-0.85
384.781	113.83
384.991	58.54
385.201	66.73
385.411	52.39
385.621	85.16
385.831	95.4
386.041	46.25
386.251	70.83
386.461	93.35
386.671	97.45
386.881	89.26
387.091	44.2
387.301	144.55
387.511	21.67
387.72	144.55
387.93	33.96
388.14	97.45
388.35	97.45
388.56	79.02
388.769	105.64
388.979	76.97
389.189	91.31
389.399	87.21
389.609	79.02
389.818	60.59
390.028	54.44
390.238	142.5
390.447	76.97
390.657	99.5
390.867	117.93
391.076	146.6
391.286	113.83
391.496	103.59
391.705	115.88
391.915	62.63
392.125	119.98
392.334	126.12
392.544	146.6
392.753	52.39
392.963	44.2
393.172	91.31
393.382	25.77
393.591	109.74
393.801	36.01
394.01	181.42
394.22	60.59
394.429	89.26
394.639	89.26
394.848	89.26
395.058	83.11
395.267	128.17
395.477	158.89
395.686	101.55
395.895	89.26
396.105	148.65
396.314	99.5
396.524	38.06
396.733	76.97
396.942	226.47
397.152	113.83
397.361	138.41
397.57	117.93
397.78	29.87
397.989	185.51
398.198	203.94
398.407	87.21
398.617	79.02
398.826	132.26
399.035	132.26
399.244	171.18
399.453	132.26
399.663	97.45
399.872	132.26
400.081	62.63
400.29	113.83
400.499	60.59
400.708	150.7
400.917	154.79
401.127	142.5
401.336	83.11
401.545	142.5
401.754	189.61
401.963	79.02
402.172	117.93
402.381	138.41
402.59	64.68
402.799	89.26
403.008	122.02
403.217	169.13
403.426	179.37
403.635	48.3
403.844	181.42
404.053	187.56
404.262	117.93
404.471	269.48
404.68	197.8
404.888	156.84
405.097	167.08
405.306	199.85
405.515	142.5
405.724	128.17
405.933	259.24
406.142	169.13
406.35	210.09
406.559	226.47
406.768	212.14
406.977	275.62
407.185	222.38
407.394	185.51
407.603	181.42
407.812	261.29
408.02	292.01
408.229	285.86
408.438	283.81
408.646	246.95
408.855	269.48
409.064	263.33
409.272	306.34
409.481	302.25
409.69	306.34
409.898	255.14
410.107	330.92
410.315	386.21
410.524	345.25
410.733	423.08
410.941	345.25
411.15	316.58
411.358	509.09
411.567	435.36
411.775	412.84
411.984	455.84
412.192	521.38
412.401	488.61
412.609	588.96
412.818	593.06
413.026	527.52
413.234	509.09
413.443	572.58
413.651	552.1
413.86	640.16
414.068	693.41
414.276	775.33
414.485	748.7
414.693	713.89
414.901	738.46
415.11	744.61
415.318	789.66
415.526	818.33
415.734	801.95
415.943	859.29
416.151	945.31
416.359	963.74
416.567	935.07
416.776	1062.04
416.984	1119.39
417.192	1033.37
417.4	1156.25
417.608	1080.47
417.817	1080.47
418.025	1246.36
418.233	1320.09
418.441	1285.27
418.649	1291.41
418.857	1387.67
419.065	1432.72
419.273	1356.95
419.481	1539.22
419.689	1571.99
419.897	1639.57
420.105	1719.44
420.313	1754.26
420.521	1696.91
420.729	1799.31
420.937	2028.68
421.145	1959.05
421.353	2030.73
421.561	2198.67
421.769	2202.76
421.977	2182.28
422.185	2294.92
422.393	2432.13
422.601	2493.57
422.809	2550.92
423.017	2542.72
423.224	2690.18
423.432	2790.53
423.64	2743.42
423.848	2974.85
424.056	2892.93
424.263	3224.7
424.471	3236.99
424.679	3210.36
424.887	3378.3
425.094	3437.69
425.302	3505.27
425.51	3699.83
425.718	3785.84
425.925	3771.51
426.133	3980.4
426.341	4271.21
426.548	4338.79
426.756	4220.01
426.964	4457.57
427.171	4598.88
427.379	4744.29
427.586	4822.11
427.794	4834.4
428.001	5250.14
428.209	5469.27
428.417	5446.74
428.624	5563.48
428.832	5846.1
429.039	5760.08
429.247	5649.49
429.454	6247.5
429.662	6796.35
429.869	6362.19
430.076	6571.08
430.284	6554.69
430.491	6878.27
430.699	7218.24
430.906	7222.33
431.114	7281.72
431.321	7511.1
431.528	7879.73
431.736	8176.69
431.943	8563.75
432.15	8397.87
432.358	8367.15
432.565	8746.02
432.772	8907.81
432.979	9321.5
433.187	9409.56
433.394	9417.75
433.601	10026
433.808	10056.72
434.016	10054.67
434.223	10449.93
434.43	11318.27
434.637	10822.66
434.844	11678.71
435.052	11760.63
435.259	11478.01
435.466	11871.22
435.673	11693.05
435.88	12383.21
436.087	13110.24
436.294	13188.07
436.501	13128.67
436.708	13100
436.915	13462.49
437.122	14189.52
437.329	14087.12
437.537	14726.09
437.743	14896.07
437.95	14799.82
438.157	15672.25
438.364	16061.37
438.571	15864.76
438.778	15846.33
438.985	17507.23
439.192	16739.24
439.399	17623.97
439.606	17304.48
439.813	18041.75
440.02	19071.88
440.227	18789.26
440.433	18588.56
440.64	19143.56
440.847	19104.65
441.054	19385.22
441.261	20833.13
441.467	20538.23
441.674	20990.83
441.881	21760.86
442.088	21818.21
442.294	21601.12
442.501	22391.64
442.708	22422.36
442.914	23595.84
443.121	24386.36
443.328	23720.77
443.534	25463.59
443.741	24716.08
443.948	24226.62
444.154	26198.81
444.361	25701.15
444.568	26114.84
444.774	26098.46
444.981	26553.11
445.187	27448.07
445.394	28140.29
445.6	27929.34
445.807	30890.71
446.013	29145.84
446.22	29948.64
446.426	30862.04
446.633	31048.4
446.839	32213.7
447.046	30933.71
447.252	32860.85
447.459	32885.43
447.665	32576.19
447.871	34181.79
448.078	35426.96
448.284	33606.31
448.491	34874.01
448.697	36135.56
448.903	36328.06
449.11	36815.48
449.316	36371.07
449.522	36809.34
449.728	37804.65
449.935	38228.58
450.141	37878.38
450.347	38888.03
450.553	37743.21
450.76	38412.9
450.966	39361.11
451.172	38773.34
451.378	39844.43
451.584	38990.42
451.791	39770.7
451.997	39891.53
452.203	40438.34
452.409	40342.08
452.615	40004.17
452.821	38720.09
453.027	38437.47
453.233	40299.08
453.44	38955.61
453.646	39262.8
453.852	39158.36
454.058	39481.94
454.264	38558.3
454.47	39324.24
454.676	38543.97
454.882	39699.02
455.088	36366.98
455.294	36950.65
455.5	37294.71
455.705	37622.38
455.911	36190.85
456.117	35256.98
456.323	35027.6
456.529	33405.61
456.735	34554.52
456.941	34067.11
457.147	33135.28
457.352	32236.22
457.558	31324.88
457.764	31644.36
457.97	31312.59
458.176	30677.72
458.381	30626.52
458.587	29037.3
458.793	28957.42
458.999	27583.24
459.204	29315.82
459.41	28441.34
459.616	26772.24
459.821	26485.53
460.027	26362.65
460.233	26159.9
460.438	24597.3
460.644	25199.4
460.85	23753.54
461.055	23337.8
461.261	23522.12
461.466	21803.87
461.672	21261.16
461.878	22700.88
462.083	21091.18
462.289	20882.28
462.494	20466.55
462.7	19542.91
462.905	18934.67
463.111	19747.71
463.316	19645.31
463.522	19325.83
463.727	19307.4
463.932	19348.36
464.138	19092.36
464.343	19383.17
464.549	18598.8
464.754	19141.51
464.959	18989.96
465.165	18805.64
465.37	18056.09
465.575	17427.36
465.781	18242.45
465.986	18508.69
466.191	17851.29
466.397	17415.07
466.602	16602.03
466.807	17212.32
467.012	17238.95
467.218	16972.71
