Data from USB4F104151__83__12-02-16-265.txt Node

Date: Fri Mar 14 12:02:16 EDT 2025
User: louis
Spectrometer: USB4F10415
Trigger mode: 4
Integration Time (sec): 2.000000E-2
Scans to average: 1
Electric dark correction enabled: true
Nonlinearity correction enabled: false
Boxcar width: 0
XAxis mode: Wavelengths
Number of Pixels in Spectrum: 3648
>>>>>Begin Spectral Data<<<<<
178.204	-107.01
178.424	-107.01
178.644	-107.01
178.864	-102.91
179.084	-94.72
179.304	-8.7
179.524	9.73
179.744	28.16
179.964	-14.85
180.184	60.93
180.404	-31.23
180.624	15.87
180.844	-10.75
181.064	-55.81
181.283	13.82
181.503	-43.52
181.723	36.35
181.943	-61.95
182.163	83.45
182.383	40.45
182.602	67.07
182.822	15.87
183.042	34.3
183.262	-10.75
183.482	-14.85
183.701	5.63
183.921	22.02
184.141	-55.81
184.361	38.4
184.58	40.45
184.8	34.3
185.02	-20.99
185.239	9.73
185.459	30.21
185.679	-41.47
185.898	15.87
186.118	95.74
186.338	67.07
186.557	3.58
186.777	28.16
186.997	-10.75
187.216	-23.04
187.436	24.06
187.655	-27.14
187.875	36.35
188.095	24.06
188.314	116.22
188.534	-12.8
188.753	-16.9
188.973	-16.9
189.192	58.88
189.412	-20.99
189.631	-0.51
189.851	34.3
190.07	73.21
190.29	-6.66
190.509	-35.33
190.729	-2.56
190.948	-23.04
191.168	75.26
191.387	101.89
191.607	19.97
191.826	38.4
192.045	9.73
192.265	-35.33
192.484	-31.23
192.704	-31.23
192.923	-33.28
193.142	22.02
193.362	34.3
193.581	56.83
193.8	105.98
194.02	19.97
194.239	-10.75
194.458	126.46
194.678	32.26
194.897	54.78
195.116	-6.66
195.335	42.5
195.555	24.06
195.774	56.83
195.993	54.78
196.212	7.68
196.432	22.02
196.651	32.26
196.87	-8.7
197.089	56.83
197.308	38.4
197.528	75.26
197.747	3.58
197.966	-35.33
198.185	17.92
198.404	11.78
198.623	34.3
198.842	-35.33
199.062	26.11
199.281	3.58
199.5	-25.09
199.719	1.54
199.938	-14.85
200.157	40.45
200.376	15.87
200.595	108.03
200.814	24.06
201.033	7.68
201.252	54.78
201.471	17.92
201.69	-14.85
201.909	87.55
202.128	136.7
202.347	40.45
202.566	11.78
202.785	28.16
203.004	-49.66
203.223	93.69
203.442	87.55
203.661	-8.7
203.879	40.45
204.098	38.4
204.317	-12.8
204.536	73.21
204.755	15.87
204.974	38.4
205.193	-31.23
205.411	128.51
205.63	44.54
205.849	-6.66
206.068	13.82
206.287	58.88
206.505	26.11
206.724	52.74
206.943	28.16
207.162	-20.99
207.381	-10.75
207.599	50.69
207.818	-14.85
208.037	9.73
208.255	5.63
208.474	36.35
208.693	17.92
208.911	-64
209.13	9.73
209.349	3.58
209.567	-0.51
209.786	79.36
210.005	32.26
210.223	17.92
210.442	-39.42
210.661	1.54
210.879	-55.81
211.098	112.13
211.316	48.64
211.535	46.59
211.753	1.54
211.972	1.54
212.191	56.83
212.409	67.07
212.628	9.73
212.846	17.92
213.065	-41.47
213.283	50.69
213.502	3.58
213.72	30.21
213.938	26.11
214.157	-20.99
214.375	28.16
214.594	48.64
214.812	3.58
215.031	73.21
215.249	-10.75
215.467	52.74
215.686	75.26
215.904	112.13
216.122	36.35
216.341	77.31
216.559	26.11
216.778	38.4
216.996	60.93
217.214	91.65
217.432	3.58
217.651	-72.19
217.869	-27.14
218.087	73.21
218.306	-27.14
218.524	-25.09
218.742	17.92
218.96	34.3
219.179	-14.85
219.397	56.83
219.615	28.16
219.833	93.69
220.051	-64
220.27	77.31
220.488	5.63
220.706	26.11
220.924	1.54
221.142	15.87
221.36	7.68
221.578	26.11
221.796	28.16
222.015	24.06
222.233	50.69
222.451	32.26
222.669	-72.19
222.887	38.4
223.105	56.83
223.323	17.92
223.541	-49.66
223.759	32.26
223.977	-8.7
224.195	24.06
224.413	-23.04
224.631	95.74
224.849	26.11
225.067	69.12
225.285	58.88
225.503	7.68
225.721	-35.33
225.939	42.5
226.157	3.58
226.375	54.78
226.592	-37.38
226.81	38.4
227.028	11.78
227.246	83.45
227.464	-2.56
227.682	44.54
227.9	28.16
228.117	32.26
228.335	-20.99
228.553	67.07
228.771	-27.14
228.989	36.35
229.206	15.87
229.424	-51.71
229.642	83.45
229.86	-57.86
230.077	56.83
230.295	28.16
230.513	67.07
230.731	48.64
230.948	69.12
231.166	91.65
231.384	3.58
231.601	-6.66
231.819	36.35
232.037	52.74
232.254	48.64
232.472	22.02
232.689	-12.8
232.907	11.78
233.125	-18.94
233.342	17.92
233.56	38.4
233.777	54.78
233.995	48.64
234.213	46.59
234.43	26.11
234.648	-35.33
234.865	-39.42
235.083	17.92
235.3	15.87
235.518	77.31
235.735	9.73
235.953	79.36
236.17	17.92
236.388	34.3
236.605	73.21
236.822	60.93
237.04	67.07
237.257	-20.99
237.475	15.87
237.692	91.65
237.909	22.02
238.127	44.54
238.344	54.78
238.562	87.55
238.779	-61.95
238.996	81.41
239.214	-2.56
239.431	-25.09
239.648	-23.04
239.865	7.68
240.083	46.59
240.3	-27.14
240.517	-31.23
240.735	40.45
240.952	15.87
241.169	9.73
241.386	34.3
241.603	52.74
241.821	48.64
242.038	28.16
242.255	71.17
242.472	48.64
242.689	34.3
242.907	108.03
243.124	65.02
243.341	42.5
243.558	36.35
243.775	13.82
243.992	56.83
244.209	-8.7
244.426	54.78
244.643	124.41
244.86	3.58
245.078	-10.75
245.295	87.55
245.512	22.02
245.729	-55.81
245.946	-4.61
246.163	-4.61
246.38	67.07
246.597	116.22
246.814	60.93
247.031	69.12
247.248	-41.47
247.464	-0.51
247.681	62.98
247.898	40.45
248.115	83.45
248.332	52.74
248.549	5.63
248.766	19.97
248.983	40.45
249.2	44.54
249.417	46.59
249.633	54.78
249.85	22.02
250.067	22.02
250.284	-23.04
250.501	60.93
250.717	48.64
250.934	-12.8
251.151	22.02
251.368	-53.76
251.585	44.54
251.801	71.17
252.018	46.59
252.235	50.69
252.451	85.5
252.668	73.21
252.885	32.26
253.102	26.11
253.318	7.68
253.535	7.68
253.752	-12.8
253.968	7.68
254.185	52.74
254.401	-18.94
254.618	26.11
254.835	62.98
255.051	77.31
255.268	-2.56
255.484	44.54
255.701	99.84
255.917	99.84
256.134	48.64
256.351	65.02
256.567	-55.81
256.784	-4.61
257	24.06
257.217	58.88
257.433	26.11
257.65	13.82
257.866	71.17
258.082	46.59
258.299	67.07
258.515	34.3
258.732	28.16
258.948	54.78
259.165	28.16
259.381	58.88
259.597	26.11
259.814	44.54
260.03	108.03
260.246	-10.75
260.463	-27.14
260.679	85.5
260.895	-57.86
261.112	77.31
261.328	-59.9
261.544	24.06
261.761	36.35
261.977	-41.47
262.193	30.21
262.409	130.56
262.626	97.79
262.842	9.73
263.058	1.54
263.274	-0.51
263.49	50.69
263.707	-20.99
263.923	-14.85
264.139	28.16
264.355	60.93
264.571	46.59
264.787	40.45
265.004	103.93
265.22	-8.7
265.436	-64
265.652	-2.56
265.868	17.92
266.084	-2.56
266.3	1.54
266.516	-43.52
266.732	-10.75
266.948	11.78
267.164	34.3
267.38	7.68
267.596	138.75
267.812	122.37
268.028	-10.75
268.244	3.58
268.46	91.65
268.676	24.06
268.892	7.68
269.108	13.82
269.324	42.5
269.54	-14.85
269.756	71.17
269.972	44.54
270.188	118.27
270.403	36.35
270.619	42.5
270.835	34.3
271.051	73.21
271.267	-51.71
271.483	3.58
271.698	67.07
271.914	93.69
272.13	95.74
272.346	-8.7
272.562	17.92
272.777	110.08
272.993	46.59
273.209	-6.66
273.425	7.68
273.64	-27.14
273.856	19.97
274.072	32.26
274.287	24.06
274.503	105.98
274.719	60.93
274.934	-23.04
275.15	44.54
275.366	-10.75
275.581	-18.94
275.797	62.98
276.012	-31.23
276.228	15.87
276.444	-0.51
276.659	3.58
276.875	50.69
277.09	-14.85
277.306	-33.28
277.521	91.65
277.737	83.45
277.952	75.26
278.168	42.5
278.383	54.78
278.599	1.54
278.814	46.59
279.03	34.3
279.245	89.6
279.461	13.82
279.676	24.06
279.892	30.21
280.107	-10.75
280.322	-35.33
280.538	42.5
280.753	-4.61
280.969	38.4
281.184	65.02
281.399	-16.9
281.615	42.5
281.83	71.17
282.045	-27.14
282.26	32.26
282.476	75.26
282.691	32.26
282.906	56.83
283.122	50.69
283.337	17.92
283.552	5.63
283.767	60.93
283.983	69.12
284.198	26.11
284.413	48.64
284.628	30.21
284.843	81.41
285.058	32.26
285.274	28.16
285.489	60.93
285.704	71.17
285.919	-57.86
286.134	79.36
286.349	87.55
286.564	36.35
286.779	54.78
286.995	15.87
287.21	67.07
287.425	28.16
287.64	-25.09
287.855	26.11
288.07	13.82
288.285	91.65
288.5	71.17
288.715	118.27
288.93	30.21
289.145	73.21
289.36	28.16
289.575	1.54
289.79	24.06
290.004	38.4
290.219	75.26
290.434	26.11
290.649	40.45
290.864	28.16
291.079	-43.52
291.294	56.83
291.509	116.22
291.724	-37.38
291.938	58.88
292.153	-33.28
292.368	46.59
292.583	-31.23
292.798	32.26
293.012	34.3
293.227	79.36
293.442	24.06
293.657	73.21
293.871	118.27
294.086	73.21
294.301	132.61
294.516	48.64
294.73	60.93
294.945	-66.05
295.16	-14.85
295.374	5.63
295.589	89.6
295.804	50.69
296.018	-33.28
296.233	54.78
296.447	48.64
296.662	-45.57
296.877	71.17
297.091	60.93
297.306	-20.99
297.52	13.82
297.735	132.61
297.949	1.54
298.164	24.06
298.378	-6.66
298.593	28.16
298.807	-6.66
299.022	91.65
299.236	7.68
299.451	46.59
299.665	38.4
299.88	34.3
300.094	26.11
300.309	24.06
300.523	44.54
300.737	-59.9
300.952	112.13
301.166	-10.75
301.381	-25.09
301.595	34.3
301.809	7.68
302.024	34.3
302.238	-12.8
302.452	73.21
302.667	5.63
302.881	91.65
303.095	58.88
303.309	128.51
303.524	38.4
303.738	50.69
303.952	3.58
304.166	38.4
304.381	-51.71
304.595	19.97
304.809	144.89
305.023	34.3
305.237	-14.85
305.452	48.64
305.666	65.02
305.88	-10.75
306.094	34.3
306.308	73.21
306.522	91.65
306.736	69.12
306.95	3.58
307.164	32.26
307.379	-8.7
307.593	56.83
307.807	108.03
308.021	15.87
308.235	34.3
308.449	-94.72
308.663	-12.8
308.877	71.17
309.091	56.83
309.305	13.82
309.519	1.54
309.733	142.85
309.947	87.55
310.161	28.16
310.374	93.69
310.588	5.63
310.802	15.87
311.016	54.78
311.23	58.88
311.444	24.06
311.658	19.97
311.872	-10.75
312.085	-39.42
312.299	73.21
312.513	73.21
312.727	19.97
312.941	1.54
313.154	77.31
313.368	7.68
313.582	13.82
313.796	73.21
314.009	1.54
314.223	114.17
314.437	-33.28
314.651	67.07
314.864	-8.7
315.078	58.88
315.292	103.93
315.505	89.6
315.719	52.74
315.933	56.83
316.146	13.82
316.36	-64
316.573	60.93
316.787	73.21
317.001	-25.09
317.214	60.93
317.428	50.69
317.641	-4.61
317.855	-6.66
318.068	85.5
318.282	83.45
318.495	124.41
318.709	-6.66
318.922	69.12
319.136	34.3
319.349	24.06
319.563	56.83
319.776	65.02
319.99	1.54
320.203	103.93
320.417	26.11
320.63	99.84
320.843	46.59
321.057	-8.7
321.27	13.82
321.483	22.02
321.697	17.92
321.91	87.55
322.124	73.21
322.337	15.87
322.55	28.16
322.763	17.92
322.977	50.69
323.19	103.93
323.403	11.78
323.617	50.69
323.83	46.59
324.043	32.26
324.256	136.7
324.469	-0.51
324.683	75.26
324.896	40.45
325.109	105.98
325.322	-41.47
325.535	40.45
325.748	44.54
325.962	5.63
326.175	36.35
326.388	103.93
326.601	60.93
326.814	-6.66
327.027	87.55
327.24	73.21
327.453	19.97
327.666	130.56
327.879	69.12
328.092	83.45
328.305	83.45
328.518	-8.7
328.731	36.35
328.944	54.78
329.157	24.06
329.37	-23.04
329.583	48.64
329.796	62.98
330.009	73.21
330.222	-31.23
330.435	28.16
330.648	99.84
330.861	24.06
331.073	40.45
331.286	7.68
331.499	-12.8
331.712	48.64
331.925	46.59
332.138	-16.9
332.35	126.46
332.563	-61.95
332.776	24.06
332.989	1.54
333.202	77.31
333.414	58.88
333.627	17.92
333.84	46.59
334.053	54.78
334.265	9.73
334.478	32.26
334.691	36.35
334.903	46.59
335.116	71.17
335.329	32.26
335.541	101.89
335.754	-37.38
335.966	-2.56
336.179	54.78
336.392	85.5
336.604	50.69
336.817	155.13
337.029	122.37
337.242	1.54
337.454	81.41
337.667	-4.61
337.88	42.5
338.092	-14.85
338.305	128.51
338.517	-33.28
338.729	-16.9
338.942	17.92
339.154	17.92
339.367	24.06
339.579	28.16
339.792	-14.85
340.004	42.5
340.217	48.64
340.429	-27.14
340.641	38.4
340.854	62.98
341.066	26.11
341.278	30.21
341.491	87.55
341.703	99.84
341.915	77.31
342.128	93.69
342.34	1.54
342.552	22.02
342.764	81.41
342.977	-0.51
343.189	75.26
343.401	28.16
343.613	5.63
343.826	73.21
344.038	97.79
344.25	28.16
344.462	42.5
344.674	93.69
344.886	-0.51
345.099	34.3
345.311	65.02
345.523	5.63
345.735	-39.42
345.947	44.54
346.159	48.64
346.371	87.55
346.583	15.87
346.795	42.5
347.007	44.54
347.219	13.82
347.431	-6.66
347.643	32.26
347.855	-16.9
348.067	126.46
348.279	103.93
348.491	40.45
348.703	15.87
348.915	40.45
349.127	-12.8
349.339	136.7
349.551	71.17
349.763	56.83
349.975	58.88
350.187	118.27
350.399	50.69
350.61	85.5
350.822	26.11
351.034	73.21
351.246	28.16
351.458	81.41
351.669	81.41
351.881	103.93
352.093	91.65
352.305	58.88
352.517	52.74
352.728	44.54
352.94	91.65
353.152	60.93
353.363	-72.19
353.575	114.17
353.787	69.12
353.999	95.74
354.21	95.74
354.422	112.13
354.633	56.83
354.845	15.87
355.057	58.88
355.268	50.69
355.48	46.59
355.692	99.84
355.903	3.58
356.115	79.36
356.326	9.73
356.538	99.84
356.749	89.6
356.961	159.23
357.172	56.83
357.384	24.06
357.595	103.93
357.807	58.88
358.018	11.78
358.23	48.64
358.441	89.6
358.653	118.27
358.864	60.93
359.075	91.65
359.287	40.45
359.498	67.07
359.709	132.61
359.921	52.74
360.132	52.74
360.344	124.41
360.555	32.26
360.766	54.78
360.977	-8.7
361.189	22.02
361.4	56.83
361.611	44.54
361.823	110.08
362.034	52.74
362.245	19.97
362.456	28.16
362.667	138.75
362.879	40.45
363.09	126.46
363.301	-41.47
363.512	19.97
363.723	65.02
363.935	36.35
364.146	93.69
364.357	62.98
364.568	85.5
364.779	24.06
364.99	118.27
365.201	91.65
365.412	101.89
365.623	44.54
365.834	116.22
366.045	62.98
366.256	71.17
366.467	142.85
366.678	36.35
366.889	54.78
367.1	65.02
367.311	83.45
367.522	48.64
367.733	146.94
367.944	50.69
368.155	67.07
368.366	112.13
368.577	44.54
368.788	60.93
368.999	62.98
369.209	67.07
369.42	67.07
369.631	71.17
369.842	7.68
370.053	40.45
370.264	62.98
370.474	65.02
370.685	54.78
370.896	79.36
371.107	38.4
371.317	15.87
371.528	30.21
371.739	62.98
371.95	3.58
372.16	56.83
372.371	67.07
372.582	132.61
372.792	5.63
373.003	110.08
373.214	58.88
373.424	105.98
373.635	128.51
373.846	99.84
374.056	38.4
374.267	-14.85
374.477	85.5
374.688	101.89
374.898	77.31
375.109	46.59
375.319	114.17
375.53	91.65
375.74	54.78
375.951	159.23
376.161	77.31
376.372	48.64
376.582	34.3
376.793	28.16
377.003	50.69
377.214	75.26
377.424	83.45
377.635	50.69
377.845	11.78
378.055	114.17
378.266	30.21
378.476	22.02
378.686	22.02
378.897	67.07
379.107	-25.09
379.317	132.61
379.528	28.16
379.738	36.35
379.948	56.83
380.158	132.61
380.369	48.64
380.579	89.6
380.789	93.69
380.999	28.16
381.21	146.94
381.42	81.41
381.63	99.84
381.84	1.54
382.05	44.54
382.261	87.55
382.471	19.97
382.681	73.21
382.891	114.17
383.101	56.83
383.311	-12.8
383.521	30.21
383.731	105.98
383.941	105.98
384.151	134.65
384.361	42.5
384.571	108.03
384.781	71.17
384.991	77.31
385.201	105.98
385.411	101.89
385.621	105.98
385.831	44.54
386.041	44.54
386.251	38.4
386.461	89.6
386.671	79.36
386.881	89.6
387.091	93.69
387.301	50.69
387.511	48.64
387.72	130.56
387.93	48.64
388.14	108.03
388.35	105.98
388.56	32.26
388.769	83.45
388.979	28.16
389.189	3.58
389.399	67.07
389.609	134.65
389.818	62.98
390.028	65.02
390.238	83.45
390.447	17.92
390.657	103.93
390.867	50.69
391.076	136.7
391.286	79.36
391.496	62.98
391.705	81.41
391.915	95.74
392.125	126.46
392.334	118.27
392.544	101.89
392.753	126.46
392.963	69.12
393.172	157.18
393.382	69.12
393.591	192
393.801	75.26
394.01	148.99
394.22	85.5
394.429	97.79
394.639	52.74
394.848	89.6
395.058	22.02
395.267	122.37
395.477	116.22
395.686	189.95
395.895	128.51
396.105	163.33
396.314	97.79
396.524	159.23
396.733	122.37
396.942	120.32
397.152	153.09
397.361	159.23
397.57	126.46
397.78	134.65
397.989	189.95
398.198	116.22
398.407	132.61
398.617	120.32
398.826	108.03
399.035	146.94
399.244	136.7
399.453	124.41
399.663	83.45
399.872	112.13
400.081	120.32
400.29	183.81
400.499	81.41
400.708	146.94
400.917	118.27
401.127	81.41
401.336	122.37
401.545	124.41
401.754	155.13
401.963	202.24
402.172	183.81
402.381	175.61
402.59	146.94
402.799	179.71
403.008	134.65
403.217	200.19
403.426	159.23
403.635	237.05
403.844	171.52
404.053	198.14
404.262	151.04
404.471	202.24
404.68	210.43
404.888	185.85
405.097	185.85
405.306	228.86
405.515	105.98
405.724	202.24
405.933	284.16
406.142	257.53
406.35	294.4
406.559	306.68
406.768	316.92
406.977	394.75
407.185	343.55
407.394	321.02
407.603	167.42
407.812	327.16
408.02	357.88
408.229	355.83
408.438	372.22
408.646	302.59
408.855	333.31
409.064	355.83
409.272	368.12
409.481	411.13
409.69	427.51
409.898	458.23
410.107	382.46
410.315	450.04
410.524	437.75
410.733	462.33
410.941	486.9
411.15	497.14
411.358	509.43
411.567	521.72
411.775	566.78
411.984	529.91
412.192	634.36
412.401	585.21
412.609	695.8
412.818	769.52
413.026	652.79
413.234	693.75
413.443	720.37
413.651	765.43
413.86	753.14
414.068	937.46
414.276	908.79
414.485	933.36
414.693	927.22
414.901	939.51
415.11	1039.86
415.318	1007.09
415.526	1103.34
415.734	1050.1
415.943	1078.77
416.151	1111.54
416.359	1211.89
416.567	1220.08
416.776	1144.3
416.984	1369.58
417.192	1426.92
417.4	1330.67
417.608	1342.96
417.817	1492.46
418.025	1529.32
418.233	1674.73
418.441	1687.01
418.649	1709.54
418.857	1777.12
419.065	1912.29
419.273	1826.28
419.481	1871.33
419.689	2033.12
419.897	2180.57
420.105	2156
420.313	2301.4
420.521	2293.21
420.729	2385.37
420.937	2442.71
421.145	2532.83
421.353	2563.54
421.561	2735.57
421.769	2760.15
421.977	3024.34
422.185	2975.19
422.393	3055.06
422.601	3335.63
422.809	3104.21
423.017	3325.39
423.224	3478.99
423.432	3585.48
423.64	3610.06
423.848	4042.18
424.056	3849.67
424.263	4064.71
424.471	4103.62
424.679	4232.64
424.887	4468.16
425.094	4521.4
425.302	4683.19
425.51	4728.25
425.718	4900.28
425.925	5041.59
426.133	5277.1
426.341	5547.44
426.548	5764.52
426.756	5727.66
426.964	5911.97
427.171	6043.04
427.379	6301.09
427.586	6448.54
427.794	6532.51
428.001	6890.9
428.209	7114.13
428.417	7179.67
428.624	7613.84
428.832	7472.53
429.039	7398.8
429.247	7554.44
429.454	8404.35
429.662	8779.13
429.869	8240.51
430.076	8953.21
430.284	8545.66
430.491	9090.42
430.699	9522.54
430.906	9420.14
431.114	9739.63
431.321	9913.7
431.528	10161.51
431.736	10796.38
431.943	11287.89
432.15	10861.91
432.358	10870.11
432.565	11732.3
432.772	11554.13
432.979	12332.36
433.187	12164.42
433.394	12639.55
433.601	13591.86
433.808	13552.95
434.016	13421.88
434.223	13763.89
434.43	14853.41
434.637	14585.12
434.844	15449.36
435.052	15471.89
435.259	15582.48
435.466	15856.91
435.673	15715.6
435.88	16489.73
436.087	17304.82
436.294	17444.09
436.501	17063.16
436.708	17341.69
436.915	18134.25
437.122	18760.93
437.329	18865.38
437.537	19469.53
437.743	19612.88
437.95	19633.36
438.157	20561.09
438.364	21146.81
438.571	21238.97
438.778	20999.36
438.985	23340.19
439.192	22310.06
439.399	22908.07
439.606	22590.63
439.813	23798.93
440.02	25068.67
440.227	24665.22
440.433	24392.84
440.64	25416.83
440.847	25216.13
441.054	25910.39
441.261	27411.55
441.467	27229.28
441.674	27735.13
441.881	28599.37
442.088	28478.54
442.294	28402.77
442.501	29078.6
442.708	29713.47
442.914	30673.96
443.121	31999
443.328	31237.16
443.534	33248.26
443.741	32316.43
443.948	31966.23
444.154	34339.83
444.361	34159.61
444.568	34251.77
444.774	34354.16
444.981	34829.29
445.187	35578.85
445.394	37028.81
445.6	36606.93
445.807	40031.13
446.013	38478.77
446.22	38910.89
446.426	40450.97
446.633	40866.7
446.839	42537.85
447.046	40594.32
447.252	42828.66
447.459	43127.66
447.665	42390.39
447.871	44479.32
448.078	46289.73
448.284	44544.86
448.491	45228.88
448.697	47338.29
448.903	47711.02
449.11	47934.24
449.316	47016.75
449.522	47821.61
449.728	49199.89
449.935	49326.86
450.141	49283.86
450.347	50422.53
450.553	49058.58
450.76	49539.85
450.966	51587.82
451.172	50719.48
451.378	51632.88
451.584	50639.61
451.791	52177.64
451.997	51636.97
452.203	52955.86
452.409	52663
452.615	52028.13
452.821	50518.78
453.027	49845
453.233	52304.61
453.44	50547.45
453.646	50719.48
453.852	51294.96
454.058	51903.21
454.264	50078.47
454.47	50989.81
454.676	49933.06
454.882	51929.83
455.088	47559.47
455.294	48106.27
455.5	48505.63
455.705	48685.85
455.911	46988.08
456.117	46498.62
456.323	46046.02
456.529	43234.16
456.735	45228.88
456.941	44366.68
457.147	43092.85
457.352	42083.2
457.558	41323.4
457.764	41534.34
457.97	40817.55
458.176	40199.07
458.381	40031.13
458.587	37774.27
458.793	38120.38
458.999	36174.81
459.204	38556.6
459.41	37452.74
459.616	34860.01
459.821	35195.88
460.027	34667.5
460.233	33948.67
460.438	32586.77
460.644	32982.02
460.85	31396.9
461.055	30839.85
461.261	30764.07
461.466	28644.43
461.672	27776.09
461.878	29271.11
462.083	27640.92
462.289	27223.14
462.494	27051.11
462.7	25543.8
462.905	24919.17
463.111	25863.29
463.316	25779.32
463.522	25345.15
463.727	25523.32
463.932	25312.38
464.138	24919.17
464.343	24894.6
464.549	24456.33
464.754	25095.3
464.959	25121.92
465.165	24767.62
465.37	23966.87
465.575	23172.25
465.781	24321.16
465.986	24728.71
466.191	23389.34
466.397	22709.41
466.602	21802.16
466.807	22680.74
