Data from USB4F104151__40__12-00-50-911.txt Node

Date: Fri Mar 14 12:00:50 EDT 2025
User: louis
Spectrometer: USB4F10415
Trigger mode: 4
Integration Time (sec): 2.000000E-2
Scans to average: 1
Electric dark correction enabled: true
Nonlinearity correction enabled: false
Boxcar width: 0
XAxis mode: Wavelengths
Number of Pixels in Spectrum: 3648
>>>>>Begin Spectral Data<<<<<
178.204	-71.34
178.424	-71.34
178.644	-71.34
178.864	-145.06
179.084	-20.14
179.304	20.82
179.524	53.59
179.744	-32.43
179.964	14.68
180.184	18.77
180.404	-93.87
180.624	24.92
180.844	18.77
181.064	-50.86
181.283	20.82
181.503	-30.38
181.723	35.16
181.943	-46.76
182.163	112.98
182.383	-16.04
182.602	65.88
182.822	61.78
183.042	29.01
183.262	-57
183.482	-34.47
183.701	53.59
183.921	20.82
184.141	39.25
184.361	63.83
184.58	10.58
184.8	31.06
185.02	10.58
185.239	29.01
185.459	-18.09
185.679	26.96
185.898	37.2
186.118	-22.19
186.338	39.25
186.557	43.35
186.777	-22.19
186.997	-36.52
187.216	6.49
187.436	12.63
187.655	-48.81
187.875	84.31
188.095	-61.1
188.314	12.63
188.534	61.78
188.753	-16.04
188.973	72.02
189.192	78.16
189.412	72.02
189.631	61.78
189.851	29.01
190.07	74.07
190.29	-28.33
190.509	-38.57
190.729	51.54
190.948	29.01
191.168	86.36
191.387	72.02
191.607	6.49
191.826	86.36
192.045	45.4
192.265	57.68
192.484	43.35
192.704	-28.33
192.923	10.58
193.142	155.99
193.362	-34.47
193.581	43.35
193.8	65.88
194.02	59.73
194.239	-38.57
194.458	-22.19
194.678	-13.99
194.897	18.77
195.116	16.73
195.335	10.58
195.555	16.73
195.774	41.3
195.993	49.49
196.212	2.39
196.432	35.16
196.651	-40.62
196.87	-42.67
197.089	108.88
197.308	20.82
197.528	6.49
197.747	18.77
197.966	57.68
198.185	82.26
198.404	2.39
198.623	63.83
198.842	-3.75
199.062	33.11
199.281	43.35
199.5	63.83
199.719	-30.38
199.938	-40.62
200.157	53.59
200.376	43.35
200.595	0.34
200.814	31.06
201.033	-24.23
201.252	24.92
201.471	18.77
201.69	4.44
201.909	96.6
202.128	29.01
202.347	-48.81
202.566	65.88
202.785	31.06
203.004	-3.75
203.223	-24.23
203.442	69.97
203.661	4.44
203.879	-24.23
204.098	33.11
204.317	-7.85
204.536	12.63
204.755	-32.43
204.974	74.07
205.193	45.4
205.411	86.36
205.63	29.01
205.849	63.83
206.068	12.63
206.287	-3.75
206.505	65.88
206.724	37.2
206.943	-16.04
207.162	-20.14
207.381	8.53
207.599	-20.14
207.818	-24.23
208.037	-52.91
208.255	2.39
208.474	37.2
208.693	20.82
208.911	31.06
209.13	18.77
209.349	47.44
209.567	80.21
209.786	67.92
210.005	94.55
210.223	98.64
210.442	-26.28
210.661	63.83
210.879	51.54
211.098	-22.19
211.316	41.3
211.535	26.96
211.753	-7.85
211.972	8.53
212.191	-42.67
212.409	-54.95
212.628	-20.14
212.846	18.77
213.065	55.64
213.283	55.64
213.502	29.01
213.72	53.59
213.938	-20.14
214.157	-13.99
214.375	0.34
214.594	-26.28
214.812	-22.19
215.031	43.35
215.249	35.16
215.467	33.11
215.686	6.49
215.904	80.21
216.122	31.06
216.341	29.01
216.559	69.97
216.778	61.78
216.996	74.07
217.214	-13.99
217.432	-20.14
217.651	6.49
217.869	69.97
218.087	31.06
218.306	10.58
218.524	59.73
218.742	41.3
218.96	6.49
219.179	-48.81
219.397	10.58
219.615	29.01
219.833	-3.75
220.051	18.77
220.27	80.21
220.488	47.44
220.706	-3.75
220.924	12.63
221.142	22.87
221.36	37.2
221.578	-16.04
221.796	14.68
222.015	76.12
222.233	24.92
222.451	24.92
222.669	26.96
222.887	59.73
223.105	4.44
223.323	78.16
223.541	47.44
223.759	41.3
223.977	22.87
224.195	76.12
224.413	74.07
224.631	57.68
224.849	-42.67
225.067	33.11
225.285	43.35
225.503	49.49
225.721	-9.9
225.939	33.11
226.157	72.02
226.375	76.12
226.592	-38.57
226.81	-1.71
227.028	-9.9
227.246	18.77
227.464	41.3
227.682	39.25
227.9	24.92
228.117	-75.43
228.335	22.87
228.553	-52.91
228.771	39.25
228.989	26.96
229.206	8.53
229.424	-16.04
229.642	29.01
229.86	20.82
230.077	65.88
230.295	49.49
230.513	151.89
230.731	-1.71
230.948	10.58
231.166	33.11
231.384	2.39
231.601	12.63
231.819	43.35
232.037	-32.43
232.254	35.16
232.472	47.44
232.689	59.73
232.907	127.32
233.125	12.63
233.342	47.44
233.56	8.53
233.777	55.64
233.995	16.73
234.213	102.74
234.43	8.53
234.648	43.35
234.865	2.39
235.083	14.68
235.3	106.84
235.518	55.64
235.735	72.02
235.953	4.44
236.17	-26.28
236.388	57.68
236.605	24.92
236.822	49.49
237.04	57.68
237.257	53.59
237.475	-26.28
237.692	88.4
237.909	2.39
238.127	0.34
238.344	61.78
238.562	41.3
238.779	49.49
238.996	-50.86
239.214	4.44
239.431	39.25
239.648	65.88
239.865	39.25
240.083	26.96
240.3	37.2
240.517	-20.14
240.735	-28.33
240.952	8.53
241.169	35.16
241.386	57.68
241.603	49.49
241.821	16.73
242.038	24.92
242.255	2.39
242.472	37.2
242.689	43.35
242.907	41.3
243.124	18.77
243.341	6.49
243.558	22.87
243.775	4.44
243.992	-1.71
244.209	-5.8
244.426	18.77
244.643	33.11
244.86	0.34
245.078	10.58
245.295	-16.04
245.512	92.5
245.729	61.78
245.946	-18.09
246.163	16.73
246.38	20.82
246.597	43.35
246.814	-7.85
247.031	12.63
247.248	47.44
247.464	47.44
247.681	-36.52
247.898	125.27
248.115	59.73
248.332	-32.43
248.549	45.4
248.766	22.87
248.983	78.16
249.2	0.34
249.417	76.12
249.633	-38.57
249.85	14.68
250.067	67.92
250.284	-16.04
250.501	14.68
250.717	86.36
250.934	-57
251.151	61.78
251.368	31.06
251.585	20.82
251.801	59.73
252.018	-5.8
252.235	53.59
252.451	-5.8
252.668	29.01
252.885	18.77
253.102	-20.14
253.318	-1.71
253.535	6.49
253.752	-1.71
253.968	45.4
254.185	-9.9
254.401	12.63
254.618	2.39
254.835	0.34
255.051	102.74
255.268	53.59
255.484	49.49
255.701	61.78
255.917	2.39
256.134	20.82
256.351	20.82
256.567	-9.9
256.784	14.68
257	14.68
257.217	76.12
257.433	110.93
257.65	31.06
257.866	82.26
258.082	18.77
258.299	10.58
258.515	82.26
258.732	4.44
258.948	35.16
259.165	2.39
259.381	57.68
259.597	4.44
259.814	29.01
260.03	24.92
260.246	-30.38
260.463	35.16
260.679	59.73
260.895	6.49
261.112	29.01
261.328	84.31
261.544	-5.8
261.761	78.16
261.977	43.35
262.193	0.34
262.409	-28.33
262.626	-34.47
262.842	22.87
263.058	57.68
263.274	4.44
263.49	26.96
263.707	10.58
263.923	39.25
264.139	-5.8
264.355	57.68
264.571	41.3
264.787	22.87
265.004	45.4
265.22	43.35
265.436	94.55
265.652	47.44
265.868	-40.62
266.084	37.2
266.3	-11.95
266.516	-42.67
266.732	35.16
266.948	0.34
267.164	45.4
267.38	94.55
267.596	80.21
267.812	43.35
268.028	92.5
268.244	-5.8
268.46	-48.81
268.676	14.68
268.892	39.25
269.108	22.87
269.324	47.44
269.54	24.92
269.756	-7.85
269.972	22.87
270.188	20.82
270.403	-20.14
270.619	12.63
270.835	35.16
271.051	8.53
271.267	6.49
271.483	-63.15
271.698	26.96
271.914	-13.99
272.13	39.25
272.346	18.77
272.562	57.68
272.777	33.11
272.993	47.44
273.209	55.64
273.425	35.16
273.64	8.53
273.856	0.34
274.072	20.82
274.287	-28.33
274.503	-5.8
274.719	-20.14
274.934	84.31
275.15	-30.38
275.366	29.01
275.581	-48.81
275.797	20.82
276.012	-7.85
276.228	57.68
276.444	-18.09
276.659	98.64
276.875	12.63
277.09	55.64
277.306	-16.04
277.521	119.12
277.737	35.16
277.952	-1.71
278.168	37.2
278.383	82.26
278.599	45.4
278.814	-20.14
279.03	35.16
279.245	82.26
279.461	-48.81
279.676	35.16
279.892	18.77
280.107	14.68
280.322	4.44
280.538	-1.71
280.753	74.07
280.969	82.26
281.184	0.34
281.399	43.35
281.615	2.39
281.83	104.79
282.045	-32.43
282.26	37.2
282.476	12.63
282.691	29.01
282.906	-13.99
283.122	74.07
283.337	43.35
283.552	80.21
283.767	63.83
283.983	20.82
284.198	6.49
284.413	6.49
284.628	-24.23
284.843	45.4
285.058	-1.71
285.274	0.34
285.489	-34.47
285.704	102.74
285.919	-26.28
286.134	-3.75
286.349	47.44
286.564	96.6
286.779	57.68
286.995	18.77
287.21	14.68
287.425	29.01
287.64	41.3
287.855	35.16
288.07	-28.33
288.285	51.54
288.5	14.68
288.715	8.53
288.93	6.49
289.145	20.82
289.36	96.6
289.575	57.68
289.79	14.68
290.004	20.82
290.219	94.55
290.434	117.08
290.649	26.96
290.864	49.49
291.079	96.6
291.294	47.44
291.509	29.01
291.724	8.53
291.938	63.83
292.153	49.49
292.368	47.44
292.583	31.06
292.798	74.07
293.012	57.68
293.227	24.92
293.442	53.59
293.657	10.58
293.871	43.35
294.086	51.54
294.301	16.73
294.516	6.49
294.73	-34.47
294.945	80.21
295.16	-11.95
295.374	65.88
295.589	12.63
295.804	33.11
296.018	14.68
296.233	-7.85
296.447	-5.8
296.662	76.12
296.877	-28.33
297.091	72.02
297.306	-18.09
297.52	4.44
297.735	82.26
297.949	33.11
298.164	84.31
298.378	-13.99
298.593	51.54
298.807	51.54
299.022	41.3
299.236	47.44
299.451	102.74
299.665	31.06
299.88	59.73
300.094	43.35
300.309	100.69
300.523	-16.04
300.737	-1.71
300.952	39.25
301.166	57.68
301.381	-16.04
301.595	22.87
301.809	6.49
302.024	63.83
302.238	-7.85
302.452	63.83
302.667	6.49
302.881	92.5
303.095	31.06
303.309	2.39
303.524	53.59
303.738	22.87
303.952	49.49
304.166	45.4
304.381	-20.14
304.595	31.06
304.809	14.68
305.023	61.78
305.237	74.07
305.452	29.01
305.666	-22.19
305.88	53.59
306.094	6.49
306.308	41.3
306.522	26.96
306.736	33.11
306.95	119.12
307.164	35.16
307.379	55.64
307.593	-13.99
307.807	55.64
308.021	96.6
308.235	26.96
308.449	-1.71
308.663	-20.14
308.877	100.69
309.091	4.44
309.305	14.68
309.519	6.49
309.733	-20.14
309.947	16.73
310.161	0.34
310.374	10.58
310.588	10.58
310.802	72.02
311.016	67.92
311.23	33.11
311.444	29.01
311.658	74.07
311.872	49.49
312.085	14.68
312.299	69.97
312.513	0.34
312.727	43.35
312.941	-44.71
313.154	117.08
313.368	29.01
313.582	-16.04
313.796	59.73
314.009	26.96
314.223	90.45
314.437	37.2
314.651	74.07
314.864	16.73
315.078	47.44
315.292	4.44
315.505	31.06
315.719	-24.23
315.933	-40.62
316.146	35.16
316.36	-5.8
316.573	37.2
316.787	88.4
317.001	41.3
317.214	86.36
317.428	2.39
317.641	69.97
317.855	6.49
318.068	55.64
318.282	26.96
318.495	59.73
318.709	59.73
318.922	31.06
319.136	26.96
319.349	129.36
319.563	14.68
319.776	-52.91
319.99	10.58
320.203	84.31
320.417	24.92
320.63	26.96
320.843	12.63
321.057	35.16
321.27	20.82
321.483	-44.71
321.697	51.54
321.91	2.39
322.124	18.77
322.337	53.59
322.55	69.97
322.763	18.77
322.977	43.35
323.19	20.82
323.403	-18.09
323.617	55.64
323.83	53.59
324.043	-9.9
324.256	74.07
324.469	59.73
324.683	94.55
324.896	33.11
325.109	31.06
325.322	22.87
325.535	76.12
325.748	78.16
325.962	18.77
326.175	55.64
326.388	94.55
326.601	-61.1
326.814	74.07
327.027	127.32
327.24	-9.9
327.453	-16.04
327.666	37.2
327.879	69.97
328.092	-1.71
328.305	90.45
328.518	88.4
328.731	4.44
328.944	63.83
329.157	63.83
329.37	69.97
329.583	22.87
329.796	31.06
330.009	49.49
330.222	47.44
330.435	65.88
330.648	100.69
330.861	-40.62
331.073	76.12
331.286	33.11
331.499	72.02
331.712	-34.47
331.925	57.68
332.138	26.96
332.35	108.88
332.563	72.02
332.776	106.84
332.989	80.21
333.202	4.44
333.414	22.87
333.627	6.49
333.84	43.35
334.053	108.88
334.265	-7.85
334.478	26.96
334.691	14.68
334.903	57.68
335.116	20.82
335.329	6.49
335.541	29.01
335.754	133.46
335.966	8.53
336.179	57.68
336.392	24.92
336.604	51.54
336.817	-7.85
337.029	49.49
337.242	-1.71
337.454	12.63
337.667	37.2
337.88	102.74
338.092	-77.48
338.305	96.6
338.517	69.97
338.729	55.64
338.942	29.01
339.154	4.44
339.367	49.49
339.579	-3.75
339.792	14.68
340.004	37.2
340.217	53.59
340.429	26.96
340.641	-1.71
340.854	49.49
341.066	24.92
341.278	22.87
341.491	121.17
341.703	16.73
341.915	18.77
342.128	117.08
342.34	55.64
342.552	55.64
342.764	65.88
342.977	78.16
343.189	33.11
343.401	26.96
343.613	-44.71
343.826	65.88
344.038	-16.04
344.25	133.46
344.462	18.77
344.674	53.59
344.886	43.35
345.099	74.07
345.311	76.12
345.523	-36.52
345.735	59.73
345.947	149.84
346.159	-9.9
346.371	22.87
346.583	22.87
346.795	119.12
347.007	-20.14
347.219	53.59
347.431	18.77
347.643	90.45
347.855	49.49
348.067	82.26
348.279	35.16
348.491	53.59
348.703	45.4
348.915	31.06
349.127	47.44
349.339	24.92
349.551	12.63
349.763	112.98
349.975	147.8
350.187	29.01
350.399	20.82
350.61	-11.95
350.822	51.54
351.034	112.98
351.246	10.58
351.458	51.54
351.669	39.25
351.881	59.73
352.093	-13.99
352.305	84.31
352.517	57.68
352.728	37.2
352.94	8.53
353.152	51.54
353.363	-5.8
353.575	115.03
353.787	80.21
353.999	61.78
354.21	84.31
354.422	4.44
354.633	59.73
354.845	29.01
355.057	47.44
355.268	78.16
355.48	26.96
355.692	61.78
355.903	47.44
356.115	45.4
356.326	16.73
356.538	-26.28
356.749	24.92
356.961	80.21
357.172	61.78
357.384	41.3
357.595	96.6
357.807	22.87
358.018	6.49
358.23	31.06
358.441	10.58
358.653	33.11
358.864	33.11
359.075	61.78
359.287	-11.95
359.498	55.64
359.709	92.5
359.921	76.12
360.132	24.92
360.344	0.34
360.555	-16.04
360.766	102.74
360.977	35.16
361.189	72.02
361.4	-22.19
361.611	-24.23
361.823	6.49
362.034	78.16
362.245	-44.71
362.456	67.92
362.667	39.25
362.879	16.73
363.09	49.49
363.301	14.68
363.512	117.08
363.723	-24.23
363.935	41.3
364.146	67.92
364.357	-46.76
364.568	33.11
364.779	22.87
364.99	26.96
365.201	45.4
365.412	80.21
365.623	-3.75
365.834	86.36
366.045	84.31
366.256	117.08
366.467	4.44
366.678	24.92
366.889	16.73
367.1	72.02
367.311	67.92
367.522	-22.19
367.733	41.3
367.944	92.5
368.155	-3.75
368.366	137.56
368.577	61.78
368.788	119.12
368.999	12.63
369.209	90.45
369.42	108.88
369.631	59.73
369.842	80.21
370.053	61.78
370.264	72.02
370.474	112.98
370.685	53.59
370.896	98.64
371.107	102.74
371.317	63.83
371.528	47.44
371.739	37.2
371.95	22.87
372.16	90.45
372.371	41.3
372.582	61.78
372.792	22.87
373.003	63.83
373.214	57.68
373.424	80.21
373.635	51.54
373.846	78.16
374.056	22.87
374.267	14.68
374.477	2.39
374.688	14.68
374.898	41.3
375.109	72.02
375.319	47.44
375.53	74.07
375.74	14.68
375.951	39.25
376.161	55.64
376.372	12.63
376.582	92.5
376.793	139.6
377.003	20.82
377.214	39.25
377.424	-13.99
377.635	41.3
377.845	-16.04
378.055	92.5
378.266	4.44
378.476	10.58
378.686	45.4
378.897	29.01
379.107	37.2
379.317	31.06
379.528	41.3
379.738	53.59
379.948	16.73
380.158	69.97
380.369	-18.09
380.579	61.78
380.789	26.96
380.999	59.73
381.21	29.01
381.42	65.88
381.63	47.44
381.84	59.73
382.05	88.4
382.261	88.4
382.471	61.78
382.681	26.96
382.891	29.01
383.101	51.54
383.311	55.64
383.521	35.16
383.731	2.39
383.941	31.06
384.151	82.26
384.361	49.49
384.571	84.31
384.781	43.35
384.991	94.55
385.201	69.97
385.411	92.5
385.621	-9.9
385.831	90.45
386.041	104.79
386.251	31.06
386.461	31.06
386.671	61.78
386.881	6.49
387.091	133.46
387.301	43.35
387.511	47.44
387.72	10.58
387.93	37.2
388.14	59.73
388.35	143.7
388.56	26.96
388.769	61.78
388.979	10.58
389.189	51.54
389.399	59.73
389.609	153.94
389.818	76.12
390.028	47.44
390.238	67.92
390.447	20.82
390.657	100.69
390.867	24.92
391.076	49.49
391.286	51.54
391.496	69.97
391.705	80.21
391.915	45.4
392.125	0.34
392.334	18.77
392.544	78.16
392.753	63.83
392.963	69.97
393.172	63.83
393.382	12.63
393.591	90.45
393.801	8.53
394.01	153.94
394.22	78.16
394.429	115.03
394.639	76.12
394.848	31.06
395.058	51.54
395.267	141.65
395.477	69.97
395.686	78.16
395.895	72.02
396.105	92.5
396.314	106.84
396.524	86.36
396.733	49.49
396.942	98.64
397.152	106.84
397.361	121.17
397.57	-11.95
397.78	78.16
397.989	90.45
398.198	74.07
398.407	108.88
398.617	51.54
398.826	67.92
399.035	78.16
399.244	160.08
399.453	139.6
399.663	65.88
399.872	37.2
400.081	90.45
400.29	96.6
400.499	84.31
400.708	145.75
400.917	137.56
401.127	141.65
401.336	80.21
401.545	158.03
401.754	108.88
401.963	112.98
402.172	59.73
402.381	78.16
402.59	174.42
402.799	100.69
403.008	182.61
403.217	67.92
403.426	123.22
403.635	131.41
403.844	123.22
404.053	106.84
404.262	78.16
404.471	217.43
404.68	115.03
404.888	102.74
405.097	160.08
405.306	80.21
405.515	110.93
405.724	149.84
405.933	78.16
406.142	151.89
406.35	209.23
406.559	164.18
406.768	203.09
406.977	137.56
407.185	176.47
407.394	215.38
407.603	176.47
407.812	289.1
408.02	227.67
408.229	205.14
408.438	242
408.646	184.66
408.855	274.77
409.064	256.34
409.272	203.09
409.481	311.63
409.69	201.04
409.898	319.82
410.107	270.67
410.315	246.1
410.524	262.48
410.733	291.15
410.941	229.71
411.15	360.78
411.358	328.02
411.567	278.87
411.775	280.91
411.984	364.88
412.192	424.27
412.401	399.7
412.609	469.33
412.818	416.08
413.026	475.47
413.234	469.33
413.443	430.41
413.651	459.09
413.86	581.96
414.068	541.01
414.276	573.77
414.485	475.47
414.693	639.31
414.901	682.31
415.11	649.55
415.318	723.27
415.526	647.5
415.734	682.31
415.943	727.37
416.151	792.91
416.359	801.1
416.567	786.76
416.776	813.38
416.984	811.34
417.192	837.96
417.4	891.21
417.608	825.67
417.817	950.6
418.025	983.37
418.233	1069.38
418.441	1073.48
418.649	1091.91
418.857	1089.86
419.065	1192.26
419.273	1165.64
419.481	1175.88
419.689	1329.47
419.897	1280.32
420.105	1425.73
420.313	1405.25
420.521	1429.82
420.729	1438.02
420.937	1552.7
421.145	1573.18
421.353	1706.3
421.561	1679.68
421.769	1845.56
421.977	1845.56
422.185	1870.14
422.393	1913.14
422.601	2076.98
422.809	2009.4
423.017	2064.69
423.224	2134.32
423.432	2308.4
423.64	2371.89
423.848	2439.47
424.056	2392.37
424.263	2552.11
424.471	2625.84
424.679	2689.32
424.887	2828.59
425.094	2775.34
425.302	2808.11
425.51	3029.29
425.718	3094.82
425.925	3215.65
426.133	3254.56
426.341	3379.49
426.548	3528.99
426.756	3481.89
426.964	3604.77
427.171	3752.22
427.379	3836.19
427.586	3930.39
427.794	4081.94
428.001	4153.62
428.209	4395.28
428.417	4458.77
428.624	4643.09
428.832	4659.47
429.039	4790.54
429.247	4675.85
429.454	5132.55
429.662	5511.43
429.869	5024.01
430.076	5341.44
430.284	5341.44
430.491	5445.89
430.699	5902.59
430.906	5816.57
431.114	5871.87
431.321	6177.02
431.528	6312.18
431.736	6660.34
431.943	6793.45
432.15	6813.93
432.358	6838.51
432.565	7358.69
432.772	7133.42
432.979	7604.45
433.187	7620.83
433.394	7880.93
433.601	8132.83
433.808	8388.82
434.016	8165.59
434.223	8519.89
434.43	9218.25
434.637	8847.57
434.844	9523.4
435.052	9859.26
435.259	9656.51
435.466	9650.37
435.673	9806.02
435.88	10070.2
436.087	10608.82
436.294	10709.17
436.501	10623.16
436.708	10789.04
436.915	11022.51
437.122	11937.95
437.329	11550.89
437.537	11962.53
437.743	12138.65
437.95	12089.5
438.157	12689.56
438.364	12939.41
438.571	13111.44
438.778	13373.58
438.985	14653.56
439.192	13920.38
439.399	14162.05
439.606	14004.35
439.813	14809.2
440.02	15589.48
440.227	15173.74
440.433	15220.85
440.64	15771.75
440.847	15448.17
441.054	16175.2
441.261	17016.91
441.467	16832.6
441.674	17305.68
441.881	17795.14
442.088	17616.97
442.294	17502.28
442.501	17997.89
442.708	18577.47
442.914	19136.56
443.121	19943.46
443.328	19583.02
443.534	20834.33
443.741	20068.39
443.948	19904.55
444.154	21477.39
444.361	21377.04
444.568	21528.59
444.774	21663.75
444.981	21821.45
445.187	22321.15
445.394	23482.35
445.6	23162.87
445.807	25319.38
446.013	23906.28
446.22	24879.07
446.426	25524.18
446.633	25901
446.839	26456
447.046	25518.03
447.252	27039.67
447.459	26881.98
447.665	27037.62
447.871	27838.38
448.078	29353.88
448.284	27815.85
448.491	28743.58
448.697	30171.02
448.903	30142.35
449.11	30470.02
449.316	29788.05
449.522	30326.66
449.728	31350.65
449.935	31596.4
450.141	31467.38
450.347	32135.02
450.553	31080.32
450.76	31666.03
450.966	32485.22
451.172	32065.39
451.378	33066.84
451.584	32231.27
451.791	33183.58
451.997	33345.37
452.203	33488.73
452.409	33554.26
452.615	33548.12
452.821	31913.84
453.027	31666.03
453.233	33331.03
453.44	32028.52
453.646	32442.21
453.852	32302.95
454.058	33331.03
454.264	31913.84
454.47	32677.73
454.676	31987.57
454.882	33068.89
455.088	30320.52
455.294	30144.39
455.5	31022.97
455.705	31180.67
455.911	29638.55
456.117	29515.67
456.323	29026.2
456.529	27434.93
456.735	28589.99
456.941	27854.76
457.147	27615.15
457.352	26585.02
457.558	26144.71
457.764	26347.46
457.97	25706.45
458.176	25276.37
458.381	25167.83
458.587	23828.46
458.793	24143.84
458.999	22847.48
459.204	24485.86
459.41	23709.68
459.616	22097.92
459.821	21938.18
460.027	22011.91
460.233	21461.01
460.438	20422.69
460.644	20969.49
460.85	19597.35
461.055	19433.52
461.261	19312.69
461.466	17938.5
461.672	17416.27
461.878	18718.78
462.083	17547.34
462.289	16945.23
462.494	16679
462.7	15931.49
462.905	15677.54
463.111	16189.53
463.316	16347.23
463.522	15730.79
463.727	15790.18
463.932	15982.69
464.138	15781.99
464.343	15841.38
464.549	15339.63
464.754	15743.08
464.959	15650.92
465.165	15667.3
465.37	14897.27
465.575	14536.82
465.781	15167.6
465.986	14948.47
466.191	14852.21
466.397	14327.93
466.602	13807.75
466.807	14432.38
467.012	14223.48
467.218	14168.19
467.423	13738.12
467.628	13875.33
467.833	14645.37
468.038	14254.2
