Data from USB4F104151__62__12-01-50-928.txt Node

Date: Fri Mar 14 12:01:50 EDT 2025
User: louis
Spectrometer: USB4F10415
Trigger mode: 4
Integration Time (sec): 2.000000E-2
Scans to average: 1
Electric dark correction enabled: true
Nonlinearity correction enabled: false
Boxcar width: 0
XAxis mode: Wavelengths
Number of Pixels in Spectrum: 3648
>>>>>Begin Spectral Data<<<<<
178.204	-55.81
178.424	-55.81
178.644	-55.81
178.864	-86.53
179.084	-39.42
179.304	-33.28
179.524	-37.38
179.744	-55.81
179.964	50.69
180.184	17.92
180.404	105.98
180.624	40.45
180.844	-39.42
181.064	9.73
181.283	-31.23
181.503	-25.09
181.723	-2.56
181.943	-18.94
182.163	42.5
182.383	48.64
182.602	85.5
182.822	93.69
183.042	60.93
183.262	32.26
183.482	15.87
183.701	177.66
183.921	3.58
184.141	19.97
184.361	136.7
184.58	32.26
184.8	13.82
185.02	71.17
185.239	-10.75
185.459	60.93
185.679	73.21
185.898	75.26
186.118	22.02
186.338	22.02
186.557	69.12
186.777	-66.05
186.997	9.73
187.216	118.27
187.436	95.74
187.655	52.74
187.875	62.98
188.095	26.11
188.314	-2.56
188.534	108.03
188.753	36.35
188.973	42.5
189.192	28.16
189.412	28.16
189.631	48.64
189.851	50.69
190.07	28.16
190.29	1.54
190.509	1.54
190.729	48.64
190.948	52.74
191.168	105.98
191.387	36.35
191.607	-10.75
191.826	50.69
192.045	-25.09
192.265	11.78
192.484	36.35
192.704	48.64
192.923	-12.8
193.142	42.5
193.362	105.98
193.581	-18.94
193.8	46.59
194.02	-41.47
194.239	36.35
194.458	13.82
194.678	69.12
194.897	13.82
195.116	40.45
195.335	73.21
195.555	42.5
195.774	17.92
195.993	93.69
196.212	38.4
196.432	65.02
196.651	50.69
196.87	26.11
197.089	54.78
197.308	3.58
197.528	69.12
197.747	26.11
197.966	9.73
198.185	75.26
198.404	17.92
198.623	-6.66
198.842	17.92
199.062	3.58
199.281	-31.23
199.5	132.61
199.719	-33.28
199.938	99.84
200.157	110.08
200.376	36.35
200.595	65.02
200.814	36.35
201.033	44.54
201.252	11.78
201.471	24.06
201.69	36.35
201.909	58.88
202.128	99.84
202.347	15.87
202.566	58.88
202.785	38.4
203.004	28.16
203.223	144.89
203.442	-4.61
203.661	30.21
203.879	28.16
204.098	58.88
204.317	-16.9
204.536	85.5
204.755	30.21
204.974	108.03
205.193	67.07
205.411	130.56
205.63	30.21
205.849	28.16
206.068	-2.56
206.287	56.83
206.505	5.63
206.724	28.16
206.943	9.73
207.162	-27.14
207.381	93.69
207.599	32.26
207.818	60.93
208.037	75.26
208.255	48.64
208.474	75.26
208.693	30.21
208.911	56.83
209.13	108.03
209.349	87.55
209.567	13.82
209.786	46.59
210.005	3.58
210.223	-4.61
210.442	-25.09
210.661	38.4
210.879	58.88
211.098	50.69
211.316	93.69
211.535	28.16
211.753	73.21
211.972	-6.66
212.191	13.82
212.409	75.26
212.628	42.5
212.846	11.78
213.065	97.79
213.283	38.4
213.502	1.54
213.72	44.54
213.938	60.93
214.157	-70.14
214.375	73.21
214.594	97.79
214.812	62.98
215.031	5.63
215.249	58.88
215.467	58.88
215.686	50.69
215.904	58.88
216.122	105.98
216.341	89.6
216.559	30.21
216.778	38.4
216.996	65.02
217.214	36.35
217.432	134.65
217.651	11.78
217.869	36.35
218.087	7.68
218.306	62.98
218.524	79.36
218.742	58.88
218.96	42.5
219.179	42.5
219.397	44.54
219.615	65.02
219.833	3.58
220.051	15.87
220.27	42.5
220.488	56.83
220.706	-25.09
220.924	11.78
221.142	36.35
221.36	-49.66
221.578	-53.76
221.796	19.97
222.015	56.83
222.233	103.93
222.451	79.36
222.669	42.5
222.887	50.69
223.105	52.74
223.323	48.64
223.541	32.26
223.759	69.12
223.977	19.97
224.195	28.16
224.413	62.98
224.631	62.98
224.849	19.97
225.067	17.92
225.285	3.58
225.503	30.21
225.721	-10.75
225.939	62.98
226.157	58.88
226.375	91.65
226.592	77.31
226.81	75.26
227.028	62.98
227.246	87.55
227.464	32.26
227.682	13.82
227.9	46.59
228.117	95.74
228.335	48.64
228.553	7.68
228.771	-8.7
228.989	56.83
229.206	34.3
229.424	67.07
229.642	11.78
229.86	-18.94
230.077	1.54
230.295	11.78
230.513	42.5
230.731	79.36
230.948	3.58
231.166	28.16
231.384	69.12
231.601	13.82
231.819	77.31
232.037	65.02
232.254	73.21
232.472	9.73
232.689	48.64
232.907	58.88
233.125	24.06
233.342	-4.61
233.56	38.4
233.777	110.08
233.995	22.02
234.213	67.07
234.43	46.59
234.648	3.58
234.865	75.26
235.083	22.02
235.3	36.35
235.518	71.17
235.735	46.59
235.953	87.55
236.17	56.83
236.388	112.13
236.605	97.79
236.822	99.84
237.04	65.02
237.257	87.55
237.475	-31.23
237.692	36.35
237.909	38.4
238.127	54.78
238.344	62.98
238.562	44.54
238.779	19.97
238.996	-35.33
239.214	44.54
239.431	93.69
239.648	46.59
239.865	36.35
240.083	11.78
240.3	73.21
240.517	-2.56
240.735	128.51
240.952	65.02
241.169	116.22
241.386	17.92
241.603	-4.61
241.821	85.5
242.038	32.26
242.255	5.63
242.472	13.82
242.689	95.74
242.907	81.41
243.124	32.26
243.341	-31.23
243.558	73.21
243.775	85.5
243.992	-4.61
244.209	-57.86
244.426	58.88
244.643	52.74
244.86	-33.28
245.078	73.21
245.295	97.79
245.512	52.74
245.729	38.4
245.946	34.3
246.163	79.36
246.38	75.26
246.597	32.26
246.814	44.54
247.031	58.88
247.248	-27.14
247.464	103.93
247.681	26.11
247.898	38.4
248.115	114.17
248.332	-41.47
248.549	93.69
248.766	85.5
248.983	48.64
249.2	30.21
249.417	11.78
249.633	75.26
249.85	93.69
250.067	46.59
250.284	42.5
250.501	1.54
250.717	-6.66
250.934	5.63
251.151	52.74
251.368	79.36
251.585	38.4
251.801	67.07
252.018	9.73
252.235	32.26
252.451	9.73
252.668	81.41
252.885	79.36
253.102	26.11
253.318	19.97
253.535	69.12
253.752	9.73
253.968	-70.14
254.185	17.92
254.401	28.16
254.618	79.36
254.835	40.45
255.051	67.07
255.268	5.63
255.484	54.78
255.701	48.64
255.917	24.06
256.134	50.69
256.351	19.97
256.567	22.02
256.784	56.83
257	-41.47
257.217	50.69
257.433	112.13
257.65	-10.75
257.866	-2.56
258.082	19.97
258.299	-12.8
258.515	52.74
258.732	58.88
258.948	50.69
259.165	24.06
259.381	-20.99
259.597	77.31
259.814	79.36
260.03	62.98
260.246	56.83
260.463	34.3
260.679	32.26
260.895	83.45
261.112	91.65
261.328	36.35
261.544	58.88
261.761	95.74
261.977	77.31
262.193	71.17
262.409	54.78
262.626	81.41
262.842	60.93
263.058	36.35
263.274	71.17
263.49	9.73
263.707	19.97
263.923	85.5
264.139	28.16
264.355	17.92
264.571	44.54
264.787	24.06
265.004	54.78
265.22	42.5
265.436	46.59
265.652	54.78
265.868	42.5
266.084	38.4
266.3	36.35
266.516	42.5
266.732	48.64
266.948	130.56
267.164	95.74
267.38	75.26
267.596	36.35
267.812	30.21
268.028	1.54
268.244	42.5
268.46	40.45
268.676	-23.04
268.892	85.5
269.108	97.79
269.324	-23.04
269.54	3.58
269.756	73.21
269.972	-0.51
270.188	34.3
270.403	71.17
270.619	87.55
270.835	1.54
271.051	99.84
271.267	67.07
271.483	85.5
271.698	17.92
271.914	75.26
272.13	75.26
272.346	1.54
272.562	62.98
272.777	50.69
272.993	11.78
273.209	15.87
273.425	58.88
273.64	93.69
273.856	87.55
274.072	89.6
274.287	44.54
274.503	62.98
274.719	62.98
274.934	5.63
275.15	-0.51
275.366	15.87
275.581	-43.52
275.797	50.69
276.012	44.54
276.228	60.93
276.444	103.93
276.659	30.21
276.875	-47.62
277.09	87.55
277.306	99.84
277.521	75.26
277.737	40.45
277.952	67.07
278.168	40.45
278.383	54.78
278.599	48.64
278.814	9.73
279.03	-4.61
279.245	30.21
279.461	-37.38
279.676	42.5
279.892	-12.8
280.107	69.12
280.322	42.5
280.538	65.02
280.753	24.06
280.969	54.78
281.184	38.4
281.399	67.07
281.615	40.45
281.83	85.5
282.045	28.16
282.26	85.5
282.476	-2.56
282.691	30.21
282.906	116.22
283.122	58.88
283.337	-23.04
283.552	26.11
283.767	-57.86
283.983	46.59
284.198	-0.51
284.413	50.69
284.628	-10.75
284.843	42.5
285.058	52.74
285.274	-10.75
285.489	32.26
285.704	-37.38
285.919	22.02
286.134	54.78
286.349	99.84
286.564	56.83
286.779	34.3
286.995	114.17
287.21	17.92
287.425	-8.7
287.64	5.63
287.855	17.92
288.07	7.68
288.285	97.79
288.5	65.02
288.715	46.59
288.93	15.87
289.145	52.74
289.36	99.84
289.575	15.87
289.79	36.35
290.004	50.69
290.219	17.92
290.434	81.41
290.649	58.88
290.864	36.35
291.079	73.21
291.294	40.45
291.509	58.88
291.724	28.16
291.938	52.74
292.153	48.64
292.368	120.32
292.583	62.98
292.798	73.21
293.012	73.21
293.227	-4.61
293.442	-2.56
293.657	-14.85
293.871	110.08
294.086	91.65
294.301	126.46
294.516	110.08
294.73	38.4
294.945	93.69
295.16	56.83
295.374	32.26
295.589	40.45
295.804	40.45
296.018	11.78
296.233	58.88
296.447	22.02
296.662	30.21
296.877	105.98
297.091	75.26
297.306	69.12
297.52	105.98
297.735	136.7
297.949	26.11
298.164	134.65
298.378	83.45
298.593	3.58
298.807	38.4
299.022	40.45
299.236	5.63
299.451	40.45
299.665	97.79
299.88	-8.7
300.094	36.35
300.309	85.5
300.523	34.3
300.737	-18.94
300.952	101.89
301.166	89.6
301.381	-0.51
301.595	-47.62
301.809	60.93
302.024	17.92
302.238	24.06
302.452	67.07
302.667	48.64
302.881	11.78
303.095	48.64
303.309	24.06
303.524	28.16
303.738	89.6
303.952	112.13
304.166	36.35
304.381	40.45
304.595	58.88
304.809	-41.47
305.023	50.69
305.237	7.68
305.452	148.99
305.666	34.3
305.88	56.83
306.094	118.27
306.308	67.07
306.522	65.02
306.736	36.35
306.95	30.21
307.164	75.26
307.379	50.69
307.593	89.6
307.807	85.5
308.021	42.5
308.235	91.65
308.449	77.31
308.663	42.5
308.877	24.06
309.091	54.78
309.305	17.92
309.519	38.4
309.733	34.3
309.947	-43.52
310.161	-4.61
310.374	108.03
310.588	62.98
310.802	5.63
311.016	30.21
311.23	54.78
311.444	54.78
311.658	42.5
311.872	40.45
312.085	26.11
312.299	83.45
312.513	136.7
312.727	46.59
312.941	3.58
313.154	99.84
313.368	7.68
313.582	3.58
313.796	30.21
314.009	79.36
314.223	69.12
314.437	30.21
314.651	22.02
314.864	52.74
315.078	50.69
315.292	44.54
315.505	-2.56
315.719	58.88
315.933	79.36
316.146	24.06
316.36	15.87
316.573	71.17
316.787	22.02
317.001	46.59
317.214	60.93
317.428	77.31
317.641	-27.14
317.855	42.5
318.068	30.21
318.282	40.45
318.495	77.31
318.709	83.45
318.922	105.98
319.136	105.98
319.349	93.69
319.563	56.83
319.776	-33.28
319.99	62.98
320.203	48.64
320.417	-4.61
320.63	93.69
320.843	108.03
321.057	97.79
321.27	54.78
321.483	81.41
321.697	48.64
321.91	34.3
322.124	9.73
322.337	40.45
322.55	7.68
322.763	19.97
322.977	26.11
323.19	38.4
323.403	87.55
323.617	67.07
323.83	81.41
324.043	73.21
324.256	122.37
324.469	40.45
324.683	97.79
324.896	42.5
325.109	89.6
325.322	30.21
325.535	69.12
325.748	22.02
325.962	75.26
326.175	-12.8
326.388	67.07
326.601	69.12
326.814	65.02
327.027	95.74
327.24	75.26
327.453	3.58
327.666	30.21
327.879	120.32
328.092	58.88
328.305	79.36
328.518	52.74
328.731	22.02
328.944	-2.56
329.157	89.6
329.37	116.22
329.583	71.17
329.796	54.78
330.009	73.21
330.222	62.98
330.435	124.41
330.648	91.65
330.861	24.06
331.073	130.56
331.286	-2.56
331.499	58.88
331.712	26.11
331.925	34.3
332.138	32.26
332.35	97.79
332.563	60.93
332.776	95.74
332.989	9.73
333.202	73.21
333.414	-4.61
333.627	58.88
333.84	71.17
334.053	120.32
334.265	19.97
334.478	60.93
334.691	85.5
334.903	-4.61
335.116	9.73
335.329	110.08
335.541	44.54
335.754	7.68
335.966	79.36
336.179	89.6
336.392	-18.94
336.604	87.55
336.817	42.5
337.029	134.65
337.242	44.54
337.454	30.21
337.667	24.06
337.88	116.22
338.092	97.79
338.305	148.99
338.517	52.74
338.729	91.65
338.942	136.7
339.154	3.58
339.367	34.3
339.579	52.74
339.792	40.45
340.004	91.65
340.217	93.69
340.429	-8.7
340.641	69.12
340.854	73.21
341.066	15.87
341.278	101.89
341.491	42.5
341.703	54.78
341.915	40.45
342.128	75.26
342.34	32.26
342.552	52.74
342.764	-25.09
342.977	24.06
343.189	-8.7
343.401	85.5
343.613	-31.23
343.826	42.5
344.038	34.3
344.25	9.73
344.462	65.02
344.674	48.64
344.886	-14.85
345.099	30.21
345.311	52.74
345.523	159.23
345.735	-18.94
345.947	97.79
346.159	-29.18
346.371	52.74
346.583	40.45
346.795	67.07
347.007	89.6
347.219	89.6
347.431	71.17
347.643	95.74
347.855	38.4
348.067	83.45
348.279	40.45
348.491	44.54
348.703	30.21
348.915	83.45
349.127	42.5
349.339	19.97
349.551	36.35
349.763	83.45
349.975	42.5
350.187	65.02
350.399	58.88
350.61	-27.14
350.822	15.87
351.034	19.97
351.246	28.16
351.458	75.26
351.669	-20.99
351.881	54.78
352.093	99.84
352.305	75.26
352.517	75.26
352.728	42.5
352.94	89.6
353.152	103.93
353.363	13.82
353.575	91.65
353.787	9.73
353.999	24.06
354.21	85.5
354.422	30.21
354.633	40.45
354.845	44.54
355.057	93.69
355.268	-14.85
355.48	75.26
355.692	28.16
355.903	97.79
356.115	110.08
356.326	52.74
356.538	62.98
356.749	24.06
356.961	54.78
357.172	-14.85
357.384	1.54
357.595	52.74
357.807	58.88
358.018	40.45
358.23	42.5
358.441	108.03
358.653	62.98
358.864	81.41
359.075	52.74
359.287	65.02
359.498	15.87
359.709	1.54
359.921	85.5
360.132	24.06
360.344	42.5
360.555	38.4
360.766	75.26
360.977	26.11
361.189	58.88
361.4	116.22
361.611	-4.61
361.823	40.45
362.034	36.35
362.245	60.93
362.456	42.5
362.667	54.78
362.879	58.88
363.09	89.6
363.301	46.59
363.512	46.59
363.723	11.78
363.935	48.64
364.146	67.07
364.357	65.02
364.568	42.5
364.779	36.35
364.99	30.21
365.201	91.65
365.412	22.02
365.623	38.4
365.834	3.58
366.045	38.4
366.256	1.54
366.467	48.64
366.678	77.31
366.889	3.58
367.1	7.68
367.311	142.85
367.522	5.63
367.733	77.31
367.944	65.02
368.155	85.5
368.366	34.3
368.577	56.83
368.788	71.17
368.999	9.73
369.209	24.06
369.42	71.17
369.631	58.88
369.842	1.54
370.053	60.93
370.264	24.06
370.474	36.35
370.685	112.13
370.896	85.5
371.107	40.45
371.317	118.27
371.528	22.02
371.739	69.12
371.95	-0.51
372.16	138.75
372.371	19.97
372.582	73.21
372.792	54.78
373.003	69.12
373.214	118.27
373.424	26.11
373.635	44.54
373.846	136.7
374.056	54.78
374.267	95.74
374.477	36.35
374.688	48.64
374.898	56.83
375.109	67.07
375.319	9.73
375.53	138.75
375.74	17.92
375.951	67.07
376.161	81.41
376.372	50.69
376.582	26.11
376.793	124.41
377.003	56.83
377.214	-25.09
377.424	87.55
377.635	65.02
377.845	153.09
378.055	101.89
378.266	103.93
378.476	122.37
378.686	62.98
378.897	36.35
379.107	65.02
379.317	34.3
379.528	65.02
379.738	103.93
379.948	101.89
380.158	91.65
380.369	52.74
380.579	44.54
380.789	75.26
380.999	89.6
381.21	-12.8
381.42	101.89
381.63	73.21
381.84	48.64
382.05	81.41
382.261	134.65
382.471	79.36
382.681	79.36
382.891	122.37
383.101	15.87
383.311	56.83
383.521	26.11
383.731	73.21
383.941	105.98
384.151	19.97
384.361	101.89
384.571	75.26
384.781	44.54
384.991	89.6
385.201	44.54
385.411	48.64
385.621	36.35
385.831	-49.66
386.041	116.22
386.251	19.97
386.461	140.8
386.671	83.45
386.881	161.28
387.091	75.26
387.301	79.36
387.511	73.21
387.72	112.13
387.93	58.88
388.14	81.41
388.35	97.79
388.56	48.64
388.769	112.13
388.979	42.5
389.189	42.5
389.399	91.65
389.609	40.45
389.818	108.03
390.028	19.97
390.238	85.5
390.447	42.5
390.657	85.5
390.867	71.17
391.076	65.02
391.286	79.36
391.496	56.83
391.705	122.37
391.915	99.84
392.125	105.98
392.334	52.74
392.544	97.79
392.753	75.26
392.963	24.06
393.172	108.03
393.382	36.35
393.591	114.17
393.801	58.88
394.01	62.98
394.22	105.98
394.429	79.36
394.639	93.69
394.848	87.55
395.058	79.36
395.267	46.59
395.477	28.16
395.686	108.03
395.895	124.41
396.105	126.46
396.314	157.18
396.524	83.45
396.733	128.51
396.942	75.26
397.152	128.51
397.361	105.98
397.57	108.03
397.78	42.5
397.989	89.6
398.198	173.57
398.407	95.74
398.617	85.5
398.826	118.27
399.035	28.16
399.244	83.45
399.453	181.76
399.663	165.37
399.872	108.03
400.081	105.98
400.29	175.61
400.499	67.07
400.708	192
400.917	112.13
401.127	157.18
401.336	65.02
401.545	93.69
401.754	77.31
401.963	142.85
402.172	114.17
402.381	112.13
402.59	132.61
402.799	75.26
403.008	108.03
403.217	167.42
403.426	136.7
403.635	77.31
403.844	71.17
404.053	81.41
404.262	62.98
404.471	155.13
404.68	177.66
404.888	214.52
405.097	216.57
405.306	189.95
405.515	108.03
405.724	239.1
405.933	148.99
406.142	142.85
406.35	212.48
406.559	187.9
406.768	114.17
406.977	163.33
407.185	169.47
407.394	241.15
407.603	167.42
407.812	349.69
408.02	204.28
408.229	237.05
408.438	239.1
408.646	298.49
408.855	239.1
409.064	194.05
409.272	263.68
409.481	310.78
409.69	251.39
409.898	247.29
410.107	267.77
410.315	273.92
410.524	267.77
410.733	273.92
410.941	349.69
411.15	304.64
411.358	323.07
411.567	386.55
411.775	351.74
411.984	386.55
412.192	374.27
412.401	419.32
412.609	503.29
412.818	450.04
413.026	519.67
413.234	478.71
413.443	501.24
413.651	484.86
413.86	513.53
414.068	583.16
414.276	650.74
414.485	472.57
414.693	603.64
414.901	712.18
415.11	624.12
415.318	665.08
415.526	693.75
415.734	671.22
415.943	769.52
416.151	828.92
416.359	701.94
416.567	833.01
416.776	830.96
416.984	927.22
417.192	876.02
417.4	835.06
417.608	800.24
417.817	894.45
418.025	945.65
418.233	1048.05
418.441	1011.18
418.649	1023.47
418.857	1168.88
419.065	1111.54
419.273	1226.22
419.481	1230.32
419.689	1342.96
419.897	1392.11
420.105	1351.15
420.313	1428.97
420.521	1447.4
420.729	1471.98
420.937	1474.03
421.145	1572.33
421.353	1674.73
421.561	1789.41
421.769	1773.03
421.977	1902.05
422.185	2012.64
422.393	2084.32
422.601	2172.38
422.809	2016.74
423.017	2121.18
423.224	2135.52
423.432	2368.99
423.64	2297.31
423.848	2500.06
424.056	2506.2
424.263	2612.7
424.471	2549.21
424.679	2557.4
424.887	2833.88
425.094	2760.15
425.302	3040.72
425.51	2981.33
425.718	3036.63
425.925	3229.13
426.133	3304.91
426.341	3425.74
426.548	3476.94
426.756	3599.82
426.964	3472.84
427.171	3759.56
427.379	3919.3
427.586	3888.58
427.794	4222.4
428.001	4363.71
428.209	4558.27
428.417	4396.48
428.624	4689.34
428.832	4812.21
429.039	4597.18
429.247	4629.95
429.454	5174.71
429.662	5565.87
429.869	5139.89
430.076	5371.31
430.284	5332.4
430.491	5584.3
430.699	5868.97
430.906	6010.28
431.114	5979.56
431.321	6217.12
431.528	6383.01
431.736	6774.17
431.943	6915.48
432.15	6765.98
432.358	6868.38
432.565	7288.21
432.772	7136.66
432.979	7558.54
433.187	7658.89
433.394	7728.52
433.601	8476.03
433.808	8316.29
434.016	8299.91
434.223	8648.06
434.43	9143.67
434.637	9008.5
434.844	9411.95
435.052	9837.93
435.259	9612.65
435.466	9678.19
435.673	9569.65
435.88	10509.66
436.087	10933.59
436.294	11210.07
436.501	10661.21
436.708	10921.31
436.915	11253.08
437.122	11670.86
437.329	11664.72
437.537	12160.33
437.743	12375.36
437.95	12082.5
438.157	12862.78
438.364	13106.49
438.571	13255.99
438.778	13323.57
438.985	14490.91
439.192	13876.52
439.399	14259.49
439.606	14167.34
439.813	14777.63
440.02	15815.95
440.227	15576.34
440.433	15168.79
440.64	16176.39
440.847	15912.21
441.054	16084.23
441.261	17337.59
441.467	16956.67
441.674	17222.91
441.881	18253.03
442.088	17878.26
442.294	17831.15
442.501	18363.62
442.708	18697.44
442.914	19369.18
443.121	20206.8
443.328	19567.83
443.534	20882.63
443.741	20284.62
443.948	19969.23
444.154	21742.77
444.361	21357.75
444.568	21570.74
444.774	21781.68
444.981	22275.24
445.187	22490.28
445.394	23682.2
445.6	23186.59
445.807	25599.1
446.013	24333.45
446.22	24884.36
446.426	25441.4
446.633	25908.34
446.839	26729.58
447.046	26293.36
447.252	27186.27
447.459	27133.03
447.665	27018.34
447.871	28632.14
448.078	29627.45
448.284	28103.76
448.491	28740.68
448.697	30188.6
448.903	30647.34
449.11	30944.3
449.316	30338.1
449.522	30811.18
449.728	31857.69
449.935	31802.39
450.141	32048.15
450.347	32437.27
450.553	31646.75
450.76	31978.52
450.966	32607.25
451.172	32568.34
451.378	33420.29
451.584	32736.27
451.791	33526.78
451.997	33534.98
452.203	33680.38
452.409	33707.01
452.615	33635.33
452.821	32461.84
453.027	32128.02
453.233	33758.2
453.44	32281.62
453.646	32822.28
453.852	33221.64
454.058	33532.93
454.264	32332.82
454.47	33321.99
454.676	32642.06
454.882	33498.11
455.088	30385.2
455.294	31022.12
455.5	31368.23
455.705	31573.02
455.911	30436.4
456.117	29848.63
456.323	29510.72
456.529	27966.55
456.735	29133.89
456.941	28267.6
457.147	27858.01
457.352	26995.81
457.558	26674.28
457.764	26641.51
457.97	26272.88
458.176	25689.21
458.381	25732.22
458.587	24427.66
458.793	24650.89
458.999	23368.86
459.204	24867.97
459.41	24265.87
459.616	22363.31
459.821	22615.21
460.027	22322.35
460.233	21820.6
460.438	21087.42
460.644	21093.57
460.85	20229.32
461.055	19897.55
461.261	19893.46
461.466	18351.34
461.672	17732.85
461.878	19238.11
462.083	17853.68
462.289	17251.58
462.494	17165.56
462.7	16389.38
462.905	16186.63
463.111	16760.06
463.316	16643.33
463.522	16385.29
463.727	16276.74
463.932	16282.89
464.138	16024.84
464.343	16194.82
464.549	15801.61
464.754	16577.8
464.959	16205.06
465.165	15940.88
465.37	15428.88
465.575	14834.97
465.781	15615.25
465.986	15510.8
466.191	15027.48
466.397	14988.57
466.602	13993.26
466.807	14691.62
467.012	14701.86
467.218	14441.76
467.423	14454.05
467.628	14449.96
467.833	14839.07
468.038	14443.81
468.244	14028.07
