Data from USB4F104151__57__12-01-44-749.txt Node

Date: Fri Mar 14 12:01:44 EDT 2025
User: louis
Spectrometer: USB4F10415
Trigger mode: 4
Integration Time (sec): 2.000000E-2
Scans to average: 1
Electric dark correction enabled: true
Nonlinearity correction enabled: false
Boxcar width: 0
XAxis mode: Wavelengths
Number of Pixels in Spectrum: 3648
>>>>>Begin Spectral Data<<<<<
178.204	-105.98
178.424	-105.98
178.644	-105.98
178.864	-140.8
179.084	-114.17
179.304	-17.92
179.524	-3.58
179.744	-42.5
179.964	-15.87
180.184	27.14
180.404	25.09
180.624	-22.02
180.844	-42.5
181.064	-40.45
181.283	55.81
181.503	0.51
181.723	76.29
181.943	-40.45
182.163	10.75
182.383	43.52
182.602	35.33
182.822	12.8
183.042	-17.92
183.262	10.75
183.482	-3.58
183.701	-44.54
183.921	-32.26
184.141	-40.45
184.361	66.05
184.58	-26.11
184.8	-5.63
185.02	35.33
185.239	10.75
185.459	0.51
185.679	14.85
185.898	-69.12
186.118	-19.97
186.338	-24.06
186.557	35.33
186.777	-54.78
186.997	35.33
187.216	-62.98
187.436	86.53
187.655	-26.11
187.875	76.29
188.095	49.66
188.314	53.76
188.534	-15.87
188.753	-95.74
188.973	-97.79
189.192	66.05
189.412	23.04
189.631	-11.78
189.851	27.14
190.07	27.14
190.29	4.61
190.509	53.76
190.729	4.61
190.948	20.99
191.168	74.24
191.387	33.28
191.607	-48.64
191.826	-15.87
192.045	-3.58
192.265	8.7
192.484	12.8
192.704	-60.93
192.923	64
193.142	115.2
193.362	-11.78
193.581	2.56
193.8	25.09
194.02	-32.26
194.239	-17.92
194.458	14.85
194.678	-7.68
194.897	-50.69
195.116	35.33
195.335	43.52
195.555	49.66
195.774	16.9
195.993	55.81
196.212	-54.78
196.432	14.85
196.651	-24.06
196.87	-42.5
197.089	27.14
197.308	37.38
197.528	37.38
197.747	-1.54
197.966	-42.5
198.185	41.47
198.404	74.24
198.623	86.53
198.842	10.75
199.062	57.86
199.281	-38.4
199.5	18.94
199.719	29.18
199.938	-54.78
200.157	37.38
200.376	-7.68
200.595	51.71
200.814	23.04
201.033	-24.06
201.252	-1.54
201.471	39.42
201.69	35.33
201.909	10.75
202.128	39.42
202.347	51.71
202.566	-28.16
202.785	4.61
203.004	-60.93
203.223	68.09
203.442	31.23
203.661	-26.11
203.879	-30.21
204.098	43.52
204.317	-7.68
204.536	-19.97
204.755	23.04
204.974	29.18
205.193	41.47
205.411	-11.78
205.63	-7.68
205.849	51.71
206.068	-5.63
206.287	12.8
206.505	-32.26
206.724	-19.97
206.943	16.9
207.162	-36.35
207.381	-15.87
207.599	49.66
207.818	-30.21
208.037	33.28
208.255	10.75
208.474	2.56
208.693	2.56
208.911	-40.45
209.13	-32.26
209.349	23.04
209.567	0.51
209.786	55.81
210.005	45.57
210.223	29.18
210.442	-50.69
210.661	-95.74
210.879	-71.17
211.098	84.48
211.316	33.28
211.535	8.7
211.753	-38.4
211.972	16.9
212.191	31.23
212.409	64
212.628	23.04
212.846	-5.63
213.065	2.56
213.283	80.38
213.502	8.7
213.72	-9.73
213.938	-28.16
214.157	16.9
214.375	-69.12
214.594	20.99
214.812	2.56
215.031	-13.82
215.249	-1.54
215.467	23.04
215.686	-19.97
215.904	0.51
216.122	-11.78
216.341	-15.87
216.559	-28.16
216.778	51.71
216.996	98.81
217.214	0.51
217.432	-3.58
217.651	2.56
217.869	-3.58
218.087	18.94
218.306	49.66
218.524	2.56
218.742	74.24
218.96	-48.64
219.179	37.38
219.397	4.61
219.615	164.35
219.833	20.99
220.051	-15.87
220.27	33.28
220.488	20.99
220.706	-50.69
220.924	-28.16
221.142	14.85
221.36	-15.87
221.578	-7.68
221.796	27.14
222.015	-19.97
222.233	14.85
222.451	27.14
222.669	-13.82
222.887	-3.58
223.105	-65.02
223.323	20.99
223.541	96.77
223.759	37.38
223.977	-52.74
224.195	29.18
224.413	74.24
224.631	-65.02
224.849	18.94
225.067	35.33
225.285	6.66
225.503	33.28
225.721	-69.12
225.939	53.76
226.157	25.09
226.375	37.38
226.592	-9.73
226.81	-5.63
227.028	-36.35
227.246	74.24
227.464	-75.26
227.682	4.61
227.9	-44.54
228.117	59.9
228.335	-46.59
228.553	43.52
228.771	4.61
228.989	20.99
229.206	23.04
229.424	-40.45
229.642	45.57
229.86	39.42
230.077	-11.78
230.295	8.7
230.513	-28.16
230.731	-58.88
230.948	8.7
231.166	94.72
231.384	43.52
231.601	-3.58
231.819	8.7
232.037	18.94
232.254	-40.45
232.472	31.23
232.689	-38.4
232.907	18.94
233.125	-52.74
233.342	2.56
233.56	-1.54
233.777	-11.78
233.995	-7.68
234.213	14.85
234.43	-54.78
234.648	-19.97
234.865	20.99
235.083	51.71
235.3	43.52
235.518	-1.54
235.735	35.33
235.953	33.28
236.17	29.18
236.388	107.01
236.605	29.18
236.822	55.81
237.04	59.9
237.257	-11.78
237.475	-24.06
237.692	20.99
237.909	-1.54
238.127	-9.73
238.344	2.56
238.562	6.66
238.779	-9.73
238.996	23.04
239.214	-22.02
239.431	47.62
239.648	10.75
239.865	27.14
240.083	33.28
240.3	-19.97
240.517	-9.73
240.735	35.33
240.952	88.57
241.169	31.23
241.386	-7.68
241.603	-24.06
241.821	-65.02
242.038	43.52
242.255	86.53
242.472	10.75
242.689	29.18
242.907	33.28
243.124	-1.54
243.341	-30.21
243.558	-44.54
243.775	33.28
243.992	-46.59
244.209	12.8
244.426	14.85
244.643	61.95
244.86	20.99
245.078	109.05
245.295	74.24
245.512	29.18
245.729	14.85
245.946	14.85
246.163	8.7
246.38	27.14
246.597	-69.12
246.814	-9.73
247.031	16.9
247.248	43.52
247.464	6.66
247.681	-42.5
247.898	-30.21
248.115	37.38
248.332	-48.64
248.549	-5.63
248.766	-71.17
248.983	18.94
249.2	-1.54
249.417	20.99
249.633	-34.3
249.85	-3.58
250.067	-52.74
250.284	41.47
250.501	4.61
250.717	-65.02
250.934	43.52
251.151	51.71
251.368	-46.59
251.585	-38.4
251.801	23.04
252.018	-40.45
252.235	-28.16
252.451	-42.5
252.668	127.49
252.885	-3.58
253.102	76.29
253.318	84.48
253.535	-40.45
253.752	45.57
253.968	29.18
254.185	-36.35
254.401	-24.06
254.618	12.8
254.835	25.09
255.051	2.56
255.268	-15.87
255.484	66.05
255.701	37.38
255.917	80.38
256.134	45.57
256.351	-9.73
256.567	-52.74
256.784	18.94
257	-56.83
257.217	35.33
257.433	72.19
257.65	4.61
257.866	115.2
258.082	6.66
258.299	-26.11
258.515	72.19
258.732	-5.63
258.948	4.61
259.165	-32.26
259.381	-11.78
259.597	53.76
259.814	-7.68
260.03	47.62
260.246	-13.82
260.463	74.24
260.679	-3.58
260.895	27.14
261.112	47.62
261.328	47.62
261.544	41.47
261.761	20.99
261.977	37.38
262.193	8.7
262.409	43.52
262.626	53.76
262.842	61.95
263.058	-26.11
263.274	8.7
263.49	-30.21
263.707	14.85
263.923	43.52
264.139	-36.35
264.355	6.66
264.571	29.18
264.787	-58.88
265.004	90.62
265.22	-1.54
265.436	39.42
265.652	37.38
265.868	4.61
266.084	-44.54
266.3	-11.78
266.516	29.18
266.732	68.09
266.948	18.94
267.164	55.81
267.38	10.75
267.596	55.81
267.812	-15.87
268.028	-26.11
268.244	53.76
268.46	88.57
268.676	-3.58
268.892	6.66
269.108	78.33
269.324	-40.45
269.54	-7.68
269.756	45.57
269.972	-56.83
270.188	2.56
270.403	-1.54
270.619	-44.54
270.835	18.94
271.051	8.7
271.267	2.56
271.483	-32.26
271.698	-7.68
271.914	90.62
272.13	-58.88
272.346	35.33
272.562	-7.68
272.777	102.91
272.993	55.81
273.209	8.7
273.425	41.47
273.64	-24.06
273.856	66.05
274.072	-5.63
274.287	-11.78
274.503	12.8
274.719	-3.58
274.934	0.51
275.15	-13.82
275.366	45.57
275.581	4.61
275.797	16.9
276.012	-1.54
276.228	-77.31
276.444	20.99
276.659	-36.35
276.875	-34.3
277.09	41.47
277.306	82.43
277.521	-22.02
277.737	12.8
277.952	-40.45
278.168	59.9
278.383	-32.26
278.599	18.94
278.814	47.62
279.03	66.05
279.245	-52.74
279.461	-7.68
279.676	-19.97
279.892	14.85
280.107	-50.69
280.322	27.14
280.538	45.57
280.753	39.42
280.969	-7.68
281.184	45.57
281.399	35.33
281.615	45.57
281.83	39.42
282.045	29.18
282.26	-22.02
282.476	6.66
282.691	47.62
282.906	4.61
283.122	-5.63
283.337	-26.11
283.552	6.66
283.767	-67.07
283.983	49.66
284.198	-5.63
284.413	29.18
284.628	23.04
284.843	43.52
285.058	-22.02
285.274	8.7
285.489	25.09
285.704	-44.54
285.919	72.19
286.134	2.56
286.349	-22.02
286.564	6.66
286.779	70.14
286.995	12.8
287.21	-1.54
287.425	16.9
287.64	-19.97
287.855	-30.21
288.07	-69.12
288.285	133.63
288.5	6.66
288.715	-1.54
288.93	-13.82
289.145	33.28
289.36	18.94
289.575	43.52
289.79	39.42
290.004	4.61
290.219	33.28
290.434	-1.54
290.649	12.8
290.864	10.75
291.079	25.09
291.294	57.86
291.509	10.75
291.724	41.47
291.938	0.51
292.153	8.7
292.368	49.66
292.583	45.57
292.798	-42.5
293.012	39.42
293.227	-32.26
293.442	-26.11
293.657	43.52
293.871	45.57
294.086	2.56
294.301	59.9
294.516	33.28
294.73	23.04
294.945	12.8
295.16	-44.54
295.374	64
295.589	-5.63
295.804	-17.92
296.018	-36.35
296.233	8.7
296.447	0.51
296.662	-65.02
296.877	61.95
297.091	-32.26
297.306	6.66
297.52	-38.4
297.735	16.9
297.949	43.52
298.164	47.62
298.378	43.52
298.593	-11.78
298.807	-26.11
299.022	66.05
299.236	51.71
299.451	-75.26
299.665	16.9
299.88	25.09
300.094	41.47
300.309	-9.73
300.523	-13.82
300.737	0.51
300.952	2.56
301.166	92.67
301.381	18.94
301.595	59.9
301.809	16.9
302.024	72.19
302.238	27.14
302.452	12.8
302.667	-5.63
302.881	37.38
303.095	37.38
303.309	12.8
303.524	-3.58
303.738	-7.68
303.952	-11.78
304.166	6.66
304.381	-36.35
304.595	4.61
304.809	74.24
305.023	10.75
305.237	-28.16
305.452	-34.3
305.666	16.9
305.88	51.71
306.094	-7.68
306.308	8.7
306.522	-26.11
306.736	31.23
306.95	-15.87
307.164	57.86
307.379	70.14
307.593	80.38
307.807	-11.78
308.021	-36.35
308.235	78.33
308.449	-1.54
308.663	-46.59
308.877	39.42
309.091	25.09
309.305	18.94
309.519	64
309.733	-1.54
309.947	-108.03
310.161	55.81
310.374	64
310.588	-110.08
310.802	6.66
311.016	8.7
311.23	12.8
311.444	4.61
311.658	57.86
311.872	68.09
312.085	-54.78
312.299	6.66
312.513	102.91
312.727	0.51
312.941	84.48
313.154	70.14
313.368	0.51
313.582	25.09
313.796	14.85
314.009	-5.63
314.223	57.86
314.437	20.99
314.651	-40.45
314.864	39.42
315.078	55.81
315.292	-40.45
315.505	-13.82
315.719	-11.78
315.933	57.86
316.146	-34.3
316.36	-75.26
316.573	8.7
316.787	64
317.001	25.09
317.214	-15.87
317.428	-28.16
317.641	-73.21
317.855	23.04
318.068	-3.58
318.282	-32.26
318.495	10.75
318.709	33.28
318.922	-46.59
319.136	-36.35
319.349	43.52
319.563	72.19
319.776	33.28
319.99	-50.69
320.203	39.42
320.417	41.47
320.63	74.24
320.843	104.96
321.057	4.61
321.27	29.18
321.483	-28.16
321.697	88.57
321.91	43.52
322.124	100.86
322.337	27.14
322.55	23.04
322.763	-1.54
322.977	-5.63
323.19	41.47
323.403	6.66
323.617	70.14
323.83	25.09
324.043	0.51
324.256	82.43
324.469	37.38
324.683	-17.92
324.896	-5.63
325.109	35.33
325.322	-32.26
325.535	29.18
325.748	-3.58
325.962	14.85
326.175	74.24
326.388	74.24
326.601	-56.83
326.814	23.04
327.027	41.47
327.24	70.14
327.453	-75.26
327.666	8.7
327.879	47.62
328.092	43.52
328.305	33.28
328.518	82.43
328.731	18.94
328.944	16.9
329.157	-5.63
329.37	-40.45
329.583	14.85
329.796	66.05
330.009	-36.35
330.222	-36.35
330.435	-11.78
330.648	-26.11
330.861	76.29
331.073	70.14
331.286	8.7
331.499	-38.4
331.712	33.28
331.925	33.28
332.138	68.09
332.35	27.14
332.563	-3.58
332.776	74.24
332.989	-30.21
333.202	29.18
333.414	29.18
333.627	72.19
333.84	84.48
334.053	80.38
334.265	35.33
334.478	18.94
334.691	0.51
334.903	66.05
335.116	-1.54
335.329	78.33
335.541	49.66
335.754	68.09
335.966	-3.58
336.179	53.76
336.392	14.85
336.604	-36.35
336.817	115.2
337.029	-34.3
337.242	-15.87
337.454	43.52
337.667	-11.78
337.88	74.24
338.092	18.94
338.305	29.18
338.517	31.23
338.729	57.86
338.942	-32.26
339.154	18.94
339.367	-9.73
339.579	-42.5
339.792	94.72
340.004	55.81
340.217	10.75
340.429	47.62
340.641	-17.92
340.854	-13.82
341.066	-40.45
341.278	-32.26
341.491	27.14
341.703	39.42
341.915	45.57
342.128	59.9
342.34	43.52
342.552	-22.02
342.764	18.94
342.977	74.24
343.189	-15.87
343.401	47.62
343.613	-22.02
343.826	16.9
344.038	18.94
344.25	66.05
344.462	45.57
344.674	72.19
344.886	-36.35
345.099	10.75
345.311	-32.26
345.523	39.42
345.735	-22.02
345.947	49.66
346.159	66.05
346.371	0.51
346.583	43.52
346.795	6.66
347.007	78.33
347.219	80.38
347.431	12.8
347.643	14.85
347.855	-11.78
348.067	96.77
348.279	12.8
348.491	107.01
348.703	53.76
348.915	-26.11
349.127	37.38
349.339	33.28
349.551	43.52
349.763	57.86
349.975	-11.78
350.187	98.81
350.399	31.23
350.61	66.05
350.822	-7.68
351.034	147.97
351.246	57.86
351.458	29.18
351.669	66.05
351.881	84.48
352.093	20.99
352.305	29.18
352.517	16.9
352.728	55.81
352.94	23.04
353.152	-17.92
353.363	-52.74
353.575	25.09
353.787	-11.78
353.999	20.99
354.21	74.24
354.422	8.7
354.633	37.38
354.845	27.14
355.057	16.9
355.268	-28.16
355.48	43.52
355.692	-28.16
355.903	0.51
356.115	2.56
356.326	-9.73
356.538	-3.58
356.749	8.7
356.961	23.04
357.172	-13.82
357.384	41.47
357.595	84.48
357.807	55.81
358.018	-3.58
358.23	35.33
358.441	109.05
358.653	33.28
358.864	-17.92
359.075	-73.21
359.287	6.66
359.498	72.19
359.709	90.62
359.921	41.47
360.132	51.71
360.344	55.81
360.555	84.48
360.766	4.61
360.977	-9.73
361.189	33.28
361.4	12.8
361.611	8.7
361.823	117.25
362.034	55.81
362.245	-77.31
362.456	4.61
362.667	31.23
362.879	-7.68
363.09	16.9
363.301	6.66
363.512	49.66
363.723	43.52
363.935	-44.54
364.146	35.33
364.357	-5.63
364.568	-52.74
364.779	-7.68
364.99	23.04
365.201	31.23
365.412	29.18
365.623	27.14
365.834	25.09
366.045	27.14
366.256	-22.02
366.467	-42.5
366.678	31.23
366.889	20.99
367.1	25.09
367.311	31.23
367.522	23.04
367.733	16.9
367.944	72.19
368.155	41.47
368.366	29.18
368.577	61.95
368.788	98.81
368.999	47.62
369.209	61.95
369.42	98.81
369.631	49.66
369.842	18.94
370.053	82.43
370.264	72.19
370.474	-50.69
370.685	-32.26
370.896	27.14
371.107	113.15
371.317	35.33
371.528	-3.58
371.739	4.61
371.95	-9.73
372.16	102.91
372.371	6.66
372.582	49.66
372.792	10.75
373.003	90.62
373.214	-44.54
373.424	113.15
373.635	-50.69
373.846	98.81
374.056	-34.3
374.267	109.05
374.477	8.7
374.688	16.9
374.898	8.7
375.109	135.68
375.319	33.28
375.53	82.43
375.74	-1.54
375.951	31.23
376.161	31.23
376.372	104.96
376.582	-22.02
376.793	0.51
377.003	27.14
377.214	12.8
377.424	8.7
377.635	43.52
377.845	0.51
378.055	76.29
378.266	27.14
378.476	20.99
378.686	-24.06
378.897	27.14
379.107	88.57
379.317	78.33
379.528	-40.45
379.738	47.62
379.948	6.66
380.158	100.86
380.369	-3.58
380.579	68.09
380.789	6.66
380.999	2.56
381.21	92.67
381.42	27.14
381.63	33.28
381.84	51.71
382.05	-46.59
382.261	74.24
382.471	29.18
382.681	-5.63
382.891	96.77
383.101	-19.97
383.311	-48.64
383.521	18.94
383.731	4.61
383.941	61.95
384.151	39.42
384.361	57.86
384.571	25.09
384.781	8.7
384.991	111.1
385.201	64
385.411	25.09
385.621	64
385.831	-13.82
386.041	78.33
386.251	6.66
386.461	111.1
386.671	20.99
386.881	6.66
387.091	2.56
387.301	33.28
387.511	39.42
387.72	61.95
387.93	-42.5
388.14	-56.83
388.35	27.14
388.56	59.9
388.769	55.81
388.979	66.05
389.189	4.61
389.399	23.04
389.609	92.67
389.818	10.75
390.028	102.91
390.238	33.28
390.447	4.61
390.657	55.81
390.867	12.8
391.076	70.14
391.286	84.48
391.496	92.67
391.705	18.94
391.915	80.38
392.125	10.75
392.334	70.14
392.544	92.67
392.753	20.99
392.963	37.38
393.172	37.38
393.382	43.52
393.591	82.43
393.801	-26.11
394.01	76.29
394.22	57.86
394.429	6.66
394.639	33.28
394.848	115.2
395.058	109.05
395.267	43.52
395.477	90.62
395.686	45.57
395.895	104.96
396.105	55.81
396.314	57.86
396.524	14.85
396.733	119.29
396.942	80.38
397.152	104.96
397.361	39.42
397.57	57.86
397.78	31.23
397.989	96.77
398.198	129.53
398.407	18.94
398.617	82.43
398.826	109.05
399.035	80.38
399.244	57.86
399.453	23.04
399.663	115.2
399.872	53.76
400.081	107.01
400.29	90.62
400.499	2.56
400.708	107.01
400.917	20.99
401.127	135.68
401.336	31.23
401.545	137.73
401.754	57.86
401.963	80.38
402.172	88.57
402.381	102.91
402.59	115.2
402.799	107.01
403.008	84.48
403.217	90.62
403.426	117.25
403.635	121.34
403.844	45.57
404.053	53.76
404.262	129.53
404.471	117.25
404.68	125.44
404.888	119.29
405.097	90.62
405.306	139.77
405.515	147.97
405.724	129.53
405.933	158.21
406.142	150.01
406.35	121.34
406.559	72.19
406.768	225.79
406.977	174.59
407.185	188.93
407.394	150.01
407.603	180.73
407.812	111.1
408.02	301.56
408.229	248.32
408.438	180.73
408.646	262.65
408.855	197.12
409.064	231.93
409.272	221.69
409.481	264.7
409.69	238.08
409.898	244.22
410.107	324.09
410.315	309.76
410.524	254.46
410.733	338.43
410.941	340.47
411.15	356.86
411.358	352.76
411.567	416.25
411.775	313.85
411.984	416.25
412.192	416.25
412.401	332.28
412.609	403.96
412.818	571.9
413.026	453.11
413.234	481.78
413.443	498.17
413.651	479.74
413.86	571.9
414.068	598.52
414.276	623.09
414.485	610.81
414.693	592.37
414.901	674.29
415.11	709.11
415.318	608.76
415.526	754.16
415.734	805.36
415.943	692.73
416.151	795.12
416.359	819.7
416.567	807.41
416.776	831.99
416.984	860.66
417.192	915.95
417.4	987.63
417.608	981.49
417.817	991.73
418.025	993.78
418.233	1163.76
418.441	1130.99
418.649	1139.18
418.857	1286.64
419.065	1221.1
419.273	1325.55
419.481	1380.84
419.689	1423.85
419.897	1530.34
420.105	1536.49
420.313	1458.67
420.521	1683.94
420.729	1618.41
420.937	1630.7
421.145	1714.66
421.353	1747.43
421.561	1878.5
421.769	1905.12
421.977	2011.62
422.185	1954.27
422.393	2154.98
422.601	2224.61
422.809	2271.71
423.017	2306.52
423.224	2398.68
423.432	2472.41
423.64	2484.7
423.848	2779.61
424.056	2681.3
424.263	2851.28
424.471	2767.32
424.679	2804.18
424.887	3125.71
425.094	3131.86
425.302	3199.44
425.51	3246.54
425.718	3418.57
425.925	3428.81
426.133	3549.64
426.341	3705.29
426.548	3949
426.756	3875.27
426.964	3930.56
427.171	4278.72
427.379	4303.29
427.586	4411.84
427.794	4467.13
428.001	4811.19
428.209	4901.3
428.417	4757.94
428.624	5233.07
428.832	5239.22
429.039	5269.94
429.247	5122.48
429.454	5605.8
429.662	6150.56
429.869	5472.68
430.076	5980.58
430.284	5851.56
430.491	6130.08
430.699	6316.45
430.906	6537.63
431.114	6590.88
431.321	6873.5
431.528	6904.21
431.736	7350.67
431.943	7784.84
432.15	7319.95
432.358	7821.7
432.565	7995.78
432.772	8096.13
432.979	8501.63
433.187	8825.21
433.394	8683.9
433.601	9343.35
433.808	9468.27
434.016	9181.56
434.223	9699.69
434.43	10084.71
434.637	9888.11
434.844	10662.24
435.052	11000.15
435.259	10598.75
435.466	10770.78
435.673	10629.47
435.88	11450.71
436.087	12093.77
436.294	12093.77
436.501	11682.13
436.708	12130.63
436.915	12368.2
437.122	12972.35
437.329	13015.35
437.537	13371.7
437.743	13431.09
437.95	13535.54
438.157	14102.82
438.364	14696.74
438.571	14680.35
438.778	14762.27
438.985	15835.41
439.192	15440.15
439.399	15995.15
439.606	15767.82
439.813	16357.64
440.02	17424.63
440.227	17217.79
440.433	17088.76
440.64	17590.52
440.847	17490.17
441.054	17910
441.261	19067.1
441.467	18602.21
441.674	19409.11
441.881	19900.62
442.088	20181.2
442.294	19888.34
442.501	20377.8
442.708	20633.8
442.914	21436.6
443.121	22366.38
443.328	21706.93
443.534	23261.34
443.741	22810.79
443.948	22522.02
444.154	24006.8
444.361	23771.29
444.568	24242.32
444.774	24277.13
444.981	24342.67
445.187	25065.6
445.394	26134.64
445.6	25647.22
445.807	28395.6
446.013	26955.88
446.22	27424.86
446.426	28753.99
446.633	28903.49
446.839	29839.42
447.046	28571.72
447.252	30289.97
447.459	30064.69
447.665	30343.22
447.871	31418.4
448.078	32968.71
448.284	31475.74
448.491	31926.3
448.697	33587.2
448.903	33863.68
449.11	34332.66
449.316	33486.85
449.522	33990.65
449.728	34899.95
449.935	35063.78
450.141	35317.73
450.347	35784.67
450.553	35071.98
450.76	35284.97
450.966	36059.1
451.172	36059.1
451.378	37111.75
451.584	36290.52
451.791	37148.62
451.997	36855.76
452.203	37840.83
452.409	37658.56
452.615	37521.35
452.821	35854.3
453.027	35741.66
453.233	37502.92
453.44	35885.02
453.646	36327.38
453.852	36464.6
454.058	37291.97
454.264	36020.19
454.47	36870.09
454.676	35852.25
454.882	37224.39
455.088	33849.34
455.294	34146.29
455.5	34510.83
455.705	35135.46
455.911	33716.22
456.117	32686.09
456.323	32700.43
456.529	31014.95
456.735	32395.28
456.941	31639.58
457.147	30533.68
457.352	30023.73
457.558	29724.73
457.764	29687.87
457.97	29014.09
458.176	28536.91
458.381	28411.98
458.587	27369.57
458.793	26865.77
458.999	25473.15
459.204	27424.86
459.41	26615.91
459.616	24744.07
459.821	24821.89
460.027	25065.6
460.233	24064.14
460.438	23330.97
460.644	23472.28
460.85	22311.08
461.055	21866.67
461.261	21762.23
461.466	20338.89
461.672	19886.29
461.878	21207.23
462.083	19603.67
462.289	19177.69
462.494	19116.25
462.7	18245.87
462.905	17809.65
463.111	18491.62
463.316	18458.85
463.522	17811.7
463.727	18206.95
463.932	17901.81
464.138	18055.4
464.343	17860.85
464.549	17228.03
464.754	17938.67
464.959	17866.99
465.165	17768.69
465.37	16904.45
465.575	16679.17
465.781	17154.3
465.986	17027.32
466.191	16503.04
466.397	16380.17
466.602	15434
466.807	16191.75
467.012	15995.15
467.218	15808.78
467.423	15964.43
467.628	15825.17
