Data from USB4F104151__74__12-02-06-506.txt Node

Date: Fri Mar 14 12:02:06 EDT 2025
User: louis
Spectrometer: USB4F10415
Trigger mode: 4
Integration Time (sec): 2.000000E-2
Scans to average: 1
Electric dark correction enabled: true
Nonlinearity correction enabled: false
Boxcar width: 0
XAxis mode: Wavelengths
Number of Pixels in Spectrum: 3648
>>>>>Begin Spectral Data<<<<<
178.204	-85.84
178.424	-85.84
178.644	-85.84
178.864	-100.18
179.084	-77.65
179.304	24.75
179.524	-1.88
179.744	39.08
179.964	-51.03
180.184	18.6
180.404	26.79
180.624	20.65
180.844	4.27
181.064	-65.36
181.283	-67.41
181.503	53.42
181.723	-1.88
181.943	22.7
182.163	28.84
182.383	49.32
182.602	80.04
182.822	149.67
183.042	47.27
183.262	-1.88
183.482	45.23
183.701	28.84
183.921	41.13
184.141	24.75
184.361	59.56
184.58	75.95
184.8	-12.12
185.02	28.84
185.239	125.1
185.459	-34.64
185.679	0.17
185.898	-71.51
186.118	39.08
186.338	10.41
186.557	45.23
186.777	-10.07
186.997	73.9
187.216	-12.12
187.436	135.34
187.655	24.75
187.875	26.79
188.095	75.95
188.314	69.8
188.534	108.71
188.753	0.17
188.973	49.32
189.192	4.27
189.412	106.67
189.631	-10.07
189.851	-18.26
190.07	80.04
190.29	-8.02
190.509	37.03
190.729	41.13
190.948	75.95
191.168	174.25
191.387	16.55
191.607	-83.8
191.826	69.8
192.045	32.94
192.265	32.94
192.484	63.66
192.704	-5.97
192.923	49.32
193.142	26.79
193.362	47.27
193.581	32.94
193.8	51.37
194.02	82.09
194.239	94.38
194.458	47.27
194.678	-8.02
194.897	55.47
195.116	55.47
195.335	43.18
195.555	53.42
195.774	-20.31
195.993	63.66
196.212	20.65
196.432	24.75
196.651	53.42
196.87	-10.07
197.089	86.19
197.308	20.65
197.528	-24.4
197.747	-28.5
197.966	39.08
198.185	75.95
198.404	-14.17
198.623	32.94
198.842	-10.07
199.062	20.65
199.281	24.75
199.5	61.61
199.719	24.75
199.938	43.18
200.157	39.08
200.376	139.43
200.595	30.89
200.814	45.23
201.033	32.94
201.252	112.81
201.471	41.13
201.69	20.65
201.909	28.84
202.128	8.36
202.347	106.67
202.566	-22.36
202.785	-8.02
203.004	73.9
203.223	90.28
203.442	61.61
203.661	39.08
203.879	39.08
204.098	67.75
204.317	8.36
204.536	24.75
204.755	59.56
204.974	125.1
205.193	80.04
205.411	98.47
205.63	71.85
205.849	112.81
206.068	49.32
206.287	63.66
206.505	18.6
206.724	16.55
206.943	32.94
207.162	-8.02
207.381	24.75
207.599	45.23
207.818	43.18
208.037	22.7
208.255	104.62
208.474	65.71
208.693	16.55
208.911	51.37
209.13	26.79
209.349	63.66
209.567	14.51
209.786	61.61
210.005	114.86
210.223	-5.97
210.442	-10.07
210.661	2.22
210.879	80.04
211.098	43.18
211.316	10.41
211.535	18.6
211.753	24.75
211.972	-3.93
212.191	0.17
212.409	10.41
212.628	45.23
212.846	41.13
213.065	39.08
213.283	118.95
213.502	-14.17
213.72	24.75
213.938	16.55
214.157	45.23
214.375	28.84
214.594	47.27
214.812	69.8
215.031	-8.02
215.249	34.99
215.467	55.47
215.686	24.75
215.904	59.56
216.122	-57.17
216.341	47.27
216.559	43.18
216.778	49.32
216.996	102.57
217.214	16.55
217.432	-18.26
217.651	20.65
217.869	43.18
218.087	30.89
218.306	53.42
218.524	69.8
218.742	-34.64
218.96	-14.17
219.179	-46.93
219.397	28.84
219.615	73.9
219.833	2.22
220.051	-8.02
220.27	63.66
220.488	-28.5
220.706	49.32
220.924	2.22
221.142	-16.21
221.36	88.23
221.578	43.18
221.796	16.55
222.015	39.08
222.233	92.33
222.451	49.32
222.669	18.6
222.887	-30.55
223.105	34.99
223.323	108.71
223.541	10.41
223.759	22.7
223.977	18.6
224.195	41.13
224.413	88.23
224.631	47.27
224.849	80.04
225.067	49.32
225.285	-12.12
225.503	10.41
225.721	98.47
225.939	16.55
226.157	28.84
226.375	26.79
226.592	24.75
226.81	82.09
227.028	32.94
227.246	47.27
227.464	65.71
227.682	41.13
227.9	57.51
228.117	-48.98
228.335	-5.97
228.553	39.08
228.771	-36.69
228.989	28.84
229.206	43.18
229.424	112.81
229.642	-20.31
229.86	80.04
230.077	2.22
230.295	-8.02
230.513	82.09
230.731	59.56
230.948	118.95
231.166	34.99
231.384	92.33
231.601	34.99
231.819	18.6
232.037	51.37
232.254	4.27
232.472	67.75
232.689	41.13
232.907	104.62
233.125	61.61
233.342	57.51
233.56	10.41
233.777	-59.22
233.995	-20.31
234.213	28.84
234.43	28.84
234.648	51.37
234.865	53.42
235.083	47.27
235.3	82.09
235.518	-24.4
235.735	53.42
235.953	41.13
236.17	8.36
236.388	51.37
236.605	39.08
236.822	100.52
237.04	51.37
237.257	37.03
237.475	10.41
237.692	24.75
237.909	84.14
238.127	14.51
238.344	100.52
238.562	24.75
238.779	32.94
238.996	22.7
239.214	-10.07
239.431	-8.02
239.648	-28.5
239.865	102.57
240.083	43.18
240.3	-26.45
240.517	37.03
240.735	14.51
240.952	41.13
241.169	118.95
241.386	10.41
241.603	41.13
241.821	14.51
242.038	-10.07
242.255	80.04
242.472	26.79
242.689	-1.88
242.907	39.08
243.124	-51.03
243.341	45.23
243.558	-3.93
243.775	57.51
243.992	2.22
244.209	30.89
244.426	8.36
244.643	82.09
244.86	-26.45
245.078	34.99
245.295	-1.88
245.512	30.89
245.729	-10.07
245.946	26.79
246.163	63.66
246.38	6.31
246.597	34.99
246.814	14.51
247.031	14.51
247.248	-3.93
247.464	8.36
247.681	-5.97
247.898	63.66
248.115	-10.07
248.332	30.89
248.549	65.71
248.766	90.28
248.983	30.89
249.2	41.13
249.417	114.86
249.633	37.03
249.85	34.99
250.067	6.31
250.284	71.85
250.501	41.13
250.717	-14.17
250.934	2.22
251.151	37.03
251.368	104.62
251.585	37.03
251.801	-14.17
252.018	16.55
252.235	57.51
252.451	0.17
252.668	41.13
252.885	59.56
253.102	37.03
253.318	47.27
253.535	47.27
253.752	-8.02
253.968	84.14
254.185	37.03
254.401	96.43
254.618	0.17
254.835	-28.5
255.051	133.29
255.268	39.08
255.484	63.66
255.701	-24.4
255.917	73.9
256.134	55.47
256.351	-32.6
256.567	32.94
256.784	39.08
257	59.56
257.217	57.51
257.433	-12.12
257.65	114.86
257.866	39.08
258.082	45.23
258.299	34.99
258.515	-26.45
258.732	-65.36
258.948	2.22
259.165	137.38
259.381	61.61
259.597	65.71
259.814	34.99
260.03	26.79
260.246	-16.21
260.463	4.27
260.679	45.23
260.895	43.18
261.112	43.18
261.328	12.46
261.544	26.79
261.761	53.42
261.977	-40.79
262.193	34.99
262.409	26.79
262.626	49.32
262.842	30.89
263.058	49.32
263.274	63.66
263.49	90.28
263.707	88.23
263.923	0.17
264.139	32.94
264.355	32.94
264.571	39.08
264.787	16.55
265.004	59.56
265.22	37.03
265.436	49.32
265.652	0.17
265.868	28.84
266.084	100.52
266.3	30.89
266.516	77.99
266.732	37.03
266.948	-55.12
267.164	37.03
267.38	71.85
267.596	75.95
267.812	24.75
268.028	-18.26
268.244	-8.02
268.46	67.75
268.676	24.75
268.892	94.38
269.108	34.99
269.324	6.31
269.54	34.99
269.756	94.38
269.972	12.46
270.188	34.99
270.403	51.37
270.619	-8.02
270.835	47.27
271.051	96.43
271.267	43.18
271.483	57.51
271.698	90.28
271.914	28.84
272.13	20.65
272.346	57.51
272.562	-18.26
272.777	-20.31
272.993	104.62
273.209	12.46
273.425	-30.55
273.64	47.27
273.856	-53.08
274.072	10.41
274.287	37.03
274.503	-10.07
274.719	86.19
274.934	80.04
275.15	-14.17
275.366	65.71
275.581	18.6
275.797	-1.88
276.012	41.13
276.228	123.05
276.444	18.6
276.659	39.08
276.875	30.89
277.09	37.03
277.306	39.08
277.521	39.08
277.737	73.9
277.952	53.42
278.168	24.75
278.383	20.65
278.599	63.66
278.814	-28.5
279.03	-10.07
279.245	45.23
279.461	47.27
279.676	49.32
279.892	39.08
280.107	63.66
280.322	28.84
280.538	26.79
280.753	-8.02
280.969	16.55
281.184	10.41
281.399	34.99
281.615	67.75
281.83	-79.7
282.045	14.51
282.26	-3.93
282.476	47.27
282.691	75.95
282.906	47.27
283.122	82.09
283.337	24.75
283.552	98.47
283.767	53.42
283.983	102.57
284.198	39.08
284.413	47.27
284.628	57.51
284.843	4.27
285.058	65.71
285.274	-22.36
285.489	12.46
285.704	92.33
285.919	-24.4
286.134	90.28
286.349	55.47
286.564	-1.88
286.779	75.95
286.995	22.7
287.21	69.8
287.425	57.51
287.64	69.8
287.855	65.71
288.07	73.9
288.285	102.57
288.5	41.13
288.715	73.9
288.93	61.61
289.145	10.41
289.36	51.37
289.575	-1.88
289.79	114.86
290.004	71.85
290.219	-30.55
290.434	-67.41
290.649	84.14
290.864	10.41
291.079	45.23
291.294	75.95
291.509	69.8
291.724	43.18
291.938	-8.02
292.153	32.94
292.368	-28.5
292.583	45.23
292.798	-14.17
293.012	-1.88
293.227	30.89
293.442	-20.31
293.657	82.09
293.871	28.84
294.086	47.27
294.301	121
294.516	-8.02
294.73	-26.45
294.945	6.31
295.16	14.51
295.374	92.33
295.589	45.23
295.804	-28.5
296.018	18.6
296.233	96.43
296.447	20.65
296.662	47.27
296.877	71.85
297.091	20.65
297.306	51.37
297.52	57.51
297.735	34.99
297.949	45.23
298.164	18.6
298.378	-59.22
298.593	34.99
298.807	55.47
299.022	-5.97
299.236	24.75
299.451	57.51
299.665	-20.31
299.88	82.09
300.094	-24.4
300.309	45.23
300.523	2.22
300.737	32.94
300.952	34.99
301.166	37.03
301.381	-8.02
301.595	-8.02
301.809	-16.21
302.024	75.95
302.238	75.95
302.452	47.27
302.667	47.27
302.881	71.85
303.095	34.99
303.309	26.79
303.524	39.08
303.738	10.41
303.952	12.46
304.166	80.04
304.381	39.08
304.595	96.43
304.809	71.85
305.023	92.33
305.237	73.9
305.452	0.17
305.666	57.51
305.88	32.94
306.094	51.37
306.308	-30.55
306.522	45.23
306.736	4.27
306.95	86.19
307.164	-48.98
307.379	-20.31
307.593	73.9
307.807	94.38
308.021	18.6
308.235	65.71
308.449	-12.12
308.663	8.36
308.877	94.38
309.091	49.32
309.305	-16.21
309.519	-5.97
309.733	45.23
309.947	10.41
310.161	-1.88
310.374	14.51
310.588	71.85
310.802	8.36
311.016	51.37
311.23	51.37
311.444	49.32
311.658	53.42
311.872	41.13
312.085	28.84
312.299	61.61
312.513	34.99
312.727	-18.26
312.941	88.23
313.154	24.75
313.368	30.89
313.582	67.75
313.796	73.9
314.009	26.79
314.223	57.51
314.437	71.85
314.651	39.08
314.864	-38.74
315.078	24.75
315.292	67.75
315.505	18.6
315.719	39.08
315.933	-10.07
316.146	67.75
316.36	63.66
316.573	80.04
316.787	47.27
317.001	8.36
317.214	-3.93
317.428	43.18
317.641	8.36
317.855	32.94
318.068	2.22
318.282	73.9
318.495	55.47
318.709	43.18
318.922	34.99
319.136	55.47
319.349	75.95
319.563	16.55
319.776	12.46
319.99	12.46
320.203	106.67
320.417	51.37
320.63	69.8
320.843	51.37
321.057	96.43
321.27	26.79
321.483	65.71
321.697	8.36
321.91	-14.17
322.124	53.42
322.337	143.53
322.55	22.7
322.763	63.66
322.977	-10.07
323.19	41.13
323.403	6.31
323.617	112.81
323.83	96.43
324.043	24.75
324.256	28.84
324.469	47.27
324.683	22.7
324.896	-32.6
325.109	10.41
325.322	-22.36
325.535	34.99
325.748	63.66
325.962	39.08
326.175	4.27
326.388	53.42
326.601	57.51
326.814	20.65
327.027	-16.21
327.24	102.57
327.453	51.37
327.666	0.17
327.879	49.32
328.092	55.47
328.305	43.18
328.518	24.75
328.731	6.31
328.944	14.51
329.157	47.27
329.37	34.99
329.583	28.84
329.796	94.38
330.009	47.27
330.222	43.18
330.435	102.57
330.648	67.75
330.861	37.03
331.073	-1.88
331.286	67.75
331.499	24.75
331.712	10.41
331.925	30.89
332.138	77.99
332.35	155.82
332.563	-8.02
332.776	39.08
332.989	-32.6
333.202	34.99
333.414	69.8
333.627	32.94
333.84	24.75
334.053	86.19
334.265	32.94
334.478	37.03
334.691	90.28
334.903	51.37
335.116	47.27
335.329	12.46
335.541	6.31
335.754	82.09
335.966	20.65
336.179	32.94
336.392	24.75
336.604	4.27
336.817	30.89
337.029	26.79
337.242	43.18
337.454	24.75
337.667	20.65
337.88	49.32
338.092	112.81
338.305	53.42
338.517	26.79
338.729	41.13
338.942	-51.03
339.154	-12.12
339.367	-5.97
339.579	47.27
339.792	30.89
340.004	37.03
340.217	43.18
340.429	26.79
340.641	20.65
340.854	86.19
341.066	12.46
341.278	22.7
341.491	75.95
341.703	55.47
341.915	8.36
342.128	55.47
342.34	47.27
342.552	-5.97
342.764	6.31
342.977	20.65
343.189	10.41
343.401	2.22
343.613	16.55
343.826	18.6
344.038	41.13
344.25	8.36
344.462	-16.21
344.674	39.08
344.886	-3.93
345.099	14.51
345.311	-1.88
345.523	-22.36
345.735	47.27
345.947	77.99
346.159	-28.5
346.371	61.61
346.583	30.89
346.795	55.47
347.007	82.09
347.219	39.08
347.431	59.56
347.643	98.47
347.855	12.46
348.067	59.56
348.279	26.79
348.491	-5.97
348.703	69.8
348.915	96.43
349.127	88.23
349.339	32.94
349.551	30.89
349.763	88.23
349.975	71.85
350.187	96.43
350.399	32.94
350.61	30.89
350.822	51.37
351.034	65.71
351.246	90.28
351.458	123.05
351.669	-14.17
351.881	41.13
352.093	84.14
352.305	75.95
352.517	45.23
352.728	18.6
352.94	26.79
353.152	30.89
353.363	37.03
353.575	45.23
353.787	10.41
353.999	26.79
354.21	34.99
354.422	-1.88
354.633	49.32
354.845	90.28
355.057	55.47
355.268	75.95
355.48	80.04
355.692	8.36
355.903	30.89
356.115	6.31
356.326	41.13
356.538	114.86
356.749	16.55
356.961	104.62
357.172	24.75
357.384	28.84
357.595	75.95
357.807	28.84
358.018	86.19
358.23	80.04
358.441	49.32
358.653	65.71
358.864	2.22
359.075	127.14
359.287	51.37
359.498	96.43
359.709	2.22
359.921	88.23
360.132	121
360.344	127.14
360.555	26.79
360.766	47.27
360.977	-28.5
361.189	55.47
361.4	-10.07
361.611	129.19
361.823	30.89
362.034	137.38
362.245	22.7
362.456	80.04
362.667	12.46
362.879	-3.93
363.09	63.66
363.301	45.23
363.512	59.56
363.723	51.37
363.935	45.23
364.146	-3.93
364.357	51.37
364.568	14.51
364.779	8.36
364.99	39.08
365.201	43.18
365.412	47.27
365.623	30.89
365.834	49.32
366.045	18.6
366.256	75.95
366.467	55.47
366.678	20.65
366.889	123.05
367.1	88.23
367.311	41.13
367.522	75.95
367.733	49.32
367.944	-24.4
368.155	49.32
368.366	26.79
368.577	86.19
368.788	55.47
368.999	41.13
369.209	2.22
369.42	37.03
369.631	110.76
369.842	90.28
370.053	71.85
370.264	63.66
370.474	82.09
370.685	-57.17
370.896	69.8
371.107	22.7
371.317	75.95
371.528	63.66
371.739	75.95
371.95	32.94
372.16	94.38
372.371	47.27
372.582	-24.4
372.792	90.28
373.003	98.47
373.214	2.22
373.424	55.47
373.635	-79.7
373.846	45.23
374.056	53.42
374.267	86.19
374.477	69.8
374.688	-12.12
374.898	106.67
375.109	-8.02
375.319	73.9
375.53	71.85
375.74	8.36
375.951	88.23
376.161	14.51
376.372	88.23
376.582	2.22
376.793	-3.93
377.003	51.37
377.214	63.66
377.424	41.13
377.635	75.95
377.845	-18.26
378.055	84.14
378.266	12.46
378.476	82.09
378.686	30.89
378.897	53.42
379.107	24.75
379.317	88.23
379.528	49.32
379.738	137.38
379.948	10.41
380.158	-10.07
380.369	37.03
380.579	30.89
380.789	16.55
380.999	69.8
381.21	-22.36
381.42	90.28
381.63	73.9
381.84	110.76
382.05	98.47
382.261	75.95
382.471	37.03
382.681	10.41
382.891	26.79
383.101	67.75
383.311	-28.5
383.521	45.23
383.731	39.08
383.941	34.99
384.151	24.75
384.361	86.19
384.571	55.47
384.781	6.31
384.991	57.51
385.201	65.71
385.411	92.33
385.621	90.28
385.831	47.27
386.041	55.47
386.251	4.27
386.461	123.05
386.671	6.31
386.881	61.61
387.091	69.8
387.301	94.38
387.511	59.56
387.72	82.09
387.93	53.42
388.14	61.61
388.35	94.38
388.56	98.47
388.769	112.81
388.979	77.99
389.189	30.89
389.399	-1.88
389.609	55.47
389.818	80.04
390.028	2.22
390.238	43.18
390.447	49.32
390.657	63.66
390.867	6.31
391.076	-1.88
391.286	53.42
391.496	110.76
391.705	55.47
391.915	55.47
392.125	137.38
392.334	92.33
392.544	106.67
392.753	26.79
392.963	53.42
393.172	32.94
393.382	28.84
393.591	77.99
393.801	49.32
394.01	135.34
394.22	73.9
394.429	121
394.639	65.71
394.848	125.1
395.058	45.23
395.267	153.77
395.477	59.56
395.686	116.9
395.895	108.71
396.105	182.44
396.314	77.99
396.524	102.57
396.733	8.36
396.942	139.43
397.152	108.71
397.361	123.05
397.57	57.51
397.78	157.86
397.989	43.18
398.198	188.58
398.407	69.8
398.617	92.33
398.826	139.43
399.035	67.75
399.244	98.47
399.453	102.57
399.663	100.52
399.872	114.86
400.081	57.51
400.29	98.47
400.499	116.9
400.708	77.99
400.917	90.28
401.127	112.81
401.336	141.48
401.545	106.67
401.754	53.42
401.963	86.19
402.172	90.28
402.381	73.9
402.59	139.43
402.799	161.96
403.008	131.24
403.217	131.24
403.426	151.72
403.635	45.23
403.844	151.72
404.053	186.54
404.262	164.01
404.471	90.28
404.68	131.24
404.888	190.63
405.097	145.58
405.306	63.66
405.515	245.93
405.724	155.82
405.933	168.1
406.142	194.73
406.35	180.39
406.559	186.54
406.768	200.87
406.977	178.34
407.185	172.2
407.394	295.08
407.603	207.02
407.812	145.58
408.02	293.03
408.229	229.54
408.438	211.11
408.646	196.78
408.855	280.74
409.064	247.97
409.272	241.83
409.481	266.41
409.69	254.12
409.898	245.93
410.107	313.51
410.315	268.45
410.524	274.6
410.733	250.02
410.941	342.18
411.15	331.94
411.358	323.75
411.567	372.9
411.775	311.46
411.984	366.76
412.192	444.58
412.401	475.3
412.609	481.44
412.818	499.88
413.026	458.92
413.234	422.05
413.443	497.83
413.651	391.33
413.86	520.35
414.068	551.07
414.276	499.88
414.485	594.08
414.693	651.42
414.901	676
415.11	594.08
415.318	661.66
415.526	639.14
415.734	749.73
415.943	690.34
416.151	776.35
416.359	719.01
416.567	700.58
416.776	811.17
416.984	917.66
417.192	819.36
417.4	858.27
417.608	905.37
417.817	923.8
418.025	985.24
418.233	1036.44
418.441	1046.68
418.649	1151.13
418.857	1231
419.065	1247.38
419.273	1169.56
419.481	1269.91
419.689	1304.73
419.897	1339.54
420.105	1388.69
420.313	1317.01
420.521	1546.39
420.729	1474.71
420.937	1552.53
421.145	1562.77
421.353	1683.6
421.561	1724.56
421.769	1812.62
421.977	1810.58
422.185	1781.9
422.393	1964.17
422.601	2078.86
422.809	2076.81
423.017	2152.59
423.224	2250.89
423.432	2259.08
423.64	2375.81
423.848	2549.89
424.056	2449.54
424.263	2609.28
424.471	2597
424.679	2709.63
424.887	2861.18
425.094	2887.81
425.302	2926.72
425.51	3121.28
425.718	3168.38
425.925	3151.99
426.133	3303.54
426.341	3596.4
426.548	3653.75
426.756	3618.93
426.964	3598.45
427.171	3848.3
427.379	3962.99
427.586	4065.39
427.794	4110.44
428.001	4360.3
428.209	4567.14
428.417	4505.7
428.624	4749.41
428.832	4739.17
429.039	4663.4
429.247	4644.96
429.454	5277.79
429.662	5648.47
429.869	5326.94
430.076	5515.35
430.284	5320.79
430.491	5580.89
430.699	5881.94
430.906	6051.92
431.114	6019.15
431.321	6201.42
431.528	6613.06
431.736	7039.04
431.943	7063.61
432.15	6832.19
432.358	6989.89
432.565	7477.3
432.772	7381.05
432.979	7743.54
433.187	8034.35
433.394	7950.39
433.601	8423.47
433.808	8519.72
434.016	8491.05
434.223	8841.25
434.43	9408.54
434.637	9021.47
434.844	9857.04
435.052	10012.69
435.259	9803.8
435.466	10041.36
435.673	9912.34
435.88	10491.91
436.087	11204.61
436.294	11024.39
436.501	11026.43
436.708	11159.55
436.915	11282.43
437.122	12001.27
437.329	11927.54
437.537	12029.94
437.743	12648.43
437.95	12355.57
438.157	13162.47
438.364	13666.27
438.571	13510.62
438.778	13350.88
438.985	14899.14
439.192	14141.39
439.399	14702.54
439.606	14372.82
439.813	15146.95
440.02	16031.67
440.227	15728.57
440.433	15511.49
440.64	15947.7
440.847	16007.09
441.054	16631.72
441.261	17602.46
441.467	17334.18
441.674	17541.02
441.881	18339.73
442.088	18130.84
442.294	18003.86
442.501	18659.21
442.708	19025.8
442.914	19687.29
443.121	20832.11
443.328	20146.04
443.534	21288.81
443.741	20920.17
443.948	20553.59
444.154	22257.5
444.361	22026.07
444.568	22114.14
444.774	22003.55
444.981	22421.33
445.187	23422.79
445.394	23713.6
445.6	23672.64
445.807	26083.1
446.013	24856.37
446.22	25175.85
446.426	26554.13
446.633	26615.57
446.839	27424.52
447.046	26355.48
447.252	27850.5
447.459	28053.25
447.665	27895.55
447.871	29126.38
448.078	29974.24
448.284	28767.99
448.491	29818.6
448.697	30635.74
448.903	31057.62
449.11	31276.75
449.316	31063.76
449.522	31420.11
449.728	32464.57
449.935	32505.53
450.141	32456.38
450.347	33420.97
450.553	31979.2
450.76	32687.8
450.966	33793.7
451.172	33265.33
451.378	34035.36
451.584	33375.92
451.791	34451.1
451.997	34035.36
452.203	34905.75
452.409	34342.56
452.615	34721.43
452.821	33150.64
453.027	32990.9
453.233	34616.99
453.44	33203.89
453.646	33750.7
453.852	34070.18
454.058	34578.08
454.264	33261.23
454.47	33984.16
454.676	33195.7
454.882	34264.74
455.088	31168.21
455.294	31762.12
455.5	31950.53
455.705	32372.41
455.911	31295.18
456.117	31123.15
456.323	30355.16
456.529	28661.49
456.735	30453.47
456.941	28978.93
457.147	28616.44
457.352	27772.67
457.558	27367.18
457.764	27547.4
457.97	26838.8
458.176	26271.51
458.381	26416.92
458.587	25173.8
458.793	25102.12
458.999	23801.66
459.204	25517.86
459.41	24872.75
459.616	23066.44
459.821	23271.24
460.027	23174.99
460.233	22624.08
460.438	21684.06
460.644	22034.27
460.85	20942.7
461.055	20520.82
461.261	20291.45
461.466	18739.08
461.672	18575.25
461.878	19552.13
462.083	18636.69
462.289	17725.34
462.494	17803.16
462.7	17108.9
462.905	16662.44
463.111	17026.98
463.316	17219.49
463.522	16869.29
463.727	16908.2
463.932	16836.52
464.138	16441.26
464.343	16873.39
464.549	16185.27
464.754	17020.84
464.959	16418.74
465.165	16342.96
465.37	15720.38
465.575	15413.18
465.781	15908.79
465.986	16015.29
466.191	15415.23
466.397	15206.34
466.602	14397.39
466.807	14987.21
467.012	15032.26
467.218	14677.96
467.423	14843.85
467.628	14778.31
467.833	15509.44
