Data from USB4F104151__19__12-00-27-894.txt Node

Date: Fri Mar 14 12:00:27 EDT 2025
User: louis
Spectrometer: USB4F10415
Trigger mode: 4
Integration Time (sec): 2.000000E-2
Scans to average: 1
Electric dark correction enabled: true
Nonlinearity correction enabled: false
Boxcar width: 0
XAxis mode: Wavelengths
Number of Pixels in Spectrum: 3648
>>>>>Begin Spectral Data<<<<<
178.204	-104.28
178.424	-104.28
178.644	-104.28
178.864	-46.93
179.084	-36.69
179.304	-28.5
179.524	-30.55
179.744	-18.26
179.964	34.99
180.184	49.32
180.404	4.27
180.624	-34.64
180.844	-5.97
181.064	24.75
181.283	32.94
181.503	-55.12
181.723	26.79
181.943	-89.94
182.163	149.67
182.383	-16.21
182.602	-8.02
182.822	45.23
183.042	8.36
183.262	61.61
183.482	51.37
183.701	51.37
183.921	45.23
184.141	16.55
184.361	0.17
184.58	30.89
184.8	-40.79
185.02	-3.93
185.239	-14.17
185.459	28.84
185.679	-10.07
185.898	71.85
186.118	37.03
186.338	-22.36
186.557	2.22
186.777	-12.12
186.997	6.31
187.216	65.71
187.436	24.75
187.655	8.36
187.875	135.34
188.095	-8.02
188.314	49.32
188.534	34.99
188.753	49.32
188.973	-59.22
189.192	96.43
189.412	-3.93
189.631	6.31
189.851	-91.99
190.07	12.46
190.29	-16.21
190.509	-12.12
190.729	-26.45
190.948	37.03
191.168	106.67
191.387	73.9
191.607	24.75
191.826	43.18
192.045	0.17
192.265	-38.74
192.484	94.38
192.704	102.57
192.923	18.6
193.142	-38.74
193.362	16.55
193.581	77.99
193.8	-14.17
194.02	114.86
194.239	6.31
194.458	30.89
194.678	-32.6
194.897	20.65
195.116	45.23
195.335	-51.03
195.555	16.55
195.774	24.75
195.993	39.08
196.212	-8.02
196.432	49.32
196.651	-22.36
196.87	12.46
197.089	51.37
197.308	73.9
197.528	77.99
197.747	28.84
197.966	24.75
198.185	-10.07
198.404	-5.97
198.623	32.94
198.842	37.03
199.062	-30.55
199.281	49.32
199.5	-26.45
199.719	-24.4
199.938	22.7
200.157	47.27
200.376	77.99
200.595	0.17
200.814	16.55
201.033	4.27
201.252	69.8
201.471	69.8
201.69	22.7
201.909	84.14
202.128	-46.93
202.347	28.84
202.566	-5.97
202.785	24.75
203.004	4.27
203.223	71.85
203.442	22.7
203.661	10.41
203.879	47.27
204.098	34.99
204.317	-8.02
204.536	-30.55
204.755	28.84
204.974	104.62
205.193	100.52
205.411	80.04
205.63	57.51
205.849	-40.79
206.068	30.89
206.287	108.71
206.505	80.04
206.724	14.51
206.943	43.18
207.162	88.23
207.381	-44.88
207.599	-18.26
207.818	12.46
208.037	28.84
208.255	-5.97
208.474	-14.17
208.693	-30.55
208.911	94.38
209.13	26.79
209.349	51.37
209.567	43.18
209.786	12.46
210.005	49.32
210.223	57.51
210.442	90.28
210.661	86.19
210.879	63.66
211.098	-30.55
211.316	-65.36
211.535	59.56
211.753	-32.6
211.972	53.42
212.191	67.75
212.409	75.95
212.628	-5.97
212.846	34.99
213.065	121
213.283	127.14
213.502	-42.84
213.72	-16.21
213.938	67.75
214.157	-12.12
214.375	18.6
214.594	2.22
214.812	39.08
215.031	6.31
215.249	-3.93
215.467	-20.31
215.686	-28.5
215.904	0.17
216.122	24.75
216.341	37.03
216.559	-57.17
216.778	-12.12
216.996	100.52
217.214	-57.17
217.432	4.27
217.651	10.41
217.869	49.32
218.087	37.03
218.306	2.22
218.524	65.71
218.742	37.03
218.96	80.04
219.179	-18.26
219.397	-14.17
219.615	34.99
219.833	53.42
220.051	41.13
220.27	57.51
220.488	14.51
220.706	123.05
220.924	28.84
221.142	22.7
221.36	-16.21
221.578	80.04
221.796	32.94
222.015	-28.5
222.233	-30.55
222.451	82.09
222.669	16.55
222.887	73.9
223.105	10.41
223.323	82.09
223.541	55.47
223.759	51.37
223.977	16.55
224.195	30.89
224.413	49.32
224.631	14.51
224.849	26.79
225.067	80.04
225.285	18.6
225.503	6.31
225.721	57.51
225.939	30.89
226.157	26.79
226.375	69.8
226.592	92.33
226.81	12.46
227.028	34.99
227.246	55.47
227.464	10.41
227.682	61.61
227.9	102.57
228.117	-5.97
228.335	16.55
228.553	-10.07
228.771	39.08
228.989	84.14
229.206	-55.12
229.424	14.51
229.642	26.79
229.86	-34.64
230.077	80.04
230.295	30.89
230.513	2.22
230.731	96.43
230.948	10.41
231.166	32.94
231.384	28.84
231.601	-1.88
231.819	26.79
232.037	8.36
232.254	20.65
232.472	32.94
232.689	-16.21
232.907	-18.26
233.125	61.61
233.342	88.23
233.56	20.65
233.777	116.9
233.995	16.55
234.213	47.27
234.43	-8.02
234.648	51.37
234.865	24.75
235.083	59.56
235.3	28.84
235.518	20.65
235.735	94.38
235.953	59.56
236.17	-30.55
236.388	30.89
236.605	75.95
236.822	59.56
237.04	41.13
237.257	37.03
237.475	-8.02
237.692	121
237.909	61.61
238.127	-24.4
238.344	39.08
238.562	0.17
238.779	18.6
238.996	32.94
239.214	-38.74
239.431	22.7
239.648	41.13
239.865	32.94
240.083	41.13
240.3	57.51
240.517	-5.97
240.735	41.13
240.952	63.66
241.169	-10.07
241.386	55.47
241.603	6.31
241.821	-28.5
242.038	41.13
242.255	63.66
242.472	4.27
242.689	30.89
242.907	-34.64
243.124	47.27
243.341	100.52
243.558	0.17
243.775	-75.6
243.992	43.18
244.209	69.8
244.426	86.19
244.643	82.09
244.86	-1.88
245.078	59.56
245.295	-12.12
245.512	39.08
245.729	-20.31
245.946	55.47
246.163	51.37
246.38	-10.07
246.597	34.99
246.814	4.27
247.031	80.04
247.248	-22.36
247.464	-1.88
247.681	22.7
247.898	10.41
248.115	-32.6
248.332	59.56
248.549	127.14
248.766	24.75
248.983	-14.17
249.2	18.6
249.417	88.23
249.633	-18.26
249.85	0.17
250.067	10.41
250.284	37.03
250.501	22.7
250.717	12.46
250.934	32.94
251.151	10.41
251.368	43.18
251.585	30.89
251.801	-14.17
252.018	-10.07
252.235	2.22
252.451	32.94
252.668	-22.36
252.885	88.23
253.102	14.51
253.318	53.42
253.535	6.31
253.752	4.27
253.968	18.6
254.185	10.41
254.401	10.41
254.618	53.42
254.835	-1.88
255.051	43.18
255.268	-55.12
255.484	80.04
255.701	108.71
255.917	47.27
256.134	10.41
256.351	65.71
256.567	59.56
256.784	92.33
257	22.7
257.217	51.37
257.433	32.94
257.65	2.22
257.866	71.85
258.082	-46.93
258.299	22.7
258.515	65.71
258.732	41.13
258.948	16.55
259.165	49.32
259.381	-24.4
259.597	-22.36
259.814	59.56
260.03	0.17
260.246	8.36
260.463	-38.74
260.679	86.19
260.895	80.04
261.112	71.85
261.328	14.51
261.544	34.99
261.761	73.9
261.977	26.79
262.193	0.17
262.409	6.31
262.626	45.23
262.842	0.17
263.058	39.08
263.274	22.7
263.49	43.18
263.707	14.51
263.923	-44.88
264.139	-14.17
264.355	53.42
264.571	69.8
264.787	57.51
265.004	-40.79
265.22	28.84
265.436	-42.84
265.652	80.04
265.868	6.31
266.084	32.94
266.3	39.08
266.516	-46.93
266.732	30.89
266.948	86.19
267.164	-12.12
267.38	-63.32
267.596	28.84
267.812	53.42
268.028	61.61
268.244	47.27
268.46	51.37
268.676	34.99
268.892	57.51
269.108	43.18
269.324	20.65
269.54	51.37
269.756	4.27
269.972	-34.64
270.188	16.55
270.403	-5.97
270.619	43.18
270.835	63.66
271.051	-1.88
271.267	12.46
271.483	-1.88
271.698	71.85
271.914	57.51
272.13	20.65
272.346	45.23
272.562	-14.17
272.777	32.94
272.993	-3.93
273.209	2.22
273.425	-20.31
273.64	53.42
273.856	26.79
274.072	43.18
274.287	47.27
274.503	30.89
274.719	77.99
274.934	6.31
275.15	20.65
275.366	-3.93
275.581	14.51
275.797	-1.88
276.012	-59.22
276.228	4.27
276.444	116.9
276.659	28.84
276.875	-10.07
277.09	-3.93
277.306	0.17
277.521	59.56
277.737	10.41
277.952	63.66
278.168	82.09
278.383	12.46
278.599	57.51
278.814	4.27
279.03	28.84
279.245	4.27
279.461	43.18
279.676	112.81
279.892	-16.21
280.107	34.99
280.322	-32.6
280.538	43.18
280.753	18.6
280.969	71.85
281.184	6.31
281.399	75.95
281.615	67.75
281.83	47.27
282.045	-8.02
282.26	53.42
282.476	6.31
282.691	12.46
282.906	20.65
283.122	24.75
283.337	88.23
283.552	2.22
283.767	39.08
283.983	88.23
284.198	39.08
284.413	18.6
284.628	22.7
284.843	-18.26
285.058	0.17
285.274	-8.02
285.489	-61.27
285.704	16.55
285.919	24.75
286.134	30.89
286.349	22.7
286.564	28.84
286.779	94.38
286.995	94.38
287.21	6.31
287.425	80.04
287.64	-18.26
287.855	104.62
288.07	-10.07
288.285	14.51
288.5	-8.02
288.715	28.84
288.93	32.94
289.145	10.41
289.36	59.56
289.575	28.84
289.79	-3.93
290.004	-30.55
290.219	69.8
290.434	71.85
290.649	-34.64
290.864	20.65
291.079	75.95
291.294	14.51
291.509	-28.5
291.724	20.65
291.938	59.56
292.153	61.61
292.368	28.84
292.583	-5.97
292.798	0.17
293.012	108.71
293.227	-55.12
293.442	-10.07
293.657	-8.02
293.871	-26.45
294.086	67.75
294.301	39.08
294.516	-24.4
294.73	77.99
294.945	-57.17
295.16	49.32
295.374	61.61
295.589	30.89
295.804	-75.6
296.018	4.27
296.233	32.94
296.447	6.31
296.662	32.94
296.877	69.8
297.091	-10.07
297.306	10.41
297.52	47.27
297.735	30.89
297.949	-5.97
298.164	-20.31
298.378	75.95
298.593	49.32
298.807	14.51
299.022	65.71
299.236	39.08
299.451	18.6
299.665	45.23
299.88	22.7
300.094	-8.02
300.309	-5.97
300.523	106.67
300.737	-8.02
300.952	53.42
301.166	80.04
301.381	20.65
301.595	37.03
301.809	-1.88
302.024	-14.17
302.238	94.38
302.452	43.18
302.667	20.65
302.881	24.75
303.095	43.18
303.309	-42.84
303.524	-8.02
303.738	-3.93
303.952	6.31
304.166	-5.97
304.381	-16.21
304.595	51.37
304.809	43.18
305.023	2.22
305.237	-36.69
305.452	37.03
305.666	6.31
305.88	63.66
306.094	71.85
306.308	-1.88
306.522	12.46
306.736	34.99
306.95	102.57
307.164	75.95
307.379	57.51
307.593	84.14
307.807	61.61
308.021	-16.21
308.235	16.55
308.449	-44.88
308.663	12.46
308.877	55.47
309.091	0.17
309.305	16.55
309.519	59.56
309.733	47.27
309.947	22.7
310.161	-10.07
310.374	8.36
310.588	30.89
310.802	-51.03
311.016	65.71
311.23	92.33
311.444	-10.07
311.658	-14.17
311.872	30.89
312.085	28.84
312.299	39.08
312.513	-30.55
312.727	16.55
312.941	16.55
313.154	-20.31
313.368	61.61
313.582	53.42
313.796	-44.88
314.009	16.55
314.223	45.23
314.437	30.89
314.651	-12.12
314.864	41.13
315.078	65.71
315.292	-51.03
315.505	30.89
315.719	12.46
315.933	-24.4
316.146	20.65
316.36	-14.17
316.573	28.84
316.787	16.55
317.001	16.55
317.214	14.51
317.428	53.42
317.641	4.27
317.855	18.6
318.068	37.03
318.282	28.84
318.495	45.23
318.709	49.32
318.922	47.27
319.136	131.24
319.349	37.03
319.563	-14.17
319.776	8.36
319.99	-16.21
320.203	84.14
320.417	34.99
320.63	12.46
320.843	141.48
321.057	67.75
321.27	55.47
321.483	77.99
321.697	96.43
321.91	-10.07
322.124	26.79
322.337	4.27
322.55	24.75
322.763	37.03
322.977	55.47
323.19	-1.88
323.403	41.13
323.617	28.84
323.83	71.85
324.043	6.31
324.256	14.51
324.469	-38.74
324.683	59.56
324.896	-20.31
325.109	39.08
325.322	-22.36
325.535	30.89
325.748	22.7
325.962	53.42
326.175	45.23
326.388	34.99
326.601	69.8
326.814	2.22
327.027	45.23
327.24	18.6
327.453	4.27
327.666	8.36
327.879	20.65
328.092	24.75
328.305	8.36
328.518	67.75
328.731	26.79
328.944	41.13
329.157	24.75
329.37	75.95
329.583	71.85
329.796	88.23
330.009	49.32
330.222	47.27
330.435	30.89
330.648	41.13
330.861	65.71
331.073	16.55
331.286	-16.21
331.499	16.55
331.712	20.65
331.925	-8.02
332.138	37.03
332.35	-32.6
332.563	-16.21
332.776	45.23
332.989	20.65
333.202	59.56
333.414	-34.64
333.627	73.9
333.84	-61.27
334.053	-5.97
334.265	96.43
334.478	88.23
334.691	45.23
334.903	34.99
335.116	28.84
335.329	59.56
335.541	10.41
335.754	75.95
335.966	-3.93
336.179	41.13
336.392	-1.88
336.604	41.13
336.817	53.42
337.029	63.66
337.242	-53.08
337.454	108.71
337.667	26.79
337.88	51.37
338.092	57.51
338.305	45.23
338.517	41.13
338.729	43.18
338.942	43.18
339.154	-10.07
339.367	-20.31
339.579	41.13
339.792	16.55
340.004	98.47
340.217	-36.69
340.429	49.32
340.641	12.46
340.854	12.46
341.066	6.31
341.278	53.42
341.491	30.89
341.703	82.09
341.915	47.27
342.128	59.56
342.34	49.32
342.552	14.51
342.764	65.71
342.977	4.27
343.189	-10.07
343.401	82.09
343.613	37.03
343.826	28.84
344.038	61.61
344.25	-10.07
344.462	49.32
344.674	75.95
344.886	61.61
345.099	114.86
345.311	57.51
345.523	98.47
345.735	20.65
345.947	6.31
346.159	24.75
346.371	30.89
346.583	88.23
346.795	18.6
347.007	-1.88
347.219	-18.26
347.431	18.6
347.643	22.7
347.855	-14.17
348.067	30.89
348.279	12.46
348.491	69.8
348.703	-18.26
348.915	20.65
349.127	43.18
349.339	41.13
349.551	86.19
349.763	73.9
349.975	77.99
350.187	49.32
350.399	0.17
350.61	26.79
350.822	22.7
351.034	16.55
351.246	41.13
351.458	14.51
351.669	28.84
351.881	77.99
352.093	47.27
352.305	53.42
352.517	145.58
352.728	57.51
352.94	55.47
353.152	34.99
353.363	24.75
353.575	28.84
353.787	92.33
353.999	77.99
354.21	-10.07
354.422	-3.93
354.633	80.04
354.845	57.51
355.057	45.23
355.268	69.8
355.48	63.66
355.692	8.36
355.903	55.47
356.115	-51.03
356.326	-22.36
356.538	108.71
356.749	28.84
356.961	67.75
357.172	16.55
357.384	90.28
357.595	37.03
357.807	43.18
358.018	-22.36
358.23	80.04
358.441	102.57
358.653	77.99
358.864	55.47
359.075	49.32
359.287	0.17
359.498	-18.26
359.709	69.8
359.921	43.18
360.132	37.03
360.344	86.19
360.555	108.71
360.766	34.99
360.977	16.55
361.189	43.18
361.4	67.75
361.611	14.51
361.823	18.6
362.034	61.61
362.245	69.8
362.456	8.36
362.667	18.6
362.879	6.31
363.09	30.89
363.301	24.75
363.512	104.62
363.723	22.7
363.935	34.99
364.146	41.13
364.357	2.22
364.568	116.9
364.779	16.55
364.99	37.03
365.201	-34.64
365.412	26.79
365.623	-55.12
365.834	75.95
366.045	-32.6
366.256	-10.07
366.467	2.22
366.678	61.61
366.889	4.27
367.1	61.61
367.311	34.99
367.522	2.22
367.733	90.28
367.944	86.19
368.155	61.61
368.366	-8.02
368.577	26.79
368.788	65.71
368.999	6.31
369.209	84.14
369.42	106.67
369.631	102.57
369.842	0.17
370.053	-22.36
370.264	47.27
370.474	41.13
370.685	43.18
370.896	28.84
371.107	100.52
371.317	8.36
371.528	59.56
371.739	75.95
371.95	47.27
372.16	45.23
372.371	39.08
372.582	-16.21
372.792	94.38
373.003	67.75
373.214	69.8
373.424	49.32
373.635	43.18
373.846	149.67
374.056	37.03
374.267	45.23
374.477	8.36
374.688	30.89
374.898	-46.93
375.109	37.03
375.319	69.8
375.53	69.8
375.74	73.9
375.951	55.47
376.161	41.13
376.372	96.43
376.582	10.41
376.793	59.56
377.003	77.99
377.214	-32.6
377.424	0.17
377.635	30.89
377.845	16.55
378.055	67.75
378.266	16.55
378.476	45.23
378.686	61.61
378.897	77.99
379.107	41.13
379.317	59.56
379.528	30.89
379.738	94.38
379.948	4.27
380.158	43.18
380.369	2.22
380.579	77.99
380.789	37.03
380.999	88.23
381.21	8.36
381.42	86.19
381.63	18.6
381.84	67.75
382.05	114.86
382.261	90.28
382.471	63.66
382.681	28.84
382.891	39.08
383.101	71.85
383.311	12.46
383.521	45.23
383.731	127.14
383.941	77.99
384.151	2.22
384.361	71.85
384.571	94.38
384.781	-12.12
384.991	39.08
385.201	98.47
385.411	102.57
385.621	77.99
385.831	30.89
386.041	20.65
386.251	12.46
386.461	71.85
386.671	96.43
386.881	59.56
387.091	90.28
387.301	98.47
387.511	90.28
387.72	104.62
387.93	24.75
388.14	65.71
388.35	-22.36
388.56	14.51
388.769	108.71
388.979	-36.69
389.189	59.56
389.399	96.43
389.609	47.27
389.818	71.85
390.028	41.13
390.238	59.56
390.447	86.19
390.657	102.57
390.867	24.75
391.076	22.7
391.286	37.03
391.496	2.22
391.705	137.38
391.915	114.86
392.125	45.23
392.334	69.8
392.544	94.38
392.753	77.99
392.963	4.27
393.172	90.28
393.382	94.38
393.591	143.53
393.801	61.61
394.01	61.61
394.22	16.55
394.429	104.62
394.639	77.99
394.848	90.28
395.058	77.99
395.267	71.85
395.477	164.01
395.686	28.84
395.895	116.9
396.105	112.81
396.314	71.85
396.524	100.52
396.733	57.51
396.942	84.14
397.152	121
397.361	65.71
397.57	94.38
397.78	133.29
397.989	84.14
398.198	196.78
398.407	110.76
398.617	104.62
398.826	141.48
399.035	112.81
399.244	184.49
399.453	145.58
399.663	104.62
399.872	135.34
400.081	100.52
400.29	71.85
400.499	184.49
400.708	110.76
400.917	129.19
401.127	143.53
401.336	94.38
401.545	73.9
401.754	135.34
401.963	51.37
402.172	28.84
402.381	47.27
402.59	118.95
402.799	139.43
403.008	133.29
403.217	135.34
403.426	77.99
403.635	112.81
403.844	176.3
404.053	92.33
404.262	121
404.471	182.44
404.68	127.14
404.888	92.33
405.097	147.62
405.306	213.16
405.515	118.95
405.724	88.23
405.933	188.58
406.142	100.52
406.35	194.73
406.559	166.06
406.768	170.15
406.977	147.62
407.185	215.21
407.394	260.26
407.603	139.43
407.812	188.58
408.02	174.25
408.229	204.97
408.438	200.87
408.646	129.19
408.855	245.93
409.064	184.49
409.272	219.3
409.481	274.6
409.69	209.06
409.898	305.32
410.107	284.84
410.315	356.52
410.524	264.36
410.733	331.94
410.941	401.57
411.15	364.71
411.358	270.5
411.567	438.44
411.775	413.86
411.984	377
412.192	422.05
412.401	387.24
412.609	426.15
412.818	487.59
413.026	493.73
413.234	501.92
413.443	440.48
413.651	526.5
413.86	481.44
414.068	522.4
414.276	583.84
414.485	524.45
414.693	649.38
414.901	716.96
415.11	643.23
415.318	739.49
415.526	770.21
415.734	772.25
415.943	663.71
416.151	772.25
416.359	764.06
416.567	790.69
416.776	915.61
416.984	854.17
417.192	991.39
417.4	872.61
417.608	923.8
417.817	942.24
418.025	1079.45
418.233	1114.27
418.441	1032.35
418.649	1128.6
418.857	1198.23
419.065	1228.95
419.273	1171.61
419.481	1411.22
419.689	1353.88
419.897	1390.74
420.105	1460.37
420.313	1425.56
420.521	1560.72
420.729	1579.15
420.937	1667.22
421.145	1667.22
421.353	1761.42
421.561	1781.9
421.769	1894.54
421.977	1962.12
422.185	1896.59
422.393	2103.43
422.601	2076.81
422.809	2244.74
423.017	2070.67
423.224	2238.6
423.432	2386.05
423.64	2373.77
423.848	2676.87
424.056	2566.28
424.263	2674.82
424.471	2799.74
424.679	2842.75
424.887	2977.92
425.094	3088.51
425.302	2977.92
425.51	3352.7
425.718	3342.46
425.925	3307.64
426.133	3479.67
426.341	3739.76
426.548	3747.95
426.756	3797.1
426.964	3881.07
427.171	4026.48
427.379	4204.65
427.586	4386.92
427.794	4380.78
428.001	4614.24
428.209	4749.41
428.417	4739.17
428.624	4913.25
428.832	5126.24
429.039	5046.37
429.247	5116
429.454	5449.82
429.662	5826.64
429.869	5591.13
430.076	5920.85
430.284	5705.81
430.491	5871.7
430.699	6314.06
430.906	6283.34
431.114	6254.67
431.321	6699.08
431.528	6830.15
431.736	7202.88
431.943	7606.33
432.15	7153.73
432.358	7272.51
432.565	7940.15
432.772	7802.93
432.979	8130.61
433.187	8329.26
433.394	8390.7
433.601	8857.64
433.808	9070.62
434.016	8775.72
434.223	9361.44
434.43	9904.15
434.637	9623.58
434.844	10309.65
435.052	10639.37
435.259	10520.59
435.466	10514.44
435.673	10444.81
435.88	11122.69
436.087	11667.45
436.294	11712.5
436.501	11409.4
436.708	11634.68
436.915	11997.17
437.122	12574.7
437.329	12689.39
437.537	12740.58
437.743	13082.6
437.95	12982.24
438.157	13680.6
438.364	13981.65
438.571	14270.42
438.778	14331.86
438.985	15640.51
439.192	15101.89
439.399	15499.2
439.606	15314.88
439.813	16013.24
440.02	16969.64
440.227	16644.01
440.433	16590.77
440.64	17065.89
440.847	16973.74
441.054	17444.77
441.261	18395.03
441.467	18352.02
441.674	18704.27
441.881	19376
442.088	19052.42
442.294	19046.28
442.501	19697.53
442.708	20113.27
442.914	20911.98
443.121	21520.23
443.328	21170.02
443.534	22669.14
443.741	22003.55
443.948	21802.85
444.154	23222.09
444.361	23217.99
444.568	23381.83
444.774	23566.15
444.981	23729.98
445.187	24389.43
445.394	25655.08
445.6	25143.08
445.807	27367.18
446.013	26406.68
446.22	26650.39
446.426	28004.1
446.633	27731.72
446.839	29322.99
447.046	27954.94
447.252	29290.22
447.459	29585.13
447.665	29058.8
447.871	30721.75
448.078	31844.04
448.284	30711.51
448.491	31151.82
448.697	32581.31
448.903	32978.61
449.11	33250.99
449.316	32487.1
449.522	33220.27
449.728	33642.15
449.935	34076.32
450.141	33885.86
450.347	34803.35
450.553	33930.92
450.76	34356.89
450.966	35307.15
451.172	35051.16
451.378	36007.56
451.584	35157.65
451.791	36165.25
451.997	35798.66
452.203	36445.82
452.409	36331.14
452.615	36253.31
452.821	34774.68
453.027	34641.56
453.233	36148.87
453.44	34948.76
453.646	35341.97
453.852	35393.17
454.058	35841.67
454.264	34576.03
454.47	35595.92
454.676	34309.79
454.882	35673.74
455.088	32573.11
455.294	33093.3
455.5	33574.57
455.705	33941.16
455.911	32161.47
456.117	31782.6
456.323	31389.39
456.529	29691.62
456.735	30951.12
456.941	30131.93
457.147	29914.85
457.352	28722.93
457.558	28522.23
457.764	28460.79
457.97	28176.12
458.176	27225.87
458.381	27356.94
458.587	25896.74
458.793	26009.37
458.999	24739.63
459.204	26363.67
459.41	25390.89
459.616	23861.05
459.821	23942.97
460.027	23785.28
460.233	23439.17
460.438	22132.57
460.644	22355.8
460.85	21139.3
461.055	20963.18
461.261	20957.03
461.466	19384.19
461.672	18857.87
461.878	20031.35
462.083	18833.29
462.289	18446.23
462.494	18214.8
462.7	17420.19
462.905	16943.02
463.111	17674.14
463.316	17553.31
463.522	17227.68
463.727	17463.2
463.932	17227.68
464.138	17254.31
464.343	17033.13
464.549	16777.13
464.754	17235.88
464.959	17149.86
465.165	16760.75
465.37	16107.44
465.575	15783.87
465.781	16035.77
465.986	16476.08
466.191	15884.22
466.397	15611.84
466.602	14829.51
466.807	15558.59
467.012	15433.66
467.218	15312.83
467.423	15228.87
467.628	15232.96
