Data from USB4F104151__31__12-00-41-292.txt Node

Date: Fri Mar 14 12:00:41 EDT 2025
User: louis
Spectrometer: USB4F10415
Trigger mode: 4
Integration Time (sec): 2.000000E-2
Scans to average: 1
Electric dark correction enabled: true
Nonlinearity correction enabled: false
Boxcar width: 0
XAxis mode: Wavelengths
Number of Pixels in Spectrum: 3648
>>>>>Begin Spectral Data<<<<<
178.204	35.16
178.424	35.16
178.644	35.16
178.864	-61.1
179.084	-46.76
179.304	6.49
179.524	8.53
179.744	20.82
179.964	31.06
180.184	12.63
180.404	63.83
180.624	14.68
180.844	-50.86
181.064	-77.48
181.283	-13.99
181.503	-7.85
181.723	-7.85
181.943	-18.09
182.163	-3.75
182.383	45.4
182.602	57.68
182.822	29.01
183.042	43.35
183.262	29.01
183.482	26.96
183.701	-20.14
183.921	41.3
184.141	-7.85
184.361	115.03
184.58	55.64
184.8	41.3
185.02	26.96
185.239	41.3
185.459	43.35
185.679	45.4
185.898	10.58
186.118	67.92
186.338	41.3
186.557	14.68
186.777	-9.9
186.997	47.44
187.216	-48.81
187.436	55.64
187.655	45.4
187.875	24.92
188.095	-28.33
188.314	72.02
188.534	55.64
188.753	49.49
188.973	-24.23
189.192	53.59
189.412	55.64
189.631	47.44
189.851	37.2
190.07	72.02
190.29	14.68
190.509	55.64
190.729	12.63
190.948	65.88
191.168	106.84
191.387	110.93
191.607	47.44
191.826	-7.85
192.045	53.59
192.265	29.01
192.484	43.35
192.704	-13.99
192.923	24.92
193.142	88.4
193.362	80.21
193.581	72.02
193.8	69.97
194.02	45.4
194.239	94.55
194.458	90.45
194.678	82.26
194.897	43.35
195.116	-9.9
195.335	51.54
195.555	112.98
195.774	-11.95
195.993	26.96
196.212	47.44
196.432	55.64
196.651	76.12
196.87	22.87
197.089	88.4
197.308	43.35
197.528	72.02
197.747	59.73
197.966	14.68
198.185	41.3
198.404	59.73
198.623	57.68
198.842	92.5
199.062	67.92
199.281	43.35
199.5	-28.33
199.719	59.73
199.938	29.01
200.157	127.32
200.376	-22.19
200.595	69.97
200.814	41.3
201.033	-36.52
201.252	106.84
201.471	53.59
201.69	65.88
201.909	102.74
202.128	-26.28
202.347	18.77
202.566	16.73
202.785	41.3
203.004	-36.52
203.223	76.12
203.442	67.92
203.661	37.2
203.879	-38.57
204.098	90.45
204.317	-42.67
204.536	26.96
204.755	26.96
204.974	74.07
205.193	49.49
205.411	78.16
205.63	2.39
205.849	20.82
206.068	78.16
206.287	76.12
206.505	88.4
206.724	172.37
206.943	29.01
207.162	65.88
207.381	47.44
207.599	-3.75
207.818	69.97
208.037	108.88
208.255	12.63
208.474	82.26
208.693	67.92
208.911	39.25
209.13	90.45
209.349	96.6
209.567	35.16
209.786	47.44
210.005	90.45
210.223	33.11
210.442	59.73
210.661	31.06
210.879	-5.8
211.098	84.31
211.316	65.88
211.535	108.88
211.753	-5.8
211.972	22.87
212.191	61.78
212.409	-16.04
212.628	24.92
212.846	35.16
213.065	41.3
213.283	155.99
213.502	-5.8
213.72	2.39
213.938	145.75
214.157	0.34
214.375	53.59
214.594	65.88
214.812	-54.95
215.031	24.92
215.249	29.01
215.467	8.53
215.686	31.06
215.904	78.16
216.122	12.63
216.341	47.44
216.559	39.25
216.778	55.64
216.996	98.64
217.214	29.01
217.432	49.49
217.651	63.83
217.869	-7.85
218.087	2.39
218.306	37.2
218.524	0.34
218.742	-3.75
218.96	43.35
219.179	4.44
219.397	59.73
219.615	78.16
219.833	108.88
220.051	31.06
220.27	37.2
220.488	20.82
220.706	55.64
220.924	37.2
221.142	74.07
221.36	-24.23
221.578	92.5
221.796	31.06
222.015	45.4
222.233	14.68
222.451	90.45
222.669	24.92
222.887	67.92
223.105	63.83
223.323	45.4
223.541	4.44
223.759	29.01
223.977	55.64
224.195	59.73
224.413	18.77
224.631	14.68
224.849	14.68
225.067	86.36
225.285	51.54
225.503	69.97
225.721	-11.95
225.939	33.11
226.157	57.68
226.375	51.54
226.592	-32.43
226.81	45.4
227.028	92.5
227.246	98.64
227.464	55.64
227.682	69.97
227.9	29.01
228.117	98.64
228.335	47.44
228.553	69.97
228.771	69.97
228.989	76.12
229.206	24.92
229.424	-28.33
229.642	53.59
229.86	106.84
230.077	12.63
230.295	33.11
230.513	43.35
230.731	63.83
230.948	51.54
231.166	92.5
231.384	12.63
231.601	76.12
231.819	112.98
232.037	14.68
232.254	14.68
232.472	100.69
232.689	35.16
232.907	6.49
233.125	14.68
233.342	61.78
233.56	14.68
233.777	53.59
233.995	-9.9
234.213	84.31
234.43	39.25
234.648	8.53
234.865	29.01
235.083	61.78
235.3	29.01
235.518	51.54
235.735	98.64
235.953	74.07
236.17	8.53
236.388	53.59
236.605	20.82
236.822	43.35
237.04	4.44
237.257	26.96
237.475	90.45
237.692	0.34
237.909	45.4
238.127	-13.99
238.344	41.3
238.562	102.74
238.779	2.39
238.996	26.96
239.214	37.2
239.431	92.5
239.648	-3.75
239.865	49.49
240.083	37.2
240.3	104.79
240.517	24.92
240.735	41.3
240.952	84.31
241.169	92.5
241.386	43.35
241.603	35.16
241.821	55.64
242.038	72.02
242.255	45.4
242.472	94.55
242.689	24.92
242.907	31.06
243.124	18.77
243.341	-9.9
243.558	-24.23
243.775	24.92
243.992	-9.9
244.209	31.06
244.426	69.97
244.643	110.93
244.86	41.3
245.078	31.06
245.295	47.44
245.512	57.68
245.729	0.34
245.946	-7.85
246.163	39.25
246.38	31.06
246.597	33.11
246.814	20.82
247.031	63.83
247.248	82.26
247.464	80.21
247.681	51.54
247.898	80.21
248.115	63.83
248.332	67.92
248.549	51.54
248.766	80.21
248.983	-3.75
249.2	16.73
249.417	39.25
249.633	-20.14
249.85	-9.9
250.067	8.53
250.284	2.39
250.501	72.02
250.717	53.59
250.934	43.35
251.151	-63.15
251.368	-5.8
251.585	-18.09
251.801	65.88
252.018	41.3
252.235	72.02
252.451	26.96
252.668	-42.67
252.885	74.07
253.102	24.92
253.318	86.36
253.535	104.79
253.752	49.49
253.968	22.87
254.185	-26.28
254.401	69.97
254.618	112.98
254.835	20.82
255.051	45.4
255.268	65.88
255.484	67.92
255.701	63.83
255.917	59.73
256.134	-1.71
256.351	76.12
256.567	2.39
256.784	22.87
257	-5.8
257.217	76.12
257.433	2.39
257.65	59.73
257.866	61.78
258.082	-13.99
258.299	47.44
258.515	78.16
258.732	69.97
258.948	20.82
259.165	94.55
259.381	51.54
259.597	51.54
259.814	20.82
260.03	35.16
260.246	-1.71
260.463	43.35
260.679	33.11
260.895	-34.47
261.112	29.01
261.328	20.82
261.544	41.3
261.761	14.68
261.977	84.31
262.193	18.77
262.409	33.11
262.626	2.39
262.842	35.16
263.058	45.4
263.274	0.34
263.49	65.88
263.707	-7.85
263.923	22.87
264.139	84.31
264.355	26.96
264.571	88.4
264.787	49.49
265.004	-24.23
265.22	26.96
265.436	-44.71
265.652	106.84
265.868	53.59
266.084	-42.67
266.3	51.54
266.516	43.35
266.732	33.11
266.948	90.45
267.164	127.32
267.38	115.03
267.596	129.36
267.812	29.01
268.028	43.35
268.244	12.63
268.46	-30.38
268.676	55.64
268.892	125.27
269.108	26.96
269.324	6.49
269.54	45.4
269.756	63.83
269.972	65.88
270.188	31.06
270.403	26.96
270.619	24.92
270.835	-3.75
271.051	61.78
271.267	57.68
271.483	61.78
271.698	90.45
271.914	59.73
272.13	16.73
272.346	123.22
272.562	47.44
272.777	41.3
272.993	112.98
273.209	69.97
273.425	108.88
273.64	76.12
273.856	31.06
274.072	80.21
274.287	43.35
274.503	96.6
274.719	18.77
274.934	67.92
275.15	41.3
275.366	57.68
275.581	8.53
275.797	80.21
276.012	65.88
276.228	61.78
276.444	26.96
276.659	133.46
276.875	-38.57
277.09	18.77
277.306	43.35
277.521	43.35
277.737	94.55
277.952	61.78
278.168	74.07
278.383	76.12
278.599	-11.95
278.814	45.4
279.03	14.68
279.245	67.92
279.461	92.5
279.676	72.02
279.892	45.4
280.107	26.96
280.322	4.44
280.538	37.2
280.753	2.39
280.969	74.07
281.184	49.49
281.399	55.64
281.615	39.25
281.83	65.88
282.045	26.96
282.26	84.31
282.476	45.4
282.691	33.11
282.906	29.01
283.122	63.83
283.337	8.53
283.552	65.88
283.767	16.73
283.983	49.49
284.198	112.98
284.413	53.59
284.628	41.3
284.843	43.35
285.058	2.39
285.274	-1.71
285.489	-1.71
285.704	94.55
285.919	-3.75
286.134	47.44
286.349	43.35
286.564	39.25
286.779	72.02
286.995	-7.85
287.21	26.96
287.425	82.26
287.64	55.64
287.855	12.63
288.07	10.58
288.285	41.3
288.5	67.92
288.715	80.21
288.93	86.36
289.145	112.98
289.36	14.68
289.575	-13.99
289.79	78.16
290.004	2.39
290.219	35.16
290.434	72.02
290.649	-52.91
290.864	-34.47
291.079	2.39
291.294	74.07
291.509	37.2
291.724	41.3
291.938	96.6
292.153	41.3
292.368	-18.09
292.583	100.69
292.798	74.07
293.012	135.51
293.227	80.21
293.442	45.4
293.657	69.97
293.871	35.16
294.086	10.58
294.301	39.25
294.516	14.68
294.73	-9.9
294.945	84.31
295.16	22.87
295.374	49.49
295.589	78.16
295.804	26.96
296.018	39.25
296.233	72.02
296.447	41.3
296.662	18.77
296.877	123.22
297.091	39.25
297.306	131.41
297.52	22.87
297.735	26.96
297.949	65.88
298.164	49.49
298.378	59.73
298.593	16.73
298.807	-3.75
299.022	22.87
299.236	55.64
299.451	-34.47
299.665	10.58
299.88	57.68
300.094	41.3
300.309	43.35
300.523	82.26
300.737	-30.38
300.952	61.78
301.166	90.45
301.381	41.3
301.595	90.45
301.809	35.16
302.024	41.3
302.238	-18.09
302.452	88.4
302.667	41.3
302.881	106.84
303.095	-5.8
303.309	121.17
303.524	47.44
303.738	47.44
303.952	37.2
304.166	51.54
304.381	31.06
304.595	-16.04
304.809	61.78
305.023	41.3
305.237	6.49
305.452	115.03
305.666	37.2
305.88	24.92
306.094	-11.95
306.308	41.3
306.522	82.26
306.736	10.58
306.95	63.83
307.164	41.3
307.379	-3.75
307.593	47.44
307.807	20.82
308.021	76.12
308.235	65.88
308.449	82.26
308.663	26.96
308.877	63.83
309.091	-20.14
309.305	55.64
309.519	-69.29
309.733	94.55
309.947	80.21
310.161	8.53
310.374	31.06
310.588	35.16
310.802	26.96
311.016	78.16
311.23	35.16
311.444	24.92
311.658	55.64
311.872	43.35
312.085	47.44
312.299	72.02
312.513	29.01
312.727	143.7
312.941	14.68
313.154	78.16
313.368	-5.8
313.582	117.08
313.796	51.54
314.009	16.73
314.223	37.2
314.437	76.12
314.651	14.68
314.864	35.16
315.078	43.35
315.292	29.01
315.505	39.25
315.719	82.26
315.933	55.64
316.146	104.79
316.36	63.83
316.573	74.07
316.787	-24.23
317.001	20.82
317.214	63.83
317.428	115.03
317.641	18.77
317.855	61.78
318.068	49.49
318.282	57.68
318.495	106.84
318.709	94.55
318.922	29.01
319.136	104.79
319.349	92.5
319.563	37.2
319.776	55.64
319.99	2.39
320.203	49.49
320.417	41.3
320.63	20.82
320.843	108.88
321.057	43.35
321.27	37.2
321.483	59.73
321.697	125.27
321.91	18.77
322.124	-11.95
322.337	63.83
322.55	57.68
322.763	39.25
322.977	47.44
323.19	37.2
323.403	45.4
323.617	63.83
323.83	12.63
324.043	-5.8
324.256	96.6
324.469	20.82
324.683	53.59
324.896	69.97
325.109	86.36
325.322	6.49
325.535	29.01
325.748	102.74
325.962	39.25
326.175	82.26
326.388	55.64
326.601	100.69
326.814	100.69
327.027	100.69
327.24	69.97
327.453	45.4
327.666	65.88
327.879	20.82
328.092	35.16
328.305	20.82
328.518	43.35
328.731	37.2
328.944	49.49
329.157	94.55
329.37	72.02
329.583	106.84
329.796	24.92
330.009	39.25
330.222	86.36
330.435	117.08
330.648	69.97
330.861	-3.75
331.073	57.68
331.286	16.73
331.499	49.49
331.712	-9.9
331.925	94.55
332.138	76.12
332.35	88.4
332.563	-7.85
332.776	12.63
332.989	39.25
333.202	-5.8
333.414	45.4
333.627	88.4
333.84	59.73
334.053	35.16
334.265	78.16
334.478	33.11
334.691	67.92
334.903	37.2
335.116	-63.15
335.329	123.22
335.541	18.77
335.754	96.6
335.966	18.77
336.179	74.07
336.392	22.87
336.604	0.34
336.817	18.77
337.029	43.35
337.242	78.16
337.454	84.31
337.667	51.54
337.88	67.92
338.092	24.92
338.305	8.53
338.517	-5.8
338.729	86.36
338.942	43.35
339.154	-11.95
339.367	33.11
339.579	100.69
339.792	76.12
340.004	137.56
340.217	72.02
340.429	57.68
340.641	4.44
340.854	72.02
341.066	20.82
341.278	76.12
341.491	55.64
341.703	31.06
341.915	16.73
342.128	90.45
342.34	18.77
342.552	67.92
342.764	37.2
342.977	57.68
343.189	37.2
343.401	100.69
343.613	69.97
343.826	10.58
344.038	43.35
344.25	57.68
344.462	39.25
344.674	31.06
344.886	69.97
345.099	84.31
345.311	104.79
345.523	14.68
345.735	45.4
345.947	41.3
346.159	92.5
346.371	78.16
346.583	0.34
346.795	45.4
347.007	41.3
347.219	12.63
347.431	84.31
347.643	72.02
347.855	-67.24
348.067	49.49
348.279	67.92
348.491	143.7
348.703	41.3
348.915	35.16
349.127	16.73
349.339	55.64
349.551	100.69
349.763	57.68
349.975	45.4
350.187	69.97
350.399	67.92
350.61	29.01
350.822	16.73
351.034	80.21
351.246	84.31
351.458	53.59
351.669	108.88
351.881	90.45
352.093	84.31
352.305	47.44
352.517	4.44
352.728	53.59
352.94	45.4
353.152	69.97
353.363	55.64
353.575	90.45
353.787	69.97
353.999	-5.8
354.21	90.45
354.422	96.6
354.633	45.4
354.845	63.83
355.057	67.92
355.268	-11.95
355.48	117.08
355.692	98.64
355.903	41.3
356.115	74.07
356.326	2.39
356.538	98.64
356.749	110.93
356.961	98.64
357.172	69.97
357.384	-16.04
357.595	110.93
357.807	119.12
358.018	80.21
358.23	133.46
358.441	59.73
358.653	82.26
358.864	18.77
359.075	61.78
359.287	61.78
359.498	57.68
359.709	86.36
359.921	100.69
360.132	20.82
360.344	26.96
360.555	92.5
360.766	135.51
360.977	18.77
361.189	55.64
361.4	166.23
361.611	102.74
361.823	90.45
362.034	65.88
362.245	14.68
362.456	51.54
362.667	35.16
362.879	2.39
363.09	6.49
363.301	51.54
363.512	106.84
363.723	106.84
363.935	65.88
364.146	35.16
364.357	67.92
364.568	43.35
364.779	55.64
364.99	112.98
365.201	67.92
365.412	49.49
365.623	43.35
365.834	76.12
366.045	47.44
366.256	100.69
366.467	31.06
366.678	67.92
366.889	4.44
367.1	55.64
367.311	102.74
367.522	33.11
367.733	84.31
367.944	123.22
368.155	39.25
368.366	22.87
368.577	47.44
368.788	102.74
368.999	55.64
369.209	82.26
369.42	125.27
369.631	110.93
369.842	4.44
370.053	141.65
370.264	76.12
370.474	39.25
370.685	129.36
370.896	26.96
371.107	119.12
371.317	108.88
371.528	18.77
371.739	53.59
371.95	76.12
372.16	45.4
372.371	-40.62
372.582	69.97
372.792	20.82
373.003	67.92
373.214	112.98
373.424	139.6
373.635	2.39
373.846	88.4
374.056	84.31
374.267	20.82
374.477	59.73
374.688	55.64
374.898	123.22
375.109	59.73
375.319	63.83
375.53	94.55
375.74	33.11
375.951	106.84
376.161	123.22
376.372	39.25
376.582	104.79
376.793	69.97
377.003	76.12
377.214	121.17
377.424	131.41
377.635	127.32
377.845	67.92
378.055	115.03
378.266	100.69
378.476	94.55
378.686	26.96
378.897	55.64
379.107	59.73
379.317	82.26
379.528	129.36
379.738	115.03
379.948	74.07
380.158	33.11
380.369	96.6
380.579	129.36
380.789	10.58
380.999	137.56
381.21	63.83
381.42	92.5
381.63	-7.85
381.84	155.99
382.05	112.98
382.261	63.83
382.471	108.88
382.681	-16.04
382.891	86.36
383.101	86.36
383.311	0.34
383.521	127.32
383.731	139.6
383.941	84.31
384.151	90.45
384.361	65.88
384.571	141.65
384.781	39.25
384.991	127.32
385.201	98.64
385.411	69.97
385.621	143.7
385.831	78.16
386.041	49.49
386.251	90.45
386.461	72.02
386.671	67.92
386.881	49.49
387.091	121.17
387.301	133.46
387.511	14.68
387.72	141.65
387.93	39.25
388.14	127.32
388.35	108.88
388.56	112.98
388.769	37.2
388.979	106.84
389.189	123.22
389.399	53.59
389.609	59.73
389.818	96.6
390.028	14.68
390.238	88.4
390.447	47.44
390.657	92.5
390.867	88.4
391.076	57.68
391.286	57.68
391.496	57.68
391.705	43.35
391.915	100.69
392.125	4.44
392.334	49.49
392.544	33.11
392.753	100.69
392.963	160.08
393.172	123.22
393.382	18.77
393.591	160.08
393.801	143.7
394.01	84.31
394.22	127.32
394.429	84.31
394.639	80.21
394.848	106.84
395.058	115.03
395.267	110.93
395.477	123.22
395.686	117.08
395.895	133.46
396.105	119.12
396.314	117.08
396.524	194.9
396.733	84.31
396.942	192.85
397.152	129.36
397.361	178.51
397.57	160.08
397.78	94.55
397.989	80.21
398.198	129.36
398.407	90.45
398.617	102.74
398.826	53.59
399.035	129.36
399.244	188.75
399.453	170.32
399.663	190.8
399.872	176.47
400.081	33.11
400.29	192.85
400.499	180.56
400.708	162.13
400.917	51.54
401.127	213.33
401.336	139.6
401.545	164.18
401.754	211.28
401.963	153.94
402.172	143.7
402.381	98.64
402.59	127.32
402.799	182.61
403.008	106.84
403.217	149.84
403.426	153.94
403.635	135.51
403.844	215.38
404.053	180.56
404.262	196.95
404.471	211.28
404.68	168.27
404.888	117.08
405.097	151.89
405.306	192.85
405.515	213.33
405.724	229.71
405.933	213.33
406.142	137.56
406.35	242
406.559	262.48
406.768	266.58
406.977	256.34
407.185	274.77
407.394	293.2
407.603	252.24
407.812	280.91
408.02	305.49
408.229	223.57
408.438	293.2
408.646	348.5
408.855	375.12
409.064	368.98
409.272	432.46
409.481	360.78
409.69	358.74
409.898	338.26
410.107	409.94
410.315	438.61
410.524	448.85
410.733	452.94
410.941	477.52
411.15	518.48
411.358	498
411.567	577.87
411.775	555.34
411.984	569.68
412.192	534.86
412.401	581.96
412.609	637.26
412.818	694.6
413.026	616.78
413.234	700.75
413.443	758.09
413.651	721.23
413.86	676.17
414.068	784.71
414.276	809.29
414.485	756.04
414.693	889.16
414.901	930.12
415.11	979.27
415.318	915.78
415.526	977.22
415.734	1024.33
415.943	1012.04
416.151	1110.34
416.359	1220.93
416.567	1083.72
416.776	1165.64
416.984	1304.9
417.192	1261.89
417.4	1349.95
417.608	1290.56
417.817	1397.06
418.025	1358.14
418.233	1642.81
418.441	1433.92
418.649	1630.52
418.857	1636.67
419.065	1820.99
419.273	1663.29
419.481	1767.74
419.689	1890.62
419.897	2111.8
420.105	1993.01
420.313	2087.22
420.521	2144.56
420.729	2232.63
420.937	2316.59
421.145	2459.95
421.353	2384.18
421.561	2541.87
421.769	2748.72
421.977	2722.09
422.185	2726.19
422.393	2898.22
422.601	3088.68
422.809	3051.81
423.017	3217.7
423.224	3334.43
423.432	3283.24
423.64	3379.49
423.848	3598.62
424.056	3569.95
424.263	3887.39
424.471	3916.06
424.679	3932.44
424.887	4221.2
425.094	4296.98
425.302	4319.51
425.51	4661.52
425.718	4555.02
425.925	4669.71
426.133	4808.97
426.341	5079.3
426.548	5325.06
426.756	5288.2
426.964	5368.07
427.171	5779.71
427.379	5736.7
427.586	5816.57
427.794	6166.78
428.001	6447.35
428.209	6594.8
428.417	6676.72
428.624	6955.24
428.832	7131.37
429.039	7147.75
429.247	7043.31
429.454	7848.16
429.662	8120.54
429.869	7735.52
430.076	8165.59
430.284	8048.86
430.491	8370.39
430.699	8763.6
430.906	8921.29
431.114	8947.92
431.321	9478.34
431.528	9513.16
431.736	10100.92
431.943	10592.44
432.15	10318.01
432.358	10436.79
432.565	10879.15
432.772	10860.72
432.979	11622.56
433.187	11653.28
433.394	11493.54
433.601	12560.53
433.808	12478.61
434.016	12437.66
434.223	12988.56
434.43	13805.7
434.637	13635.72
434.844	14305.4
435.052	14596.21
435.259	14712.95
435.466	14667.89
435.673	14637.17
435.88	15439.98
436.087	16246.88
436.294	16433.24
436.501	16072.8
436.708	16304.22
436.915	16726.1
437.122	17559.63
437.329	17700.94
437.537	18180.16
437.743	18561.08
437.95	18391.1
438.157	19449.9
438.364	19830.82
438.571	19808.3
438.778	19990.56
438.985	21735.43
439.192	20961.3
439.399	21624.84
439.606	21313.55
439.813	22468.61
440.02	23648.24
440.227	23193.59
440.433	23103.48
440.64	24029.16
440.847	24043.49
441.054	24446.94
441.261	25991.11
441.467	25583.57
441.674	26103.75
441.881	27002.81
442.088	27303.86
442.294	26748.86
442.501	27350.96
442.708	28026.79
442.914	29061.02
443.121	30388.1
443.328	29654.93
443.534	31702.9
443.741	31084.41
443.948	30384.01
444.154	32468.84
444.361	32319.34
444.568	32968.54
444.774	32747.36
444.981	32919.39
445.187	33843.02
445.394	35092.29
445.6	34897.73
445.807	38422.28
446.013	36286.25
446.22	37283.61
446.426	38809.35
446.633	38909.7
446.839	40453.87
447.046	38506.25
447.252	40586.99
447.459	40894.18
447.665	40578.79
447.871	42749.64
448.078	44072.63
448.284	41903.83
448.491	43323.07
448.697	45092.52
448.903	45475.49
449.11	45600.41
449.316	44934.82
449.522	45897.37
449.728	46904.97
449.935	47267.46
450.141	47359.62
450.347	48412.27
450.553	46872.2
450.76	47537.79
450.966	48701.04
451.172	48195.19
451.378	49571.42
451.584	48213.62
451.791	49501.79
451.997	49528.42
452.203	50273.88
452.409	50265.69
452.615	49913.44
452.821	48201.33
453.027	47312.52
453.233	50017.88
453.44	47976.06
453.646	48397.94
453.852	48508.53
454.058	49409.64
454.264	47447.68
454.47	48733.81
454.676	47789.69
454.882	49217.13
455.088	45354.66
455.294	45131.43
455.5	45637.28
455.705	46044.82
455.911	44639.92
456.117	43855.54
456.323	43058.88
456.529	41045.73
456.735	42921.67
456.941	42116.82
457.147	40607.47
457.352	39390.97
457.558	39055.11
457.764	39300.86
457.97	38323.98
458.176	37662.49
458.381	37322.52
458.587	35884.85
458.793	35798.84
458.999	33812.31
459.204	36190
459.41	35077.95
459.616	33228.63
459.821	33324.89
460.027	32907.1
460.233	32221.03
460.438	30603.14
460.644	30615.43
460.85	29151.13
461.055	29069.21
461.261	28757.92
461.466	26810.3
461.672	26075.08
461.878	28082.09
462.083	26169.29
462.289	25432.02
462.494	25264.08
462.7	24072.17
462.905	23537.65
463.111	24385.51
463.316	24397.79
463.522	23615.47
463.727	24020.97
463.932	24086.5
464.138	23662.57
464.343	23681
464.549	22849.53
464.754	23908.33
464.959	23586.8
465.165	23281.65
465.37	22288.39
465.575	21854.22
465.781	22857.72
465.986	22714.36
466.191	21997.57
466.397	21430.29
466.602	20623.39
466.807	21135.38
467.012	21463.05
467.218	21133.33
467.423	21084.18
467.628	21391.37
