Data from USB4F104151__6__12-00-20-474.txt Node

Date: Fri Mar 14 12:00:20 EDT 2025
User: louis
Spectrometer: USB4F10415
Trigger mode: 4
Integration Time (sec): 2.000000E-2
Scans to average: 1
Electric dark correction enabled: true
Nonlinearity correction enabled: false
Boxcar width: 0
XAxis mode: Wavelengths
Number of Pixels in Spectrum: 3648
>>>>>Begin Spectral Data<<<<<
178.204	-55.3
178.424	-55.3
178.644	-55.3
178.864	-63.49
179.084	-90.11
179.304	-12.29
179.524	47.1
179.744	57.34
179.964	-6.14
180.184	-45.06
180.404	69.63
180.624	-24.58
180.844	-14.34
181.064	10.24
181.283	-34.82
181.503	-26.62
181.723	-20.48
181.943	-36.86
182.163	75.77
182.383	4.1
182.602	-24.58
182.822	61.44
183.042	28.67
183.262	20.48
183.482	30.72
183.701	-61.44
183.921	38.91
184.141	-4.1
184.361	18.43
184.58	6.14
184.8	-38.91
185.02	-12.29
185.239	49.15
185.459	10.24
185.679	63.49
185.898	-86.01
186.118	57.34
186.338	-12.29
186.557	-14.34
186.777	47.1
186.997	30.72
187.216	61.44
187.436	40.96
187.655	20.48
187.875	-10.24
188.095	61.44
188.314	81.92
188.534	51.2
188.753	-51.2
188.973	57.34
189.192	40.96
189.412	26.62
189.631	65.53
189.851	-45.06
190.07	26.62
190.29	-55.3
190.509	6.14
190.729	-14.34
190.948	34.82
191.168	63.49
191.387	12.29
191.607	-6.14
191.826	-30.72
192.045	-16.38
192.265	49.15
192.484	-10.24
192.704	59.39
192.923	-8.19
193.142	36.86
193.362	12.29
193.581	2.05
193.8	-6.14
194.02	100.35
194.239	24.58
194.458	-47.1
194.678	20.48
194.897	4.1
195.116	-38.91
195.335	-24.58
195.555	-94.21
195.774	32.77
195.993	51.2
196.212	10.24
196.432	-53.25
196.651	104.45
196.87	0
197.089	67.58
197.308	16.38
197.528	49.15
197.747	26.62
197.966	61.44
198.185	81.92
198.404	-14.34
198.623	-32.77
198.842	49.15
199.062	55.3
199.281	51.2
199.5	0
199.719	22.53
199.938	-10.24
200.157	49.15
200.376	-96.25
200.595	24.58
200.814	14.34
201.033	26.62
201.252	40.96
201.471	47.1
201.69	106.49
201.909	51.2
202.128	16.38
202.347	2.05
202.566	34.82
202.785	14.34
203.004	-2.05
203.223	47.1
203.442	10.24
203.661	71.68
203.879	-12.29
204.098	30.72
204.317	-34.82
204.536	10.24
204.755	-6.14
204.974	-16.38
205.193	32.77
205.411	22.53
205.63	4.1
205.849	38.91
206.068	83.97
206.287	86.01
206.505	-14.34
206.724	61.44
206.943	-14.34
207.162	-22.53
207.381	-14.34
207.599	-14.34
207.818	-16.38
208.037	-81.92
208.255	2.05
208.474	-49.15
208.693	61.44
208.911	8.19
209.13	4.1
209.349	100.35
209.567	-71.68
209.786	77.82
210.005	32.77
210.223	40.96
210.442	4.1
210.661	81.92
210.879	4.1
211.098	79.87
211.316	22.53
211.535	26.62
211.753	-14.34
211.972	-63.49
212.191	-12.29
212.409	4.1
212.628	43.01
212.846	6.14
213.065	-6.14
213.283	6.14
213.502	20.48
213.72	-8.19
213.938	-12.29
214.157	-10.24
214.375	-18.43
214.594	-10.24
214.812	-16.38
215.031	-22.53
215.249	-55.3
215.467	59.39
215.686	14.34
215.904	53.25
216.122	-2.05
216.341	14.34
216.559	14.34
216.778	83.97
216.996	79.87
217.214	102.4
217.432	-36.86
217.651	14.34
217.869	-18.43
218.087	61.44
218.306	22.53
218.524	-30.72
218.742	-26.62
218.96	96.25
219.179	-14.34
219.397	40.96
219.615	-18.43
219.833	-73.73
220.051	-34.82
220.27	-32.77
220.488	38.91
220.706	49.15
220.924	36.86
221.142	0
221.36	16.38
221.578	-14.34
221.796	-34.82
222.015	14.34
222.233	-16.38
222.451	16.38
222.669	-38.91
222.887	-12.29
223.105	4.1
223.323	6.14
223.541	-26.62
223.759	32.77
223.977	49.15
224.195	28.67
224.413	36.86
224.631	32.77
224.849	86.01
225.067	38.91
225.285	-6.14
225.503	8.19
225.721	20.48
225.939	20.48
226.157	0
226.375	38.91
226.592	-16.38
226.81	-16.38
227.028	86.01
227.246	40.96
227.464	28.67
227.682	75.77
227.9	-6.14
228.117	34.82
228.335	26.62
228.553	-18.43
228.771	-18.43
228.989	75.77
229.206	49.15
229.424	-32.77
229.642	4.1
229.86	43.01
230.077	12.29
230.295	28.67
230.513	45.06
230.731	-4.1
230.948	-14.34
231.166	83.97
231.384	12.29
231.601	-10.24
231.819	-40.96
232.037	28.67
232.254	-38.91
232.472	22.53
232.689	28.67
232.907	102.4
233.125	36.86
233.342	6.14
233.56	4.1
233.777	32.77
233.995	22.53
234.213	53.25
234.43	40.96
234.648	-22.53
234.865	20.48
235.083	-77.82
235.3	8.19
235.518	-8.19
235.735	20.48
235.953	53.25
236.17	10.24
236.388	69.63
236.605	-73.73
236.822	-45.06
237.04	6.14
237.257	49.15
237.475	-20.48
237.692	57.34
237.909	-34.82
238.127	22.53
238.344	-18.43
238.562	10.24
238.779	-43.01
238.996	-30.72
239.214	36.86
239.431	-26.62
239.648	2.05
239.865	57.34
240.083	45.06
240.3	-45.06
240.517	63.49
240.735	98.3
240.952	55.3
241.169	90.11
241.386	-14.34
241.603	-22.53
241.821	36.86
242.038	20.48
242.255	-2.05
242.472	32.77
242.689	34.82
242.907	57.34
243.124	28.67
243.341	6.14
243.558	-40.96
243.775	20.48
243.992	-53.25
244.209	88.06
244.426	61.44
244.643	6.14
244.86	-32.77
245.078	75.77
245.295	98.3
245.512	43.01
245.729	-10.24
245.946	34.82
246.163	65.53
246.38	0
246.597	-36.86
246.814	92.16
247.031	59.39
247.248	-8.19
247.464	18.43
247.681	6.14
247.898	28.67
248.115	47.1
248.332	26.62
248.549	69.63
248.766	12.29
248.983	16.38
249.2	65.53
249.417	16.38
249.633	36.86
249.85	-20.48
250.067	-10.24
250.284	16.38
250.501	34.82
250.717	16.38
250.934	-8.19
251.151	-34.82
251.368	16.38
251.585	-12.29
251.801	51.2
252.018	26.62
252.235	10.24
252.451	2.05
252.668	51.2
252.885	61.44
253.102	-4.1
253.318	-4.1
253.535	-38.91
253.752	-51.2
253.968	59.39
254.185	22.53
254.401	90.11
254.618	77.82
254.835	-20.48
255.051	86.01
255.268	73.73
255.484	0
255.701	0
255.917	104.45
256.134	53.25
256.351	22.53
256.567	-20.48
256.784	26.62
257	45.06
257.217	55.3
257.433	20.48
257.65	75.77
257.866	53.25
258.082	-8.19
258.299	-28.67
258.515	43.01
258.732	47.1
258.948	-40.96
259.165	-26.62
259.381	51.2
259.597	51.2
259.814	49.15
260.03	2.05
260.246	40.96
260.463	18.43
260.679	83.97
260.895	49.15
261.112	32.77
261.328	2.05
261.544	86.01
261.761	32.77
261.977	-24.58
262.193	-36.86
262.409	16.38
262.626	10.24
262.842	-8.19
263.058	-22.53
263.274	22.53
263.49	57.34
263.707	-32.77
263.923	24.58
264.139	8.19
264.355	-34.82
264.571	28.67
264.787	6.14
265.004	61.44
265.22	4.1
265.436	-22.53
265.652	20.48
265.868	40.96
266.084	18.43
266.3	71.68
266.516	59.39
266.732	32.77
266.948	49.15
267.164	-32.77
267.38	45.06
267.596	36.86
267.812	36.86
268.028	-26.62
268.244	4.1
268.46	-47.1
268.676	28.67
268.892	2.05
269.108	65.53
269.324	6.14
269.54	-20.48
269.756	4.1
269.972	24.58
270.188	-47.1
270.403	24.58
270.619	75.77
270.835	-59.39
271.051	45.06
271.267	40.96
271.483	-22.53
271.698	16.38
271.914	16.38
272.13	24.58
272.346	0
272.562	-92.16
272.777	47.1
272.993	-8.19
273.209	28.67
273.425	-10.24
273.64	36.86
273.856	-30.72
274.072	6.14
274.287	26.62
274.503	4.1
274.719	-8.19
274.934	-10.24
275.15	4.1
275.366	0
275.581	20.48
275.797	18.43
276.012	30.72
276.228	38.91
276.444	16.38
276.659	53.25
276.875	-45.06
277.09	40.96
277.306	-16.38
277.521	61.44
277.737	10.24
277.952	-38.91
278.168	53.25
278.383	10.24
278.599	-45.06
278.814	69.63
279.03	12.29
279.245	14.34
279.461	-2.05
279.676	-4.1
279.892	-34.82
280.107	71.68
280.322	18.43
280.538	-40.96
280.753	53.25
280.969	43.01
281.184	-8.19
281.399	36.86
281.615	38.91
281.83	55.3
282.045	-20.48
282.26	-14.34
282.476	-12.29
282.691	55.3
282.906	2.05
283.122	28.67
283.337	4.1
283.552	-16.38
283.767	59.39
283.983	57.34
284.198	6.14
284.413	55.3
284.628	-14.34
284.843	18.43
285.058	51.2
285.274	57.34
285.489	36.86
285.704	43.01
285.919	16.38
286.134	8.19
286.349	2.05
286.564	-14.34
286.779	8.19
286.995	-36.86
287.21	-36.86
287.425	-4.1
287.64	38.91
287.855	-8.19
288.07	-20.48
288.285	2.05
288.5	30.72
288.715	53.25
288.93	16.38
289.145	-26.62
289.36	28.67
289.575	67.58
289.79	20.48
290.004	20.48
290.219	8.19
290.434	73.73
290.649	-6.14
290.864	18.43
291.079	0
291.294	59.39
291.509	8.19
291.724	28.67
291.938	59.39
292.153	14.34
292.368	26.62
292.583	12.29
292.798	16.38
293.012	32.77
293.227	-10.24
293.442	30.72
293.657	61.44
293.871	16.38
294.086	-51.2
294.301	34.82
294.516	12.29
294.73	77.82
294.945	-6.14
295.16	8.19
295.374	26.62
295.589	4.1
295.804	12.29
296.018	0
296.233	36.86
296.447	40.96
296.662	-20.48
296.877	-2.05
297.091	-49.15
297.306	-12.29
297.52	18.43
297.735	26.62
297.949	81.92
298.164	38.91
298.378	-24.58
298.593	30.72
298.807	-10.24
299.022	-36.86
299.236	-12.29
299.451	90.11
299.665	26.62
299.88	14.34
300.094	61.44
300.309	75.77
300.523	4.1
300.737	-22.53
300.952	14.34
301.166	73.73
301.381	-47.1
301.595	0
301.809	43.01
302.024	-10.24
302.238	-12.29
302.452	-8.19
302.667	-38.91
302.881	0
303.095	24.58
303.309	-8.19
303.524	-43.01
303.738	49.15
303.952	40.96
304.166	-2.05
304.381	-40.96
304.595	69.63
304.809	51.2
305.023	-8.19
305.237	-10.24
305.452	-32.77
305.666	20.48
305.88	34.82
306.094	-24.58
306.308	20.48
306.522	12.29
306.736	16.38
306.95	32.77
307.164	30.72
307.379	24.58
307.593	86.01
307.807	75.77
308.021	65.53
308.235	-26.62
308.449	0
308.663	-36.86
308.877	-32.77
309.091	14.34
309.305	14.34
309.519	-63.49
309.733	88.06
309.947	18.43
310.161	26.62
310.374	45.06
310.588	-18.43
310.802	0
311.016	10.24
311.23	88.06
311.444	-26.62
311.658	0
311.872	22.53
312.085	86.01
312.299	28.67
312.513	-16.38
312.727	32.77
312.941	14.34
313.154	59.39
313.368	57.34
313.582	57.34
313.796	36.86
314.009	4.1
314.223	67.58
314.437	36.86
314.651	34.82
314.864	6.14
315.078	47.1
315.292	-43.01
315.505	36.86
315.719	4.1
315.933	-30.72
316.146	106.49
316.36	-49.15
316.573	10.24
316.787	4.1
317.001	22.53
317.214	-65.54
317.428	28.67
317.641	14.34
317.855	34.82
318.068	-4.1
318.282	59.39
318.495	26.62
318.709	47.1
318.922	-36.86
319.136	-10.24
319.349	43.01
319.563	63.49
319.776	38.91
319.99	10.24
320.203	-8.19
320.417	73.73
320.63	-2.05
320.843	81.92
321.057	-8.19
321.27	-28.67
321.483	24.58
321.697	16.38
321.91	-49.15
322.124	120.83
322.337	47.1
322.55	43.01
322.763	-18.43
322.977	12.29
323.19	-32.77
323.403	-38.91
323.617	67.58
323.83	67.58
324.043	-59.39
324.256	32.77
324.469	16.38
324.683	110.59
324.896	-14.34
325.109	34.82
325.322	-63.49
325.535	32.77
325.748	63.49
325.962	53.25
326.175	-53.25
326.388	51.2
326.601	34.82
326.814	75.77
327.027	112.64
327.24	12.29
327.453	-30.72
327.666	43.01
327.879	38.91
328.092	16.38
328.305	20.48
328.518	-2.05
328.731	40.96
328.944	10.24
329.157	28.67
329.37	32.77
329.583	6.14
329.796	-2.05
330.009	45.06
330.222	79.87
330.435	-20.48
330.648	-30.72
330.861	16.38
331.073	30.72
331.286	92.16
331.499	26.62
331.712	14.34
331.925	16.38
332.138	69.63
332.35	49.15
332.563	51.2
332.776	49.15
332.989	4.1
333.202	22.53
333.414	-16.38
333.627	34.82
333.84	26.62
334.053	43.01
334.265	-75.77
334.478	38.91
334.691	-8.19
334.903	-8.19
335.116	-22.53
335.329	104.45
335.541	45.06
335.754	61.44
335.966	24.58
336.179	22.53
336.392	0
336.604	10.24
336.817	83.97
337.029	-30.72
337.242	-18.43
337.454	24.58
337.667	18.43
337.88	49.15
338.092	-10.24
338.305	40.96
338.517	43.01
338.729	-4.1
338.942	-45.06
339.154	-10.24
339.367	18.43
339.579	133.12
339.792	14.34
340.004	4.1
340.217	16.38
340.429	100.35
340.641	-73.73
340.854	49.15
341.066	32.77
341.278	38.91
341.491	92.16
341.703	43.01
341.915	-10.24
342.128	26.62
342.34	8.19
342.552	-18.43
342.764	-8.19
342.977	92.16
343.189	26.62
343.401	65.53
343.613	65.53
343.826	-30.72
344.038	-36.86
344.25	92.16
344.462	-38.91
344.674	-26.62
344.886	-67.58
345.099	-10.24
345.311	65.53
345.523	0
345.735	26.62
345.947	20.48
346.159	77.82
346.371	47.1
346.583	-20.48
346.795	-16.38
347.007	43.01
347.219	2.05
347.431	81.92
347.643	16.38
347.855	55.3
348.067	43.01
348.279	24.58
348.491	34.82
348.703	-32.77
348.915	34.82
349.127	24.58
349.339	38.91
349.551	20.48
349.763	-22.53
349.975	-4.1
350.187	61.44
350.399	8.19
350.61	47.1
350.822	8.19
351.034	-2.05
351.246	38.91
351.458	-28.67
351.669	-38.91
351.881	43.01
352.093	45.06
352.305	81.92
352.517	22.53
352.728	34.82
352.94	-47.1
353.152	16.38
353.363	69.63
353.575	71.68
353.787	59.39
353.999	30.72
354.21	65.53
354.422	75.77
354.633	86.01
354.845	45.06
355.057	-34.82
355.268	61.44
355.48	28.67
355.692	77.82
355.903	55.3
356.115	22.53
356.326	-34.82
356.538	63.49
356.749	30.72
356.961	98.3
357.172	67.58
357.384	73.73
357.595	38.91
357.807	61.44
358.018	77.82
358.23	10.24
358.441	2.05
358.653	26.62
358.864	26.62
359.075	47.1
359.287	-14.34
359.498	57.34
359.709	45.06
359.921	-6.14
360.132	-2.05
360.344	-28.67
360.555	2.05
360.766	40.96
360.977	18.43
361.189	-6.14
361.4	24.58
361.611	88.06
361.823	47.1
362.034	40.96
362.245	-16.38
362.456	-10.24
362.667	28.67
362.879	24.58
363.09	49.15
363.301	43.01
363.512	30.72
363.723	-49.15
363.935	-16.38
364.146	53.25
364.357	2.05
364.568	26.62
364.779	-4.1
364.99	16.38
365.201	28.67
365.412	4.1
365.623	57.34
365.834	88.06
366.045	-12.29
366.256	32.77
366.467	10.24
366.678	26.62
366.889	12.29
367.1	-40.96
367.311	47.1
367.522	10.24
367.733	-18.43
367.944	112.64
368.155	12.29
368.366	63.49
368.577	12.29
368.788	47.1
368.999	10.24
369.209	49.15
369.42	141.31
369.631	102.4
369.842	8.19
370.053	30.72
370.264	79.87
370.474	45.06
370.685	-14.34
370.896	8.19
371.107	43.01
371.317	10.24
371.528	-38.91
371.739	6.14
371.95	59.39
372.16	57.34
372.371	36.86
372.582	30.72
372.792	24.58
373.003	30.72
373.214	-18.43
373.424	18.43
373.635	59.39
373.846	67.58
374.056	81.92
374.267	28.67
374.477	-18.43
374.688	-30.72
374.898	24.58
375.109	22.53
375.319	36.86
375.53	-2.05
375.74	53.25
375.951	38.91
376.161	12.29
376.372	57.34
376.582	-8.19
376.793	20.48
377.003	20.48
377.214	24.58
377.424	22.53
377.635	34.82
377.845	-28.67
378.055	20.48
378.266	36.86
378.476	-22.53
378.686	18.43
378.897	22.53
379.107	88.06
379.317	47.1
379.528	14.34
379.738	55.3
379.948	8.19
380.158	0
380.369	47.1
380.579	28.67
380.789	-20.48
380.999	43.01
381.21	43.01
381.42	63.49
381.63	90.11
381.84	12.29
382.05	53.25
382.261	43.01
382.471	24.58
382.681	20.48
382.891	4.1
383.101	86.01
383.311	55.3
383.521	100.35
383.731	45.06
383.941	106.49
384.151	45.06
384.361	0
384.571	53.25
384.781	32.77
384.991	40.96
385.201	40.96
385.411	14.34
385.621	65.53
385.831	75.77
386.041	40.96
386.251	71.68
386.461	28.67
386.671	73.73
386.881	30.72
387.091	-20.48
387.301	36.86
387.511	34.82
387.72	-4.1
387.93	36.86
388.14	28.67
388.35	71.68
388.56	14.34
388.769	2.05
388.979	14.34
389.189	-57.34
389.399	118.78
389.609	-43.01
389.818	49.15
390.028	77.82
390.238	83.97
390.447	-18.43
390.657	108.54
390.867	18.43
391.076	47.1
391.286	24.58
391.496	73.73
391.705	38.91
391.915	57.34
392.125	88.06
392.334	83.97
392.544	45.06
392.753	-26.62
392.963	26.62
393.172	124.93
393.382	120.83
393.591	124.93
393.801	51.2
394.01	112.64
394.22	45.06
394.429	10.24
394.639	24.58
394.848	73.73
395.058	104.45
395.267	40.96
395.477	110.59
395.686	45.06
395.895	104.45
396.105	137.21
396.314	14.34
396.524	104.45
396.733	24.58
396.942	180.22
397.152	59.39
397.361	149.5
397.57	151.55
397.78	106.49
397.989	73.73
398.198	108.54
398.407	96.25
398.617	49.15
398.826	47.1
399.035	30.72
399.244	100.35
399.453	38.91
399.663	57.34
399.872	157.69
400.081	2.05
400.29	65.53
400.499	77.82
400.708	83.97
400.917	88.06
401.127	65.53
401.336	120.83
401.545	131.07
401.754	108.54
401.963	63.49
402.172	81.92
402.381	112.64
402.59	43.01
402.799	28.67
403.008	112.64
403.217	57.34
403.426	108.54
403.635	120.83
403.844	135.17
404.053	104.45
404.262	159.74
404.471	131.07
404.68	73.73
404.888	157.69
405.097	155.65
405.306	114.69
405.515	90.11
405.724	112.64
405.933	86.01
406.142	149.5
406.35	157.69
406.559	98.3
406.768	180.22
406.977	139.26
407.185	57.34
407.394	147.45
407.603	118.78
407.812	169.98
408.02	131.07
408.229	153.6
408.438	131.07
408.646	204.8
408.855	163.84
409.064	249.85
409.272	229.37
409.481	233.47
409.69	225.28
409.898	235.52
410.107	264.19
410.315	268.28
410.524	247.8
410.733	262.14
410.941	223.23
411.15	245.76
411.358	245.76
411.567	333.82
411.775	436.22
411.984	309.24
412.192	294.91
412.401	380.92
412.609	434.17
412.818	428.03
413.026	456.7
413.234	462.84
413.443	428.03
413.651	456.7
413.86	391.16
414.068	524.28
414.276	444.41
414.485	524.28
414.693	511.99
414.901	487.42
415.11	561.14
415.318	598.01
415.526	587.77
415.734	657.4
415.943	690.17
416.151	657.4
416.359	661.49
416.567	698.36
416.776	671.73
416.984	716.79
417.192	882.67
417.4	800.76
417.608	886.77
417.817	950.26
418.025	753.65
418.233	899.06
418.441	923.63
418.649	946.16
418.857	1132.53
419.065	1089.52
419.273	1003.5
419.481	1095.66
419.689	1222.64
419.897	1310.7
420.105	1290.22
420.313	1333.23
420.521	1392.62
420.729	1382.38
420.937	1292.27
421.145	1497.07
421.353	1521.64
421.561	1546.22
421.769	1630.18
421.977	1755.11
422.185	1712.1
422.393	1884.13
422.601	1920.99
422.809	1880.04
423.017	1908.71
423.224	2064.35
423.432	2103.26
423.64	2179.04
423.848	2293.72
424.056	2324.44
424.263	2394.08
424.471	2346.97
424.679	2320.35
424.887	2648.02
425.094	2691.03
425.302	2611.16
425.51	2803.67
425.718	2770.9
425.925	2887.64
426.133	2985.94
426.341	3164.11
426.548	3303.37
426.756	3264.46
426.964	3352.52
427.171	3485.64
427.379	3686.34
427.586	3645.38
427.794	3866.56
428.001	3966.92
428.209	4270.01
428.417	4024.26
428.624	4507.58
428.832	4337.6
429.039	4417.47
429.247	4403.13
429.454	4646.84
429.662	4911.03
429.869	4743.1
430.076	5128.11
430.284	4962.23
430.491	5203.89
430.699	5463.98
430.906	5435.31
431.114	5574.57
431.321	5734.31
431.528	5822.38
431.736	6107.04
431.943	6612.89
432.15	6410.14
432.358	6350.75
432.565	6838.17
432.772	6684.57
432.979	7131.03
433.187	7145.36
433.394	7301.01
433.601	7780.23
433.808	7831.43
434.016	7708.55
434.223	7968.65
434.43	8497.02
434.637	8335.23
434.844	9009.01
435.052	9054.07
435.259	9064.31
435.466	9203.57
435.673	8982.39
435.88	9682.8
436.087	10358.63
436.294	10125.16
436.501	9944.94
436.708	9910.12
436.915	10565.47
437.122	11016.02
437.329	11054.94
437.537	11288.4
437.743	11501.39
437.95	11388.75
438.157	11853.64
438.364	12287.81
438.571	12203.85
438.778	12433.22
438.985	13578.03
439.192	12941.11
439.399	13369.14
439.606	13217.59
439.813	13862.7
440.02	14610.21
440.227	14313.25
440.433	14444.32
440.64	14704.42
440.847	14589.73
441.054	14952.22
441.261	16193.29
441.467	15912.72
441.674	16457.48
441.881	16961.28
442.088	17006.33
442.294	16561.92
442.501	17194.75
442.708	17450.74
442.914	18228.97
443.121	18568.93
443.328	18398.95
443.534	19564.25
443.741	19406.55
443.948	18861.79
444.154	20305.61
444.361	20399.82
444.568	20465.35
444.774	20178.64
444.981	20584.13
445.187	21067.45
445.394	22089.39
445.6	21679.8
445.807	23910.04
446.013	22699.69
446.22	23152.29
446.426	24147.6
446.633	24405.64
446.839	25499.26
447.046	24270.48
447.252	25699.96
447.459	25704.06
447.665	25716.34
447.871	26627.69
448.078	27588.19
448.284	26556.01
448.491	26822.25
448.697	28075.6
448.903	28593.74
449.11	28896.84
449.316	28169.81
449.522	28737.1
449.728	29761.08
449.935	29410.88
450.141	29773.37
450.347	30137.91
450.553	29331.01
450.76	29558.33
450.966	30504.49
451.172	30207.54
451.378	30897.7
451.584	30131.76
451.791	30950.95
451.997	30635.56
452.203	31442.46
452.409	31544.86
452.615	31346.21
452.821	30404.14
453.027	29820.47
453.233	31454.75
453.44	29908.54
453.646	30283.31
453.852	30539.31
454.058	31092.26
454.264	29965.88
454.47	30654
454.676	29767.23
454.882	30936.62
455.088	28001.88
455.294	28489.29
455.5	28786.25
455.705	29218.37
455.911	28026.45
456.117	27471.45
456.323	26682.98
456.529	25482.88
456.735	26922.6
456.941	25888.37
457.147	25652.86
457.352	24755.85
457.558	24362.64
457.764	24417.93
457.97	23793.3
458.176	23170.72
458.381	23332.51
458.587	22347.44
458.793	22419.11
458.999	21137.09
459.204	22550.18
459.41	21999.28
459.616	20524.74
459.821	20635.33
460.027	20178.64
460.233	19936.98
460.438	18943.71
460.644	19392.22
460.85	18147.05
461.055	17837.81
461.261	18018.03
461.466	16652.03
461.672	16342.79
461.878	17223.42
462.083	16439.05
462.289	15849.23
462.494	15695.63
462.7	14991.13
462.905	14421.8
463.111	14913.31
463.316	14999.32
463.522	14655.26
463.727	14810.91
463.932	14866.21
464.138	14628.64
464.343	14577.44
464.549	14450.47
464.754	14880.54
464.959	14708.51
465.165	14612.26
465.37	14008.11
465.575	13506.35
465.781	14059.31
465.986	14212.9
466.191	13612.85
466.397	13299.51
466.602	12795.71
466.807	13182.77
467.012	13338.42
467.218	13244.21
467.423	12928.83
467.628	12844.86
467.833	13518.64
468.038	13080.38
