Data from USB4F104151__61__12-01-50-488.txt Node

Date: Fri Mar 14 12:01:50 EDT 2025
User: louis
Spectrometer: USB4F10415
Trigger mode: 4
Integration Time (sec): 2.000000E-2
Scans to average: 1
Electric dark correction enabled: true
Nonlinearity correction enabled: false
Boxcar width: 0
XAxis mode: Wavelengths
Number of Pixels in Spectrum: 3648
>>>>>Begin Spectral Data<<<<<
178.204	-79.7
178.424	-79.7
178.644	-79.7
178.864	-46.93
179.084	-46.93
179.304	10.41
179.524	-34.64
179.744	-38.74
179.964	14.51
180.184	-10.07
180.404	-14.17
180.624	-1.88
180.844	10.41
181.064	-34.64
181.283	-16.21
181.503	37.03
181.723	77.99
181.943	-30.55
182.163	94.38
182.383	-3.93
182.602	37.03
182.822	47.27
183.042	-10.07
183.262	51.37
183.482	41.13
183.701	77.99
183.921	-38.74
184.141	71.85
184.361	92.33
184.58	16.55
184.8	28.84
185.02	45.23
185.239	41.13
185.459	-8.02
185.679	41.13
185.898	53.42
186.118	-1.88
186.338	51.37
186.557	63.66
186.777	-5.97
186.997	10.41
187.216	26.79
187.436	131.24
187.655	24.75
187.875	69.8
188.095	18.6
188.314	96.43
188.534	129.19
188.753	-69.46
188.973	88.23
189.192	39.08
189.412	32.94
189.631	16.55
189.851	14.51
190.07	108.71
190.29	-18.26
190.509	26.79
190.729	92.33
190.948	147.62
191.168	145.58
191.387	127.14
191.607	53.42
191.826	0.17
192.045	73.9
192.265	22.7
192.484	12.46
192.704	80.04
192.923	6.31
193.142	118.95
193.362	-63.32
193.581	39.08
193.8	80.04
194.02	32.94
194.239	90.28
194.458	125.1
194.678	18.6
194.897	71.85
195.116	24.75
195.335	37.03
195.555	10.41
195.774	32.94
195.993	71.85
196.212	18.6
196.432	53.42
196.651	55.47
196.87	69.8
197.089	82.09
197.308	22.7
197.528	16.55
197.747	51.37
197.966	37.03
198.185	49.32
198.404	20.65
198.623	20.65
198.842	67.75
199.062	16.55
199.281	69.8
199.5	92.33
199.719	41.13
199.938	90.28
200.157	77.99
200.376	41.13
200.595	65.71
200.814	22.7
201.033	16.55
201.252	26.79
201.471	-36.69
201.69	-16.21
201.909	84.14
202.128	51.37
202.347	16.55
202.566	-28.5
202.785	43.18
203.004	-1.88
203.223	67.75
203.442	47.27
203.661	92.33
203.879	34.99
204.098	92.33
204.317	57.51
204.536	37.03
204.755	18.6
204.974	39.08
205.193	14.51
205.411	129.19
205.63	51.37
205.849	84.14
206.068	30.89
206.287	22.7
206.505	14.51
206.724	-46.93
206.943	2.22
207.162	45.23
207.381	45.23
207.599	-12.12
207.818	14.51
208.037	-22.36
208.255	77.99
208.474	108.71
208.693	12.46
208.911	82.09
209.13	-24.4
209.349	65.71
209.567	67.75
209.786	112.81
210.005	96.43
210.223	92.33
210.442	-51.03
210.661	47.27
210.879	28.84
211.098	39.08
211.316	63.66
211.535	125.1
211.753	2.22
211.972	30.89
212.191	14.51
212.409	53.42
212.628	71.85
212.846	0.17
213.065	28.84
213.283	84.14
213.502	96.43
213.72	18.6
213.938	37.03
214.157	34.99
214.375	88.23
214.594	16.55
214.812	37.03
215.031	49.32
215.249	61.61
215.467	47.27
215.686	-34.64
215.904	49.32
216.122	53.42
216.341	92.33
216.559	20.65
216.778	59.56
216.996	28.84
217.214	75.95
217.432	47.27
217.651	30.89
217.869	84.14
218.087	104.62
218.306	37.03
218.524	41.13
218.742	6.31
218.96	102.57
219.179	30.89
219.397	-5.97
219.615	116.9
219.833	114.86
220.051	39.08
220.27	143.53
220.488	51.37
220.706	53.42
220.924	47.27
221.142	2.22
221.36	32.94
221.578	22.7
221.796	14.51
222.015	51.37
222.233	6.31
222.451	112.81
222.669	-5.97
222.887	135.34
223.105	-34.64
223.323	8.36
223.541	12.46
223.759	90.28
223.977	55.47
224.195	49.32
224.413	129.19
224.631	88.23
224.849	84.14
225.067	71.85
225.285	-32.6
225.503	80.04
225.721	-26.45
225.939	22.7
226.157	20.65
226.375	125.1
226.592	4.27
226.81	43.18
227.028	57.51
227.246	12.46
227.464	-42.84
227.682	123.05
227.9	112.81
228.117	41.13
228.335	43.18
228.553	45.23
228.771	63.66
228.989	10.41
229.206	28.84
229.424	-53.08
229.642	22.7
229.86	22.7
230.077	61.61
230.295	-1.88
230.513	77.99
230.731	98.47
230.948	77.99
231.166	37.03
231.384	80.04
231.601	77.99
231.819	57.51
232.037	-30.55
232.254	59.56
232.472	96.43
232.689	57.51
232.907	69.8
233.125	-34.64
233.342	80.04
233.56	94.38
233.777	18.6
233.995	-10.07
234.213	-73.56
234.43	98.47
234.648	8.36
234.865	-34.64
235.083	149.67
235.3	55.47
235.518	0.17
235.735	102.57
235.953	20.65
236.17	8.36
236.388	47.27
236.605	84.14
236.822	32.94
237.04	34.99
237.257	82.09
237.475	-16.21
237.692	28.84
237.909	65.71
238.127	32.94
238.344	114.86
238.562	73.9
238.779	32.94
238.996	61.61
239.214	90.28
239.431	69.8
239.648	32.94
239.865	82.09
240.083	57.51
240.3	41.13
240.517	30.89
240.735	82.09
240.952	116.9
241.169	-8.02
241.386	84.14
241.603	8.36
241.821	28.84
242.038	39.08
242.255	77.99
242.472	14.51
242.689	51.37
242.907	51.37
243.124	57.51
243.341	-42.84
243.558	20.65
243.775	32.94
243.992	-5.97
244.209	90.28
244.426	135.34
244.643	82.09
244.86	-3.93
245.078	-30.55
245.295	88.23
245.512	20.65
245.729	-3.93
245.946	80.04
246.163	16.55
246.38	39.08
246.597	43.18
246.814	51.37
247.031	-20.31
247.248	53.42
247.464	47.27
247.681	-46.93
247.898	88.23
248.115	8.36
248.332	8.36
248.549	80.04
248.766	94.38
248.983	12.46
249.2	49.32
249.417	4.27
249.633	-5.97
249.85	69.8
250.067	43.18
250.284	28.84
250.501	14.51
250.717	8.36
250.934	14.51
251.151	90.28
251.368	39.08
251.585	51.37
251.801	45.23
252.018	69.8
252.235	100.52
252.451	82.09
252.668	8.36
252.885	98.47
253.102	61.61
253.318	75.95
253.535	39.08
253.752	30.89
253.968	49.32
254.185	20.65
254.401	18.6
254.618	28.84
254.835	28.84
255.051	37.03
255.268	28.84
255.484	106.67
255.701	84.14
255.917	88.23
256.134	-28.5
256.351	-26.45
256.567	16.55
256.784	57.51
257	90.28
257.217	20.65
257.433	96.43
257.65	30.89
257.866	75.95
258.082	88.23
258.299	37.03
258.515	0.17
258.732	30.89
258.948	8.36
259.165	51.37
259.381	-61.27
259.597	65.71
259.814	94.38
260.03	61.61
260.246	49.32
260.463	92.33
260.679	8.36
260.895	-12.12
261.112	-40.79
261.328	41.13
261.544	88.23
261.761	49.32
261.977	43.18
262.193	0.17
262.409	112.81
262.626	14.51
262.842	63.66
263.058	53.42
263.274	51.37
263.49	65.71
263.707	123.05
263.923	34.99
264.139	-18.26
264.355	-20.31
264.571	26.79
264.787	71.85
265.004	112.81
265.22	57.51
265.436	65.71
265.652	-8.02
265.868	12.46
266.084	73.9
266.3	53.42
266.516	22.7
266.732	10.41
266.948	22.7
267.164	26.79
267.38	34.99
267.596	71.85
267.812	55.47
268.028	96.43
268.244	34.99
268.46	28.84
268.676	20.65
268.892	75.95
269.108	-10.07
269.324	18.6
269.54	24.75
269.756	-5.97
269.972	-24.4
270.188	80.04
270.403	71.85
270.619	26.79
270.835	90.28
271.051	10.41
271.267	86.19
271.483	30.89
271.698	43.18
271.914	-1.88
272.13	51.37
272.346	34.99
272.562	32.94
272.777	125.1
272.993	12.46
273.209	12.46
273.425	-1.88
273.64	-61.27
273.856	69.8
274.072	41.13
274.287	-3.93
274.503	39.08
274.719	65.71
274.934	41.13
275.15	57.51
275.366	18.6
275.581	59.56
275.797	-10.07
276.012	65.71
276.228	32.94
276.444	59.56
276.659	137.38
276.875	39.08
277.09	37.03
277.306	114.86
277.521	30.89
277.737	51.37
277.952	51.37
278.168	-12.12
278.383	49.32
278.599	12.46
278.814	69.8
279.03	51.37
279.245	65.71
279.461	4.27
279.676	100.52
279.892	71.85
280.107	20.65
280.322	108.71
280.538	86.19
280.753	32.94
280.969	145.58
281.184	16.55
281.399	0.17
281.615	-61.27
281.83	18.6
282.045	6.31
282.26	34.99
282.476	102.57
282.691	45.23
282.906	123.05
283.122	96.43
283.337	4.27
283.552	71.85
283.767	4.27
283.983	75.95
284.198	14.51
284.413	-8.02
284.628	6.31
284.843	26.79
285.058	102.57
285.274	18.6
285.489	37.03
285.704	88.23
285.919	90.28
286.134	55.47
286.349	96.43
286.564	18.6
286.779	86.19
286.995	92.33
287.21	-46.93
287.425	69.8
287.64	34.99
287.855	51.37
288.07	26.79
288.285	59.56
288.5	22.7
288.715	8.36
288.93	77.99
289.145	-32.6
289.36	92.33
289.575	24.75
289.79	104.62
290.004	32.94
290.219	84.14
290.434	-12.12
290.649	47.27
290.864	51.37
291.079	10.41
291.294	-28.5
291.509	30.89
291.724	92.33
291.938	4.27
292.153	84.14
292.368	-22.36
292.583	88.23
292.798	67.75
293.012	88.23
293.227	61.61
293.442	49.32
293.657	24.75
293.871	71.85
294.086	-8.02
294.301	114.86
294.516	59.56
294.73	10.41
294.945	67.75
295.16	45.23
295.374	92.33
295.589	-30.55
295.804	2.22
296.018	80.04
296.233	34.99
296.447	94.38
296.662	49.32
296.877	131.24
297.091	-1.88
297.306	34.99
297.52	80.04
297.735	20.65
297.949	77.99
298.164	14.51
298.378	2.22
298.593	41.13
298.807	26.79
299.022	14.51
299.236	-36.69
299.451	26.79
299.665	18.6
299.88	73.9
300.094	47.27
300.309	114.86
300.523	37.03
300.737	24.75
300.952	-46.93
301.166	73.9
301.381	51.37
301.595	106.67
301.809	30.89
302.024	51.37
302.238	37.03
302.452	61.61
302.667	73.9
302.881	24.75
303.095	96.43
303.309	32.94
303.524	69.8
303.738	49.32
303.952	155.82
304.166	84.14
304.381	63.66
304.595	84.14
304.809	-16.21
305.023	43.18
305.237	61.61
305.452	43.18
305.666	32.94
305.88	45.23
306.094	77.99
306.308	49.32
306.522	37.03
306.736	8.36
306.95	51.37
307.164	69.8
307.379	53.42
307.593	63.66
307.807	30.89
308.021	51.37
308.235	67.75
308.449	-16.21
308.663	24.75
308.877	100.52
309.091	8.36
309.305	57.51
309.519	12.46
309.733	106.67
309.947	51.37
310.161	86.19
310.374	59.56
310.588	69.8
310.802	-46.93
311.016	-18.26
311.23	116.9
311.444	98.47
311.658	73.9
311.872	12.46
312.085	61.61
312.299	-3.93
312.513	22.7
312.727	59.56
312.941	55.47
313.154	41.13
313.368	82.09
313.582	84.14
313.796	-26.45
314.009	-34.64
314.223	69.8
314.437	49.32
314.651	-3.93
314.864	30.89
315.078	-12.12
315.292	45.23
315.505	45.23
315.719	43.18
315.933	65.71
316.146	47.27
316.36	28.84
316.573	65.71
316.787	-26.45
317.001	-12.12
317.214	84.14
317.428	55.47
317.641	57.51
317.855	100.52
318.068	30.89
318.282	37.03
318.495	26.79
318.709	77.99
318.922	30.89
319.136	75.95
319.349	18.6
319.563	71.85
319.776	-14.17
319.99	-28.5
320.203	59.56
320.417	67.75
320.63	41.13
320.843	125.1
321.057	41.13
321.27	121
321.483	88.23
321.697	59.56
321.91	43.18
322.124	53.42
322.337	-24.4
322.55	10.41
322.763	63.66
322.977	100.52
323.19	57.51
323.403	55.47
323.617	65.71
323.83	59.56
324.043	57.51
324.256	92.33
324.469	37.03
324.683	108.71
324.896	28.84
325.109	51.37
325.322	102.57
325.535	55.47
325.748	59.56
325.962	73.9
326.175	86.19
326.388	110.76
326.601	69.8
326.814	86.19
327.027	28.84
327.24	30.89
327.453	28.84
327.666	49.32
327.879	57.51
328.092	63.66
328.305	16.55
328.518	-16.21
328.731	24.75
328.944	82.09
329.157	123.05
329.37	22.7
329.583	45.23
329.796	116.9
330.009	59.56
330.222	73.9
330.435	75.95
330.648	73.9
330.861	12.46
331.073	34.99
331.286	30.89
331.499	51.37
331.712	75.95
331.925	12.46
332.138	69.8
332.35	61.61
332.563	59.56
332.776	80.04
332.989	-14.17
333.202	75.95
333.414	32.94
333.627	37.03
333.84	43.18
334.053	37.03
334.265	63.66
334.478	-14.17
334.691	30.89
334.903	71.85
335.116	41.13
335.329	82.09
335.541	37.03
335.754	100.52
335.966	-24.4
336.179	71.85
336.392	39.08
336.604	22.7
336.817	67.75
337.029	0.17
337.242	59.56
337.454	61.61
337.667	28.84
337.88	114.86
338.092	18.6
338.305	47.27
338.517	67.75
338.729	30.89
338.942	133.29
339.154	-51.03
339.367	-5.97
339.579	82.09
339.792	55.47
340.004	137.38
340.217	57.51
340.429	145.58
340.641	55.47
340.854	45.23
341.066	28.84
341.278	57.51
341.491	47.27
341.703	41.13
341.915	53.42
342.128	96.43
342.34	26.79
342.552	125.1
342.764	143.53
342.977	16.55
343.189	-5.97
343.401	47.27
343.613	-28.5
343.826	55.47
344.038	20.65
344.25	106.67
344.462	51.37
344.674	116.9
344.886	20.65
345.099	16.55
345.311	102.57
345.523	43.18
345.735	12.46
345.947	80.04
346.159	26.79
346.371	47.27
346.583	-10.07
346.795	125.1
347.007	121
347.219	47.27
347.431	77.99
347.643	157.86
347.855	18.6
348.067	57.51
348.279	51.37
348.491	26.79
348.703	98.47
348.915	49.32
349.127	34.99
349.339	49.32
349.551	57.51
349.763	51.37
349.975	88.23
350.187	139.43
350.399	55.47
350.61	55.47
350.822	45.23
351.034	0.17
351.246	22.7
351.458	61.61
351.669	51.37
351.881	67.75
352.093	53.42
352.305	73.9
352.517	94.38
352.728	96.43
352.94	100.52
353.152	47.27
353.363	28.84
353.575	112.81
353.787	32.94
353.999	67.75
354.21	45.23
354.422	65.71
354.633	98.47
354.845	71.85
355.057	49.32
355.268	63.66
355.48	98.47
355.692	57.51
355.903	65.71
356.115	86.19
356.326	12.46
356.538	45.23
356.749	77.99
356.961	106.67
357.172	75.95
357.384	63.66
357.595	6.31
357.807	110.76
358.018	49.32
358.23	67.75
358.441	51.37
358.653	94.38
358.864	108.71
359.075	43.18
359.287	135.34
359.498	114.86
359.709	-10.07
359.921	30.89
360.132	59.56
360.344	84.14
360.555	6.31
360.766	47.27
360.977	12.46
361.189	20.65
361.4	96.43
361.611	84.14
361.823	106.67
362.034	69.8
362.245	6.31
362.456	80.04
362.667	80.04
362.879	98.47
363.09	116.9
363.301	53.42
363.512	-36.69
363.723	118.95
363.935	41.13
364.146	67.75
364.357	67.75
364.568	67.75
364.779	-32.6
364.99	106.67
365.201	-16.21
365.412	77.99
365.623	-16.21
365.834	18.6
366.045	26.79
366.256	69.8
366.467	82.09
366.678	34.99
366.889	6.31
367.1	94.38
367.311	71.85
367.522	34.99
367.733	34.99
367.944	86.19
368.155	-48.98
368.366	55.47
368.577	61.61
368.788	34.99
368.999	28.84
369.209	30.89
369.42	151.72
369.631	73.9
369.842	10.41
370.053	51.37
370.264	57.51
370.474	45.23
370.685	14.51
370.896	77.99
371.107	65.71
371.317	172.2
371.528	61.61
371.739	53.42
371.95	53.42
372.16	155.82
372.371	-40.79
372.582	49.32
372.792	131.24
373.003	61.61
373.214	118.95
373.424	149.67
373.635	-12.12
373.846	77.99
374.056	104.62
374.267	96.43
374.477	55.47
374.688	49.32
374.898	82.09
375.109	49.32
375.319	104.62
375.53	98.47
375.74	80.04
375.951	65.71
376.161	80.04
376.372	63.66
376.582	47.27
376.793	30.89
377.003	-32.6
377.214	39.08
377.424	53.42
377.635	73.9
377.845	51.37
378.055	77.99
378.266	59.56
378.476	-5.97
378.686	-12.12
378.897	96.43
379.107	75.95
379.317	67.75
379.528	34.99
379.738	47.27
379.948	22.7
380.158	102.57
380.369	96.43
380.579	51.37
380.789	-5.97
380.999	88.23
381.21	86.19
381.42	141.48
381.63	65.71
381.84	98.47
382.05	110.76
382.261	-1.88
382.471	96.43
382.681	4.27
382.891	69.8
383.101	39.08
383.311	30.89
383.521	92.33
383.731	32.94
383.941	51.37
384.151	75.95
384.361	159.91
384.571	16.55
384.781	82.09
384.991	16.55
385.201	30.89
385.411	53.42
385.621	82.09
385.831	104.62
386.041	63.66
386.251	20.65
386.461	32.94
386.671	45.23
386.881	125.1
387.091	18.6
387.301	28.84
387.511	80.04
387.72	51.37
387.93	106.67
388.14	2.22
388.35	61.61
388.56	90.28
388.769	106.67
388.979	129.19
389.189	59.56
389.399	63.66
389.609	133.29
389.818	51.37
390.028	63.66
390.238	149.67
390.447	75.95
390.657	125.1
390.867	104.62
391.076	12.46
391.286	57.51
391.496	51.37
391.705	57.51
391.915	141.48
392.125	110.76
392.334	61.61
392.544	104.62
392.753	55.47
392.963	22.7
393.172	49.32
393.382	86.19
393.591	61.61
393.801	106.67
394.01	145.58
394.22	63.66
394.429	94.38
394.639	45.23
394.848	106.67
395.058	71.85
395.267	106.67
395.477	168.1
395.686	47.27
395.895	121
396.105	145.58
396.314	157.86
396.524	116.9
396.733	92.33
396.942	100.52
397.152	86.19
397.361	82.09
397.57	92.33
397.78	41.13
397.989	63.66
398.198	139.43
398.407	45.23
398.617	94.38
398.826	145.58
399.035	67.75
399.244	112.81
399.453	96.43
399.663	86.19
399.872	65.71
400.081	80.04
400.29	137.38
400.499	141.48
400.708	88.23
400.917	147.62
401.127	172.2
401.336	147.62
401.545	137.38
401.754	98.47
401.963	178.34
402.172	131.24
402.381	125.1
402.59	145.58
402.799	63.66
403.008	106.67
403.217	82.09
403.426	143.53
403.635	104.62
403.844	133.29
404.053	67.75
404.262	131.24
404.471	108.71
404.68	194.73
404.888	114.86
405.097	96.43
405.306	118.95
405.515	153.77
405.724	172.2
405.933	155.82
406.142	145.58
406.35	168.1
406.559	184.49
406.768	88.23
406.977	233.64
407.185	219.3
407.394	217.26
407.603	209.06
407.812	104.62
408.02	215.21
408.229	286.89
408.438	204.97
408.646	178.34
408.855	221.35
409.064	215.21
409.272	272.55
409.481	284.84
409.69	229.54
409.898	293.03
410.107	227.5
410.315	303.27
410.524	336.04
410.733	387.24
410.941	370.85
411.15	338.09
411.358	338.09
411.567	372.9
411.775	393.38
411.984	401.57
412.192	379.04
412.401	352.42
412.609	422.05
412.818	428.2
413.026	487.59
413.234	456.87
413.443	450.72
413.651	508.07
413.86	450.72
414.068	553.12
414.276	485.54
414.485	614.56
414.693	592.03
414.901	596.13
415.11	667.81
415.318	708.77
415.526	702.62
415.734	649.38
415.943	751.78
416.151	821.41
416.359	835.74
416.567	852.13
416.776	845.98
416.984	874.65
417.192	870.56
417.4	1028.25
417.608	981.15
417.817	948.38
418.025	897.18
418.233	1124.51
418.441	1026.2
418.649	1069.21
418.857	1163.42
419.065	1239.19
419.273	1167.51
419.481	1208.47
419.689	1192.09
419.897	1335.45
420.105	1368.21
420.313	1503.38
420.521	1474.71
420.729	1515.67
420.937	1605.78
421.145	1603.73
421.353	1693.84
421.561	1818.77
421.769	1882.25
421.977	1882.25
422.185	1849.49
422.393	1882.25
422.601	2082.95
422.809	2166.92
423.017	2068.62
423.224	2173.07
423.432	2302.09
423.64	2332.81
423.848	2543.75
424.056	2433.16
424.263	2560.13
424.471	2547.84
424.679	2621.57
424.887	2828.42
425.094	2902.14
425.302	2855.04
425.51	2924.67
425.718	2973.82
425.925	2955.39
426.133	3262.58
426.341	3506.29
426.548	3508.34
426.756	3467.38
426.964	3668.08
427.171	3805.3
427.379	4012.14
427.586	4012.14
427.794	4208.75
428.001	4370.54
428.209	4522.09
428.417	4425.83
428.624	4802.66
428.832	4870.24
429.039	4771.94
429.247	4821.09
429.454	5072.99
429.662	5509.21
429.869	5105.76
430.076	5453.91
430.284	5341.27
430.491	5603.41
430.699	5873.75
430.906	5875.79
431.114	6037.58
431.321	6422.6
431.528	6508.62
431.736	6715.46
431.943	7018.56
432.15	6776.9
432.358	6842.43
432.565	7354.43
432.772	7211.07
432.979	7536.7
433.187	7782.45
433.394	7888.95
433.601	8204.33
433.808	8319.02
434.016	8230.96
434.223	8761.38
434.43	9388.06
434.637	9154.59
434.844	9619.48
435.052	9916.44
435.259	9588.76
435.466	9754.65
435.673	9734.17
435.88	10283.02
436.087	10946.56
436.294	10903.56
436.501	10727.43
436.708	10835.97
436.915	11128.83
437.122	11806.71
437.329	11587.58
437.537	12081.14
437.743	12427.25
437.95	12234.74
438.157	12939.24
438.364	13152.23
438.571	13211.62
438.778	13440.99
438.985	14548.94
439.192	14067.67
439.399	14325.71
439.606	14221.27
439.813	14972.87
440.02	16027.57
440.227	15511.49
440.433	15134.66
440.64	16031.67
440.847	15830.97
441.054	15867.83
441.261	17340.32
441.467	17072.04
441.674	17239.97
441.881	18163.61
442.088	17766.3
442.294	17731.48
442.501	18612.11
442.708	18468.75
442.914	19355.52
443.121	20074.36
443.328	19695.49
443.534	21020.52
443.741	20588.4
443.948	20113.27
444.154	21856.09
444.361	21460.84
444.568	21585.76
444.774	21573.47
444.981	22157.14
445.187	22613.84
445.394	23646.02
445.6	23244.62
445.807	25540.39
446.013	24352.57
446.22	24905.52
446.426	25851.68
446.633	26195.74
446.839	27045.65
447.046	25976.61
447.252	27449.1
447.459	27143.95
447.665	27334.41
447.871	28559.09
448.078	29394.67
448.284	28313.34
448.491	28882.67
448.697	30146.27
448.903	30678.74
449.11	30621.4
449.316	30047.97
449.522	30842.58
449.728	31874.76
449.935	31823.56
450.141	31549.13
450.347	32386.75
450.553	31368.91
450.76	31925.96
450.966	32833.21
451.172	32444.09
451.378	33433.26
451.584	32579.26
451.791	33369.77
451.997	33543.85
452.203	34135.71
452.409	34082.47
452.615	33838.76
452.821	32370.36
453.027	32501.43
453.233	33853.09
453.44	32509.63
453.646	32970.42
453.852	33216.18
454.058	33560.23
454.264	32583.35
454.47	32947.89
454.676	32251.58
454.882	33883.81
455.088	30744.28
455.294	31176.4
455.5	31370.96
455.705	32028.35
455.911	30588.63
456.117	29818.6
456.323	29830.88
456.529	27514.63
456.735	29097.71
456.941	28552.95
457.147	27940.61
457.352	27318.03
457.558	26533.65
457.764	26896.14
457.97	26371.86
458.176	25798.43
458.381	25765.67
458.587	24487.73
458.793	24723.25
458.999	23086.92
459.204	25173.8
459.41	24102.71
459.616	22587.22
459.821	22560.59
460.027	22292.31
460.233	22157.14
460.438	20739.95
460.644	21495.65
460.85	20340.6
461.055	20033.4
461.261	19937.15
461.466	18472.85
461.672	17723.29
461.878	19085.19
462.083	17645.47
462.289	17770.4
462.494	17352.61
462.7	16396.21
462.905	16072.63
463.111	16504.75
463.316	16691.12
463.522	16342.96
463.727	16334.77
463.932	16359.35
464.138	16119.73
464.343	16252.85
464.549	15740.86
464.754	16160.69
464.959	16095.16
465.165	16017.33
465.37	15269.83
465.575	14979.01
465.781	15656.89
465.986	15890.36
466.191	15142.85
466.397	15009.73
466.602	14129.11
466.807	14512.08
467.012	14692.3
467.218	14641.1
467.423	14395.34
