Data from USB4F104151__25__12-00-32-012.txt Node

Date: Fri Mar 14 12:00:32 EDT 2025
User: louis
Spectrometer: USB4F10415
Trigger mode: 4
Integration Time (sec): 2.000000E-2
Scans to average: 1
Electric dark correction enabled: true
Nonlinearity correction enabled: false
Boxcar width: 0
XAxis mode: Wavelengths
Number of Pixels in Spectrum: 3648
>>>>>Begin Spectral Data<<<<<
178.204	-41.98
178.424	-41.98
178.644	-41.98
178.864	-87.04
179.084	-68.61
179.304	35.84
179.524	13.31
179.744	-50.18
179.964	15.36
180.184	29.7
180.404	37.89
180.624	-9.22
180.844	-23.55
181.064	-84.99
181.283	21.5
181.503	11.26
181.723	3.07
181.943	-101.37
182.163	37.89
182.383	15.36
182.602	-23.55
182.822	52.22
183.042	113.66
183.262	-15.36
183.482	-29.7
183.701	109.57
183.921	15.36
184.141	-23.55
184.361	72.7
184.58	19.46
184.8	-9.22
185.02	33.79
185.239	-29.7
185.459	-50.18
185.679	33.79
185.898	9.22
186.118	76.8
186.338	19.46
186.557	76.8
186.777	-9.22
186.997	5.12
187.216	50.18
187.436	52.22
187.655	54.27
187.875	48.13
188.095	15.36
188.314	41.98
188.534	21.5
188.753	-48.13
188.973	125.95
189.192	52.22
189.412	39.94
189.631	33.79
189.851	44.03
190.07	68.61
190.29	9.22
190.509	-39.94
190.729	35.84
190.948	58.37
191.168	109.57
191.387	15.36
191.607	33.79
191.826	-7.17
192.045	9.22
192.265	17.41
192.484	-46.08
192.704	44.03
192.923	41.98
193.142	89.09
193.362	25.6
193.581	13.31
193.8	1.02
194.02	56.32
194.239	44.03
194.458	-7.17
194.678	-15.36
194.897	56.32
195.116	5.12
195.335	95.23
195.555	107.52
195.774	52.22
195.993	87.04
196.212	13.31
196.432	1.02
196.651	29.7
196.87	-39.94
197.089	11.26
197.308	33.79
197.528	21.5
197.747	37.89
197.966	62.46
198.185	74.75
198.404	68.61
198.623	3.07
198.842	70.65
199.062	39.94
199.281	31.74
199.5	48.13
199.719	33.79
199.938	54.27
200.157	-9.22
200.376	78.85
200.595	25.6
200.814	-29.7
201.033	13.31
201.252	54.27
201.471	7.17
201.69	1.02
201.909	66.56
202.128	3.07
202.347	1.02
202.566	29.7
202.785	-52.22
203.004	21.5
203.223	-1.02
203.442	37.89
203.661	3.07
203.879	48.13
204.098	-5.12
204.317	128
204.536	27.65
204.755	27.65
204.974	39.94
205.193	70.65
205.411	39.94
205.63	19.46
205.849	35.84
206.068	39.94
206.287	37.89
206.505	5.12
206.724	19.46
206.943	11.26
207.162	25.6
207.381	62.46
207.599	25.6
207.818	-19.46
208.037	39.94
208.255	33.79
208.474	-44.03
208.693	64.51
208.911	-11.26
209.13	62.46
209.349	48.13
209.567	52.22
209.786	99.33
210.005	41.98
210.223	27.65
210.442	9.22
210.661	29.7
210.879	-11.26
211.098	3.07
211.316	17.41
211.535	27.65
211.753	27.65
211.972	54.27
212.191	-29.7
212.409	87.04
212.628	31.74
212.846	-41.98
213.065	-74.75
213.283	23.55
213.502	-23.55
213.72	31.74
213.938	74.75
214.157	17.41
214.375	29.7
214.594	31.74
214.812	37.89
215.031	54.27
215.249	23.55
215.467	48.13
215.686	9.22
215.904	132.09
216.122	5.12
216.341	107.52
216.559	23.55
216.778	27.65
216.996	48.13
217.214	21.5
217.432	33.79
217.651	29.7
217.869	-15.36
218.087	109.57
218.306	21.5
218.524	27.65
218.742	3.07
218.96	-1.02
219.179	52.22
219.397	48.13
219.615	39.94
219.833	109.57
220.051	66.56
220.27	9.22
220.488	48.13
220.706	41.98
220.924	48.13
221.142	-17.41
221.36	80.89
221.578	113.66
221.796	76.8
222.015	35.84
222.233	13.31
222.451	19.46
222.669	46.08
222.887	58.37
223.105	87.04
223.323	3.07
223.541	19.46
223.759	-29.7
223.977	60.42
224.195	177.15
224.413	41.98
224.631	21.5
224.849	78.85
225.067	-7.17
225.285	-9.22
225.503	72.7
225.721	-5.12
225.939	19.46
226.157	74.75
226.375	125.95
226.592	-13.31
226.81	89.09
227.028	72.7
227.246	87.04
227.464	41.98
227.682	84.99
227.9	31.74
228.117	154.62
228.335	-33.79
228.553	72.7
228.771	35.84
228.989	25.6
229.206	13.31
229.424	-11.26
229.642	21.5
229.86	58.37
230.077	150.53
230.295	74.75
230.513	9.22
230.731	17.41
230.948	3.07
231.166	64.51
231.384	7.17
231.601	70.65
231.819	84.99
232.037	-23.55
232.254	17.41
232.472	17.41
232.689	-37.89
232.907	58.37
233.125	35.84
233.342	13.31
233.56	72.7
233.777	-15.36
233.995	68.61
234.213	68.61
234.43	84.99
234.648	-9.22
234.865	123.9
235.083	9.22
235.3	41.98
235.518	68.61
235.735	68.61
235.953	15.36
236.17	21.5
236.388	60.42
236.605	7.17
236.822	60.42
237.04	-29.7
237.257	101.37
237.475	23.55
237.692	41.98
237.909	23.55
238.127	46.08
238.344	80.89
238.562	68.61
238.779	-23.55
238.996	31.74
239.214	25.6
239.431	9.22
239.648	29.7
239.865	80.89
240.083	23.55
240.3	23.55
240.517	-7.17
240.735	46.08
240.952	70.65
241.169	-29.7
241.386	-13.31
241.603	50.18
241.821	15.36
242.038	58.37
242.255	23.55
242.472	21.5
242.689	80.89
242.907	68.61
243.124	68.61
243.341	13.31
243.558	-11.26
243.775	-33.79
243.992	3.07
244.209	93.18
244.426	115.71
244.643	78.85
244.86	27.65
245.078	107.52
245.295	87.04
245.512	113.66
245.729	-17.41
245.946	-7.17
246.163	-46.08
246.38	72.7
246.597	91.13
246.814	95.23
247.031	31.74
247.248	1.02
247.464	-15.36
247.681	-7.17
247.898	72.7
248.115	31.74
248.332	9.22
248.549	21.5
248.766	50.18
248.983	41.98
249.2	-19.46
249.417	-29.7
249.633	9.22
249.85	87.04
250.067	15.36
250.284	-3.07
250.501	50.18
250.717	29.7
250.934	-5.12
251.151	25.6
251.368	29.7
251.585	46.08
251.801	-11.26
252.018	9.22
252.235	56.32
252.451	-3.07
252.668	17.41
252.885	29.7
253.102	-13.31
253.318	-19.46
253.535	31.74
253.752	-23.55
253.968	23.55
254.185	-19.46
254.401	66.56
254.618	-23.55
254.835	-101.37
255.051	111.61
255.268	46.08
255.484	103.42
255.701	25.6
255.917	52.22
256.134	25.6
256.351	25.6
256.567	62.46
256.784	33.79
257	31.74
257.217	5.12
257.433	68.61
257.65	-11.26
257.866	39.94
258.082	54.27
258.299	-19.46
258.515	52.22
258.732	-39.94
258.948	27.65
259.165	-11.26
259.381	66.56
259.597	29.7
259.814	41.98
260.03	39.94
260.246	78.85
260.463	44.03
260.679	121.85
260.895	97.28
261.112	107.52
261.328	27.65
261.544	76.8
261.761	66.56
261.977	33.79
262.193	31.74
262.409	84.99
262.626	-1.02
262.842	-9.22
263.058	52.22
263.274	-3.07
263.49	76.8
263.707	64.51
263.923	-3.07
264.139	35.84
264.355	-7.17
264.571	89.09
264.787	109.57
265.004	-15.36
265.22	-5.12
265.436	-13.31
265.652	-46.08
265.868	27.65
266.084	35.84
266.3	31.74
266.516	37.89
266.732	48.13
266.948	58.37
267.164	50.18
267.38	3.07
267.596	44.03
267.812	70.65
268.028	39.94
268.244	5.12
268.46	58.37
268.676	60.42
268.892	66.56
269.108	-68.61
269.324	-19.46
269.54	84.99
269.756	-39.94
269.972	-31.74
270.188	-23.55
270.403	64.51
270.619	72.7
270.835	54.27
271.051	54.27
271.267	19.46
271.483	54.27
271.698	9.22
271.914	93.18
272.13	23.55
272.346	41.98
272.562	29.7
272.777	11.26
272.993	-7.17
273.209	48.13
273.425	64.51
273.64	25.6
273.856	-7.17
274.072	-1.02
274.287	54.27
274.503	11.26
274.719	74.75
274.934	54.27
275.15	21.5
275.366	103.42
275.581	76.8
275.797	66.56
276.012	9.22
276.228	68.61
276.444	46.08
276.659	107.52
276.875	-13.31
277.09	19.46
277.306	46.08
277.521	60.42
277.737	5.12
277.952	-13.31
278.168	91.13
278.383	27.65
278.599	7.17
278.814	1.02
279.03	52.22
279.245	1.02
279.461	72.7
279.676	17.41
279.892	-11.26
280.107	37.89
280.322	-19.46
280.538	21.5
280.753	-48.13
280.969	41.98
281.184	58.37
281.399	44.03
281.615	76.8
281.83	74.75
282.045	9.22
282.26	3.07
282.476	31.74
282.691	111.61
282.906	54.27
283.122	113.66
283.337	37.89
283.552	72.7
283.767	27.65
283.983	84.99
284.198	-15.36
284.413	31.74
284.628	-15.36
284.843	56.32
285.058	128
285.274	23.55
285.489	-3.07
285.704	37.89
285.919	-3.07
286.134	-39.94
286.349	109.57
286.564	-35.84
286.779	-7.17
286.995	91.13
287.21	-56.32
287.425	35.84
287.64	-23.55
287.855	21.5
288.07	-87.04
288.285	52.22
288.5	21.5
288.715	33.79
288.93	19.46
289.145	48.13
289.36	44.03
289.575	56.32
289.79	46.08
290.004	62.46
290.219	17.41
290.434	-82.94
290.649	29.7
290.864	52.22
291.079	89.09
291.294	109.57
291.509	64.51
291.724	44.03
291.938	66.56
292.153	52.22
292.368	7.17
292.583	27.65
292.798	19.46
293.012	68.61
293.227	19.46
293.442	91.13
293.657	119.81
293.871	58.37
294.086	64.51
294.301	132.09
294.516	3.07
294.73	109.57
294.945	-17.41
295.16	35.84
295.374	113.66
295.589	46.08
295.804	-52.22
296.018	107.52
296.233	58.37
296.447	72.7
296.662	62.46
296.877	89.09
297.091	19.46
297.306	35.84
297.52	89.09
297.735	70.65
297.949	50.18
298.164	9.22
298.378	17.41
298.593	-56.32
298.807	33.79
299.022	64.51
299.236	41.98
299.451	15.36
299.665	50.18
299.88	107.52
300.094	-13.31
300.309	46.08
300.523	109.57
300.737	21.5
300.952	9.22
301.166	54.27
301.381	-29.7
301.595	37.89
301.809	78.85
302.024	7.17
302.238	33.79
302.452	1.02
302.667	-21.5
302.881	-15.36
303.095	29.7
303.309	66.56
303.524	25.6
303.738	35.84
303.952	62.46
304.166	52.22
304.381	-17.41
304.595	60.42
304.809	-48.13
305.023	80.89
305.237	-21.5
305.452	50.18
305.666	11.26
305.88	64.51
306.094	37.89
306.308	25.6
306.522	74.75
306.736	15.36
306.95	-11.26
307.164	93.18
307.379	52.22
307.593	58.37
307.807	66.56
308.021	58.37
308.235	-11.26
308.449	-5.12
308.663	46.08
308.877	15.36
309.091	46.08
309.305	66.56
309.519	58.37
309.733	50.18
309.947	50.18
310.161	-31.74
310.374	70.65
310.588	121.85
310.802	-15.36
311.016	5.12
311.23	39.94
311.444	50.18
311.658	-21.5
311.872	66.56
312.085	66.56
312.299	87.04
312.513	56.32
312.727	25.6
312.941	72.7
313.154	-9.22
313.368	66.56
313.582	39.94
313.796	19.46
314.009	-5.12
314.223	-9.22
314.437	74.75
314.651	39.94
314.864	15.36
315.078	-46.08
315.292	72.7
315.505	62.46
315.719	54.27
315.933	60.42
316.146	-15.36
316.36	-68.61
316.573	103.42
316.787	68.61
317.001	31.74
317.214	64.51
317.428	13.31
317.641	50.18
317.855	37.89
318.068	37.89
318.282	78.85
318.495	66.56
318.709	41.98
318.922	64.51
319.136	25.6
319.349	84.99
319.563	41.98
319.776	54.27
319.99	41.98
320.203	41.98
320.417	27.65
320.63	25.6
320.843	84.99
321.057	48.13
321.27	87.04
321.483	19.46
321.697	76.8
321.91	76.8
322.124	33.79
322.337	76.8
322.55	-9.22
322.763	48.13
322.977	25.6
323.19	-66.56
323.403	17.41
323.617	23.55
323.83	68.61
324.043	15.36
324.256	9.22
324.469	15.36
324.683	70.65
324.896	9.22
325.109	19.46
325.322	-25.6
325.535	29.7
325.748	62.46
325.962	3.07
326.175	82.94
326.388	35.84
326.601	50.18
326.814	-31.74
327.027	46.08
327.24	97.28
327.453	9.22
327.666	101.37
327.879	158.72
328.092	130.05
328.305	56.32
328.518	23.55
328.731	-9.22
328.944	9.22
329.157	31.74
329.37	25.6
329.583	21.5
329.796	121.85
330.009	-37.89
330.222	9.22
330.435	41.98
330.648	-25.6
330.861	-11.26
331.073	9.22
331.286	25.6
331.499	101.37
331.712	58.37
331.925	35.84
332.138	84.99
332.35	70.65
332.563	54.27
332.776	70.65
332.989	-35.84
333.202	68.61
333.414	-1.02
333.627	93.18
333.84	107.52
334.053	33.79
334.265	52.22
334.478	-31.74
334.691	87.04
334.903	64.51
335.116	48.13
335.329	89.09
335.541	5.12
335.754	60.42
335.966	66.56
336.179	80.89
336.392	3.07
336.604	-7.17
336.817	91.13
337.029	56.32
337.242	27.65
337.454	-1.02
337.667	19.46
337.88	41.98
338.092	50.18
338.305	87.04
338.517	33.79
338.729	54.27
338.942	27.65
339.154	-15.36
339.367	91.13
339.579	140.29
339.792	13.31
340.004	166.91
340.217	105.47
340.429	56.32
340.641	5.12
340.854	39.94
341.066	60.42
341.278	179.2
341.491	41.98
341.703	50.18
341.915	5.12
342.128	35.84
342.34	82.94
342.552	39.94
342.764	107.52
342.977	15.36
343.189	19.46
343.401	87.04
343.613	52.22
343.826	-29.7
344.038	87.04
344.25	68.61
344.462	44.03
344.674	-7.17
344.886	13.31
345.099	56.32
345.311	7.17
345.523	7.17
345.735	7.17
345.947	41.98
346.159	89.09
346.371	13.31
346.583	-46.08
346.795	101.37
347.007	52.22
347.219	15.36
347.431	17.41
347.643	74.75
347.855	33.79
348.067	105.47
348.279	46.08
348.491	-1.02
348.703	80.89
348.915	25.6
349.127	56.32
349.339	13.31
349.551	-1.02
349.763	105.47
349.975	33.79
350.187	21.5
350.399	68.61
350.61	91.13
350.822	21.5
351.034	-1.02
351.246	-5.12
351.458	89.09
351.669	35.84
351.881	101.37
352.093	148.48
352.305	78.85
352.517	82.94
352.728	111.61
352.94	82.94
353.152	76.8
353.363	70.65
353.575	13.31
353.787	82.94
353.999	35.84
354.21	101.37
354.422	23.55
354.633	39.94
354.845	39.94
355.057	87.04
355.268	136.19
355.48	128
355.692	9.22
355.903	62.46
356.115	103.42
356.326	17.41
356.538	25.6
356.749	64.51
356.961	56.32
357.172	37.89
357.384	-17.41
357.595	87.04
357.807	103.42
358.018	78.85
358.23	97.28
358.441	62.46
358.653	44.03
358.864	78.85
359.075	-9.22
359.287	19.46
359.498	44.03
359.709	78.85
359.921	93.18
360.132	29.7
360.344	74.75
360.555	21.5
360.766	58.37
360.977	62.46
361.189	115.71
361.4	-3.07
361.611	39.94
361.823	37.89
362.034	54.27
362.245	-19.46
362.456	13.31
362.667	87.04
362.879	84.99
363.09	105.47
363.301	39.94
363.512	7.17
363.723	1.02
363.935	82.94
364.146	19.46
364.357	41.98
364.568	-17.41
364.779	-7.17
364.99	60.42
365.201	11.26
365.412	52.22
365.623	72.7
365.834	-1.02
366.045	84.99
366.256	66.56
366.467	39.94
366.678	-3.07
366.889	-25.6
367.1	31.74
367.311	64.51
367.522	21.5
367.733	99.33
367.944	44.03
368.155	46.08
368.366	52.22
368.577	56.32
368.788	25.6
368.999	95.23
369.209	23.55
369.42	44.03
369.631	50.18
369.842	50.18
370.053	25.6
370.264	97.28
370.474	11.26
370.685	68.61
370.896	15.36
371.107	44.03
371.317	29.7
371.528	13.31
371.739	9.22
371.95	37.89
372.16	84.99
372.371	11.26
372.582	64.51
372.792	44.03
373.003	31.74
373.214	48.13
373.424	103.42
373.635	50.18
373.846	37.89
374.056	21.5
374.267	-9.22
374.477	41.98
374.688	89.09
374.898	54.27
375.109	-44.03
375.319	58.37
375.53	-11.26
375.74	87.04
375.951	-27.65
376.161	72.7
376.372	105.47
376.582	68.61
376.793	11.26
377.003	-1.02
377.214	54.27
377.424	48.13
377.635	21.5
377.845	58.37
378.055	125.95
378.266	48.13
378.476	80.89
378.686	66.56
378.897	-9.22
379.107	70.65
379.317	52.22
379.528	3.07
379.738	72.7
379.948	-11.26
380.158	39.94
380.369	-33.79
380.579	87.04
380.789	35.84
380.999	99.33
381.21	136.19
381.42	66.56
381.63	76.8
381.84	23.55
382.05	33.79
382.261	21.5
382.471	111.61
382.681	35.84
382.891	62.46
383.101	84.99
383.311	33.79
383.521	9.22
383.731	138.24
383.941	68.61
384.151	37.89
384.361	52.22
384.571	-7.17
384.781	87.04
384.991	52.22
385.201	58.37
385.411	109.57
385.621	113.66
385.831	64.51
386.041	82.94
386.251	99.33
386.461	119.81
386.671	13.31
386.881	60.42
387.091	64.51
387.301	117.76
387.511	44.03
387.72	99.33
387.93	89.09
388.14	11.26
388.35	97.28
388.56	13.31
388.769	107.52
388.979	128
389.189	9.22
389.399	25.6
389.609	74.75
389.818	62.46
390.028	25.6
390.238	105.47
390.447	89.09
390.657	37.89
390.867	37.89
391.076	37.89
391.286	44.03
391.496	103.42
391.705	68.61
391.915	68.61
392.125	50.18
392.334	46.08
392.544	44.03
392.753	52.22
392.963	72.7
393.172	123.9
393.382	205.82
393.591	91.13
393.801	44.03
394.01	105.47
394.22	84.99
394.429	171.01
394.639	68.61
394.848	125.95
395.058	56.32
395.267	89.09
395.477	91.13
395.686	134.14
395.895	93.18
396.105	107.52
396.314	136.19
396.524	128
396.733	146.43
396.942	7.17
397.152	214.01
397.361	195.58
397.57	130.05
397.78	119.81
397.989	52.22
398.198	101.37
398.407	123.9
398.617	91.13
398.826	201.72
399.035	128
399.244	115.71
399.453	203.77
399.663	87.04
399.872	136.19
400.081	-1.02
400.29	72.7
400.499	166.91
400.708	76.8
400.917	156.67
401.127	130.05
401.336	105.47
401.545	97.28
401.754	113.66
401.963	154.62
402.172	121.85
402.381	80.89
402.59	203.77
402.799	62.46
403.008	168.96
403.217	78.85
403.426	156.67
403.635	201.72
403.844	132.09
404.053	185.34
404.262	175.1
404.471	189.44
404.68	171.01
404.888	148.48
405.097	99.33
405.306	197.63
405.515	99.33
405.724	191.49
405.933	201.72
406.142	205.82
406.35	273.4
406.559	130.05
406.768	261.12
406.977	252.92
407.185	267.26
407.394	183.29
407.603	207.87
407.812	244.73
408.02	312.32
408.229	257.02
408.438	287.74
408.646	211.96
408.855	214.01
409.064	259.07
409.272	236.54
409.481	326.65
409.69	236.54
409.898	328.7
410.107	361.47
410.315	324.6
410.524	340.99
410.733	320.51
410.941	392.19
411.15	500.73
411.358	496.63
411.567	424.95
411.775	418.81
411.984	492.54
412.192	412.67
412.401	513.02
412.609	625.65
412.818	549.88
413.026	556.02
413.234	596.98
413.443	558.07
413.651	515.06
413.86	617.46
414.068	617.46
414.276	695.29
414.485	623.61
414.693	672.76
414.901	781.3
415.11	766.96
415.318	830.45
415.526	805.88
415.734	883.7
415.943	820.21
416.151	869.36
416.359	900.08
416.567	982
416.776	1029.1
416.984	1141.74
417.192	1090.54
417.4	1154.03
417.608	1018.86
417.817	1172.46
418.025	1233.9
418.233	1383.4
418.441	1262.57
418.649	1330.16
418.857	1381.35
419.065	1485.8
419.273	1442.79
419.481	1534.95
419.689	1657.83
419.897	1709.03
420.105	1670.12
420.313	1801.19
420.521	1823.72
420.729	1876.96
420.937	1811.43
421.145	1975.27
421.353	2081.76
421.561	2206.69
421.769	2280.41
421.977	2350.04
422.185	2350.04
422.393	2493.4
422.601	2595.8
422.809	2530.27
423.017	2552.79
423.224	2798.55
423.432	2681.82
423.64	2753.49
423.848	3011.54
424.056	3083.22
424.263	3138.51
424.471	3257.29
424.679	3349.45
424.887	3548.11
425.094	3550.15
425.302	3601.35
425.51	3879.88
425.718	3689.42
425.925	4010.95
426.133	4031.43
426.341	4268.99
426.548	4398.01
426.756	4498.36
426.964	4512.7
427.171	4912.05
427.379	4914.1
427.586	4948.92
427.794	5092.27
428.001	5307.31
428.209	5737.38
428.417	5465
428.624	5921.7
428.832	5893.03
429.039	5942.18
429.247	6034.34
429.454	6552.48
429.662	6939.54
429.869	6448.03
430.076	6960.02
430.284	6689.69
430.491	7076.76
430.699	7408.53
430.906	7424.91
431.114	7455.63
431.321	7680.91
431.528	8086.4
431.736	8407.94
431.943	8784.76
432.15	8598.4
432.358	8762.23
432.565	9214.84
432.772	9237.36
432.979	9669.48
433.187	9728.88
433.394	9741.16
433.601	10632.03
433.808	10408.8
434.016	10460
434.223	11025.24
434.43	11430.74
434.637	11344.72
434.844	12043.08
435.052	12438.34
435.259	12208.97
435.466	12223.3
435.673	12176.2
435.88	13056.82
436.087	13824.81
436.294	13697.84
436.501	13179.7
436.708	13792.05
436.915	14103.34
437.122	14762.78
437.329	14775.07
437.537	15176.47
437.743	15239.96
437.95	15325.97
438.157	16083.72
438.364	16794.37
438.571	16710.4
438.778	16476.93
438.985	18383.59
439.192	17425.14
439.399	18017.01
439.606	17662.71
439.813	18797.28
440.02	19868.37
440.227	19325.66
440.433	19464.92
440.64	20118.22
440.847	19921.62
441.054	20208.33
441.261	21844.66
441.467	21445.3
441.674	21922.48
441.881	22725.29
442.088	22735.53
442.294	22563.5
442.501	23282.33
442.708	23478.94
442.914	24453.77
443.121	25184.9
443.328	24910.47
443.534	26647.15
443.741	25672.31
443.948	25537.15
444.154	27429.47
444.361	27644.51
444.568	27761.24
444.774	27523.68
444.981	28017.24
445.187	28613.2
445.394	29594.17
445.6	29297.22
445.807	32303.64
446.013	30841.39
446.22	31509.02
446.426	32191
446.633	33096.2
446.839	33978.87
447.046	32270.87
447.252	34691.57
447.459	34384.37
447.665	34150.9
447.871	35613.15
448.078	37366.21
448.284	35682.78
448.491	36721.1
448.697	38042.04
448.903	38795.7
449.11	38631.86
449.316	37962.17
449.522	38478.26
449.728	39844.26
449.935	39827.87
450.141	39889.31
450.347	40647.06
450.553	39840.16
450.76	40278.43
450.966	41922.94
451.172	41169.29
451.378	42068.35
451.584	40964.49
451.791	41808.26
451.997	41769.35
452.203	42705.27
452.409	42588.53
452.615	42166.65
452.821	40311.19
453.027	40438.17
453.233	42248.57
453.44	40757.65
453.646	41177.48
453.852	41124.24
454.058	42162.56
454.264	40489.37
454.47	41089.42
454.676	40235.42
454.882	41660.8
455.088	37771.71
455.294	38498.74
455.5	39252.39
455.705	39625.12
455.911	38087.1
456.117	36800.97
456.323	36454.87
456.529	35088.87
456.735	36231.64
456.941	35498.47
457.147	34845.16
457.352	33583.62
457.558	33094.15
457.764	32989.7
457.97	32903.69
458.176	32090.65
458.381	31824.41
458.587	30200.37
458.793	30374.45
458.999	28953.16
459.204	30974.5
459.41	29958.71
459.616	28115.54
459.821	27918.93
460.027	28007
460.233	27472.48
460.438	25932.4
460.644	26180.21
460.85	24889.99
461.055	24433.29
461.261	24177.3
461.466	22694.57
461.672	21951.15
461.878	23573.14
462.083	22260.4
462.289	21996.21
462.494	21271.23
462.7	20464.33
462.905	20200.14
463.111	20468.42
463.316	20617.93
463.522	20349.64
463.727	20259.53
463.932	20140.75
464.138	20001.49
464.343	20026.06
464.549	19645.14
464.754	20529.86
464.959	19882.7
465.165	20067.02
465.37	18889.44
465.575	18592.48
465.781	19389.14
465.986	19428.06
466.191	18635.49
466.397	17994.48
466.602	17441.53
466.807	17976.05
467.012	18103.02
467.218	18135.79
467.423	17658.61
467.628	17873.65
467.833	18496.23
468.038	18111.21
