Data from USB4F104151__90__12-02-32-304.txt Node

Date: Fri Mar 14 12:02:32 EDT 2025
User: louis
Spectrometer: USB4F10415
Trigger mode: 4
Integration Time (sec): 2.000000E-2
Scans to average: 1
Electric dark correction enabled: true
Nonlinearity correction enabled: false
Boxcar width: 0
XAxis mode: Wavelengths
Number of Pixels in Spectrum: 3648
>>>>>Begin Spectral Data<<<<<
178.204	-41.64
178.424	-41.64
178.644	-41.64
178.864	-113.32
179.084	-115.37
179.304	-31.4
179.524	-10.92
179.744	11.61
179.964	66.9
180.184	-23.21
180.404	-39.59
180.624	-51.88
180.844	114
181.064	-47.79
181.283	-2.73
181.503	56.66
181.723	-41.64
181.943	-58.03
182.163	105.81
182.383	36.18
182.602	38.23
182.822	68.95
183.042	46.42
183.262	9.56
183.482	-4.78
183.701	34.13
183.921	15.7
184.141	77.14
184.361	-15.02
184.58	25.94
184.8	36.18
185.02	27.99
185.239	-15.02
185.459	-55.98
185.679	-12.97
185.898	-35.5
186.118	19.8
186.338	60.76
186.557	5.46
186.777	-49.83
186.997	21.85
187.216	44.37
187.436	73.04
187.655	62.8
187.875	21.85
188.095	21.85
188.314	68.95
188.534	56.66
188.753	3.41
188.973	85.33
189.192	25.94
189.412	101.72
189.631	5.46
189.851	25.94
190.07	-10.92
190.29	-41.64
190.509	27.99
190.729	-51.88
190.948	89.43
191.168	77.14
191.387	23.89
191.607	15.7
191.826	3.41
192.045	-19.11
192.265	-8.87
192.484	89.43
192.704	3.41
192.923	-35.5
193.142	126.29
193.362	36.18
193.581	15.7
193.8	77.14
194.02	-37.55
194.239	30.04
194.458	-55.98
194.678	32.08
194.897	9.56
195.116	27.99
195.335	111.96
195.555	19.8
195.774	25.94
195.993	1.37
196.212	50.52
196.432	9.56
196.651	27.99
196.87	23.89
197.089	44.37
197.308	30.04
197.528	62.8
197.747	27.99
197.966	52.56
198.185	50.52
198.404	71
198.623	11.61
198.842	71
199.062	-19.11
199.281	93.52
199.5	34.13
199.719	111.96
199.938	7.51
200.157	58.71
200.376	38.23
200.595	77.14
200.814	30.04
201.033	36.18
201.252	58.71
201.471	62.8
201.69	44.37
201.909	46.42
202.128	66.9
202.347	23.89
202.566	60.76
202.785	-0.68
203.004	-74.41
203.223	5.46
203.442	114
203.661	17.75
203.879	36.18
204.098	101.72
204.317	-43.69
204.536	44.37
204.755	120.15
204.974	11.61
205.193	50.52
205.411	66.9
205.63	-12.97
205.849	-29.35
206.068	46.42
206.287	36.18
206.505	13.65
206.724	-31.4
206.943	-60.07
207.162	-17.07
207.381	85.33
207.599	58.71
207.818	9.56
208.037	13.65
208.255	64.85
208.474	91.48
208.693	-21.16
208.911	38.23
209.13	44.37
209.349	56.66
209.567	50.52
209.786	38.23
210.005	71
210.223	19.8
210.442	5.46
210.661	71
210.879	42.32
211.098	19.8
211.316	66.9
211.535	30.04
211.753	5.46
211.972	5.46
212.191	81.24
212.409	58.71
212.628	56.66
212.846	85.33
213.065	7.51
213.283	132.44
213.502	56.66
213.72	23.89
213.938	-8.87
214.157	34.13
214.375	-23.21
214.594	46.42
214.812	52.56
215.031	5.46
215.249	-37.55
215.467	54.61
215.686	-47.79
215.904	99.67
216.122	-8.87
216.341	27.99
216.559	23.89
216.778	-31.4
216.996	56.66
217.214	11.61
217.432	-53.93
217.651	-55.98
217.869	7.51
218.087	9.56
218.306	56.66
218.524	-0.68
218.742	27.99
218.96	-27.31
219.179	9.56
219.397	58.71
219.615	-0.68
219.833	128.34
220.051	101.72
220.27	21.85
220.488	9.56
220.706	60.76
220.924	21.85
221.142	7.51
221.36	1.37
221.578	7.51
221.796	48.47
222.015	34.13
222.233	11.61
222.451	-12.97
222.669	-21.16
222.887	44.37
223.105	-23.21
223.323	30.04
223.541	13.65
223.759	34.13
223.977	66.9
224.195	32.08
224.413	-33.45
224.631	38.23
224.849	62.8
225.067	23.89
225.285	-2.73
225.503	-53.93
225.721	-25.26
225.939	-33.45
226.157	81.24
226.375	103.76
226.592	52.56
226.81	21.85
227.028	7.51
227.246	85.33
227.464	42.32
227.682	23.89
227.9	-6.83
228.117	3.41
228.335	3.41
228.553	-8.87
228.771	68.95
228.989	101.72
229.206	48.47
229.424	48.47
229.642	50.52
229.86	-27.31
230.077	71
230.295	48.47
230.513	75.09
230.731	15.7
230.948	89.43
231.166	44.37
231.384	64.85
231.601	-19.11
231.819	34.13
232.037	46.42
232.254	13.65
232.472	-2.73
232.689	66.9
232.907	38.23
233.125	116.05
233.342	13.65
233.56	27.99
233.777	-41.64
233.995	-27.31
234.213	27.99
234.43	15.7
234.648	34.13
234.865	-6.83
235.083	52.56
235.3	73.04
235.518	34.13
235.735	-45.74
235.953	68.95
236.17	42.32
236.388	19.8
236.605	-33.45
236.822	-2.73
237.04	75.09
237.257	25.94
237.475	-29.35
237.692	3.41
237.909	13.65
238.127	62.8
238.344	46.42
238.562	13.65
238.779	-49.83
238.996	-15.02
239.214	46.42
239.431	30.04
239.648	-6.83
239.865	81.24
240.083	-4.78
240.3	44.37
240.517	-15.02
240.735	3.41
240.952	58.71
241.169	75.09
241.386	-12.97
241.603	56.66
241.821	3.41
242.038	1.37
242.255	-4.78
242.472	-19.11
242.689	46.42
242.907	46.42
243.124	21.85
243.341	77.14
243.558	-21.16
243.775	-12.97
243.992	-53.93
244.209	19.8
244.426	56.66
244.643	46.42
244.86	-17.07
245.078	46.42
245.295	9.56
245.512	40.28
245.729	27.99
245.946	50.52
246.163	3.41
246.38	64.85
246.597	23.89
246.814	7.51
247.031	-27.31
247.248	11.61
247.464	-6.83
247.681	-27.31
247.898	42.32
248.115	46.42
248.332	-2.73
248.549	38.23
248.766	30.04
248.983	77.14
249.2	23.89
249.417	15.7
249.633	38.23
249.85	-6.83
250.067	1.37
250.284	46.42
250.501	5.46
250.717	15.7
250.934	44.37
251.151	95.57
251.368	52.56
251.585	21.85
251.801	27.99
252.018	68.95
252.235	3.41
252.451	1.37
252.668	38.23
252.885	32.08
253.102	48.47
253.318	79.19
253.535	81.24
253.752	-10.92
253.968	-41.64
254.185	68.95
254.401	62.8
254.618	5.46
254.835	58.71
255.051	46.42
255.268	44.37
255.484	89.43
255.701	32.08
255.917	36.18
256.134	-60.07
256.351	-12.97
256.567	3.41
256.784	66.9
257	-27.31
257.217	50.52
257.433	32.08
257.65	46.42
257.866	19.8
258.082	1.37
258.299	-6.83
258.515	27.99
258.732	1.37
258.948	11.61
259.165	48.47
259.381	5.46
259.597	58.71
259.814	-19.11
260.03	54.61
260.246	111.96
260.463	111.96
260.679	34.13
260.895	25.94
261.112	56.66
261.328	3.41
261.544	-47.79
261.761	81.24
261.977	27.99
262.193	30.04
262.409	105.81
262.626	-41.64
262.842	9.56
263.058	23.89
263.274	9.56
263.49	-27.31
263.707	5.46
263.923	-2.73
264.139	-103.08
264.355	19.8
264.571	48.47
264.787	52.56
265.004	64.85
265.22	62.8
265.436	40.28
265.652	32.08
265.868	42.32
266.084	-25.26
266.3	1.37
266.516	-23.21
266.732	105.81
266.948	17.75
267.164	91.48
267.38	13.65
267.596	62.8
267.812	66.9
268.028	36.18
268.244	38.23
268.46	58.71
268.676	-6.83
268.892	58.71
269.108	-49.83
269.324	19.8
269.54	11.61
269.756	44.37
269.972	54.61
270.188	114
270.403	11.61
270.619	-10.92
270.835	32.08
271.051	77.14
271.267	42.32
271.483	-15.02
271.698	32.08
271.914	3.41
272.13	44.37
272.346	56.66
272.562	34.13
272.777	95.57
272.993	-17.07
273.209	3.41
273.425	48.47
273.64	44.37
273.856	66.9
274.072	-23.21
274.287	15.7
274.503	52.56
274.719	-10.92
274.934	93.52
275.15	-27.31
275.366	71
275.581	126.29
275.797	44.37
276.012	58.71
276.228	46.42
276.444	25.94
276.659	62.8
276.875	-10.92
277.09	85.33
277.306	46.42
277.521	56.66
277.737	-33.45
277.952	32.08
278.168	62.8
278.383	-31.4
278.599	7.51
278.814	30.04
279.03	60.76
279.245	136.53
279.461	109.91
279.676	89.43
279.892	23.89
280.107	-2.73
280.322	42.32
280.538	34.13
280.753	85.33
280.969	66.9
281.184	58.71
281.399	144.72
281.615	-2.73
281.83	83.28
282.045	7.51
282.26	66.9
282.476	13.65
282.691	114
282.906	-15.02
283.122	36.18
283.337	89.43
283.552	60.76
283.767	25.94
283.983	27.99
284.198	50.52
284.413	-0.68
284.628	15.7
284.843	62.8
285.058	54.61
285.274	42.32
285.489	46.42
285.704	52.56
285.919	21.85
286.134	34.13
286.349	58.71
286.564	-0.68
286.779	15.7
286.995	40.28
287.21	-49.83
287.425	48.47
287.64	21.85
287.855	1.37
288.07	62.8
288.285	81.24
288.5	52.56
288.715	3.41
288.93	17.75
289.145	19.8
289.36	52.56
289.575	81.24
289.79	15.7
290.004	32.08
290.219	46.42
290.434	-37.55
290.649	97.62
290.864	81.24
291.079	23.89
291.294	27.99
291.509	9.56
291.724	-47.79
291.938	13.65
292.153	46.42
292.368	54.61
292.583	11.61
292.798	46.42
293.012	77.14
293.227	15.7
293.442	91.48
293.657	-10.92
293.871	36.18
294.086	40.28
294.301	-0.68
294.516	36.18
294.73	7.51
294.945	23.89
295.16	79.19
295.374	34.13
295.589	42.32
295.804	32.08
296.018	5.46
296.233	44.37
296.447	85.33
296.662	62.8
296.877	11.61
297.091	-21.16
297.306	23.89
297.52	64.85
297.735	-62.12
297.949	34.13
298.164	73.04
298.378	-23.21
298.593	48.47
298.807	105.81
299.022	64.85
299.236	101.72
299.451	-58.03
299.665	83.28
299.88	103.76
300.094	38.23
300.309	-27.31
300.523	54.61
300.737	44.37
300.952	89.43
301.166	-15.02
301.381	19.8
301.595	62.8
301.809	118.1
302.024	-6.83
302.238	-39.59
302.452	23.89
302.667	56.66
302.881	34.13
303.095	44.37
303.309	40.28
303.524	46.42
303.738	-4.78
303.952	71
304.166	13.65
304.381	-58.03
304.595	144.72
304.809	36.18
305.023	56.66
305.237	9.56
305.452	50.52
305.666	54.61
305.88	97.62
306.094	13.65
306.308	-35.5
306.522	87.38
306.736	75.09
306.95	42.32
307.164	79.19
307.379	50.52
307.593	56.66
307.807	21.85
308.021	15.7
308.235	48.47
308.449	1.37
308.663	11.61
308.877	-37.55
309.091	27.99
309.305	30.04
309.519	15.7
309.733	75.09
309.947	71
310.161	56.66
310.374	1.37
310.588	62.8
310.802	-8.87
311.016	7.51
311.23	19.8
311.444	46.42
311.658	7.51
311.872	27.99
312.085	52.56
312.299	58.71
312.513	42.32
312.727	97.62
312.941	5.46
313.154	128.34
313.368	38.23
313.582	23.89
313.796	23.89
314.009	34.13
314.223	13.65
314.437	75.09
314.651	50.52
314.864	38.23
315.078	64.85
315.292	66.9
315.505	-0.68
315.719	118.1
315.933	68.95
316.146	58.71
316.36	27.99
316.573	116.05
316.787	50.52
317.001	13.65
317.214	7.51
317.428	19.8
317.641	34.13
317.855	116.05
318.068	46.42
318.282	-25.26
318.495	128.34
318.709	23.89
318.922	1.37
319.136	75.09
319.349	40.28
319.563	101.72
319.776	13.65
319.99	73.04
320.203	36.18
320.417	27.99
320.63	66.9
320.843	64.85
321.057	40.28
321.27	36.18
321.483	42.32
321.697	52.56
321.91	25.94
322.124	40.28
322.337	27.99
322.55	126.29
322.763	73.04
322.977	50.52
323.19	62.8
323.403	71
323.617	71
323.83	36.18
324.043	15.7
324.256	52.56
324.469	17.75
324.683	25.94
324.896	-31.4
325.109	79.19
325.322	-4.78
325.535	73.04
325.748	71
325.962	44.37
326.175	89.43
326.388	27.99
326.601	-4.78
326.814	-8.87
327.027	60.76
327.24	56.66
327.453	44.37
327.666	66.9
327.879	161.11
328.092	81.24
328.305	30.04
328.518	25.94
328.731	79.19
328.944	87.38
329.157	136.53
329.37	71
329.583	79.19
329.796	77.14
330.009	34.13
330.222	17.75
330.435	5.46
330.648	62.8
330.861	56.66
331.073	54.61
331.286	13.65
331.499	48.47
331.712	3.41
331.925	30.04
332.138	32.08
332.35	34.13
332.563	-21.16
332.776	64.85
332.989	54.61
333.202	40.28
333.414	132.44
333.627	66.9
333.84	-0.68
334.053	79.19
334.265	34.13
334.478	-19.11
334.691	-23.21
334.903	-4.78
335.116	89.43
335.329	13.65
335.541	111.96
335.754	169.3
335.966	75.09
336.179	42.32
336.392	1.37
336.604	3.41
336.817	54.61
337.029	101.72
337.242	23.89
337.454	23.89
337.667	42.32
337.88	-27.31
338.092	30.04
338.305	50.52
338.517	38.23
338.729	126.29
338.942	30.04
339.154	42.32
339.367	34.13
339.579	62.8
339.792	56.66
340.004	44.37
340.217	11.61
340.429	79.19
340.641	-33.45
340.854	71
341.066	66.9
341.278	50.52
341.491	7.51
341.703	38.23
341.915	73.04
342.128	46.42
342.34	23.89
342.552	7.51
342.764	1.37
342.977	1.37
343.189	-12.97
343.401	30.04
343.613	52.56
343.826	54.61
344.038	-12.97
344.25	9.56
344.462	19.8
344.674	25.94
344.886	46.42
345.099	52.56
345.311	111.96
345.523	93.52
345.735	-4.78
345.947	46.42
346.159	71
346.371	-2.73
346.583	25.94
346.795	103.76
347.007	58.71
347.219	50.52
347.431	-72.36
347.643	95.57
347.855	62.8
348.067	73.04
348.279	87.38
348.491	27.99
348.703	-0.68
348.915	79.19
349.127	13.65
349.339	17.75
349.551	52.56
349.763	7.51
349.975	38.23
350.187	23.89
350.399	126.29
350.61	60.76
350.822	-15.02
351.034	46.42
351.246	11.61
351.458	75.09
351.669	107.86
351.881	38.23
352.093	25.94
352.305	89.43
352.517	50.52
352.728	21.85
352.94	66.9
353.152	71
353.363	-6.83
353.575	58.71
353.787	66.9
353.999	73.04
354.21	42.32
354.422	36.18
354.633	54.61
354.845	32.08
355.057	36.18
355.268	64.85
355.48	71
355.692	-2.73
355.903	-4.78
356.115	40.28
356.326	91.48
356.538	109.91
356.749	66.9
356.961	40.28
357.172	114
357.384	36.18
357.595	54.61
357.807	-8.87
358.018	87.38
358.23	15.7
358.441	124.24
358.653	111.96
358.864	52.56
359.075	75.09
359.287	64.85
359.498	75.09
359.709	103.76
359.921	77.14
360.132	68.95
360.344	19.8
360.555	-15.02
360.766	114
360.977	3.41
361.189	79.19
361.4	114
361.611	73.04
361.823	5.46
362.034	71
362.245	58.71
362.456	95.57
362.667	64.85
362.879	30.04
363.09	19.8
363.301	27.99
363.512	89.43
363.723	54.61
363.935	19.8
364.146	66.9
364.357	58.71
364.568	42.32
364.779	27.99
364.99	159.06
365.201	81.24
365.412	23.89
365.623	36.18
365.834	97.62
366.045	-6.83
366.256	93.52
366.467	116.05
366.678	34.13
366.889	64.85
367.1	68.95
367.311	23.89
367.522	79.19
367.733	46.42
367.944	38.23
368.155	105.81
368.366	73.04
368.577	81.24
368.788	30.04
368.999	62.8
369.209	30.04
369.42	38.23
369.631	64.85
369.842	103.76
370.053	58.71
370.264	122.2
370.474	19.8
370.685	91.48
370.896	68.95
371.107	97.62
371.317	38.23
371.528	34.13
371.739	142.68
371.95	30.04
372.16	62.8
372.371	130.39
372.582	89.43
372.792	66.9
373.003	85.33
373.214	56.66
373.424	54.61
373.635	99.67
373.846	91.48
374.056	9.56
374.267	75.09
374.477	-4.78
374.688	17.75
374.898	64.85
375.109	52.56
375.319	48.47
375.53	64.85
375.74	71
375.951	73.04
376.161	30.04
376.372	38.23
376.582	44.37
376.793	77.14
377.003	-0.68
377.214	23.89
377.424	83.28
377.635	79.19
377.845	85.33
378.055	91.48
378.266	64.85
378.476	81.24
378.686	54.61
378.897	71
379.107	105.81
379.317	73.04
379.528	17.75
379.738	105.81
379.948	40.28
380.158	34.13
380.369	46.42
380.579	46.42
380.789	-10.92
380.999	97.62
381.21	34.13
381.42	111.96
381.63	19.8
381.84	77.14
382.05	44.37
382.261	130.39
382.471	122.2
382.681	21.85
382.891	62.8
383.101	58.71
383.311	1.37
383.521	34.13
383.731	114
383.941	79.19
384.151	56.66
384.361	36.18
384.571	73.04
384.781	124.24
384.991	89.43
385.201	13.65
385.411	95.57
385.621	83.28
385.831	105.81
386.041	48.47
386.251	81.24
386.461	62.8
386.671	9.56
386.881	62.8
387.091	75.09
387.301	83.28
387.511	36.18
387.72	89.43
387.93	13.65
388.14	75.09
388.35	48.47
388.56	64.85
388.769	32.08
388.979	73.04
389.189	25.94
389.399	21.85
389.609	107.86
389.818	27.99
390.028	13.65
390.238	30.04
390.447	99.67
390.657	73.04
390.867	52.56
391.076	91.48
391.286	111.96
391.496	62.8
391.705	109.91
391.915	91.48
392.125	140.63
392.334	44.37
392.544	83.28
392.753	46.42
392.963	73.04
393.172	83.28
393.382	66.9
393.591	25.94
393.801	89.43
394.01	56.66
394.22	130.39
394.429	64.85
394.639	107.86
394.848	66.9
395.058	132.44
395.267	93.52
395.477	105.81
395.686	103.76
395.895	136.53
396.105	116.05
396.314	91.48
396.524	105.81
396.733	34.13
396.942	122.2
397.152	81.24
397.361	71
397.57	120.15
397.78	177.49
397.989	138.58
398.198	193.87
398.407	25.94
398.617	154.96
398.826	144.72
399.035	120.15
399.244	85.33
399.453	103.76
399.663	71
399.872	197.97
400.081	64.85
400.29	101.72
400.499	50.52
400.708	165.2
400.917	114
401.127	173.39
401.336	134.48
401.545	232.79
401.754	189.78
401.963	99.67
402.172	146.77
402.381	146.77
402.59	148.82
402.799	130.39
403.008	95.57
403.217	120.15
403.426	193.87
403.635	202.07
403.844	152.92
404.053	267.6
404.262	154.96
404.471	240.98
404.68	152.92
404.888	146.77
405.097	165.2
405.306	138.58
405.515	226.64
405.724	212.31
405.933	181.59
406.142	210.26
406.35	167.25
406.559	183.63
406.768	189.78
406.977	271.7
407.185	212.31
407.394	259.41
407.603	259.41
407.812	253.27
408.02	329.04
408.229	308.56
408.438	228.69
408.646	240.98
408.855	329.04
409.064	345.42
409.272	320.85
409.481	333.14
409.69	421.2
409.898	367.95
410.107	396.62
410.315	324.94
410.524	443.73
410.733	394.58
410.941	390.48
411.15	472.4
411.358	441.68
411.567	634.19
411.775	503.12
411.984	580.94
412.192	566.6
412.401	515.41
412.609	539.98
412.818	671.05
413.026	619.85
413.234	705.87
413.443	664.91
413.651	720.2
413.86	699.72
414.068	789.83
414.276	791.88
414.485	771.4
414.693	849.22
414.901	904.52
415.11	863.56
415.318	935.24
415.526	939.34
415.734	980.29
415.943	955.72
416.151	1168.71
416.359	1008.97
416.567	1137.99
416.776	1164.61
416.984	1324.35
417.192	1246.53
417.4	1334.59
417.608	1324.35
417.817	1355.07
418.025	1320.26
418.233	1606.97
418.441	1555.77
418.649	1592.64
418.857	1697.08
419.065	1725.76
419.273	1762.62
419.481	1807.67
419.689	1819.96
419.897	1922.36
420.105	2026.81
420.313	2121.01
420.521	2127.16
420.729	2258.23
420.937	2362.67
421.145	2288.95
421.353	2479.41
421.561	2645.29
421.769	2678.06
421.977	2757.93
422.185	2757.93
422.393	2872.62
422.601	3030.31
422.809	3134.76
423.017	3001.64
423.224	3181.86
423.432	3431.71
423.64	3173.67
423.848	3706.14
424.056	3530.02
424.263	3820.83
424.471	3749.15
424.679	4011.29
424.887	4144.41
425.094	4181.27
425.302	4191.51
425.51	4398.35
425.718	4574.48
425.925	4500.75
426.133	4922.63
426.341	5072.14
426.548	5231.88
426.756	5258.5
426.964	5276.93
427.171	5809.4
427.379	5813.5
427.586	5817.6
427.794	6016.25
428.001	6388.98
428.209	6683.89
428.417	6706.41
428.624	6943.98
428.832	7013.61
429.039	7009.51
429.247	6993.13
429.454	7677.15
429.662	8121.56
429.869	7576.8
430.076	8250.58
430.284	7884
430.491	8254.68
430.699	8660.18
430.906	8942.8
431.114	8996.04
431.321	9190.6
431.528	9315.53
431.736	10087.61
431.943	10417.33
432.15	10122.43
432.358	10276.02
432.565	10675.38
432.772	11021.49
432.979	11111.6
433.187	11515.05
433.394	11521.19
433.601	12475.54
433.808	12473.49
434.016	12344.47
434.223	12823.7
434.43	13636.74
434.637	13438.09
434.844	14347.39
435.052	14382.2
435.259	14398.59
435.466	14476.41
435.673	14484.6
435.88	15412.33
436.087	16100.45
436.294	16125.02
436.501	15684.71
436.708	16088.16
436.915	16630.87
437.122	17325.13
437.329	17339.47
437.537	18050.11
437.743	18101.31
437.95	17810.5
438.157	19225.65
438.364	19414.06
438.571	19686.44
438.778	19414.06
438.985	21349.39
439.192	20638.75
439.399	21343.25
439.606	20706.33
439.813	22080.52
440.02	23307.25
440.227	22852.6
440.433	22842.36
440.64	23497.71
440.847	23299.06
441.054	24114.15
441.261	25164.76
441.467	25043.93
441.674	25455.57
441.881	26612.67
442.088	26188.74
442.294	26117.06
442.501	26901.43
442.708	27505.59
442.914	28603.3
443.121	29903.76
443.328	28943.26
443.534	30972.8
443.741	29838.22
443.948	29760.4
444.154	31890.29
444.361	31564.66
444.568	31667.06
444.774	31931.25
444.981	32111.47
445.187	32918.37
445.394	34577.22
445.6	34255.69
445.807	37169.95
446.013	35775.28
446.22	36477.74
446.426	37557.02
446.633	37845.78
446.839	39250.69
447.046	37704.47
447.252	39629.56
447.459	39783.16
447.665	39230.21
447.871	41368.29
448.078	43250.37
448.284	41216.74
448.491	42044.12
448.697	43715.26
448.903	44415.66
449.11	44616.36
449.316	44057.27
449.522	44626.6
449.728	45689.5
449.935	45841.05
450.141	46402.19
450.347	46740.11
450.553	45669.02
450.76	46391.95
450.966	47762.04
451.172	46682.76
451.378	47903.35
451.584	47207.04
451.791	48212.6
451.997	48343.67
452.203	48532.08
452.409	48880.24
452.615	48368.24
452.821	46525.07
453.027	46508.69
453.233	48788.08
453.44	46803.6
453.646	47393.41
453.852	47698.56
454.058	48317.04
454.264	46500.5
454.47	47366.79
454.676	46467.73
454.882	47936.12
455.088	43926.2
455.294	44563.12
455.5	44812.97
455.705	45492.9
455.911	43682.49
456.117	42611.4
456.323	42054.36
456.529	39781.11
456.735	41798.36
456.941	40794.85
457.147	39955.19
457.352	39179.01
457.558	38482.7
457.764	38312.72
457.97	37567.26
458.176	37071.65
458.381	36856.61
458.587	34544.45
458.793	35294.01
458.999	32754.53
459.204	35691.32
459.41	34374.47
459.616	32043.88
459.821	32058.22
460.027	31525.75
460.233	31525.75
460.438	29787.02
460.644	30329.73
460.85	29170.58
461.055	28464.03
461.261	28328.87
461.466	26244.04
461.672	25265.11
461.878	27159.48
462.083	25367.51
462.289	24943.58
462.494	24654.81
462.7	23593.97
462.905	22811.64
463.111	23532.53
463.316	23815.15
463.522	23143.41
463.727	23440.37
463.932	23307.25
464.138	23112.69
464.343	23098.36
464.549	22254.59
464.754	23532.53
464.959	23237.62
465.165	22891.51
465.37	22139.91
465.575	21502.99
465.781	22088.71
465.986	22414.34
466.191	21672.97
466.397	21074.96
466.602	20282.4
466.807	20737.05
467.012	20864.02
467.218	20712.47
467.423	20368.41
467.628	20603.93
467.833	21490.7
468.038	20970.52
468.244	20145.19
468.449	20962.33
