Data from USB4F104151__59__12-01-45-629.txt Node

Date: Fri Mar 14 12:01:45 EDT 2025
User: louis
Spectrometer: USB4F10415
Trigger mode: 4
Integration Time (sec): 2.000000E-2
Scans to average: 1
Electric dark correction enabled: true
Nonlinearity correction enabled: false
Boxcar width: 0
XAxis mode: Wavelengths
Number of Pixels in Spectrum: 3648
>>>>>Begin Spectral Data<<<<<
178.204	-47.27
178.424	-47.27
178.644	-47.27
178.864	-61.61
179.084	-59.56
179.304	-6.31
179.524	28.5
179.744	-37.03
179.964	51.03
180.184	24.4
180.404	-6.31
180.624	24.4
180.844	-10.41
181.064	-131.24
181.283	63.32
181.503	22.36
181.723	-22.7
181.943	-51.37
182.163	38.74
182.383	-8.36
182.602	104.28
182.822	-10.41
183.042	-0.17
183.262	-41.13
183.482	14.17
183.701	14.17
183.921	-20.65
184.141	22.36
184.361	71.51
184.58	44.88
184.8	18.26
185.02	48.98
185.239	53.08
185.459	-32.94
185.679	14.17
185.898	-30.89
186.118	59.22
186.338	40.79
186.557	-12.46
186.777	20.31
186.997	-6.31
187.216	-20.65
187.436	-8.36
187.655	94.04
187.875	16.21
188.095	-2.22
188.314	-20.65
188.534	8.02
188.753	-8.36
188.973	28.5
189.192	10.07
189.412	36.69
189.631	3.93
189.851	34.64
190.07	110.42
190.29	-12.46
190.509	106.32
190.729	-0.17
190.948	22.36
191.168	122.71
191.387	10.07
191.607	46.93
191.826	-2.22
192.045	-37.03
192.265	-2.22
192.484	38.74
192.704	-8.36
192.923	-20.65
193.142	-12.46
193.362	3.93
193.581	10.07
193.8	22.36
194.02	81.75
194.239	46.93
194.458	38.74
194.678	100.18
194.897	42.84
195.116	-4.27
195.335	-37.03
195.555	14.17
195.774	48.98
195.993	48.98
196.212	61.27
196.432	-41.13
196.651	16.21
196.87	65.36
197.089	3.93
197.308	-22.7
197.528	-55.47
197.747	-47.27
197.966	55.12
198.185	104.28
198.404	-2.22
198.623	10.07
198.842	32.6
199.062	38.74
199.281	89.94
199.5	36.69
199.719	3.93
199.938	42.84
200.157	57.17
200.376	-4.27
200.595	-0.17
200.814	8.02
201.033	5.97
201.252	20.31
201.471	-24.75
201.69	36.69
201.909	61.27
202.128	14.17
202.347	-4.27
202.566	46.93
202.785	-2.22
203.004	-39.08
203.223	24.4
203.442	61.27
203.661	14.17
203.879	-16.55
204.098	38.74
204.317	-10.41
204.536	36.69
204.755	67.41
204.974	79.7
205.193	55.12
205.411	46.93
205.63	94.04
205.849	-0.17
206.068	12.12
206.287	-39.08
206.505	48.98
206.724	14.17
206.943	57.17
207.162	12.12
207.381	96.08
207.599	40.79
207.818	5.97
208.037	-24.75
208.255	34.64
208.474	10.07
208.693	55.12
208.911	55.12
209.13	-26.79
209.349	-16.55
209.567	59.22
209.786	32.6
210.005	16.21
210.223	36.69
210.442	-47.27
210.661	-10.41
210.879	24.4
211.098	24.4
211.316	-57.51
211.535	-18.6
211.753	24.4
211.972	96.08
212.191	48.98
212.409	24.4
212.628	1.88
212.846	-2.22
213.065	34.64
213.283	61.27
213.502	-0.17
213.72	8.02
213.938	14.17
214.157	36.69
214.375	100.18
214.594	24.4
214.812	65.36
215.031	12.12
215.249	73.56
215.467	18.26
215.686	-43.18
215.904	30.55
216.122	32.6
216.341	-20.65
216.559	-51.37
216.778	118.61
216.996	1.88
217.214	10.07
217.432	-14.51
217.651	89.94
217.869	57.17
218.087	-26.79
218.306	16.21
218.524	120.66
218.742	-39.08
218.96	22.36
219.179	3.93
219.397	71.51
219.615	36.69
219.833	18.26
220.051	-8.36
220.27	36.69
220.488	-16.55
220.706	22.36
220.924	5.97
221.142	18.26
221.36	12.12
221.578	30.55
221.796	-10.41
222.015	61.27
222.233	30.55
222.451	44.88
222.669	-49.32
222.887	57.17
223.105	5.97
223.323	24.4
223.541	12.12
223.759	30.55
223.977	12.12
224.195	-2.22
224.413	100.18
224.631	5.97
224.849	42.84
225.067	165.71
225.285	-20.65
225.503	77.65
225.721	-34.99
225.939	67.41
226.157	8.02
226.375	87.89
226.592	-26.79
226.81	10.07
227.028	51.03
227.246	32.6
227.464	5.97
227.682	40.79
227.9	71.51
228.117	32.6
228.335	-0.17
228.553	5.97
228.771	1.88
228.989	-0.17
229.206	65.36
229.424	-45.23
229.642	-0.17
229.86	26.45
230.077	75.6
230.295	-8.36
230.513	71.51
230.731	57.17
230.948	1.88
231.166	28.5
231.384	20.31
231.601	44.88
231.819	8.02
232.037	5.97
232.254	-77.99
232.472	48.98
232.689	20.31
232.907	65.36
233.125	3.93
233.342	-45.23
233.56	-20.65
233.777	-16.55
233.995	1.88
234.213	30.55
234.43	42.84
234.648	-6.31
234.865	-12.46
235.083	18.26
235.3	110.42
235.518	55.12
235.735	46.93
235.953	94.04
236.17	53.08
236.388	-34.99
236.605	18.26
236.822	55.12
237.04	-14.51
237.257	30.55
237.475	-18.6
237.692	57.17
237.909	-63.66
238.127	87.89
238.344	53.08
238.562	53.08
238.779	-24.75
238.996	3.93
239.214	14.17
239.431	83.8
239.648	8.02
239.865	-2.22
240.083	1.88
240.3	46.93
240.517	-65.71
240.735	-26.79
240.952	36.69
241.169	26.45
241.386	34.64
241.603	32.6
241.821	-110.76
242.038	10.07
242.255	-0.17
242.472	-53.42
242.689	-2.22
242.907	28.5
243.124	3.93
243.341	61.27
243.558	-0.17
243.775	28.5
243.992	-73.9
244.209	75.6
244.426	63.32
244.643	122.71
244.86	1.88
245.078	-28.84
245.295	53.08
245.512	42.84
245.729	-0.17
245.946	-22.7
246.163	22.36
246.38	-6.31
246.597	10.07
246.814	16.21
247.031	46.93
247.248	-45.23
247.464	75.6
247.681	16.21
247.898	20.31
248.115	83.8
248.332	42.84
248.549	120.66
248.766	71.51
248.983	114.52
249.2	51.03
249.417	114.52
249.633	-30.89
249.85	34.64
250.067	42.84
250.284	42.84
250.501	61.27
250.717	98.13
250.934	65.36
251.151	26.45
251.368	10.07
251.585	81.75
251.801	114.52
252.018	32.6
252.235	63.32
252.451	28.5
252.668	-4.27
252.885	67.41
253.102	63.32
253.318	65.36
253.535	5.97
253.752	-12.46
253.968	55.12
254.185	24.4
254.401	30.55
254.618	69.46
254.835	-30.89
255.051	89.94
255.268	16.21
255.484	30.55
255.701	14.17
255.917	98.13
256.134	-20.65
256.351	-6.31
256.567	-18.6
256.784	-24.75
257	-0.17
257.217	57.17
257.433	14.17
257.65	30.55
257.866	34.64
258.082	24.4
258.299	38.74
258.515	79.7
258.732	12.12
258.948	-26.79
259.165	46.93
259.381	-30.89
259.597	-28.84
259.814	24.4
260.03	3.93
260.246	55.12
260.463	-12.46
260.679	53.08
260.895	63.32
261.112	28.5
261.328	63.32
261.544	14.17
261.761	94.04
261.977	8.02
262.193	18.26
262.409	-2.22
262.626	98.13
262.842	8.02
263.058	34.64
263.274	30.55
263.49	-16.55
263.707	30.55
263.923	-37.03
264.139	-16.55
264.355	46.93
264.571	26.45
264.787	44.88
265.004	-10.41
265.22	-41.13
265.436	14.17
265.652	-49.32
265.868	28.5
266.084	12.12
266.3	24.4
266.516	8.02
266.732	-10.41
266.948	85.84
267.164	16.21
267.38	38.74
267.596	-0.17
267.812	24.4
268.028	77.65
268.244	44.88
268.46	12.12
268.676	65.36
268.892	3.93
269.108	20.31
269.324	-30.89
269.54	-22.7
269.756	87.89
269.972	-37.03
270.188	28.5
270.403	-20.65
270.619	79.7
270.835	24.4
271.051	12.12
271.267	-55.47
271.483	3.93
271.698	-51.37
271.914	104.28
272.13	8.02
272.346	69.46
272.562	-16.55
272.777	59.22
272.993	-30.89
273.209	34.64
273.425	-10.41
273.64	3.93
273.856	69.46
274.072	26.45
274.287	59.22
274.503	-53.42
274.719	-8.36
274.934	71.51
275.15	-22.7
275.366	65.36
275.581	44.88
275.797	-4.27
276.012	24.4
276.228	22.36
276.444	40.79
276.659	40.79
276.875	28.5
277.09	16.21
277.306	-8.36
277.521	30.55
277.737	-8.36
277.952	3.93
278.168	42.84
278.383	-32.94
278.599	34.64
278.814	55.12
279.03	71.51
279.245	67.41
279.461	-8.36
279.676	67.41
279.892	20.31
280.107	5.97
280.322	30.55
280.538	46.93
280.753	44.88
280.969	-0.17
281.184	28.5
281.399	67.41
281.615	-24.75
281.83	83.8
282.045	5.97
282.26	-14.51
282.476	42.84
282.691	22.36
282.906	26.45
283.122	145.24
283.337	20.31
283.552	-26.79
283.767	1.88
283.983	-0.17
284.198	-43.18
284.413	26.45
284.628	-37.03
284.843	8.02
285.058	71.51
285.274	-28.84
285.489	-28.84
285.704	-73.9
285.919	-61.61
286.134	85.84
286.349	91.99
286.564	-8.36
286.779	1.88
286.995	79.7
287.21	26.45
287.425	51.03
287.64	73.56
287.855	46.93
288.07	40.79
288.285	83.8
288.5	-4.27
288.715	108.37
288.93	-14.51
289.145	26.45
289.36	38.74
289.575	-39.08
289.79	-32.94
290.004	-10.41
290.219	26.45
290.434	-2.22
290.649	75.6
290.864	14.17
291.079	24.4
291.294	53.08
291.509	1.88
291.724	-18.6
291.938	3.93
292.153	73.56
292.368	24.4
292.583	44.88
292.798	36.69
293.012	-0.17
293.227	83.8
293.442	20.31
293.657	34.64
293.871	79.7
294.086	-0.17
294.301	5.97
294.516	55.12
294.73	55.12
294.945	8.02
295.16	46.93
295.374	102.23
295.589	44.88
295.804	30.55
296.018	14.17
296.233	18.26
296.447	30.55
296.662	10.07
296.877	46.93
297.091	108.37
297.306	81.75
297.52	44.88
297.735	-4.27
297.949	-2.22
298.164	-6.31
298.378	16.21
298.593	-12.46
298.807	108.37
299.022	40.79
299.236	83.8
299.451	48.98
299.665	30.55
299.88	98.13
300.094	57.17
300.309	10.07
300.523	-45.23
300.737	-6.31
300.952	81.75
301.166	16.21
301.381	53.08
301.595	69.46
301.809	-0.17
302.024	8.02
302.238	48.98
302.452	59.22
302.667	16.21
302.881	130.9
303.095	77.65
303.309	73.56
303.524	-37.03
303.738	-75.95
303.952	-12.46
304.166	71.51
304.381	-28.84
304.595	114.52
304.809	51.03
305.023	32.6
305.237	-4.27
305.452	34.64
305.666	77.65
305.88	42.84
306.094	73.56
306.308	1.88
306.522	51.03
306.736	40.79
306.95	26.45
307.164	1.88
307.379	26.45
307.593	71.51
307.807	26.45
308.021	18.26
308.235	-16.55
308.449	57.17
308.663	18.26
308.877	106.32
309.091	16.21
309.305	91.99
309.519	38.74
309.733	94.04
309.947	-30.89
310.161	46.93
310.374	44.88
310.588	91.99
310.802	-18.6
311.016	59.22
311.23	10.07
311.444	38.74
311.658	32.6
311.872	-0.17
312.085	16.21
312.299	40.79
312.513	-22.7
312.727	-18.6
312.941	32.6
313.154	-22.7
313.368	26.45
313.582	-20.65
313.796	14.17
314.009	5.97
314.223	61.27
314.437	102.23
314.651	12.12
314.864	46.93
315.078	26.45
315.292	34.64
315.505	18.26
315.719	42.84
315.933	32.6
316.146	30.55
316.36	75.6
316.573	118.61
316.787	40.79
317.001	34.64
317.214	42.84
317.428	55.12
317.641	18.26
317.855	-4.27
318.068	61.27
318.282	18.26
318.495	63.32
318.709	77.65
318.922	28.5
319.136	-24.75
319.349	36.69
319.563	79.7
319.776	67.41
319.99	-51.37
320.203	63.32
320.417	141.14
320.63	28.5
320.843	38.74
321.057	20.31
321.27	10.07
321.483	-49.32
321.697	36.69
321.91	26.45
322.124	-8.36
322.337	44.88
322.55	-2.22
322.763	-20.65
322.977	59.22
323.19	3.93
323.403	51.03
323.617	44.88
323.83	81.75
324.043	141.14
324.256	32.6
324.469	-18.6
324.683	-16.55
324.896	20.31
325.109	77.65
325.322	-22.7
325.535	98.13
325.748	-4.27
325.962	24.4
326.175	5.97
326.388	81.75
326.601	36.69
326.814	65.36
327.027	42.84
327.24	65.36
327.453	-8.36
327.666	28.5
327.879	24.4
328.092	118.61
328.305	3.93
328.518	8.02
328.731	28.5
328.944	71.51
329.157	-12.46
329.37	48.98
329.583	44.88
329.796	59.22
330.009	112.47
330.222	122.71
330.435	20.31
330.648	63.32
330.861	-16.55
331.073	71.51
331.286	53.08
331.499	118.61
331.712	24.4
331.925	59.22
332.138	61.27
332.35	59.22
332.563	59.22
332.776	46.93
332.989	30.55
333.202	-18.6
333.414	1.88
333.627	24.4
333.84	-26.79
334.053	-20.65
334.265	51.03
334.478	71.51
334.691	1.88
334.903	120.66
335.116	-18.6
335.329	34.64
335.541	24.4
335.754	96.08
335.966	-51.37
336.179	73.56
336.392	51.03
336.604	87.89
336.817	122.71
337.029	53.08
337.242	75.6
337.454	51.03
337.667	28.5
337.88	10.07
338.092	10.07
338.305	81.75
338.517	51.03
338.729	108.37
338.942	67.41
339.154	89.94
339.367	-59.56
339.579	40.79
339.792	-45.23
340.004	102.23
340.217	91.99
340.429	67.41
340.641	36.69
340.854	46.93
341.066	-39.08
341.278	73.56
341.491	81.75
341.703	38.74
341.915	51.03
342.128	38.74
342.34	81.75
342.552	32.6
342.764	-16.55
342.977	14.17
343.189	10.07
343.401	-22.7
343.613	26.45
343.826	67.41
344.038	-10.41
344.25	87.89
344.462	40.79
344.674	-30.89
344.886	71.51
345.099	-16.55
345.311	36.69
345.523	36.69
345.735	30.55
345.947	3.93
346.159	75.6
346.371	5.97
346.583	8.02
346.795	53.08
347.007	57.17
347.219	53.08
347.431	87.89
347.643	83.8
347.855	51.03
348.067	30.55
348.279	73.56
348.491	77.65
348.703	26.45
348.915	38.74
349.127	8.02
349.339	14.17
349.551	1.88
349.763	48.98
349.975	8.02
350.187	94.04
350.399	5.97
350.61	28.5
350.822	-24.75
351.034	-24.75
351.246	-10.41
351.458	100.18
351.669	53.08
351.881	59.22
352.093	-28.84
352.305	51.03
352.517	57.17
352.728	-2.22
352.94	-34.99
353.152	69.46
353.363	30.55
353.575	42.84
353.787	61.27
353.999	71.51
354.21	40.79
354.422	30.55
354.633	98.13
354.845	55.12
355.057	-10.41
355.268	-18.6
355.48	65.36
355.692	-49.32
355.903	-26.79
356.115	5.97
356.326	61.27
356.538	-2.22
356.749	48.98
356.961	38.74
357.172	18.26
357.384	38.74
357.595	102.23
357.807	28.5
358.018	89.94
358.23	67.41
358.441	40.79
358.653	59.22
358.864	32.6
359.075	61.27
359.287	75.6
359.498	69.46
359.709	42.84
359.921	48.98
360.132	75.6
360.344	87.89
360.555	-20.65
360.766	36.69
360.977	3.93
361.189	42.84
361.4	120.66
361.611	-16.55
361.823	55.12
362.034	87.89
362.245	-2.22
362.456	16.21
362.667	12.12
362.879	40.79
363.09	48.98
363.301	-10.41
363.512	36.69
363.723	22.36
363.935	28.5
364.146	-6.31
364.357	30.55
364.568	5.97
364.779	-53.42
364.99	16.21
365.201	10.07
365.412	59.22
365.623	16.21
365.834	-6.31
366.045	51.03
366.256	-71.85
366.467	30.55
366.678	57.17
366.889	104.28
367.1	75.6
367.311	137.04
367.522	85.84
367.733	118.61
367.944	-6.31
368.155	57.17
368.366	73.56
368.577	85.84
368.788	87.89
368.999	53.08
369.209	98.13
369.42	73.56
369.631	98.13
369.842	77.65
370.053	-41.13
370.264	69.46
370.474	34.64
370.685	18.26
370.896	71.51
371.107	-18.6
371.317	96.08
371.528	48.98
371.739	102.23
371.95	10.07
372.16	42.84
372.371	32.6
372.582	102.23
372.792	12.12
373.003	116.56
373.214	128.85
373.424	24.4
373.635	91.99
373.846	20.31
374.056	65.36
374.267	28.5
374.477	-16.55
374.688	-18.6
374.898	26.45
375.109	48.98
375.319	30.55
375.53	94.04
375.74	69.46
375.951	8.02
376.161	65.36
376.372	10.07
376.582	48.98
376.793	34.64
377.003	48.98
377.214	71.51
377.424	79.7
377.635	-18.6
377.845	-28.84
378.055	77.65
378.266	-10.41
378.476	57.17
378.686	104.28
378.897	24.4
379.107	-47.27
379.317	-45.23
379.528	59.22
379.738	118.61
379.948	-0.17
380.158	42.84
380.369	20.31
380.579	87.89
380.789	44.88
380.999	110.42
381.21	71.51
381.42	46.93
381.63	-65.71
381.84	87.89
382.05	81.75
382.261	65.36
382.471	130.9
382.681	67.41
382.891	59.22
383.101	46.93
383.311	22.36
383.521	-6.31
383.731	81.75
383.941	44.88
384.151	28.5
384.361	67.41
384.571	42.84
384.781	61.27
384.991	85.84
385.201	69.46
385.411	63.32
385.621	83.8
385.831	71.51
386.041	108.37
386.251	46.93
386.461	26.45
386.671	69.46
386.881	30.55
387.091	24.4
387.301	73.56
387.511	1.88
387.72	65.36
387.93	20.31
388.14	18.26
388.35	61.27
388.56	40.79
388.769	24.4
388.979	53.08
389.189	26.45
389.399	10.07
389.609	44.88
389.818	38.74
390.028	38.74
390.238	87.89
390.447	53.08
390.657	38.74
390.867	51.03
391.076	163.67
391.286	48.98
391.496	106.32
391.705	75.6
391.915	163.67
392.125	124.76
392.334	48.98
392.544	48.98
392.753	104.28
392.963	96.08
393.172	102.23
393.382	46.93
393.591	12.12
393.801	32.6
394.01	122.71
394.22	69.46
394.429	94.04
394.639	34.64
394.848	94.04
395.058	100.18
395.267	85.84
395.477	61.27
395.686	167.76
395.895	87.89
396.105	157.52
396.314	100.18
396.524	48.98
396.733	75.6
396.942	57.17
397.152	102.23
397.361	91.99
397.57	91.99
397.78	53.08
397.989	73.56
398.198	110.42
398.407	116.56
398.617	145.24
398.826	53.08
399.035	71.51
399.244	71.51
399.453	128.85
399.663	73.56
399.872	120.66
400.081	40.79
400.29	169.81
400.499	83.8
400.708	132.95
400.917	89.94
401.127	137.04
401.336	91.99
401.545	202.58
401.754	141.14
401.963	161.62
402.172	55.12
402.381	132.95
402.59	110.42
402.799	98.13
403.008	188.24
403.217	83.8
403.426	102.23
403.635	149.33
403.844	126.8
404.053	180.05
404.262	155.47
404.471	159.57
404.68	132.95
404.888	143.19
405.097	94.04
405.306	132.95
405.515	184.15
405.724	135
405.933	225.11
406.142	184.15
406.35	231.25
406.559	202.58
406.768	200.53
406.977	214.87
407.185	132.95
407.394	204.63
407.603	216.91
407.812	190.29
408.02	194.39
408.229	204.63
408.438	157.52
408.646	184.15
408.855	210.77
409.064	188.24
409.272	282.45
409.481	253.78
409.69	229.2
409.898	261.97
410.107	325.46
410.315	284.5
410.524	221.01
410.733	339.79
410.941	356.18
411.15	415.57
411.358	452.43
411.567	388.94
411.775	397.14
411.984	419.66
412.192	388.94
412.401	460.62
412.609	415.57
412.818	558.92
413.026	493.39
413.234	581.45
413.443	532.3
413.651	485.2
413.86	571.21
414.068	616.27
414.276	587.6
414.485	583.5
414.693	649.04
414.901	612.17
415.11	642.89
415.318	700.23
415.526	761.67
415.734	812.87
415.943	728.91
416.151	798.54
416.359	831.3
416.567	788.3
416.776	900.94
416.984	933.7
417.192	966.47
417.4	945.99
417.608	919.37
417.817	1193.8
418.025	1077.06
418.233	1228.61
418.441	1130.31
418.649	1085.25
418.857	1292.1
419.065	1388.35
419.273	1244.99
419.481	1365.82
419.689	1470.27
419.897	1412.93
420.105	1552.19
420.313	1556.29
420.521	1666.88
420.729	1587.01
420.937	1685.31
421.145	1713.98
421.353	1875.77
421.561	1824.57
421.769	1898.3
421.977	1990.45
422.185	1914.68
422.393	2201.4
422.601	2199.35
422.809	2230.07
423.017	2273.07
423.224	2275.12
423.432	2477.87
423.64	2479.92
423.848	2709.29
424.056	2594.61
424.263	2871.08
424.471	2809.64
424.679	3032.87
424.887	3057.45
425.094	3055.4
425.302	3182.37
425.51	3303.2
425.718	3460.9
425.925	3342.11
426.133	3655.45
426.341	3753.76
426.548	4011.8
426.756	3909.4
426.964	4028.18
427.171	4183.83
427.379	4482.83
427.586	4419.35
427.794	4431.63
428.001	4718.35
428.209	5054.22
428.417	5003.02
428.624	5142.28
428.832	5242.63
429.039	5117.7
429.247	5138.18
429.454	5732.09
429.662	6053.62
429.869	5682.94
430.076	6194.93
430.284	5826.3
430.491	6192.89
430.699	6577.9
430.906	6510.32
431.114	6498.03
431.321	6893.29
431.528	7149.29
431.736	7532.26
431.943	7757.53
432.15	7577.31
432.358	7749.34
432.565	8040.15
432.772	8181.46
432.979	8376.02
433.187	8713.94
433.394	8605.39
433.601	9242.31
433.808	9178.83
434.016	9291.46
434.223	9543.36
434.43	10213.05
434.637	9778.88
434.844	10602.16
435.052	11144.88
435.259	10800.82
435.466	10733.23
435.673	10970.8
435.88	11513.51
436.087	11976.35
436.294	11978.4
436.501	11816.61
436.708	12091.04
436.915	12643.99
437.122	13256.33
437.329	12785.3
437.537	13469.32
437.743	13436.55
437.95	13565.57
438.157	14337.66
438.364	14710.39
438.571	14579.32
438.778	14827.12
438.985	16014.94
439.192	15699.56
439.399	15963.75
439.606	15683.17
439.813	16264.8
440.02	17448.52
440.227	17092.18
440.433	16924.24
440.64	17704.52
440.847	17356.36
441.054	17997.38
441.261	19131.95
441.467	18843.19
441.674	19480.11
441.881	20035.11
442.088	20047.4
442.294	19758.63
442.501	20196.9
442.708	20842.01
442.914	21509.65
443.121	22357.5
443.328	21724.68
443.534	23463.41
443.741	22814.2
443.948	22523.39
444.154	24206.82
444.361	23811.56
444.568	24364.51
444.774	24139.24
444.981	24471.01
445.187	25071.06
445.394	26488.26
445.6	25701.84
445.807	28396.96
446.013	27022.78
446.22	27596.21
446.426	28757.41
446.633	28587.43
446.839	29920.65
447.046	28779.93
447.252	30262.66
447.459	30078.35
447.665	29980.04
447.871	31595.89
448.078	33221.98
448.284	31618.42
448.491	32189.8
448.697	33334.62
448.903	34082.13
449.11	34186.57
449.316	33477.97
449.522	34235.72
449.728	35059.01
449.935	35200.32
450.141	35183.93
450.347	36011.31
450.553	35020.09
450.76	35167.55
450.966	36504.87
451.172	36005.17
451.378	36906.27
451.584	35927.35
451.791	36859.17
451.997	36568.36
452.203	37639.45
452.409	37475.61
452.615	37592.34
452.821	36134.19
453.027	35927.35
453.233	37526.81
453.44	36236.59
453.646	36435.24
453.852	36556.07
454.058	37387.55
454.264	36119.85
454.47	36807.97
454.676	35685.68
454.882	37088.54
455.088	33791.31
455.294	33983.82
455.5	34741.57
455.705	35233.08
455.911	33428.82
456.117	32609.64
456.323	32722.27
456.529	30952.83
456.735	32462.18
456.941	31444.34
457.147	30995.84
457.352	30178.7
457.558	29539.73
457.764	29791.63
457.97	29132.18
458.176	28550.56
458.381	28403.11
458.587	27088.31
458.793	27268.53
458.999	25599.44
459.204	27323.83
459.41	26555.84
459.616	24800.73
459.821	25023.96
460.027	24647.13
460.233	24440.29
460.438	23172.6
460.644	23395.82
460.85	22369.79
461.055	21909
461.261	21769.74
461.466	20669.98
461.672	19912.23
461.878	21102.1
462.083	19611.18
462.289	19267.12
462.494	19064.37
462.7	18177.6
462.905	17993.28
463.111	18361.92
463.316	18464.32
463.522	18021.95
463.727	17995.33
463.932	18134.59
464.138	17808.97
464.343	18280
464.549	17348.17
464.754	17710.66
464.959	17460.81
465.165	17770.05
465.37	17067.6
465.575	16549.46
465.781	17131.09
465.986	17409.61
466.191	16496.22
466.397	16248.41
466.602	15629.93
466.807	16283.23
467.012	16170.59
467.218	16109.15
467.423	15920.74
467.628	15879.78
