Data from USB4F104151__67__12-01-56-447.txt Node

Date: Fri Mar 14 12:01:56 EDT 2025
User: louis
Spectrometer: USB4F10415
Trigger mode: 4
Integration Time (sec): 2.000000E-2
Scans to average: 1
Electric dark correction enabled: true
Nonlinearity correction enabled: false
Boxcar width: 0
XAxis mode: Wavelengths
Number of Pixels in Spectrum: 3648
>>>>>Begin Spectral Data<<<<<
178.204	-65.36
178.424	-65.36
178.644	-65.36
178.864	-55.12
179.084	-104.28
179.304	-14.17
179.524	-20.31
179.744	6.31
179.964	28.84
180.184	20.65
180.404	24.75
180.624	24.75
180.844	20.65
181.064	6.31
181.283	-3.93
181.503	-112.47
181.723	18.6
181.943	55.47
182.163	61.61
182.383	-10.07
182.602	67.75
182.822	30.89
183.042	16.55
183.262	12.46
183.482	37.03
183.701	82.09
183.921	30.89
184.141	20.65
184.361	4.27
184.58	14.51
184.8	-1.88
185.02	-8.02
185.239	-10.07
185.459	30.89
185.679	43.18
185.898	-96.08
186.118	43.18
186.338	45.23
186.557	55.47
186.777	-14.17
186.997	39.08
187.216	59.56
187.436	57.51
187.655	118.95
187.875	43.18
188.095	18.6
188.314	32.94
188.534	47.27
188.753	55.47
188.973	57.51
189.192	24.75
189.412	67.75
189.631	110.76
189.851	30.89
190.07	-16.21
190.29	-26.45
190.509	82.09
190.729	22.7
190.948	80.04
191.168	18.6
191.387	77.99
191.607	6.31
191.826	6.31
192.045	-1.88
192.265	0.17
192.484	10.41
192.704	14.51
192.923	12.46
193.142	37.03
193.362	96.43
193.581	94.38
193.8	-8.02
194.02	67.75
194.239	98.47
194.458	77.99
194.678	71.85
194.897	28.84
195.116	39.08
195.335	-5.97
195.555	30.89
195.774	90.28
195.993	43.18
196.212	49.32
196.432	90.28
196.651	18.6
196.87	90.28
197.089	32.94
197.308	30.89
197.528	143.53
197.747	47.27
197.966	18.6
198.185	43.18
198.404	51.37
198.623	2.22
198.842	82.09
199.062	37.03
199.281	110.76
199.5	88.23
199.719	10.41
199.938	43.18
200.157	80.04
200.376	41.13
200.595	135.34
200.814	69.8
201.033	55.47
201.252	18.6
201.471	-20.31
201.69	37.03
201.909	-22.36
202.128	-1.88
202.347	75.95
202.566	39.08
202.785	123.05
203.004	0.17
203.223	69.8
203.442	90.28
203.661	18.6
203.879	24.75
204.098	129.19
204.317	24.75
204.536	34.99
204.755	43.18
204.974	34.99
205.193	55.47
205.411	51.37
205.63	37.03
205.849	45.23
206.068	71.85
206.287	92.33
206.505	37.03
206.724	98.47
206.943	-5.97
207.162	45.23
207.381	20.65
207.599	61.61
207.818	43.18
208.037	77.99
208.255	32.94
208.474	12.46
208.693	14.51
208.911	69.8
209.13	67.75
209.349	94.38
209.567	88.23
209.786	96.43
210.005	2.22
210.223	18.6
210.442	-38.74
210.661	34.99
210.879	24.75
211.098	43.18
211.316	-34.64
211.535	141.48
211.753	-10.07
211.972	-5.97
212.191	0.17
212.409	59.56
212.628	61.61
212.846	18.6
213.065	57.51
213.283	45.23
213.502	43.18
213.72	86.19
213.938	71.85
214.157	45.23
214.375	41.13
214.594	-1.88
214.812	4.27
215.031	34.99
215.249	43.18
215.467	63.66
215.686	6.31
215.904	67.75
216.122	20.65
216.341	84.14
216.559	32.94
216.778	-20.31
216.996	94.38
217.214	65.71
217.432	39.08
217.651	37.03
217.869	16.55
218.087	59.56
218.306	71.85
218.524	104.62
218.742	16.55
218.96	39.08
219.179	41.13
219.397	39.08
219.615	2.22
219.833	57.51
220.051	73.9
220.27	63.66
220.488	-24.4
220.706	12.46
220.924	57.51
221.142	49.32
221.36	-3.93
221.578	-10.07
221.796	30.89
222.015	34.99
222.233	84.14
222.451	30.89
222.669	37.03
222.887	16.55
223.105	-12.12
223.323	-24.4
223.541	-16.21
223.759	28.84
223.977	69.8
224.195	28.84
224.413	90.28
224.631	39.08
224.849	-3.93
225.067	84.14
225.285	20.65
225.503	55.47
225.721	26.79
225.939	39.08
226.157	75.95
226.375	43.18
226.592	75.95
226.81	32.94
227.028	59.56
227.246	51.37
227.464	61.61
227.682	75.95
227.9	75.95
228.117	96.43
228.335	30.89
228.553	28.84
228.771	6.31
228.989	55.47
229.206	43.18
229.424	20.65
229.642	69.8
229.86	10.41
230.077	43.18
230.295	24.75
230.513	71.85
230.731	73.9
230.948	55.47
231.166	10.41
231.384	41.13
231.601	51.37
231.819	-30.55
232.037	-5.97
232.254	47.27
232.472	63.66
232.689	-46.93
232.907	86.19
233.125	57.51
233.342	69.8
233.56	37.03
233.777	4.27
233.995	-16.21
234.213	59.56
234.43	8.36
234.648	49.32
234.865	65.71
235.083	8.36
235.3	-32.6
235.518	57.51
235.735	61.61
235.953	90.28
236.17	37.03
236.388	24.75
236.605	20.65
236.822	129.19
237.04	8.36
237.257	39.08
237.475	-5.97
237.692	-14.17
237.909	12.46
238.127	32.94
238.344	-5.97
238.562	45.23
238.779	-1.88
238.996	49.32
239.214	-53.08
239.431	118.95
239.648	75.95
239.865	71.85
240.083	32.94
240.3	57.51
240.517	86.19
240.735	47.27
240.952	24.75
241.169	37.03
241.386	22.7
241.603	43.18
241.821	63.66
242.038	-14.17
242.255	116.9
242.472	22.7
242.689	-8.02
242.907	73.9
243.124	2.22
243.341	61.61
243.558	49.32
243.775	57.51
243.992	24.75
244.209	69.8
244.426	133.29
244.643	41.13
244.86	26.79
245.078	32.94
245.295	43.18
245.512	92.33
245.729	16.55
245.946	-5.97
246.163	34.99
246.38	69.8
246.597	67.75
246.814	53.42
247.031	-16.21
247.248	41.13
247.464	-14.17
247.681	22.7
247.898	20.65
248.115	77.99
248.332	88.23
248.549	84.14
248.766	84.14
248.983	104.62
249.2	0.17
249.417	110.76
249.633	-67.41
249.85	61.61
250.067	-3.93
250.284	39.08
250.501	16.55
250.717	45.23
250.934	-53.08
251.151	100.52
251.368	43.18
251.585	75.95
251.801	34.99
252.018	63.66
252.235	10.41
252.451	32.94
252.668	26.79
252.885	41.13
253.102	57.51
253.318	96.43
253.535	53.42
253.752	12.46
253.968	88.23
254.185	41.13
254.401	8.36
254.618	43.18
254.835	45.23
255.051	22.7
255.268	57.51
255.484	57.51
255.701	30.89
255.917	34.99
256.134	8.36
256.351	67.75
256.567	-24.4
256.784	6.31
257	30.89
257.217	18.6
257.433	139.43
257.65	53.42
257.866	6.31
258.082	75.95
258.299	92.33
258.515	-16.21
258.732	-1.88
258.948	20.65
259.165	26.79
259.381	22.7
259.597	73.9
259.814	24.75
260.03	98.47
260.246	82.09
260.463	55.47
260.679	88.23
260.895	108.71
261.112	137.38
261.328	131.24
261.544	8.36
261.761	102.57
261.977	18.6
262.193	0.17
262.409	24.75
262.626	121
262.842	92.33
263.058	-5.97
263.274	63.66
263.49	18.6
263.707	28.84
263.923	22.7
264.139	32.94
264.355	82.09
264.571	53.42
264.787	108.71
265.004	104.62
265.22	65.71
265.436	94.38
265.652	73.9
265.868	90.28
266.084	43.18
266.3	53.42
266.516	43.18
266.732	49.32
266.948	57.51
267.164	98.47
267.38	88.23
267.596	43.18
267.812	86.19
268.028	100.52
268.244	82.09
268.46	43.18
268.676	4.27
268.892	22.7
269.108	16.55
269.324	75.95
269.54	6.31
269.756	92.33
269.972	37.03
270.188	22.7
270.403	22.7
270.619	8.36
270.835	82.09
271.051	-5.97
271.267	-1.88
271.483	41.13
271.698	2.22
271.914	67.75
272.13	51.37
272.346	106.67
272.562	30.89
272.777	80.04
272.993	-1.88
273.209	94.38
273.425	49.32
273.64	110.76
273.856	-30.55
274.072	20.65
274.287	8.36
274.503	116.9
274.719	43.18
274.934	61.61
275.15	47.27
275.366	67.75
275.581	6.31
275.797	39.08
276.012	63.66
276.228	-12.12
276.444	18.6
276.659	57.51
276.875	18.6
277.09	30.89
277.306	53.42
277.521	8.36
277.737	-20.31
277.952	-1.88
278.168	0.17
278.383	59.56
278.599	37.03
278.814	43.18
279.03	4.27
279.245	73.9
279.461	39.08
279.676	104.62
279.892	-8.02
280.107	28.84
280.322	55.47
280.538	86.19
280.753	0.17
280.969	45.23
281.184	24.75
281.399	65.71
281.615	-30.55
281.83	110.76
282.045	24.75
282.26	41.13
282.476	16.55
282.691	41.13
282.906	47.27
283.122	55.47
283.337	32.94
283.552	73.9
283.767	47.27
283.983	-10.07
284.198	69.8
284.413	71.85
284.628	24.75
284.843	77.99
285.058	41.13
285.274	8.36
285.489	28.84
285.704	47.27
285.919	65.71
286.134	80.04
286.349	16.55
286.564	32.94
286.779	26.79
286.995	32.94
287.21	-18.26
287.425	30.89
287.64	47.27
287.855	84.14
288.07	39.08
288.285	77.99
288.5	6.31
288.715	67.75
288.93	-10.07
289.145	84.14
289.36	61.61
289.575	98.47
289.79	14.51
290.004	159.91
290.219	0.17
290.434	77.99
290.649	28.84
290.864	4.27
291.079	14.51
291.294	86.19
291.509	32.94
291.724	43.18
291.938	-20.31
292.153	20.65
292.368	-16.21
292.583	61.61
292.798	43.18
293.012	102.57
293.227	43.18
293.442	75.95
293.657	104.62
293.871	47.27
294.086	53.42
294.301	65.71
294.516	53.42
294.73	84.14
294.945	57.51
295.16	8.36
295.374	63.66
295.589	110.76
295.804	24.75
296.018	14.51
296.233	53.42
296.447	82.09
296.662	4.27
296.877	71.85
297.091	69.8
297.306	135.34
297.52	-3.93
297.735	6.31
297.949	63.66
298.164	112.81
298.378	24.75
298.593	53.42
298.807	80.04
299.022	59.56
299.236	47.27
299.451	104.62
299.665	57.51
299.88	-18.26
300.094	-10.07
300.309	12.46
300.523	28.84
300.737	-12.12
300.952	75.95
301.166	18.6
301.381	131.24
301.595	39.08
301.809	4.27
302.024	49.32
302.238	34.99
302.452	8.36
302.667	26.79
302.881	80.04
303.095	47.27
303.309	43.18
303.524	-26.45
303.738	-26.45
303.952	12.46
304.166	108.71
304.381	2.22
304.595	22.7
304.809	4.27
305.023	77.99
305.237	80.04
305.452	43.18
305.666	2.22
305.88	28.84
306.094	43.18
306.308	55.47
306.522	88.23
306.736	43.18
306.95	24.75
307.164	14.51
307.379	71.85
307.593	32.94
307.807	47.27
308.021	24.75
308.235	75.95
308.449	10.41
308.663	80.04
308.877	86.19
309.091	53.42
309.305	14.51
309.519	-30.55
309.733	45.23
309.947	69.8
310.161	37.03
310.374	69.8
310.588	145.58
310.802	49.32
311.016	6.31
311.23	112.81
311.444	45.23
311.658	-24.4
311.872	-5.97
312.085	55.47
312.299	145.58
312.513	55.47
312.727	24.75
312.941	45.23
313.154	53.42
313.368	45.23
313.582	63.66
313.796	12.46
314.009	47.27
314.223	137.38
314.437	45.23
314.651	57.51
314.864	51.37
315.078	12.46
315.292	47.27
315.505	24.75
315.719	39.08
315.933	69.8
316.146	71.85
316.36	-8.02
316.573	8.36
316.787	47.27
317.001	73.9
317.214	16.55
317.428	28.84
317.641	77.99
317.855	57.51
318.068	-20.31
318.282	53.42
318.495	86.19
318.709	45.23
318.922	41.13
319.136	30.89
319.349	14.51
319.563	34.99
319.776	37.03
319.99	-3.93
320.203	34.99
320.417	84.14
320.63	84.14
320.843	73.9
321.057	30.89
321.27	37.03
321.483	39.08
321.697	73.9
321.91	37.03
322.124	61.61
322.337	86.19
322.55	43.18
322.763	-30.55
322.977	12.46
323.19	47.27
323.403	53.42
323.617	47.27
323.83	6.31
324.043	47.27
324.256	22.7
324.469	-8.02
324.683	65.71
324.896	65.71
325.109	59.56
325.322	53.42
325.535	65.71
325.748	34.99
325.962	41.13
326.175	75.95
326.388	104.62
326.601	53.42
326.814	49.32
327.027	22.7
327.24	114.86
327.453	-5.97
327.666	10.41
327.879	39.08
328.092	0.17
328.305	-26.45
328.518	-18.26
328.731	18.6
328.944	55.47
329.157	24.75
329.37	41.13
329.583	63.66
329.796	61.61
330.009	12.46
330.222	28.84
330.435	-3.93
330.648	71.85
330.861	4.27
331.073	2.22
331.286	43.18
331.499	49.32
331.712	104.62
331.925	37.03
332.138	26.79
332.35	61.61
332.563	26.79
332.776	121
332.989	10.41
333.202	-24.4
333.414	116.9
333.627	28.84
333.84	90.28
334.053	57.51
334.265	32.94
334.478	30.89
334.691	30.89
334.903	92.33
335.116	-36.69
335.329	0.17
335.541	16.55
335.754	82.09
335.966	63.66
336.179	49.32
336.392	114.86
336.604	104.62
336.817	86.19
337.029	96.43
337.242	34.99
337.454	2.22
337.667	57.51
337.88	20.65
338.092	77.99
338.305	20.65
338.517	20.65
338.729	41.13
338.942	37.03
339.154	88.23
339.367	65.71
339.579	57.51
339.792	16.55
340.004	137.38
340.217	24.75
340.429	59.56
340.641	18.6
340.854	139.43
341.066	-57.17
341.278	63.66
341.491	135.34
341.703	6.31
341.915	59.56
342.128	57.51
342.34	51.37
342.552	-32.6
342.764	-8.02
342.977	-5.97
343.189	8.36
343.401	135.34
343.613	10.41
343.826	45.23
344.038	12.46
344.25	108.71
344.462	-42.84
344.674	118.95
344.886	26.79
345.099	41.13
345.311	108.71
345.523	37.03
345.735	61.61
345.947	39.08
346.159	43.18
346.371	26.79
346.583	-1.88
346.795	22.7
347.007	63.66
347.219	67.75
347.431	22.7
347.643	32.94
347.855	96.43
348.067	26.79
348.279	-32.6
348.491	22.7
348.703	51.37
348.915	24.75
349.127	-8.02
349.339	8.36
349.551	34.99
349.763	24.75
349.975	8.36
350.187	47.27
350.399	-14.17
350.61	125.1
350.822	43.18
351.034	47.27
351.246	47.27
351.458	30.89
351.669	34.99
351.881	98.47
352.093	26.79
352.305	112.81
352.517	55.47
352.728	96.43
352.94	2.22
353.152	28.84
353.363	16.55
353.575	92.33
353.787	32.94
353.999	32.94
354.21	145.58
354.422	28.84
354.633	-18.26
354.845	55.47
355.057	75.95
355.268	53.42
355.48	82.09
355.692	37.03
355.903	39.08
356.115	-16.21
356.326	51.37
356.538	77.99
356.749	82.09
356.961	69.8
357.172	39.08
357.384	47.27
357.595	125.1
357.807	0.17
358.018	143.53
358.23	51.37
358.441	69.8
358.653	63.66
358.864	34.99
359.075	4.27
359.287	57.51
359.498	102.57
359.709	84.14
359.921	28.84
360.132	34.99
360.344	67.75
360.555	90.28
360.766	88.23
360.977	98.47
361.189	141.48
361.4	112.81
361.611	61.61
361.823	110.76
362.034	51.37
362.245	2.22
362.456	106.67
362.667	92.33
362.879	84.14
363.09	155.82
363.301	67.75
363.512	51.37
363.723	53.42
363.935	51.37
364.146	96.43
364.357	-26.45
364.568	69.8
364.779	4.27
364.99	127.14
365.201	118.95
365.412	98.47
365.623	47.27
365.834	-1.88
366.045	114.86
366.256	108.71
366.467	65.71
366.678	2.22
366.889	20.65
367.1	8.36
367.311	100.52
367.522	88.23
367.733	34.99
367.944	121
368.155	118.95
368.366	77.99
368.577	61.61
368.788	28.84
368.999	77.99
369.209	71.85
369.42	77.99
369.631	131.24
369.842	20.65
370.053	51.37
370.264	102.57
370.474	88.23
370.685	28.84
370.896	22.7
371.107	108.71
371.317	125.1
371.528	16.55
371.739	116.9
371.95	141.48
372.16	6.31
372.371	67.75
372.582	45.23
372.792	30.89
373.003	80.04
373.214	45.23
373.424	67.75
373.635	77.99
373.846	104.62
374.056	80.04
374.267	16.55
374.477	106.67
374.688	137.38
374.898	4.27
375.109	-3.93
375.319	6.31
375.53	86.19
375.74	92.33
375.951	43.18
376.161	26.79
376.372	63.66
376.582	77.99
376.793	61.61
377.003	16.55
377.214	24.75
377.424	16.55
377.635	155.82
377.845	16.55
378.055	98.47
378.266	37.03
378.476	41.13
378.686	112.81
378.897	47.27
379.107	63.66
379.317	90.28
379.528	75.95
379.738	53.42
379.948	53.42
380.158	108.71
380.369	77.99
380.579	80.04
380.789	41.13
380.999	41.13
381.21	67.75
381.42	84.14
381.63	88.23
381.84	32.94
382.05	82.09
382.261	24.75
382.471	84.14
382.681	45.23
382.891	106.67
383.101	67.75
383.311	8.36
383.521	41.13
383.731	94.38
383.941	84.14
384.151	102.57
384.361	43.18
384.571	86.19
384.781	-12.12
384.991	153.77
385.201	39.08
385.411	55.47
385.621	125.1
385.831	73.9
386.041	49.32
386.251	112.81
386.461	75.95
386.671	28.84
386.881	-30.55
387.091	65.71
387.301	32.94
387.511	84.14
387.72	86.19
387.93	32.94
388.14	18.6
388.35	77.99
388.56	96.43
388.769	57.51
388.979	75.95
389.189	121
389.399	100.52
389.609	57.51
389.818	41.13
390.028	26.79
390.238	88.23
390.447	-1.88
390.657	59.56
390.867	57.51
391.076	39.08
391.286	43.18
391.496	49.32
391.705	108.71
391.915	4.27
392.125	178.34
392.334	49.32
392.544	67.75
392.753	90.28
392.963	77.99
393.172	149.67
393.382	94.38
393.591	67.75
393.801	69.8
394.01	118.95
394.22	71.85
394.429	69.8
394.639	73.9
394.848	129.19
395.058	100.52
395.267	121
395.477	118.95
395.686	141.48
395.895	114.86
396.105	194.73
396.314	57.51
396.524	65.71
396.733	102.57
396.942	55.47
397.152	86.19
397.361	182.44
397.57	67.75
397.78	69.8
397.989	159.91
398.198	123.05
398.407	100.52
398.617	149.67
398.826	77.99
399.035	143.53
399.244	96.43
399.453	135.34
399.663	164.01
399.872	178.34
400.081	129.19
400.29	141.48
400.499	71.85
400.708	96.43
400.917	112.81
401.127	102.57
401.336	121
401.545	141.48
401.754	174.25
401.963	141.48
402.172	55.47
402.381	170.15
402.59	139.43
402.799	102.57
403.008	157.86
403.217	131.24
403.426	174.25
403.635	73.9
403.844	168.1
404.053	159.91
404.262	149.67
404.471	96.43
404.68	190.63
404.888	151.72
405.097	153.77
405.306	264.36
405.515	188.58
405.724	137.38
405.933	147.62
406.142	266.41
406.35	168.1
406.559	168.1
406.768	231.59
406.977	317.61
407.185	290.98
407.394	235.69
407.603	161.96
407.812	209.06
408.02	288.93
408.229	250.02
408.438	290.98
408.646	309.41
408.855	258.21
409.064	266.41
409.272	315.56
409.481	348.33
409.69	348.33
409.898	276.65
410.107	333.99
410.315	409.76
410.524	374.95
410.733	370.85
410.941	372.9
411.15	422.05
411.358	403.62
411.567	389.28
411.775	417.96
411.984	381.09
412.192	520.35
412.401	495.78
412.609	512.16
412.818	549.03
413.026	540.83
413.234	514.21
413.443	544.93
413.651	559.27
413.86	608.42
414.068	676
414.276	708.77
414.485	700.58
414.693	669.86
414.901	786.59
415.11	753.82
415.318	895.13
415.526	778.4
415.734	944.28
415.943	866.46
416.151	932
416.359	923.8
416.567	923.8
416.776	999.58
416.984	1075.35
417.192	1042.59
417.4	1101.98
417.608	1056.92
417.817	1163.42
418.025	1190.04
418.233	1304.73
418.441	1243.29
418.649	1290.39
418.857	1456.28
419.065	1487
419.273	1388.69
419.481	1493.14
419.689	1656.98
419.897	1503.38
420.105	1669.27
420.313	1747.09
420.521	1695.89
420.729	1898.64
420.937	1915.02
421.145	1898.64
421.353	2046.09
421.561	2140.3
421.769	2115.72
421.977	2224.26
422.185	2238.6
422.393	2328.71
422.601	2648.19
422.809	2556.04
423.017	2631.81
423.224	2723.97
423.432	2728.07
423.64	2687.11
423.848	2992.25
424.056	2904.19
424.263	3166.33
424.471	3121.28
424.679	3219.58
424.887	3350.65
425.094	3477.62
425.302	3545.2
425.51	3582.07
425.718	3725.43
425.925	3776.63
426.133	3977.33
426.341	4239.47
426.548	4413.54
426.756	4421.74
426.964	4382.82
427.171	4628.58
427.379	4792.42
427.586	4767.84
427.794	5046.37
428.001	5249.11
428.209	5474.39
428.417	5392.47
428.624	5599.32
428.832	5668.95
429.039	5546.07
429.247	5769.3
429.454	6432.84
429.662	6762.56
429.869	6170.7
430.076	6690.88
430.284	6479.94
430.491	6905.92
430.699	7041.09
430.906	7196.73
431.114	7249.98
431.321	7540.79
431.528	7958.58
431.736	8065.07
431.943	8419.37
432.15	8280.11
432.358	8220.72
432.565	8845.35
432.772	8865.83
432.979	9412.64
433.187	9396.25
433.394	9459.74
433.601	10250.25
433.808	10084.37
434.016	9881.62
434.223	10446.86
434.43	11048.96
434.637	10897.41
434.844	11692.02
435.052	11710.46
435.259	11710.46
435.466	11849.72
435.673	11759.61
435.88	12640.23
436.087	13191.14
436.294	13107.17
436.501	12937.19
436.708	13228
436.915	13643.74
437.122	14233.55
437.329	14208.98
437.537	14741.45
437.743	14839.75
437.95	14749.64
438.157	15251.39
438.364	15939.51
438.571	15919.03
438.778	15912.89
438.985	17575.84
439.192	17010.6
439.399	17268.64
439.606	17014.7
439.813	17923.99
440.02	19201.93
440.227	18923.4
440.433	18497.42
440.64	19160.97
440.847	19066.76
441.054	19773.31
441.261	20797.29
441.467	20490.1
441.674	21174.12
441.881	21987.16
442.088	21606.24
442.294	21387.11
442.501	21972.83
442.708	22433.62
442.914	23336.77
443.121	24332.09
443.328	23748.42
443.534	25489.19
443.741	24823.6
443.948	24317.75
444.154	26253.08
444.361	25888.54
444.568	26091.29
444.774	26193.69
444.981	26496.79
445.187	26953.49
445.394	28448.5
445.6	28167.93
445.807	30650.07
446.013	29392.62
446.22	29839.08
446.426	31264.46
446.633	31282.89
446.839	32104.13
447.046	30772.95
447.252	32829.11
447.459	32788.15
447.665	32569.02
447.871	33975.97
448.078	35200.66
448.284	33904.29
448.491	34915.99
448.697	36198.02
448.903	36552.32
449.11	36705.91
449.316	36085.38
449.522	37033.59
449.728	37848.68
449.935	37875.3
450.141	37803.63
450.347	38864.47
450.553	37637.74
450.76	38258.27
450.966	39435.86
451.172	38985.3
451.378	39933.51
451.584	38610.53
451.791	40068.68
451.997	39786.06
452.203	40332.87
452.409	40623.68
452.615	40056.39
452.821	38473.31
453.027	38487.65
453.233	40253
453.44	38671.96
453.646	38887
453.852	38973.02
454.058	40121.93
454.264	38706.78
454.47	39231.06
454.676	38162.02
454.882	39712.33
455.088	36277.89
455.294	36847.22
455.5	37099.12
455.705	37772.91
455.911	36136.58
456.117	35468.94
456.323	34606.75
456.529	33273.52
456.735	34590.36
456.941	33697.45
457.147	33150.64
457.352	31948.48
457.558	31639.24
457.764	31798.98
457.97	31297.23
458.176	30584.54
458.381	30600.92
458.587	29050.61
458.793	28917.49
458.999	27113.23
459.204	29345.51
459.41	28186.36
459.616	26515.22
459.821	26566.42
460.027	26611.48
460.233	26066.72
460.438	24977.2
460.644	25202.47
460.85	23748.42
461.055	23390.02
461.261	23232.33
461.466	21557.09
461.672	21176.17
461.878	22544.21
462.083	20983.66
462.289	20760.43
462.494	20426.61
462.7	19632
462.905	18876.3
463.111	19822.46
463.316	19795.84
463.522	19197.83
463.727	19177.35
463.932	19464.07
464.138	18954.12
464.343	19201.93
464.549	18470.8
464.754	19318.66
464.959	18925.45
465.165	19019.66
465.37	17991.58
465.575	17612.7
465.781	18311.06
465.986	18710.41
466.191	17661.85
466.397	17479.58
466.602	16678.83
466.807	17309.6
467.012	17182.63
467.218	17260.45
467.423	16969.64
467.628	16928.68
467.833	17602.46
