Data from USB4F104151__1__12-00-17-313.txt Node

Date: Fri Mar 14 12:00:17 EDT 2025
User: louis
Spectrometer: USB4F10415
Trigger mode: 4
Integration Time (sec): 2.000000E-2
Scans to average: 1
Electric dark correction enabled: true
Nonlinearity correction enabled: false
Boxcar width: 0
XAxis mode: Wavelengths
Number of Pixels in Spectrum: 3648
>>>>>Begin Spectral Data<<<<<
178.204	-98.13
178.424	-98.13
178.644	-98.13
178.864	-137.04
179.084	-77.65
179.304	28.84
179.524	-18.26
179.744	37.03
179.964	53.42
180.184	-28.5
180.404	-1.88
180.624	20.65
180.844	-32.6
181.064	-32.6
181.283	-32.6
181.503	-24.4
181.723	30.89
181.943	-73.56
182.163	71.85
182.383	2.22
182.602	0.17
182.822	57.51
183.042	12.46
183.262	24.75
183.482	-24.4
183.701	34.99
183.921	-3.93
184.141	69.8
184.361	108.71
184.58	-3.93
184.8	12.46
185.02	-30.55
185.239	-3.93
185.459	39.08
185.679	49.32
185.898	-20.31
186.118	98.47
186.338	10.41
186.557	-46.93
186.777	4.27
186.997	14.51
187.216	-61.27
187.436	12.46
187.655	-44.88
187.875	-75.6
188.095	6.31
188.314	6.31
188.534	-1.88
188.753	10.41
188.973	65.71
189.192	-28.5
189.412	55.47
189.631	49.32
189.851	0.17
190.07	20.65
190.29	-3.93
190.509	-46.93
190.729	-5.97
190.948	26.79
191.168	67.75
191.387	2.22
191.607	45.23
191.826	-34.64
192.045	-24.4
192.265	-38.74
192.484	22.7
192.704	-5.97
192.923	20.65
193.142	26.79
193.362	-44.88
193.581	-20.31
193.8	8.36
194.02	-73.56
194.239	-40.79
194.458	71.85
194.678	51.37
194.897	-26.45
195.116	6.31
195.335	133.29
195.555	-38.74
195.774	10.41
195.993	-30.55
196.212	63.66
196.432	6.31
196.651	65.71
196.87	-5.97
197.089	45.23
197.308	12.46
197.528	26.79
197.747	-100.18
197.966	49.32
198.185	100.52
198.404	-10.07
198.623	43.18
198.842	69.8
199.062	80.04
199.281	12.46
199.5	-3.93
199.719	-46.93
199.938	45.23
200.157	75.95
200.376	67.75
200.595	41.13
200.814	94.38
201.033	-28.5
201.252	-12.12
201.471	12.46
201.69	-12.12
201.909	-44.88
202.128	43.18
202.347	39.08
202.566	30.89
202.785	6.31
203.004	20.65
203.223	63.66
203.442	-3.93
203.661	12.46
203.879	-22.36
204.098	-42.84
204.317	-57.17
204.536	28.84
204.755	24.75
204.974	47.27
205.193	12.46
205.411	61.61
205.63	-1.88
205.849	53.42
206.068	-8.02
206.287	49.32
206.505	49.32
206.724	-1.88
206.943	-46.93
207.162	-38.74
207.381	-10.07
207.599	57.51
207.818	-38.74
208.037	0.17
208.255	16.55
208.474	20.65
208.693	-1.88
208.911	2.22
209.13	41.13
209.349	-10.07
209.567	-10.07
209.786	39.08
210.005	-32.6
210.223	-12.12
210.442	6.31
210.661	16.55
210.879	121
211.098	10.41
211.316	12.46
211.535	47.27
211.753	30.89
211.972	47.27
212.191	-30.55
212.409	-12.12
212.628	-46.93
212.846	18.6
213.065	22.7
213.283	-42.84
213.502	45.23
213.72	-30.55
213.938	-55.12
214.157	-14.17
214.375	24.75
214.594	14.51
214.812	8.36
215.031	45.23
215.249	-3.93
215.467	55.47
215.686	-55.12
215.904	34.99
216.122	2.22
216.341	69.8
216.559	4.27
216.778	86.19
216.996	32.94
217.214	-22.36
217.432	-42.84
217.651	-26.45
217.869	2.22
218.087	10.41
218.306	39.08
218.524	53.42
218.742	-28.5
218.96	18.6
219.179	-12.12
219.397	6.31
219.615	45.23
219.833	-18.26
220.051	8.36
220.27	-14.17
220.488	-24.4
220.706	-24.4
220.924	8.36
221.142	10.41
221.36	45.23
221.578	-20.31
221.796	-3.93
222.015	-16.21
222.233	-22.36
222.451	12.46
222.669	-8.02
222.887	-1.88
223.105	-112.47
223.323	43.18
223.541	-69.46
223.759	-8.02
223.977	-8.02
224.195	37.03
224.413	53.42
224.631	26.79
224.849	0.17
225.067	-8.02
225.285	14.51
225.503	4.27
225.721	-5.97
225.939	-12.12
226.157	-20.31
226.375	26.79
226.592	-12.12
226.81	75.95
227.028	-42.84
227.246	-18.26
227.464	51.37
227.682	73.9
227.9	39.08
228.117	0.17
228.335	47.27
228.553	34.99
228.771	-8.02
228.989	28.84
229.206	8.36
229.424	-61.27
229.642	-46.93
229.86	-20.31
230.077	88.23
230.295	-40.79
230.513	22.7
230.731	0.17
230.948	41.13
231.166	34.99
231.384	30.89
231.601	-14.17
231.819	-1.88
232.037	24.75
232.254	16.55
232.472	6.31
232.689	-89.94
232.907	28.84
233.125	-30.55
233.342	-67.41
233.56	65.71
233.777	26.79
233.995	-5.97
234.213	102.57
234.43	-8.02
234.648	22.7
234.865	-10.07
235.083	127.14
235.3	-3.93
235.518	-5.97
235.735	-12.12
235.953	4.27
236.17	20.65
236.388	-32.6
236.605	0.17
236.822	16.55
237.04	-3.93
237.257	28.84
237.475	-5.97
237.692	4.27
237.909	-20.31
238.127	16.55
238.344	59.56
238.562	-69.46
238.779	-20.31
238.996	-36.69
239.214	-51.03
239.431	-10.07
239.648	-46.93
239.865	57.51
240.083	-16.21
240.3	4.27
240.517	63.66
240.735	-38.74
240.952	57.51
241.169	65.71
241.386	8.36
241.603	-3.93
241.821	-3.93
242.038	86.19
242.255	22.7
242.472	-55.12
242.689	-14.17
242.907	61.61
243.124	-18.26
243.341	-8.02
243.558	-73.56
243.775	26.79
243.992	-24.4
244.209	75.95
244.426	47.27
244.643	-46.93
244.86	51.37
245.078	12.46
245.295	18.6
245.512	28.84
245.729	-30.55
245.946	-46.93
246.163	41.13
246.38	39.08
246.597	67.75
246.814	-30.55
247.031	22.7
247.248	55.47
247.464	-69.46
247.681	-3.93
247.898	24.75
248.115	-36.69
248.332	-63.32
248.549	-36.69
248.766	82.09
248.983	-24.4
249.2	-14.17
249.417	4.27
249.633	26.79
249.85	30.89
250.067	2.22
250.284	-26.45
250.501	-28.5
250.717	47.27
250.934	12.46
251.151	20.65
251.368	-30.55
251.585	4.27
251.801	-5.97
252.018	22.7
252.235	-34.64
252.451	26.79
252.668	4.27
252.885	10.41
253.102	26.79
253.318	75.95
253.535	43.18
253.752	2.22
253.968	-10.07
254.185	14.51
254.401	-26.45
254.618	26.79
254.835	4.27
255.051	10.41
255.268	43.18
255.484	47.27
255.701	65.71
255.917	61.61
256.134	-18.26
256.351	-26.45
256.567	-3.93
256.784	18.6
257	-32.6
257.217	-28.5
257.433	45.23
257.65	-34.64
257.866	10.41
258.082	14.51
258.299	0.17
258.515	-5.97
258.732	28.84
258.948	8.36
259.165	-26.45
259.381	53.42
259.597	-3.93
259.814	47.27
260.03	-5.97
260.246	12.46
260.463	-20.31
260.679	-18.26
260.895	51.37
261.112	45.23
261.328	-18.26
261.544	-12.12
261.761	30.89
261.977	-36.69
262.193	45.23
262.409	-14.17
262.626	2.22
262.842	10.41
263.058	-22.36
263.274	39.08
263.49	28.84
263.707	37.03
263.923	-36.69
264.139	24.75
264.355	-24.4
264.571	14.51
264.787	0.17
265.004	73.9
265.22	47.27
265.436	4.27
265.652	-22.36
265.868	-46.93
266.084	-14.17
266.3	39.08
266.516	-73.56
266.732	-20.31
266.948	39.08
267.164	8.36
267.38	6.31
267.596	10.41
267.812	-30.55
268.028	-22.36
268.244	-44.88
268.46	-55.12
268.676	-26.45
268.892	59.56
269.108	-8.02
269.324	-12.12
269.54	-32.6
269.756	18.6
269.972	12.46
270.188	-44.88
270.403	6.31
270.619	-36.69
270.835	4.27
271.051	-28.5
271.267	-18.26
271.483	61.61
271.698	20.65
271.914	-5.97
272.13	-26.45
272.346	2.22
272.562	55.47
272.777	45.23
272.993	-14.17
273.209	0.17
273.425	47.27
273.64	-53.08
273.856	0.17
274.072	39.08
274.287	-1.88
274.503	55.47
274.719	10.41
274.934	37.03
275.15	0.17
275.366	26.79
275.581	-34.64
275.797	69.8
276.012	-1.88
276.228	30.89
276.444	0.17
276.659	6.31
276.875	61.61
277.09	30.89
277.306	45.23
277.521	20.65
277.737	8.36
277.952	2.22
278.168	41.13
278.383	45.23
278.599	59.56
278.814	-20.31
279.03	22.7
279.245	6.31
279.461	69.8
279.676	-14.17
279.892	-12.12
280.107	-10.07
280.322	-36.69
280.538	47.27
280.753	57.51
280.969	-14.17
281.184	59.56
281.399	90.28
281.615	51.37
281.83	4.27
282.045	-10.07
282.26	59.56
282.476	-28.5
282.691	-16.21
282.906	4.27
283.122	49.32
283.337	-28.5
283.552	-22.36
283.767	57.51
283.983	59.56
284.198	-16.21
284.413	20.65
284.628	2.22
284.843	61.61
285.058	-34.64
285.274	-59.22
285.489	47.27
285.704	41.13
285.919	-3.93
286.134	41.13
286.349	30.89
286.564	-1.88
286.779	59.56
286.995	65.71
287.21	14.51
287.425	90.28
287.64	-12.12
287.855	6.31
288.07	41.13
288.285	20.65
288.5	43.18
288.715	-1.88
288.93	39.08
289.145	8.36
289.36	-1.88
289.575	34.99
289.79	8.36
290.004	57.51
290.219	28.84
290.434	-5.97
290.649	32.94
290.864	45.23
291.079	0.17
291.294	12.46
291.509	-36.69
291.724	2.22
291.938	69.8
292.153	-18.26
292.368	16.55
292.583	32.94
292.798	18.6
293.012	86.19
293.227	24.75
293.442	34.99
293.657	26.79
293.871	-20.31
294.086	73.9
294.301	12.46
294.516	53.42
294.73	4.27
294.945	14.51
295.16	4.27
295.374	43.18
295.589	63.66
295.804	-14.17
296.018	-20.31
296.233	-44.88
296.447	28.84
296.662	10.41
296.877	26.79
297.091	39.08
297.306	43.18
297.52	30.89
297.735	-8.02
297.949	32.94
298.164	80.04
298.378	-20.31
298.593	6.31
298.807	-57.17
299.022	67.75
299.236	-20.31
299.451	-3.93
299.665	12.46
299.88	55.47
300.094	-8.02
300.309	43.18
300.523	-12.12
300.737	-32.6
300.952	39.08
301.166	-1.88
301.381	0.17
301.595	-40.79
301.809	41.13
302.024	30.89
302.238	0.17
302.452	-38.74
302.667	-10.07
302.881	-12.12
303.095	-36.69
303.309	-24.4
303.524	-32.6
303.738	-24.4
303.952	-34.64
304.166	30.89
304.381	24.75
304.595	49.32
304.809	4.27
305.023	-16.21
305.237	20.65
305.452	2.22
305.666	24.75
305.88	16.55
306.094	80.04
306.308	-12.12
306.522	77.99
306.736	18.6
306.95	26.79
307.164	-14.17
307.379	-10.07
307.593	84.14
307.807	-24.4
308.021	61.61
308.235	-18.26
308.449	14.51
308.663	-14.17
308.877	69.8
309.091	2.22
309.305	41.13
309.519	8.36
309.733	47.27
309.947	34.99
310.161	51.37
310.374	73.9
310.588	16.55
310.802	-69.46
311.016	45.23
311.23	20.65
311.444	-34.64
311.658	47.27
311.872	77.99
312.085	63.66
312.299	20.65
312.513	-24.4
312.727	63.66
312.941	14.51
313.154	57.51
313.368	6.31
313.582	98.47
313.796	-8.02
314.009	32.94
314.223	6.31
314.437	51.37
314.651	49.32
314.864	12.46
315.078	-14.17
315.292	-5.97
315.505	51.37
315.719	39.08
315.933	22.7
316.146	20.65
316.36	-14.17
316.573	86.19
316.787	-32.6
317.001	12.46
317.214	-128.85
317.428	69.8
317.641	34.99
317.855	-55.12
318.068	65.71
318.282	12.46
318.495	47.27
318.709	86.19
318.922	20.65
319.136	51.37
319.349	49.32
319.563	8.36
319.776	67.75
319.99	55.47
320.203	20.65
320.417	123.05
320.63	51.37
320.843	53.42
321.057	32.94
321.27	20.65
321.483	43.18
321.697	-16.21
321.91	82.09
322.124	28.84
322.337	0.17
322.55	-5.97
322.763	-5.97
322.977	-26.45
323.19	-26.45
323.403	57.51
323.617	30.89
323.83	59.56
324.043	0.17
324.256	32.94
324.469	4.27
324.683	49.32
324.896	45.23
325.109	28.84
325.322	24.75
325.535	24.75
325.748	-18.26
325.962	-24.4
326.175	32.94
326.388	24.75
326.601	-32.6
326.814	-12.12
327.027	10.41
327.24	65.71
327.453	49.32
327.666	59.56
327.879	61.61
328.092	-8.02
328.305	20.65
328.518	-8.02
328.731	-8.02
328.944	47.27
329.157	16.55
329.37	8.36
329.583	14.51
329.796	-14.17
330.009	-40.79
330.222	110.76
330.435	77.99
330.648	-1.88
330.861	39.08
331.073	12.46
331.286	24.75
331.499	30.89
331.712	-77.65
331.925	39.08
332.138	-24.4
332.35	104.62
332.563	-12.12
332.776	12.46
332.989	-8.02
333.202	18.6
333.414	14.51
333.627	30.89
333.84	39.08
334.053	-20.31
334.265	-28.5
334.478	30.89
334.691	-69.46
334.903	73.9
335.116	41.13
335.329	59.56
335.541	80.04
335.754	71.85
335.966	4.27
336.179	41.13
336.392	-16.21
336.604	41.13
336.817	0.17
337.029	28.84
337.242	8.36
337.454	-57.17
337.667	-10.07
337.88	57.51
338.092	-8.02
338.305	59.56
338.517	-20.31
338.729	59.56
338.942	51.37
339.154	12.46
339.367	49.32
339.579	67.75
339.792	-28.5
340.004	92.33
340.217	-42.84
340.429	49.32
340.641	-8.02
340.854	0.17
341.066	-14.17
341.278	-71.51
341.491	34.99
341.703	12.46
341.915	-46.93
342.128	84.14
342.34	65.71
342.552	24.75
342.764	-20.31
342.977	2.22
343.189	-8.02
343.401	98.47
343.613	-12.12
343.826	-16.21
344.038	55.47
344.25	57.51
344.462	-3.93
344.674	26.79
344.886	37.03
345.099	41.13
345.311	149.67
345.523	-8.02
345.735	-10.07
345.947	94.38
346.159	2.22
346.371	26.79
346.583	6.31
346.795	-12.12
347.007	0.17
347.219	32.94
347.431	73.9
347.643	-8.02
347.855	20.65
348.067	41.13
348.279	-10.07
348.491	53.42
348.703	77.99
348.915	-14.17
349.127	-40.79
349.339	-5.97
349.551	106.67
349.763	34.99
349.975	65.71
350.187	14.51
350.399	75.95
350.61	71.85
350.822	-1.88
351.034	34.99
351.246	34.99
351.458	51.37
351.669	75.95
351.881	4.27
352.093	0.17
352.305	22.7
352.517	45.23
352.728	53.42
352.94	16.55
353.152	-28.5
353.363	-3.93
353.575	30.89
353.787	8.36
353.999	98.47
354.21	86.19
354.422	-26.45
354.633	-12.12
354.845	24.75
355.057	45.23
355.268	30.89
355.48	47.27
355.692	-75.6
355.903	57.51
356.115	6.31
356.326	-57.17
356.538	118.95
356.749	75.95
356.961	-1.88
357.172	41.13
357.384	51.37
357.595	-32.6
357.807	55.47
358.018	24.75
358.23	-20.31
358.441	34.99
358.653	-3.93
358.864	20.65
359.075	16.55
359.287	-3.93
359.498	57.51
359.709	-24.4
359.921	55.47
360.132	-48.98
360.344	30.89
360.555	34.99
360.766	28.84
360.977	30.89
361.189	106.67
361.4	-22.36
361.611	43.18
361.823	26.79
362.034	-30.55
362.245	-75.6
362.456	-26.45
362.667	8.36
362.879	-26.45
363.09	63.66
363.301	-14.17
363.512	49.32
363.723	6.31
363.935	-10.07
364.146	20.65
364.357	57.51
364.568	16.55
364.779	-36.69
364.99	94.38
365.201	24.75
365.412	28.84
365.623	20.65
365.834	26.79
366.045	8.36
366.256	57.51
366.467	0.17
366.678	-44.88
366.889	30.89
367.1	102.57
367.311	-10.07
367.522	45.23
367.733	12.46
367.944	39.08
368.155	4.27
368.366	6.31
368.577	43.18
368.788	24.75
368.999	8.36
369.209	90.28
369.42	-26.45
369.631	16.55
369.842	18.6
370.053	-10.07
370.264	28.84
370.474	-75.6
370.685	2.22
370.896	24.75
371.107	24.75
371.317	32.94
371.528	14.51
371.739	-3.93
371.95	6.31
372.16	-22.36
372.371	30.89
372.582	34.99
372.792	22.7
373.003	-3.93
373.214	2.22
373.424	18.6
373.635	-12.12
373.846	18.6
374.056	45.23
374.267	10.41
374.477	47.27
374.688	6.31
374.898	77.99
375.109	6.31
375.319	-32.6
375.53	2.22
375.74	71.85
375.951	6.31
376.161	49.32
376.372	43.18
376.582	34.99
376.793	73.9
377.003	-8.02
377.214	-40.79
377.424	55.47
377.635	41.13
377.845	4.27
378.055	75.95
378.266	-8.02
378.476	32.94
378.686	26.79
378.897	-26.45
379.107	-57.17
379.317	77.99
379.528	-48.98
379.738	18.6
379.948	73.9
380.158	51.37
380.369	12.46
380.579	6.31
380.789	24.75
380.999	18.6
381.21	4.27
381.42	16.55
381.63	43.18
381.84	61.61
382.05	45.23
382.261	39.08
382.471	57.51
382.681	-16.21
382.891	-3.93
383.101	-26.45
383.311	-10.07
383.521	14.51
383.731	18.6
383.941	73.9
384.151	30.89
384.361	55.47
384.571	59.56
384.781	0.17
384.991	37.03
385.201	139.43
385.411	71.85
385.621	43.18
385.831	18.6
386.041	59.56
386.251	28.84
386.461	-5.97
386.671	-48.98
386.881	24.75
387.091	2.22
387.301	8.36
387.511	75.95
387.72	41.13
387.93	-24.4
388.14	20.65
388.35	-10.07
388.56	67.75
388.769	41.13
388.979	16.55
389.189	-28.5
389.399	61.61
389.609	-8.02
389.818	82.09
390.028	28.84
390.238	2.22
390.447	-28.5
390.657	41.13
390.867	-10.07
391.076	-5.97
391.286	49.32
391.496	71.85
391.705	18.6
391.915	137.38
392.125	65.71
392.334	-8.02
392.544	30.89
392.753	102.57
392.963	-18.26
393.172	30.89
393.382	22.7
393.591	86.19
393.801	-10.07
394.01	118.95
394.22	32.94
394.429	45.23
394.639	-8.02
394.848	69.8
395.058	24.75
395.267	63.66
395.477	41.13
395.686	65.71
395.895	16.55
396.105	106.67
396.314	12.46
396.524	-14.17
396.733	59.56
396.942	77.99
397.152	100.52
397.361	121
397.57	57.51
397.78	92.33
397.989	67.75
398.198	71.85
398.407	32.94
398.617	-67.41
398.826	63.66
399.035	43.18
399.244	75.95
399.453	51.37
399.663	22.7
399.872	51.37
400.081	24.75
400.29	45.23
400.499	14.51
400.708	121
400.917	41.13
401.127	0.17
401.336	55.47
401.545	73.9
401.754	71.85
401.963	57.51
402.172	80.04
402.381	63.66
402.59	61.61
402.799	61.61
403.008	45.23
403.217	114.86
403.426	26.79
403.635	77.99
403.844	155.82
404.053	106.67
404.262	116.9
404.471	102.57
404.68	84.14
404.888	84.14
405.097	67.75
405.306	98.47
405.515	125.1
405.724	98.47
405.933	73.9
406.142	141.48
406.35	110.76
406.559	143.53
406.768	96.43
406.977	153.77
407.185	96.43
407.394	180.39
407.603	88.23
407.812	94.38
408.02	147.62
408.229	94.38
408.438	159.91
408.646	155.82
408.855	182.44
409.064	168.1
409.272	90.28
409.481	204.97
409.69	176.3
409.898	145.58
410.107	215.21
410.315	213.16
410.524	149.67
410.733	223.4
410.941	188.58
411.15	202.92
411.358	164.01
411.567	213.16
411.775	198.82
411.984	227.5
412.192	237.74
412.401	241.83
412.609	213.16
412.818	278.69
413.026	237.74
413.234	288.93
413.443	329.89
413.651	280.74
413.86	309.41
414.068	315.56
414.276	358.57
414.485	370.85
414.693	397.48
414.901	409.76
415.11	403.62
415.318	432.29
415.526	403.62
415.734	463.01
415.943	481.44
416.151	399.52
416.359	512.16
416.567	471.2
416.776	532.64
416.984	608.42
417.192	538.79
417.4	592.03
417.608	583.84
417.817	549.03
418.025	639.14
418.233	616.61
418.441	682.14
418.649	792.73
418.857	794.78
419.065	770.21
419.273	757.92
419.481	792.73
419.689	917.66
419.897	821.41
420.105	942.24
420.313	886.94
420.521	977.05
420.729	993.44
420.937	917.66
421.145	1071.26
421.353	1130.65
421.561	1118.36
421.769	1114.27
421.977	1126.55
422.185	1282.2
422.393	1308.82
422.601	1349.78
422.809	1355.93
423.017	1403.03
423.224	1448.08
423.432	1480.85
423.64	1337.49
423.848	1661.07
424.056	1611.92
424.263	1740.94
424.471	1728.66
424.679	1730.7
424.887	1810.58
425.094	1923.21
425.302	1921.17
425.51	1958.03
425.718	2027.66
425.925	1941.65
426.133	2173.07
426.341	2107.53
426.548	2390.15
426.756	2287.75
426.964	2379.91
427.171	2406.53
427.379	2623.62
427.586	2560.13
427.794	2746.5
428.001	2805.89
428.209	2875.52
428.417	2842.75
428.624	3154.04
428.832	3162.23
429.039	2994.3
429.247	2994.3
429.454	3410.04
429.662	3543.16
429.869	3330.17
430.076	3647.6
430.284	3575.92
430.491	3670.13
430.699	3885.17
430.906	3872.88
431.114	3922.03
431.321	4075.63
431.528	4132.97
431.736	4585.57
431.943	4677.73
432.15	4401.26
432.358	4503.65
432.565	4860
432.772	4851.81
432.979	5040.22
433.187	5089.37
433.394	5308.51
433.601	5480.54
433.808	5503.06
434.016	5607.51
434.223	5734.48
434.43	5976.14
434.637	6111.31
434.844	6400.07
435.052	6549.57
435.259	6459.46
435.466	6520.9
435.673	6602.82
435.88	6774.85
436.087	7088.19
436.294	7286.84
436.501	6979.65
436.708	7237.69
436.915	7372.86
437.122	7651.38
437.329	7919.67
437.537	8181.81
437.743	8218.67
437.95	8159.28
438.157	8667.17
438.364	8984.61
438.571	8923.17
438.778	8855.59
438.985	9506.84
439.192	9484.31
439.399	9521.18
439.606	9402.4
439.813	9930.77
440.02	10514.44
440.227	10364.94
440.433	10416.14
440.64	10489.87
440.847	10709
441.054	10743.81
441.261	11390.97
441.467	11251.71
441.674	11845.62
441.881	12079.09
442.088	12136.43
442.294	11927.54
442.501	12312.56
442.708	12482.54
442.914	12890.09
443.121	13584.35
443.328	13504.48
443.534	14059.48
443.741	13684.7
443.948	13449.18
444.154	14600.14
444.361	14262.23
444.568	14749.64
444.774	14522.32
444.981	14780.36
445.187	15202.24
445.394	15896.5
445.6	15749.05
445.807	17117.09
446.013	16426.93
446.22	16834.47
446.426	17350.56
446.633	17575.84
446.839	18093.97
447.046	17381.28
447.252	18227.09
447.459	18302.87
447.665	18253.72
447.871	19249.03
448.078	19992.44
448.284	19298.18
448.491	19603.33
448.697	20365.17
448.903	20799.34
449.11	20262.77
449.316	20477.81
449.522	20715.37
449.728	21237.61
449.935	21565.28
450.141	21208.94
450.347	21663.58
450.553	21022.57
450.76	21340.01
450.966	22048.6
451.172	21864.29
451.378	22345.56
451.584	21800.8
451.791	22370.13
451.997	22509.4
452.203	22988.62
452.409	22712.14
452.615	22519.64
452.821	21788.51
453.027	21585.76
453.233	22959.95
453.44	21542.75
453.646	21925.72
453.852	22175.58
454.058	22810.45
454.264	21868.38
454.47	22194.01
454.676	21811.04
454.882	22554.45
455.088	20299.64
455.294	20633.46
455.5	21088.1
455.705	21204.84
455.911	20342.64
456.117	19894.14
456.323	19484.55
456.529	18464.66
456.735	19220.36
456.941	18921.35
457.147	18427.79
457.352	18022.3
457.558	17811.35
457.764	17790.88
457.97	17424.29
458.176	17156
458.381	17246.12
458.587	16302
458.793	16033.72
458.999	15278.02
459.204	16242.61
459.41	15654.84
459.616	14866.38
459.821	14847.94
460.027	14882.76
460.233	14632.91
460.438	13692.89
460.644	14102.48
460.85	13121.51
461.055	13213.67
461.261	12926.95
461.466	12105.71
461.672	11759.61
461.878	12527.6
462.083	11581.43
462.289	11595.77
462.494	11380.73
462.7	11198.46
462.905	10491.91
463.111	10944.52
463.316	10999.81
463.522	10678.28
463.727	10913.8
463.932	10817.54
464.138	10762.25
464.343	10516.49
464.549	10250.25
464.754	10428.43
464.959	10676.23
465.165	10600.46
465.37	10008.59
465.575	9836.56
465.781	10237.97
465.986	10305.55
466.191	9889.81
466.397	9807.89
466.602	9375.77
466.807	9758.74
467.012	9652.25
467.218	9732.12
467.423	9324.57
467.628	9562.14
467.833	9934.87
468.038	9789.46
