Data from USB4F104151__46__12-01-31-770.txt Node

Date: Fri Mar 14 12:01:31 EDT 2025
User: louis
Spectrometer: USB4F10415
Trigger mode: 4
Integration Time (sec): 2.000000E-2
Scans to average: 1
Electric dark correction enabled: true
Nonlinearity correction enabled: false
Boxcar width: 0
XAxis mode: Wavelengths
Number of Pixels in Spectrum: 3648
>>>>>Begin Spectral Data<<<<<
178.204	-10.58
178.424	-10.58
178.644	-10.58
178.864	-49.49
179.084	-100.69
179.304	36.52
179.524	32.43
179.744	-4.44
179.964	54.95
180.184	44.71
180.404	-37.2
180.624	-92.5
180.844	-10.58
181.064	-6.49
181.283	24.23
181.503	-39.25
181.723	-2.39
181.943	67.24
182.163	61.1
182.383	7.85
182.602	-2.39
182.822	50.86
183.042	97.96
183.262	38.57
183.482	30.38
183.701	3.75
183.921	7.85
184.141	-8.53
184.361	32.43
184.58	20.14
184.8	32.43
185.02	11.95
185.239	59.05
185.459	106.15
185.679	46.76
185.898	-8.53
186.118	44.71
186.338	-37.2
186.557	34.47
186.777	89.77
186.997	13.99
187.216	75.43
187.436	48.81
187.655	9.9
187.875	22.19
188.095	36.52
188.314	38.57
188.534	44.71
188.753	79.53
188.973	61.1
189.192	34.47
189.412	118.44
189.631	48.81
189.851	18.09
190.07	102.06
190.29	30.38
190.509	-51.54
190.729	18.09
190.948	59.05
191.168	73.39
191.387	46.76
191.607	20.14
191.826	57
192.045	11.95
192.265	50.86
192.484	38.57
192.704	57
192.923	-18.77
193.142	93.87
193.362	18.09
193.581	34.47
193.8	46.76
194.02	65.19
194.239	52.91
194.458	65.19
194.678	20.14
194.897	13.99
195.116	52.91
195.335	30.38
195.555	85.67
195.774	18.09
195.993	69.29
196.212	24.23
196.432	42.67
196.651	-16.73
196.87	-26.96
197.089	67.24
197.308	34.47
197.528	97.96
197.747	-41.3
197.966	36.52
198.185	63.15
198.404	-2.39
198.623	36.52
198.842	26.28
199.062	50.86
199.281	73.39
199.5	-10.58
199.719	52.91
199.938	61.1
200.157	54.95
200.376	61.1
200.595	67.24
200.814	50.86
201.033	-24.92
201.252	38.57
201.471	28.33
201.69	-26.96
201.909	79.53
202.128	42.67
202.347	46.76
202.566	46.76
202.785	50.86
203.004	-0.34
203.223	40.62
203.442	3.75
203.661	18.09
203.879	-4.44
204.098	67.24
204.317	-20.82
204.536	-6.49
204.755	-29.01
204.974	67.24
205.193	34.47
205.411	79.53
205.63	57
205.849	75.43
206.068	24.23
206.287	30.38
206.505	69.29
206.724	48.81
206.943	59.05
207.162	52.91
207.381	22.19
207.599	38.57
207.818	59.05
208.037	-0.34
208.255	71.34
208.474	20.14
208.693	32.43
208.911	-37.2
209.13	-24.92
209.349	34.47
209.567	42.67
209.786	73.39
210.005	-6.49
210.223	-26.96
210.442	-20.82
210.661	-0.34
210.879	61.1
211.098	52.91
211.316	42.67
211.535	79.53
211.753	63.15
211.972	-41.3
212.191	-47.44
212.409	46.76
212.628	7.85
212.846	28.33
213.065	-4.44
213.283	145.06
213.502	38.57
213.72	69.29
213.938	28.33
214.157	-24.92
214.375	-4.44
214.594	-12.63
214.812	50.86
215.031	-4.44
215.249	18.09
215.467	32.43
215.686	5.8
215.904	110.25
216.122	61.1
216.341	77.48
216.559	54.95
216.778	59.05
216.996	93.87
217.214	-24.92
217.432	24.23
217.651	18.09
217.869	1.71
218.087	67.24
218.306	73.39
218.524	-12.63
218.742	52.91
218.96	-16.73
219.179	44.71
219.397	75.43
219.615	59.05
219.833	-8.53
220.051	46.76
220.27	97.96
220.488	42.67
220.706	48.81
220.924	81.58
221.142	48.81
221.36	79.53
221.578	81.58
221.796	-10.58
222.015	69.29
222.233	1.71
222.451	69.29
222.669	13.99
222.887	38.57
223.105	24.23
223.323	91.82
223.541	69.29
223.759	20.14
223.977	59.05
224.195	112.3
224.413	71.34
224.631	-4.44
224.849	52.91
225.067	149.16
225.285	46.76
225.503	32.43
225.721	-2.39
225.939	52.91
226.157	85.67
226.375	77.48
226.592	-6.49
226.81	38.57
227.028	71.34
227.246	61.1
227.464	87.72
227.682	93.87
227.9	100.01
228.117	-4.44
228.335	67.24
228.553	-4.44
228.771	-8.53
228.989	83.63
229.206	93.87
229.424	-4.44
229.642	67.24
229.86	61.1
230.077	52.91
230.295	95.91
230.513	42.67
230.731	52.91
230.948	46.76
231.166	3.75
231.384	1.71
231.601	24.23
231.819	11.95
232.037	-8.53
232.254	-18.77
232.472	46.76
232.689	24.23
232.907	71.34
233.125	7.85
233.342	46.76
233.56	9.9
233.777	-12.63
233.995	16.04
234.213	59.05
234.43	32.43
234.648	42.67
234.865	30.38
235.083	22.19
235.3	75.43
235.518	28.33
235.735	63.15
235.953	83.63
236.17	3.75
236.388	93.87
236.605	1.71
236.822	97.96
237.04	93.87
237.257	42.67
237.475	59.05
237.692	87.72
237.909	87.72
238.127	-119.12
238.344	-8.53
238.562	44.71
238.779	48.81
238.996	-16.73
239.214	7.85
239.431	59.05
239.648	44.71
239.865	24.23
240.083	77.48
240.3	61.1
240.517	9.9
240.735	5.8
240.952	-22.87
241.169	71.34
241.386	95.91
241.603	30.38
241.821	13.99
242.038	40.62
242.255	77.48
242.472	3.75
242.689	9.9
242.907	18.09
243.124	54.95
243.341	42.67
243.558	-20.82
243.775	-29.01
243.992	-37.2
244.209	46.76
244.426	61.1
244.643	36.52
244.86	-6.49
245.078	24.23
245.295	-2.39
245.512	11.95
245.729	130.73
245.946	40.62
246.163	44.71
246.38	28.33
246.597	28.33
246.814	87.72
247.031	18.09
247.248	38.57
247.464	42.67
247.681	32.43
247.898	-41.3
248.115	110.25
248.332	-12.63
248.549	73.39
248.766	40.62
248.983	61.1
249.2	34.47
249.417	32.43
249.633	38.57
249.85	52.91
250.067	81.58
250.284	18.09
250.501	26.28
250.717	67.24
250.934	-39.25
251.151	69.29
251.368	-2.39
251.585	11.95
251.801	40.62
252.018	-29.01
252.235	24.23
252.451	28.33
252.668	18.09
252.885	9.9
253.102	42.67
253.318	36.52
253.535	38.57
253.752	16.04
253.968	38.57
254.185	-8.53
254.401	46.76
254.618	73.39
254.835	30.38
255.051	69.29
255.268	44.71
255.484	57
255.701	46.76
255.917	61.1
256.134	32.43
256.351	57
256.567	38.57
256.784	9.9
257	40.62
257.217	46.76
257.433	30.38
257.65	36.52
257.866	63.15
258.082	24.23
258.299	67.24
258.515	20.14
258.732	-26.96
258.948	38.57
259.165	100.01
259.381	75.43
259.597	67.24
259.814	38.57
260.03	36.52
260.246	69.29
260.463	38.57
260.679	46.76
260.895	42.67
261.112	44.71
261.328	81.58
261.544	79.53
261.761	73.39
261.977	34.47
262.193	42.67
262.409	79.53
262.626	26.28
262.842	126.63
263.058	118.44
263.274	61.1
263.49	50.86
263.707	118.44
263.923	61.1
264.139	63.15
264.355	61.1
264.571	130.73
264.787	-8.53
265.004	38.57
265.22	7.85
265.436	95.91
265.652	61.1
265.868	75.43
266.084	-8.53
266.3	3.75
266.516	20.14
266.732	114.34
266.948	63.15
267.164	67.24
267.38	-33.11
267.596	30.38
267.812	81.58
268.028	134.82
268.244	91.82
268.46	9.9
268.676	-4.44
268.892	104.11
269.108	57
269.324	13.99
269.54	-22.87
269.756	32.43
269.972	100.01
270.188	50.86
270.403	3.75
270.619	-16.73
270.835	24.23
271.051	38.57
271.267	38.57
271.483	44.71
271.698	57
271.914	69.29
272.13	89.77
272.346	57
272.562	61.1
272.777	63.15
272.993	-2.39
273.209	81.58
273.425	67.24
273.64	-24.92
273.856	57
274.072	18.09
274.287	38.57
274.503	-6.49
274.719	34.47
274.934	5.8
275.15	-43.35
275.366	67.24
275.581	38.57
275.797	77.48
276.012	32.43
276.228	59.05
276.444	-39.25
276.659	63.15
276.875	61.1
277.09	97.96
277.306	42.67
277.521	97.96
277.737	13.99
277.952	50.86
278.168	34.47
278.383	46.76
278.599	-55.64
278.814	73.39
279.03	59.05
279.245	57
279.461	61.1
279.676	71.34
279.892	-31.06
280.107	36.52
280.322	1.71
280.538	85.67
280.753	24.23
280.969	57
281.184	18.09
281.399	69.29
281.615	50.86
281.83	73.39
282.045	114.34
282.26	61.1
282.476	30.38
282.691	97.96
282.906	95.91
283.122	54.95
283.337	40.62
283.552	75.43
283.767	65.19
283.983	38.57
284.198	50.86
284.413	36.52
284.628	-12.63
284.843	46.76
285.058	100.01
285.274	71.34
285.489	20.14
285.704	7.85
285.919	97.96
286.134	85.67
286.349	87.72
286.564	28.33
286.779	50.86
286.995	22.19
287.21	-16.73
287.425	104.11
287.64	20.14
287.855	36.52
288.07	-12.63
288.285	138.92
288.5	65.19
288.715	-26.96
288.93	40.62
289.145	71.34
289.36	50.86
289.575	77.48
289.79	87.72
290.004	5.8
290.219	-6.49
290.434	5.8
290.649	13.99
290.864	40.62
291.079	79.53
291.294	7.85
291.509	-39.25
291.724	34.47
291.938	-31.06
292.153	69.29
292.368	-10.58
292.583	128.68
292.798	-0.34
293.012	83.63
293.227	65.19
293.442	38.57
293.657	122.54
293.871	11.95
294.086	79.53
294.301	130.73
294.516	52.91
294.73	91.82
294.945	36.52
295.16	52.91
295.374	-12.63
295.589	81.58
295.804	73.39
296.018	69.29
296.233	63.15
296.447	97.96
296.662	3.75
296.877	52.91
297.091	54.95
297.306	77.48
297.52	83.63
297.735	63.15
297.949	18.09
298.164	91.82
298.378	-18.77
298.593	59.05
298.807	13.99
299.022	42.67
299.236	36.52
299.451	13.99
299.665	28.33
299.88	83.63
300.094	83.63
300.309	87.72
300.523	73.39
300.737	102.06
300.952	-41.3
301.166	-51.54
301.381	65.19
301.595	16.04
301.809	145.06
302.024	65.19
302.238	42.67
302.452	57
302.667	-33.11
302.881	120.49
303.095	52.91
303.309	36.52
303.524	26.28
303.738	36.52
303.952	7.85
304.166	57
304.381	-47.44
304.595	81.58
304.809	91.82
305.023	87.72
305.237	81.58
305.452	22.19
305.666	73.39
305.88	124.58
306.094	57
306.308	79.53
306.522	59.05
306.736	44.71
306.95	-16.73
307.164	65.19
307.379	-8.53
307.593	89.77
307.807	81.58
308.021	114.34
308.235	57
308.449	83.63
308.663	89.77
308.877	61.1
309.091	63.15
309.305	65.19
309.519	69.29
309.733	71.34
309.947	75.43
310.161	73.39
310.374	130.73
310.588	124.58
310.802	59.05
311.016	69.29
311.23	24.23
311.444	7.85
311.658	59.05
311.872	104.11
312.085	52.91
312.299	79.53
312.513	59.05
312.727	46.76
312.941	87.72
313.154	110.25
313.368	110.25
313.582	89.77
313.796	30.38
314.009	28.33
314.223	32.43
314.437	112.3
314.651	110.25
314.864	73.39
315.078	73.39
315.292	57
315.505	77.48
315.719	57
315.933	83.63
316.146	87.72
316.36	-29.01
316.573	54.95
316.787	91.82
317.001	61.1
317.214	11.95
317.428	9.9
317.641	100.01
317.855	57
318.068	54.95
318.282	34.47
318.495	61.1
318.709	100.01
318.922	18.09
319.136	65.19
319.349	63.15
319.563	20.14
319.776	-18.77
319.99	13.99
320.203	136.87
320.417	89.77
320.63	71.34
320.843	69.29
321.057	89.77
321.27	38.57
321.483	59.05
321.697	40.62
321.91	28.33
322.124	46.76
322.337	-59.73
322.55	46.76
322.763	-0.34
322.977	52.91
323.19	44.71
323.403	67.24
323.617	42.67
323.83	108.2
324.043	24.23
324.256	46.76
324.469	59.05
324.683	110.25
324.896	16.04
325.109	42.67
325.322	24.23
325.535	67.24
325.748	34.47
325.962	79.53
326.175	52.91
326.388	28.33
326.601	-29.01
326.814	77.48
327.027	73.39
327.24	81.58
327.453	93.87
327.666	89.77
327.879	79.53
328.092	79.53
328.305	-4.44
328.518	-2.39
328.731	-18.77
328.944	63.15
329.157	87.72
329.37	32.43
329.583	42.67
329.796	59.05
330.009	-4.44
330.222	34.47
330.435	22.19
330.648	3.75
330.861	48.81
331.073	77.48
331.286	63.15
331.499	77.48
331.712	130.73
331.925	30.38
332.138	42.67
332.35	57
332.563	1.71
332.776	147.11
332.989	13.99
333.202	52.91
333.414	79.53
333.627	95.91
333.84	61.1
334.053	79.53
334.265	52.91
334.478	26.28
334.691	85.67
334.903	106.15
335.116	52.91
335.329	69.29
335.541	75.43
335.754	114.34
335.966	-18.77
336.179	44.71
336.392	54.95
336.604	-29.01
336.817	5.8
337.029	126.63
337.242	63.15
337.454	116.39
337.667	61.1
337.88	153.26
338.092	108.2
338.305	63.15
338.517	71.34
338.729	79.53
338.942	38.57
339.154	50.86
339.367	87.72
339.579	3.75
339.792	87.72
340.004	63.15
340.217	54.95
340.429	108.2
340.641	-2.39
340.854	40.62
341.066	91.82
341.278	-14.68
341.491	65.19
341.703	32.43
341.915	20.14
342.128	124.58
342.34	24.23
342.552	54.95
342.764	-2.39
342.977	52.91
343.189	100.01
343.401	54.95
343.613	-10.58
343.826	50.86
344.038	-31.06
344.25	79.53
344.462	18.09
344.674	59.05
344.886	-0.34
345.099	79.53
345.311	32.43
345.523	26.28
345.735	42.67
345.947	93.87
346.159	18.09
346.371	50.86
346.583	26.28
346.795	97.96
347.007	7.85
347.219	87.72
347.431	-37.2
347.643	20.14
347.855	57
348.067	44.71
348.279	18.09
348.491	-49.49
348.703	67.24
348.915	16.04
349.127	30.38
349.339	93.87
349.551	91.82
349.763	153.26
349.975	36.52
350.187	122.54
350.399	149.16
350.61	102.06
350.822	36.52
351.034	69.29
351.246	71.34
351.458	118.44
351.669	77.48
351.881	91.82
352.093	59.05
352.305	79.53
352.517	42.67
352.728	87.72
352.94	91.82
353.152	32.43
353.363	32.43
353.575	67.24
353.787	65.19
353.999	36.52
354.21	42.67
354.422	3.75
354.633	46.76
354.845	38.57
355.057	73.39
355.268	89.77
355.48	48.81
355.692	67.24
355.903	-2.39
356.115	30.38
356.326	110.25
356.538	104.11
356.749	18.09
356.961	38.57
357.172	116.39
357.384	48.81
357.595	59.05
357.807	102.06
358.018	102.06
358.23	69.29
358.441	116.39
358.653	140.97
358.864	87.72
359.075	61.1
359.287	-33.11
359.498	81.58
359.709	73.39
359.921	65.19
360.132	118.44
360.344	30.38
360.555	91.82
360.766	44.71
360.977	69.29
361.189	61.1
361.4	46.76
361.611	151.21
361.823	5.8
362.034	-0.34
362.245	13.99
362.456	30.38
362.667	20.14
362.879	52.91
363.09	97.96
363.301	50.86
363.512	-4.44
363.723	18.09
363.935	48.81
364.146	44.71
364.357	57
364.568	75.43
364.779	65.19
364.99	140.97
365.201	13.99
365.412	106.15
365.623	95.91
365.834	100.01
366.045	145.06
366.256	108.2
366.467	-8.53
366.678	83.63
366.889	61.1
367.1	73.39
367.311	63.15
367.522	20.14
367.733	81.58
367.944	110.25
368.155	67.24
368.366	69.29
368.577	75.43
368.788	42.67
368.999	26.28
369.209	145.06
369.42	42.67
369.631	151.21
369.842	104.11
370.053	5.8
370.264	145.06
370.474	3.75
370.685	147.11
370.896	95.91
371.107	75.43
371.317	122.54
371.528	130.73
371.739	108.2
371.95	9.9
372.16	81.58
372.371	7.85
372.582	85.67
372.792	89.77
373.003	63.15
373.214	95.91
373.424	93.87
373.635	77.48
373.846	155.3
374.056	67.24
374.267	46.76
374.477	81.58
374.688	112.3
374.898	134.82
375.109	128.68
375.319	46.76
375.53	79.53
375.74	93.87
375.951	100.01
376.161	89.77
376.372	155.3
376.582	59.05
376.793	61.1
377.003	140.97
377.214	59.05
377.424	95.91
377.635	38.57
377.845	50.86
378.055	69.29
378.266	52.91
378.476	50.86
378.686	81.58
378.897	126.63
379.107	116.39
379.317	30.38
379.528	22.19
379.738	118.44
379.948	11.95
380.158	13.99
380.369	38.57
380.579	-26.96
380.789	18.09
380.999	151.21
381.21	159.4
381.42	132.78
381.63	30.38
381.84	18.09
382.05	69.29
382.261	42.67
382.471	163.5
382.681	52.91
382.891	140.97
383.101	65.19
383.311	34.47
383.521	79.53
383.731	81.58
383.941	91.82
384.151	73.39
384.361	120.49
384.571	46.76
384.781	145.06
384.991	147.11
385.201	52.91
385.411	63.15
385.621	120.49
385.831	102.06
386.041	48.81
386.251	44.71
386.461	116.39
386.671	46.76
386.881	85.67
387.091	81.58
387.301	100.01
387.511	83.63
387.72	93.87
387.93	50.86
388.14	79.53
388.35	112.3
388.56	104.11
388.769	52.91
388.979	73.39
389.189	-20.82
389.399	46.76
389.609	77.48
389.818	179.88
390.028	110.25
390.238	132.78
390.447	54.95
390.657	159.4
390.867	128.68
391.076	52.91
391.286	48.81
391.496	87.72
391.705	34.47
391.915	81.58
392.125	106.15
392.334	140.97
392.544	73.39
392.753	75.43
392.963	132.78
393.172	122.54
393.382	138.92
393.591	128.68
393.801	61.1
394.01	110.25
394.22	65.19
394.429	75.43
394.639	95.91
394.848	110.25
395.058	11.95
395.267	85.67
395.477	128.68
395.686	155.3
395.895	229.03
396.105	255.65
396.314	171.69
396.524	120.49
396.733	122.54
396.942	108.2
397.152	159.4
397.361	138.92
397.57	69.29
397.78	171.69
397.989	181.93
398.198	122.54
398.407	157.35
398.617	128.68
398.826	175.78
399.035	140.97
399.244	108.2
399.453	140.97
399.663	102.06
399.872	128.68
400.081	75.43
400.29	110.25
400.499	157.35
400.708	175.78
400.917	173.74
401.127	169.64
401.336	95.91
401.545	204.46
401.754	183.98
401.963	134.82
402.172	224.94
402.381	145.06
402.59	145.06
402.799	128.68
403.008	214.7
403.217	157.35
403.426	214.7
403.635	183.98
403.844	149.16
404.053	136.87
404.262	87.72
404.471	210.6
404.68	181.93
404.888	224.94
405.097	161.45
405.306	245.41
405.515	235.18
405.724	179.88
405.933	190.12
406.142	245.41
406.35	196.26
406.559	339.62
406.768	222.89
406.977	288.42
407.185	216.74
407.394	284.33
407.603	231.08
407.812	319.14
408.02	341.67
408.229	308.9
408.438	290.47
408.646	368.29
408.855	319.14
409.064	364.2
409.272	267.94
409.481	321.19
409.69	411.3
409.898	456.36
410.107	399.01
410.315	380.58
410.524	442.02
410.733	456.36
410.941	429.73
411.15	476.84
411.358	554.66
411.567	478.88
411.775	505.51
411.984	534.18
412.192	568.99
412.401	550.56
412.609	587.43
412.818	628.39
413.026	657.06
413.234	681.63
413.443	736.93
413.651	700.06
413.86	741.02
414.068	820.89
414.276	816.8
414.485	808.61
414.693	935.58
414.901	831.13
415.11	802.46
415.318	939.68
415.526	1085.08
415.734	1066.65
415.943	1042.07
416.151	1072.79
416.359	1167
416.567	1064.6
416.776	1187.48
416.984	1291.93
417.192	1332.89
417.4	1425.04
417.608	1341.08
417.817	1445.52
418.025	1511.06
418.233	1527.44
418.441	1492.63
418.649	1586.83
418.857	1722
419.065	1740.43
419.273	1771.15
419.481	1879.69
419.689	1955.47
419.897	2043.53
420.105	2123.4
420.313	2094.73
420.521	2248.33
420.729	2207.37
420.937	2307.72
421.145	2395.78
421.353	2305.67
421.561	2557.57
421.769	2684.55
421.977	2901.63
422.185	2754.18
422.393	3032.7
422.601	3151.48
422.809	3032.7
423.017	3122.81
423.224	3290.74
423.432	3286.65
423.64	3321.46
423.848	3729.01
424.056	3513.97
424.263	3804.78
424.471	3774.07
424.679	3970.67
424.887	4189.8
425.094	4343.4
425.302	4286.06
425.51	4443.75
425.718	4611.68
425.925	4767.33
426.133	4988.51
426.341	5033.57
426.548	5314.14
426.756	5269.08
426.964	5412.44
427.171	5723.73
427.379	5830.23
427.586	5895.76
427.794	6139.47
428.001	6420.04
428.209	6858.31
428.417	6694.47
428.624	7181.89
428.832	7081.53
429.039	7016
429.247	6999.62
429.454	7716.4
429.662	8150.57
429.869	7734.84
430.076	8298.03
430.284	8013.36
430.491	8410.67
430.699	8824.36
430.906	8760.87
431.114	8920.61
431.321	9473.56
431.528	9616.92
431.736	10026.51
431.943	10464.78
432.15	10216.97
432.358	10571.27
432.565	10888.71
432.772	10944
432.979	11812.34
433.187	11703.8
433.394	11658.74
433.601	12455.4
433.808	12516.84
434.016	12506.6
434.223	12942.82
434.43	13606.36
434.637	13497.82
434.844	14505.42
435.052	14755.27
435.259	14761.42
435.466	14745.03
435.673	14816.71
435.88	15660.48
436.087	16627.12
436.294	16199.09
436.501	16065.97
436.708	16295.35
436.915	16807.34
437.122	17800.6
437.329	17526.18
437.537	18249.11
437.743	18517.39
437.95	18339.22
438.157	19180.93
438.364	20163.96
438.571	19961.21
438.778	20030.84
438.985	21808.48
439.192	20882.8
439.399	21577.06
439.606	21243.24
439.813	22287.7
440.02	23678.27
440.227	23506.24
440.433	23024.97
440.64	23786.82
440.847	24046.91
441.054	24259.9
441.261	25957.66
441.467	25695.52
441.674	25765.15
441.881	27079.95
442.088	27141.39
442.294	26696.98
442.501	27606.28
442.708	28034.3
442.914	29121.77
443.121	30295.26
443.328	29525.22
443.534	31470.79
443.741	30788.82
443.948	30164.19
444.154	32820.41
444.361	32337.09
444.568	32818.36
444.774	32642.23
444.981	32857.27
445.187	33744.04
445.394	35210.39
445.6	34628.76
445.807	38225
446.013	36269.19
446.22	37506.16
446.426	38888.54
446.633	38902.87
446.839	40045.64
447.046	38767.71
447.252	40993.85
447.459	40707.13
447.665	40477.76
447.871	42413.09
448.078	44596.23
448.284	41802.8
448.491	43045.91
448.697	44712.96
448.903	45493.24
449.11	45358.07
449.316	44856.32
449.522	45947.89
449.728	46930.91
449.935	47285.21
450.141	47250.39
450.347	48425.93
450.553	46881.76
450.76	47393.75
450.966	48671.68
451.172	48341.96
451.378	49494.97
451.584	48589.77
451.791	49638.33
451.997	49572.79
452.203	49531.83
452.409	50310.06
452.615	49544.12
452.821	47872.98
453.027	47455.19
453.233	49963.95
453.44	47848.4
453.646	48198.6
453.852	48708.55
454.058	49277.88
454.264	47680.47
454.47	48948.16
454.676	47528.92
454.882	48806.85
455.088	44846.08
455.294	45468.66
455.5	46341.1
455.705	46789.6
455.911	44608.51
456.117	44039.18
456.323	43217.94
456.529	41204.79
456.735	42687.52
456.941	41724.97
457.147	40981.56
457.352	39900.23
457.558	39339.09
457.764	39486.54
457.97	38653.02
458.176	37876.84
458.381	37864.55
458.587	35882.12
458.793	36019.33
458.999	34094.24
459.204	36275.33
459.41	35413.13
459.616	33123.51
459.821	32990.39
460.027	32974
460.233	32206.02
460.438	30596.31
460.644	30911.7
460.85	29471.98
461.055	29078.77
461.261	28869.87
461.466	26592.53
461.672	25982.24
461.878	28044.54
462.083	26084.64
462.289	25472.29
462.494	25240.87
462.7	24290.62
462.905	23426.37
463.111	24327.48
463.316	24444.21
463.522	24094.01
463.727	24200.51
463.932	23840.06
464.138	23723.33
464.343	23674.18
464.549	22934.86
464.754	23801.15
464.959	23641.41
465.165	23600.45
465.37	22560.08
465.575	21757.28
465.781	22748.5
465.986	22898
466.191	21966.17
466.397	21409.12
466.602	20561.26
466.807	21284.2
467.012	21562.72
467.218	21491.04
467.423	20823.4
