Data from USB4F104151__53__12-01-41-189.txt Node

Date: Fri Mar 14 12:01:41 EDT 2025
User: louis
Spectrometer: USB4F10415
Trigger mode: 4
Integration Time (sec): 2.000000E-2
Scans to average: 1
Electric dark correction enabled: true
Nonlinearity correction enabled: false
Boxcar width: 0
XAxis mode: Wavelengths
Number of Pixels in Spectrum: 3648
>>>>>Begin Spectral Data<<<<<
178.204	-67.41
178.424	-67.41
178.644	-67.41
178.864	-87.89
179.084	-55.12
179.304	-51.03
179.524	20.65
179.744	-16.21
179.964	-5.97
180.184	51.37
180.404	59.56
180.624	-28.5
180.844	18.6
181.064	-69.46
181.283	34.99
181.503	-36.69
181.723	22.7
181.943	43.18
182.163	12.46
182.383	32.94
182.602	86.19
182.822	65.71
183.042	-26.45
183.262	20.65
183.482	51.37
183.701	-8.02
183.921	57.51
184.141	37.03
184.361	41.13
184.58	-1.88
184.8	26.79
185.02	-57.17
185.239	-28.5
185.459	20.65
185.679	28.84
185.898	-38.74
186.118	63.66
186.338	-91.99
186.557	34.99
186.777	-40.79
186.997	45.23
187.216	43.18
187.436	147.62
187.655	45.23
187.875	45.23
188.095	-1.88
188.314	39.08
188.534	53.42
188.753	-28.5
188.973	-22.36
189.192	2.22
189.412	43.18
189.631	65.71
189.851	26.79
190.07	63.66
190.29	47.27
190.509	4.27
190.729	6.31
190.948	71.85
191.168	94.38
191.387	96.43
191.607	0.17
191.826	51.37
192.045	24.75
192.265	-8.02
192.484	-22.36
192.704	-51.03
192.923	92.33
193.142	26.79
193.362	73.9
193.581	104.62
193.8	104.62
194.02	22.7
194.239	-5.97
194.458	-16.21
194.678	4.27
194.897	-18.26
195.116	-18.26
195.335	-1.88
195.555	10.41
195.774	37.03
195.993	92.33
196.212	16.55
196.432	-10.07
196.651	-12.12
196.87	45.23
197.089	41.13
197.308	14.51
197.528	94.38
197.747	-36.69
197.966	16.55
198.185	26.79
198.404	106.67
198.623	-5.97
198.842	12.46
199.062	94.38
199.281	26.79
199.5	57.51
199.719	-3.93
199.938	-3.93
200.157	24.75
200.376	57.51
200.595	67.75
200.814	86.19
201.033	-26.45
201.252	82.09
201.471	43.18
201.69	71.85
201.909	123.05
202.128	59.56
202.347	45.23
202.566	30.89
202.785	77.99
203.004	2.22
203.223	86.19
203.442	-8.02
203.661	22.7
203.879	84.14
204.098	30.89
204.317	2.22
204.536	92.33
204.755	80.04
204.974	-18.26
205.193	16.55
205.411	55.47
205.63	-18.26
205.849	51.37
206.068	75.95
206.287	6.31
206.505	55.47
206.724	80.04
206.943	-22.36
207.162	96.43
207.381	49.32
207.599	22.7
207.818	-26.45
208.037	65.71
208.255	71.85
208.474	80.04
208.693	45.23
208.911	55.47
209.13	-1.88
209.349	86.19
209.567	0.17
209.786	-16.21
210.005	-26.45
210.223	-14.17
210.442	34.99
210.661	51.37
210.879	55.47
211.098	14.51
211.316	34.99
211.535	26.79
211.753	22.7
211.972	53.42
212.191	14.51
212.409	32.94
212.628	2.22
212.846	49.32
213.065	49.32
213.283	-1.88
213.502	32.94
213.72	45.23
213.938	-40.79
214.157	30.89
214.375	108.71
214.594	51.37
214.812	32.94
215.031	-10.07
215.249	55.47
215.467	-8.02
215.686	32.94
215.904	39.08
216.122	28.84
216.341	55.47
216.559	159.91
216.778	73.9
216.996	10.41
217.214	22.7
217.432	41.13
217.651	-1.88
217.869	16.55
218.087	77.99
218.306	55.47
218.524	59.56
218.742	-20.31
218.96	135.34
219.179	6.31
219.397	45.23
219.615	34.99
219.833	37.03
220.051	-5.97
220.27	67.75
220.488	8.36
220.706	80.04
220.924	51.37
221.142	2.22
221.36	77.99
221.578	45.23
221.796	-26.45
222.015	102.57
222.233	-8.02
222.451	32.94
222.669	59.56
222.887	43.18
223.105	-16.21
223.323	-34.64
223.541	-1.88
223.759	86.19
223.977	94.38
224.195	88.23
224.413	43.18
224.631	80.04
224.849	-20.31
225.067	75.95
225.285	71.85
225.503	51.37
225.721	-30.55
225.939	86.19
226.157	2.22
226.375	112.81
226.592	75.95
226.81	0.17
227.028	-40.79
227.246	112.81
227.464	6.31
227.682	82.09
227.9	24.75
228.117	-10.07
228.335	-20.31
228.553	-12.12
228.771	24.75
228.989	8.36
229.206	-36.69
229.424	-3.93
229.642	-8.02
229.86	30.89
230.077	30.89
230.295	37.03
230.513	20.65
230.731	77.99
230.948	92.33
231.166	61.61
231.384	22.7
231.601	41.13
231.819	12.46
232.037	22.7
232.254	14.51
232.472	57.51
232.689	-5.97
232.907	59.56
233.125	73.9
233.342	59.56
233.56	26.79
233.777	2.22
233.995	69.8
234.213	47.27
234.43	77.99
234.648	100.52
234.865	59.56
235.083	59.56
235.3	-5.97
235.518	100.52
235.735	69.8
235.953	65.71
236.17	-1.88
236.388	22.7
236.605	37.03
236.822	-3.93
237.04	82.09
237.257	53.42
237.475	43.18
237.692	71.85
237.909	69.8
238.127	10.41
238.344	-28.5
238.562	102.57
238.779	28.84
238.996	45.23
239.214	77.99
239.431	57.51
239.648	-81.75
239.865	61.61
240.083	67.75
240.3	-36.69
240.517	77.99
240.735	8.36
240.952	30.89
241.169	133.29
241.386	65.71
241.603	82.09
241.821	-1.88
242.038	127.14
242.255	53.42
242.472	22.7
242.689	-10.07
242.907	24.75
243.124	-26.45
243.341	49.32
243.558	24.75
243.775	22.7
243.992	-98.13
244.209	100.52
244.426	39.08
244.643	8.36
244.86	18.6
245.078	75.95
245.295	73.9
245.512	88.23
245.729	-36.69
245.946	10.41
246.163	-20.31
246.38	16.55
246.597	10.41
246.814	65.71
247.031	6.31
247.248	96.43
247.464	49.32
247.681	-5.97
247.898	34.99
248.115	67.75
248.332	53.42
248.549	75.95
248.766	43.18
248.983	59.56
249.2	94.38
249.417	-16.21
249.633	-44.88
249.85	55.47
250.067	65.71
250.284	2.22
250.501	75.95
250.717	24.75
250.934	108.71
251.151	-5.97
251.368	86.19
251.585	121
251.801	71.85
252.018	47.27
252.235	53.42
252.451	24.75
252.668	20.65
252.885	16.55
253.102	8.36
253.318	77.99
253.535	8.36
253.752	6.31
253.968	-3.93
254.185	16.55
254.401	26.79
254.618	57.51
254.835	8.36
255.051	12.46
255.268	2.22
255.484	51.37
255.701	30.89
255.917	102.57
256.134	39.08
256.351	75.95
256.567	4.27
256.784	20.65
257	6.31
257.217	32.94
257.433	22.7
257.65	32.94
257.866	65.71
258.082	-1.88
258.299	80.04
258.515	12.46
258.732	77.99
258.948	67.75
259.165	8.36
259.381	86.19
259.597	-16.21
259.814	32.94
260.03	26.79
260.246	77.99
260.463	37.03
260.679	139.43
260.895	14.51
261.112	-3.93
261.328	32.94
261.544	47.27
261.761	102.57
261.977	59.56
262.193	63.66
262.409	73.9
262.626	100.52
262.842	47.27
263.058	84.14
263.274	86.19
263.49	75.95
263.707	-16.21
263.923	86.19
264.139	-94.04
264.355	84.14
264.571	86.19
264.787	73.9
265.004	86.19
265.22	8.36
265.436	-22.36
265.652	-51.03
265.868	45.23
266.084	47.27
266.3	102.57
266.516	39.08
266.732	24.75
266.948	37.03
267.164	-36.69
267.38	-34.64
267.596	39.08
267.812	8.36
268.028	102.57
268.244	55.47
268.46	39.08
268.676	65.71
268.892	45.23
269.108	80.04
269.324	100.52
269.54	71.85
269.756	55.47
269.972	61.61
270.188	82.09
270.403	43.18
270.619	88.23
270.835	30.89
271.051	61.61
271.267	82.09
271.483	88.23
271.698	43.18
271.914	6.31
272.13	67.75
272.346	18.6
272.562	84.14
272.777	4.27
272.993	-12.12
273.209	63.66
273.425	65.71
273.64	55.47
273.856	0.17
274.072	88.23
274.287	-22.36
274.503	12.46
274.719	37.03
274.934	4.27
275.15	-8.02
275.366	-22.36
275.581	-12.12
275.797	30.89
276.012	20.65
276.228	73.9
276.444	-36.69
276.659	96.43
276.875	4.27
277.09	49.32
277.306	77.99
277.521	39.08
277.737	51.37
277.952	94.38
278.168	51.37
278.383	39.08
278.599	28.84
278.814	73.9
279.03	65.71
279.245	69.8
279.461	24.75
279.676	51.37
279.892	-3.93
280.107	20.65
280.322	45.23
280.538	24.75
280.753	71.85
280.969	24.75
281.184	-1.88
281.399	118.95
281.615	41.13
281.83	30.89
282.045	-28.5
282.26	4.27
282.476	73.9
282.691	106.67
282.906	65.71
283.122	49.32
283.337	16.55
283.552	22.7
283.767	41.13
283.983	-18.26
284.198	-5.97
284.413	34.99
284.628	14.51
284.843	-10.07
285.058	26.79
285.274	96.43
285.489	32.94
285.704	26.79
285.919	-34.64
286.134	51.37
286.349	-57.17
286.564	-22.36
286.779	65.71
286.995	12.46
287.21	80.04
287.425	-32.6
287.64	-77.65
287.855	34.99
288.07	14.51
288.285	39.08
288.5	34.99
288.715	65.71
288.93	-26.45
289.145	26.79
289.36	2.22
289.575	53.42
289.79	61.61
290.004	37.03
290.219	26.79
290.434	-1.88
290.649	6.31
290.864	77.99
291.079	-14.17
291.294	47.27
291.509	26.79
291.724	41.13
291.938	45.23
292.153	49.32
292.368	-14.17
292.583	88.23
292.798	67.75
293.012	20.65
293.227	49.32
293.442	75.95
293.657	59.56
293.871	94.38
294.086	-36.69
294.301	88.23
294.516	61.61
294.73	63.66
294.945	86.19
295.16	55.47
295.374	102.57
295.589	77.99
295.804	8.36
296.018	71.85
296.233	41.13
296.447	30.89
296.662	-14.17
296.877	90.28
297.091	116.9
297.306	-5.97
297.52	12.46
297.735	20.65
297.949	-42.84
298.164	63.66
298.378	2.22
298.593	-5.97
298.807	37.03
299.022	110.76
299.236	-28.5
299.451	24.75
299.665	34.99
299.88	73.9
300.094	59.56
300.309	82.09
300.523	47.27
300.737	116.9
300.952	24.75
301.166	125.1
301.381	69.8
301.595	6.31
301.809	-20.31
302.024	90.28
302.238	26.79
302.452	39.08
302.667	45.23
302.881	39.08
303.095	57.51
303.309	63.66
303.524	145.58
303.738	30.89
303.952	45.23
304.166	73.9
304.381	-10.07
304.595	53.42
304.809	86.19
305.023	47.27
305.237	22.7
305.452	18.6
305.666	55.47
305.88	69.8
306.094	57.51
306.308	47.27
306.522	118.95
306.736	8.36
306.95	73.9
307.164	47.27
307.379	-3.93
307.593	71.85
307.807	45.23
308.021	10.41
308.235	55.47
308.449	39.08
308.663	10.41
308.877	86.19
309.091	22.7
309.305	41.13
309.519	8.36
309.733	18.6
309.947	82.09
310.161	86.19
310.374	141.48
310.588	37.03
310.802	-3.93
311.016	37.03
311.23	43.18
311.444	45.23
311.658	-1.88
311.872	102.57
312.085	90.28
312.299	104.62
312.513	22.7
312.727	73.9
312.941	16.55
313.154	67.75
313.368	-1.88
313.582	37.03
313.796	69.8
314.009	20.65
314.223	32.94
314.437	28.84
314.651	32.94
314.864	28.84
315.078	34.99
315.292	22.7
315.505	71.85
315.719	12.46
315.933	112.81
316.146	37.03
316.36	20.65
316.573	14.51
316.787	18.6
317.001	41.13
317.214	57.51
317.428	-8.02
317.641	16.55
317.855	63.66
318.068	28.84
318.282	-42.84
318.495	94.38
318.709	69.8
318.922	67.75
319.136	129.19
319.349	73.9
319.563	118.95
319.776	28.84
319.99	69.8
320.203	59.56
320.417	26.79
320.63	90.28
320.843	143.53
321.057	37.03
321.27	51.37
321.483	57.51
321.697	-20.31
321.91	12.46
322.124	100.52
322.337	73.9
322.55	86.19
322.763	14.51
322.977	18.6
323.19	2.22
323.403	75.95
323.617	75.95
323.83	4.27
324.043	2.22
324.256	39.08
324.469	-5.97
324.683	73.9
324.896	51.37
325.109	32.94
325.322	28.84
325.535	121
325.748	18.6
325.962	0.17
326.175	2.22
326.388	26.79
326.601	114.86
326.814	-14.17
327.027	12.46
327.24	88.23
327.453	86.19
327.666	84.14
327.879	49.32
328.092	20.65
328.305	55.47
328.518	-20.31
328.731	43.18
328.944	34.99
329.157	84.14
329.37	77.99
329.583	141.48
329.796	114.86
330.009	69.8
330.222	-48.98
330.435	114.86
330.648	63.66
330.861	-26.45
331.073	61.61
331.286	73.9
331.499	96.43
331.712	65.71
331.925	73.9
332.138	34.99
332.35	45.23
332.563	49.32
332.776	141.48
332.989	65.71
333.202	49.32
333.414	108.71
333.627	0.17
333.84	43.18
334.053	71.85
334.265	75.95
334.478	59.56
334.691	55.47
334.903	98.47
335.116	51.37
335.329	57.51
335.541	67.75
335.754	131.24
335.966	86.19
336.179	88.23
336.392	55.47
336.604	57.51
336.817	47.27
337.029	94.38
337.242	-30.55
337.454	88.23
337.667	-14.17
337.88	37.03
338.092	75.95
338.305	0.17
338.517	0.17
338.729	71.85
338.942	63.66
339.154	6.31
339.367	6.31
339.579	59.56
339.792	75.95
340.004	94.38
340.217	45.23
340.429	108.71
340.641	18.6
340.854	59.56
341.066	-14.17
341.278	59.56
341.491	88.23
341.703	75.95
341.915	-1.88
342.128	24.75
342.34	88.23
342.552	59.56
342.764	-8.02
342.977	94.38
343.189	67.75
343.401	84.14
343.613	65.71
343.826	96.43
344.038	55.47
344.25	116.9
344.462	28.84
344.674	30.89
344.886	18.6
345.099	49.32
345.311	-24.4
345.523	41.13
345.735	18.6
345.947	8.36
346.159	-44.88
346.371	39.08
346.583	18.6
346.795	59.56
347.007	28.84
347.219	43.18
347.431	51.37
347.643	100.52
347.855	43.18
348.067	37.03
348.279	-5.97
348.491	-20.31
348.703	-18.26
348.915	98.47
349.127	43.18
349.339	75.95
349.551	104.62
349.763	92.33
349.975	12.46
350.187	100.52
350.399	131.24
350.61	55.47
350.822	59.56
351.034	100.52
351.246	77.99
351.458	133.29
351.669	73.9
351.881	41.13
352.093	63.66
352.305	75.95
352.517	20.65
352.728	63.66
352.94	123.05
353.152	63.66
353.363	110.76
353.575	34.99
353.787	92.33
353.999	67.75
354.21	137.38
354.422	77.99
354.633	30.89
354.845	82.09
355.057	12.46
355.268	86.19
355.48	82.09
355.692	26.79
355.903	61.61
356.115	65.71
356.326	8.36
356.538	82.09
356.749	90.28
356.961	57.51
357.172	16.55
357.384	26.79
357.595	77.99
357.807	75.95
358.018	18.6
358.23	135.34
358.441	71.85
358.653	61.61
358.864	47.27
359.075	45.23
359.287	-14.17
359.498	16.55
359.709	37.03
359.921	10.41
360.132	49.32
360.344	84.14
360.555	28.84
360.766	92.33
360.977	6.31
361.189	88.23
361.4	-26.45
361.611	73.9
361.823	63.66
362.034	39.08
362.245	41.13
362.456	82.09
362.667	63.66
362.879	71.85
363.09	30.89
363.301	22.7
363.512	94.38
363.723	47.27
363.935	53.42
364.146	59.56
364.357	34.99
364.568	41.13
364.779	-10.07
364.99	41.13
365.201	-8.02
365.412	92.33
365.623	100.52
365.834	86.19
366.045	69.8
366.256	96.43
366.467	82.09
366.678	65.71
366.889	51.37
367.1	77.99
367.311	63.66
367.522	94.38
367.733	34.99
367.944	71.85
368.155	86.19
368.366	51.37
368.577	39.08
368.788	65.71
368.999	102.57
369.209	41.13
369.42	108.71
369.631	116.9
369.842	86.19
370.053	102.57
370.264	90.28
370.474	39.08
370.685	28.84
370.896	51.37
371.107	125.1
371.317	110.76
371.528	77.99
371.739	127.14
371.95	55.47
372.16	135.34
372.371	-48.98
372.582	24.75
372.792	69.8
373.003	55.47
373.214	37.03
373.424	47.27
373.635	0.17
373.846	159.91
374.056	112.81
374.267	86.19
374.477	30.89
374.688	92.33
374.898	65.71
375.109	75.95
375.319	69.8
375.53	73.9
375.74	71.85
375.951	104.62
376.161	71.85
376.372	43.18
376.582	34.99
376.793	37.03
377.003	71.85
377.214	16.55
377.424	77.99
377.635	96.43
377.845	41.13
378.055	-44.88
378.266	16.55
378.476	59.56
378.686	61.61
378.897	49.32
379.107	77.99
379.317	16.55
379.528	86.19
379.738	92.33
379.948	47.27
380.158	92.33
380.369	30.89
380.579	57.51
380.789	10.41
380.999	116.9
381.21	37.03
381.42	116.9
381.63	86.19
381.84	8.36
382.05	59.56
382.261	80.04
382.471	127.14
382.681	51.37
382.891	61.61
383.101	53.42
383.311	116.9
383.521	53.42
383.731	98.47
383.941	73.9
384.151	41.13
384.361	6.31
384.571	65.71
384.781	88.23
384.991	39.08
385.201	86.19
385.411	108.71
385.621	106.67
385.831	-16.21
386.041	24.75
386.251	133.29
386.461	77.99
386.671	92.33
386.881	102.57
387.091	39.08
387.301	104.62
387.511	88.23
387.72	69.8
387.93	4.27
388.14	73.9
388.35	108.71
388.56	133.29
388.769	104.62
388.979	133.29
389.189	61.61
389.399	100.52
389.609	59.56
389.818	104.62
390.028	26.79
390.238	110.76
390.447	49.32
390.657	75.95
390.867	49.32
391.076	53.42
391.286	37.03
391.496	127.14
391.705	80.04
391.915	149.67
392.125	127.14
392.334	59.56
392.544	100.52
392.753	121
392.963	28.84
393.172	170.15
393.382	69.8
393.591	137.38
393.801	28.84
394.01	133.29
394.22	106.67
394.429	108.71
394.639	127.14
394.848	73.9
395.058	131.24
395.267	94.38
395.477	67.75
395.686	86.19
395.895	125.1
396.105	147.62
396.314	121
396.524	57.51
396.733	20.65
396.942	118.95
397.152	161.96
397.361	114.86
397.57	102.57
397.78	143.53
397.989	116.9
398.198	145.58
398.407	116.9
398.617	147.62
398.826	86.19
399.035	143.53
399.244	112.81
399.453	104.62
399.663	164.01
399.872	137.38
400.081	116.9
400.29	180.39
400.499	131.24
400.708	176.3
400.917	112.81
401.127	86.19
401.336	129.19
401.545	174.25
401.754	178.34
401.963	106.67
402.172	141.48
402.381	82.09
402.59	131.24
402.799	172.2
403.008	166.06
403.217	209.06
403.426	147.62
403.635	96.43
403.844	198.82
404.053	125.1
404.262	123.05
404.471	178.34
404.68	145.58
404.888	172.2
405.097	213.16
405.306	207.02
405.515	178.34
405.724	161.96
405.933	221.35
406.142	209.06
406.35	233.64
406.559	256.17
406.768	211.11
406.977	313.51
407.185	213.16
407.394	231.59
407.603	256.17
407.812	182.44
408.02	293.03
408.229	243.88
408.438	252.07
408.646	342.18
408.855	340.13
409.064	252.07
409.272	381.09
409.481	407.72
409.69	327.85
409.898	366.76
410.107	426.15
410.315	391.33
410.524	420
410.733	471.2
410.941	424.1
411.15	420
411.358	503.97
411.567	544.93
411.775	477.35
411.984	473.25
412.192	501.92
412.401	546.98
412.609	475.3
412.818	620.71
413.026	546.98
413.234	596.13
413.443	645.28
413.651	661.66
413.86	684.19
414.068	798.88
414.276	772.25
414.485	719.01
414.693	762.02
414.901	901.28
415.11	878.75
415.318	821.41
415.526	878.75
415.734	934.04
415.943	956.57
416.151	1122.46
416.359	985.24
416.567	1011.87
416.776	1161.37
416.984	1153.18
417.192	1233.05
417.4	1206.42
417.608	1202.33
417.817	1329.3
418.025	1439.89
418.233	1380.5
418.441	1343.64
418.649	1405.08
418.857	1515.67
419.065	1581.2
419.273	1577.11
419.481	1706.13
419.689	1738.9
419.897	1865.87
420.105	1880.21
420.313	1765.52
420.521	2046.09
420.729	1945.74
420.937	2103.43
421.145	2085
421.353	2320.52
421.561	2349.19
421.769	2422.92
421.977	2404.49
422.185	2642.05
422.393	2719.87
422.601	2826.37
422.809	2852.99
423.017	2842.75
423.224	3027.07
423.432	3090.56
423.64	3108.99
423.848	3438.71
424.056	3328.12
424.263	3602.55
424.471	3602.55
424.679	3696.75
424.887	3973.23
425.094	3926.13
425.302	3979.37
425.51	4120.68
425.718	4214.89
425.925	4227.18
426.133	4429.93
426.341	4763.75
426.548	4835.42
426.756	4909.15
426.964	4905.06
427.171	5249.11
427.379	5357.66
427.586	5402.71
427.794	5703.76
428.001	5902.42
428.209	6209.61
428.417	6238.28
428.624	6551.62
428.832	6592.58
429.039	6525
429.247	6441.03
429.454	7262.27
429.662	7620.66
429.869	7084.09
430.076	7538.74
430.284	7522.36
430.491	7596.09
430.699	8507.43
430.906	8282.16
431.114	8341.55
431.321	8470.57
431.528	8843.3
431.736	9248.8
431.943	9582.62
432.15	9519.13
432.358	9691.16
432.565	10176.53
432.772	10149.9
432.979	10588.17
433.187	10627.08
433.394	10833.93
433.601	11476.99
433.808	11714.55
434.016	11485.18
434.223	12109.81
434.43	12652.52
434.637	12437.48
434.844	13180.9
435.052	13572.06
435.259	13524.96
435.466	13467.61
435.673	13357.02
435.88	14389.2
436.087	15144.9
436.294	15140.8
436.501	14526.41
436.708	14972.87
436.915	15581.12
437.122	15931.32
437.329	16195.51
437.537	16811.95
437.743	17086.37
437.95	16852.91
438.157	17745.82
438.364	18360.21
438.571	18405.27
438.778	18556.82
438.985	20084.6
439.192	19199.88
439.399	20023.16
439.606	19406.72
439.813	20715.37
440.02	22067.03
440.227	21532.51
440.433	21417.83
440.64	22132.57
440.847	21931.87
441.054	22458.2
441.261	24041.28
441.467	23670.59
441.674	24356.66
441.881	24954.67
442.088	25108.27
442.294	24805.17
442.501	25591.59
442.708	26001.18
442.914	27111.18
443.121	28249.85
443.328	27186.96
443.534	29431.53
443.741	28350.2
443.948	27692.8
444.154	30215.9
444.361	30060.26
444.568	30365.4
444.774	30127.84
444.981	30750.42
445.187	31094.48
445.394	33062.58
445.6	32167.62
445.807	35092.12
446.013	33988.26
446.22	34277.02
446.426	35806.86
446.633	36179.59
446.839	37330.55
447.046	35890.82
447.252	37490.29
447.459	38110.82
447.665	37867.11
447.871	39394.9
448.078	40984.12
448.284	39190.1
448.491	40283.72
448.697	41938.47
448.903	42579.49
449.11	42262.05
449.316	41686.57
449.522	42438.18
449.728	44219.91
449.935	43884.05
450.141	43630.1
450.347	45161.98
450.553	43019.8
450.76	43771.41
450.966	45411.83
451.172	44912.13
451.378	46018.03
451.584	45133.31
451.791	45956.59
451.997	45868.53
452.203	46722.53
452.409	47207.9
452.615	46145
452.821	45069.82
453.027	44375.56
453.233	46622.18
453.44	44457.48
453.646	44922.37
453.852	45338.1
454.058	46142.95
454.264	44647.94
454.47	45772.27
454.676	44793.34
454.882	45919.73
455.088	42038.83
455.294	42354.21
455.5	43400.72
455.705	43548.18
455.911	41901.61
456.117	41012.79
456.323	40461.89
456.529	38295.14
456.735	40031.82
456.941	39360.08
457.147	38098.53
457.352	37115.51
457.558	36720.25
457.764	36974.2
457.97	36150.92
458.176	35135.12
458.381	35176.08
458.587	33642.15
458.793	33840.81
458.999	32057.03
459.204	33857.19
459.41	33197.74
459.616	30967.51
459.821	31153.87
460.027	31076.05
460.233	30232.29
460.438	28815.09
460.644	29486.82
460.85	27647.75
461.055	27076.37
461.261	27555.59
461.466	25241.39
461.672	24252.22
461.878	26103.58
462.083	24543.03
462.289	24162.11
462.494	23582.53
462.7	23045.96
462.905	22282.07
463.111	22964.04
463.316	23158.6
463.522	22450
463.727	22804.3
463.932	22675.28
464.138	22155.1
464.343	22425.43
464.549	21765.98
464.754	22153.05
464.959	22269.78
465.165	22081.37
465.37	21041
465.575	20748.14
465.781	21657.44
465.986	21585.76
466.191	20780.91
466.397	20268.92
466.602	19269.51
466.807	20170.61
467.012	20211.57
467.218	19963.77
467.423	19974.01
