Data from USB4F104151__71__12-02-04-907.txt Node

Date: Fri Mar 14 12:02:04 EDT 2025
User: louis
Spectrometer: USB4F10415
Trigger mode: 4
Integration Time (sec): 2.000000E-2
Scans to average: 1
Electric dark correction enabled: true
Nonlinearity correction enabled: false
Boxcar width: 0
XAxis mode: Wavelengths
Number of Pixels in Spectrum: 3648
>>>>>Begin Spectral Data<<<<<
178.204	-114.17
178.424	-114.17
178.644	-114.17
178.864	-73.21
179.084	-71.17
179.304	-62.98
179.524	37.38
179.744	23.04
179.964	-15.87
180.184	-13.82
180.404	-13.82
180.624	-5.63
180.844	-9.73
181.064	-46.59
181.283	37.38
181.503	20.99
181.723	49.66
181.943	-15.87
182.163	23.04
182.383	-1.54
182.602	8.7
182.822	59.9
183.042	-46.59
183.262	14.85
183.482	27.14
183.701	2.56
183.921	57.86
184.141	-75.26
184.361	90.62
184.58	20.99
184.8	96.77
185.02	-3.58
185.239	66.05
185.459	23.04
185.679	80.38
185.898	8.7
186.118	49.66
186.338	-1.54
186.557	64
186.777	-46.59
186.997	2.56
187.216	-11.78
187.436	25.09
187.655	14.85
187.875	41.47
188.095	-11.78
188.314	-9.73
188.534	59.9
188.753	-3.58
188.973	12.8
189.192	10.75
189.412	121.34
189.631	25.09
189.851	-44.54
190.07	12.8
190.29	-9.73
190.509	47.62
190.729	33.28
190.948	33.28
191.168	160.25
191.387	39.42
191.607	-11.78
191.826	68.09
192.045	37.38
192.265	39.42
192.484	-40.45
192.704	27.14
192.923	49.66
193.142	47.62
193.362	-38.4
193.581	86.53
193.8	53.76
194.02	23.04
194.239	14.85
194.458	45.57
194.678	6.66
194.897	37.38
195.116	-75.26
195.335	31.23
195.555	35.33
195.774	107.01
195.993	131.58
196.212	102.91
196.432	-7.68
196.651	51.71
196.87	27.14
197.089	41.47
197.308	45.57
197.528	49.66
197.747	39.42
197.966	33.28
198.185	72.19
198.404	68.09
198.623	102.91
198.842	-22.02
199.062	2.56
199.281	88.57
199.5	-3.58
199.719	33.28
199.938	-24.06
200.157	-40.45
200.376	51.71
200.595	10.75
200.814	25.09
201.033	96.77
201.252	68.09
201.471	37.38
201.69	16.9
201.909	59.9
202.128	29.18
202.347	12.8
202.566	29.18
202.785	16.9
203.004	39.42
203.223	20.99
203.442	33.28
203.661	20.99
203.879	8.7
204.098	12.8
204.317	45.57
204.536	-28.16
204.755	-28.16
204.974	14.85
205.193	20.99
205.411	49.66
205.63	70.14
205.849	86.53
206.068	10.75
206.287	47.62
206.505	18.94
206.724	45.57
206.943	10.75
207.162	39.42
207.381	39.42
207.599	-9.73
207.818	33.28
208.037	-26.11
208.255	-79.36
208.474	64
208.693	82.43
208.911	4.61
209.13	8.7
209.349	102.91
209.567	68.09
209.786	61.95
210.005	-26.11
210.223	20.99
210.442	111.1
210.661	51.71
210.879	53.76
211.098	47.62
211.316	8.7
211.535	45.57
211.753	-7.68
211.972	57.86
212.191	-40.45
212.409	31.23
212.628	-95.74
212.846	20.99
213.065	31.23
213.283	29.18
213.502	18.94
213.72	55.81
213.938	23.04
214.157	66.05
214.375	4.61
214.594	51.71
214.812	31.23
215.031	-48.64
215.249	0.51
215.467	-17.92
215.686	102.91
215.904	53.76
216.122	29.18
216.341	27.14
216.559	29.18
216.778	113.15
216.996	117.25
217.214	-13.82
217.432	18.94
217.651	14.85
217.869	-3.58
218.087	29.18
218.306	43.52
218.524	39.42
218.742	-13.82
218.96	47.62
219.179	45.57
219.397	43.52
219.615	4.61
219.833	20.99
220.051	70.14
220.27	-48.64
220.488	10.75
220.706	12.8
220.924	4.61
221.142	66.05
221.36	23.04
221.578	0.51
221.796	14.85
222.015	66.05
222.233	51.71
222.451	86.53
222.669	23.04
222.887	16.9
223.105	49.66
223.323	47.62
223.541	-9.73
223.759	33.28
223.977	-30.21
224.195	70.14
224.413	25.09
224.631	-7.68
224.849	70.14
225.067	8.7
225.285	29.18
225.503	41.47
225.721	-3.58
225.939	0.51
226.157	35.33
226.375	182.78
226.592	2.56
226.81	64
227.028	86.53
227.246	76.29
227.464	61.95
227.682	-7.68
227.9	0.51
228.117	55.81
228.335	61.95
228.553	39.42
228.771	18.94
228.989	-13.82
229.206	78.33
229.424	27.14
229.642	41.47
229.86	66.05
230.077	2.56
230.295	2.56
230.513	70.14
230.731	64
230.948	84.48
231.166	2.56
231.384	-38.4
231.601	23.04
231.819	80.38
232.037	53.76
232.254	104.96
232.472	-34.3
232.689	-38.4
232.907	29.18
233.125	18.94
233.342	39.42
233.56	39.42
233.777	31.23
233.995	35.33
234.213	76.29
234.43	72.19
234.648	53.76
234.865	31.23
235.083	37.38
235.3	35.33
235.518	10.75
235.735	102.91
235.953	57.86
236.17	33.28
236.388	76.29
236.605	45.57
236.822	29.18
237.04	37.38
237.257	-3.58
237.475	37.38
237.692	33.28
237.909	27.14
238.127	90.62
238.344	-3.58
238.562	29.18
238.779	78.33
238.996	-13.82
239.214	-15.87
239.431	107.01
239.648	-24.06
239.865	76.29
240.083	41.47
240.3	-5.63
240.517	-9.73
240.735	82.43
240.952	16.9
241.169	27.14
241.386	72.19
241.603	4.61
241.821	-56.83
242.038	59.9
242.255	86.53
242.472	-38.4
242.689	72.19
242.907	41.47
243.124	4.61
243.341	-7.68
243.558	66.05
243.775	45.57
243.992	0.51
244.209	55.81
244.426	123.39
244.643	53.76
244.86	35.33
245.078	31.23
245.295	94.72
245.512	39.42
245.729	25.09
245.946	41.47
246.163	-15.87
246.38	41.47
246.597	29.18
246.814	10.75
247.031	-5.63
247.248	49.66
247.464	98.81
247.681	49.66
247.898	59.9
248.115	31.23
248.332	20.99
248.549	14.85
248.766	49.66
248.983	-3.58
249.2	33.28
249.417	64
249.633	37.38
249.85	-36.35
250.067	-5.63
250.284	49.66
250.501	29.18
250.717	-7.68
250.934	57.86
251.151	33.28
251.368	49.66
251.585	-30.21
251.801	4.61
252.018	-1.54
252.235	53.76
252.451	-1.54
252.668	39.42
252.885	16.9
253.102	88.57
253.318	18.94
253.535	12.8
253.752	12.8
253.968	18.94
254.185	4.61
254.401	20.99
254.618	57.86
254.835	16.9
255.051	125.44
255.268	-26.11
255.484	20.99
255.701	68.09
255.917	29.18
256.134	16.9
256.351	10.75
256.567	-1.54
256.784	20.99
257	51.71
257.217	64
257.433	-11.78
257.65	29.18
257.866	45.57
258.082	-50.69
258.299	-9.73
258.515	-26.11
258.732	-73.21
258.948	37.38
259.165	29.18
259.381	68.09
259.597	25.09
259.814	4.61
260.03	20.99
260.246	-28.16
260.463	84.48
260.679	51.71
260.895	12.8
261.112	27.14
261.328	8.7
261.544	37.38
261.761	74.24
261.977	-7.68
262.193	35.33
262.409	66.05
262.626	27.14
262.842	6.66
263.058	14.85
263.274	90.62
263.49	16.9
263.707	35.33
263.923	0.51
264.139	49.66
264.355	6.66
264.571	23.04
264.787	29.18
265.004	90.62
265.22	10.75
265.436	23.04
265.652	70.14
265.868	-1.54
266.084	27.14
266.3	16.9
266.516	-32.26
266.732	51.71
266.948	37.38
267.164	25.09
267.38	-7.68
267.596	70.14
267.812	115.2
268.028	57.86
268.244	76.29
268.46	4.61
268.676	-30.21
268.892	0.51
269.108	-36.35
269.324	10.75
269.54	-9.73
269.756	37.38
269.972	25.09
270.188	72.19
270.403	4.61
270.619	80.38
270.835	61.95
271.051	-7.68
271.267	107.01
271.483	31.23
271.698	-11.78
271.914	39.42
272.13	29.18
272.346	8.7
272.562	25.09
272.777	88.57
272.993	8.7
273.209	14.85
273.425	68.09
273.64	55.81
273.856	18.94
274.072	57.86
274.287	8.7
274.503	37.38
274.719	-15.87
274.934	61.95
275.15	-30.21
275.366	86.53
275.581	-48.64
275.797	6.66
276.012	80.38
276.228	92.67
276.444	61.95
276.659	23.04
276.875	41.47
277.09	8.7
277.306	0.51
277.521	14.85
277.737	59.9
277.952	37.38
278.168	72.19
278.383	-17.92
278.599	12.8
278.814	72.19
279.03	43.52
279.245	4.61
279.461	64
279.676	-22.02
279.892	6.66
280.107	64
280.322	-11.78
280.538	37.38
280.753	-22.02
280.969	-17.92
281.184	-32.26
281.399	16.9
281.615	35.33
281.83	61.95
282.045	66.05
282.26	61.95
282.476	119.29
282.691	-34.3
282.906	31.23
283.122	8.7
283.337	57.86
283.552	33.28
283.767	31.23
283.983	49.66
284.198	33.28
284.413	51.71
284.628	51.71
284.843	82.43
285.058	78.33
285.274	33.28
285.489	35.33
285.704	37.38
285.919	16.9
286.134	80.38
286.349	29.18
286.564	-15.87
286.779	27.14
286.995	72.19
287.21	31.23
287.425	64
287.64	74.24
287.855	29.18
288.07	2.56
288.285	107.01
288.5	53.76
288.715	-15.87
288.93	12.8
289.145	84.48
289.36	16.9
289.575	8.7
289.79	2.56
290.004	68.09
290.219	-1.54
290.434	-17.92
290.649	23.04
290.864	29.18
291.079	4.61
291.294	16.9
291.509	98.81
291.724	61.95
291.938	31.23
292.153	35.33
292.368	25.09
292.583	78.33
292.798	31.23
293.012	82.43
293.227	10.75
293.442	51.71
293.657	-5.63
293.871	82.43
294.086	51.71
294.301	78.33
294.516	100.86
294.73	29.18
294.945	45.57
295.16	10.75
295.374	72.19
295.589	-19.97
295.804	35.33
296.018	55.81
296.233	45.57
296.447	27.14
296.662	2.56
296.877	12.8
297.091	66.05
297.306	72.19
297.52	37.38
297.735	86.53
297.949	39.42
298.164	102.91
298.378	-24.06
298.593	25.09
298.807	94.72
299.022	84.48
299.236	27.14
299.451	6.66
299.665	70.14
299.88	51.71
300.094	57.86
300.309	45.57
300.523	51.71
300.737	18.94
300.952	2.56
301.166	74.24
301.381	-17.92
301.595	90.62
301.809	-3.58
302.024	53.76
302.238	51.71
302.452	29.18
302.667	23.04
302.881	53.76
303.095	117.25
303.309	33.28
303.524	-9.73
303.738	-1.54
303.952	27.14
304.166	64
304.381	-32.26
304.595	107.01
304.809	8.7
305.023	43.52
305.237	86.53
305.452	41.47
305.666	-22.02
305.88	90.62
306.094	55.81
306.308	10.75
306.522	27.14
306.736	29.18
306.95	74.24
307.164	10.75
307.379	-48.64
307.593	61.95
307.807	49.66
308.021	8.7
308.235	27.14
308.449	37.38
308.663	25.09
308.877	10.75
309.091	20.99
309.305	64
309.519	-26.11
309.733	94.72
309.947	-11.78
310.161	100.86
310.374	59.9
310.588	68.09
310.802	61.95
311.016	72.19
311.23	18.94
311.444	33.28
311.658	68.09
311.872	111.1
312.085	-42.5
312.299	119.29
312.513	88.57
312.727	4.61
312.941	47.62
313.154	-32.26
313.368	57.86
313.582	84.48
313.796	49.66
314.009	111.1
314.223	68.09
314.437	-36.35
314.651	61.95
314.864	-34.3
315.078	70.14
315.292	25.09
315.505	107.01
315.719	96.77
315.933	68.09
316.146	51.71
316.36	25.09
316.573	53.76
316.787	-26.11
317.001	-7.68
317.214	-9.73
317.428	-34.3
317.641	33.28
317.855	-1.54
318.068	47.62
318.282	47.62
318.495	107.01
318.709	39.42
318.922	-5.63
319.136	94.72
319.349	61.95
319.563	57.86
319.776	31.23
319.99	41.47
320.203	12.8
320.417	47.62
320.63	51.71
320.843	111.1
321.057	-3.58
321.27	-19.97
321.483	10.75
321.697	49.66
321.91	33.28
322.124	35.33
322.337	45.57
322.55	41.47
322.763	16.9
322.977	8.7
323.19	59.9
323.403	29.18
323.617	82.43
323.83	66.05
324.043	49.66
324.256	41.47
324.469	12.8
324.683	23.04
324.896	-17.92
325.109	115.2
325.322	-79.36
325.535	-17.92
325.748	76.29
325.962	123.39
326.175	23.04
326.388	43.52
326.601	88.57
326.814	84.48
327.027	90.62
327.24	20.99
327.453	14.85
327.666	80.38
327.879	82.43
328.092	111.1
328.305	49.66
328.518	61.95
328.731	29.18
328.944	107.01
329.157	14.85
329.37	-5.63
329.583	143.87
329.796	0.51
330.009	4.61
330.222	61.95
330.435	66.05
330.648	104.96
330.861	6.66
331.073	4.61
331.286	53.76
331.499	37.38
331.712	8.7
331.925	35.33
332.138	-77.31
332.35	8.7
332.563	59.9
332.776	59.9
332.989	-13.82
333.202	20.99
333.414	74.24
333.627	41.47
333.84	2.56
334.053	31.23
334.265	23.04
334.478	-42.5
334.691	104.96
334.903	57.86
335.116	37.38
335.329	23.04
335.541	16.9
335.754	74.24
335.966	102.91
336.179	29.18
336.392	43.52
336.604	76.29
336.817	90.62
337.029	72.19
337.242	76.29
337.454	14.85
337.667	35.33
337.88	82.43
338.092	51.71
338.305	78.33
338.517	0.51
338.729	68.09
338.942	90.62
339.154	72.19
339.367	-15.87
339.579	84.48
339.792	43.52
340.004	20.99
340.217	57.86
340.429	18.94
340.641	18.94
340.854	55.81
341.066	43.52
341.278	82.43
341.491	66.05
341.703	86.53
341.915	66.05
342.128	4.61
342.34	-19.97
342.552	20.99
342.764	59.9
342.977	98.81
343.189	4.61
343.401	2.56
343.613	8.7
343.826	10.75
344.038	41.47
344.25	64
344.462	6.66
344.674	53.76
344.886	51.71
345.099	70.14
345.311	41.47
345.523	-15.87
345.735	35.33
345.947	14.85
346.159	53.76
346.371	25.09
346.583	45.57
346.795	109.05
347.007	12.8
347.219	4.61
347.431	37.38
347.643	31.23
347.855	94.72
348.067	68.09
348.279	4.61
348.491	2.56
348.703	57.86
348.915	-30.21
349.127	8.7
349.339	127.49
349.551	2.56
349.763	55.81
349.975	80.38
350.187	53.76
350.399	18.94
350.61	133.63
350.822	-19.97
351.034	0.51
351.246	57.86
351.458	-19.97
351.669	37.38
351.881	74.24
352.093	10.75
352.305	135.68
352.517	39.42
352.728	51.71
352.94	35.33
353.152	72.19
353.363	82.43
353.575	80.38
353.787	92.67
353.999	41.47
354.21	82.43
354.422	16.9
354.633	-9.73
354.845	29.18
355.057	72.19
355.268	55.81
355.48	-26.11
355.692	-17.92
355.903	-3.58
356.115	8.7
356.326	0.51
356.538	94.72
356.749	96.77
356.961	102.91
357.172	16.9
357.384	0.51
357.595	16.9
357.807	90.62
358.018	35.33
358.23	29.18
358.441	43.52
358.653	18.94
358.864	66.05
359.075	49.66
359.287	-19.97
359.498	45.57
359.709	90.62
359.921	4.61
360.132	29.18
360.344	68.09
360.555	6.66
360.766	35.33
360.977	152.06
361.189	39.42
361.4	-7.68
361.611	66.05
361.823	94.72
362.034	-58.88
362.245	6.66
362.456	72.19
362.667	39.42
362.879	49.66
363.09	41.47
363.301	47.62
363.512	111.1
363.723	27.14
363.935	47.62
364.146	84.48
364.357	76.29
364.568	-13.82
364.779	6.66
364.99	37.38
365.201	27.14
365.412	111.1
365.623	25.09
365.834	4.61
366.045	47.62
366.256	12.8
366.467	64
366.678	70.14
366.889	145.92
367.1	43.52
367.311	-5.63
367.522	94.72
367.733	88.57
367.944	-7.68
368.155	-3.58
368.366	121.34
368.577	37.38
368.788	35.33
368.999	57.86
369.209	113.15
369.42	107.01
369.631	137.73
369.842	45.57
370.053	20.99
370.264	98.81
370.474	31.23
370.685	53.76
370.896	96.77
371.107	47.62
371.317	14.85
371.528	115.2
371.739	45.57
371.95	86.53
372.16	102.91
372.371	49.66
372.582	53.76
372.792	37.38
373.003	29.18
373.214	47.62
373.424	135.68
373.635	82.43
373.846	45.57
374.056	80.38
374.267	66.05
374.477	74.24
374.688	98.81
374.898	119.29
375.109	57.86
375.319	2.56
375.53	107.01
375.74	8.7
375.951	102.91
376.161	2.56
376.372	92.67
376.582	29.18
376.793	92.67
377.003	-1.54
377.214	6.66
377.424	119.29
377.635	59.9
377.845	78.33
378.055	113.15
378.266	-13.82
378.476	31.23
378.686	20.99
378.897	37.38
379.107	61.95
379.317	84.48
379.528	53.76
379.738	119.29
379.948	2.56
380.158	64
380.369	29.18
380.579	84.48
380.789	20.99
380.999	96.77
381.21	59.9
381.42	78.33
381.63	102.91
381.84	76.29
382.05	92.67
382.261	117.25
382.471	31.23
382.681	14.85
382.891	78.33
383.101	33.28
383.311	16.9
383.521	57.86
383.731	92.67
383.941	152.06
384.151	39.42
384.361	-24.06
384.571	4.61
384.781	61.95
384.991	37.38
385.201	127.49
385.411	53.76
385.621	129.53
385.831	35.33
386.041	80.38
386.251	61.95
386.461	150.01
386.671	70.14
386.881	18.94
387.091	70.14
387.301	92.67
387.511	25.09
387.72	25.09
387.93	59.9
388.14	53.76
388.35	37.38
388.56	-7.68
388.769	64
388.979	76.29
389.189	51.71
389.399	53.76
389.609	84.48
389.818	72.19
390.028	113.15
390.238	37.38
390.447	14.85
390.657	86.53
390.867	59.9
391.076	6.66
391.286	86.53
391.496	74.24
391.705	72.19
391.915	86.53
392.125	100.86
392.334	72.19
392.544	80.38
392.753	76.29
392.963	2.56
393.172	61.95
393.382	4.61
393.591	53.76
393.801	37.38
394.01	68.09
394.22	78.33
394.429	111.1
394.639	78.33
394.848	90.62
395.058	53.76
395.267	49.66
395.477	70.14
395.686	96.77
395.895	109.05
396.105	41.47
396.314	86.53
396.524	0.51
396.733	-17.92
396.942	125.44
397.152	117.25
397.361	86.53
397.57	74.24
397.78	119.29
397.989	76.29
398.198	168.45
398.407	102.91
398.617	104.96
398.826	20.99
399.035	147.97
399.244	55.81
399.453	92.67
399.663	115.2
399.872	152.06
400.081	135.68
400.29	121.34
400.499	45.57
400.708	123.39
400.917	61.95
401.127	43.52
401.336	78.33
401.545	104.96
401.754	184.83
401.963	51.71
402.172	98.81
402.381	145.92
402.59	84.48
402.799	86.53
403.008	117.25
403.217	184.83
403.426	145.92
403.635	49.66
403.844	86.53
404.053	131.58
404.262	166.4
404.471	150.01
404.68	166.4
404.888	156.16
405.097	82.43
405.306	154.11
405.515	199.16
405.724	70.14
405.933	164.35
406.142	172.54
406.35	211.45
406.559	158.21
406.768	176.64
406.977	178.69
407.185	139.77
407.394	215.55
407.603	123.39
407.812	242.17
408.02	240.12
408.229	205.31
408.438	221.69
408.646	242.17
408.855	203.26
409.064	285.18
409.272	225.79
409.481	307.71
409.69	309.76
409.898	262.65
410.107	240.12
410.315	336.38
410.524	252.41
410.733	371.19
410.941	315.9
411.15	373.24
411.358	432.63
411.567	348.67
411.775	238.08
411.984	375.29
412.192	401.91
412.401	440.83
412.609	434.68
412.818	442.87
413.026	383.48
413.234	426.49
413.443	479.74
413.651	469.5
413.86	479.74
414.068	586.23
414.276	565.75
414.485	547.32
414.693	639.48
414.901	666.1
415.11	725.49
415.318	670.2
415.526	725.49
415.734	733.68
415.943	758.26
416.151	782.84
416.359	791.03
416.567	840.18
416.776	793.08
416.984	811.51
417.192	911.86
417.4	889.33
417.608	895.47
417.817	938.48
418.025	924.15
418.233	1038.83
418.441	999.92
418.649	1137.13
418.857	1126.89
419.065	1225.2
419.273	1272.3
419.481	1327.6
419.689	1268.2
419.897	1343.98
420.105	1370.6
420.313	1454.57
420.521	1436.14
420.729	1436.14
420.937	1481.19
421.145	1532.39
421.353	1624.55
421.561	1739.24
421.769	1905.12
421.977	1958.37
422.185	1796.58
422.393	2007.52
422.601	2148.83
422.809	2144.74
423.017	2118.11
423.224	2306.52
423.432	2175.45
423.64	2300.38
423.848	2486.75
424.056	2404.83
424.263	2615.77
424.471	2562.52
424.679	2781.65
424.887	2970.07
425.094	2814.42
425.302	2896.34
425.51	3027.41
425.718	3148.24
425.925	3103.18
426.133	3236.3
426.341	3529.16
426.548	3561.93
426.756	3625.42
426.964	3555.79
427.171	3805.64
427.379	4016.58
427.586	4057.54
427.794	4045.25
428.001	4260.29
428.209	4475.32
428.417	4374.97
428.624	4843.96
428.832	4868.53
429.039	4778.42
429.247	4712.89
429.454	5253.55
429.662	5478.83
429.869	5267.89
430.076	5511.6
430.284	5407.15
430.491	5697.96
430.699	5796.26
430.906	5917.09
431.114	5986.72
431.321	6291.87
431.528	6373.79
431.736	6775.19
431.943	7188.88
432.15	6830.49
432.358	7102.87
432.565	7479.69
432.772	7459.21
432.979	7647.63
433.187	7805.32
433.394	7809.42
433.601	8391.04
433.808	8505.73
434.016	8450.43
434.223	8790.39
434.43	9458.03
434.637	9148.79
434.844	9812.33
435.052	9791.85
435.259	9533.81
435.466	10002.79
435.673	9795.95
435.88	10545.5
436.087	10920.28
436.294	11209.04
436.501	10729.82
436.708	10887.51
436.915	11338.07
437.122	11831.63
437.329	11925.83
437.537	12142.92
437.743	12339.52
437.95	12257.6
438.157	12802.36
438.364	13584.69
438.571	13422.9
438.778	13599.02
438.985	14694.69
439.192	14162.22
439.399	14674.21
439.606	14434.6
439.813	15096.09
440.02	16091.4
440.227	15812.88
440.433	15403.28
440.64	16333.06
440.847	15968.52
441.054	16494.85
441.261	17318.14
441.467	17301.75
441.674	17539.32
441.881	18313.45
442.088	18088.17
442.294	17991.92
442.501	18788.58
442.708	18911.46
442.914	19941.58
443.121	20572.36
443.328	20050.13
443.534	21532.86
443.741	20809.92
443.948	20510.92
444.154	22085.81
444.361	21706.93
444.568	21954.74
444.774	22204.59
444.981	22272.17
445.187	22876.32
445.394	24004.75
445.6	23857.3
445.807	26273.9
446.013	24787.08
446.22	25346.17
446.426	26540.14
446.633	26802.28
446.839	27203.68
447.046	26493.04
447.252	27826.26
447.459	27961.43
447.665	27893.85
447.871	28960.84
448.078	30269.49
448.284	29030.47
448.491	29648.96
448.697	30449.71
448.903	31275.04
449.11	31465.5
449.316	30674.99
449.522	31320.1
449.728	32372.75
449.935	32350.23
450.141	32284.69
450.347	33187.85
450.553	32118.81
450.76	32966.66
450.966	33335.3
451.172	32952.33
451.378	34021.37
451.584	33441.79
451.791	34035.7
451.997	34023.42
452.203	34729.97
452.409	34723.82
452.615	34588.66
452.821	33417.22
453.027	32663.57
453.233	34893.8
453.44	33128.45
453.646	33624.06
453.852	33855.48
454.058	34361.33
454.264	33077.26
454.47	33859.58
454.676	32981
454.882	34297.84
455.088	31387.68
455.294	31543.33
455.5	31770.65
455.705	32757.77
455.911	31189.03
456.117	30627.88
456.323	30019.64
456.529	28526.67
456.735	29771.83
456.941	29112.39
457.147	28493.9
457.352	27664.47
457.558	27609.18
457.764	27418.72
457.97	26855.53
458.176	26683.5
458.381	26564.71
458.587	25426.04
458.793	25270.4
458.999	23746.71
459.204	25380.99
459.41	25043.07
459.616	23296.16
459.821	23191.71
460.027	22952.1
460.233	22524.07
460.438	21334.2
460.644	21956.78
460.85	20814.02
461.055	20676.8
461.261	20494.54
461.466	18856.16
461.672	17897.71
461.878	19663.06
462.083	18055.4
462.289	17965.29
462.494	17637.62
462.7	17178.87
462.905	16449.8
463.111	17090.81
463.316	17197.31
463.522	16656.64
463.727	16670.98
463.932	16828.67
464.138	16369.93
464.343	16566.53
464.549	16027.92
464.754	16523.52
464.959	16462.08
465.165	16464.13
465.37	15800.59
465.575	15388.95
465.781	15972.62
465.986	15878.41
466.191	15575.31
466.397	15055.13
466.602	14123.3
466.807	14952.73
467.012	14989.6
467.218	14981.4
467.423	14639.39
467.628	14932.25
467.833	15659.28
468.038	14891.29
468.244	14440.74
468.449	15026.46
468.654	14661.92
