Data from USB4F104151__86__12-02-30-684.txt Node

Date: Fri Mar 14 12:02:30 EDT 2025
User: louis
Spectrometer: USB4F10415
Trigger mode: 4
Integration Time (sec): 2.000000E-2
Scans to average: 1
Electric dark correction enabled: true
Nonlinearity correction enabled: false
Boxcar width: 0
XAxis mode: Wavelengths
Number of Pixels in Spectrum: 3648
>>>>>Begin Spectral Data<<<<<
178.204	-34.13
178.424	-34.13
178.644	-34.13
178.864	-146.77
179.084	-27.99
179.304	-50.52
179.524	-19.8
179.744	19.11
179.964	51.88
180.184	-3.41
180.404	78.51
180.624	10.92
180.844	-30.04
181.064	31.4
181.283	-9.56
181.503	-38.23
181.723	-40.28
181.943	-50.52
182.163	62.12
182.383	76.46
182.602	39.59
182.822	62.12
183.042	70.31
183.262	49.83
183.482	115.37
183.701	41.64
183.921	-5.46
184.141	-23.89
184.361	15.02
184.58	-21.85
184.8	96.94
185.02	10.92
185.239	25.26
185.459	12.97
185.679	98.99
185.898	-32.08
186.118	58.03
186.338	58.03
186.557	53.93
186.777	-13.65
186.997	-19.8
187.216	-7.51
187.436	133.8
187.655	8.87
187.875	123.56
188.095	-5.46
188.314	-44.37
188.534	35.5
188.753	-9.56
188.973	27.31
189.192	66.22
189.412	17.07
189.631	51.88
189.851	33.45
190.07	64.17
190.29	-23.89
190.509	-15.7
190.729	17.07
190.948	12.97
191.168	86.7
191.387	98.99
191.607	55.98
191.826	41.64
192.045	8.87
192.265	-17.75
192.484	2.73
192.704	-17.75
192.923	-15.7
193.142	70.31
193.362	33.45
193.581	88.75
193.8	29.35
194.02	55.98
194.239	23.21
194.458	-13.65
194.678	-9.56
194.897	39.59
195.116	21.16
195.335	53.93
195.555	55.98
195.774	-3.41
195.993	25.26
196.212	27.31
196.432	39.59
196.651	19.11
196.87	41.64
197.089	96.94
197.308	72.36
197.528	51.88
197.747	19.11
197.966	51.88
198.185	53.93
198.404	39.59
198.623	64.17
198.842	25.26
199.062	62.12
199.281	139.94
199.5	82.6
199.719	55.98
199.938	68.27
200.157	113.32
200.376	88.75
200.595	25.26
200.814	66.22
201.033	10.92
201.252	51.88
201.471	70.31
201.69	68.27
201.909	51.88
202.128	33.45
202.347	55.98
202.566	-11.61
202.785	-52.56
203.004	0.68
203.223	84.65
203.442	-5.46
203.661	-30.04
203.879	15.02
204.098	35.5
204.317	21.16
204.536	43.69
204.755	6.83
204.974	43.69
205.193	66.22
205.411	43.69
205.63	33.45
205.849	-27.99
206.068	-3.41
206.287	-1.37
206.505	10.92
206.724	88.75
206.943	31.4
207.162	17.07
207.381	-11.61
207.599	-62.8
207.818	62.12
208.037	55.98
208.255	96.94
208.474	123.56
208.693	64.17
208.911	78.51
209.13	60.07
209.349	17.07
209.567	15.02
209.786	74.41
210.005	17.07
210.223	53.93
210.442	35.5
210.661	21.16
210.879	27.31
211.098	117.42
211.316	-27.99
211.535	62.12
211.753	2.73
211.972	92.84
212.191	4.78
212.409	39.59
212.628	-23.89
212.846	29.35
213.065	41.64
213.283	35.5
213.502	74.41
213.72	-25.94
213.938	55.98
214.157	29.35
214.375	31.4
214.594	-25.94
214.812	98.99
215.031	86.7
215.249	55.98
215.467	33.45
215.686	31.4
215.904	6.83
216.122	4.78
216.341	37.55
216.559	6.83
216.778	25.26
216.996	37.55
217.214	23.21
217.432	-11.61
217.651	-3.41
217.869	51.88
218.087	43.69
218.306	27.31
218.524	82.6
218.742	-17.75
218.96	78.51
219.179	55.98
219.397	21.16
219.615	41.64
219.833	86.7
220.051	19.11
220.27	23.21
220.488	62.12
220.706	41.64
220.924	19.11
221.142	-9.56
221.36	23.21
221.578	39.59
221.796	21.16
222.015	39.59
222.233	70.31
222.451	51.88
222.669	15.02
222.887	53.93
223.105	-19.8
223.323	55.98
223.541	-9.56
223.759	4.78
223.977	10.92
224.195	37.55
224.413	74.41
224.631	23.21
224.849	25.26
225.067	76.46
225.285	21.16
225.503	6.83
225.721	-13.65
225.939	27.31
226.157	55.98
226.375	29.35
226.592	66.22
226.81	17.07
227.028	64.17
227.246	96.94
227.464	41.64
227.682	51.88
227.9	27.31
228.117	58.03
228.335	2.73
228.553	0.68
228.771	4.78
228.989	21.16
229.206	70.31
229.424	15.02
229.642	12.97
229.86	6.83
230.077	88.75
230.295	103.08
230.513	-19.8
230.731	68.27
230.948	17.07
231.166	0.68
231.384	0.68
231.601	43.69
231.819	62.12
232.037	35.5
232.254	19.11
232.472	17.07
232.689	29.35
232.907	137.9
233.125	15.02
233.342	74.41
233.56	88.75
233.777	31.4
233.995	51.88
234.213	55.98
234.43	-3.41
234.648	60.07
234.865	45.74
235.083	37.55
235.3	66.22
235.518	-34.13
235.735	96.94
235.953	90.79
236.17	27.31
236.388	23.21
236.605	-30.04
236.822	96.94
237.04	66.22
237.257	92.84
237.475	-19.8
237.692	53.93
237.909	39.59
238.127	66.22
238.344	45.74
238.562	55.98
238.779	-17.75
238.996	47.79
239.214	17.07
239.431	45.74
239.648	49.83
239.865	64.17
240.083	-25.94
240.3	156.33
240.517	-58.71
240.735	33.45
240.952	-5.46
241.169	33.45
241.386	-15.7
241.603	109.23
241.821	-36.18
242.038	68.27
242.255	47.79
242.472	78.51
242.689	27.31
242.907	4.78
243.124	17.07
243.341	-54.61
243.558	19.11
243.775	0.68
243.992	-17.75
244.209	53.93
244.426	98.99
244.643	113.32
244.86	-11.61
245.078	41.64
245.295	29.35
245.512	62.12
245.729	-3.41
245.946	113.32
246.163	45.74
246.38	49.83
246.597	39.59
246.814	17.07
247.031	53.93
247.248	35.5
247.464	-38.23
247.681	-34.13
247.898	12.97
248.115	45.74
248.332	2.73
248.549	53.93
248.766	37.55
248.983	68.27
249.2	12.97
249.417	80.55
249.633	-44.37
249.85	115.37
250.067	84.65
250.284	82.6
250.501	39.59
250.717	78.51
250.934	27.31
251.151	62.12
251.368	55.98
251.585	8.87
251.801	29.35
252.018	47.79
252.235	8.87
252.451	29.35
252.668	-7.51
252.885	47.79
253.102	21.16
253.318	19.11
253.535	-60.76
253.752	-30.04
253.968	0.68
254.185	47.79
254.401	43.69
254.618	43.69
254.835	55.98
255.051	109.23
255.268	80.55
255.484	17.07
255.701	15.02
255.917	2.73
256.134	53.93
256.351	39.59
256.567	19.11
256.784	6.83
257	-89.43
257.217	53.93
257.433	41.64
257.65	31.4
257.866	84.65
258.082	94.89
258.299	60.07
258.515	66.22
258.732	15.02
258.948	33.45
259.165	-21.85
259.381	37.55
259.597	66.22
259.814	49.83
260.03	-21.85
260.246	31.4
260.463	-23.89
260.679	55.98
260.895	78.51
261.112	84.65
261.328	8.87
261.544	-15.7
261.761	101.03
261.977	62.12
262.193	6.83
262.409	92.84
262.626	51.88
262.842	41.64
263.058	43.69
263.274	62.12
263.49	27.31
263.707	82.6
263.923	111.27
264.139	-1.37
264.355	33.45
264.571	4.78
264.787	27.31
265.004	64.17
265.22	49.83
265.436	92.84
265.652	49.83
265.868	62.12
266.084	-40.28
266.3	6.83
266.516	41.64
266.732	60.07
266.948	41.64
267.164	17.07
267.38	86.7
267.596	58.03
267.812	39.59
268.028	45.74
268.244	66.22
268.46	72.36
268.676	-3.41
268.892	66.22
269.108	86.7
269.324	66.22
269.54	-5.46
269.756	47.79
269.972	-7.51
270.188	31.4
270.403	-66.9
270.619	80.55
270.835	-64.85
271.051	19.11
271.267	33.45
271.483	-36.18
271.698	23.21
271.914	90.79
272.13	17.07
272.346	47.79
272.562	60.07
272.777	82.6
272.993	35.5
273.209	10.92
273.425	15.02
273.64	62.12
273.856	53.93
274.072	33.45
274.287	2.73
274.503	117.42
274.719	-30.04
274.934	70.31
275.15	-46.42
275.366	23.21
275.581	-5.46
275.797	62.12
276.012	60.07
276.228	6.83
276.444	8.87
276.659	49.83
276.875	8.87
277.09	94.89
277.306	39.59
277.521	72.36
277.737	23.21
277.952	53.93
278.168	-11.61
278.383	115.37
278.599	39.59
278.814	-32.08
279.03	25.26
279.245	115.37
279.461	86.7
279.676	29.35
279.892	74.41
280.107	33.45
280.322	15.02
280.538	51.88
280.753	29.35
280.969	72.36
281.184	-15.7
281.399	94.89
281.615	29.35
281.83	80.55
282.045	62.12
282.26	90.79
282.476	90.79
282.691	55.98
282.906	10.92
283.122	33.45
283.337	-17.75
283.552	66.22
283.767	-15.7
283.983	55.98
284.198	49.83
284.413	-3.41
284.628	15.02
284.843	53.93
285.058	68.27
285.274	-21.85
285.489	0.68
285.704	66.22
285.919	37.55
286.134	43.69
286.349	-25.94
286.564	25.26
286.779	31.4
286.995	10.92
287.21	-19.8
287.425	41.64
287.64	-3.41
287.855	17.07
288.07	-9.56
288.285	4.78
288.5	49.83
288.715	-5.46
288.93	78.51
289.145	80.55
289.36	123.56
289.575	113.32
289.79	80.55
290.004	72.36
290.219	92.84
290.434	31.4
290.649	-36.18
290.864	-5.46
291.079	78.51
291.294	-3.41
291.509	90.79
291.724	64.17
291.938	17.07
292.153	23.21
292.368	35.5
292.583	45.74
292.798	-17.75
293.012	113.32
293.227	62.12
293.442	74.41
293.657	10.92
293.871	66.22
294.086	82.6
294.301	103.08
294.516	103.08
294.73	-3.41
294.945	8.87
295.16	29.35
295.374	127.66
295.589	103.08
295.804	51.88
296.018	-48.47
296.233	55.98
296.447	64.17
296.662	58.03
296.877	105.13
297.091	105.13
297.306	98.99
297.52	27.31
297.735	162.47
297.949	58.03
298.164	131.75
298.378	47.79
298.593	41.64
298.807	55.98
299.022	-5.46
299.236	107.18
299.451	64.17
299.665	41.64
299.88	47.79
300.094	23.21
300.309	53.93
300.523	39.59
300.737	19.11
300.952	84.65
301.166	68.27
301.381	4.78
301.595	21.16
301.809	101.03
302.024	12.97
302.238	19.11
302.452	72.36
302.667	60.07
302.881	146.09
303.095	6.83
303.309	35.5
303.524	2.73
303.738	-11.61
303.952	0.68
304.166	55.98
304.381	51.88
304.595	139.94
304.809	-11.61
305.023	19.11
305.237	68.27
305.452	66.22
305.666	60.07
305.88	92.84
306.094	39.59
306.308	51.88
306.522	37.55
306.736	2.73
306.95	62.12
307.164	88.75
307.379	68.27
307.593	10.92
307.807	115.37
308.021	80.55
308.235	121.51
308.449	-11.61
308.663	-32.08
308.877	70.31
309.091	51.88
309.305	60.07
309.519	17.07
309.733	84.65
309.947	39.59
310.161	66.22
310.374	23.21
310.588	8.87
310.802	90.79
311.016	43.69
311.23	109.23
311.444	78.51
311.658	29.35
311.872	70.31
312.085	45.74
312.299	39.59
312.513	41.64
312.727	35.5
312.941	12.97
313.154	41.64
313.368	96.94
313.582	17.07
313.796	74.41
314.009	43.69
314.223	90.79
314.437	41.64
314.651	78.51
314.864	39.59
315.078	17.07
315.292	96.94
315.505	-9.56
315.719	43.69
315.933	74.41
316.146	64.17
316.36	82.6
316.573	27.31
316.787	131.75
317.001	94.89
317.214	49.83
317.428	49.83
317.641	55.98
317.855	78.51
318.068	72.36
318.282	21.16
318.495	78.51
318.709	39.59
318.922	-13.65
319.136	66.22
319.349	15.02
319.563	-30.04
319.776	72.36
319.99	12.97
320.203	27.31
320.417	23.21
320.63	-19.8
320.843	53.93
321.057	10.92
321.27	64.17
321.483	49.83
321.697	107.18
321.91	8.87
322.124	74.41
322.337	31.4
322.55	133.8
322.763	96.94
322.977	78.51
323.19	12.97
323.403	88.75
323.617	64.17
323.83	43.69
324.043	39.59
324.256	25.26
324.469	21.16
324.683	31.4
324.896	10.92
325.109	-23.89
325.322	41.64
325.535	148.14
325.748	135.85
325.962	78.51
326.175	78.51
326.388	60.07
326.601	68.27
326.814	35.5
327.027	58.03
327.24	109.23
327.453	35.5
327.666	96.94
327.879	103.08
328.092	115.37
328.305	31.4
328.518	109.23
328.731	25.26
328.944	41.64
329.157	39.59
329.37	51.88
329.583	76.46
329.796	113.32
330.009	74.41
330.222	33.45
330.435	41.64
330.648	105.13
330.861	51.88
331.073	72.36
331.286	109.23
331.499	31.4
331.712	66.22
331.925	41.64
332.138	-44.37
332.35	94.89
332.563	-7.51
332.776	0.68
332.989	-15.7
333.202	72.36
333.414	55.98
333.627	84.65
333.84	94.89
334.053	21.16
334.265	43.69
334.478	-52.56
334.691	80.55
334.903	64.17
335.116	4.78
335.329	-5.46
335.541	53.93
335.754	92.84
335.966	10.92
336.179	33.45
336.392	-23.89
336.604	109.23
336.817	64.17
337.029	150.18
337.242	47.79
337.454	90.79
337.667	-17.75
337.88	127.66
338.092	55.98
338.305	15.02
338.517	33.45
338.729	107.18
338.942	51.88
339.154	-7.51
339.367	53.93
339.579	41.64
339.792	2.73
340.004	47.79
340.217	43.69
340.429	66.22
340.641	47.79
340.854	2.73
341.066	27.31
341.278	80.55
341.491	70.31
341.703	68.27
341.915	76.46
342.128	68.27
342.34	12.97
342.552	23.21
342.764	29.35
342.977	33.45
343.189	35.5
343.401	58.03
343.613	43.69
343.826	74.41
344.038	25.26
344.25	78.51
344.462	80.55
344.674	68.27
344.886	103.08
345.099	29.35
345.311	64.17
345.523	68.27
345.735	88.75
345.947	103.08
346.159	62.12
346.371	125.61
346.583	41.64
346.795	29.35
347.007	35.5
347.219	-15.7
347.431	37.55
347.643	123.56
347.855	39.59
348.067	37.55
348.279	72.36
348.491	-32.08
348.703	53.93
348.915	-15.7
349.127	41.64
349.339	92.84
349.551	29.35
349.763	47.79
349.975	109.23
350.187	123.56
350.399	111.27
350.61	74.41
350.822	92.84
351.034	43.69
351.246	47.79
351.458	66.22
351.669	8.87
351.881	19.11
352.093	19.11
352.305	35.5
352.517	76.46
352.728	72.36
352.94	98.99
353.152	31.4
353.363	160.42
353.575	92.84
353.787	88.75
353.999	84.65
354.21	33.45
354.422	125.61
354.633	88.75
354.845	47.79
355.057	64.17
355.268	68.27
355.48	2.73
355.692	25.26
355.903	53.93
356.115	105.13
356.326	76.46
356.538	31.4
356.749	129.7
356.961	10.92
357.172	125.61
357.384	82.6
357.595	17.07
357.807	43.69
358.018	41.64
358.23	84.65
358.441	117.42
358.653	88.75
358.864	41.64
359.075	66.22
359.287	64.17
359.498	64.17
359.709	68.27
359.921	82.6
360.132	10.92
360.344	-27.99
360.555	15.02
360.766	31.4
360.977	72.36
361.189	45.74
361.4	15.02
361.611	94.89
361.823	117.42
362.034	90.79
362.245	27.31
362.456	60.07
362.667	74.41
362.879	82.6
363.09	43.69
363.301	49.83
363.512	80.55
363.723	53.93
363.935	45.74
364.146	148.14
364.357	-36.18
364.568	107.18
364.779	55.98
364.99	78.51
365.201	43.69
365.412	84.65
365.623	17.07
365.834	27.31
366.045	72.36
366.256	125.61
366.467	94.89
366.678	-11.61
366.889	51.88
367.1	39.59
367.311	107.18
367.522	72.36
367.733	49.83
367.944	41.64
368.155	90.79
368.366	39.59
368.577	12.97
368.788	127.66
368.999	66.22
369.209	84.65
369.42	127.66
369.631	162.47
369.842	82.6
370.053	86.7
370.264	72.36
370.474	60.07
370.685	101.03
370.896	82.6
371.107	76.46
371.317	55.98
371.528	-32.08
371.739	78.51
371.95	53.93
372.16	66.22
372.371	35.5
372.582	109.23
372.792	133.8
373.003	58.03
373.214	51.88
373.424	88.75
373.635	23.21
373.846	144.04
374.056	17.07
374.267	82.6
374.477	25.26
374.688	80.55
374.898	58.03
375.109	66.22
375.319	33.45
375.53	103.08
375.74	162.47
375.951	78.51
376.161	107.18
376.372	84.65
376.582	6.83
376.793	74.41
377.003	78.51
377.214	101.03
377.424	109.23
377.635	-7.51
377.845	58.03
378.055	55.98
378.266	49.83
378.476	23.21
378.686	45.74
378.897	82.6
379.107	158.38
379.317	64.17
379.528	88.75
379.738	113.32
379.948	23.21
380.158	150.18
380.369	49.83
380.579	94.89
380.789	53.93
380.999	94.89
381.21	31.4
381.42	123.56
381.63	90.79
381.84	51.88
382.05	10.92
382.261	111.27
382.471	33.45
382.681	101.03
382.891	68.27
383.101	78.51
383.311	31.4
383.521	129.7
383.731	119.46
383.941	82.6
384.151	90.79
384.361	74.41
384.571	141.99
384.781	109.23
384.991	98.99
385.201	86.7
385.411	8.87
385.621	98.99
385.831	103.08
386.041	90.79
386.251	129.7
386.461	82.6
386.671	58.03
386.881	88.75
387.091	29.35
387.301	103.08
387.511	33.45
387.72	141.99
387.93	113.32
388.14	41.64
388.35	82.6
388.56	96.94
388.769	96.94
388.979	109.23
389.189	45.74
389.399	146.09
389.609	58.03
389.818	58.03
390.028	94.89
390.238	139.94
390.447	60.07
390.657	19.11
390.867	107.18
391.076	45.74
391.286	43.69
391.496	101.03
391.705	90.79
391.915	158.38
392.125	62.12
392.334	129.7
392.544	64.17
392.753	162.47
392.963	55.98
393.172	117.42
393.382	86.7
393.591	135.85
393.801	74.41
394.01	45.74
394.22	144.04
394.429	141.99
394.639	72.36
394.848	86.7
395.058	141.99
395.267	107.18
395.477	103.08
395.686	43.69
395.895	137.9
396.105	168.62
396.314	129.7
396.524	129.7
396.733	98.99
396.942	275.11
397.152	160.42
397.361	154.28
397.57	162.47
397.78	164.52
397.989	164.52
398.198	162.47
398.407	135.85
398.617	162.47
398.826	113.32
399.035	96.94
399.244	88.75
399.453	203.43
399.663	170.66
399.872	180.9
400.081	144.04
400.29	148.14
400.499	195.24
400.708	170.66
400.917	139.94
401.127	137.9
401.336	98.99
401.545	158.38
401.754	164.52
401.963	156.33
402.172	174.76
402.381	139.94
402.59	133.8
402.799	180.9
403.008	182.95
403.217	135.85
403.426	176.81
403.635	162.47
403.844	185
404.053	221.86
404.262	150.18
404.471	195.24
404.68	168.62
404.888	178.86
405.097	207.53
405.306	182.95
405.515	242.34
405.724	262.82
405.933	232.1
406.142	232.1
406.35	197.29
406.559	254.63
406.768	275.11
406.977	213.67
407.185	244.39
407.394	264.87
407.603	309.93
407.812	340.65
408.02	285.35
408.229	365.22
408.438	373.41
408.646	268.97
408.855	348.84
409.064	318.12
409.272	342.69
409.481	416.42
409.69	326.31
409.898	383.65
410.107	350.89
410.315	414.37
410.524	400.04
410.733	481.96
410.941	481.96
411.15	420.52
411.358	492.2
411.567	608.93
411.775	543.39
411.984	535.2
412.192	492.2
412.401	625.31
412.609	610.98
412.818	664.22
413.026	651.94
413.234	711.33
413.443	735.9
413.651	701.09
413.86	793.25
414.068	787.1
414.276	821.92
414.485	828.06
414.693	887.45
414.901	948.89
415.11	856.73
415.318	1018.52
415.526	936.6
415.734	1045.15
415.943	1059.48
416.151	1127.07
416.359	1116.83
416.567	1182.36
416.776	1137.31
416.984	1208.98
417.192	1237.66
417.4	1295
417.608	1258.14
417.817	1462.93
418.025	1411.73
418.233	1559.19
418.441	1469.08
418.649	1647.25
418.857	1675.92
419.065	1684.11
419.273	1684.11
419.481	1792.66
419.689	1931.92
419.897	2101.9
420.105	2155.15
420.313	2083.47
420.521	2046.6
420.729	2177.67
420.937	2321.03
421.145	2378.37
421.353	2429.57
421.561	2536.07
421.769	2556.55
421.977	2785.92
422.185	2632.32
422.393	2908.8
422.601	3058.3
422.809	2902.65
423.017	3215.99
423.224	3164.79
423.432	3381.88
423.64	3261.05
423.848	3646.07
424.056	3547.76
424.263	3889.78
424.471	3910.26
424.679	3951.21
424.887	3996.27
425.094	4262.51
425.302	4364.9
425.51	4553.32
425.718	4389.48
425.925	4723.3
426.133	4823.65
426.341	5020.25
426.548	5272.15
426.756	5405.27
426.964	5354.07
427.171	5712.47
427.379	5728.85
427.586	5704.28
427.794	6128.21
428.001	6333
428.209	6609.48
428.417	6599.24
428.624	6892.1
428.832	7103.04
429.039	7096.89
429.247	7037.5
429.454	7655.99
429.662	8061.49
429.869	7465.53
430.076	8075.82
430.284	8053.3
430.491	8307.24
430.699	8852
430.906	8890.91
431.114	8989.22
431.321	9130.53
431.528	9445.91
431.736	10109.46
431.943	10320.4
432.15	10209.81
432.358	10289.68
432.565	10932.74
432.772	10816.01
432.979	11119.1
433.187	11284.99
433.394	11524.6
433.601	12421.61
433.808	12450.28
434.016	12341.74
434.223	12831.21
434.43	13494.75
434.637	13382.11
434.844	14062.04
435.052	14576.08
435.259	14371.28
435.466	14418.38
435.673	14301.65
435.88	15206.85
436.087	15946.17
436.294	16200.12
436.501	15798.71
436.708	15937.98
436.915	16484.78
437.122	17248.68
437.329	17236.39
437.537	17809.82
437.743	18108.82
437.95	17914.27
438.157	19011.98
438.364	19566.98
438.571	19331.46
438.778	19659.13
438.985	21231.97
439.192	20666.74
439.399	21301.61
439.606	20814.19
439.813	21680.48
440.02	23243.08
440.227	22546.77
440.433	22577.49
440.64	23210.31
440.847	22942.03
441.054	23810.37
441.261	25407.78
441.467	24994.09
441.674	25680.16
441.881	26638.61
442.088	26435.86
442.294	26198.3
442.501	26974.48
442.708	27492.62
442.914	28152.06
443.121	29597.93
443.328	28999.92
443.534	31015.12
443.741	29753.57
443.948	29305.07
444.154	31887.56
444.361	31774.92
444.568	31742.15
444.774	31936.71
444.981	32309.44
445.187	33482.92
445.394	34021.54
445.6	34134.18
445.807	36839.54
446.013	35745.93
446.22	36055.17
446.426	37558.38
446.633	38000.74
446.839	38848.6
447.046	37544.05
447.252	39211.09
447.459	39835.72
447.665	39116.89
447.871	41123.9
448.078	42926.11
448.284	40923.19
448.491	41869.36
448.697	43470.87
448.903	44357.64
449.11	44406.79
449.316	43694.1
449.522	44386.31
449.728	45264.89
449.935	45764.59
450.141	45811.7
450.347	46829.54
450.553	45105.15
450.76	45791.22
450.966	47597.52
451.172	46571.49
451.378	48048.08
451.584	47177.69
451.791	47882.19
451.997	47921.1
452.203	48465.86
452.409	48904.13
452.615	48476.1
452.821	46931.93
453.027	46149.61
453.233	48545.73
453.44	46159.85
453.646	47142.88
453.852	47134.68
454.058	47787.99
454.264	46202.86
454.47	47562.71
454.676	46237.67
454.882	47579.09
455.088	43591.7
455.294	44177.42
455.5	45191.16
455.705	45359.09
455.911	43804.69
456.117	42721.31
456.323	41760.81
456.529	39698.51
456.735	41615.41
456.941	40517.7
457.147	39991.37
457.352	38641.76
457.558	38266.98
457.764	38250.6
457.97	37359.73
458.176	36452.48
458.381	36597.88
458.587	34814.1
458.793	34984.08
458.999	33011.89
459.204	35049.62
459.41	34484.38
459.616	32200.9
459.821	32266.43
460.027	32129.22
460.233	31447.24
460.438	29608.17
460.644	29956.32
460.85	28883.19
461.055	28428.54
461.261	28250.36
461.466	25987.36
461.672	25450.79
461.878	27230.48
462.083	25465.13
462.289	24799.54
462.494	25012.52
462.7	23511.36
462.905	22845.77
463.111	23570.75
463.316	23796.03
463.522	23132.49
463.727	23447.88
463.932	23042.38
464.138	22798.67
464.343	22968.65
464.549	22108.51
464.754	23294.28
464.959	22894.93
465.165	22833.49
465.37	22174.04
465.575	21524.83
465.781	21881.18
465.986	22468.95
466.191	21614.94
466.397	21145.96
466.602	19960.19
466.807	20818.28
