Data from USB4F104151__87__12-13-00-750.txt Node

Date: Fri Mar 14 12:13:00 EDT 2025
User: louis
Spectrometer: USB4F10415
Trigger mode: 4
Integration Time (sec): 5.000000E-2
Scans to average: 1
Electric dark correction enabled: true
Nonlinearity correction enabled: false
Boxcar width: 0
XAxis mode: Wavelengths
Number of Pixels in Spectrum: 3648
>>>>>Begin Spectral Data<<<<<
178.204	-216.74
178.424	-216.74
178.644	-216.74
178.864	-249.51
179.084	-196.26
179.304	-13.99
179.524	-28.33
179.744	-32.43
179.964	96.6
180.184	-38.57
180.404	-40.62
180.624	31.06
180.844	22.87
181.064	-22.19
181.283	-16.04
181.503	33.11
181.723	8.53
181.943	-46.76
182.163	104.79
182.383	2.39
182.602	18.77
182.822	53.59
183.042	65.88
183.262	-42.67
183.482	88.4
183.701	20.82
183.921	49.49
184.141	6.49
184.361	43.35
184.58	57.68
184.8	57.68
185.02	-26.28
185.239	88.4
185.459	14.68
185.679	72.02
185.898	-87.72
186.118	76.12
186.338	69.97
186.557	-3.75
186.777	-1.71
186.997	24.92
187.216	-28.33
187.436	106.84
187.655	80.21
187.875	49.49
188.095	43.35
188.314	86.36
188.534	74.07
188.753	12.63
188.973	59.73
189.192	102.74
189.412	67.92
189.631	20.82
189.851	82.26
190.07	88.4
190.29	2.39
190.509	20.82
190.729	45.4
190.948	115.03
191.168	184.66
191.387	162.13
191.607	67.92
191.826	43.35
192.045	69.97
192.265	63.83
192.484	-20.14
192.704	61.78
192.923	-46.76
193.142	166.23
193.362	-20.14
193.581	45.4
193.8	65.88
194.02	100.69
194.239	43.35
194.458	57.68
194.678	47.44
194.897	41.3
195.116	69.97
195.335	57.68
195.555	82.26
195.774	20.82
195.993	31.06
196.212	35.16
196.432	53.59
196.651	51.54
196.87	47.44
197.089	133.46
197.308	53.59
197.528	72.02
197.747	35.16
197.966	39.25
198.185	84.31
198.404	-30.38
198.623	22.87
198.842	82.26
199.062	94.55
199.281	84.31
199.5	59.73
199.719	45.4
199.938	108.88
200.157	-3.75
200.376	67.92
200.595	133.46
200.814	43.35
201.033	59.73
201.252	174.42
201.471	59.73
201.69	92.5
201.909	86.36
202.128	65.88
202.347	-7.85
202.566	26.96
202.785	35.16
203.004	16.73
203.223	182.61
203.442	-1.71
203.661	63.83
203.879	31.06
204.098	127.32
204.317	22.87
204.536	78.16
204.755	61.78
204.974	143.7
205.193	2.39
205.411	106.84
205.63	51.54
205.849	100.69
206.068	26.96
206.287	41.3
206.505	63.83
206.724	0.34
206.943	-34.47
207.162	35.16
207.381	31.06
207.599	-52.91
207.818	65.88
208.037	43.35
208.255	-13.99
208.474	-7.85
208.693	2.39
208.911	43.35
209.13	24.92
209.349	33.11
209.567	61.78
209.786	47.44
210.005	8.53
210.223	61.78
210.442	37.2
210.661	14.68
210.879	90.45
211.098	33.11
211.316	80.21
211.535	-30.38
211.753	-16.04
211.972	35.16
212.191	2.39
212.409	80.21
212.628	102.74
212.846	43.35
213.065	2.39
213.283	143.7
213.502	-40.62
213.72	63.83
213.938	82.26
214.157	84.31
214.375	59.73
214.594	26.96
214.812	108.88
215.031	6.49
215.249	2.39
215.467	57.68
215.686	26.96
215.904	82.26
216.122	43.35
216.341	65.88
216.559	108.88
216.778	147.8
216.996	57.68
217.214	-7.85
217.432	12.63
217.651	-42.67
217.869	26.96
218.087	59.73
218.306	47.44
218.524	49.49
218.742	16.73
218.96	-3.75
219.179	22.87
219.397	20.82
219.615	149.84
219.833	-30.38
220.051	-46.76
220.27	41.3
220.488	6.49
220.706	29.01
220.924	53.59
221.142	80.21
221.36	2.39
221.578	-24.23
221.796	31.06
222.015	12.63
222.233	86.36
222.451	164.18
222.669	-67.24
222.887	102.74
223.105	12.63
223.323	6.49
223.541	-20.14
223.759	86.36
223.977	45.4
224.195	92.5
224.413	12.63
224.631	106.84
224.849	14.68
225.067	76.12
225.285	43.35
225.503	6.49
225.721	-38.57
225.939	39.25
226.157	67.92
226.375	162.13
226.592	37.2
226.81	63.83
227.028	14.68
227.246	110.93
227.464	162.13
227.682	104.79
227.9	43.35
228.117	2.39
228.335	45.4
228.553	-40.62
228.771	45.4
228.989	72.02
229.206	67.92
229.424	-91.82
229.642	8.53
229.86	20.82
230.077	88.4
230.295	31.06
230.513	112.98
230.731	104.79
230.948	61.78
231.166	104.79
231.384	55.64
231.601	39.25
231.819	100.69
232.037	-24.23
232.254	-5.8
232.472	80.21
232.689	-110.25
232.907	31.06
233.125	20.82
233.342	2.39
233.56	-24.23
233.777	14.68
233.995	49.49
234.213	45.4
234.43	-9.9
234.648	-22.19
234.865	43.35
235.083	33.11
235.3	-100.01
235.518	102.74
235.735	59.73
235.953	106.84
236.17	76.12
236.388	26.96
236.605	18.77
236.822	112.98
237.04	51.54
237.257	4.44
237.475	-1.71
237.692	94.55
237.909	119.12
238.127	-38.57
238.344	78.16
238.562	-32.43
238.779	-1.71
238.996	-46.76
239.214	45.4
239.431	16.73
239.648	-9.9
239.865	135.51
240.083	24.92
240.3	-13.99
240.517	10.58
240.735	10.58
240.952	16.73
241.169	12.63
241.386	94.55
241.603	41.3
241.821	35.16
242.038	61.78
242.255	45.4
242.472	55.64
242.689	29.01
242.907	51.54
243.124	45.4
243.341	41.3
243.558	63.83
243.775	-42.67
243.992	-3.75
244.209	20.82
244.426	108.88
244.643	108.88
244.86	31.06
245.078	-32.43
245.295	108.88
245.512	59.73
245.729	2.39
245.946	10.58
246.163	8.53
246.38	55.64
246.597	-7.85
246.814	53.59
247.031	24.92
247.248	104.79
247.464	88.4
247.681	39.25
247.898	20.82
248.115	4.44
248.332	-24.23
248.549	74.07
248.766	119.12
248.983	61.78
249.2	141.65
249.417	92.5
249.633	-5.8
249.85	65.88
250.067	67.92
250.284	-13.99
250.501	59.73
250.717	80.21
250.934	14.68
251.151	22.87
251.368	41.3
251.585	26.96
251.801	98.64
252.018	-32.43
252.235	69.97
252.451	20.82
252.668	55.64
252.885	53.59
253.102	37.2
253.318	69.97
253.535	14.68
253.752	-24.23
253.968	16.73
254.185	-9.9
254.401	10.58
254.618	4.44
254.835	53.59
255.051	96.6
255.268	16.73
255.484	80.21
255.701	43.35
255.917	14.68
256.134	24.92
256.351	47.44
256.567	72.02
256.784	-44.71
257	39.25
257.217	86.36
257.433	39.25
257.65	45.4
257.866	74.07
258.082	-42.67
258.299	-11.95
258.515	2.39
258.732	51.54
258.948	67.92
259.165	37.2
259.381	6.49
259.597	0.34
259.814	59.73
260.03	18.77
260.246	100.69
260.463	117.08
260.679	26.96
260.895	31.06
261.112	45.4
261.328	43.35
261.544	14.68
261.761	129.36
261.977	22.87
262.193	12.63
262.409	96.6
262.626	33.11
262.842	31.06
263.058	-54.95
263.274	-38.57
263.49	69.97
263.707	76.12
263.923	106.84
264.139	-44.71
264.355	51.54
264.571	43.35
264.787	20.82
265.004	86.36
265.22	29.01
265.436	6.49
265.652	-32.43
265.868	-67.24
266.084	-11.95
266.3	33.11
266.516	78.16
266.732	37.2
266.948	14.68
267.164	14.68
267.38	20.82
267.596	8.53
267.812	131.41
268.028	98.64
268.244	18.77
268.46	29.01
268.676	-7.85
268.892	37.2
269.108	-57
269.324	49.49
269.54	-13.99
269.756	98.64
269.972	61.78
270.188	-3.75
270.403	-67.24
270.619	22.87
270.835	86.36
271.051	8.53
271.267	-20.14
271.483	-20.14
271.698	72.02
271.914	65.88
272.13	39.25
272.346	92.5
272.562	-34.47
272.777	74.07
272.993	-34.47
273.209	-16.04
273.425	39.25
273.64	-7.85
273.856	61.78
274.072	76.12
274.287	-42.67
274.503	102.74
274.719	37.2
274.934	10.58
275.15	-28.33
275.366	-16.04
275.581	26.96
275.797	-26.28
276.012	4.44
276.228	-48.81
276.444	2.39
276.659	-7.85
276.875	-20.14
277.09	37.2
277.306	80.21
277.521	112.98
277.737	26.96
277.952	35.16
278.168	51.54
278.383	49.49
278.599	43.35
278.814	98.64
279.03	49.49
279.245	82.26
279.461	16.73
279.676	55.64
279.892	63.83
280.107	8.53
280.322	-22.19
280.538	0.34
280.753	-30.38
280.969	59.73
281.184	26.96
281.399	100.69
281.615	63.83
281.83	-1.71
282.045	-52.91
282.26	-20.14
282.476	-3.75
282.691	63.83
282.906	-26.28
283.122	35.16
283.337	35.16
283.552	102.74
283.767	16.73
283.983	26.96
284.198	49.49
284.413	102.74
284.628	-93.87
284.843	47.44
285.058	55.64
285.274	41.3
285.489	-7.85
285.704	67.92
285.919	-11.95
286.134	24.92
286.349	88.4
286.564	4.44
286.779	80.21
286.995	-30.38
287.21	6.49
287.425	57.68
287.64	-30.38
287.855	51.54
288.07	-42.67
288.285	96.6
288.5	76.12
288.715	59.73
288.93	8.53
289.145	6.49
289.36	72.02
289.575	57.68
289.79	59.73
290.004	55.64
290.219	117.08
290.434	39.25
290.649	-18.09
290.864	59.73
291.079	22.87
291.294	8.53
291.509	-26.28
291.724	2.39
291.938	-36.52
292.153	-16.04
292.368	59.73
292.583	20.82
292.798	24.92
293.012	26.96
293.227	55.64
293.442	33.11
293.657	92.5
293.871	168.27
294.086	78.16
294.301	117.08
294.516	143.7
294.73	16.73
294.945	67.92
295.16	-44.71
295.374	151.89
295.589	29.01
295.804	-1.71
296.018	14.68
296.233	143.7
296.447	-18.09
296.662	6.49
296.877	10.58
297.091	37.2
297.306	31.06
297.52	2.39
297.735	8.53
297.949	123.22
298.164	90.45
298.378	14.68
298.593	65.88
298.807	24.92
299.022	-5.8
299.236	63.83
299.451	24.92
299.665	-65.19
299.88	22.87
300.094	33.11
300.309	55.64
300.523	74.07
300.737	-11.95
300.952	45.4
301.166	86.36
301.381	2.39
301.595	88.4
301.809	125.27
302.024	35.16
302.238	-5.8
302.452	78.16
302.667	26.96
302.881	86.36
303.095	22.87
303.309	22.87
303.524	-13.99
303.738	-46.76
303.952	-44.71
304.166	4.44
304.381	-34.47
304.595	45.4
304.809	-63.15
305.023	8.53
305.237	57.68
305.452	80.21
305.666	119.12
305.88	110.93
306.094	18.77
306.308	18.77
306.522	65.88
306.736	39.25
306.95	123.22
307.164	35.16
307.379	57.68
307.593	110.93
307.807	74.07
308.021	78.16
308.235	67.92
308.449	-38.57
308.663	-42.67
308.877	127.32
309.091	-44.71
309.305	16.73
309.519	-46.76
309.733	76.12
309.947	-30.38
310.161	57.68
310.374	29.01
310.588	74.07
310.802	45.4
311.016	-13.99
311.23	43.35
311.444	-18.09
311.658	31.06
311.872	104.79
312.085	74.07
312.299	82.26
312.513	133.46
312.727	94.55
312.941	43.35
313.154	39.25
313.368	59.73
313.582	6.49
313.796	-1.71
314.009	49.49
314.223	119.12
314.437	-18.09
314.651	49.49
314.864	49.49
315.078	16.73
315.292	-30.38
315.505	49.49
315.719	12.63
315.933	14.68
316.146	-100.01
316.36	0.34
316.573	100.69
316.787	88.4
317.001	33.11
317.214	24.92
317.428	4.44
317.641	10.58
317.855	45.4
318.068	41.3
318.282	6.49
318.495	59.73
318.709	69.97
318.922	24.92
319.136	53.59
319.349	80.21
319.563	41.3
319.776	-9.9
319.99	-73.39
320.203	43.35
320.417	31.06
320.63	168.27
320.843	37.2
321.057	61.78
321.27	55.64
321.483	55.64
321.697	61.78
321.91	88.4
322.124	57.68
322.337	80.21
322.55	-16.04
322.763	55.64
322.977	29.01
323.19	63.83
323.403	59.73
323.617	104.79
323.83	129.36
324.043	123.22
324.256	43.35
324.469	14.68
324.683	112.98
324.896	53.59
325.109	-46.76
325.322	-13.99
325.535	108.88
325.748	65.88
325.962	94.55
326.175	43.35
326.388	65.88
326.601	98.64
326.814	72.02
327.027	90.45
327.24	151.89
327.453	-63.15
327.666	92.5
327.879	121.17
328.092	69.97
328.305	90.45
328.518	37.2
328.731	43.35
328.944	33.11
329.157	12.63
329.37	18.77
329.583	104.79
329.796	131.41
330.009	-30.38
330.222	139.6
330.435	94.55
330.648	-13.99
330.861	67.92
331.073	55.64
331.286	82.26
331.499	61.78
331.712	-18.09
331.925	47.44
332.138	22.87
332.35	100.69
332.563	-18.09
332.776	43.35
332.989	12.63
333.202	43.35
333.414	18.77
333.627	76.12
333.84	-1.71
334.053	43.35
334.265	84.31
334.478	47.44
334.691	-34.47
334.903	45.4
335.116	33.11
335.329	29.01
335.541	82.26
335.754	119.12
335.966	45.4
336.179	4.44
336.392	53.59
336.604	86.36
336.817	90.45
337.029	82.26
337.242	88.4
337.454	12.63
337.667	-5.8
337.88	76.12
338.092	33.11
338.305	129.36
338.517	65.88
338.729	35.16
338.942	84.31
339.154	18.77
339.367	10.58
339.579	108.88
339.792	35.16
340.004	88.4
340.217	-7.85
340.429	65.88
340.641	14.68
340.854	45.4
341.066	-1.71
341.278	102.74
341.491	63.83
341.703	65.88
341.915	-57
342.128	123.22
342.34	-5.8
342.552	57.68
342.764	-13.99
342.977	67.92
343.189	82.26
343.401	49.49
343.613	-7.85
343.826	0.34
344.038	29.01
344.25	43.35
344.462	4.44
344.674	-22.19
344.886	65.88
345.099	98.64
345.311	88.4
345.523	78.16
345.735	-46.76
345.947	88.4
346.159	37.2
346.371	82.26
346.583	-24.23
346.795	96.6
347.007	-34.47
347.219	26.96
347.431	37.2
347.643	110.93
347.855	45.4
348.067	119.12
348.279	37.2
348.491	72.02
348.703	141.65
348.915	69.97
349.127	-34.47
349.339	100.69
349.551	49.49
349.763	57.68
349.975	37.2
350.187	72.02
350.399	108.88
350.61	74.07
350.822	115.03
351.034	65.88
351.246	92.5
351.458	112.98
351.669	22.87
351.881	106.84
352.093	39.25
352.305	131.41
352.517	80.21
352.728	84.31
352.94	-13.99
353.152	53.59
353.363	29.01
353.575	80.21
353.787	112.98
353.999	76.12
354.21	72.02
354.422	155.99
354.633	-20.14
354.845	100.69
355.057	37.2
355.268	-1.71
355.48	22.87
355.692	-16.04
355.903	12.63
356.115	20.82
356.326	-61.1
356.538	110.93
356.749	94.55
356.961	143.7
357.172	22.87
357.384	29.01
357.595	139.6
357.807	-22.19
358.018	29.01
358.23	61.78
358.441	123.22
358.653	35.16
358.864	74.07
359.075	29.01
359.287	-16.04
359.498	115.03
359.709	26.96
359.921	31.06
360.132	86.36
360.344	98.64
360.555	8.53
360.766	43.35
360.977	-11.95
361.189	45.4
361.4	102.74
361.611	96.6
361.823	137.56
362.034	24.92
362.245	-18.09
362.456	41.3
362.667	51.54
362.879	-59.05
363.09	53.59
363.301	39.25
363.512	51.54
363.723	-11.95
363.935	-16.04
364.146	43.35
364.357	43.35
364.568	63.83
364.779	29.01
364.99	135.51
365.201	18.77
365.412	45.4
365.623	12.63
365.834	63.83
366.045	33.11
366.256	72.02
366.467	176.47
366.678	35.16
366.889	33.11
367.1	20.82
367.311	117.08
367.522	16.73
367.733	82.26
367.944	117.08
368.155	49.49
368.366	98.64
368.577	43.35
368.788	65.88
368.999	-7.85
369.209	61.78
369.42	219.47
369.631	145.75
369.842	104.79
370.053	18.77
370.264	125.27
370.474	0.34
370.685	51.54
370.896	18.77
371.107	49.49
371.317	20.82
371.528	2.39
371.739	110.93
371.95	129.36
372.16	57.68
372.371	41.3
372.582	8.53
372.792	69.97
373.003	100.69
373.214	45.4
373.424	57.68
373.635	51.54
373.846	119.12
374.056	39.25
374.267	108.88
374.477	63.83
374.688	39.25
374.898	92.5
375.109	57.68
375.319	72.02
375.53	141.65
375.74	39.25
375.951	22.87
376.161	49.49
376.372	143.7
376.582	8.53
376.793	141.65
377.003	22.87
377.214	20.82
377.424	6.49
377.635	90.45
377.845	33.11
378.055	51.54
378.266	67.92
378.476	31.06
378.686	80.21
378.897	45.4
379.107	102.74
379.317	100.69
379.528	51.54
379.738	82.26
379.948	14.68
380.158	51.54
380.369	16.73
380.579	94.55
380.789	-9.9
380.999	45.4
381.21	61.78
381.42	125.27
381.63	4.44
381.84	96.6
382.05	90.45
382.261	74.07
382.471	29.01
382.681	24.92
382.891	174.42
383.101	65.88
383.311	2.39
383.521	37.2
383.731	67.92
383.941	94.55
384.151	63.83
384.361	51.54
384.571	127.32
384.781	22.87
384.991	39.25
385.201	115.03
385.411	53.59
385.621	98.64
385.831	-5.8
386.041	57.68
386.251	74.07
386.461	129.36
386.671	22.87
386.881	76.12
387.091	96.6
387.301	86.36
387.511	16.73
387.72	168.27
387.93	127.32
388.14	18.77
388.35	76.12
388.56	121.17
388.769	123.22
388.979	69.97
389.189	22.87
389.399	41.3
389.609	121.17
389.818	168.27
390.028	74.07
390.238	108.88
390.447	29.01
390.657	51.54
390.867	45.4
391.076	29.01
391.286	55.64
391.496	110.93
391.705	8.53
391.915	131.41
392.125	108.88
392.334	57.68
392.544	35.16
392.753	84.31
392.963	-36.52
393.172	24.92
393.382	51.54
393.591	182.61
393.801	82.26
394.01	119.12
394.22	65.88
394.429	98.64
394.639	43.35
394.848	49.49
395.058	129.36
395.267	65.88
395.477	112.98
395.686	67.92
395.895	145.75
396.105	98.64
396.314	137.56
396.524	78.16
396.733	102.74
396.942	88.4
397.152	96.6
397.361	176.47
397.57	115.03
397.78	129.36
397.989	131.41
398.198	127.32
398.407	57.68
398.617	108.88
398.826	135.51
399.035	59.73
399.244	106.84
399.453	98.64
399.663	139.6
399.872	180.56
400.081	121.17
400.29	129.36
400.499	94.55
400.708	149.84
400.917	65.88
401.127	121.17
401.336	55.64
401.545	143.7
401.754	131.41
401.963	125.27
402.172	67.92
402.381	180.56
402.59	14.68
402.799	112.98
403.008	164.18
403.217	59.73
403.426	145.75
403.635	35.16
403.844	110.93
404.053	119.12
404.262	80.21
404.471	143.7
404.68	112.98
404.888	170.32
405.097	49.49
405.306	92.5
405.515	180.56
405.724	215.38
405.933	141.65
406.142	88.4
406.35	201.04
406.559	158.03
406.768	143.7
406.977	229.71
407.185	153.94
407.394	229.71
407.603	117.08
407.812	170.32
408.02	264.53
408.229	168.27
408.438	260.43
408.646	190.8
408.855	276.82
409.064	268.63
409.272	237.91
409.481	295.25
409.69	239.95
409.898	198.99
410.107	258.39
410.315	309.58
410.524	186.71
410.733	237.91
410.941	287.06
411.15	332.11
411.358	332.11
411.567	409.94
411.775	297.3
411.984	373.07
412.192	393.55
412.401	338.26
412.609	411.98
412.818	438.61
413.026	391.5
413.234	358.74
413.443	487.76
413.651	418.13
413.86	520.53
414.068	526.67
414.276	561.48
414.485	473.42
414.693	536.91
414.901	661.84
415.11	512.33
415.318	641.36
415.526	649.55
415.734	588.11
415.943	637.26
416.151	739.66
416.359	655.69
416.567	700.75
416.776	696.65
416.984	878.92
417.192	817.48
417.4	770.38
417.608	854.34
417.817	893.26
418.025	917.83
418.233	1020.23
418.441	985.41
418.649	942.41
418.857	1091.91
419.065	1083.72
419.273	1040.71
419.481	1204.55
419.689	1216.83
419.897	1259.84
420.105	1222.98
420.313	1354.05
420.521	1306.95
420.729	1382.72
420.937	1376.58
421.145	1411.39
421.353	1591.61
421.561	1665.34
421.769	1534.27
421.977	1769.79
422.185	1730.87
422.393	1716.54
422.601	1866.04
422.809	1806.65
423.017	1904.95
423.224	1939.77
423.432	2052.41
423.64	2062.65
423.848	2320.69
424.056	2130.23
424.263	2369.84
424.471	2302.26
424.679	2335.03
424.887	2523.44
425.094	2505.01
425.302	2623.79
425.51	2736.43
425.718	2738.48
425.925	2806.06
426.133	2906.41
426.341	3021.1
426.548	3221.8
426.756	3275.04
426.964	3305.76
427.171	3404.07
427.379	3578.14
427.586	3512.61
427.794	3725.6
428.001	3838.23
428.209	3922.2
428.417	3993.88
428.624	4360.47
428.832	4270.36
429.039	4307.22
429.247	4299.03
429.454	4546.83
429.662	4935.95
429.869	4638.99
430.076	4829.45
430.284	4815.12
430.491	5019.91
430.699	5304.58
430.906	5253.38
431.114	5310.72
431.321	5617.92
431.528	5705.98
431.736	5953.79
431.943	6408.44
432.15	5918.97
432.358	6232.31
432.565	6510.83
432.772	6476.02
432.979	6902
433.187	6902
433.394	6959.34
433.601	7362.79
433.808	7534.82
434.016	7434.47
434.223	7700.7
434.43	8227.03
434.637	8298.71
434.844	8659.15
435.052	8636.63
435.259	8659.15
435.466	8663.25
435.673	8538.32
435.88	9203.91
436.087	9785.54
436.294	9963.71
436.501	9394.37
436.708	9644.23
436.915	10019
437.122	10485.94
437.329	10559.67
437.537	10862.77
437.743	11075.76
437.95	10625.2
438.157	11387.05
438.364	11573.41
438.571	11917.47
438.778	11815.07
438.985	12990.61
439.192	12517.53
439.399	12865.68
439.606	12501.14
439.813	13363.34
440.02	14045.31
440.227	13549.7
440.433	13410.44
440.64	13916.29
440.847	14071.93
441.054	14354.55
441.261	15329.39
441.467	15147.12
441.674	15480.94
441.881	15933.54
442.088	16029.79
442.294	15616.1
442.501	16164.96
442.708	16216.16
442.914	17193.04
443.121	17666.12
443.328	17487.95
443.534	18593.85
443.741	18110.53
443.948	17770.57
444.154	19142.71
444.361	18995.25
444.568	19234.86
444.774	19222.58
444.981	19275.82
445.187	19908.65
445.394	20842.52
445.6	20408.35
445.807	22476.8
446.013	21297.17
446.22	21940.23
446.426	22880.25
446.633	22896.63
446.839	23715.82
447.046	22630.4
447.252	24139.75
447.459	24121.32
447.665	23693.29
447.871	24866.78
448.078	26288.07
448.284	25194.45
448.491	25589.71
448.697	26341.32
448.903	26945.47
449.11	27088.82
449.316	26562.5
449.522	27408.31
449.728	27733.93
449.935	28012.46
450.141	27991.98
450.347	28712.86
450.553	27707.31
450.76	28202.92
450.966	28903.32
451.172	28839.84
451.378	29605.78
451.584	28997.53
451.791	29671.31
451.997	29562.77
452.203	29771.66
452.409	30048.14
452.615	29652.88
452.821	28915.61
453.027	28350.37
453.233	30039.95
453.44	28927.9
453.646	29210.52
453.852	29091.74
454.058	29765.52
454.264	28784.54
454.47	29239.19
454.676	28524.45
454.882	29577.11
455.088	26769.34
455.294	27334.58
455.5	27883.44
455.705	28139.43
455.911	27054.01
456.117	26310.6
456.323	26245.06
456.529	24674.27
456.735	25378.77
456.941	25024.47
457.147	24903.64
457.352	24057.83
457.558	23502.83
457.764	23644.14
457.97	23103.48
458.176	22960.12
458.381	22685.69
458.587	21665.8
458.793	21700.62
458.999	20291.62
459.204	22247.43
459.41	21606.41
459.616	19904.55
459.821	19990.56
460.027	19728.42
460.233	19462.19
460.438	18507.83
460.644	18864.18
460.85	17752.13
461.055	17555.53
461.261	17459.27
461.466	16097.38
461.672	15718.5
461.878	16963.67
462.083	15706.21
462.289	15100.01
462.494	15239.28
462.7	14420.09
462.905	14116.99
463.111	14952.56
463.316	14692.47
463.522	14422.14
463.727	14227.58
463.932	14524.54
464.138	14012.54
464.343	14246.01
464.549	14143.61
464.754	14315.64
464.959	14313.59
465.165	14139.52
465.37	13504.65
465.575	13168.78
465.781	13658.24
465.986	13885.57
466.191	13226.12
466.397	13037.71
466.602	12314.78
466.807	12994.7
