Data from USB4F104151__33__12-11-51-508.txt Node

Date: Fri Mar 14 12:11:51 EDT 2025
User: louis
Spectrometer: USB4F10415
Trigger mode: 4
Integration Time (sec): 5.000000E-2
Scans to average: 1
Electric dark correction enabled: true
Nonlinearity correction enabled: false
Boxcar width: 0
XAxis mode: Wavelengths
Number of Pixels in Spectrum: 3648
>>>>>Begin Spectral Data<<<<<
178.204	-178
178.424	-178
178.644	-178
178.864	-286.54
179.084	-139.09
179.304	-8.02
179.524	-83.8
179.744	-83.8
179.964	-5.97
180.184	37.03
180.404	6.31
180.624	-3.93
180.844	32.94
181.064	63.66
181.283	45.23
181.503	32.94
181.723	-32.6
181.943	-61.27
182.163	18.6
182.383	-26.45
182.602	41.13
182.822	61.61
183.042	22.7
183.262	-69.46
183.482	14.51
183.701	-44.88
183.921	-26.45
184.141	-18.26
184.361	63.66
184.58	41.13
184.8	69.8
185.02	-22.36
185.239	94.38
185.459	-8.02
185.679	43.18
185.898	-75.6
186.118	-71.51
186.338	-36.69
186.557	37.03
186.777	-57.17
186.997	-3.93
187.216	-30.55
187.436	73.9
187.655	0.17
187.875	45.23
188.095	-18.26
188.314	34.99
188.534	34.99
188.753	-42.84
188.973	63.66
189.192	110.76
189.412	118.95
189.631	14.51
189.851	6.31
190.07	98.47
190.29	6.31
190.509	41.13
190.729	-42.84
190.948	-5.97
191.168	196.78
191.387	51.37
191.607	-106.32
191.826	30.89
192.045	-32.6
192.265	55.47
192.484	92.33
192.704	10.41
192.923	6.31
193.142	88.23
193.362	39.08
193.581	116.9
193.8	77.99
194.02	116.9
194.239	-12.12
194.458	18.6
194.678	-24.4
194.897	-24.4
195.116	45.23
195.335	-3.93
195.555	-14.17
195.774	6.31
195.993	-22.36
196.212	116.9
196.432	-14.17
196.651	-1.88
196.87	-32.6
197.089	207.02
197.308	10.41
197.528	73.9
197.747	-40.79
197.966	32.94
198.185	137.38
198.404	-38.74
198.623	116.9
198.842	131.24
199.062	94.38
199.281	96.43
199.5	-20.31
199.719	16.55
199.938	12.46
200.157	88.23
200.376	55.47
200.595	77.99
200.814	-12.12
201.033	-61.27
201.252	69.8
201.471	-32.6
201.69	34.99
201.909	53.42
202.128	73.9
202.347	8.36
202.566	12.46
202.785	55.47
203.004	12.46
203.223	110.76
203.442	6.31
203.661	-48.98
203.879	-44.88
204.098	10.41
204.317	16.55
204.536	26.79
204.755	49.32
204.974	-16.21
205.193	26.79
205.411	157.86
205.63	14.51
205.849	18.6
206.068	18.6
206.287	6.31
206.505	24.75
206.724	24.75
206.943	-1.88
207.162	32.94
207.381	-85.84
207.599	-12.12
207.818	6.31
208.037	63.66
208.255	4.27
208.474	145.58
208.693	-20.31
208.911	51.37
209.13	41.13
209.349	-20.31
209.567	-14.17
209.786	80.04
210.005	49.32
210.223	39.08
210.442	51.37
210.661	20.65
210.879	49.32
211.098	-3.93
211.316	4.27
211.535	82.09
211.753	-8.02
211.972	121
212.191	39.08
212.409	-46.93
212.628	-48.98
212.846	-30.55
213.065	39.08
213.283	118.95
213.502	-12.12
213.72	84.14
213.938	20.65
214.157	20.65
214.375	67.75
214.594	-5.97
214.812	-34.64
215.031	32.94
215.249	26.79
215.467	69.8
215.686	20.65
215.904	6.31
216.122	39.08
216.341	63.66
216.559	-16.21
216.778	12.46
216.996	-20.31
217.214	32.94
217.432	-3.93
217.651	-67.41
217.869	0.17
218.087	82.09
218.306	73.9
218.524	24.75
218.742	-16.21
218.96	100.52
219.179	18.6
219.397	-18.26
219.615	153.77
219.833	59.56
220.051	-16.21
220.27	49.32
220.488	121
220.706	55.47
220.924	37.03
221.142	63.66
221.36	8.36
221.578	16.55
221.796	-44.88
222.015	-5.97
222.233	18.6
222.451	65.71
222.669	28.84
222.887	-20.31
223.105	-55.12
223.323	24.75
223.541	-18.26
223.759	98.47
223.977	-18.26
224.195	92.33
224.413	65.71
224.631	-10.07
224.849	37.03
225.067	80.04
225.285	43.18
225.503	0.17
225.721	-40.79
225.939	32.94
226.157	14.51
226.375	166.06
226.592	-14.17
226.81	45.23
227.028	73.9
227.246	51.37
227.464	-59.22
227.682	-12.12
227.9	37.03
228.117	47.27
228.335	57.51
228.553	-5.97
228.771	-32.6
228.989	-51.03
229.206	2.22
229.424	86.19
229.642	-1.88
229.86	-26.45
230.077	61.61
230.295	20.65
230.513	39.08
230.731	18.6
230.948	86.19
231.166	80.04
231.384	-26.45
231.601	-30.55
231.819	43.18
232.037	-34.64
232.254	-87.89
232.472	-42.84
232.689	-16.21
232.907	24.75
233.125	4.27
233.342	-22.36
233.56	-1.88
233.777	-63.32
233.995	-57.17
234.213	59.56
234.43	30.89
234.648	102.57
234.865	-55.12
235.083	24.75
235.3	32.94
235.518	47.27
235.735	45.23
235.953	32.94
236.17	77.99
236.388	20.65
236.605	-12.12
236.822	118.95
237.04	10.41
237.257	37.03
237.475	-5.97
237.692	22.7
237.909	-8.02
238.127	-14.17
238.344	-16.21
238.562	84.14
238.779	-87.89
238.996	-44.88
239.214	26.79
239.431	73.9
239.648	-36.69
239.865	59.56
240.083	114.86
240.3	43.18
240.517	-38.74
240.735	26.79
240.952	55.47
241.169	69.8
241.386	-36.69
241.603	8.36
241.821	-46.93
242.038	20.65
242.255	104.62
242.472	-77.65
242.689	8.36
242.907	2.22
243.124	37.03
243.341	-34.64
243.558	-14.17
243.775	12.46
243.992	-36.69
244.209	84.14
244.426	77.99
244.643	41.13
244.86	20.65
245.078	84.14
245.295	-22.36
245.512	-3.93
245.729	12.46
245.946	-30.55
246.163	26.79
246.38	77.99
246.597	0.17
246.814	4.27
247.031	-10.07
247.248	34.99
247.464	49.32
247.681	-18.26
247.898	-24.4
248.115	20.65
248.332	-22.36
248.549	-44.88
248.766	149.67
248.983	94.38
249.2	49.32
249.417	80.04
249.633	34.99
249.85	24.75
250.067	26.79
250.284	37.03
250.501	55.47
250.717	-12.12
250.934	-102.23
251.151	22.7
251.368	-40.79
251.585	39.08
251.801	18.6
252.018	-5.97
252.235	14.51
252.451	8.36
252.668	-77.65
252.885	88.23
253.102	-28.5
253.318	-22.36
253.535	16.55
253.752	47.27
253.968	2.22
254.185	-22.36
254.401	-3.93
254.618	73.9
254.835	37.03
255.051	65.71
255.268	57.51
255.484	61.61
255.701	26.79
255.917	102.57
256.134	-55.12
256.351	69.8
256.567	-38.74
256.784	-36.69
257	0.17
257.217	-3.93
257.433	92.33
257.65	55.47
257.866	16.55
258.082	-24.4
258.299	20.65
258.515	18.6
258.732	-28.5
258.948	18.6
259.165	-28.5
259.381	12.46
259.597	24.75
259.814	6.31
260.03	69.8
260.246	-28.5
260.463	16.55
260.679	51.37
260.895	20.65
261.112	34.99
261.328	4.27
261.544	-10.07
261.761	92.33
261.977	-32.6
262.193	-44.88
262.409	75.95
262.626	88.23
262.842	18.6
263.058	-48.98
263.274	41.13
263.49	59.56
263.707	51.37
263.923	37.03
264.139	-28.5
264.355	69.8
264.571	112.81
264.787	8.36
265.004	34.99
265.22	-5.97
265.436	-53.08
265.652	53.42
265.868	16.55
266.084	-63.32
266.3	30.89
266.516	-30.55
266.732	-44.88
266.948	65.71
267.164	-18.26
267.38	2.22
267.596	2.22
267.812	96.43
268.028	28.84
268.244	-46.93
268.46	18.6
268.676	20.65
268.892	24.75
269.108	-5.97
269.324	-14.17
269.54	18.6
269.756	37.03
269.972	34.99
270.188	45.23
270.403	-120.66
270.619	4.27
270.835	-36.69
271.051	-3.93
271.267	10.41
271.483	-28.5
271.698	-12.12
271.914	24.75
272.13	32.94
272.346	-20.31
272.562	-3.93
272.777	51.37
272.993	-102.23
273.209	-46.93
273.425	55.47
273.64	2.22
273.856	63.66
274.072	-67.41
274.287	12.46
274.503	12.46
274.719	69.8
274.934	-1.88
275.15	-1.88
275.366	-30.55
275.581	71.85
275.797	-20.31
276.012	-24.4
276.228	69.8
276.444	47.27
276.659	73.9
276.875	-26.45
277.09	49.32
277.306	71.85
277.521	0.17
277.737	18.6
277.952	-32.6
278.168	-20.31
278.383	49.32
278.599	32.94
278.814	30.89
279.03	47.27
279.245	108.71
279.461	61.61
279.676	41.13
279.892	-46.93
280.107	-91.99
280.322	-34.64
280.538	12.46
280.753	-24.4
280.969	94.38
281.184	32.94
281.399	24.75
281.615	51.37
281.83	32.94
282.045	49.32
282.26	-89.94
282.476	-63.32
282.691	100.52
282.906	55.47
283.122	-5.97
283.337	4.27
283.552	45.23
283.767	-46.93
283.983	26.79
284.198	73.9
284.413	12.46
284.628	-34.64
284.843	12.46
285.058	51.37
285.274	-8.02
285.489	63.66
285.704	82.09
285.919	-3.93
286.134	2.22
286.349	-5.97
286.564	8.36
286.779	80.04
286.995	2.22
287.21	-55.12
287.425	51.37
287.64	-8.02
287.855	100.52
288.07	-63.32
288.285	57.51
288.5	39.08
288.715	28.84
288.93	-38.74
289.145	28.84
289.36	-14.17
289.575	24.75
289.79	77.99
290.004	10.41
290.219	43.18
290.434	10.41
290.649	2.22
290.864	-16.21
291.079	2.22
291.294	-30.55
291.509	67.75
291.724	12.46
291.938	0.17
292.153	6.31
292.368	22.7
292.583	45.23
292.798	100.52
293.012	94.38
293.227	104.62
293.442	10.41
293.657	26.79
293.871	82.09
294.086	39.08
294.301	96.43
294.516	20.65
294.73	45.23
294.945	-69.46
295.16	39.08
295.374	61.61
295.589	125.1
295.804	-61.27
296.018	26.79
296.233	37.03
296.447	18.6
296.662	10.41
296.877	34.99
297.091	18.6
297.306	16.55
297.52	-18.26
297.735	14.51
297.949	-36.69
298.164	14.51
298.378	-16.21
298.593	-83.8
298.807	-63.32
299.022	-71.51
299.236	45.23
299.451	63.66
299.665	55.47
299.88	-59.22
300.094	10.41
300.309	10.41
300.523	63.66
300.737	6.31
300.952	-51.03
301.166	-12.12
301.381	37.03
301.595	20.65
301.809	41.13
302.024	63.66
302.238	16.55
302.452	69.8
302.667	-32.6
302.881	26.79
303.095	34.99
303.309	88.23
303.524	-44.88
303.738	24.75
303.952	-24.4
304.166	77.99
304.381	-83.8
304.595	65.71
304.809	-22.36
305.023	30.89
305.237	110.76
305.452	34.99
305.666	94.38
305.88	45.23
306.094	114.86
306.308	16.55
306.522	18.6
306.736	47.27
306.95	100.52
307.164	37.03
307.379	-1.88
307.593	90.28
307.807	94.38
308.021	45.23
308.235	71.85
308.449	-48.98
308.663	69.8
308.877	143.53
309.091	-67.41
309.305	18.6
309.519	-53.08
309.733	77.99
309.947	-32.6
310.161	69.8
310.374	28.84
310.588	16.55
310.802	-16.21
311.016	-44.88
311.23	49.32
311.444	-3.93
311.658	0.17
311.872	153.77
312.085	67.75
312.299	-12.12
312.513	77.99
312.727	-14.17
312.941	8.36
313.154	16.55
313.368	67.75
313.582	45.23
313.796	-10.07
314.009	-8.02
314.223	57.51
314.437	55.47
314.651	2.22
314.864	-34.64
315.078	-1.88
315.292	-5.97
315.505	-36.69
315.719	30.89
315.933	8.36
316.146	32.94
316.36	-36.69
316.573	88.23
316.787	16.55
317.001	-8.02
317.214	-12.12
317.428	80.04
317.641	-18.26
317.855	-3.93
318.068	-5.97
318.282	49.32
318.495	67.75
318.709	71.85
318.922	-73.56
319.136	51.37
319.349	75.95
319.563	-32.6
319.776	26.79
319.99	-87.89
320.203	100.52
320.417	8.36
320.63	51.37
320.843	26.79
321.057	-24.4
321.27	-10.07
321.483	71.85
321.697	26.79
321.91	-38.74
322.124	47.27
322.337	41.13
322.55	30.89
322.763	98.47
322.977	-20.31
323.19	12.46
323.403	24.75
323.617	39.08
323.83	61.61
324.043	-44.88
324.256	67.75
324.469	-38.74
324.683	43.18
324.896	18.6
325.109	16.55
325.322	-14.17
325.535	67.75
325.748	24.75
325.962	-44.88
326.175	108.71
326.388	26.79
326.601	80.04
326.814	-26.45
327.027	49.32
327.24	61.61
327.453	-51.03
327.666	-26.45
327.879	100.52
328.092	-10.07
328.305	-30.55
328.518	22.7
328.731	-16.21
328.944	-1.88
329.157	-18.26
329.37	-38.74
329.583	84.14
329.796	98.47
330.009	-55.12
330.222	18.6
330.435	20.65
330.648	-42.84
330.861	-10.07
331.073	37.03
331.286	-5.97
331.499	80.04
331.712	-3.93
331.925	2.22
332.138	30.89
332.35	6.31
332.563	-14.17
332.776	18.6
332.989	-32.6
333.202	55.47
333.414	12.46
333.627	26.79
333.84	49.32
334.053	-89.94
334.265	6.31
334.478	-26.45
334.691	94.38
334.903	6.31
335.116	51.37
335.329	49.32
335.541	-51.03
335.754	77.99
335.966	6.31
336.179	26.79
336.392	47.27
336.604	-3.93
336.817	49.32
337.029	22.7
337.242	0.17
337.454	45.23
337.667	-1.88
337.88	75.95
338.092	75.95
338.305	57.51
338.517	6.31
338.729	112.81
338.942	8.36
339.154	-71.51
339.367	8.36
339.579	75.95
339.792	-28.5
340.004	55.47
340.217	49.32
340.429	18.6
340.641	-32.6
340.854	-87.89
341.066	12.46
341.278	43.18
341.491	121
341.703	34.99
341.915	-28.5
342.128	53.42
342.34	71.85
342.552	-79.7
342.764	12.46
342.977	-22.36
343.189	45.23
343.401	43.18
343.613	-8.02
343.826	41.13
344.038	-65.36
344.25	-3.93
344.462	-5.97
344.674	-30.55
344.886	26.79
345.099	82.09
345.311	8.36
345.523	-10.07
345.735	0.17
345.947	-10.07
346.159	75.95
346.371	28.84
346.583	10.41
346.795	37.03
347.007	24.75
347.219	59.56
347.431	22.7
347.643	67.75
347.855	63.66
348.067	67.75
348.279	6.31
348.491	16.55
348.703	30.89
348.915	67.75
349.127	28.84
349.339	43.18
349.551	20.65
349.763	59.56
349.975	41.13
350.187	69.8
350.399	57.51
350.61	37.03
350.822	65.71
351.034	73.9
351.246	8.36
351.458	102.57
351.669	53.42
351.881	121
352.093	96.43
352.305	153.77
352.517	37.03
352.728	137.38
352.94	88.23
353.152	49.32
353.363	-5.97
353.575	84.14
353.787	121
353.999	51.37
354.21	100.52
354.422	18.6
354.633	98.47
354.845	61.61
355.057	49.32
355.268	39.08
355.48	92.33
355.692	-20.31
355.903	-20.31
356.115	-28.5
356.326	-46.93
356.538	61.61
356.749	65.71
356.961	153.77
357.172	6.31
357.384	-51.03
357.595	49.32
357.807	34.99
358.018	18.6
358.23	49.32
358.441	125.1
358.653	53.42
358.864	61.61
359.075	2.22
359.287	84.14
359.498	80.04
359.709	20.65
359.921	37.03
360.132	61.61
360.344	24.75
360.555	-14.17
360.766	41.13
360.977	55.47
361.189	82.09
361.4	51.37
361.611	67.75
361.823	55.47
362.034	69.8
362.245	-16.21
362.456	-18.26
362.667	53.42
362.879	8.36
363.09	28.84
363.301	26.79
363.512	-69.46
363.723	32.94
363.935	-36.69
364.146	59.56
364.357	-12.12
364.568	-18.26
364.779	4.27
364.99	43.18
365.201	-77.65
365.412	127.14
365.623	-34.64
365.834	47.27
366.045	53.42
366.256	-28.5
366.467	47.27
366.678	-10.07
366.889	39.08
367.1	43.18
367.311	30.89
367.522	-16.21
367.733	16.55
367.944	86.19
368.155	-34.64
368.366	57.51
368.577	82.09
368.788	80.04
368.999	-63.32
369.209	-14.17
369.42	67.75
369.631	145.58
369.842	96.43
370.053	-3.93
370.264	59.56
370.474	-40.79
370.685	10.41
370.896	112.81
371.107	59.56
371.317	0.17
371.528	61.61
371.739	59.56
371.95	61.61
372.16	61.61
372.371	-69.46
372.582	20.65
372.792	30.89
373.003	26.79
373.214	16.55
373.424	131.24
373.635	49.32
373.846	57.51
374.056	-5.97
374.267	73.9
374.477	39.08
374.688	-38.74
374.898	-3.93
375.109	49.32
375.319	-12.12
375.53	8.36
375.74	59.56
375.951	26.79
376.161	-32.6
376.372	114.86
376.582	6.31
376.793	34.99
377.003	20.65
377.214	-1.88
377.424	90.28
377.635	8.36
377.845	16.55
378.055	43.18
378.266	-14.17
378.476	20.65
378.686	55.47
378.897	39.08
379.107	32.94
379.317	-32.6
379.528	-1.88
379.738	123.05
379.948	-34.64
380.158	55.47
380.369	-8.02
380.579	-5.97
380.789	-24.4
380.999	75.95
381.21	69.8
381.42	153.77
381.63	34.99
381.84	104.62
382.05	2.22
382.261	153.77
382.471	8.36
382.681	2.22
382.891	59.56
383.101	18.6
383.311	18.6
383.521	73.9
383.731	94.38
383.941	90.28
384.151	51.37
384.361	-28.5
384.571	123.05
384.781	86.19
384.991	14.51
385.201	127.14
385.411	110.76
385.621	-3.93
385.831	34.99
386.041	77.99
386.251	14.51
386.461	20.65
386.671	53.42
386.881	61.61
387.091	0.17
387.301	63.66
387.511	20.65
387.72	57.51
387.93	49.32
388.14	-8.02
388.35	-16.21
388.56	47.27
388.769	82.09
388.979	41.13
389.189	8.36
389.399	-1.88
389.609	65.71
389.818	69.8
390.028	6.31
390.238	47.27
390.447	28.84
390.657	49.32
390.867	30.89
391.076	30.89
391.286	47.27
391.496	-40.79
391.705	-28.5
391.915	84.14
392.125	104.62
392.334	-16.21
392.544	41.13
392.753	114.86
392.963	-34.64
393.172	28.84
393.382	6.31
393.591	98.47
393.801	34.99
394.01	34.99
394.22	75.95
394.429	26.79
394.639	94.38
394.848	-18.26
395.058	10.41
395.267	47.27
395.477	67.75
395.686	65.71
395.895	137.38
396.105	159.91
396.314	82.09
396.524	26.79
396.733	39.08
396.942	71.85
397.152	100.52
397.361	98.47
397.57	96.43
397.78	67.75
397.989	102.57
398.198	139.43
398.407	45.23
398.617	-22.36
398.826	69.8
399.035	41.13
399.244	176.3
399.453	4.27
399.663	118.95
399.872	116.9
400.081	2.22
400.29	121
400.499	37.03
400.708	170.15
400.917	94.38
401.127	137.38
401.336	34.99
401.545	45.23
401.754	98.47
401.963	67.75
402.172	75.95
402.381	69.8
402.59	96.43
402.799	32.94
403.008	135.34
403.217	90.28
403.426	59.56
403.635	-1.88
403.844	129.19
404.053	90.28
404.262	110.76
404.471	82.09
404.68	82.09
404.888	118.95
405.097	155.82
405.306	88.23
405.515	131.24
405.724	133.29
405.933	172.2
406.142	116.9
406.35	170.15
406.559	63.66
406.768	170.15
406.977	184.49
407.185	170.15
407.394	153.77
407.603	67.75
407.812	213.16
408.02	247.97
408.229	190.63
408.438	133.29
408.646	135.34
408.855	200.87
409.064	202.92
409.272	225.45
409.481	223.4
409.69	151.72
409.898	159.91
410.107	198.82
410.315	209.06
410.524	184.49
410.733	250.02
410.941	221.35
411.15	227.5
411.358	293.03
411.567	342.18
411.775	272.55
411.984	305.32
412.192	362.66
412.401	350.37
412.609	403.62
412.818	399.52
413.026	409.76
413.234	331.94
413.443	307.37
413.651	426.15
413.86	405.67
414.068	487.59
414.276	520.35
414.485	415.91
414.693	512.16
414.901	571.55
415.11	456.87
415.318	499.88
415.526	522.4
415.734	596.13
415.943	575.65
416.151	659.62
416.359	575.65
416.567	620.71
416.776	741.54
416.984	723.1
417.192	739.49
417.4	700.58
417.608	723.1
417.817	700.58
418.025	946.33
418.233	874.65
418.441	776.35
418.649	927.9
418.857	901.28
419.065	1015.96
419.273	958.62
419.481	1056.92
419.689	985.24
419.897	981.15
420.105	1056.92
420.313	1169.56
420.521	1202.33
420.729	1249.43
420.937	1228.95
421.145	1280.15
421.353	1441.94
421.561	1462.42
421.769	1503.38
421.977	1503.38
422.185	1515.67
422.393	1706.13
422.601	1777.81
422.809	1648.79
423.017	1720.46
423.224	1826.96
423.432	1878.16
423.64	1949.84
423.848	1968.27
424.056	1912.97
424.263	2130.06
424.471	2097.29
424.679	2248.84
424.887	2162.83
425.094	2289.8
425.302	2439.3
425.51	2398.34
425.718	2492.55
425.925	2549.89
426.133	2584.71
426.341	2865.28
426.548	2953.34
426.756	2865.28
426.964	3059.84
427.171	2988.16
427.379	3190.91
427.586	3139.71
427.794	3332.22
428.001	3580.02
428.209	3668.08
428.417	3528.82
428.624	3768.43
428.832	3780.72
429.039	3805.3
429.247	3770.48
429.454	4298.86
429.662	4444.26
429.869	4028.53
430.076	4382.82
430.284	4292.71
430.491	4485.22
430.699	4743.27
430.906	4724.83
431.114	4714.59
431.321	4892.77
431.528	5105.76
431.736	5341.27
431.943	5519.45
432.15	5431.38
432.358	5455.96
432.565	5920.85
432.772	5677.14
432.979	6053.97
433.187	6113.36
433.394	6232.14
433.601	6637.64
433.808	6477.9
434.016	6617.16
434.223	6694.98
434.43	7260.22
434.637	7090.24
434.844	7641.14
435.052	7807.03
435.259	7729.2
435.466	7778.36
435.673	7661.62
435.88	8122.41
436.087	8587.3
436.294	8511.53
436.501	8347.69
436.708	8507.43
436.915	8781.86
437.122	8960.03
437.329	8976.42
437.537	9517.08
437.743	9484.31
437.95	9457.69
438.157	9971.73
438.364	10299.41
438.571	10219.53
438.778	10512.39
438.985	11249.66
439.192	10704.9
439.399	11005.95
439.606	10872.84
439.813	11288.57
440.02	12425.2
440.227	11972.6
440.433	11794.42
440.64	12091.38
440.847	12267.5
441.054	12443.63
441.261	13332.45
441.467	12980.2
441.674	13393.89
441.881	13746.14
442.088	13815.77
442.294	13668.31
442.501	14251.99
442.708	14323.66
442.914	15065.03
443.121	15685.56
443.328	15095.75
443.534	16132.02
443.741	15718.33
443.948	15337.41
444.154	16482.22
444.361	16674.73
444.568	16850.86
444.774	16699.31
444.981	16789.42
445.187	17381.28
445.394	18087.83
445.6	17909.66
445.807	19548.03
446.013	18550.67
446.22	18964.36
446.426	19918.71
446.633	19916.67
446.839	20580.21
447.046	19545.98
447.252	20914.03
447.459	21084.01
447.665	20696.94
447.871	21925.72
448.078	22804.3
448.284	21864.29
448.491	22114.14
448.697	23193.42
448.903	23461.7
449.11	23582.53
449.316	22751.06
449.522	23732.03
449.728	24338.23
449.935	24450.87
450.141	24309.56
450.347	24999.73
450.553	24278.84
450.76	24334.14
450.966	25128.75
451.172	25044.78
451.378	25511.72
451.584	24952.62
451.791	25632.55
451.997	25693.99
452.203	25618.21
452.409	25990.94
452.615	25622.31
452.821	24831.79
453.027	24313.66
453.233	25728.8
453.44	24686.39
453.646	24932.14
453.852	25235.24
454.058	25511.72
454.264	24690.48
454.47	25345.83
454.676	24506.16
454.882	25313.06
455.088	23041.87
455.294	23787.33
455.5	23729.98
455.705	24129.34
455.911	22974.28
456.117	22456.15
456.323	22269.78
456.529	21153.64
456.735	22275.93
456.941	21434.21
457.147	21075.82
457.352	20363.12
457.558	20039.54
457.764	20246.39
457.97	19961.72
458.176	19337.09
458.381	19324.8
458.587	18278.29
458.793	18528.14
458.999	17336.23
459.204	18718.61
459.41	18274.2
459.616	16768.94
459.821	17016.74
460.027	16596.91
460.233	16322.48
460.438	15630.27
460.644	15751.1
460.85	15245.25
461.055	14989.25
461.261	14641.1
461.466	13672.41
461.672	12988.39
461.878	14149.59
462.083	13230.05
462.289	12855.27
462.494	12863.46
462.7	12199.92
462.905	11933.68
463.111	12228.59
463.316	12238.83
463.522	12019.7
463.727	12040.18
463.932	12103.67
464.138	11716.6
464.343	12095.47
464.549	11476.99
464.754	11988.98
464.959	11823.09
465.165	11567.1
465.37	11220.99
465.575	10899.46
465.781	11395.07
465.986	11380.73
466.191	10983.43
466.397	10651.66
466.602	10094.61
466.807	10393.61
467.012	10620.94
