Data from USB4F104151__93__12-13-14-899.txt Node

Date: Fri Mar 14 12:13:14 EDT 2025
User: louis
Spectrometer: USB4F10415
Trigger mode: 4
Integration Time (sec): 5.000000E-2
Scans to average: 1
Electric dark correction enabled: true
Nonlinearity correction enabled: false
Boxcar width: 0
XAxis mode: Wavelengths
Number of Pixels in Spectrum: 3648
>>>>>Begin Spectral Data<<<<<
178.204	-214.52
178.424	-214.52
178.644	-214.52
178.864	-192
179.084	-126.46
179.304	20.99
179.524	-3.58
179.744	-50.69
179.964	90.62
180.184	4.61
180.404	57.86
180.624	-36.35
180.844	0.51
181.064	-75.26
181.283	10.75
181.503	-32.26
181.723	12.8
181.943	-101.89
182.163	92.67
182.383	2.56
182.602	27.14
182.822	47.62
183.042	-13.82
183.262	-50.69
183.482	37.38
183.701	78.33
183.921	-1.54
184.141	23.04
184.361	-30.21
184.58	-7.68
184.8	20.99
185.02	45.57
185.239	61.95
185.459	78.33
185.679	121.34
185.898	-54.78
186.118	72.19
186.338	-24.06
186.557	20.99
186.777	-56.83
186.997	-112.13
187.216	2.56
187.436	80.38
187.655	-7.68
187.875	25.09
188.095	-52.74
188.314	64
188.534	115.2
188.753	41.47
188.973	51.71
189.192	129.53
189.412	53.76
189.631	25.09
189.851	-22.02
190.07	47.62
190.29	12.8
190.509	25.09
190.729	6.66
190.948	150.01
191.168	178.69
191.387	39.42
191.607	-48.64
191.826	31.23
192.045	-13.82
192.265	-108.03
192.484	4.61
192.704	14.85
192.923	18.94
193.142	68.09
193.362	98.81
193.581	72.19
193.8	100.86
194.02	45.57
194.239	4.61
194.458	20.99
194.678	74.24
194.897	16.9
195.116	4.61
195.335	96.77
195.555	39.42
195.774	-32.26
195.993	29.18
196.212	27.14
196.432	-38.4
196.651	8.7
196.87	37.38
197.089	74.24
197.308	-3.58
197.528	68.09
197.747	-24.06
197.966	37.38
198.185	49.66
198.404	-62.98
198.623	39.42
198.842	88.57
199.062	68.09
199.281	31.23
199.5	20.99
199.719	35.33
199.938	23.04
200.157	92.67
200.376	88.57
200.595	29.18
200.814	61.95
201.033	-5.63
201.252	47.62
201.471	41.47
201.69	113.15
201.909	29.18
202.128	92.67
202.347	70.14
202.566	47.62
202.785	-1.54
203.004	-32.26
203.223	152.06
203.442	51.71
203.661	31.23
203.879	4.61
204.098	109.05
204.317	-44.54
204.536	39.42
204.755	0.51
204.974	76.29
205.193	59.9
205.411	94.72
205.63	55.81
205.849	20.99
206.068	33.28
206.287	16.9
206.505	55.81
206.724	29.18
206.943	-13.82
207.162	51.71
207.381	66.05
207.599	6.66
207.818	-1.54
208.037	29.18
208.255	23.04
208.474	43.52
208.693	16.9
208.911	41.47
209.13	47.62
209.349	119.29
209.567	84.48
209.786	68.09
210.005	39.42
210.223	35.33
210.442	2.56
210.661	-11.78
210.879	10.75
211.098	18.94
211.316	72.19
211.535	8.7
211.753	-28.16
211.972	25.09
212.191	-13.82
212.409	-60.93
212.628	41.47
212.846	20.99
213.065	2.56
213.283	66.05
213.502	-38.4
213.72	-42.5
213.938	49.66
214.157	-7.68
214.375	4.61
214.594	57.86
214.812	-1.54
215.031	-17.92
215.249	94.72
215.467	45.57
215.686	2.56
215.904	27.14
216.122	12.8
216.341	43.52
216.559	12.8
216.778	61.95
216.996	78.33
217.214	-17.92
217.432	0.51
217.651	29.18
217.869	31.23
218.087	2.56
218.306	0.51
218.524	39.42
218.742	23.04
218.96	80.38
219.179	0.51
219.397	4.61
219.615	158.21
219.833	68.09
220.051	-7.68
220.27	59.9
220.488	68.09
220.706	80.38
220.924	12.8
221.142	2.56
221.36	-24.06
221.578	14.85
221.796	25.09
222.015	31.23
222.233	39.42
222.451	104.96
222.669	-87.55
222.887	70.14
223.105	-30.21
223.323	64
223.541	51.71
223.759	72.19
223.977	-3.58
224.195	98.81
224.413	129.53
224.631	43.52
224.849	-34.3
225.067	57.86
225.285	-95.74
225.503	39.42
225.721	-42.5
225.939	55.81
226.157	10.75
226.375	178.69
226.592	37.38
226.81	18.94
227.028	70.14
227.246	121.34
227.464	-1.54
227.682	107.01
227.9	57.86
228.117	33.28
228.335	80.38
228.553	-32.26
228.771	72.19
228.989	39.42
229.206	90.62
229.424	39.42
229.642	-22.02
229.86	-5.63
230.077	68.09
230.295	-50.69
230.513	51.71
230.731	72.19
230.948	37.38
231.166	29.18
231.384	10.75
231.601	23.04
231.819	-5.63
232.037	35.33
232.254	-34.3
232.472	-85.5
232.689	-65.02
232.907	61.95
233.125	16.9
233.342	6.66
233.56	16.9
233.777	82.43
233.995	12.8
234.213	76.29
234.43	27.14
234.648	72.19
234.865	-13.82
235.083	0.51
235.3	43.52
235.518	41.47
235.735	88.57
235.953	27.14
236.17	41.47
236.388	-5.63
236.605	53.76
236.822	127.49
237.04	35.33
237.257	33.28
237.475	12.8
237.692	23.04
237.909	45.57
238.127	6.66
238.344	27.14
238.562	82.43
238.779	-9.73
238.996	-5.63
239.214	-30.21
239.431	47.62
239.648	14.85
239.865	-17.92
240.083	25.09
240.3	-1.54
240.517	37.38
240.735	35.33
240.952	51.71
241.169	35.33
241.386	45.57
241.603	18.94
241.821	-19.97
242.038	139.77
242.255	41.47
242.472	-19.97
242.689	57.86
242.907	49.66
243.124	102.91
243.341	4.61
243.558	66.05
243.775	-15.87
243.992	-17.92
244.209	-32.26
244.426	129.53
244.643	68.09
244.86	-5.63
245.078	12.8
245.295	12.8
245.512	-24.06
245.729	-99.84
245.946	59.9
246.163	12.8
246.38	92.67
246.597	4.61
246.814	39.42
247.031	66.05
247.248	33.28
247.464	6.66
247.681	39.42
247.898	57.86
248.115	-9.73
248.332	43.52
248.549	31.23
248.766	139.77
248.983	59.9
249.2	43.52
249.417	57.86
249.633	-11.78
249.85	-30.21
250.067	-44.54
250.284	-44.54
250.501	82.43
250.717	74.24
250.934	-62.98
251.151	70.14
251.368	14.85
251.585	-13.82
251.801	45.57
252.018	-11.78
252.235	-5.63
252.451	-71.17
252.668	84.48
252.885	61.95
253.102	-13.82
253.318	33.28
253.535	2.56
253.752	80.38
253.968	78.33
254.185	-36.35
254.401	0.51
254.618	31.23
254.835	-77.31
255.051	107.01
255.268	59.9
255.484	41.47
255.701	10.75
255.917	-26.11
256.134	-60.93
256.351	-26.11
256.567	-28.16
256.784	14.85
257	-36.35
257.217	29.18
257.433	41.47
257.65	84.48
257.866	131.58
258.082	-58.88
258.299	8.7
258.515	16.9
258.732	33.28
258.948	18.94
259.165	-26.11
259.381	61.95
259.597	121.34
259.814	-9.73
260.03	-13.82
260.246	25.09
260.463	12.8
260.679	53.76
260.895	31.23
261.112	45.57
261.328	64
261.544	-7.68
261.761	217.6
261.977	14.85
262.193	-69.12
262.409	43.52
262.626	92.67
262.842	8.7
263.058	6.66
263.274	111.1
263.49	45.57
263.707	47.62
263.923	-17.92
264.139	-15.87
264.355	-34.3
264.571	150.01
264.787	-5.63
265.004	59.9
265.22	-34.3
265.436	27.14
265.652	18.94
265.868	10.75
266.084	-3.58
266.3	88.57
266.516	-26.11
266.732	-42.5
266.948	37.38
267.164	45.57
267.38	68.09
267.596	-24.06
267.812	127.49
268.028	-3.58
268.244	20.99
268.46	113.15
268.676	18.94
268.892	37.38
269.108	45.57
269.324	-65.02
269.54	-9.73
269.756	72.19
269.972	8.7
270.188	55.81
270.403	-5.63
270.619	61.95
270.835	14.85
271.051	68.09
271.267	16.9
271.483	39.42
271.698	31.23
271.914	39.42
272.13	-46.59
272.346	31.23
272.562	10.75
272.777	86.53
272.993	41.47
273.209	-30.21
273.425	-22.02
273.64	-81.41
273.856	102.91
274.072	-24.06
274.287	-60.93
274.503	18.94
274.719	45.57
274.934	-71.17
275.15	-26.11
275.366	-19.97
275.581	-62.98
275.797	35.33
276.012	80.38
276.228	-1.54
276.444	23.04
276.659	168.45
276.875	-11.78
277.09	49.66
277.306	-26.11
277.521	78.33
277.737	29.18
277.952	82.43
278.168	45.57
278.383	51.71
278.599	59.9
278.814	23.04
279.03	100.86
279.245	117.25
279.461	70.14
279.676	53.76
279.892	-22.02
280.107	-67.07
280.322	-56.83
280.538	72.19
280.753	8.7
280.969	18.94
281.184	8.7
281.399	102.91
281.615	8.7
281.83	-1.54
282.045	39.42
282.26	-46.59
282.476	-28.16
282.691	33.28
282.906	59.9
283.122	20.99
283.337	33.28
283.552	53.76
283.767	16.9
283.983	57.86
284.198	51.71
284.413	45.57
284.628	-60.93
284.843	-62.98
285.058	25.09
285.274	39.42
285.489	-38.4
285.704	33.28
285.919	-5.63
286.134	37.38
286.349	16.9
286.564	37.38
286.779	29.18
286.995	84.48
287.21	-50.69
287.425	27.14
287.64	66.05
287.855	0.51
288.07	-11.78
288.285	115.2
288.5	45.57
288.715	57.86
288.93	-30.21
289.145	-19.97
289.36	72.19
289.575	-17.92
289.79	92.67
290.004	10.75
290.219	53.76
290.434	12.8
290.649	16.9
290.864	-36.35
291.079	8.7
291.294	18.94
291.509	41.47
291.724	-13.82
291.938	53.76
292.153	41.47
292.368	-5.63
292.583	80.38
292.798	43.52
293.012	51.71
293.227	74.24
293.442	-13.82
293.657	14.85
293.871	47.62
294.086	-11.78
294.301	156.16
294.516	49.66
294.73	16.9
294.945	39.42
295.16	-58.88
295.374	127.49
295.589	72.19
295.804	-13.82
296.018	102.91
296.233	12.8
296.447	-22.02
296.662	20.99
296.877	23.04
297.091	70.14
297.306	18.94
297.52	14.85
297.735	78.33
297.949	59.9
298.164	-7.68
298.378	-11.78
298.593	-22.02
298.807	47.62
299.022	10.75
299.236	74.24
299.451	43.52
299.665	104.96
299.88	37.38
300.094	4.61
300.309	14.85
300.523	-7.68
300.737	2.56
300.952	68.09
301.166	35.33
301.381	-9.73
301.595	35.33
301.809	-46.59
302.024	43.52
302.238	4.61
302.452	45.57
302.667	100.86
302.881	-3.58
303.095	82.43
303.309	-26.11
303.524	-30.21
303.738	-56.83
303.952	35.33
304.166	29.18
304.381	-50.69
304.595	61.95
304.809	-87.55
305.023	35.33
305.237	-34.3
305.452	-46.59
305.666	131.58
305.88	-1.54
306.094	78.33
306.308	4.61
306.522	82.43
306.736	-9.73
306.95	64
307.164	-22.02
307.379	-26.11
307.593	117.25
307.807	90.62
308.021	53.76
308.235	78.33
308.449	-50.69
308.663	33.28
308.877	64
309.091	94.72
309.305	45.57
309.519	-26.11
309.733	64
309.947	14.85
310.161	78.33
310.374	80.38
310.588	109.05
310.802	-13.82
311.016	-26.11
311.23	33.28
311.444	-32.26
311.658	25.09
311.872	86.53
312.085	94.72
312.299	64
312.513	43.52
312.727	129.53
312.941	-58.88
313.154	70.14
313.368	23.04
313.582	92.67
313.796	86.53
314.009	-13.82
314.223	47.62
314.437	6.66
314.651	53.76
314.864	14.85
315.078	-15.87
315.292	0.51
315.505	-15.87
315.719	31.23
315.933	68.09
316.146	12.8
316.36	8.7
316.573	35.33
316.787	6.66
317.001	45.57
317.214	66.05
317.428	35.33
317.641	-5.63
317.855	102.91
318.068	66.05
318.282	8.7
318.495	139.77
318.709	6.66
318.922	2.56
319.136	96.77
319.349	8.7
319.563	2.56
319.776	10.75
319.99	23.04
320.203	61.95
320.417	-1.54
320.63	31.23
320.843	98.81
321.057	59.9
321.27	86.53
321.483	78.33
321.697	64
321.91	8.7
322.124	47.62
322.337	8.7
322.55	-34.3
322.763	49.66
322.977	53.76
323.19	10.75
323.403	18.94
323.617	-28.16
323.83	174.59
324.043	135.68
324.256	113.15
324.469	18.94
324.683	154.11
324.896	70.14
325.109	27.14
325.322	-75.26
325.535	74.24
325.748	51.71
325.962	-24.06
326.175	-22.02
326.388	72.19
326.601	82.43
326.814	18.94
327.027	31.23
327.24	80.38
327.453	-34.3
327.666	96.77
327.879	135.68
328.092	96.77
328.305	57.86
328.518	37.38
328.731	-44.54
328.944	4.61
329.157	135.68
329.37	4.61
329.583	139.77
329.796	49.66
330.009	-19.97
330.222	111.1
330.435	61.95
330.648	49.66
330.861	47.62
331.073	57.86
331.286	76.29
331.499	72.19
331.712	20.99
331.925	84.48
332.138	111.1
332.35	70.14
332.563	-44.54
332.776	135.68
332.989	-13.82
333.202	23.04
333.414	35.33
333.627	-3.58
333.84	-58.88
334.053	82.43
334.265	-19.97
334.478	18.94
334.691	-7.68
334.903	43.52
335.116	-26.11
335.329	-7.68
335.541	31.23
335.754	70.14
335.966	-30.21
336.179	12.8
336.392	45.57
336.604	-9.73
336.817	37.38
337.029	39.42
337.242	-1.54
337.454	47.62
337.667	72.19
337.88	84.48
338.092	35.33
338.305	31.23
338.517	51.71
338.729	119.29
338.942	74.24
339.154	-15.87
339.367	25.09
339.579	57.86
339.792	-24.06
340.004	76.29
340.217	-15.87
340.429	53.76
340.641	-32.26
340.854	-44.54
341.066	57.86
341.278	111.1
341.491	131.58
341.703	80.38
341.915	8.7
342.128	59.9
342.34	33.28
342.552	49.66
342.764	59.9
342.977	80.38
343.189	133.63
343.401	55.81
343.613	-56.83
343.826	41.47
344.038	-32.26
344.25	53.76
344.462	45.57
344.674	31.23
344.886	-42.5
345.099	47.62
345.311	-1.54
345.523	4.61
345.735	-1.54
345.947	53.76
346.159	16.9
346.371	14.85
346.583	-56.83
346.795	154.11
347.007	-13.82
347.219	86.53
347.431	-34.3
347.643	68.09
347.855	-5.63
348.067	92.67
348.279	-73.21
348.491	31.23
348.703	104.96
348.915	-11.78
349.127	8.7
349.339	-26.11
349.551	10.75
349.763	14.85
349.975	-5.63
350.187	64
350.399	51.71
350.61	53.76
350.822	25.09
351.034	86.53
351.246	76.29
351.458	53.76
351.669	45.57
351.881	68.09
352.093	121.34
352.305	37.38
352.517	47.62
352.728	51.71
352.94	70.14
353.152	29.18
353.363	-54.78
353.575	90.62
353.787	141.82
353.999	39.42
354.21	96.77
354.422	16.9
354.633	49.66
354.845	-11.78
355.057	74.24
355.268	-1.54
355.48	76.29
355.692	-36.35
355.903	94.72
356.115	78.33
356.326	-28.16
356.538	82.43
356.749	16.9
356.961	186.88
357.172	72.19
357.384	-40.45
357.595	195.07
357.807	35.33
358.018	2.56
358.23	96.77
358.441	127.49
358.653	6.66
358.864	53.76
359.075	-3.58
359.287	55.81
359.498	6.66
359.709	-26.11
359.921	35.33
360.132	-60.93
360.344	20.99
360.555	16.9
360.766	80.38
360.977	96.77
361.189	88.57
361.4	139.77
361.611	-3.58
361.823	127.49
362.034	37.38
362.245	-79.36
362.456	109.05
362.667	37.38
362.879	88.57
363.09	-36.35
363.301	109.05
363.512	49.66
363.723	53.76
363.935	88.57
364.146	72.19
364.357	61.95
364.568	68.09
364.779	16.9
364.99	92.67
365.201	27.14
365.412	170.49
365.623	2.56
365.834	47.62
366.045	29.18
366.256	88.57
366.467	74.24
366.678	0.51
366.889	80.38
367.1	-5.63
367.311	78.33
367.522	47.62
367.733	80.38
367.944	57.86
368.155	6.66
368.366	35.33
368.577	61.95
368.788	119.29
368.999	-58.88
369.209	6.66
369.42	117.25
369.631	125.44
369.842	31.23
370.053	129.53
370.264	113.15
370.474	-26.11
370.685	33.28
370.896	41.47
371.107	64
371.317	27.14
371.528	68.09
371.739	64
371.95	53.76
372.16	86.53
372.371	4.61
372.582	16.9
372.792	37.38
373.003	90.62
373.214	14.85
373.424	33.28
373.635	4.61
373.846	80.38
374.056	37.38
374.267	37.38
374.477	33.28
374.688	-7.68
374.898	31.23
375.109	72.19
375.319	23.04
375.53	113.15
375.74	41.47
375.951	-15.87
376.161	20.99
376.372	76.29
376.582	27.14
376.793	129.53
377.003	31.23
377.214	-38.4
377.424	188.93
377.635	53.76
377.845	86.53
378.055	104.96
378.266	-5.63
378.476	115.2
378.686	6.66
378.897	-5.63
379.107	31.23
379.317	8.7
379.528	-93.69
379.738	88.57
379.948	-56.83
380.158	80.38
380.369	0.51
380.579	127.49
380.789	39.42
380.999	61.95
381.21	121.34
381.42	121.34
381.63	49.66
381.84	107.01
382.05	47.62
382.261	92.67
382.471	94.72
382.681	31.23
382.891	55.81
383.101	115.2
383.311	-58.88
383.521	-22.02
383.731	72.19
383.941	64
384.151	16.9
384.361	102.91
384.571	109.05
384.781	61.95
384.991	104.96
385.201	119.29
385.411	102.91
385.621	102.91
385.831	14.85
386.041	84.48
386.251	25.09
386.461	84.48
386.671	-1.54
386.881	152.06
387.091	53.76
387.301	100.86
387.511	10.75
387.72	107.01
387.93	143.87
388.14	-50.69
388.35	72.19
388.56	-42.5
388.769	141.82
388.979	57.86
389.189	8.7
389.399	94.72
389.609	49.66
389.818	27.14
390.028	64
390.238	25.09
390.447	12.8
390.657	104.96
390.867	37.38
391.076	68.09
391.286	16.9
391.496	98.81
391.705	47.62
391.915	172.54
392.125	98.81
392.334	84.48
392.544	127.49
392.753	57.86
392.963	12.8
393.172	29.18
393.382	66.05
393.591	100.86
393.801	72.19
394.01	201.21
394.22	57.86
394.429	76.29
394.639	51.71
394.848	88.57
395.058	12.8
395.267	145.92
395.477	49.66
395.686	96.77
395.895	156.16
396.105	195.07
396.314	20.99
396.524	74.24
396.733	41.47
396.942	84.48
397.152	131.58
397.361	186.88
397.57	76.29
397.78	119.29
397.989	76.29
398.198	213.5
398.407	78.33
398.617	135.68
398.826	156.16
399.035	96.77
399.244	117.25
399.453	14.85
399.663	96.77
399.872	141.82
400.081	33.28
400.29	180.73
400.499	27.14
400.708	180.73
400.917	80.38
401.127	104.96
401.336	12.8
401.545	221.69
401.754	154.11
401.963	211.45
402.172	107.01
402.381	109.05
402.59	115.2
402.799	94.72
403.008	143.87
403.217	55.81
403.426	135.68
403.635	90.62
403.844	86.53
404.053	117.25
404.262	39.42
404.471	186.88
404.68	131.58
404.888	141.82
405.097	137.73
405.306	152.06
405.515	203.26
405.724	127.49
405.933	229.88
406.142	145.92
406.35	227.84
406.559	168.45
406.768	193.02
406.977	225.79
407.185	258.56
407.394	233.98
407.603	174.59
407.812	262.65
408.02	276.99
408.229	182.78
408.438	281.08
408.646	217.6
408.855	207.36
409.064	250.36
409.272	356.86
409.481	258.56
409.69	313.85
409.898	252.41
410.107	287.23
410.315	317.95
410.524	295.42
410.733	303.61
410.941	367.1
411.15	397.82
411.358	371.19
411.567	434.68
411.775	391.67
411.984	428.54
412.192	461.3
412.401	358.91
412.609	530.94
412.818	516.6
413.026	522.74
413.234	469.5
413.443	532.98
413.651	535.03
413.86	526.84
414.068	641.53
414.276	668.15
414.485	604.66
414.693	715.25
414.901	694.77
415.11	610.81
415.318	745.97
415.526	748.02
415.734	797.17
415.943	838.13
416.151	778.74
416.359	799.22
416.567	788.98
416.776	979.44
416.984	946.67
417.192	1110.51
417.4	911.86
417.608	901.62
417.817	946.67
418.025	1133.04
418.233	1141.23
418.441	1032.69
418.649	1208.81
418.857	1354.22
419.065	1270.25
419.273	1333.74
419.481	1419.75
419.689	1427.95
419.897	1489.39
420.105	1520.1
420.313	1528.3
420.521	1694.18
420.729	1739.24
420.937	1690.09
421.145	1675.75
421.353	1843.68
421.561	1968.61
421.769	1931.75
421.977	2068.96
422.185	1997.28
422.393	2183.65
422.601	2253.28
422.809	2267.61
423.017	2316.76
423.224	2529.75
423.432	2431.45
423.64	2476.51
423.848	2712.02
424.056	2646.49
424.263	2890.2
424.471	2777.56
424.679	2892.24
424.887	3023.31
425.094	3375.56
425.302	3273.17
425.51	3244.49
425.718	3396.04
425.925	3441.1
426.133	3523.02
426.341	3811.78
426.548	3910.08
426.756	3938.76
426.964	3979.72
427.171	4282.81
427.379	4317.63
427.586	4424.12
427.794	4481.47
428.001	4641.21
428.209	4848.05
428.417	4909.49
428.624	5249.46
428.832	5407.15
429.039	5198.26
429.247	5239.22
429.454	5722.54
429.662	5994.92
429.869	5605.8
430.076	6191.52
430.284	5974.44
430.491	6298.02
430.699	6496.67
430.906	6603.16
431.114	6855.06
431.321	6914.45
431.528	7043.48
431.736	7477.65
431.943	7868.81
432.15	7590.28
432.358	7707.02
432.565	8073.6
432.772	7969.16
432.979	8425.86
433.187	8493.44
433.394	8745.34
433.601	9296.24
433.808	9204.08
434.016	9189.75
434.223	9632.11
434.43	10201.44
434.637	9890.15
434.844	10803.55
435.052	10805.6
435.259	10787.16
435.466	10985.82
435.673	10731.87
435.88	11522.38
436.087	11848.01
436.294	12073.29
436.501	11956.55
436.708	12187.97
436.915	12327.24
437.122	13027.64
437.329	13023.55
437.537	13240.63
437.743	13404.47
437.95	13472.05
438.157	14203.18
438.364	14747.93
438.571	14725.41
438.778	14838.05
438.985	16136.46
439.192	15343.89
439.399	16177.42
439.606	15573.27
439.813	16494.85
440.02	17680.63
440.227	17150.2
440.433	17338.62
440.64	17520.88
440.847	17600.76
441.054	18194.67
441.261	19355.86
441.467	19036.38
441.674	19226.84
441.881	20111.57
442.088	19894.48
442.294	20019.41
442.501	20613.32
442.708	20852.93
442.914	21584.05
443.121	22567.08
443.328	22005.94
443.534	23808.15
443.741	22898.85
443.948	22761.64
444.154	24416.4
444.361	24113.3
444.568	24088.72
444.774	24051.86
444.981	24793.22
445.187	25280.64
445.394	26226.8
445.6	25829.49
445.807	28436.56
446.013	27326.56
446.22	27899.99
446.426	29024.33
446.633	29145.16
446.839	30042.17
447.046	28833.86
447.252	30695.47
447.459	30298.16
447.665	30244.91
447.871	32202.77
448.078	33077.26
448.284	31576.09
448.491	32397.33
448.697	33906.68
448.903	34125.82
449.11	34185.21
449.316	34129.91
449.522	34912.24
449.728	35651.55
449.935	35860.44
450.141	35858.4
450.347	36372.44
450.553	35430.37
450.76	35913.69
450.966	37404.61
451.172	36792.27
451.378	37787.58
451.584	37232.58
451.791	38088.63
451.997	37937.09
452.203	38428.6
452.409	38506.42
452.615	38236.09
452.821	36976.59
453.027	36233.18
453.233	38449.08
453.44	36960.2
453.646	37365.7
453.852	37670.85
454.058	38199.23
454.264	37081.03
454.47	37994.43
454.676	36939.72
454.882	38014.91
455.088	35133.42
455.294	35299.3
455.5	36272.09
455.705	36306.9
455.911	34834.41
456.117	34062.33
456.323	33673.21
456.529	32063.51
456.735	33468.42
456.941	32952.33
457.147	32055.32
457.352	31270.95
457.558	30763.05
457.764	31164.45
457.97	30568.49
458.176	29923.38
458.381	29921.34
458.587	28295.25
458.793	28340.3
458.999	26962.02
459.204	28606.54
459.41	27889.75
459.616	26431.6
459.821	25950.32
460.027	25923.7
460.233	25319.55
460.438	24297.61
460.644	24635.53
460.85	23062.69
461.055	22935.71
461.261	23267.48
461.466	20973.76
461.672	20420.81
461.878	22182.06
462.083	20498.63
462.289	20293.83
462.494	19980.5
462.7	19120.35
462.905	18669.8
463.111	19345.62
463.316	19380.44
463.522	18649.32
463.727	19011.81
463.932	18952.41
464.138	18927.84
464.343	18845.92
464.549	18284.78
464.754	18911.46
464.959	18737.38
465.165	18632.93
465.37	17981.68
465.575	17314.04
465.781	18108.65
465.986	18104.56
466.191	17574.13
466.397	16834.82
466.602	16400.65
466.807	17148.15
