Data from USB4F104151__11__12-11-30-511.txt Node

Date: Fri Mar 14 12:11:30 EDT 2025
User: louis
Spectrometer: USB4F10415
Trigger mode: 4
Integration Time (sec): 5.000000E-2
Scans to average: 1
Electric dark correction enabled: true
Nonlinearity correction enabled: false
Boxcar width: 0
XAxis mode: Wavelengths
Number of Pixels in Spectrum: 3648
>>>>>Begin Spectral Data<<<<<
178.204	-147.45
178.424	-147.45
178.644	-147.45
178.864	-235.52
179.084	-266.24
179.304	-34.82
179.524	6.14
179.744	51.2
179.964	8.19
180.184	20.48
180.404	40.96
180.624	-8.19
180.844	-45.06
181.064	-96.25
181.283	14.34
181.503	18.43
181.723	24.58
181.943	-6.14
182.163	49.15
182.383	20.48
182.602	73.73
182.822	77.82
183.042	32.77
183.262	-16.38
183.482	-12.29
183.701	-12.29
183.921	10.24
184.141	-8.19
184.361	18.43
184.58	24.58
184.8	18.43
185.02	24.58
185.239	30.72
185.459	16.38
185.679	59.39
185.898	-45.06
186.118	57.34
186.338	-6.14
186.557	61.44
186.777	-49.15
186.997	10.24
187.216	45.06
187.436	106.49
187.655	6.14
187.875	59.39
188.095	-22.53
188.314	65.53
188.534	57.34
188.753	-28.67
188.973	10.24
189.192	102.4
189.412	16.38
189.631	53.25
189.851	-43.01
190.07	155.65
190.29	-59.39
190.509	57.34
190.729	45.06
190.948	28.67
191.168	192.51
191.387	59.39
191.607	-22.53
191.826	100.35
192.045	18.43
192.265	71.68
192.484	-2.05
192.704	8.19
192.923	-43.01
193.142	79.87
193.362	30.72
193.581	43.01
193.8	16.38
194.02	90.11
194.239	26.62
194.458	2.05
194.678	4.1
194.897	18.43
195.116	-18.43
195.335	59.39
195.555	40.96
195.774	43.01
195.993	57.34
196.212	30.72
196.432	-12.29
196.651	43.01
196.87	-65.54
197.089	139.26
197.308	71.68
197.528	24.58
197.747	92.16
197.966	36.86
198.185	77.82
198.404	34.82
198.623	86.01
198.842	30.72
199.062	32.77
199.281	55.3
199.5	38.91
199.719	69.63
199.938	126.97
200.157	65.53
200.376	20.48
200.595	133.12
200.814	28.67
201.033	-18.43
201.252	65.53
201.471	-18.43
201.69	55.3
201.909	18.43
202.128	53.25
202.347	6.14
202.566	63.49
202.785	-61.44
203.004	-61.44
203.223	65.53
203.442	77.82
203.661	6.14
203.879	-24.58
204.098	65.53
204.317	-24.58
204.536	-8.19
204.755	36.86
204.974	32.77
205.193	36.86
205.411	147.45
205.63	6.14
205.849	71.68
206.068	18.43
206.287	61.44
206.505	118.78
206.724	81.92
206.943	-32.77
207.162	57.34
207.381	-24.58
207.599	-2.05
207.818	49.15
208.037	69.63
208.255	63.49
208.474	43.01
208.693	108.54
208.911	59.39
209.13	90.11
209.349	122.88
209.567	88.06
209.786	88.06
210.005	-6.14
210.223	90.11
210.442	-81.92
210.661	-30.72
210.879	75.77
211.098	51.2
211.316	49.15
211.535	151.55
211.753	65.53
211.972	47.1
212.191	-26.62
212.409	-8.19
212.628	116.73
212.846	-38.91
213.065	90.11
213.283	77.82
213.502	14.34
213.72	51.2
213.938	14.34
214.157	-55.3
214.375	57.34
214.594	6.14
214.812	53.25
215.031	92.16
215.249	-20.48
215.467	51.2
215.686	67.58
215.904	94.21
216.122	8.19
216.341	75.77
216.559	32.77
216.778	69.63
216.996	96.25
217.214	14.34
217.432	22.53
217.651	4.1
217.869	18.43
218.087	43.01
218.306	38.91
218.524	45.06
218.742	-18.43
218.96	10.24
219.179	-2.05
219.397	61.44
219.615	169.98
219.833	10.24
220.051	20.48
220.27	63.49
220.488	16.38
220.706	-8.19
220.924	-4.1
221.142	0
221.36	51.2
221.578	43.01
221.796	47.1
222.015	53.25
222.233	-32.77
222.451	73.73
222.669	69.63
222.887	43.01
223.105	79.87
223.323	67.58
223.541	0
223.759	51.2
223.977	14.34
224.195	131.07
224.413	53.25
224.631	51.2
224.849	36.86
225.067	122.88
225.285	16.38
225.503	-24.58
225.721	0
225.939	63.49
226.157	40.96
226.375	135.17
226.592	26.62
226.81	20.48
227.028	83.97
227.246	104.45
227.464	38.91
227.682	-24.58
227.9	57.34
228.117	71.68
228.335	-34.82
228.553	-55.3
228.771	49.15
228.989	53.25
229.206	-12.29
229.424	4.1
229.642	49.15
229.86	-14.34
230.077	69.63
230.295	38.91
230.513	20.48
230.731	59.39
230.948	112.64
231.166	73.73
231.384	10.24
231.601	36.86
231.819	135.17
232.037	-63.49
232.254	0
232.472	8.19
232.689	0
232.907	122.88
233.125	8.19
233.342	43.01
233.56	4.1
233.777	-6.14
233.995	32.77
234.213	92.16
234.43	20.48
234.648	45.06
234.865	34.82
235.083	0
235.3	-51.2
235.518	49.15
235.735	55.3
235.953	118.78
236.17	40.96
236.388	6.14
236.605	36.86
236.822	86.01
237.04	30.72
237.257	4.1
237.475	-2.05
237.692	-4.1
237.909	49.15
238.127	-8.19
238.344	-12.29
238.562	2.05
238.779	-34.82
238.996	-57.34
239.214	30.72
239.431	65.53
239.648	67.58
239.865	38.91
240.083	-10.24
240.3	-18.43
240.517	57.34
240.735	51.2
240.952	90.11
241.169	53.25
241.386	-59.39
241.603	49.15
241.821	8.19
242.038	51.2
242.255	67.58
242.472	0
242.689	43.01
242.907	81.92
243.124	45.06
243.341	-8.19
243.558	40.96
243.775	30.72
243.992	-73.73
244.209	114.69
244.426	137.21
244.643	10.24
244.86	34.82
245.078	61.44
245.295	77.82
245.512	36.86
245.729	-12.29
245.946	49.15
246.163	28.67
246.38	-61.44
246.597	-49.15
246.814	94.21
247.031	81.92
247.248	20.48
247.464	-12.29
247.681	36.86
247.898	-24.58
248.115	38.91
248.332	-18.43
248.549	92.16
248.766	94.21
248.983	59.39
249.2	36.86
249.417	0
249.633	-14.34
249.85	53.25
250.067	8.19
250.284	32.77
250.501	65.53
250.717	71.68
250.934	10.24
251.151	16.38
251.368	73.73
251.585	63.49
251.801	51.2
252.018	26.62
252.235	143.36
252.451	61.44
252.668	-2.05
252.885	67.58
253.102	36.86
253.318	83.97
253.535	28.67
253.752	59.39
253.968	-47.1
254.185	-26.62
254.401	30.72
254.618	-8.19
254.835	12.29
255.051	159.74
255.268	26.62
255.484	-18.43
255.701	28.67
255.917	174.08
256.134	51.2
256.351	0
256.567	-53.25
256.784	83.97
257	-40.96
257.217	6.14
257.433	8.19
257.65	67.58
257.866	49.15
258.082	22.53
258.299	12.29
258.515	-16.38
258.732	-92.16
258.948	59.39
259.165	59.39
259.381	-47.1
259.597	-36.86
259.814	-14.34
260.03	63.49
260.246	90.11
260.463	83.97
260.679	34.82
260.895	-8.19
261.112	92.16
261.328	-32.77
261.544	22.53
261.761	165.89
261.977	45.06
262.193	-32.77
262.409	34.82
262.626	45.06
262.842	6.14
263.058	10.24
263.274	106.49
263.49	49.15
263.707	63.49
263.923	59.39
264.139	-32.77
264.355	-34.82
264.571	98.3
264.787	-4.1
265.004	135.17
265.22	0
265.436	-53.25
265.652	-12.29
265.868	69.63
266.084	-110.59
266.3	-63.49
266.516	-18.43
266.732	57.34
266.948	26.62
267.164	59.39
267.38	-26.62
267.596	24.58
267.812	161.79
268.028	-2.05
268.244	-30.72
268.46	65.53
268.676	26.62
268.892	53.25
269.108	-30.72
269.324	-20.48
269.54	28.67
269.756	77.82
269.972	0
270.188	43.01
270.403	-51.2
270.619	20.48
270.835	38.91
271.051	51.2
271.267	36.86
271.483	10.24
271.698	26.62
271.914	-36.86
272.13	108.54
272.346	4.1
272.562	16.38
272.777	96.25
272.993	59.39
273.209	55.3
273.425	63.49
273.64	-6.14
273.856	6.14
274.072	30.72
274.287	-22.53
274.503	32.77
274.719	20.48
274.934	0
275.15	-30.72
275.366	-6.14
275.581	10.24
275.797	0
276.012	4.1
276.228	-38.91
276.444	18.43
276.659	124.93
276.875	10.24
277.09	18.43
277.306	-8.19
277.521	38.91
277.737	83.97
277.952	-45.06
278.168	73.73
278.383	49.15
278.599	-2.05
278.814	43.01
279.03	-32.77
279.245	73.73
279.461	14.34
279.676	51.2
279.892	12.29
280.107	-30.72
280.322	-16.38
280.538	-14.34
280.753	-18.43
280.969	0
281.184	14.34
281.399	155.65
281.615	65.53
281.83	36.86
282.045	14.34
282.26	30.72
282.476	92.16
282.691	-8.19
282.906	75.77
283.122	-63.49
283.337	18.43
283.552	10.24
283.767	-47.1
283.983	51.2
284.198	63.49
284.413	-6.14
284.628	-30.72
284.843	12.29
285.058	77.82
285.274	49.15
285.489	-4.1
285.704	100.35
285.919	16.38
286.134	-14.34
286.349	-53.25
286.564	-4.1
286.779	176.13
286.995	-18.43
287.21	59.39
287.425	47.1
287.64	32.77
287.855	16.38
288.07	-24.58
288.285	118.78
288.5	65.53
288.715	51.2
288.93	43.01
289.145	-63.49
289.36	22.53
289.575	-45.06
289.79	22.53
290.004	83.97
290.219	57.34
290.434	-53.25
290.649	2.05
290.864	-4.1
291.079	16.38
291.294	36.86
291.509	63.49
291.724	0
291.938	65.53
292.153	18.43
292.368	12.29
292.583	18.43
292.798	49.15
293.012	-8.19
293.227	59.39
293.442	22.53
293.657	49.15
293.871	83.97
294.086	0
294.301	122.88
294.516	28.67
294.73	36.86
294.945	47.1
295.16	49.15
295.374	120.83
295.589	61.44
295.804	-12.29
296.018	-6.14
296.233	141.31
296.447	73.73
296.662	4.1
296.877	88.06
297.091	69.63
297.306	79.87
297.52	-49.15
297.735	8.19
297.949	116.73
298.164	-12.29
298.378	-4.1
298.593	-16.38
298.807	8.19
299.022	-18.43
299.236	81.92
299.451	20.48
299.665	86.01
299.88	-4.1
300.094	-6.14
300.309	57.34
300.523	47.1
300.737	36.86
300.952	75.77
301.166	67.58
301.381	100.35
301.595	75.77
301.809	30.72
302.024	28.67
302.238	30.72
302.452	47.1
302.667	40.96
302.881	30.72
303.095	-6.14
303.309	18.43
303.524	-14.34
303.738	2.05
303.952	-16.38
304.166	47.1
304.381	-73.73
304.595	43.01
304.809	-28.67
305.023	32.77
305.237	-18.43
305.452	32.77
305.666	79.87
305.88	45.06
306.094	36.86
306.308	174.08
306.522	96.25
306.736	22.53
306.95	126.97
307.164	-10.24
307.379	20.48
307.593	106.49
307.807	114.69
308.021	12.29
308.235	73.73
308.449	65.53
308.663	-53.25
308.877	110.59
309.091	77.82
309.305	83.97
309.519	4.1
309.733	73.73
309.947	-2.05
310.161	79.87
310.374	20.48
310.588	24.58
310.802	24.58
311.016	-36.86
311.23	-47.1
311.444	-14.34
311.658	-22.53
311.872	40.96
312.085	108.54
312.299	67.58
312.513	75.77
312.727	36.86
312.941	20.48
313.154	34.82
313.368	73.73
313.582	81.92
313.796	110.59
314.009	24.58
314.223	75.77
314.437	38.91
314.651	-20.48
314.864	28.67
315.078	22.53
315.292	-14.34
315.505	49.15
315.719	75.77
315.933	22.53
316.146	-18.43
316.36	-67.58
316.573	34.82
316.787	55.3
317.001	18.43
317.214	-47.1
317.428	59.39
317.641	-36.86
317.855	51.2
318.068	14.34
318.282	57.34
318.495	77.82
318.709	83.97
318.922	-12.29
319.136	28.67
319.349	32.77
319.563	-14.34
319.776	129.02
319.99	34.82
320.203	88.06
320.417	-24.58
320.63	67.58
320.843	100.35
321.057	43.01
321.27	59.39
321.483	75.77
321.697	100.35
321.91	32.77
322.124	63.49
322.337	83.97
322.55	67.58
322.763	-16.38
322.977	0
323.19	30.72
323.403	38.91
323.617	40.96
323.83	51.2
324.043	81.92
324.256	69.63
324.469	59.39
324.683	67.58
324.896	-71.68
325.109	100.35
325.322	-83.97
325.535	79.87
325.748	94.21
325.962	2.05
326.175	8.19
326.388	102.4
326.601	47.1
326.814	8.19
327.027	92.16
327.24	57.34
327.453	-59.39
327.666	98.3
327.879	36.86
328.092	30.72
328.305	59.39
328.518	0
328.731	-4.1
328.944	-26.62
329.157	57.34
329.37	28.67
329.583	112.64
329.796	49.15
330.009	-32.77
330.222	65.53
330.435	69.63
330.648	-10.24
330.861	61.44
331.073	2.05
331.286	8.19
331.499	43.01
331.712	-6.14
331.925	63.49
332.138	-10.24
332.35	83.97
332.563	10.24
332.776	94.21
332.989	-59.39
333.202	26.62
333.414	45.06
333.627	18.43
333.84	-24.58
334.053	18.43
334.265	6.14
334.478	20.48
334.691	22.53
334.903	36.86
335.116	-43.01
335.329	26.62
335.541	2.05
335.754	94.21
335.966	-26.62
336.179	18.43
336.392	43.01
336.604	4.1
336.817	63.49
337.029	45.06
337.242	75.77
337.454	12.29
337.667	59.39
337.88	120.83
338.092	30.72
338.305	-40.96
338.517	57.34
338.729	98.3
338.942	40.96
339.154	6.14
339.367	14.34
339.579	51.2
339.792	-26.62
340.004	36.86
340.217	-34.82
340.429	16.38
340.641	26.62
340.854	-45.06
341.066	-32.77
341.278	38.91
341.491	98.3
341.703	6.14
341.915	-55.3
342.128	145.41
342.34	43.01
342.552	28.67
342.764	34.82
342.977	18.43
343.189	40.96
343.401	16.38
343.613	-61.44
343.826	14.34
344.038	-10.24
344.25	79.87
344.462	67.58
344.674	65.53
344.886	61.44
345.099	45.06
345.311	38.91
345.523	40.96
345.735	18.43
345.947	88.06
346.159	108.54
346.371	69.63
346.583	-16.38
346.795	131.07
347.007	-32.77
347.219	-2.05
347.431	49.15
347.643	51.2
347.855	-14.34
348.067	108.54
348.279	-102.4
348.491	63.49
348.703	16.38
348.915	51.2
349.127	6.14
349.339	2.05
349.551	32.77
349.763	102.4
349.975	10.24
350.187	51.2
350.399	57.34
350.61	2.05
350.822	61.44
351.034	51.2
351.246	71.68
351.458	124.93
351.669	81.92
351.881	53.25
352.093	135.17
352.305	63.49
352.517	-8.19
352.728	139.26
352.94	-20.48
353.152	59.39
353.363	-75.77
353.575	34.82
353.787	65.53
353.999	32.77
354.21	30.72
354.422	-18.43
354.633	43.01
354.845	-30.72
355.057	-51.2
355.268	4.1
355.48	67.58
355.692	-6.14
355.903	67.58
356.115	-2.05
356.326	-88.06
356.538	88.06
356.749	49.15
356.961	141.31
357.172	14.34
357.384	-92.16
357.595	63.49
357.807	4.1
358.018	4.1
358.23	-16.38
358.441	77.82
358.653	73.73
358.864	20.48
359.075	4.1
359.287	14.34
359.498	116.73
359.709	104.45
359.921	43.01
360.132	75.77
360.344	-18.43
360.555	36.86
360.766	67.58
360.977	6.14
361.189	63.49
361.4	20.48
361.611	104.45
361.823	40.96
362.034	98.3
362.245	-14.34
362.456	53.25
362.667	16.38
362.879	-26.62
363.09	110.59
363.301	73.73
363.512	24.58
363.723	86.01
363.935	-24.58
364.146	63.49
364.357	-36.86
364.568	47.1
364.779	-24.58
364.99	53.25
365.201	24.58
365.412	86.01
365.623	-4.1
365.834	106.49
366.045	0
366.256	98.3
366.467	34.82
366.678	-22.53
366.889	32.77
367.1	20.48
367.311	88.06
367.522	0
367.733	47.1
367.944	40.96
368.155	51.2
368.366	18.43
368.577	98.3
368.788	63.49
368.999	2.05
369.209	90.11
369.42	102.4
369.631	100.35
369.842	79.87
370.053	90.11
370.264	94.21
370.474	32.77
370.685	75.77
370.896	38.91
371.107	88.06
371.317	98.3
371.528	-36.86
371.739	73.73
371.95	79.87
372.16	133.12
372.371	-55.3
372.582	65.53
372.792	55.3
373.003	14.34
373.214	-16.38
373.424	129.02
373.635	-116.73
373.846	106.49
374.056	90.11
374.267	40.96
374.477	61.44
374.688	8.19
374.898	86.01
375.109	40.96
375.319	51.2
375.53	-16.38
375.74	57.34
375.951	20.48
376.161	51.2
376.372	65.53
376.582	79.87
376.793	67.58
377.003	10.24
377.214	-16.38
377.424	8.19
377.635	26.62
377.845	32.77
378.055	143.36
378.266	14.34
378.476	51.2
378.686	112.64
378.897	38.91
379.107	40.96
379.317	104.45
379.528	0
379.738	92.16
379.948	-28.67
380.158	55.3
380.369	71.68
380.579	69.63
380.789	106.49
380.999	8.19
381.21	57.34
381.42	145.41
381.63	18.43
381.84	26.62
382.05	14.34
382.261	18.43
382.471	51.2
382.681	16.38
382.891	102.4
383.101	100.35
383.311	-22.53
383.521	-51.2
383.731	14.34
383.941	114.69
384.151	0
384.361	61.44
384.571	10.24
384.781	129.02
384.991	126.97
385.201	217.08
385.411	28.67
385.621	8.19
385.831	67.58
386.041	51.2
386.251	28.67
386.461	77.82
386.671	47.1
386.881	59.39
387.091	40.96
387.301	83.97
387.511	51.2
387.72	59.39
387.93	90.11
388.14	18.43
388.35	61.44
388.56	92.16
388.769	55.3
388.979	4.1
389.189	-10.24
389.399	2.05
389.609	28.67
389.818	94.21
390.028	-20.48
390.238	18.43
390.447	32.77
390.657	98.3
390.867	-24.58
391.076	-6.14
391.286	139.26
391.496	22.53
391.705	65.53
391.915	57.34
392.125	73.73
392.334	73.73
392.544	75.77
392.753	4.1
392.963	40.96
393.172	92.16
393.382	73.73
393.591	167.93
393.801	-8.19
394.01	149.5
394.22	96.25
394.429	-4.1
394.639	51.2
394.848	88.06
395.058	-57.34
395.267	90.11
395.477	51.2
395.686	118.78
395.895	145.41
396.105	126.97
396.314	96.25
396.524	106.49
396.733	88.06
396.942	165.89
397.152	75.77
397.361	131.07
397.57	79.87
397.78	10.24
397.989	118.78
398.198	200.7
398.407	45.06
398.617	149.5
398.826	77.82
399.035	167.93
399.244	73.73
399.453	51.2
399.663	40.96
399.872	112.64
400.081	94.21
400.29	137.21
400.499	88.06
400.708	172.03
400.917	47.1
401.127	24.58
401.336	36.86
401.545	186.37
401.754	141.31
401.963	57.34
402.172	34.82
402.381	59.39
402.59	86.01
402.799	163.84
403.008	118.78
403.217	30.72
403.426	147.45
403.635	49.15
403.844	81.92
404.053	4.1
404.262	67.58
404.471	147.45
404.68	135.17
404.888	75.77
405.097	112.64
405.306	102.4
405.515	122.88
405.724	94.21
405.933	112.64
406.142	182.27
406.35	176.13
406.559	83.97
406.768	137.21
406.977	165.89
407.185	124.93
407.394	110.59
407.603	77.82
407.812	159.74
408.02	227.32
408.229	81.92
408.438	229.37
408.646	49.15
408.855	147.45
409.064	184.32
409.272	143.36
409.481	129.02
409.69	219.13
409.898	96.25
410.107	303.1
410.315	282.62
410.524	225.28
410.733	296.96
410.941	229.37
411.15	292.86
411.358	294.91
411.567	339.96
411.775	335.87
411.984	286.72
412.192	305.15
412.401	303.1
412.609	358.39
412.818	413.69
413.026	389.11
413.234	284.67
413.443	370.68
413.651	364.54
413.86	346.11
414.068	466.94
414.276	501.75
414.485	350.2
414.693	604.15
414.901	548.86
415.11	403.45
415.318	444.41
415.526	577.53
415.734	559.1
415.943	540.66
416.151	602.1
416.359	530.42
416.567	589.81
416.776	612.34
416.984	681.97
417.192	665.59
417.4	620.53
417.608	641.01
417.817	638.97
418.025	747.51
418.233	772.08
418.441	704.5
418.649	673.78
418.857	800.76
419.065	917.49
419.273	749.56
419.481	819.19
419.689	880.63
419.897	913.39
420.105	962.55
420.313	1122.29
420.521	1042.42
420.729	1163.25
420.937	1114.1
421.145	1171.44
421.353	1257.45
421.561	1337.32
421.769	1320.94
421.977	1351.66
422.185	1423.34
422.393	1423.34
422.601	1609.7
422.809	1505.26
423.017	1611.75
423.224	1548.26
423.432	1583.08
423.64	1624.04
423.848	1759.21
424.056	1751.01
424.263	1925.09
424.471	1888.23
424.679	1884.13
424.887	1910.75
425.094	2068.45
425.302	2056.16
425.51	2166.75
425.718	2179.04
425.925	2275.29
426.133	2400.22
426.341	2469.85
426.548	2533.34
426.756	2543.58
426.964	2660.31
427.171	2754.52
427.379	2834.39
427.586	2883.54
427.794	2897.88
428.001	3016.66
428.209	3026.9
428.417	3151.82
428.624	3309.52
428.832	3325.9
429.039	3407.82
429.247	3397.58
429.454	3667.91
429.662	3893.19
429.869	3594.19
430.076	3940.29
430.284	3733.45
430.491	3991.49
430.699	4218.82
430.906	4048.83
431.114	4147.14
431.321	4235.2
431.528	4544.44
431.736	4636.6
431.943	4947.89
432.15	4679.61
432.358	4747.19
432.565	5017.52
432.772	4859.83
432.979	5502.89
433.187	5234.61
433.394	5398.45
433.601	5705.64
433.808	5863.33
434.016	5742.5
434.223	5941.16
434.43	6287.26
434.637	6023.08
434.844	6573.98
435.052	6696.86
435.259	6651.8
435.466	6508.44
435.673	6578.08
435.88	7116.69
436.087	7462.8
436.294	7409.55
436.501	7296.91
436.708	7329.68
436.915	7659.4
437.122	7993.22
437.329	7985.03
437.537	8236.93
437.743	8531.84
437.95	8324.99
438.157	8652.67
438.364	9168.76
438.571	9009.01
438.778	9013.11
438.985	9817.96
439.192	9686.89
439.399	9754.48
439.606	9750.38
439.813	9963.37
440.02	10790.75
440.227	10596.19
440.433	10342.24
440.64	10936.15
440.847	10684.25
441.054	11005.78
441.261	11708.24
441.467	11329.36
441.674	11710.29
441.881	12140.36
442.088	12123.98
442.294	12031.82
442.501	12363.59
442.708	12650.3
442.914	12826.43
443.121	13760.3
443.328	13154.1
443.534	13967.15
443.741	13774.64
443.948	13485.87
444.154	14659.36
444.361	14296.87
444.568	14497.57
444.774	14542.63
444.981	14649.12
445.187	15093.53
445.394	15845.13
445.6	15318.81
445.807	16908.03
446.013	16105.23
446.22	16279.3
446.426	17129.21
446.633	17372.92
446.839	17747.7
447.046	17004.28
447.252	18013.93
447.459	18046.7
447.665	17901.29
447.871	18712.29
448.078	19326.68
448.284	18626.28
448.491	19076.83
448.697	19922.64
448.903	20055.76
449.11	20268.75
449.316	19664.6
449.522	20408.01
449.728	21057.21
449.935	20872.9
450.141	20993.73
450.347	21239.48
450.553	20709.06
450.76	20889.28
450.966	21931.7
451.172	21386.94
451.378	21862.07
451.584	21458.62
451.791	22021.81
451.997	21851.83
452.203	22286
452.409	22146.73
452.615	22066.86
452.821	21358.27
453.027	20778.69
453.233	22005.42
453.44	21262.01
453.646	21577.4
453.852	21769.91
454.058	21855.92
454.264	21024.45
454.47	21608.12
454.676	21221.05
454.882	21757.62
455.088	20000.46
455.294	20317.9
455.5	20453.06
455.705	20719.3
455.911	19904.21
456.117	19336.92
456.323	19271.39
456.529	17829.62
456.735	18956
456.941	18425.57
457.147	17909.49
457.352	17532.66
457.558	17213.18
457.764	17395.45
457.97	16854.78
458.176	16586.5
458.381	16656.13
458.587	15656.72
458.793	15838.99
458.999	14843.68
459.204	16097.03
459.41	15755.02
459.616	14552.87
459.821	14700.32
460.027	14397.22
460.233	14059.31
460.438	13336.37
460.644	13551.41
460.85	12748.61
461.055	12666.69
461.261	12785.47
461.466	11984.71
461.672	11450.19
461.878	12093.26
462.083	11355.99
462.289	11036.5
462.494	10932.06
462.7	10424.16
462.905	10235.75
463.111	10641.25
463.316	10334.05
463.522	10407.78
463.727	10450.78
463.932	10188.64
464.138	10471.26
464.343	10329.95
464.549	9795.43
464.754	10315.62
464.959	10051.43
465.165	10088.29
465.37	9709.42
465.575	9486.19
465.781	9834.35
465.986	9781.1
466.191	9482.1
466.397	9473.9
466.602	8703.87
466.807	9181.04
467.012	9297.78
467.218	9068.41
467.423	8945.53
467.628	8978.3
467.833	9299.83
468.038	8984.44
468.244	9015.16
468.449	9168.76
468.654	8714.11
