Data from USB4F104151__90__12-13-04-650.txt Node

Date: Fri Mar 14 12:13:04 EDT 2025
User: louis
Spectrometer: USB4F10415
Trigger mode: 4
Integration Time (sec): 5.000000E-2
Scans to average: 1
Electric dark correction enabled: true
Nonlinearity correction enabled: false
Boxcar width: 0
XAxis mode: Wavelengths
Number of Pixels in Spectrum: 3648
>>>>>Begin Spectral Data<<<<<
178.204	-214.01
178.424	-214.01
178.644	-214.01
178.864	-138.24
179.084	-173.05
179.304	19.46
179.524	-62.46
179.744	56.32
179.964	41.98
180.184	48.13
180.404	-95.23
180.624	-39.94
180.844	33.79
181.064	-50.18
181.283	-50.18
181.503	9.22
181.723	89.09
181.943	-80.89
182.163	113.66
182.383	68.61
182.602	17.41
182.822	66.56
183.042	19.46
183.262	13.31
183.482	37.89
183.701	-15.36
183.921	60.42
184.141	78.85
184.361	41.98
184.58	-11.26
184.8	62.46
185.02	21.5
185.239	105.47
185.459	48.13
185.679	37.89
185.898	-15.36
186.118	52.22
186.338	95.23
186.557	35.84
186.777	58.37
186.997	29.7
187.216	-3.07
187.436	140.29
187.655	156.67
187.875	117.76
188.095	-13.31
188.314	31.74
188.534	119.81
188.753	66.56
188.973	109.57
189.192	91.13
189.412	56.32
189.631	27.65
189.851	74.75
190.07	132.09
190.29	-13.31
190.509	-25.6
190.729	37.89
190.948	37.89
191.168	148.48
191.387	128
191.607	76.8
191.826	27.65
192.045	17.41
192.265	41.98
192.484	70.65
192.704	9.22
192.923	11.26
193.142	177.15
193.362	70.65
193.581	113.66
193.8	60.42
194.02	117.76
194.239	74.75
194.458	80.89
194.678	9.22
194.897	37.89
195.116	60.42
195.335	64.51
195.555	91.13
195.774	58.37
195.993	58.37
196.212	115.71
196.432	11.26
196.651	-23.55
196.87	60.42
197.089	117.76
197.308	138.24
197.528	60.42
197.747	31.74
197.966	50.18
198.185	119.81
198.404	-11.26
198.623	82.94
198.842	84.99
199.062	130.05
199.281	93.18
199.5	27.65
199.719	33.79
199.938	97.28
200.157	84.99
200.376	76.8
200.595	132.09
200.814	56.32
201.033	19.46
201.252	91.13
201.471	48.13
201.69	148.48
201.909	70.65
202.128	142.33
202.347	72.7
202.566	-5.12
202.785	-11.26
203.004	27.65
203.223	195.58
203.442	70.65
203.661	56.32
203.879	58.37
204.098	27.65
204.317	17.41
204.536	148.48
204.755	80.89
204.974	82.94
205.193	146.43
205.411	146.43
205.63	56.32
205.849	-7.17
206.068	41.98
206.287	1.02
206.505	156.67
206.724	46.08
206.943	48.13
207.162	78.85
207.381	-11.26
207.599	7.17
207.818	111.61
208.037	-7.17
208.255	5.12
208.474	91.13
208.693	31.74
208.911	70.65
209.13	56.32
209.349	97.28
209.567	95.23
209.786	144.38
210.005	107.52
210.223	52.22
210.442	17.41
210.661	58.37
210.879	-13.31
211.098	50.18
211.316	72.7
211.535	21.5
211.753	46.08
211.972	93.18
212.191	-37.89
212.409	-15.36
212.628	68.61
212.846	46.08
213.065	50.18
213.283	99.33
213.502	46.08
213.72	31.74
213.938	68.61
214.157	56.32
214.375	68.61
214.594	33.79
214.812	-1.02
215.031	60.42
215.249	107.52
215.467	48.13
215.686	39.94
215.904	115.71
216.122	-27.65
216.341	87.04
216.559	13.31
216.778	123.9
216.996	136.19
217.214	84.99
217.432	29.7
217.651	27.65
217.869	-29.7
218.087	13.31
218.306	46.08
218.524	103.42
218.742	46.08
218.96	39.94
219.179	15.36
219.397	31.74
219.615	168.96
219.833	15.36
220.051	41.98
220.27	146.43
220.488	101.37
220.706	84.99
220.924	72.7
221.142	58.37
221.36	9.22
221.578	99.33
221.796	54.27
222.015	17.41
222.233	29.7
222.451	142.33
222.669	7.17
222.887	87.04
223.105	62.46
223.323	13.31
223.541	-82.94
223.759	95.23
223.977	23.55
224.195	148.48
224.413	84.99
224.631	121.85
224.849	19.46
225.067	168.96
225.285	130.05
225.503	50.18
225.721	-70.65
225.939	9.22
226.157	31.74
226.375	175.1
226.592	27.65
226.81	54.27
227.028	201.72
227.246	41.98
227.464	74.75
227.682	33.79
227.9	37.89
228.117	52.22
228.335	52.22
228.553	84.99
228.771	19.46
228.989	17.41
229.206	70.65
229.424	7.17
229.642	41.98
229.86	80.89
230.077	115.71
230.295	37.89
230.513	84.99
230.731	148.48
230.948	64.51
231.166	101.37
231.384	44.03
231.601	60.42
231.819	179.2
232.037	54.27
232.254	-13.31
232.472	64.51
232.689	9.22
232.907	152.57
233.125	-19.46
233.342	84.99
233.56	33.79
233.777	97.28
233.995	33.79
234.213	74.75
234.43	95.23
234.648	105.47
234.865	48.13
235.083	74.75
235.3	58.37
235.518	80.89
235.735	177.15
235.953	121.85
236.17	76.8
236.388	41.98
236.605	111.61
236.822	87.04
237.04	138.24
237.257	119.81
237.475	-11.26
237.692	-31.74
237.909	91.13
238.127	87.04
238.344	68.61
238.562	64.51
238.779	-9.22
238.996	-35.84
239.214	-7.17
239.431	103.42
239.648	11.26
239.865	119.81
240.083	64.51
240.3	52.22
240.517	39.94
240.735	113.66
240.952	62.46
241.169	105.47
241.386	29.7
241.603	27.65
241.821	-33.79
242.038	146.43
242.255	121.85
242.472	64.51
242.689	17.41
242.907	87.04
243.124	62.46
243.341	31.74
243.558	31.74
243.775	-66.56
243.992	50.18
244.209	35.84
244.426	97.28
244.643	23.55
244.86	33.79
245.078	78.85
245.295	80.89
245.512	33.79
245.729	31.74
245.946	123.9
246.163	93.18
246.38	89.09
246.597	-17.41
246.814	148.48
247.031	-35.84
247.248	50.18
247.464	76.8
247.681	68.61
247.898	50.18
248.115	56.32
248.332	93.18
248.549	111.61
248.766	78.85
248.983	132.09
249.2	33.79
249.417	82.94
249.633	-35.84
249.85	64.51
250.067	13.31
250.284	84.99
250.501	25.6
250.717	105.47
250.934	29.7
251.151	39.94
251.368	48.13
251.585	109.57
251.801	13.31
252.018	19.46
252.235	91.13
252.451	56.32
252.668	-21.5
252.885	89.09
253.102	19.46
253.318	27.65
253.535	13.31
253.752	-7.17
253.968	33.79
254.185	3.07
254.401	44.03
254.618	91.13
254.835	13.31
255.051	152.57
255.268	158.72
255.484	44.03
255.701	76.8
255.917	95.23
256.134	50.18
256.351	62.46
256.567	62.46
256.784	1.02
257	-58.37
257.217	76.8
257.433	66.56
257.65	29.7
257.866	121.85
258.082	-17.41
258.299	41.98
258.515	109.57
258.732	31.74
258.948	66.56
259.165	48.13
259.381	46.08
259.597	101.37
259.814	48.13
260.03	31.74
260.246	44.03
260.463	66.56
260.679	58.37
260.895	23.55
261.112	84.99
261.328	17.41
261.544	-64.51
261.761	222.2
261.977	-7.17
262.193	7.17
262.409	35.84
262.626	33.79
262.842	-37.89
263.058	-19.46
263.274	68.61
263.49	29.7
263.707	70.65
263.923	78.85
264.139	-27.65
264.355	87.04
264.571	113.66
264.787	134.14
265.004	177.15
265.22	123.9
265.436	-7.17
265.652	7.17
265.868	74.75
266.084	60.42
266.3	93.18
266.516	50.18
266.732	27.65
266.948	103.42
267.164	7.17
267.38	-5.12
267.596	41.98
267.812	146.43
268.028	17.41
268.244	-27.65
268.46	-1.02
268.676	60.42
268.892	56.32
269.108	91.13
269.324	-9.22
269.54	7.17
269.756	29.7
269.972	-1.02
270.188	-23.55
270.403	44.03
270.619	39.94
270.835	48.13
271.051	58.37
271.267	11.26
271.483	3.07
271.698	105.47
271.914	56.32
272.13	-25.6
272.346	44.03
272.562	-23.55
272.777	146.43
272.993	58.37
273.209	-7.17
273.425	84.99
273.64	7.17
273.856	252.92
274.072	41.98
274.287	11.26
274.503	66.56
274.719	91.13
274.934	66.56
275.15	-3.07
275.366	-17.41
275.581	-1.02
275.797	50.18
276.012	74.75
276.228	29.7
276.444	119.81
276.659	138.24
276.875	91.13
277.09	-9.22
277.306	56.32
277.521	62.46
277.737	46.08
277.952	17.41
278.168	39.94
278.383	58.37
278.599	25.6
278.814	64.51
279.03	125.95
279.245	220.16
279.461	-15.36
279.676	48.13
279.892	74.75
280.107	15.36
280.322	35.84
280.538	111.61
280.753	78.85
280.969	72.7
281.184	-21.5
281.399	91.13
281.615	74.75
281.83	78.85
282.045	56.32
282.26	44.03
282.476	35.84
282.691	54.27
282.906	54.27
283.122	41.98
283.337	17.41
283.552	50.18
283.767	23.55
283.983	-23.55
284.198	-19.46
284.413	52.22
284.628	9.22
284.843	68.61
285.058	91.13
285.274	41.98
285.489	-23.55
285.704	33.79
285.919	9.22
286.134	80.89
286.349	19.46
286.564	-9.22
286.779	117.76
286.995	25.6
287.21	-23.55
287.425	66.56
287.64	62.46
287.855	29.7
288.07	-5.12
288.285	80.89
288.5	72.7
288.715	50.18
288.93	-3.07
289.145	44.03
289.36	179.2
289.575	25.6
289.79	-1.02
290.004	54.27
290.219	84.99
290.434	27.65
290.649	27.65
290.864	21.5
291.079	171.01
291.294	82.94
291.509	39.94
291.724	25.6
291.938	121.85
292.153	64.51
292.368	3.07
292.583	48.13
292.798	101.37
293.012	109.57
293.227	113.66
293.442	117.76
293.657	5.12
293.871	64.51
294.086	3.07
294.301	148.48
294.516	109.57
294.73	39.94
294.945	29.7
295.16	-13.31
295.374	48.13
295.589	134.14
295.804	70.65
296.018	115.71
296.233	105.47
296.447	64.51
296.662	21.5
296.877	115.71
297.091	31.74
297.306	64.51
297.52	56.32
297.735	95.23
297.949	80.89
298.164	121.85
298.378	7.17
298.593	91.13
298.807	-13.31
299.022	80.89
299.236	101.37
299.451	9.22
299.665	5.12
299.88	62.46
300.094	103.42
300.309	56.32
300.523	74.75
300.737	46.08
300.952	50.18
301.166	44.03
301.381	62.46
301.595	25.6
301.809	56.32
302.024	97.28
302.238	52.22
302.452	52.22
302.667	48.13
302.881	91.13
303.095	58.37
303.309	9.22
303.524	70.65
303.738	19.46
303.952	58.37
304.166	68.61
304.381	27.65
304.595	142.33
304.809	-35.84
305.023	-19.46
305.237	1.02
305.452	87.04
305.666	15.36
305.88	52.22
306.094	99.33
306.308	158.72
306.522	44.03
306.736	99.33
306.95	160.77
307.164	13.31
307.379	-19.46
307.593	105.47
307.807	113.66
308.021	-13.31
308.235	41.98
308.449	41.98
308.663	13.31
308.877	185.34
309.091	64.51
309.305	84.99
309.519	-33.79
309.733	44.03
309.947	46.08
310.161	89.09
310.374	56.32
310.588	44.03
310.802	-1.02
311.016	27.65
311.23	91.13
311.444	113.66
311.658	72.7
311.872	128
312.085	156.67
312.299	41.98
312.513	136.19
312.727	89.09
312.941	-44.03
313.154	56.32
313.368	125.95
313.582	78.85
313.796	87.04
314.009	105.47
314.223	66.56
314.437	39.94
314.651	19.46
314.864	33.79
315.078	-27.65
315.292	31.74
315.505	-29.7
315.719	3.07
315.933	150.53
316.146	60.42
316.36	58.37
316.573	78.85
316.787	64.51
317.001	52.22
317.214	21.5
317.428	74.75
317.641	37.89
317.855	48.13
318.068	82.94
318.282	119.81
318.495	181.25
318.709	123.9
318.922	37.89
319.136	105.47
319.349	99.33
319.563	-27.65
319.776	76.8
319.99	-60.42
320.203	109.57
320.417	150.53
320.63	109.57
320.843	97.28
321.057	21.5
321.27	62.46
321.483	33.79
321.697	23.55
321.91	25.6
322.124	72.7
322.337	58.37
322.55	-117.76
322.763	62.46
322.977	78.85
323.19	11.26
323.403	50.18
323.617	87.04
323.83	62.46
324.043	-25.6
324.256	41.98
324.469	-11.26
324.683	123.9
324.896	50.18
325.109	37.89
325.322	58.37
325.535	89.09
325.748	95.23
325.962	15.36
326.175	39.94
326.388	115.71
326.601	54.27
326.814	9.22
327.027	21.5
327.24	156.67
327.453	-19.46
327.666	66.56
327.879	119.81
328.092	-21.5
328.305	87.04
328.518	-50.18
328.731	27.65
328.944	117.76
329.157	7.17
329.37	105.47
329.583	72.7
329.796	160.77
330.009	9.22
330.222	58.37
330.435	89.09
330.648	91.13
330.861	64.51
331.073	7.17
331.286	121.85
331.499	74.75
331.712	48.13
331.925	68.61
332.138	17.41
332.35	128
332.563	-66.56
332.776	158.72
332.989	17.41
333.202	37.89
333.414	58.37
333.627	70.65
333.84	37.89
334.053	39.94
334.265	62.46
334.478	29.7
334.691	111.61
334.903	78.85
335.116	-23.55
335.329	72.7
335.541	64.51
335.754	148.48
335.966	33.79
336.179	17.41
336.392	89.09
336.604	99.33
336.817	58.37
337.029	101.37
337.242	89.09
337.454	35.84
337.667	76.8
337.88	70.65
338.092	80.89
338.305	72.7
338.517	60.42
338.729	87.04
338.942	101.37
339.154	7.17
339.367	23.55
339.579	11.26
339.792	33.79
340.004	41.98
340.217	39.94
340.429	119.81
340.641	1.02
340.854	89.09
341.066	5.12
341.278	132.09
341.491	105.47
341.703	3.07
341.915	-11.26
342.128	89.09
342.34	50.18
342.552	21.5
342.764	31.74
342.977	33.79
343.189	13.31
343.401	95.23
343.613	19.46
343.826	74.75
344.038	-19.46
344.25	66.56
344.462	-25.6
344.674	123.9
344.886	-21.5
345.099	95.23
345.311	13.31
345.523	3.07
345.735	37.89
345.947	89.09
346.159	64.51
346.371	50.18
346.583	29.7
346.795	109.57
347.007	56.32
347.219	101.37
347.431	130.05
347.643	152.57
347.855	-1.02
348.067	76.8
348.279	62.46
348.491	78.85
348.703	-35.84
348.915	3.07
349.127	93.18
349.339	128
349.551	29.7
349.763	23.55
349.975	60.42
350.187	84.99
350.399	113.66
350.61	76.8
350.822	23.55
351.034	48.13
351.246	-41.98
351.458	19.46
351.669	27.65
351.881	62.46
352.093	115.71
352.305	152.57
352.517	101.37
352.728	70.65
352.94	117.76
353.152	70.65
353.363	35.84
353.575	152.57
353.787	107.52
353.999	17.41
354.21	89.09
354.422	35.84
354.633	66.56
354.845	80.89
355.057	44.03
355.268	39.94
355.48	117.76
355.692	44.03
355.903	80.89
356.115	19.46
356.326	19.46
356.538	164.86
356.749	89.09
356.961	162.81
357.172	76.8
357.384	1.02
357.595	220.16
357.807	80.89
358.018	-9.22
358.23	27.65
358.441	168.96
358.653	91.13
358.864	66.56
359.075	52.22
359.287	125.95
359.498	78.85
359.709	39.94
359.921	105.47
360.132	7.17
360.344	76.8
360.555	74.75
360.766	84.99
360.977	62.46
361.189	97.28
361.4	39.94
361.611	87.04
361.823	144.38
362.034	91.13
362.245	5.12
362.456	111.61
362.667	84.99
362.879	33.79
363.09	70.65
363.301	52.22
363.512	87.04
363.723	80.89
363.935	21.5
364.146	123.9
364.357	31.74
364.568	58.37
364.779	11.26
364.99	70.65
365.201	-31.74
365.412	60.42
365.623	-1.02
365.834	87.04
366.045	41.98
366.256	121.85
366.467	72.7
366.678	87.04
366.889	60.42
367.1	19.46
367.311	146.43
367.522	82.94
367.733	46.08
367.944	84.99
368.155	39.94
368.366	105.47
368.577	68.61
368.788	84.99
368.999	-17.41
369.209	46.08
369.42	177.15
369.631	234.49
369.842	31.74
370.053	70.65
370.264	115.71
370.474	23.55
370.685	111.61
370.896	46.08
371.107	78.85
371.317	179.2
371.528	-7.17
371.739	70.65
371.95	91.13
372.16	121.85
372.371	-21.5
372.582	70.65
372.792	70.65
373.003	93.18
373.214	21.5
373.424	74.75
373.635	56.32
373.846	93.18
374.056	70.65
374.267	76.8
374.477	39.94
374.688	74.75
374.898	72.7
375.109	3.07
375.319	91.13
375.53	82.94
375.74	97.28
375.951	60.42
376.161	111.61
376.372	101.37
376.582	27.65
376.793	91.13
377.003	105.47
377.214	41.98
377.424	111.61
377.635	154.62
377.845	70.65
378.055	80.89
378.266	23.55
378.476	82.94
378.686	132.09
378.897	123.9
379.107	66.56
379.317	56.32
379.528	64.51
379.738	99.33
379.948	80.89
380.158	78.85
380.369	54.27
380.579	58.37
380.789	89.09
380.999	84.99
381.21	113.66
381.42	119.81
381.63	105.47
381.84	68.61
382.05	105.47
382.261	60.42
382.471	60.42
382.681	87.04
382.891	70.65
383.101	142.33
383.311	3.07
383.521	60.42
383.731	62.46
383.941	160.77
384.151	19.46
384.361	56.32
384.571	101.37
384.781	115.71
384.991	134.14
385.201	162.81
385.411	76.8
385.621	89.09
385.831	117.76
386.041	87.04
386.251	82.94
386.461	121.85
386.671	50.18
386.881	123.9
387.091	41.98
387.301	111.61
387.511	25.6
387.72	107.52
387.93	123.9
388.14	25.6
388.35	50.18
388.56	121.85
388.769	91.13
388.979	82.94
389.189	41.98
389.399	56.32
389.609	56.32
389.818	205.82
390.028	44.03
390.238	109.57
390.447	74.75
390.657	72.7
390.867	25.6
391.076	74.75
391.286	138.24
391.496	39.94
391.705	148.48
391.915	150.53
392.125	99.33
392.334	160.77
392.544	121.85
392.753	62.46
392.963	-19.46
393.172	56.32
393.382	-3.07
393.591	222.2
393.801	101.37
394.01	248.83
394.22	134.14
394.429	31.74
394.639	150.53
394.848	117.76
395.058	138.24
395.267	46.08
395.477	160.77
395.686	136.19
395.895	154.62
396.105	203.77
396.314	132.09
396.524	121.85
396.733	84.99
396.942	205.82
397.152	99.33
397.361	211.96
397.57	91.13
397.78	111.61
397.989	146.43
398.198	175.1
398.407	91.13
398.617	173.05
398.826	60.42
399.035	125.95
399.244	152.57
399.453	101.37
399.663	99.33
399.872	154.62
400.081	35.84
400.29	140.29
400.499	89.09
400.708	166.91
400.917	105.47
401.127	64.51
401.336	44.03
401.545	179.2
401.754	205.82
401.963	125.95
402.172	111.61
402.381	148.48
402.59	109.57
402.799	164.86
403.008	193.53
403.217	128
403.426	117.76
403.635	115.71
403.844	121.85
404.053	197.63
404.262	201.72
404.471	222.2
404.68	177.15
404.888	91.13
405.097	78.85
405.306	130.05
405.515	203.77
405.724	138.24
405.933	207.87
406.142	203.77
406.35	343.03
406.559	162.81
406.768	226.3
406.977	328.7
407.185	293.88
407.394	271.36
407.603	117.76
407.812	254.97
408.02	300.03
408.229	199.68
408.438	257.02
408.646	283.64
408.855	234.49
409.064	267.26
409.272	226.3
409.481	318.46
409.69	240.64
409.898	271.36
410.107	297.98
410.315	394.23
410.524	242.68
410.733	369.66
410.941	271.36
411.15	431.1
411.358	383.99
411.567	424.95
411.775	396.28
411.984	467.96
412.192	508.92
412.401	465.91
412.609	517.11
412.818	586.74
413.026	529.4
413.234	564.22
413.443	506.87
413.651	566.26
413.86	570.36
414.068	715.77
414.276	717.81
414.485	660.47
414.693	721.91
414.901	687.09
415.11	730.1
415.318	697.33
415.526	678.9
415.734	812.02
415.943	769.01
416.151	889.84
416.359	781.3
416.567	855.03
416.776	930.8
416.984	945.14
417.192	953.33
417.4	1063.92
417.608	961.52
417.817	984.05
418.025	1055.73
418.233	1170.41
418.441	1151.98
418.649	1133.55
418.857	1254.38
419.065	1293.29
419.273	1229.81
419.481	1364.97
419.689	1401.83
419.897	1537
420.105	1418.22
420.313	1532.9
420.521	1663.97
420.729	1696.74
420.937	1604.58
421.145	1727.46
421.353	1872.87
421.561	1895.4
421.769	1913.83
421.977	1991.65
422.185	2053.09
422.393	2155.49
422.601	2272.22
422.809	2192.35
423.017	2319.32
423.224	2282.46
423.432	2391
423.64	2534.36
423.848	2735.06
424.056	2673.62
424.263	2814.93
424.471	2753.49
424.679	2894.8
424.887	2819.03
425.094	3050.45
425.302	3298.25
425.51	3210.19
425.718	3290.06
425.925	3234.77
426.133	3439.56
426.341	3726.28
426.548	3793.86
426.756	3883.97
426.964	3906.5
427.171	4129.73
427.379	4066.24
427.586	4189.12
427.794	4344.77
428.001	4551.61
428.209	4752.31
428.417	4721.59
428.624	5047.22
428.832	4967.35
429.039	5002.16
429.247	5137.33
429.454	5473.2
429.662	5782.44
429.869	5309.36
430.076	5702.57
430.284	5729.19
430.491	5936.04
430.699	6276
430.906	6267.81
431.114	6398.88
431.321	6792.09
431.528	6648.73
431.736	7267.22
431.943	7562.12
432.15	7226.26
432.358	7492.49
432.565	7887.75
432.772	7476.11
432.979	8168.32
433.187	8070.02
433.394	8276.87
433.601	9048.95
433.808	8962.94
434.016	8958.84
434.223	9137.01
434.43	9757.55
434.637	9544.56
434.844	10259.3
435.052	10308.45
435.259	10357.6
435.466	10472.29
435.673	10457.95
435.88	10804.06
436.087	11635.53
436.294	11584.34
436.501	11180.89
436.708	11529.04
436.915	11860.81
437.122	12440.39
437.329	12581.7
437.537	12874.56
437.743	13048.63
437.95	12663.61
438.157	13630.26
438.364	14144.3
438.571	13947.69
438.778	14045.99
438.985	15250.2
439.192	15180.57
439.399	15033.11
439.606	14973.72
439.813	15776.53
440.02	16782.08
440.227	16370.44
440.433	16118.54
440.64	16884.48
440.847	16519.94
441.054	16999.16
441.261	18492.13
441.467	17974
441.674	18471.65
441.881	18987.74
442.088	19016.41
442.294	18891.49
442.501	19260.12
442.708	19827.41
442.914	20298.44
443.121	21547.7
443.328	20603.59
443.534	22418.09
443.741	21549.75
443.948	21459.64
444.154	22823.59
444.361	22813.35
444.568	22614.69
444.774	22921.89
444.981	23212.7
445.187	23712.41
445.394	24828.55
445.6	24611.46
445.807	26804.84
446.013	25811.57
446.22	26323.57
446.426	27382.37
446.633	27591.26
446.839	28529.23
447.046	27239.01
447.252	28516.94
447.459	28942.92
447.665	28701.26
447.871	30003.77
448.078	31285.79
448.284	29553.21
448.491	30343.73
448.697	31562.27
448.903	32029.21
449.11	32121.37
449.316	31556.13
449.522	32528.91
449.728	33634.81
449.935	33421.83
450.141	33513.98
450.347	34568.69
450.553	33069.58
450.76	33489.41
450.966	34589.17
451.172	34236.92
451.378	35326.44
451.584	34404.85
451.791	35084.78
451.997	35068.39
452.203	35514.85
452.409	35731.93
452.615	35803.61
452.821	34591.22
453.027	34111.99
453.233	35768.8
453.44	34437.62
453.646	34484.72
453.852	34681.33
454.058	35346.92
454.264	34118.14
454.47	34728.43
454.676	33718.78
454.882	35609.06
455.088	32463.38
455.294	32930.31
455.5	32942.6
455.705	33413.63
455.911	32219.67
456.117	31638.05
456.323	31300.13
456.529	29545.02
456.735	31068.71
456.941	30216.75
457.147	29594.17
457.352	28633.68
457.558	28236.37
457.764	28672.59
457.97	27953.75
458.176	27419.23
458.381	27007.59
458.587	25901.68
458.793	26047.09
458.999	24504.97
459.204	26071.67
459.41	25674.36
459.616	23825.04
459.821	23863.96
460.027	23753.37
460.233	23597.72
460.438	22227.63
460.644	22389.42
460.85	21306.04
461.055	21256.89
461.261	20978.37
461.466	19391.19
461.672	18987.74
461.878	20226.76
462.083	18713.31
462.289	18561.76
462.494	18367.21
462.7	17601.27
462.905	17152.76
463.111	17756.91
463.316	17539.83
463.522	17437.43
463.727	17283.83
463.932	17249.02
464.138	17193.72
464.343	17302.26
464.549	16642.82
464.754	17281.78
464.959	17064.7
465.165	16855.81
465.37	16247.56
465.575	15880.97
465.781	16689.92
465.986	16456.45
