Data from USB4F104151__80__12-12-51-052.txt Node

Date: Fri Mar 14 12:12:51 EDT 2025
User: louis
Spectrometer: USB4F10415
Trigger mode: 4
Integration Time (sec): 5.000000E-2
Scans to average: 1
Electric dark correction enabled: true
Nonlinearity correction enabled: false
Boxcar width: 0
XAxis mode: Wavelengths
Number of Pixels in Spectrum: 3648
>>>>>Begin Spectral Data<<<<<
178.204	-172.37
178.424	-172.37
178.644	-172.37
178.864	-217.43
179.084	-186.71
179.304	42.67
179.524	-39.25
179.744	13.99
179.964	73.39
180.184	20.14
180.404	-8.53
180.624	52.91
180.844	-10.58
181.064	-55.64
181.283	-29.01
181.503	-33.11
181.723	-26.96
181.943	-22.87
182.163	71.34
182.383	-14.68
182.602	57
182.822	-18.77
183.042	59.05
183.262	-29.01
183.482	34.47
183.701	61.1
183.921	-16.73
184.141	-18.77
184.361	104.11
184.58	28.33
184.8	30.38
185.02	-31.06
185.239	114.34
185.459	50.86
185.679	42.67
185.898	-100.69
186.118	61.1
186.338	67.24
186.557	97.96
186.777	-14.68
186.997	77.48
187.216	5.8
187.436	85.67
187.655	44.71
187.875	138.92
188.095	40.62
188.314	100.01
188.534	110.25
188.753	30.38
188.973	116.39
189.192	112.3
189.412	26.28
189.631	-35.16
189.851	93.87
190.07	104.11
190.29	-14.68
190.509	20.14
190.729	44.71
190.948	61.1
191.168	214.7
191.387	87.72
191.607	11.95
191.826	61.1
192.045	-20.82
192.265	83.63
192.484	61.1
192.704	59.05
192.923	-20.82
193.142	159.4
193.362	42.67
193.581	48.81
193.8	-4.44
194.02	42.67
194.239	1.71
194.458	63.15
194.678	67.24
194.897	38.57
195.116	32.43
195.335	85.67
195.555	42.67
195.774	42.67
195.993	140.97
196.212	-2.39
196.432	40.62
196.651	-12.63
196.87	13.99
197.089	145.06
197.308	-4.44
197.528	102.06
197.747	-61.78
197.966	18.09
198.185	159.4
198.404	13.99
198.623	106.15
198.842	116.39
199.062	54.95
199.281	67.24
199.5	26.28
199.719	44.71
199.938	71.34
200.157	93.87
200.376	63.15
200.595	59.05
200.814	36.52
201.033	5.8
201.252	89.77
201.471	77.48
201.69	106.15
201.909	52.91
202.128	106.15
202.347	83.63
202.566	54.95
202.785	18.09
203.004	18.09
203.223	130.73
203.442	48.81
203.661	-6.49
203.879	102.06
204.098	83.63
204.317	-22.87
204.536	155.3
204.755	32.43
204.974	71.34
205.193	1.71
205.411	177.83
205.63	140.97
205.849	3.75
206.068	7.85
206.287	-10.58
206.505	20.14
206.724	32.43
206.943	1.71
207.162	-20.82
207.381	30.38
207.599	9.9
207.818	13.99
208.037	46.76
208.255	73.39
208.474	63.15
208.693	130.73
208.911	30.38
209.13	114.34
209.349	126.63
209.567	54.95
209.786	22.19
210.005	42.67
210.223	5.8
210.442	34.47
210.661	114.34
210.879	46.76
211.098	13.99
211.316	9.9
211.535	75.43
211.753	50.86
211.972	57
212.191	-88.4
212.409	-31.06
212.628	-24.92
212.846	16.04
213.065	65.19
213.283	136.87
213.502	20.14
213.72	11.95
213.938	54.95
214.157	11.95
214.375	69.29
214.594	42.67
214.812	59.05
215.031	81.58
215.249	61.1
215.467	42.67
215.686	-10.58
215.904	22.19
216.122	-0.34
216.341	91.82
216.559	-12.63
216.778	77.48
216.996	149.16
217.214	36.52
217.432	-2.39
217.651	-49.49
217.869	48.81
218.087	81.58
218.306	24.23
218.524	30.38
218.742	50.86
218.96	54.95
219.179	24.23
219.397	93.87
219.615	159.4
219.833	52.91
220.051	-0.34
220.27	69.29
220.488	38.57
220.706	40.62
220.924	34.47
221.142	-31.06
221.36	36.52
221.578	32.43
221.796	52.91
222.015	63.15
222.233	93.87
222.451	89.77
222.669	42.67
222.887	59.05
223.105	28.33
223.323	75.43
223.541	40.62
223.759	124.58
223.977	11.95
224.195	34.47
224.413	75.43
224.631	50.86
224.849	11.95
225.067	102.06
225.285	5.8
225.503	71.34
225.721	-90.45
225.939	36.52
226.157	9.9
226.375	147.11
226.592	-35.16
226.81	104.11
227.028	79.53
227.246	145.06
227.464	-53.59
227.682	57
227.9	93.87
228.117	7.85
228.335	67.24
228.553	5.8
228.771	34.47
228.989	46.76
229.206	-37.2
229.424	30.38
229.642	-47.44
229.86	-102.74
230.077	69.29
230.295	16.04
230.513	110.25
230.731	83.63
230.948	89.77
231.166	75.43
231.384	-24.92
231.601	130.73
231.819	95.91
232.037	-8.53
232.254	57
232.472	81.58
232.689	-4.44
232.907	116.39
233.125	18.09
233.342	-47.44
233.56	48.81
233.777	77.48
233.995	-14.68
234.213	157.35
234.43	79.53
234.648	75.43
234.865	13.99
235.083	54.95
235.3	75.43
235.518	54.95
235.735	95.91
235.953	44.71
236.17	-2.39
236.388	69.29
236.605	89.77
236.822	138.92
237.04	102.06
237.257	38.57
237.475	-51.54
237.692	63.15
237.909	20.14
238.127	-59.73
238.344	28.33
238.562	108.2
238.779	67.24
238.996	9.9
239.214	40.62
239.431	104.11
239.648	18.09
239.865	-0.34
240.083	85.67
240.3	28.33
240.517	-20.82
240.735	38.57
240.952	77.48
241.169	24.23
241.386	18.09
241.603	9.9
241.821	44.71
242.038	50.86
242.255	44.71
242.472	1.71
242.689	116.39
242.907	100.01
243.124	63.15
243.341	77.48
243.558	-33.11
243.775	44.71
243.992	-10.58
244.209	54.95
244.426	202.41
244.643	97.96
244.86	93.87
245.078	71.34
245.295	-14.68
245.512	-22.87
245.729	-8.53
245.946	44.71
246.163	57
246.38	-33.11
246.597	110.25
246.814	97.96
247.031	67.24
247.248	3.75
247.464	52.91
247.681	61.1
247.898	77.48
248.115	138.92
248.332	-8.53
248.549	75.43
248.766	91.82
248.983	-8.53
249.2	-2.39
249.417	54.95
249.633	-26.96
249.85	95.91
250.067	48.81
250.284	-8.53
250.501	75.43
250.717	104.11
250.934	22.19
251.151	36.52
251.368	7.85
251.585	83.63
251.801	52.91
252.018	71.34
252.235	126.63
252.451	36.52
252.668	34.47
252.885	71.34
253.102	75.43
253.318	42.67
253.535	16.04
253.752	36.52
253.968	13.99
254.185	-39.25
254.401	18.09
254.618	73.39
254.835	40.62
255.051	50.86
255.268	38.57
255.484	20.14
255.701	54.95
255.917	59.05
256.134	-14.68
256.351	48.81
256.567	-47.44
256.784	36.52
257	-74.07
257.217	93.87
257.433	30.38
257.65	59.05
257.866	18.09
258.082	-2.39
258.299	-57.68
258.515	83.63
258.732	38.57
258.948	-33.11
259.165	26.28
259.381	38.57
259.597	-14.68
259.814	9.9
260.03	-22.87
260.246	81.58
260.463	63.15
260.679	104.11
260.895	95.91
261.112	44.71
261.328	69.29
261.544	-37.2
261.761	171.69
261.977	-24.92
262.193	26.28
262.409	116.39
262.626	81.58
262.842	67.24
263.058	-20.82
263.274	63.15
263.49	-35.16
263.707	42.67
263.923	77.48
264.139	-69.97
264.355	3.75
264.571	81.58
264.787	5.8
265.004	81.58
265.22	11.95
265.436	-24.92
265.652	71.34
265.868	30.38
266.084	50.86
266.3	93.87
266.516	5.8
266.732	-12.63
266.948	22.19
267.164	89.77
267.38	100.01
267.596	3.75
267.812	153.26
268.028	42.67
268.244	26.28
268.46	44.71
268.676	1.71
268.892	91.82
269.108	-4.44
269.324	-82.26
269.54	-57.68
269.756	36.52
269.972	-4.44
270.188	67.24
270.403	-0.34
270.619	163.5
270.835	-8.53
271.051	11.95
271.267	13.99
271.483	16.04
271.698	79.53
271.914	11.95
272.13	85.67
272.346	18.09
272.562	26.28
272.777	59.05
272.993	-26.96
273.209	104.11
273.425	42.67
273.64	-51.54
273.856	97.96
274.072	-0.34
274.287	-43.35
274.503	126.63
274.719	32.43
274.934	-0.34
275.15	-24.92
275.366	77.48
275.581	24.23
275.797	5.8
276.012	61.1
276.228	18.09
276.444	9.9
276.659	24.23
276.875	38.57
277.09	32.43
277.306	85.67
277.521	91.82
277.737	34.47
277.952	69.29
278.168	91.82
278.383	20.14
278.599	48.81
278.814	36.52
279.03	89.77
279.245	143.02
279.461	-26.96
279.676	87.72
279.892	-69.97
280.107	-33.11
280.322	-29.01
280.538	46.76
280.753	3.75
280.969	26.28
281.184	26.28
281.399	48.81
281.615	-6.49
281.83	24.23
282.045	-35.16
282.26	11.95
282.476	38.57
282.691	61.1
282.906	-0.34
283.122	42.67
283.337	7.85
283.552	59.05
283.767	22.19
283.983	26.28
284.198	-43.35
284.413	138.92
284.628	-47.44
284.843	93.87
285.058	114.34
285.274	1.71
285.489	-29.01
285.704	73.39
285.919	69.29
286.134	1.71
286.349	38.57
286.564	-33.11
286.779	190.12
286.995	-0.34
287.21	-18.77
287.425	57
287.64	40.62
287.855	95.91
288.07	-55.64
288.285	110.25
288.5	65.19
288.715	71.34
288.93	46.76
289.145	-59.73
289.36	87.72
289.575	5.8
289.79	40.62
290.004	61.1
290.219	40.62
290.434	7.85
290.649	36.52
290.864	3.75
291.079	-2.39
291.294	30.38
291.509	-14.68
291.724	40.62
291.938	106.15
292.153	54.95
292.368	22.19
292.583	-4.44
292.798	110.25
293.012	7.85
293.227	-14.68
293.442	-37.2
293.657	65.19
293.871	69.29
294.086	57
294.301	145.06
294.516	32.43
294.73	110.25
294.945	3.75
295.16	26.28
295.374	97.96
295.589	28.33
295.804	-14.68
296.018	-22.87
296.233	128.68
296.447	91.82
296.662	24.23
296.877	93.87
297.091	100.01
297.306	44.71
297.52	24.23
297.735	173.74
297.949	77.48
298.164	67.24
298.378	61.1
298.593	30.38
298.807	11.95
299.022	97.96
299.236	151.21
299.451	54.95
299.665	16.04
299.88	26.28
300.094	40.62
300.309	7.85
300.523	30.38
300.737	97.96
300.952	77.48
301.166	38.57
301.381	7.85
301.595	-12.63
301.809	11.95
302.024	24.23
302.238	59.05
302.452	54.95
302.667	50.86
302.881	102.06
303.095	32.43
303.309	52.91
303.524	34.47
303.738	22.19
303.952	28.33
304.166	7.85
304.381	-47.44
304.595	102.06
304.809	52.91
305.023	108.2
305.237	59.05
305.452	11.95
305.666	85.67
305.88	102.06
306.094	79.53
306.308	65.19
306.522	85.67
306.736	32.43
306.95	67.24
307.164	13.99
307.379	24.23
307.593	73.39
307.807	73.39
308.021	36.52
308.235	85.67
308.449	-45.4
308.663	93.87
308.877	50.86
309.091	59.05
309.305	26.28
309.519	1.71
309.733	87.72
309.947	-37.2
310.161	116.39
310.374	91.82
310.588	102.06
310.802	32.43
311.016	63.15
311.23	81.58
311.444	32.43
311.658	48.81
311.872	28.33
312.085	69.29
312.299	32.43
312.513	149.16
312.727	116.39
312.941	-20.82
313.154	87.72
313.368	48.81
313.582	50.86
313.796	24.23
314.009	-12.63
314.223	83.63
314.437	24.23
314.651	59.05
314.864	-45.4
315.078	75.43
315.292	61.1
315.505	46.76
315.719	44.71
315.933	57
316.146	-33.11
316.36	26.28
316.573	57
316.787	30.38
317.001	130.73
317.214	16.04
317.428	97.96
317.641	-20.82
317.855	34.47
318.068	93.87
318.282	7.85
318.495	83.63
318.709	13.99
318.922	3.75
319.136	77.48
319.349	42.67
319.563	54.95
319.776	106.15
319.99	-16.73
320.203	24.23
320.417	-2.39
320.63	24.23
320.843	151.21
321.057	106.15
321.27	93.87
321.483	95.91
321.697	67.24
321.91	-0.34
322.124	13.99
322.337	91.82
322.55	24.23
322.763	20.14
322.977	-14.68
323.19	-45.4
323.403	48.81
323.617	32.43
323.83	71.34
324.043	20.14
324.256	16.04
324.469	42.67
324.683	102.06
324.896	34.47
325.109	69.29
325.322	1.71
325.535	128.68
325.748	106.15
325.962	11.95
326.175	79.53
326.388	132.78
326.601	67.24
326.814	20.14
327.027	44.71
327.24	83.63
327.453	20.14
327.666	95.91
327.879	143.02
328.092	85.67
328.305	26.28
328.518	44.71
328.731	3.75
328.944	28.33
329.157	22.19
329.37	1.71
329.583	124.58
329.796	77.48
330.009	42.67
330.222	77.48
330.435	61.1
330.648	-12.63
330.861	3.75
331.073	61.1
331.286	97.96
331.499	85.67
331.712	-57.68
331.925	67.24
332.138	77.48
332.35	143.02
332.563	40.62
332.776	36.52
332.989	-43.35
333.202	-33.11
333.414	63.15
333.627	57
333.84	69.29
334.053	110.25
334.265	-2.39
334.478	13.99
334.691	3.75
334.903	63.15
335.116	42.67
335.329	50.86
335.541	28.33
335.754	40.62
335.966	16.04
336.179	65.19
336.392	28.33
336.604	1.71
336.817	122.54
337.029	42.67
337.242	13.99
337.454	87.72
337.667	69.29
337.88	7.85
338.092	40.62
338.305	42.67
338.517	-12.63
338.729	24.23
338.942	54.95
339.154	-33.11
339.367	-29.01
339.579	28.33
339.792	-2.39
340.004	79.53
340.217	63.15
340.429	38.57
340.641	34.47
340.854	-31.06
341.066	22.19
341.278	32.43
341.491	95.91
341.703	34.47
341.915	-16.73
342.128	34.47
342.34	52.91
342.552	22.19
342.764	38.57
342.977	97.96
343.189	34.47
343.401	38.57
343.613	36.52
343.826	71.34
344.038	16.04
344.25	91.82
344.462	18.09
344.674	28.33
344.886	20.14
345.099	5.8
345.311	20.14
345.523	-57.68
345.735	44.71
345.947	77.48
346.159	30.38
346.371	7.85
346.583	-20.82
346.795	114.34
347.007	38.57
347.219	42.67
347.431	7.85
347.643	57
347.855	85.67
348.067	118.44
348.279	-10.58
348.491	9.9
348.703	75.43
348.915	-12.63
349.127	-61.78
349.339	61.1
349.551	-31.06
349.763	24.23
349.975	57
350.187	52.91
350.399	54.95
350.61	106.15
350.822	11.95
351.034	91.82
351.246	-24.92
351.458	46.76
351.669	28.33
351.881	95.91
352.093	-20.82
352.305	114.34
352.517	22.19
352.728	24.23
352.94	44.71
353.152	77.48
353.363	-31.06
353.575	9.9
353.787	81.58
353.999	151.21
354.21	-29.01
354.422	-10.58
354.633	42.67
354.845	50.86
355.057	-14.68
355.268	24.23
355.48	89.77
355.692	-31.06
355.903	-45.4
356.115	-96.6
356.326	-45.4
356.538	57
356.749	18.09
356.961	61.1
357.172	61.1
357.384	13.99
357.595	130.73
357.807	34.47
358.018	-4.44
358.23	-18.77
358.441	114.34
358.653	91.82
358.864	-6.49
359.075	-14.68
359.287	67.24
359.498	155.3
359.709	112.3
359.921	67.24
360.132	7.85
360.344	59.05
360.555	77.48
360.766	26.28
360.977	7.85
361.189	85.67
361.4	112.3
361.611	77.48
361.823	77.48
362.034	-16.73
362.245	11.95
362.456	36.52
362.667	120.49
362.879	-0.34
363.09	38.57
363.301	40.62
363.512	24.23
363.723	5.8
363.935	1.71
364.146	71.34
364.357	16.04
364.568	89.77
364.779	13.99
364.99	112.3
365.201	-72.02
365.412	118.44
365.623	7.85
365.834	97.96
366.045	40.62
366.256	61.1
366.467	116.39
366.678	46.76
366.889	34.47
367.1	-14.68
367.311	48.81
367.522	-39.25
367.733	79.53
367.944	102.06
368.155	24.23
368.366	22.19
368.577	75.43
368.788	59.05
368.999	34.47
369.209	81.58
369.42	149.16
369.631	108.2
369.842	59.05
370.053	-16.73
370.264	50.86
370.474	-0.34
370.685	5.8
370.896	48.81
371.107	54.95
371.317	-16.73
371.528	-14.68
371.739	104.11
371.95	108.2
372.16	40.62
372.371	11.95
372.582	77.48
372.792	40.62
373.003	63.15
373.214	13.99
373.424	91.82
373.635	1.71
373.846	108.2
374.056	114.34
374.267	61.1
374.477	67.24
374.688	100.01
374.898	57
375.109	40.62
375.319	-4.44
375.53	108.2
375.74	9.9
375.951	77.48
376.161	65.19
376.372	48.81
376.582	112.3
376.793	32.43
377.003	42.67
377.214	-35.16
377.424	61.1
377.635	32.43
377.845	5.8
378.055	128.68
378.266	-65.88
378.476	-20.82
378.686	87.72
378.897	67.24
379.107	118.44
379.317	22.19
379.528	18.09
379.738	11.95
379.948	48.81
380.158	38.57
380.369	48.81
380.579	128.68
380.789	-8.53
380.999	67.24
381.21	-18.77
381.42	102.06
381.63	22.19
381.84	40.62
382.05	108.2
382.261	114.34
382.471	-16.73
382.681	32.43
382.891	91.82
383.101	124.58
383.311	36.52
383.521	54.95
383.731	85.67
383.941	38.57
384.151	104.11
384.361	136.87
384.571	34.47
384.781	44.71
384.991	108.2
385.201	134.82
385.411	147.11
385.621	44.71
385.831	65.19
386.041	-10.58
386.251	24.23
386.461	71.34
386.671	100.01
386.881	65.19
387.091	42.67
387.301	124.58
387.511	42.67
387.72	151.21
387.93	87.72
388.14	-47.44
388.35	89.77
388.56	106.15
388.769	79.53
388.979	-20.82
389.189	26.28
389.399	91.82
389.609	-2.39
389.818	93.87
390.028	42.67
390.238	24.23
390.447	-2.39
390.657	50.86
390.867	9.9
391.076	3.75
391.286	1.71
391.496	40.62
391.705	20.14
391.915	106.15
392.125	83.63
392.334	63.15
392.544	28.33
392.753	-0.34
392.963	22.19
393.172	18.09
393.382	93.87
393.591	218.79
393.801	61.1
394.01	73.39
394.22	79.53
394.429	69.29
394.639	48.81
394.848	77.48
395.058	20.14
395.267	118.44
395.477	140.97
395.686	91.82
395.895	69.29
396.105	173.74
396.314	132.78
396.524	38.57
396.733	102.06
396.942	91.82
397.152	26.28
397.361	85.67
397.57	3.75
397.78	5.8
397.989	116.39
398.198	169.64
398.407	34.47
398.617	57
398.826	81.58
399.035	22.19
399.244	124.58
399.453	85.67
399.663	100.01
399.872	106.15
400.081	7.85
400.29	77.48
400.499	104.11
400.708	83.63
400.917	65.19
401.127	-39.25
401.336	52.91
401.545	243.37
401.754	89.77
401.963	149.16
402.172	83.63
402.381	38.57
402.59	81.58
402.799	30.38
403.008	130.73
403.217	163.5
403.426	159.4
403.635	54.95
403.844	79.53
404.053	87.72
404.262	93.87
404.471	208.55
404.68	95.91
404.888	75.43
405.097	24.23
405.306	145.06
405.515	132.78
405.724	145.06
405.933	132.78
406.142	118.44
406.35	214.7
406.559	112.3
406.768	128.68
406.977	132.78
407.185	165.54
407.394	145.06
407.603	83.63
407.812	202.41
408.02	198.31
408.229	163.5
408.438	175.78
408.646	130.73
408.855	188.07
409.064	231.08
409.272	153.26
409.481	136.87
409.69	120.49
409.898	210.6
410.107	186.02
410.315	216.74
410.524	124.58
410.733	310.95
410.941	171.69
411.15	272.04
411.358	276.13
411.567	265.89
411.775	261.8
411.984	220.84
412.192	290.47
412.401	251.56
412.609	333.48
412.818	304.81
413.026	378.53
413.234	274.09
413.443	286.37
413.651	310.95
413.86	290.47
414.068	413.35
414.276	396.96
414.485	356.01
414.693	476.84
414.901	460.45
415.11	413.35
415.318	470.69
415.526	386.72
415.734	450.21
415.943	478.88
416.151	532.13
416.359	544.42
416.567	562.85
416.776	556.71
416.984	560.8
417.192	636.58
417.4	589.47
417.608	556.71
417.817	568.99
418.025	589.47
418.233	655.01
418.441	659.1
418.649	638.62
418.857	728.74
419.065	728.74
419.273	673.44
419.481	767.65
419.689	806.56
419.897	849.57
420.105	849.57
420.313	947.87
420.521	964.25
420.729	1068.7
420.937	1001.12
421.145	994.97
421.353	1091.23
421.561	1111.71
421.769	1167
421.977	1146.52
422.185	1154.71
422.393	1150.62
422.601	1324.69
422.809	1287.83
423.017	1386.13
423.224	1453.72
423.432	1517.2
423.64	1468.05
423.848	1638.03
424.056	1459.86
424.263	1578.64
424.471	1584.79
424.679	1658.51
424.887	1674.9
425.094	1836.69
425.302	1767.06
425.51	1842.83
425.718	1982.09
425.925	1879.69
426.133	1945.23
426.341	2203.27
426.548	2164.36
426.756	2156.17
426.964	2209.42
427.171	2397.83
427.379	2434.69
427.586	2449.03
427.794	2535.04
428.001	2698.88
428.209	2817.66
428.417	2762.37
428.624	3108.48
428.832	2899.58
429.039	2889.34
429.247	2940.54
429.454	3075.71
429.662	3401.33
429.869	3171.96
430.076	3419.77
430.284	3268.22
430.491	3593.84
430.699	3626.61
430.906	3690.1
431.114	3579.51
431.321	3810.93
431.528	3827.31
431.736	3972.72
431.943	4226.67
432.15	4066.92
432.358	4165.23
432.565	4507.24
432.772	4376.17
432.979	4679.27
433.187	4671.08
433.394	4730.47
433.601	5039.71
433.808	4978.27
434.016	5074.53
434.223	5215.84
434.43	5486.17
434.637	5422.68
434.844	5828.18
435.052	5928.53
435.259	6028.88
435.466	5875.28
435.673	5772.88
435.88	6348.36
436.087	6555.21
436.294	6489.67
436.501	6260.3
436.708	6495.82
436.915	6686.28
437.122	6909.51
437.329	7038.53
437.537	7272
437.743	7429.69
437.95	7439.93
438.157	7634.49
438.364	7960.11
438.571	7921.2
438.778	7976.5
438.985	8681
439.192	8498.73
439.399	8695.33
439.606	8310.32
439.813	8803.88
440.02	9365.02
440.227	9287.2
440.433	9362.97
440.64	9416.22
440.847	9473.56
441.054	9559.58
441.261	10450.44
441.467	10083.86
441.674	10493.45
441.881	10774.02
442.088	10737.16
442.294	10794.5
442.501	10987.01
442.708	11034.11
442.914	11562.49
443.121	11947.51
443.328	11908.6
443.534	12629.48
443.741	12088.82
443.948	11918.84
444.154	12791.27
444.361	12944.87
444.568	12719.59
444.774	13004.26
444.981	13063.65
445.187	13420
445.394	13923.8
445.6	13762.01
445.807	15048.13
446.013	14493.13
446.22	14710.22
446.426	15357.38
446.633	15705.53
446.839	16278.96
447.046	15177.16
447.252	16283.06
447.459	16197.04
447.665	16184.76
447.871	16782.76
448.078	17530.27
448.284	16512.43
448.491	17190.31
448.697	17989.02
448.903	18025.88
449.11	18357.65
449.316	17903
449.522	18437.52
449.728	18781.58
449.935	18953.61
450.141	18802.06
450.347	19314.05
450.553	18666.89
450.76	19053.96
450.966	19387.78
451.172	19488.13
451.378	19922.3
451.584	19586.43
451.791	19977.59
451.997	20143.48
452.203	20372.85
452.409	19969.4
452.615	20141.43
452.821	19352.96
453.027	19078.54
453.233	20335.99
453.44	19318.15
453.646	19778.94
453.852	19555.71
454.058	20139.38
454.264	19580.29
454.47	19713.41
454.676	19297.67
454.882	19973.5
455.088	18285.97
455.294	18736.52
455.5	19002.76
455.705	19023.24
455.911	18306.45
456.117	17946.01
456.323	17493.41
456.529	16682.41
456.735	17462.69
456.941	17100.2
457.147	16905.64
457.352	16135.6
457.558	15998.39
457.764	15982.01
457.97	15756.73
458.176	15726.01
458.381	15297.99
458.587	14560.72
458.793	14601.68
458.999	13893.08
459.204	14966.21
459.41	14317.01
459.616	13573.6
459.821	13549.02
460.027	13358.56
460.233	13186.53
460.438	12555.76
460.644	12506.6
460.85	12090.87
461.055	11986.42
461.261	11777.53
461.466	11038.21
461.672	10618.38
461.878	11421.18
462.083	10532.36
462.289	10585.61
462.494	10415.63
462.7	9772.57
462.905	9588.25
463.111	9897.49
463.316	10040.85
463.522	9823.76
463.727	9805.33
463.932	9643.54
464.138	9532.95
464.343	9651.74
464.549	9346.59
464.754	9750.04
464.959	9659.93
465.165	9592.34
465.37	9123.36
465.575	9020.96
465.781	9211.42
465.986	9135.65
466.191	8994.34
466.397	8838.69
466.602	8408.62
466.807	8574.5
467.012	8693.29
467.218	8588.84
467.423	8345.13
467.628	8707.62
467.833	8738.34
