Data from USB4F104151__71__12-12-39-903.txt Node

Date: Fri Mar 14 12:12:39 EDT 2025
User: louis
Spectrometer: USB4F10415
Trigger mode: 4
Integration Time (sec): 5.000000E-2
Scans to average: 1
Electric dark correction enabled: true
Nonlinearity correction enabled: false
Boxcar width: 0
XAxis mode: Wavelengths
Number of Pixels in Spectrum: 3648
>>>>>Begin Spectral Data<<<<<
178.204	-190.29
178.424	-190.29
178.644	-190.29
178.864	-155.47
179.084	-235.35
179.304	6.31
179.524	26.79
179.744	-8.02
179.964	41.13
180.184	41.13
180.404	2.22
180.624	-20.31
180.844	-26.45
181.064	16.55
181.283	10.41
181.503	-98.13
181.723	8.36
181.943	-85.84
182.163	116.9
182.383	-3.93
182.602	59.56
182.822	65.71
183.042	55.47
183.262	12.46
183.482	-20.31
183.701	77.99
183.921	57.51
184.141	20.65
184.361	98.47
184.58	53.42
184.8	90.28
185.02	18.6
185.239	155.82
185.459	59.56
185.679	0.17
185.898	-46.93
186.118	10.41
186.338	22.7
186.557	-18.26
186.777	30.89
186.997	-26.45
187.216	-16.21
187.436	84.14
187.655	20.65
187.875	69.8
188.095	51.37
188.314	121
188.534	112.81
188.753	49.32
188.973	94.38
189.192	77.99
189.412	-1.88
189.631	20.65
189.851	92.33
190.07	147.62
190.29	28.84
190.509	0.17
190.729	37.03
190.948	125.1
191.168	192.68
191.387	41.13
191.607	-18.26
191.826	82.09
192.045	43.18
192.265	16.55
192.484	-8.02
192.704	28.84
192.923	-42.84
193.142	145.58
193.362	65.71
193.581	49.32
193.8	82.09
194.02	114.86
194.239	-32.6
194.458	10.41
194.678	14.51
194.897	61.61
195.116	6.31
195.335	55.47
195.555	32.94
195.774	12.46
195.993	-10.07
196.212	39.08
196.432	12.46
196.651	8.36
196.87	16.55
197.089	135.34
197.308	71.85
197.528	77.99
197.747	-30.55
197.966	22.7
198.185	65.71
198.404	0.17
198.623	61.61
198.842	92.33
199.062	90.28
199.281	75.95
199.5	55.47
199.719	22.7
199.938	71.85
200.157	123.05
200.376	-24.4
200.595	153.77
200.814	39.08
201.033	0.17
201.252	133.29
201.471	18.6
201.69	37.03
201.909	94.38
202.128	-5.97
202.347	106.67
202.566	28.84
202.785	39.08
203.004	0.17
203.223	127.14
203.442	92.33
203.661	-48.98
203.879	123.05
204.098	43.18
204.317	-30.55
204.536	39.08
204.755	116.9
204.974	94.38
205.193	77.99
205.411	59.56
205.63	65.71
205.849	2.22
206.068	100.52
206.287	39.08
206.505	98.47
206.724	108.71
206.943	-8.02
207.162	0.17
207.381	34.99
207.599	14.51
207.818	-8.02
208.037	6.31
208.255	-3.93
208.474	65.71
208.693	8.36
208.911	-5.97
209.13	20.65
209.349	47.27
209.567	34.99
209.786	71.85
210.005	84.14
210.223	-8.02
210.442	22.7
210.661	28.84
210.879	55.47
211.098	-5.97
211.316	39.08
211.535	41.13
211.753	75.95
211.972	16.55
212.191	28.84
212.409	-1.88
212.628	12.46
212.846	16.55
213.065	-8.02
213.283	94.38
213.502	34.99
213.72	49.32
213.938	-40.79
214.157	12.46
214.375	90.28
214.594	10.41
214.812	0.17
215.031	47.27
215.249	-57.17
215.467	10.41
215.686	45.23
215.904	123.05
216.122	67.75
216.341	43.18
216.559	16.55
216.778	45.23
216.996	14.51
217.214	12.46
217.432	-24.4
217.651	-18.26
217.869	104.62
218.087	102.57
218.306	18.6
218.524	65.71
218.742	24.75
218.96	84.14
219.179	43.18
219.397	-42.84
219.615	96.43
219.833	8.36
220.051	-71.51
220.27	39.08
220.488	55.47
220.706	77.99
220.924	-18.26
221.142	51.37
221.36	-3.93
221.578	20.65
221.796	-3.93
222.015	-77.65
222.233	-79.7
222.451	106.67
222.669	28.84
222.887	131.24
223.105	6.31
223.323	-16.21
223.541	80.04
223.759	43.18
223.977	-46.93
224.195	125.1
224.413	59.56
224.631	16.55
224.849	53.42
225.067	133.29
225.285	55.47
225.503	88.23
225.721	-10.07
225.939	82.09
226.157	57.51
226.375	196.78
226.592	-18.26
226.81	-12.12
227.028	59.56
227.246	8.36
227.464	57.51
227.682	14.51
227.9	-8.02
228.117	47.27
228.335	127.14
228.553	63.66
228.771	28.84
228.989	-14.17
229.206	30.89
229.424	10.41
229.642	-12.12
229.86	30.89
230.077	61.61
230.295	-1.88
230.513	106.67
230.731	129.19
230.948	0.17
231.166	41.13
231.384	90.28
231.601	51.37
231.819	73.9
232.037	8.36
232.254	-12.12
232.472	-40.79
232.689	-96.08
232.907	75.95
233.125	51.37
233.342	20.65
233.56	-53.08
233.777	49.32
233.995	51.37
234.213	30.89
234.43	4.27
234.648	65.71
234.865	-24.4
235.083	106.67
235.3	10.41
235.518	24.75
235.735	155.82
235.953	92.33
236.17	2.22
236.388	20.65
236.605	69.8
236.822	166.06
237.04	69.8
237.257	49.32
237.475	-40.79
237.692	127.14
237.909	6.31
238.127	18.6
238.344	112.81
238.562	49.32
238.779	-65.36
238.996	-32.6
239.214	94.38
239.431	71.85
239.648	-48.98
239.865	86.19
240.083	67.75
240.3	10.41
240.517	-8.02
240.735	-3.93
240.952	141.48
241.169	96.43
241.386	67.75
241.603	18.6
241.821	-44.88
242.038	47.27
242.255	39.08
242.472	-10.07
242.689	18.6
242.907	100.52
243.124	51.37
243.341	67.75
243.558	-8.02
243.775	-108.37
243.992	26.79
244.209	34.99
244.426	166.06
244.643	18.6
244.86	16.55
245.078	34.99
245.295	4.27
245.512	18.6
245.729	53.42
245.946	24.75
246.163	6.31
246.38	57.51
246.597	-14.17
246.814	-18.26
247.031	43.18
247.248	14.51
247.464	100.52
247.681	10.41
247.898	51.37
248.115	-10.07
248.332	-20.31
248.549	104.62
248.766	121
248.983	34.99
249.2	125.1
249.417	51.37
249.633	32.94
249.85	41.13
250.067	18.6
250.284	92.33
250.501	57.51
250.717	94.38
250.934	34.99
251.151	34.99
251.368	114.86
251.585	53.42
251.801	43.18
252.018	-16.21
252.235	0.17
252.451	41.13
252.668	-71.51
252.885	84.14
253.102	102.57
253.318	4.27
253.535	53.42
253.752	-14.17
253.968	43.18
254.185	-32.6
254.401	-16.21
254.618	24.75
254.835	2.22
255.051	73.9
255.268	86.19
255.484	86.19
255.701	69.8
255.917	12.46
256.134	2.22
256.351	-42.84
256.567	-10.07
256.784	16.55
257	-30.55
257.217	96.43
257.433	-16.21
257.65	22.7
257.866	63.66
258.082	43.18
258.299	-18.26
258.515	61.61
258.732	16.55
258.948	-26.45
259.165	-5.97
259.381	-28.5
259.597	32.94
259.814	10.41
260.03	22.7
260.246	18.6
260.463	147.62
260.679	-10.07
260.895	28.84
261.112	55.47
261.328	12.46
261.544	-77.65
261.761	118.95
261.977	-30.55
262.193	-28.5
262.409	0.17
262.626	88.23
262.842	0.17
263.058	8.36
263.274	0.17
263.49	47.27
263.707	129.19
263.923	-85.84
264.139	12.46
264.355	-44.88
264.571	47.27
264.787	26.79
265.004	116.9
265.22	-18.26
265.436	-44.88
265.652	61.61
265.868	69.8
266.084	-12.12
266.3	-22.36
266.516	4.27
266.732	61.61
266.948	86.19
267.164	16.55
267.38	34.99
267.596	57.51
267.812	133.29
268.028	-5.97
268.244	-32.6
268.46	0.17
268.676	18.6
268.892	10.41
269.108	18.6
269.324	26.79
269.54	-38.74
269.756	69.8
269.972	22.7
270.188	-8.02
270.403	-12.12
270.619	77.99
270.835	82.09
271.051	55.47
271.267	-42.84
271.483	0.17
271.698	125.1
271.914	116.9
272.13	-48.98
272.346	32.94
272.562	49.32
272.777	45.23
272.993	24.75
273.209	49.32
273.425	32.94
273.64	-63.32
273.856	77.99
274.072	39.08
274.287	39.08
274.503	121
274.719	39.08
274.934	28.84
275.15	-40.79
275.366	84.14
275.581	10.41
275.797	86.19
276.012	43.18
276.228	0.17
276.444	12.46
276.659	133.29
276.875	-57.17
277.09	16.55
277.306	18.6
277.521	67.75
277.737	39.08
277.952	12.46
278.168	110.76
278.383	80.04
278.599	51.37
278.814	92.33
279.03	37.03
279.245	84.14
279.461	43.18
279.676	59.56
279.892	-36.69
280.107	-40.79
280.322	8.36
280.538	32.94
280.753	32.94
280.969	32.94
281.184	24.75
281.399	174.25
281.615	59.56
281.83	30.89
282.045	8.36
282.26	-8.02
282.476	12.46
282.691	53.42
282.906	32.94
283.122	34.99
283.337	57.51
283.552	-10.07
283.767	20.65
283.983	37.03
284.198	75.95
284.413	-5.97
284.628	-67.41
284.843	43.18
285.058	63.66
285.274	22.7
285.489	102.57
285.704	67.75
285.919	-8.02
286.134	8.36
286.349	20.65
286.564	-40.79
286.779	47.27
286.995	-12.12
287.21	100.52
287.425	14.51
287.64	2.22
287.855	-24.4
288.07	-46.93
288.285	63.66
288.5	92.33
288.715	26.79
288.93	18.6
289.145	12.46
289.36	53.42
289.575	14.51
289.79	20.65
290.004	34.99
290.219	53.42
290.434	0.17
290.649	-22.36
290.864	-18.26
291.079	112.81
291.294	49.32
291.509	65.71
291.724	63.66
291.938	0.17
292.153	-34.64
292.368	-67.41
292.583	104.62
292.798	-16.21
293.012	63.66
293.227	-36.69
293.442	20.65
293.657	176.3
293.871	77.99
294.086	30.89
294.301	164.01
294.516	104.62
294.73	92.33
294.945	59.56
295.16	24.75
295.374	147.62
295.589	20.65
295.804	-16.21
296.018	84.14
296.233	65.71
296.447	-12.12
296.662	75.95
296.877	39.08
297.091	43.18
297.306	82.09
297.52	-12.12
297.735	-12.12
297.949	73.9
298.164	34.99
298.378	-51.03
298.593	37.03
298.807	-32.6
299.022	4.27
299.236	90.28
299.451	16.55
299.665	73.9
299.88	-69.46
300.094	57.51
300.309	-10.07
300.523	73.9
300.737	34.99
300.952	10.41
301.166	34.99
301.381	51.37
301.595	-5.97
301.809	2.22
302.024	30.89
302.238	-26.45
302.452	59.56
302.667	39.08
302.881	88.23
303.095	20.65
303.309	114.86
303.524	65.71
303.738	-57.17
303.952	-8.02
304.166	-14.17
304.381	-8.02
304.595	-3.93
304.809	-5.97
305.023	69.8
305.237	-32.6
305.452	16.55
305.666	108.71
305.88	10.41
306.094	-5.97
306.308	24.75
306.522	75.95
306.736	-10.07
306.95	24.75
307.164	37.03
307.379	-8.02
307.593	32.94
307.807	118.95
308.021	55.47
308.235	37.03
308.449	-14.17
308.663	-63.32
308.877	80.04
309.091	112.81
309.305	20.65
309.519	-10.07
309.733	112.81
309.947	-38.74
310.161	55.47
310.374	53.42
310.588	20.65
310.802	-3.93
311.016	-5.97
311.23	30.89
311.444	6.31
311.658	-8.02
311.872	55.47
312.085	88.23
312.299	104.62
312.513	37.03
312.727	12.46
312.941	-18.26
313.154	39.08
313.368	39.08
313.582	41.13
313.796	131.24
314.009	-8.02
314.223	86.19
314.437	12.46
314.651	131.24
314.864	77.99
315.078	14.51
315.292	8.36
315.505	14.51
315.719	43.18
315.933	53.42
316.146	80.04
316.36	32.94
316.573	69.8
316.787	2.22
317.001	-38.74
317.214	-40.79
317.428	26.79
317.641	-38.74
317.855	-67.41
318.068	30.89
318.282	-26.45
318.495	204.97
318.709	47.27
318.922	26.79
319.136	69.8
319.349	94.38
319.563	-18.26
319.776	84.14
319.99	-22.36
320.203	32.94
320.417	65.71
320.63	94.38
320.843	39.08
321.057	82.09
321.27	6.31
321.483	67.75
321.697	82.09
321.91	-28.5
322.124	77.99
322.337	45.23
322.55	-8.02
322.763	28.84
322.977	43.18
323.19	-18.26
323.403	88.23
323.617	2.22
323.83	125.1
324.043	26.79
324.256	92.33
324.469	-42.84
324.683	41.13
324.896	51.37
325.109	22.7
325.322	26.79
325.535	166.06
325.748	65.71
325.962	16.55
326.175	-8.02
326.388	90.28
326.601	8.36
326.814	43.18
327.027	-8.02
327.24	155.82
327.453	2.22
327.666	98.47
327.879	30.89
328.092	14.51
328.305	82.09
328.518	49.32
328.731	-20.31
328.944	-5.97
329.157	20.65
329.37	-22.36
329.583	100.52
329.796	98.47
330.009	-28.5
330.222	108.71
330.435	65.71
330.648	53.42
330.861	26.79
331.073	53.42
331.286	55.47
331.499	53.42
331.712	-10.07
331.925	-12.12
332.138	16.55
332.35	82.09
332.563	-73.56
332.776	125.1
332.989	-46.93
333.202	22.7
333.414	8.36
333.627	63.66
333.84	75.95
334.053	45.23
334.265	-5.97
334.478	-18.26
334.691	43.18
334.903	90.28
335.116	-48.98
335.329	59.56
335.541	116.9
335.754	73.9
335.966	57.51
336.179	34.99
336.392	10.41
336.604	8.36
336.817	22.7
337.029	43.18
337.242	65.71
337.454	67.75
337.667	55.47
337.88	137.38
338.092	-8.02
338.305	69.8
338.517	20.65
338.729	41.13
338.942	121
339.154	8.36
339.367	-8.02
339.579	39.08
339.792	-22.36
340.004	129.19
340.217	24.75
340.429	30.89
340.641	59.56
340.854	22.7
341.066	69.8
341.278	110.76
341.491	106.67
341.703	84.14
341.915	24.75
342.128	-5.97
342.34	22.7
342.552	-14.17
342.764	-3.93
342.977	2.22
343.189	121
343.401	22.7
343.613	14.51
343.826	-61.27
344.038	-57.17
344.25	-8.02
344.462	-89.94
344.674	32.94
344.886	30.89
345.099	63.66
345.311	51.37
345.523	26.79
345.735	37.03
345.947	112.81
346.159	-10.07
346.371	-36.69
346.583	10.41
346.795	153.77
347.007	4.27
347.219	41.13
347.431	32.94
347.643	96.43
347.855	28.84
348.067	71.85
348.279	-14.17
348.491	10.41
348.703	2.22
348.915	61.61
349.127	-5.97
349.339	-18.26
349.551	-22.36
349.763	65.71
349.975	34.99
350.187	90.28
350.399	92.33
350.61	61.61
350.822	37.03
351.034	24.75
351.246	53.42
351.458	-46.93
351.669	53.42
351.881	73.9
352.093	108.71
352.305	110.76
352.517	30.89
352.728	106.67
352.94	18.6
353.152	0.17
353.363	8.36
353.575	82.09
353.787	108.71
353.999	24.75
354.21	131.24
354.422	45.23
354.633	51.37
354.845	55.47
355.057	51.37
355.268	73.9
355.48	43.18
355.692	-24.4
355.903	20.65
356.115	-75.6
356.326	-40.79
356.538	116.9
356.749	96.43
356.961	147.62
357.172	-12.12
357.384	-63.32
357.595	59.56
357.807	-34.64
358.018	-16.21
358.23	-30.55
358.441	61.61
358.653	37.03
358.864	-40.79
359.075	37.03
359.287	80.04
359.498	49.32
359.709	32.94
359.921	24.75
360.132	63.66
360.344	-16.21
360.555	63.66
360.766	22.7
360.977	102.57
361.189	39.08
361.4	-16.21
361.611	141.48
361.823	57.51
362.034	39.08
362.245	16.55
362.456	-1.88
362.667	96.43
362.879	-63.32
363.09	51.37
363.301	86.19
363.512	80.04
363.723	-24.4
363.935	-22.36
364.146	51.37
364.357	53.42
364.568	94.38
364.779	28.84
364.99	155.82
365.201	10.41
365.412	108.71
365.623	-75.6
365.834	67.75
366.045	-42.84
366.256	30.89
366.467	8.36
366.678	6.31
366.889	18.6
367.1	39.08
367.311	102.57
367.522	28.84
367.733	-10.07
367.944	71.85
368.155	-34.64
368.366	73.9
368.577	116.9
368.788	51.37
368.999	-16.21
369.209	75.95
369.42	172.2
369.631	104.62
369.842	82.09
370.053	43.18
370.264	69.8
370.474	-77.65
370.685	67.75
370.896	8.36
371.107	137.38
371.317	92.33
371.528	-12.12
371.739	63.66
371.95	106.67
372.16	69.8
372.371	-14.17
372.582	-8.02
372.792	88.23
373.003	51.37
373.214	20.65
373.424	110.76
373.635	-12.12
373.846	71.85
374.056	-16.21
374.267	12.46
374.477	-3.93
374.688	22.7
374.898	123.05
375.109	153.77
375.319	77.99
375.53	8.36
375.74	104.62
375.951	-3.93
376.161	28.84
376.372	-1.88
376.582	-3.93
376.793	49.32
377.003	-48.98
377.214	63.66
377.424	14.51
377.635	30.89
377.845	-1.88
378.055	139.43
378.266	-28.5
378.476	26.79
378.686	22.7
378.897	34.99
379.107	106.67
379.317	100.52
379.528	34.99
379.738	90.28
379.948	-10.07
380.158	55.47
380.369	75.95
380.579	39.08
380.789	4.27
380.999	84.14
381.21	45.23
381.42	151.72
381.63	2.22
381.84	106.67
382.05	110.76
382.261	65.71
382.471	67.75
382.681	16.55
382.891	67.75
383.101	80.04
383.311	-16.21
383.521	47.27
383.731	49.32
383.941	104.62
384.151	73.9
384.361	-46.93
384.571	10.41
384.781	-32.6
384.991	129.19
385.201	118.95
385.411	24.75
385.621	80.04
385.831	30.89
386.041	75.95
386.251	2.22
386.461	92.33
386.671	-16.21
386.881	28.84
387.091	88.23
387.301	41.13
387.511	10.41
387.72	82.09
387.93	16.55
388.14	-28.5
388.35	-30.55
388.56	108.71
388.769	90.28
388.979	12.46
389.189	63.66
389.399	-22.36
389.609	-1.88
389.818	67.75
390.028	65.71
390.238	34.99
390.447	30.89
390.657	49.32
390.867	28.84
391.076	-34.64
391.286	112.81
391.496	-3.93
391.705	34.99
391.915	82.09
392.125	86.19
392.334	28.84
392.544	133.29
392.753	77.99
392.963	28.84
393.172	57.51
393.382	28.84
393.591	80.04
393.801	51.37
394.01	131.24
394.22	84.14
394.429	16.55
394.639	84.14
394.848	43.18
395.058	-5.97
395.267	37.03
395.477	114.86
395.686	57.51
395.895	141.48
396.105	184.49
396.314	102.57
396.524	16.55
396.733	77.99
396.942	137.38
397.152	-3.93
397.361	71.85
397.57	116.9
397.78	45.23
397.989	133.29
398.198	92.33
398.407	67.75
398.617	18.6
398.826	-1.88
399.035	106.67
399.244	71.85
399.453	0.17
399.663	98.47
399.872	166.06
400.081	57.51
400.29	184.49
400.499	28.84
400.708	96.43
400.917	30.89
401.127	98.47
401.336	55.47
401.545	211.11
401.754	129.19
401.963	96.43
402.172	84.14
402.381	43.18
402.59	39.08
402.799	49.32
403.008	116.9
403.217	114.86
403.426	114.86
403.635	37.03
403.844	82.09
404.053	90.28
404.262	129.19
404.471	204.97
404.68	90.28
404.888	22.7
405.097	82.09
405.306	86.19
405.515	75.95
405.724	0.17
405.933	86.19
406.142	174.25
406.35	108.71
406.559	106.67
406.768	164.01
406.977	149.67
407.185	82.09
407.394	98.47
407.603	121
407.812	192.68
408.02	155.82
408.229	75.95
408.438	196.78
408.646	57.51
408.855	135.34
409.064	219.3
409.272	196.78
409.481	184.49
409.69	141.48
409.898	90.28
410.107	207.02
410.315	282.79
410.524	213.16
410.733	180.39
410.941	168.1
411.15	180.39
411.358	221.35
411.567	213.16
411.775	178.34
411.984	209.06
412.192	235.69
412.401	235.69
412.609	333.99
412.818	336.04
413.026	282.79
413.234	223.4
413.443	311.46
413.651	331.94
413.86	313.51
414.068	440.48
414.276	428.2
414.485	323.75
414.693	436.39
414.901	469.16
415.11	475.3
415.318	350.37
415.526	426.15
415.734	428.2
415.943	456.87
416.151	444.58
416.359	495.78
416.567	514.21
416.776	624.8
416.984	557.22
417.192	632.99
417.4	583.84
417.608	532.64
417.817	583.84
418.025	694.43
418.233	876.7
418.441	606.37
418.649	608.42
418.857	665.76
419.065	833.69
419.273	608.42
419.481	833.69
419.689	823.45
419.897	862.37
420.105	794.78
420.313	983.2
420.521	909.47
420.729	985.24
420.937	1005.72
421.145	1026.2
421.353	1104.03
421.561	1126.55
421.769	1134.75
421.977	1097.88
422.185	1130.65
422.393	1218.71
422.601	1357.97
422.809	1237.14
423.017	1325.21
423.224	1394.84
423.432	1484.95
423.64	1484.95
423.848	1556.63
424.056	1468.56
424.263	1630.35
424.471	1613.97
424.679	1683.6
424.887	1634.45
425.094	1857.68
425.302	1820.81
425.51	1765.52
425.718	1986.7
425.925	1933.45
426.133	2058.38
426.341	2291.85
426.548	2230.41
426.756	2193.55
426.964	2320.52
427.171	2289.8
427.379	2392.2
427.586	2594.95
427.794	2576.52
428.001	2777.22
428.209	2861.18
428.417	2758.78
428.624	2945.15
428.832	3020.92
429.039	2910.33
429.247	2834.56
429.454	3319.93
429.662	3354.74
429.869	3205.24
430.076	3512.44
430.284	3270.78
430.491	3547.25
430.699	3641.46
430.906	3786.86
431.114	3745.91
431.321	3903.6
431.528	3979.37
431.736	4081.77
431.943	4403.3
432.15	4227.18
432.358	4261.99
432.565	4608.1
432.772	4364.39
432.979	4864.1
433.187	4845.66
433.394	4903.01
433.601	5179.48
433.808	5179.48
434.016	5353.56
434.223	5296.22
434.43	5609.56
434.637	5621.84
434.844	5904.46
435.052	5996.62
435.259	5873.75
435.466	6096.97
435.673	6049.87
435.88	6447.18
436.087	6807.62
436.294	6711.36
436.501	6465.61
436.708	6670.4
436.915	6893.63
437.122	7161.92
437.329	7006.27
437.537	7198.78
437.743	7376.95
437.95	7458.87
438.157	7788.6
438.364	7921.71
438.571	7997.49
438.778	8204.33
438.985	8722.47
439.192	8474.67
439.399	8820.77
439.606	8624.17
439.813	9173.02
440.02	9586.71
440.227	9480.22
440.433	9400.35
440.64	9408.54
440.847	9590.81
441.054	9986.07
441.261	10725.38
441.467	10076.18
441.674	10598.41
441.881	10792.97
442.088	10778.63
442.294	10967.04
442.501	10921.99
442.708	11458.56
442.914	11649.02
443.121	12130.29
443.328	11761.66
443.534	12820.46
443.741	12322.8
443.948	12165.11
444.154	12924.9
444.361	12769.26
444.568	13041.64
444.774	12885.99
444.981	13074.4
445.187	13627.35
445.394	14161.87
445.6	14106.58
445.807	15226.82
446.013	14639.05
446.22	14811.08
446.426	15208.39
446.633	15714.23
446.839	15972.28
447.046	15339.46
447.252	16160.69
447.459	16318.39
447.665	16310.19
447.871	16836.52
448.078	17555.36
448.284	16967.59
448.491	17207.2
448.697	18233.24
448.903	18352.02
449.11	18550.67
449.316	17932.19
449.522	18118.55
449.728	18935.69
449.935	19261.32
450.141	18995.08
450.347	19388.29
450.553	18763.66
450.76	18831.24
450.966	20006.78
451.172	19349.38
451.378	20082.55
451.584	19398.53
451.791	19937.15
451.997	20094.84
452.203	20336.5
452.409	20141.94
452.615	20139.9
452.821	19292.04
453.027	19445.63
453.233	20127.61
453.44	19414.91
453.646	19697.53
453.852	19791.74
454.058	20305.78
454.264	19652.48
454.47	19926.91
454.676	19345.28
454.882	19890.04
455.088	18268.05
455.294	18501.52
455.5	19013.51
455.705	18788.24
455.911	18444.18
456.117	18071.45
456.323	17895.32
456.529	17055.65
456.735	17457.06
456.941	17313.7
457.147	16889.77
457.352	16549.81
457.558	16132.02
457.764	16183.22
457.97	15617.98
458.176	15583.16
458.381	15509.44
458.587	14866.38
458.793	14792.65
458.999	14088.15
459.204	14970.82
459.41	14604.24
459.616	13610.97
459.821	13531.1
460.027	13770.71
460.233	13451.23
460.438	12742.63
460.644	12845.03
460.85	12261.36
461.055	11954.16
461.261	11868.15
461.466	11085.83
461.672	10663.94
461.878	11571.19
462.083	10821.64
462.289	10584.07
462.494	10295.31
462.7	9977.87
462.905	9517.08
463.111	10049.55
463.316	10016.79
463.522	9859.09
463.727	9840.66
463.932	9652.25
464.138	9601.05
464.343	9613.34
464.549	9396.25
464.754	10024.98
464.959	9664.54
465.165	9506.84
465.37	8955.94
465.575	9000.99
465.781	9127.97
465.986	9314.33
466.191	8998.95
466.397	8808.48
466.602	8329.26
466.807	8779.81
467.012	8624.17
467.218	8642.6
467.423	8378.41
