Data from USB4F104151__76__12-12-48-252.txt Node

Date: Fri Mar 14 12:12:48 EDT 2025
User: louis
Spectrometer: USB4F10415
Trigger mode: 4
Integration Time (sec): 5.000000E-2
Scans to average: 1
Electric dark correction enabled: true
Nonlinearity correction enabled: false
Boxcar width: 0
XAxis mode: Wavelengths
Number of Pixels in Spectrum: 3648
>>>>>Begin Spectral Data<<<<<
178.204	-212.31
178.424	-212.31
178.644	-212.31
178.864	-175.44
179.084	-208.21
179.304	4.78
179.524	-30.04
179.744	21.16
179.964	29.35
180.184	23.21
180.404	-17.75
180.624	-17.75
180.844	-17.75
181.064	-40.28
181.283	62.12
181.503	-48.47
181.723	31.4
181.943	-19.8
182.163	152.23
182.383	-3.41
182.602	19.11
182.822	78.51
183.042	41.64
183.262	37.55
183.482	-21.84
183.701	-13.65
183.921	25.26
184.141	-21.84
184.361	131.75
184.58	49.83
184.8	6.83
185.02	29.35
185.239	41.64
185.459	23.21
185.679	82.6
185.898	-71
186.118	80.55
186.338	31.4
186.557	6.83
186.777	-13.65
186.997	29.35
187.216	2.73
187.436	213.67
187.655	68.27
187.875	113.32
188.095	-32.08
188.314	121.51
188.534	88.75
188.753	-154.96
188.973	21.16
189.192	133.8
189.412	-9.56
189.631	35.5
189.851	-30.04
190.07	94.89
190.29	21.16
190.509	31.4
190.729	74.41
190.948	82.6
191.168	205.48
191.387	60.07
191.607	-7.51
191.826	152.23
192.045	2.73
192.265	0.68
192.484	15.02
192.704	43.69
192.923	-21.84
193.142	133.8
193.362	8.87
193.581	43.69
193.8	92.84
194.02	117.42
194.239	6.83
194.458	35.5
194.678	-5.46
194.897	53.93
195.116	-13.65
195.335	47.79
195.555	60.07
195.774	45.74
195.993	37.55
196.212	66.22
196.432	35.5
196.651	-68.95
196.87	45.74
197.089	131.75
197.308	70.31
197.528	60.07
197.747	-11.61
197.966	6.83
198.185	105.13
198.404	8.87
198.623	43.69
198.842	19.11
199.062	148.14
199.281	27.31
199.5	53.93
199.719	55.98
199.938	141.99
200.157	127.66
200.376	84.65
200.595	185
200.814	-15.7
201.033	45.74
201.252	51.88
201.471	19.11
201.69	111.27
201.909	72.36
202.128	84.65
202.347	-3.41
202.566	21.16
202.785	-46.42
203.004	-5.46
203.223	146.09
203.442	72.36
203.661	39.59
203.879	70.31
204.098	55.98
204.317	25.26
204.536	154.28
204.755	39.59
204.974	-3.41
205.193	-23.89
205.411	109.23
205.63	55.98
205.849	47.79
206.068	49.83
206.287	78.51
206.505	-32.08
206.724	-3.41
206.943	8.87
207.162	84.65
207.381	113.32
207.599	4.78
207.818	17.07
208.037	-62.8
208.255	55.98
208.474	-7.51
208.693	19.11
208.911	29.35
209.13	33.45
209.349	98.99
209.567	39.59
209.786	119.46
210.005	49.83
210.223	31.4
210.442	49.83
210.661	80.55
210.879	49.83
211.098	-13.65
211.316	53.93
211.535	53.93
211.753	-23.89
211.972	39.59
212.191	-32.08
212.409	6.83
212.628	27.31
212.846	-42.32
213.065	8.87
213.283	98.99
213.502	111.27
213.72	62.12
213.938	103.08
214.157	-1.37
214.375	39.59
214.594	43.69
214.812	27.31
215.031	-58.71
215.249	51.88
215.467	98.99
215.686	55.98
215.904	80.55
216.122	-30.04
216.341	62.12
216.559	15.02
216.778	58.03
216.996	58.03
217.214	-5.46
217.432	4.78
217.651	-32.08
217.869	60.07
218.087	31.4
218.306	41.64
218.524	90.79
218.742	-11.61
218.96	17.07
219.179	64.17
219.397	-27.99
219.615	105.13
219.833	72.36
220.051	47.79
220.27	115.37
220.488	29.35
220.706	66.22
220.924	141.99
221.142	41.64
221.36	107.18
221.578	90.79
221.796	41.64
222.015	15.02
222.233	74.41
222.451	78.51
222.669	8.87
222.887	58.03
223.105	8.87
223.323	23.21
223.541	49.83
223.759	25.26
223.977	-56.66
224.195	92.84
224.413	82.6
224.631	-3.41
224.849	31.4
225.067	162.47
225.285	21.16
225.503	107.18
225.721	-27.99
225.939	92.84
226.157	51.88
226.375	197.29
226.592	-75.09
226.81	133.8
227.028	58.03
227.246	68.27
227.464	55.98
227.682	103.08
227.9	15.02
228.117	10.92
228.335	55.98
228.553	49.83
228.771	55.98
228.989	-23.89
229.206	37.55
229.424	19.11
229.642	49.83
229.86	23.21
230.077	47.79
230.295	21.16
230.513	74.41
230.731	-44.37
230.948	101.03
231.166	139.94
231.384	-11.61
231.601	35.5
231.819	94.89
232.037	33.45
232.254	60.07
232.472	92.84
232.689	70.31
232.907	27.31
233.125	45.74
233.342	-3.41
233.56	27.31
233.777	84.65
233.995	58.03
234.213	62.12
234.43	84.65
234.648	35.5
234.865	10.92
235.083	64.17
235.3	29.35
235.518	43.69
235.735	103.08
235.953	6.83
236.17	8.87
236.388	-44.37
236.605	125.61
236.822	76.46
237.04	12.97
237.257	-19.8
237.475	27.31
237.692	33.45
237.909	74.41
238.127	53.93
238.344	51.88
238.562	21.16
238.779	-7.51
238.996	-15.7
239.214	103.08
239.431	66.22
239.648	37.55
239.865	8.87
240.083	37.55
240.3	66.22
240.517	43.69
240.735	37.55
240.952	78.51
241.169	58.03
241.386	45.74
241.603	49.83
241.821	-71
242.038	72.36
242.255	47.79
242.472	-50.52
242.689	66.22
242.907	105.13
243.124	25.26
243.341	88.75
243.558	84.65
243.775	51.88
243.992	8.87
244.209	39.59
244.426	70.31
244.643	43.69
244.86	53.93
245.078	-30.04
245.295	72.36
245.512	-17.75
245.729	19.11
245.946	23.21
246.163	70.31
246.38	-23.89
246.597	76.46
246.814	70.31
247.031	53.93
247.248	84.65
247.464	51.88
247.681	-25.94
247.898	19.11
248.115	90.79
248.332	45.74
248.549	82.6
248.766	88.75
248.983	-30.04
249.2	-40.28
249.417	62.12
249.633	8.87
249.85	4.78
250.067	35.5
250.284	8.87
250.501	19.11
250.717	72.36
250.934	31.4
251.151	39.59
251.368	17.07
251.585	-9.56
251.801	76.46
252.018	-32.08
252.235	4.78
252.451	-32.08
252.668	58.03
252.885	121.51
253.102	10.92
253.318	27.31
253.535	45.74
253.752	8.87
253.968	19.11
254.185	8.87
254.401	6.83
254.618	121.51
254.835	60.07
255.051	101.03
255.268	29.35
255.484	6.83
255.701	72.36
255.917	10.92
256.134	15.02
256.351	115.37
256.567	4.78
256.784	-48.47
257	-21.84
257.217	35.5
257.433	45.74
257.65	27.31
257.866	47.79
258.082	4.78
258.299	-36.18
258.515	80.55
258.732	96.94
258.948	4.78
259.165	10.92
259.381	-56.66
259.597	82.6
259.814	15.02
260.03	29.35
260.246	-13.65
260.463	64.17
260.679	107.18
260.895	115.37
261.112	58.03
261.328	86.7
261.544	25.26
261.761	70.31
261.977	15.02
262.193	31.4
262.409	29.35
262.626	66.22
262.842	31.4
263.058	-7.51
263.274	123.56
263.49	15.02
263.707	21.16
263.923	60.07
264.139	-46.42
264.355	90.79
264.571	141.99
264.787	-9.56
265.004	92.84
265.22	19.11
265.436	15.02
265.652	-21.84
265.868	43.69
266.084	-34.13
266.3	6.83
266.516	-25.94
266.732	31.4
266.948	37.55
267.164	-36.18
267.38	70.31
267.596	58.03
267.812	111.27
268.028	21.16
268.244	-9.56
268.46	0.68
268.676	-3.41
268.892	55.98
269.108	-44.37
269.324	51.88
269.54	-27.99
269.756	94.89
269.972	0.68
270.188	47.79
270.403	-5.46
270.619	-15.7
270.835	23.21
271.051	76.46
271.267	62.12
271.483	-3.41
271.698	0.68
271.914	19.11
272.13	29.35
272.346	6.83
272.562	88.75
272.777	39.59
272.993	8.87
273.209	10.92
273.425	82.6
273.64	-62.8
273.856	111.27
274.072	-15.7
274.287	-5.46
274.503	109.23
274.719	47.79
274.934	51.88
275.15	35.5
275.366	0.68
275.581	35.5
275.797	49.83
276.012	10.92
276.228	25.26
276.444	103.08
276.659	135.85
276.875	0.68
277.09	74.41
277.306	31.4
277.521	51.88
277.737	55.98
277.952	101.03
278.168	90.79
278.383	29.35
278.599	31.4
278.814	80.55
279.03	19.11
279.245	41.64
279.461	86.7
279.676	51.88
279.892	21.16
280.107	4.78
280.322	-17.75
280.538	25.26
280.753	35.5
280.969	80.55
281.184	86.7
281.399	123.56
281.615	76.46
281.83	68.27
282.045	-3.41
282.26	51.88
282.476	84.65
282.691	76.46
282.906	21.16
283.122	70.31
283.337	101.03
283.552	47.79
283.767	68.27
283.983	88.75
284.198	80.55
284.413	-17.75
284.628	6.83
284.843	60.07
285.058	103.08
285.274	17.07
285.489	35.5
285.704	162.47
285.919	-50.52
286.134	29.35
286.349	-23.89
286.564	-19.8
286.779	152.23
286.995	12.97
287.21	-48.47
287.425	49.83
287.64	27.31
287.855	98.99
288.07	6.83
288.285	-7.51
288.5	72.36
288.715	49.83
288.93	-25.94
289.145	88.75
289.36	101.03
289.575	25.26
289.79	-17.75
290.004	31.4
290.219	60.07
290.434	133.8
290.649	4.78
290.864	29.35
291.079	-9.56
291.294	31.4
291.509	-11.61
291.724	37.55
291.938	8.87
292.153	121.51
292.368	115.37
292.583	39.59
292.798	41.64
293.012	39.59
293.227	-1.37
293.442	-7.51
293.657	121.51
293.871	76.46
294.086	35.5
294.301	84.65
294.516	82.6
294.73	43.69
294.945	-3.41
295.16	58.03
295.374	92.84
295.589	25.26
295.804	-17.75
296.018	60.07
296.233	55.98
296.447	80.55
296.662	-73.04
296.877	137.9
297.091	78.51
297.306	66.22
297.52	-19.8
297.735	72.36
297.949	-11.61
298.164	98.99
298.378	19.11
298.593	17.07
298.807	-7.51
299.022	82.6
299.236	94.89
299.451	4.78
299.665	45.74
299.88	41.64
300.094	0.68
300.309	-7.51
300.523	103.08
300.737	15.02
300.952	58.03
301.166	23.21
301.381	-21.84
301.595	-7.51
301.809	45.74
302.024	-19.8
302.238	15.02
302.452	45.74
302.667	19.11
302.881	111.27
303.095	107.18
303.309	105.13
303.524	6.83
303.738	29.35
303.952	43.69
304.166	90.79
304.381	-34.13
304.595	146.09
304.809	-48.47
305.023	117.42
305.237	-30.04
305.452	55.98
305.666	-15.7
305.88	72.36
306.094	66.22
306.308	39.59
306.522	101.03
306.736	82.6
306.95	84.65
307.164	-58.71
307.379	-15.7
307.593	121.51
307.807	101.03
308.021	19.11
308.235	74.41
308.449	-56.66
308.663	43.69
308.877	129.7
309.091	-3.41
309.305	35.5
309.519	-40.28
309.733	17.07
309.947	-46.42
310.161	39.59
310.374	127.66
310.588	133.8
310.802	-13.65
311.016	-19.8
311.23	55.98
311.444	-38.23
311.658	17.07
311.872	49.83
312.085	0.68
312.299	123.56
312.513	6.83
312.727	6.83
312.941	41.64
313.154	90.79
313.368	25.26
313.582	62.12
313.796	35.5
314.009	47.79
314.223	84.65
314.437	45.74
314.651	29.35
314.864	-23.89
315.078	2.73
315.292	-7.51
315.505	33.45
315.719	25.26
315.933	76.46
316.146	-23.89
316.36	-11.61
316.573	82.6
316.787	33.45
317.001	82.6
317.214	2.73
317.428	-9.56
317.641	-42.32
317.855	58.03
318.068	-11.61
318.282	8.87
318.495	98.99
318.709	58.03
318.922	66.22
319.136	58.03
319.349	80.55
319.563	15.02
319.776	43.69
319.99	31.4
320.203	12.97
320.417	-1.37
320.63	29.35
320.843	121.51
321.057	17.07
321.27	53.93
321.483	21.16
321.697	86.7
321.91	25.26
322.124	68.27
322.337	53.93
322.55	10.92
322.763	80.55
322.977	15.02
323.19	66.22
323.403	35.5
323.617	55.98
323.83	6.83
324.043	-1.37
324.256	90.79
324.469	-7.51
324.683	31.4
324.896	60.07
325.109	72.36
325.322	-13.65
325.535	133.8
325.748	109.23
325.962	-3.41
326.175	25.26
326.388	123.56
326.601	127.66
326.814	41.64
327.027	4.78
327.24	135.85
327.453	-52.56
327.666	82.6
327.879	94.89
328.092	164.52
328.305	62.12
328.518	-21.84
328.731	12.97
328.944	80.55
329.157	6.83
329.37	35.5
329.583	45.74
329.796	146.09
330.009	-50.52
330.222	31.4
330.435	78.51
330.648	35.5
330.861	51.88
331.073	66.22
331.286	66.22
331.499	94.89
331.712	-30.04
331.925	33.45
332.138	49.83
332.35	70.31
332.563	21.16
332.776	98.99
332.989	43.69
333.202	64.17
333.414	-13.65
333.627	33.45
333.84	2.73
334.053	80.55
334.265	4.78
334.478	12.97
334.691	60.07
334.903	8.87
335.116	47.79
335.329	80.55
335.541	41.64
335.754	146.09
335.966	15.02
336.179	47.79
336.392	58.03
336.604	35.5
336.817	66.22
337.029	113.32
337.242	47.79
337.454	60.07
337.667	53.93
337.88	68.27
338.092	60.07
338.305	45.74
338.517	-15.7
338.729	60.07
338.942	96.94
339.154	-46.42
339.367	-118.1
339.579	15.02
339.792	37.55
340.004	64.17
340.217	15.02
340.429	125.61
340.641	10.92
340.854	51.88
341.066	76.46
341.278	47.79
341.491	55.98
341.703	43.69
341.915	0.68
342.128	64.17
342.34	74.41
342.552	37.55
342.764	-17.75
342.977	49.83
343.189	43.69
343.401	49.83
343.613	-5.46
343.826	-48.47
344.038	-68.95
344.25	-5.46
344.462	45.74
344.674	49.83
344.886	-9.56
345.099	84.65
345.311	98.99
345.523	12.97
345.735	-62.8
345.947	39.59
346.159	76.46
346.371	19.11
346.583	-27.99
346.795	139.94
347.007	29.35
347.219	58.03
347.431	-15.7
347.643	31.4
347.855	-64.85
348.067	115.37
348.279	2.73
348.491	25.26
348.703	90.79
348.915	19.11
349.127	12.97
349.339	33.45
349.551	10.92
349.763	66.22
349.975	41.64
350.187	101.03
350.399	115.37
350.61	-3.41
350.822	-21.84
351.034	96.94
351.246	47.79
351.458	39.59
351.669	31.4
351.881	101.03
352.093	148.14
352.305	88.75
352.517	6.83
352.728	105.13
352.94	45.74
353.152	84.65
353.363	-34.13
353.575	125.61
353.787	101.03
353.999	78.51
354.21	41.64
354.422	131.75
354.633	47.79
354.845	82.6
355.057	76.46
355.268	98.99
355.48	17.07
355.692	21.16
355.903	45.74
356.115	-36.18
356.326	-42.32
356.538	103.08
356.749	35.5
356.961	98.99
357.172	103.08
357.384	0.68
357.595	150.18
357.807	31.4
358.018	-27.99
358.23	-25.94
358.441	86.7
358.653	35.5
358.864	51.88
359.075	17.07
359.287	25.26
359.498	58.03
359.709	27.31
359.921	70.31
360.132	64.17
360.344	10.92
360.555	15.02
360.766	31.4
360.977	62.12
361.189	94.89
361.4	0.68
361.611	10.92
361.823	119.46
362.034	103.08
362.245	-105.81
362.456	96.94
362.667	49.83
362.879	17.07
363.09	86.7
363.301	53.93
363.512	4.78
363.723	12.97
363.935	33.45
364.146	82.6
364.357	39.59
364.568	76.46
364.779	8.87
364.99	96.94
365.201	-11.61
365.412	156.33
365.623	6.83
365.834	-11.61
366.045	12.97
366.256	47.79
366.467	105.13
366.678	27.31
366.889	113.32
367.1	51.88
367.311	82.6
367.522	-17.75
367.733	98.99
367.944	37.55
368.155	43.69
368.366	68.27
368.577	109.23
368.788	35.5
368.999	37.55
369.209	12.97
369.42	127.66
369.631	125.61
369.842	66.22
370.053	12.97
370.264	23.21
370.474	-5.46
370.685	25.26
370.896	82.6
371.107	23.21
371.317	96.94
371.528	-19.8
371.739	109.23
371.95	60.07
372.16	62.12
372.371	-5.46
372.582	113.32
372.792	76.46
373.003	55.98
373.214	23.21
373.424	31.4
373.635	-15.7
373.846	135.85
374.056	33.45
374.267	62.12
374.477	68.27
374.688	-11.61
374.898	-34.13
375.109	70.31
375.319	80.55
375.53	148.14
375.74	72.36
375.951	55.98
376.161	92.84
376.372	105.13
376.582	12.97
376.793	47.79
377.003	-83.28
377.214	96.94
377.424	86.7
377.635	62.12
377.845	-15.7
378.055	96.94
378.266	-19.8
378.476	96.94
378.686	6.83
378.897	0.68
379.107	113.32
379.317	92.84
379.528	-19.8
379.738	92.84
379.948	-1.37
380.158	35.5
380.369	-30.04
380.579	55.98
380.789	6.83
380.999	47.79
381.21	2.73
381.42	133.8
381.63	-25.94
381.84	43.69
382.05	62.12
382.261	45.74
382.471	131.75
382.681	64.17
382.891	12.97
383.101	53.93
383.311	15.02
383.521	94.89
383.731	64.17
383.941	125.61
384.151	119.46
384.361	68.27
384.571	109.23
384.781	37.55
384.991	74.41
385.201	84.65
385.411	17.07
385.621	58.03
385.831	62.12
386.041	35.5
386.251	60.07
386.461	88.75
386.671	45.74
386.881	70.31
387.091	-5.46
387.301	8.87
387.511	10.92
387.72	53.93
387.93	86.7
388.14	72.36
388.35	60.07
388.56	80.55
388.769	62.12
388.979	21.16
389.189	74.41
389.399	82.6
389.609	113.32
389.818	125.61
390.028	117.42
390.238	121.51
390.447	101.03
390.657	49.83
390.867	27.31
391.076	-23.89
391.286	105.13
391.496	31.4
391.705	31.4
391.915	105.13
392.125	62.12
392.334	60.07
392.544	189.1
392.753	121.51
392.963	29.35
393.172	25.26
393.382	-7.51
393.591	195.24
393.801	55.98
394.01	180.9
394.22	62.12
394.429	82.6
394.639	29.35
394.848	74.41
395.058	39.59
395.267	78.51
395.477	82.6
395.686	8.87
395.895	119.46
396.105	148.14
396.314	131.75
396.524	84.65
396.733	62.12
396.942	135.85
397.152	37.55
397.361	107.18
397.57	37.55
397.78	70.31
397.989	76.46
398.198	66.22
398.407	86.7
398.617	129.7
398.826	98.99
399.035	94.89
399.244	96.94
399.453	39.59
399.663	101.03
399.872	82.6
400.081	60.07
400.29	141.99
400.499	39.59
400.708	96.94
400.917	37.55
401.127	119.46
401.336	127.66
401.545	113.32
401.754	189.1
401.963	215.72
402.172	27.31
402.381	4.78
402.59	68.27
402.799	90.79
403.008	33.45
403.217	113.32
403.426	135.85
403.635	86.7
403.844	92.84
404.053	127.66
404.262	121.51
404.471	137.9
404.68	103.08
404.888	49.83
405.097	43.69
405.306	103.08
405.515	105.13
405.724	92.84
405.933	111.27
406.142	117.42
406.35	174.76
406.559	72.36
406.768	201.38
406.977	154.28
407.185	156.33
407.394	135.85
407.603	146.09
407.812	86.7
408.02	211.62
408.229	189.1
408.438	199.34
408.646	98.99
408.855	191.14
409.064	197.29
409.272	113.32
409.481	228.01
409.69	197.29
409.898	168.62
410.107	98.99
410.315	242.34
410.524	162.47
410.733	150.18
410.941	135.85
411.15	236.2
411.358	254.63
411.567	348.84
411.775	201.38
411.984	268.97
412.192	281.25
412.401	162.47
412.609	352.93
412.818	391.84
413.026	338.6
413.234	342.69
413.443	330.41
413.651	309.93
413.86	418.47
414.068	373.41
414.276	381.6
414.485	387.75
414.693	404.13
414.901	494.24
415.11	414.37
415.318	348.84
415.526	441
415.734	445.09
415.943	504.48
416.151	563.87
416.359	385.7
416.567	484
416.776	565.92
416.984	555.68
417.192	604.83
417.4	563.87
417.608	543.39
417.817	613.03
418.025	658.08
418.233	776.86
418.441	547.49
418.649	709.28
418.857	744.1
419.065	746.14
419.273	746.14
419.481	805.53
419.689	766.62
419.897	860.83
420.105	875.17
420.313	928.41
420.521	977.56
420.729	1022.62
420.937	907.93
421.145	916.12
421.353	1026.72
421.561	1051.29
421.769	1104.54
421.977	1198.74
422.185	1221.27
422.393	1233.56
422.601	1225.37
422.809	1286.81
423.017	1307.29
423.224	1446.55
423.432	1553.04
423.64	1399.45
423.848	1643.15
424.056	1530.52
424.263	1565.33
424.471	1645.2
424.679	1661.59
424.887	1649.3
425.094	1780.37
425.302	1806.99
425.51	1856.14
425.718	1972.88
425.925	1919.63
426.133	1974.92
426.341	2065.04
426.548	2200.2
426.756	2124.43
426.964	2273.93
427.171	2286.22
427.379	2497.16
427.586	2464.39
427.794	2460.29
428.001	2697.86
428.209	2767.49
428.417	2820.74
428.624	2929.28
428.832	2857.6
429.039	2830.98
429.247	2835.07
429.454	3166.84
429.662	3449.46
429.869	3072.64
430.076	3377.78
430.284	3318.39
430.491	3445.37
430.699	3531.38
430.906	3592.82
431.114	3605.11
431.321	3840.62
431.528	3928.69
431.736	4176.49
431.943	4250.22
432.15	4168.3
432.358	4409.96
432.565	4502.12
432.772	4399.72
432.979	4635.24
433.187	4827.74
433.394	4807.27
433.601	5003.87
433.808	4958.81
434.016	5096.03
434.223	5270.11
434.43	5544.53
434.637	5470.81
434.844	5726.8
435.052	5972.56
435.259	5937.74
435.466	6011.47
435.673	5782.1
435.88	6197.84
436.087	6545.99
436.294	6703.68
436.501	6285.9
436.708	6519.37
436.915	6791.75
437.122	6994.5
437.329	6822.47
437.537	7189.05
437.743	7404.09
437.95	7469.62
438.157	7752.24
438.364	7817.78
438.571	7707.19
438.778	7873.07
438.985	8645.16
439.192	8364.59
439.399	8649.25
439.606	8575.53
439.813	8897.06
440.02	9413.15
440.227	9290.27
440.433	9222.69
440.64	9505.31
440.847	9429.53
441.054	9497.11
441.261	10476.04
441.467	10179.09
441.674	10232.33
441.881	10652.17
442.088	10590.73
442.294	10553.87
442.501	10969.6
442.708	11076.1
442.914	11328
443.121	12001.78
443.328	11745.78
443.534	12306.93
443.741	12046.83
443.948	11934.2
444.154	12743.14
444.361	12925.41
444.568	12704.23
444.774	12960.23
444.981	12786.15
445.187	13459.93
445.394	14051.8
445.6	13847
445.807	15100.36
446.013	14254.55
446.22	14649.8
446.426	15382.98
446.633	15370.69
446.839	15991.22
447.046	15354.3
447.252	16093.62
447.459	16150.96
447.665	16322.99
447.871	16855.47
448.078	17658.27
448.284	16513.45
448.491	17177
448.697	17607.07
448.903	18393.49
449.11	18082.2
449.316	17916.31
449.522	18563.47
449.728	18508.18
449.935	18995.59
450.141	18692.49
450.347	19257.73
450.553	18774.41
450.76	18915.72
450.966	19591.55
451.172	19394.95
451.378	19935.61
451.584	19407.23
451.791	19794.3
451.997	19822.97
452.203	20167.03
452.409	20132.22
452.615	20101.5
452.821	19333.51
453.027	19050.89
453.233	20251
453.44	19351.94
453.646	19370.37
453.852	19874.17
454.058	20007.29
454.264	19437.95
454.47	19835.26
454.676	19276.16
454.882	20115.83
455.088	18278.8
455.294	18422.16
455.5	18770.32
455.705	19104.14
455.911	18512.27
456.117	17815.96
456.323	17734.04
456.529	16624.04
456.735	17240.48
456.941	17160.61
457.147	16667.05
457.352	16163.25
457.558	15964.6
457.764	16067
457.97	15538.62
458.176	15307.2
458.381	15290.82
458.587	14711.24
458.793	14494.16
458.999	13834.71
459.204	14758.35
459.41	14346.7
459.616	13263.33
459.821	13390.3
460.027	13337.06
460.233	13201.89
460.438	12610.03
460.644	12642.79
460.85	12083.7
461.055	12134.9
461.261	11862.52
461.466	11065.86
461.672	10670.6
461.878	11350.53
462.083	10699.27
462.289	10480.14
462.494	10234.38
462.7	9871.89
462.905	9656.86
463.111	10138.13
463.316	10025.49
463.522	9820.69
463.727	9660.95
463.932	9419.29
464.138	9499.16
464.343	9536.03
464.549	9286.17
464.754	9591.32
464.959	9595.42
465.165	9407
465.37	9093.66
465.575	8864.29
465.781	9112.1
465.986	9267.74
466.191	8843.81
466.397	8739.37
466.602	8270.38
466.807	8612.39
467.012	8634.92
467.218	8761.89
467.423	8458.79
467.628	8501.8
467.833	8897.06
468.038	8575.53
468.244	8327.72
