Data from USB4F104151__89__12-13-04-250.txt Node

Date: Fri Mar 14 12:13:04 EDT 2025
User: louis
Spectrometer: USB4F10415
Trigger mode: 4
Integration Time (sec): 5.000000E-2
Scans to average: 1
Electric dark correction enabled: true
Nonlinearity correction enabled: false
Boxcar width: 0
XAxis mode: Wavelengths
Number of Pixels in Spectrum: 3648
>>>>>Begin Spectral Data<<<<<
178.204	-167.76
178.424	-167.76
178.644	-167.76
178.864	-311.12
179.084	-243.54
179.304	16.55
179.524	-79.7
179.744	-42.84
179.964	63.66
180.184	8.36
180.404	39.08
180.624	-36.69
180.844	67.75
181.064	-5.97
181.283	-38.74
181.503	-18.26
181.723	26.79
181.943	-71.51
182.163	90.28
182.383	43.18
182.602	71.85
182.822	67.75
183.042	30.89
183.262	4.27
183.482	-73.56
183.701	-59.22
183.921	26.79
184.141	-75.6
184.361	4.27
184.58	57.51
184.8	14.51
185.02	30.89
185.239	49.32
185.459	4.27
185.679	-57.17
185.898	-48.98
186.118	88.23
186.338	37.03
186.557	61.61
186.777	-22.36
186.997	45.23
187.216	-32.6
187.436	94.38
187.655	49.32
187.875	166.06
188.095	-20.31
188.314	129.19
188.534	88.23
188.753	26.79
188.973	4.27
189.192	20.65
189.412	0.17
189.631	16.55
189.851	-3.93
190.07	16.55
190.29	-40.79
190.509	-22.36
190.729	12.46
190.948	114.86
191.168	155.82
191.387	55.47
191.607	14.51
191.826	51.37
192.045	18.6
192.265	12.46
192.484	51.37
192.704	53.42
192.923	26.79
193.142	172.2
193.362	94.38
193.581	161.96
193.8	20.65
194.02	55.47
194.239	-32.6
194.458	61.61
194.678	2.22
194.897	41.13
195.116	-36.69
195.335	37.03
195.555	59.56
195.774	61.61
195.993	37.03
196.212	12.46
196.432	39.08
196.651	-8.02
196.87	26.79
197.089	145.58
197.308	108.71
197.528	10.41
197.747	18.6
197.966	61.61
198.185	92.33
198.404	-26.45
198.623	39.08
198.842	16.55
199.062	-24.4
199.281	4.27
199.5	-38.74
199.719	32.94
199.938	51.37
200.157	96.43
200.376	88.23
200.595	30.89
200.814	53.42
201.033	-48.98
201.252	71.85
201.471	0.17
201.69	43.18
201.909	2.22
202.128	61.61
202.347	108.71
202.566	10.41
202.785	24.75
203.004	0.17
203.223	131.24
203.442	4.27
203.661	53.42
203.879	47.27
204.098	118.95
204.317	8.36
204.536	43.18
204.755	26.79
204.974	43.18
205.193	94.38
205.411	57.51
205.63	24.75
205.849	-57.17
206.068	24.75
206.287	86.19
206.505	2.22
206.724	-46.93
206.943	-12.12
207.162	4.27
207.381	45.23
207.599	-34.64
207.818	47.27
208.037	82.09
208.255	-34.64
208.474	65.71
208.693	-1.88
208.911	41.13
209.13	-14.17
209.349	24.75
209.567	67.75
209.786	16.55
210.005	43.18
210.223	-12.12
210.442	18.6
210.661	-10.07
210.879	18.6
211.098	-34.64
211.316	8.36
211.535	80.04
211.753	-8.02
211.972	22.7
212.191	-36.69
212.409	-18.26
212.628	26.79
212.846	18.6
213.065	-28.5
213.283	98.47
213.502	-51.03
213.72	106.67
213.938	2.22
214.157	32.94
214.375	127.14
214.594	-8.02
214.812	61.61
215.031	14.51
215.249	-12.12
215.467	-36.69
215.686	-36.69
215.904	80.04
216.122	-5.97
216.341	123.05
216.559	32.94
216.778	20.65
216.996	96.43
217.214	32.94
217.432	26.79
217.651	-30.55
217.869	-20.31
218.087	-20.31
218.306	8.36
218.524	-14.17
218.742	-24.4
218.96	-51.03
219.179	-1.88
219.397	8.36
219.615	121
219.833	26.79
220.051	14.51
220.27	39.08
220.488	161.96
220.706	45.23
220.924	-63.32
221.142	82.09
221.36	10.41
221.578	24.75
221.796	84.14
222.015	-28.5
222.233	-14.17
222.451	75.95
222.669	-71.51
222.887	65.71
223.105	14.51
223.323	53.42
223.541	-57.17
223.759	43.18
223.977	26.79
224.195	131.24
224.413	37.03
224.631	77.99
224.849	-22.36
225.067	157.86
225.285	-30.55
225.503	-12.12
225.721	2.22
225.939	37.03
226.157	59.56
226.375	112.81
226.592	-53.08
226.81	-16.21
227.028	28.84
227.246	37.03
227.464	63.66
227.682	65.71
227.9	108.71
228.117	-26.45
228.335	30.89
228.553	4.27
228.771	51.37
228.989	43.18
229.206	8.36
229.424	8.36
229.642	-8.02
229.86	-3.93
230.077	96.43
230.295	26.79
230.513	-24.4
230.731	67.75
230.948	118.95
231.166	32.94
231.384	20.65
231.601	-40.79
231.819	114.86
232.037	-24.4
232.254	30.89
232.472	28.84
232.689	24.75
232.907	71.85
233.125	-51.03
233.342	-3.93
233.56	6.31
233.777	39.08
233.995	-5.97
234.213	32.94
234.43	34.99
234.648	53.42
234.865	-26.45
235.083	96.43
235.3	57.51
235.518	-14.17
235.735	110.76
235.953	77.99
236.17	-20.31
236.388	0.17
236.605	26.79
236.822	133.29
237.04	71.85
237.257	16.55
237.475	-22.36
237.692	98.47
237.909	86.19
238.127	-36.69
238.344	30.89
238.562	86.19
238.779	-24.4
238.996	12.46
239.214	6.31
239.431	80.04
239.648	18.6
239.865	53.42
240.083	104.62
240.3	22.7
240.517	-42.84
240.735	82.09
240.952	114.86
241.169	69.8
241.386	61.61
241.603	-1.88
241.821	-57.17
242.038	39.08
242.255	82.09
242.472	8.36
242.689	63.66
242.907	65.71
243.124	45.23
243.341	26.79
243.558	28.84
243.775	-8.02
243.992	45.23
244.209	30.89
244.426	84.14
244.643	32.94
244.86	-10.07
245.078	82.09
245.295	94.38
245.512	108.71
245.729	-34.64
245.946	-16.21
246.163	4.27
246.38	43.18
246.597	-44.88
246.814	49.32
247.031	-34.64
247.248	32.94
247.464	22.7
247.681	2.22
247.898	63.66
248.115	16.55
248.332	73.9
248.549	73.9
248.766	98.47
248.983	39.08
249.2	28.84
249.417	65.71
249.633	-10.07
249.85	32.94
250.067	69.8
250.284	41.13
250.501	-18.26
250.717	18.6
250.934	-5.97
251.151	-63.32
251.368	14.51
251.585	32.94
251.801	86.19
252.018	22.7
252.235	121
252.451	32.94
252.668	-16.21
252.885	96.43
253.102	161.96
253.318	12.46
253.535	26.79
253.752	-5.97
253.968	-1.88
254.185	10.41
254.401	80.04
254.618	55.47
254.835	28.84
255.051	59.56
255.268	0.17
255.484	88.23
255.701	45.23
255.917	123.05
256.134	-75.6
256.351	32.94
256.567	-36.69
256.784	59.56
257	-36.69
257.217	77.99
257.433	51.37
257.65	24.75
257.866	75.95
258.082	-8.02
258.299	-30.55
258.515	22.7
258.732	4.27
258.948	-26.45
259.165	-40.79
259.381	20.65
259.597	-1.88
259.814	51.37
260.03	22.7
260.246	32.94
260.463	123.05
260.679	145.58
260.895	16.55
261.112	0.17
261.328	80.04
261.544	-28.5
261.761	114.86
261.977	47.27
262.193	-100.18
262.409	75.95
262.626	47.27
262.842	82.09
263.058	-28.5
263.274	34.99
263.49	-24.4
263.707	67.75
263.923	-14.17
264.139	-12.12
264.355	49.32
264.571	108.71
264.787	20.65
265.004	67.75
265.22	69.8
265.436	28.84
265.652	-104.28
265.868	53.42
266.084	-20.31
266.3	45.23
266.516	-14.17
266.732	-42.84
266.948	127.14
267.164	-28.5
267.38	37.03
267.596	121
267.812	92.33
268.028	59.56
268.244	80.04
268.46	-61.27
268.676	24.75
268.892	14.51
269.108	-14.17
269.324	-61.27
269.54	-16.21
269.756	82.09
269.972	-94.04
270.188	-20.31
270.403	28.84
270.619	49.32
270.835	6.31
271.051	34.99
271.267	-10.07
271.483	20.65
271.698	75.95
271.914	-28.5
272.13	43.18
272.346	-5.97
272.562	53.42
272.777	67.75
272.993	82.09
273.209	-44.88
273.425	39.08
273.64	43.18
273.856	80.04
274.072	-12.12
274.287	-55.12
274.503	96.43
274.719	26.79
274.934	-24.4
275.15	-98.13
275.366	-10.07
275.581	-63.32
275.797	4.27
276.012	34.99
276.228	-28.5
276.444	47.27
276.659	114.86
276.875	24.75
277.09	30.89
277.306	24.75
277.521	67.75
277.737	65.71
277.952	-14.17
278.168	51.37
278.383	106.67
278.599	39.08
278.814	98.47
279.03	20.65
279.245	55.47
279.461	2.22
279.676	71.85
279.892	-36.69
280.107	-8.02
280.322	10.41
280.538	4.27
280.753	-5.97
280.969	-1.88
281.184	59.56
281.399	106.67
281.615	57.51
281.83	37.03
282.045	-22.36
282.26	-3.93
282.476	77.99
282.691	30.89
282.906	59.56
283.122	84.14
283.337	71.85
283.552	59.56
283.767	12.46
283.983	69.8
284.198	-71.51
284.413	22.7
284.628	-112.47
284.843	86.19
285.058	92.33
285.274	34.99
285.489	-14.17
285.704	94.38
285.919	61.61
286.134	-24.4
286.349	41.13
286.564	53.42
286.779	114.86
286.995	43.18
287.21	4.27
287.425	188.58
287.64	32.94
287.855	-75.6
288.07	30.89
288.285	106.67
288.5	-20.31
288.715	41.13
288.93	43.18
289.145	10.41
289.36	28.84
289.575	51.37
289.79	92.33
290.004	41.13
290.219	112.81
290.434	39.08
290.649	-20.31
290.864	41.13
291.079	37.03
291.294	-1.88
291.509	-34.64
291.724	69.8
291.938	-48.98
292.153	57.51
292.368	0.17
292.583	51.37
292.798	34.99
293.012	88.23
293.227	34.99
293.442	0.17
293.657	28.84
293.871	32.94
294.086	59.56
294.301	139.43
294.516	82.09
294.73	45.23
294.945	-3.93
295.16	45.23
295.374	145.58
295.589	143.53
295.804	22.7
296.018	12.46
296.233	63.66
296.447	75.95
296.662	-3.93
296.877	61.61
297.091	73.9
297.306	-18.26
297.52	129.19
297.735	39.08
297.949	41.13
298.164	30.89
298.378	8.36
298.593	-65.36
298.807	0.17
299.022	67.75
299.236	112.81
299.451	4.27
299.665	-44.88
299.88	47.27
300.094	65.71
300.309	77.99
300.523	41.13
300.737	49.32
300.952	77.99
301.166	43.18
301.381	-14.17
301.595	-20.31
301.809	82.09
302.024	-26.45
302.238	8.36
302.452	92.33
302.667	37.03
302.881	196.78
303.095	133.29
303.309	-1.88
303.524	43.18
303.738	61.61
303.952	-20.31
304.166	14.51
304.381	-12.12
304.595	32.94
304.809	-36.69
305.023	47.27
305.237	-18.26
305.452	-18.26
305.666	45.23
305.88	4.27
306.094	37.03
306.308	143.53
306.522	112.81
306.736	-40.79
306.95	73.9
307.164	-24.4
307.379	-1.88
307.593	63.66
307.807	32.94
308.021	2.22
308.235	28.84
308.449	-57.17
308.663	30.89
308.877	106.67
309.091	26.79
309.305	47.27
309.519	-75.6
309.733	65.71
309.947	-12.12
310.161	104.62
310.374	88.23
310.588	34.99
310.802	-5.97
311.016	-57.17
311.23	51.37
311.444	20.65
311.658	26.79
311.872	118.95
312.085	100.52
312.299	102.57
312.513	49.32
312.727	102.57
312.941	-40.79
313.154	61.61
313.368	-20.31
313.582	55.47
313.796	75.95
314.009	80.04
314.223	98.47
314.437	34.99
314.651	-1.88
314.864	20.65
315.078	6.31
315.292	-26.45
315.505	-16.21
315.719	-14.17
315.933	63.66
316.146	-3.93
316.36	14.51
316.573	53.42
316.787	88.23
317.001	-24.4
317.214	6.31
317.428	-5.97
317.641	-3.93
317.855	2.22
318.068	24.75
318.282	55.47
318.495	174.25
318.709	-3.93
318.922	39.08
319.136	75.95
319.349	4.27
319.563	-3.93
319.776	4.27
319.99	-48.98
320.203	84.14
320.417	12.46
320.63	129.19
320.843	86.19
321.057	37.03
321.27	-48.98
321.483	22.7
321.697	-5.97
321.91	49.32
322.124	82.09
322.337	77.99
322.55	-18.26
322.763	8.36
322.977	20.65
323.19	-51.03
323.403	57.51
323.617	92.33
323.83	55.47
324.043	32.94
324.256	-24.4
324.469	-3.93
324.683	121
324.896	-34.64
325.109	100.52
325.322	-32.6
325.535	102.57
325.748	41.13
325.962	24.75
326.175	-10.07
326.388	20.65
326.601	65.71
326.814	-12.12
327.027	69.8
327.24	53.42
327.453	49.32
327.666	77.99
327.879	67.75
328.092	110.76
328.305	41.13
328.518	39.08
328.731	22.7
328.944	37.03
329.157	20.65
329.37	-34.64
329.583	110.76
329.796	106.67
330.009	-57.17
330.222	92.33
330.435	55.47
330.648	84.14
330.861	22.7
331.073	12.46
331.286	110.76
331.499	-46.93
331.712	-81.75
331.925	39.08
332.138	43.18
332.35	18.6
332.563	2.22
332.776	80.04
332.989	0.17
333.202	-20.31
333.414	-14.17
333.627	116.9
333.84	-10.07
334.053	69.8
334.265	34.99
334.478	59.56
334.691	53.42
334.903	41.13
335.116	-32.6
335.329	43.18
335.541	59.56
335.754	24.75
335.966	73.9
336.179	20.65
336.392	28.84
336.604	43.18
336.817	34.99
337.029	30.89
337.242	-24.4
337.454	-20.31
337.667	37.03
337.88	8.36
338.092	51.37
338.305	59.56
338.517	28.84
338.729	133.29
338.942	92.33
339.154	14.51
339.367	4.27
339.579	43.18
339.792	-73.56
340.004	67.75
340.217	2.22
340.429	92.33
340.641	-28.5
340.854	-1.88
341.066	-32.6
341.278	30.89
341.491	57.51
341.703	41.13
341.915	41.13
342.128	45.23
342.34	80.04
342.552	-3.93
342.764	123.05
342.977	-24.4
343.189	65.71
343.401	71.85
343.613	-22.36
343.826	-18.26
344.038	-1.88
344.25	61.61
344.462	-63.32
344.674	80.04
344.886	37.03
345.099	18.6
345.311	53.42
345.523	-1.88
345.735	-55.12
345.947	26.79
346.159	90.28
346.371	88.23
346.583	57.51
346.795	110.76
347.007	22.7
347.219	59.56
347.431	55.47
347.643	8.36
347.855	16.55
348.067	104.62
348.279	61.61
348.491	28.84
348.703	63.66
348.915	14.51
349.127	41.13
349.339	28.84
349.551	12.46
349.763	104.62
349.975	8.36
350.187	104.62
350.399	127.14
350.61	155.82
350.822	53.42
351.034	57.51
351.246	-59.22
351.458	100.52
351.669	43.18
351.881	18.6
352.093	100.52
352.305	28.84
352.517	100.52
352.728	88.23
352.94	75.95
353.152	12.46
353.363	26.79
353.575	22.7
353.787	112.81
353.999	57.51
354.21	100.52
354.422	14.51
354.633	34.99
354.845	-53.08
355.057	18.6
355.268	34.99
355.48	90.28
355.692	0.17
355.903	82.09
356.115	-10.07
356.326	-30.55
356.538	77.99
356.749	84.14
356.961	110.76
357.172	51.37
357.384	26.79
357.595	125.1
357.807	-18.26
358.018	32.94
358.23	41.13
358.441	104.62
358.653	2.22
358.864	16.55
359.075	135.34
359.287	63.66
359.498	-3.93
359.709	96.43
359.921	-30.55
360.132	37.03
360.344	39.08
360.555	-18.26
360.766	-1.88
360.977	71.85
361.189	57.51
361.4	-34.64
361.611	114.86
361.823	86.19
362.034	30.89
362.245	32.94
362.456	-44.88
362.667	-18.26
362.879	10.41
363.09	127.14
363.301	-1.88
363.512	51.37
363.723	-20.31
363.935	-8.02
364.146	30.89
364.357	49.32
364.568	65.71
364.779	20.65
364.99	151.72
365.201	67.75
365.412	145.58
365.623	-18.26
365.834	69.8
366.045	45.23
366.256	32.94
366.467	55.47
366.678	47.27
366.889	88.23
367.1	61.61
367.311	47.27
367.522	59.56
367.733	112.81
367.944	41.13
368.155	49.32
368.366	104.62
368.577	55.47
368.788	129.19
368.999	6.31
369.209	51.37
369.42	47.27
369.631	63.66
369.842	106.67
370.053	75.95
370.264	18.6
370.474	-53.08
370.685	55.47
370.896	90.28
371.107	49.32
371.317	73.9
371.528	80.04
371.739	69.8
371.95	26.79
372.16	24.75
372.371	-57.17
372.582	-30.55
372.792	110.76
373.003	-38.74
373.214	92.33
373.424	47.27
373.635	-44.88
373.846	71.85
374.056	-5.97
374.267	-1.88
374.477	16.55
374.688	37.03
374.898	28.84
375.109	49.32
375.319	73.9
375.53	69.8
375.74	47.27
375.951	71.85
376.161	30.89
376.372	139.43
376.582	61.61
376.793	-5.97
377.003	-46.93
377.214	2.22
377.424	125.1
377.635	-20.31
377.845	30.89
378.055	92.33
378.266	-8.02
378.476	10.41
378.686	114.86
378.897	-22.36
379.107	30.89
379.317	22.7
379.528	88.23
379.738	22.7
379.948	71.85
380.158	147.62
380.369	47.27
380.579	82.09
380.789	-53.08
380.999	61.61
381.21	106.67
381.42	161.96
381.63	22.7
381.84	45.23
382.05	143.53
382.261	90.28
382.471	55.47
382.681	-24.4
382.891	137.38
383.101	106.67
383.311	-5.97
383.521	30.89
383.731	28.84
383.941	141.48
384.151	14.51
384.361	14.51
384.571	12.46
384.781	20.65
384.991	71.85
385.201	123.05
385.411	45.23
385.621	28.84
385.831	41.13
386.041	61.61
386.251	-36.69
386.461	112.81
386.671	22.7
386.881	41.13
387.091	-8.02
387.301	65.71
387.511	4.27
387.72	75.95
387.93	135.34
388.14	-14.17
388.35	127.14
388.56	147.62
388.769	92.33
388.979	43.18
389.189	88.23
389.399	57.51
389.609	57.51
389.818	57.51
390.028	20.65
390.238	73.9
390.447	88.23
390.657	-1.88
390.867	43.18
391.076	-34.64
391.286	90.28
391.496	153.77
391.705	-18.26
391.915	172.2
392.125	110.76
392.334	96.43
392.544	123.05
392.753	84.14
392.963	47.27
393.172	41.13
393.382	-20.31
393.591	137.38
393.801	49.32
394.01	135.34
394.22	63.66
394.429	100.52
394.639	57.51
394.848	129.19
395.058	110.76
395.267	106.67
395.477	43.18
395.686	55.47
395.895	182.44
396.105	159.91
396.314	34.99
396.524	116.9
396.733	59.56
396.942	149.67
397.152	51.37
397.361	114.86
397.57	41.13
397.78	65.71
397.989	116.9
398.198	202.92
398.407	112.81
398.617	49.32
398.826	88.23
399.035	80.04
399.244	143.53
399.453	108.71
399.663	104.62
399.872	129.19
400.081	4.27
400.29	155.82
400.499	39.08
400.708	114.86
400.917	82.09
401.127	155.82
401.336	110.76
401.545	143.53
401.754	186.54
401.963	121
402.172	108.71
402.381	30.89
402.59	65.71
402.799	69.8
403.008	164.01
403.217	71.85
403.426	151.72
403.635	157.86
403.844	123.05
404.053	94.38
404.262	90.28
404.471	178.34
404.68	151.72
404.888	131.24
405.097	176.3
405.306	231.59
405.515	202.92
405.724	77.99
405.933	151.72
406.142	178.34
406.35	149.67
406.559	114.86
406.768	145.58
406.977	270.5
407.185	112.81
407.394	188.58
407.603	92.33
407.812	223.4
408.02	225.45
408.229	231.59
408.438	139.43
408.646	168.1
408.855	114.86
409.064	245.93
409.272	192.68
409.481	297.13
409.69	176.3
409.898	254.12
410.107	286.89
410.315	258.21
410.524	264.36
410.733	389.28
410.941	295.08
411.15	420
411.358	299.17
411.567	430.24
411.775	344.23
411.984	413.86
412.192	360.61
412.401	434.34
412.609	508.07
412.818	436.39
413.026	518.31
413.234	428.2
413.443	522.4
413.651	559.27
413.86	559.27
414.068	536.74
414.276	632.99
414.485	575.65
414.693	653.47
414.901	637.09
415.11	692.38
415.318	665.76
415.526	753.82
415.734	766.11
415.943	719.01
416.151	837.79
416.359	770.21
416.567	848.03
416.776	886.94
416.984	848.03
417.192	991.39
417.4	825.5
417.608	925.85
417.817	934.04
418.025	1030.3
418.233	1048.73
418.441	958.62
418.649	1097.88
418.857	1190.04
419.065	1159.32
419.273	1165.46
419.481	1251.48
419.689	1376.41
419.897	1347.73
420.105	1325.21
420.313	1532.05
420.521	1454.23
420.729	1505.43
420.937	1634.45
421.145	1679.51
421.353	1616.02
421.561	1757.33
421.769	1794.19
421.977	2048.14
422.185	1814.67
422.393	2044.04
422.601	2035.85
422.809	2109.58
423.017	2132.11
423.224	2154.63
423.432	2392.2
423.64	2357.38
423.848	2523.27
424.056	2443.4
424.263	2721.92
424.471	2621.57
424.679	2670.72
424.887	2891.9
425.094	2920.57
425.302	3010.68
425.51	3012.73
425.718	3070.08
425.925	3088.51
426.133	3281.02
426.341	3487.86
426.548	3676.27
426.756	3706.99
426.964	3719.28
427.171	3965.04
427.379	4059.24
427.586	4175.98
427.794	4122.73
428.001	4573.28
428.209	4538.47
428.417	4581.48
428.624	4829.28
428.832	4827.23
429.039	4796.51
429.247	4853.86
429.454	5240.92
429.662	5634.13
429.869	5402.71
430.076	5785.68
430.284	5488.73
430.491	5673.04
430.699	6113.36
430.906	5888.08
431.114	6301.77
431.321	6502.47
431.528	6488.14
431.736	6957.12
431.943	7270.46
432.15	6893.63
432.358	7239.74
432.565	7514.17
432.772	7417.91
432.979	7854.13
433.187	8079.41
433.394	7938.1
433.601	8640.55
433.808	8665.13
434.016	8519.72
434.223	8759.33
434.43	9629.72
434.637	9310.24
434.844	9644.06
435.052	9887.76
435.259	9959.44
435.466	10121.23
435.673	9953.3
435.88	10590.22
436.087	11055.11
436.294	11210.75
436.501	10782.73
436.708	11089.92
436.915	11694.07
437.122	11997.17
437.329	11952.12
437.537	12521.45
437.743	12658.67
437.95	12480.49
438.157	13230.05
438.364	13582.3
438.571	13373.41
438.778	13725.66
438.985	14786.51
439.192	14284.75
439.399	14403.53
439.606	14407.63
439.813	15069.12
440.02	16291.76
440.227	15974.33
440.433	15769.53
440.64	16383.92
440.847	16392.11
441.054	16660.4
441.261	17600.41
441.467	17358.75
441.674	17878.94
441.881	18419.6
442.088	18259.86
442.294	18046.87
442.501	18780.04
442.708	19249.03
442.914	19963.77
443.121	20467.57
443.328	19951.48
443.534	21634.91
443.741	20662.13
443.948	20901.74
444.154	22196.06
444.361	21782.37
444.568	22359.89
444.774	22198.1
444.981	22316.89
445.187	22918.99
445.394	24022.84
445.6	23705.41
445.807	26054.43
446.013	24872.75
446.22	25173.8
446.426	26461.97
446.633	26613.52
446.839	27315.98
447.046	26300.19
447.252	27750.15
447.459	27817.73
447.665	28014.34
447.871	28972.78
448.078	30439.13
448.284	28841.71
448.491	29578.98
448.697	30549.72
448.903	31147.73
449.11	31551.18
449.316	30719.7
449.522	31278.8
449.728	31993.54
449.935	32556.73
450.141	32134.85
450.347	33275.57
450.553	32190.14
450.76	32505.53
450.966	33713.83
451.172	33187.5
451.378	33908.39
451.584	33046.19
451.791	34254.5
451.997	34178.72
452.203	34502.3
452.409	34897.56
452.615	34653.85
452.821	33177.26
453.027	32870.07
453.233	34610.84
453.44	33265.33
453.646	33582.76
453.852	33748.65
454.058	34500.25
454.264	33425.07
454.47	33463.98
454.676	33062.58
454.882	33820.33
455.088	31524.55
455.294	31876.8
455.5	32212.67
455.705	32628.41
455.911	31160.02
456.117	30699.22
456.323	30129.89
456.529	28755.7
456.735	29904.61
456.941	29212.4
457.147	28555
457.352	27762.44
457.558	27430.66
457.764	27387.66
457.97	27111.18
458.176	26183.45
458.381	26267.42
458.587	25100.08
458.793	24848.18
458.999	23705.41
459.204	25431.85
459.41	24624.95
459.616	23062.35
459.821	23301.96
460.027	22949.71
460.233	22777.68
460.438	21395.3
460.644	21749.6
460.85	20670.32
461.055	20586.35
461.261	20508.53
461.466	18771.85
461.672	18134.93
461.878	19394.43
462.083	18302.87
462.289	17971.1
462.494	17491.87
462.7	16912.3
462.905	16482.22
463.111	17217.44
463.316	17256.36
463.522	16664.49
463.727	16840.62
463.932	16646.06
464.138	16385.97
464.343	16687.02
464.549	16263.09
464.754	16631.72
464.959	16439.22
465.165	16547.76
465.37	15554.49
465.575	15394.75
465.781	15804.35
465.986	15695.8
466.191	15628.22
