Data from USB4F104151__59__12-12-26-054.txt Node

Date: Fri Mar 14 12:12:26 EDT 2025
User: louis
Spectrometer: USB4F10415
Trigger mode: 4
Integration Time (sec): 5.000000E-2
Scans to average: 1
Electric dark correction enabled: true
Nonlinearity correction enabled: false
Boxcar width: 0
XAxis mode: Wavelengths
Number of Pixels in Spectrum: 3648
>>>>>Begin Spectral Data<<<<<
178.204	-209.75
178.424	-209.75
178.644	-209.75
178.864	-193.36
179.084	-230.23
179.304	15.53
179.524	-35.67
179.744	9.39
179.964	44.2
180.184	-17.24
180.404	58.54
180.624	-25.43
180.844	-21.33
181.064	-9.05
181.283	-64.34
181.503	-11.09
181.723	56.49
181.943	-43.86
182.163	79.02
182.383	81.07
182.602	11.43
182.822	5.29
183.042	-23.38
183.262	-25.43
183.482	95.4
183.701	-43.86
183.921	40.11
184.141	-13.14
184.361	50.35
184.58	-15.19
184.8	81.07
185.02	-21.33
185.239	64.68
185.459	-9.05
185.679	62.63
185.898	-41.81
186.118	62.63
186.338	58.54
186.557	103.59
186.777	113.83
186.997	-62.29
187.216	56.49
187.436	76.97
187.655	109.74
187.875	68.78
188.095	-54.1
188.314	19.63
188.534	50.35
188.753	-7
188.973	46.25
189.192	99.5
189.412	13.48
189.631	15.53
189.851	52.39
190.07	91.31
190.29	38.06
190.509	9.39
190.729	64.68
190.948	40.11
191.168	251.05
191.387	70.83
191.607	-37.72
191.826	62.63
192.045	-56.15
192.265	-29.52
192.484	9.39
192.704	79.02
192.923	-56.15
193.142	140.46
193.362	101.55
193.581	109.74
193.8	64.68
194.02	85.16
194.239	-15.19
194.458	50.35
194.678	-50
194.897	25.77
195.116	-13.14
195.335	89.26
195.555	31.91
195.774	36.01
195.993	38.06
196.212	25.77
196.432	15.53
196.651	74.92
196.87	13.48
197.089	173.22
197.308	54.44
197.528	29.87
197.747	-11.09
197.966	-15.19
198.185	89.26
198.404	60.59
198.623	74.92
198.842	105.64
199.062	87.21
199.281	62.63
199.5	64.68
199.719	70.83
199.938	60.59
200.157	107.69
200.376	56.49
200.595	162.98
200.814	62.63
201.033	-25.43
201.252	13.48
201.471	-19.29
201.69	58.54
201.909	-11.09
202.128	156.84
202.347	-35.67
202.566	-11.09
202.785	19.63
203.004	11.43
203.223	136.36
203.442	21.67
203.661	7.34
203.879	42.15
204.098	113.83
204.317	-62.29
204.536	115.88
204.755	50.35
204.974	54.44
205.193	-2.9
205.411	156.84
205.63	40.11
205.849	103.59
206.068	83.11
206.287	27.82
206.505	68.78
206.724	46.25
206.943	1.19
207.162	17.58
207.381	140.46
207.599	140.46
207.818	54.44
208.037	25.77
208.255	62.63
208.474	128.17
208.693	11.43
208.911	113.83
209.13	68.78
209.349	72.87
209.567	17.58
209.786	40.11
210.005	48.3
210.223	50.35
210.442	-23.38
210.661	56.49
210.879	7.34
211.098	27.82
211.316	58.54
211.535	58.54
211.753	15.53
211.972	42.15
212.191	-0.85
212.409	50.35
212.628	19.63
212.846	42.15
213.065	60.59
213.283	128.17
213.502	15.53
213.72	7.34
213.938	-0.85
214.157	-19.29
214.375	29.87
214.594	-37.72
214.812	31.91
215.031	64.68
215.249	21.67
215.467	33.96
215.686	3.24
215.904	38.06
216.122	-33.62
216.341	85.16
216.559	1.19
216.778	93.35
216.996	93.35
217.214	52.39
217.432	52.39
217.651	-9.05
217.869	87.21
218.087	-0.85
218.306	113.83
218.524	117.93
218.742	79.02
218.96	31.91
219.179	91.31
219.397	-13.14
219.615	132.26
219.833	33.96
220.051	66.73
220.27	124.07
220.488	70.83
220.706	27.82
220.924	50.35
221.142	13.48
221.36	-7
221.578	36.01
221.796	56.49
222.015	105.64
222.233	25.77
222.451	105.64
222.669	42.15
222.887	38.06
223.105	-68.44
223.323	29.87
223.541	-15.19
223.759	87.21
223.977	17.58
224.195	144.55
224.413	21.67
224.631	25.77
224.849	33.96
225.067	146.6
225.285	-47.96
225.503	13.48
225.721	9.39
225.939	25.77
226.157	54.44
226.375	148.65
226.592	-47.96
226.81	9.39
227.028	72.87
227.246	103.59
227.464	85.16
227.682	38.06
227.9	138.41
228.117	70.83
228.335	54.44
228.553	58.54
228.771	40.11
228.989	85.16
229.206	70.83
229.424	36.01
229.642	44.2
229.86	13.48
230.077	91.31
230.295	21.67
230.513	126.12
230.731	72.87
230.948	107.69
231.166	38.06
231.384	38.06
231.601	-0.85
231.819	156.84
232.037	42.15
232.254	48.3
232.472	-50
232.689	-2.9
232.907	-9.05
233.125	85.16
233.342	40.11
233.56	-11.09
233.777	101.55
233.995	-33.62
234.213	83.11
234.43	70.83
234.648	-39.76
234.865	58.54
235.083	13.48
235.3	105.64
235.518	128.17
235.735	138.41
235.953	44.2
236.17	162.98
236.388	40.11
236.605	3.24
236.822	68.78
237.04	81.07
237.257	29.87
237.475	5.29
237.692	19.63
237.909	19.63
238.127	79.02
238.344	-29.52
238.562	-35.67
238.779	-64.34
238.996	17.58
239.214	29.87
239.431	124.07
239.648	1.19
239.865	64.68
240.083	74.92
240.3	23.72
240.517	-19.29
240.735	31.91
240.952	122.02
241.169	91.31
241.386	25.77
241.603	21.67
241.821	29.87
242.038	105.64
242.255	60.59
242.472	-15.19
242.689	33.96
242.907	56.49
243.124	-0.85
243.341	13.48
243.558	38.06
243.775	-31.57
243.992	-27.48
244.209	27.82
244.426	76.97
244.643	87.21
244.86	-37.72
245.078	-2.9
245.295	56.49
245.512	124.07
245.729	-9.05
245.946	72.87
246.163	13.48
246.38	3.24
246.597	-17.24
246.814	25.77
247.031	117.93
247.248	70.83
247.464	3.24
247.681	62.63
247.898	54.44
248.115	58.54
248.332	48.3
248.549	38.06
248.766	140.46
248.983	95.4
249.2	64.68
249.417	111.78
249.633	-62.29
249.85	66.73
250.067	-25.43
250.284	101.55
250.501	33.96
250.717	85.16
250.934	-9.05
251.151	7.34
251.368	3.24
251.585	124.07
251.801	76.97
252.018	-21.33
252.235	54.44
252.451	25.77
252.668	17.58
252.885	117.93
253.102	50.35
253.318	74.92
253.535	11.43
253.752	-2.9
253.968	15.53
254.185	-58.2
254.401	-37.72
254.618	66.73
254.835	-11.09
255.051	62.63
255.268	60.59
255.484	72.87
255.701	68.78
255.917	132.26
256.134	50.35
256.351	23.72
256.567	70.83
256.784	70.83
257	-78.68
257.217	64.68
257.433	83.11
257.65	146.6
257.866	126.12
258.082	-9.05
258.299	62.63
258.515	56.49
258.732	91.31
258.948	-27.48
259.165	62.63
259.381	27.82
259.597	58.54
259.814	48.3
260.03	21.67
260.246	40.11
260.463	33.96
260.679	-15.19
260.895	48.3
261.112	97.45
261.328	-7
261.544	42.15
261.761	89.26
261.977	62.63
262.193	19.63
262.409	109.74
262.626	15.53
262.842	60.59
263.058	1.19
263.274	44.2
263.49	60.59
263.707	48.3
263.923	132.26
264.139	54.44
264.355	46.25
264.571	64.68
264.787	60.59
265.004	74.92
265.22	74.92
265.436	-2.9
265.652	46.25
265.868	72.87
266.084	-2.9
266.3	40.11
266.516	-21.33
266.732	70.83
266.948	72.87
267.164	-0.85
267.38	87.21
267.596	-50
267.812	154.79
268.028	76.97
268.244	-25.43
268.46	109.74
268.676	56.49
268.892	42.15
269.108	-0.85
269.324	-23.38
269.54	19.63
269.756	64.68
269.972	-17.24
270.188	38.06
270.403	-29.52
270.619	58.54
270.835	91.31
271.051	1.19
271.267	-39.76
271.483	66.73
271.698	79.02
271.914	3.24
272.13	74.92
272.346	50.35
272.562	31.91
272.777	81.07
272.993	83.11
273.209	44.2
273.425	62.63
273.64	-39.76
273.856	115.88
274.072	38.06
274.287	-50
274.503	23.72
274.719	99.5
274.934	109.74
275.15	29.87
275.366	42.15
275.581	-2.9
275.797	-2.9
276.012	-9.05
276.228	25.77
276.444	72.87
276.659	-4.95
276.875	-33.62
277.09	38.06
277.306	19.63
277.521	54.44
277.737	23.72
277.952	56.49
278.168	70.83
278.383	48.3
278.599	31.91
278.814	79.02
279.03	-13.14
279.245	103.59
279.461	33.96
279.676	66.73
279.892	81.07
280.107	50.35
280.322	-37.72
280.538	105.64
280.753	-70.48
280.969	52.39
281.184	42.15
281.399	132.26
281.615	95.4
281.83	74.92
282.045	-11.09
282.26	40.11
282.476	50.35
282.691	115.88
282.906	87.21
283.122	21.67
283.337	-37.72
283.552	89.26
283.767	48.3
283.983	9.39
284.198	-54.1
284.413	109.74
284.628	-29.52
284.843	38.06
285.058	11.43
285.274	99.5
285.489	-35.67
285.704	50.35
285.919	-17.24
286.134	52.39
286.349	89.26
286.564	42.15
286.779	48.3
286.995	91.31
287.21	-9.05
287.425	72.87
287.64	-9.05
287.855	5.29
288.07	-0.85
288.285	93.35
288.5	3.24
288.715	72.87
288.93	-31.57
289.145	56.49
289.36	119.98
289.575	7.34
289.79	89.26
290.004	7.34
290.219	87.21
290.434	36.01
290.649	72.87
290.864	-25.43
291.079	-2.9
291.294	25.77
291.509	50.35
291.724	36.01
291.938	72.87
292.153	33.96
292.368	21.67
292.583	23.72
292.798	13.48
293.012	-0.85
293.227	56.49
293.442	107.69
293.657	119.98
293.871	95.4
294.086	19.63
294.301	103.59
294.516	113.83
294.73	33.96
294.945	-33.62
295.16	-17.24
295.374	17.58
295.589	91.31
295.804	-7
296.018	68.78
296.233	101.55
296.447	36.01
296.662	46.25
296.877	56.49
297.091	52.39
297.306	-9.05
297.52	56.49
297.735	64.68
297.949	-7
298.164	-4.95
298.378	40.11
298.593	54.44
298.807	23.72
299.022	36.01
299.236	66.73
299.451	48.3
299.665	-15.19
299.88	48.3
300.094	70.83
300.309	124.07
300.523	-2.9
300.737	-17.24
300.952	62.63
301.166	91.31
301.381	23.72
301.595	23.72
301.809	83.11
302.024	-4.95
302.238	13.48
302.452	33.96
302.667	25.77
302.881	89.26
303.095	33.96
303.309	66.73
303.524	-47.96
303.738	-33.62
303.952	-15.19
304.166	74.92
304.381	27.82
304.595	36.01
304.809	23.72
305.023	9.39
305.237	44.2
305.452	58.54
305.666	87.21
305.88	50.35
306.094	87.21
306.308	25.77
306.522	91.31
306.736	54.44
306.95	-9.05
307.164	50.35
307.379	25.77
307.593	64.68
307.807	130.22
308.021	107.69
308.235	111.78
308.449	3.24
308.663	50.35
308.877	152.74
309.091	52.39
309.305	93.35
309.519	-54.1
309.733	27.82
309.947	-62.29
310.161	23.72
310.374	70.83
310.588	66.73
310.802	33.96
311.016	13.48
311.23	9.39
311.444	52.39
311.658	-25.43
311.872	165.03
312.085	91.31
312.299	19.63
312.513	93.35
312.727	85.16
312.941	9.39
313.154	103.59
313.368	111.78
313.582	115.88
313.796	64.68
314.009	-23.38
314.223	130.22
314.437	113.83
314.651	79.02
314.864	42.15
315.078	7.34
315.292	-47.96
315.505	3.24
315.719	56.49
315.933	95.4
316.146	48.3
316.36	38.06
316.573	64.68
316.787	42.15
317.001	72.87
317.214	17.58
317.428	40.11
317.641	27.82
317.855	-39.76
318.068	27.82
318.282	9.39
318.495	144.55
318.709	60.59
318.922	38.06
319.136	62.63
319.349	72.87
319.563	56.49
319.776	48.3
319.99	56.49
320.203	-9.05
320.417	72.87
320.63	148.65
320.843	101.55
321.057	-2.9
321.27	74.92
321.483	144.55
321.697	36.01
321.91	72.87
322.124	54.44
322.337	17.58
322.55	31.91
322.763	31.91
322.977	-90.96
323.19	36.01
323.403	36.01
323.617	87.21
323.83	93.35
324.043	1.19
324.256	83.11
324.469	7.34
324.683	68.78
324.896	-21.33
325.109	-0.85
325.322	38.06
325.535	31.91
325.748	33.96
325.962	70.83
326.175	54.44
326.388	-15.19
326.601	68.78
326.814	29.87
327.027	64.68
327.24	138.41
327.453	-86.87
327.666	87.21
327.879	134.31
328.092	42.15
328.305	105.64
328.518	-2.9
328.731	52.39
328.944	11.43
329.157	54.44
329.37	19.63
329.583	160.94
329.796	93.35
330.009	9.39
330.222	13.48
330.435	70.83
330.648	-23.38
330.861	60.59
331.073	21.67
331.286	62.63
331.499	25.77
331.712	42.15
331.925	27.82
332.138	64.68
332.35	81.07
332.563	9.39
332.776	74.92
332.989	-56.15
333.202	31.91
333.414	17.58
333.627	91.31
333.84	56.49
334.053	46.25
334.265	52.39
334.478	-41.81
334.691	-7
334.903	-50
335.116	36.01
335.329	23.72
335.541	76.97
335.754	146.6
335.966	-11.09
336.179	23.72
336.392	-43.86
336.604	99.5
336.817	62.63
337.029	5.29
337.242	-17.24
337.454	85.16
337.667	72.87
337.88	99.5
338.092	60.59
338.305	33.96
338.517	-7
338.729	103.59
338.942	154.79
339.154	-29.52
339.367	27.82
339.579	126.12
339.792	1.19
340.004	107.69
340.217	27.82
340.429	101.55
340.641	-9.05
340.854	93.35
341.066	48.3
341.278	44.2
341.491	60.59
341.703	7.34
341.915	25.77
342.128	64.68
342.34	79.02
342.552	11.43
342.764	-29.52
342.977	83.11
343.189	113.83
343.401	25.77
343.613	27.82
343.826	101.55
344.038	33.96
344.25	50.35
344.462	36.01
344.674	-35.67
344.886	89.26
345.099	99.5
345.311	31.91
345.523	52.39
345.735	13.48
345.947	66.73
346.159	46.25
346.371	11.43
346.583	50.35
346.795	195.75
347.007	-60.24
347.219	105.64
347.431	23.72
347.643	185.51
347.855	13.48
348.067	68.78
348.279	68.78
348.491	33.96
348.703	72.87
348.915	79.02
349.127	40.11
349.339	68.78
349.551	-29.52
349.763	83.11
349.975	66.73
350.187	103.59
350.399	87.21
350.61	81.07
350.822	48.3
351.034	-0.85
351.246	54.44
351.458	44.2
351.669	-23.38
351.881	3.24
352.093	134.31
352.305	107.69
352.517	58.54
352.728	111.78
352.94	68.78
353.152	113.83
353.363	1.19
353.575	89.26
353.787	126.12
353.999	117.93
354.21	83.11
354.422	79.02
354.633	60.59
354.845	19.63
355.057	72.87
355.268	40.11
355.48	128.17
355.692	-27.48
355.903	56.49
356.115	44.2
356.326	-11.09
356.538	117.93
356.749	74.92
356.961	64.68
357.172	68.78
357.384	23.72
357.595	189.61
357.807	58.54
358.018	56.49
358.23	-15.19
358.441	105.64
358.653	72.87
358.864	87.21
359.075	50.35
359.287	21.67
359.498	113.83
359.709	54.44
359.921	7.34
360.132	44.2
360.344	33.96
360.555	33.96
360.766	27.82
360.977	38.06
361.189	152.74
361.4	95.4
361.611	142.5
361.823	79.02
362.034	50.35
362.245	-15.19
362.456	89.26
362.667	38.06
362.879	126.12
363.09	-4.95
363.301	36.01
363.512	140.46
363.723	46.25
363.935	-35.67
364.146	111.78
364.357	11.43
364.568	36.01
364.779	111.78
364.99	138.41
365.201	-17.24
365.412	72.87
365.623	27.82
365.834	23.72
366.045	29.87
366.256	70.83
366.467	42.15
366.678	29.87
366.889	52.39
367.1	40.11
367.311	85.16
367.522	15.53
367.733	64.68
367.944	44.2
368.155	79.02
368.366	152.74
368.577	85.16
368.788	42.15
368.999	13.48
369.209	-0.85
369.42	181.42
369.631	97.45
369.842	115.88
370.053	68.78
370.264	103.59
370.474	-17.24
370.685	72.87
370.896	50.35
371.107	56.49
371.317	83.11
371.528	15.53
371.739	60.59
371.95	101.55
372.16	64.68
372.371	1.19
372.582	44.2
372.792	64.68
373.003	33.96
373.214	60.59
373.424	72.87
373.635	3.24
373.846	115.88
374.056	60.59
374.267	27.82
374.477	40.11
374.688	25.77
374.898	68.78
375.109	70.83
375.319	7.34
375.53	33.96
375.74	52.39
375.951	72.87
376.161	68.78
376.372	81.07
376.582	66.73
376.793	128.17
377.003	-11.09
377.214	25.77
377.424	70.83
377.635	97.45
377.845	1.19
378.055	165.03
378.266	23.72
378.476	128.17
378.686	60.59
378.897	52.39
379.107	68.78
379.317	130.22
379.528	40.11
379.738	56.49
379.948	1.19
380.158	101.55
380.369	93.35
380.579	85.16
380.789	13.48
380.999	128.17
381.21	91.31
381.42	134.31
381.63	15.53
381.84	56.49
382.05	76.97
382.261	33.96
382.471	31.91
382.681	48.3
382.891	158.89
383.101	46.25
383.311	36.01
383.521	9.39
383.731	119.98
383.941	76.97
384.151	103.59
384.361	74.92
384.571	40.11
384.781	117.93
384.991	173.22
385.201	105.64
385.411	140.46
385.621	64.68
385.831	91.31
386.041	107.69
386.251	46.25
386.461	15.53
386.671	76.97
386.881	99.5
387.091	76.97
387.301	111.78
387.511	46.25
387.72	93.35
387.93	109.74
388.14	50.35
388.35	62.63
388.56	79.02
388.769	62.63
388.979	101.55
389.189	64.68
389.399	54.44
389.609	60.59
389.818	124.07
390.028	136.36
390.238	124.07
390.447	9.39
390.657	70.83
390.867	54.44
391.076	-13.14
391.286	91.31
391.496	74.92
391.705	72.87
391.915	138.41
392.125	89.26
392.334	38.06
392.544	138.41
392.753	89.26
392.963	33.96
393.172	33.96
393.382	68.78
393.591	132.26
393.801	29.87
394.01	91.31
394.22	76.97
394.429	46.25
394.639	60.59
394.848	76.97
395.058	87.21
395.267	111.78
395.477	117.93
395.686	103.59
395.895	160.94
396.105	212.14
396.314	93.35
396.524	52.39
396.733	56.49
396.942	158.89
397.152	191.66
397.361	181.42
397.57	89.26
397.78	146.6
397.989	81.07
398.198	271.53
398.407	148.65
398.617	99.5
398.826	87.21
399.035	140.46
399.244	165.03
399.453	68.78
399.663	146.6
399.872	138.41
400.081	93.35
400.29	189.61
400.499	27.82
400.708	132.26
400.917	85.16
401.127	87.21
401.336	132.26
401.545	195.75
401.754	173.22
401.963	81.07
402.172	152.74
402.381	146.6
402.59	165.03
402.799	105.64
403.008	138.41
403.217	142.5
403.426	177.32
403.635	91.31
403.844	140.46
404.053	89.26
404.262	169.13
404.471	228.52
404.68	181.42
404.888	218.28
405.097	208.04
405.306	251.05
405.515	193.7
405.724	99.5
405.933	181.42
406.142	212.14
406.35	246.95
406.559	216.23
406.768	173.22
406.977	261.29
407.185	246.95
407.394	304.29
407.603	203.94
407.812	269.48
408.02	427.17
408.229	251.05
408.438	294.05
408.646	210.09
408.855	324.77
409.064	296.1
409.272	240.81
409.481	302.25
409.69	271.53
409.898	236.71
410.107	351.4
410.315	425.12
410.524	279.72
410.733	322.73
410.941	345.25
411.15	482.47
411.358	402.6
411.567	513.19
411.775	402.6
411.984	445.6
412.192	562.34
412.401	494.76
412.609	617.63
412.818	545.95
413.026	552.1
413.234	552.1
413.443	556.19
413.651	664.74
413.86	625.83
414.068	650.4
414.276	701.6
414.485	681.12
414.693	742.56
414.901	849.05
415.11	799.9
415.318	695.46
415.526	822.43
415.734	861.34
415.943	939.16
416.151	920.73
416.359	840.86
416.567	963.74
416.776	922.78
416.984	957.6
417.192	1066.14
417.4	1160.34
417.608	1059.99
417.817	1047.71
418.025	1193.11
418.233	1373.33
418.441	1250.46
418.649	1299.61
418.857	1459.35
419.065	1418.39
419.273	1320.09
419.481	1498.26
419.689	1651.86
419.897	1549.46
420.105	1608.85
420.313	1682.58
420.521	1784.98
420.729	1860.75
420.937	1864.85
421.145	1944.72
421.353	2073.74
421.561	2204.81
421.769	2266.25
421.977	2198.67
422.185	2301.06
422.393	2301.06
422.601	2509.96
422.809	2460.81
423.017	2589.83
423.224	2618.5
423.432	2704.51
423.64	2778.24
423.848	2942.08
424.056	2794.62
424.263	3026.04
424.471	3005.56
424.679	3105.92
424.887	3327.1
425.094	3300.47
425.302	3357.82
425.51	3503.22
425.718	3646.58
425.925	3689.59
426.133	3724.4
426.341	4072.56
426.548	4203.63
426.756	4242.54
426.964	4263.02
427.171	4543.59
427.379	4611.17
427.586	4662.37
427.794	4744.29
428.001	5190.75
428.209	5205.08
428.417	5094.49
428.624	5616.72
428.832	5463.13
429.039	5532.76
429.247	5448.79
429.454	6169.68
429.662	6454.34
429.869	5852.24
430.076	6360.14
430.284	6153.29
430.491	6550.6
430.699	6798.4
430.906	6759.49
431.114	6870.08
431.321	7162.94
431.528	7404.6
431.736	7758.9
431.943	8066.1
432.15	7828.53
432.358	7797.81
432.565	8365.1
432.772	8123.44
432.979	8737.83
433.187	8987.68
433.394	8766.5
433.601	9352.22
433.808	9503.77
434.016	9430.04
434.223	9761.81
434.43	10368.01
434.637	10214.41
434.844	10513.42
435.052	11060.23
435.259	10888.2
435.466	10972.16
435.673	10900.48
435.88	11748.34
436.087	12243.95
436.294	12434.41
436.501	11971.57
436.708	12119.03
436.915	12542.96
437.122	13382.62
437.329	13083.62
437.537	13521.88
437.743	13661.15
437.95	13552.6
438.157	14316.5
438.364	14687.18
438.571	14861.26
438.778	14676.94
438.985	16075.7
439.192	15332.29
439.399	16008.12
439.606	15547.33
439.813	16579.5
440.02	17347.49
440.227	17243.04
440.433	17099.69
440.64	17746.84
440.847	17314.72
441.054	18150.29
441.261	19096.46
441.467	18746.25
441.674	19078.02
441.881	19796.86
442.088	19563.39
442.294	19608.45
442.501	20239.22
442.708	20181.88
442.914	21181.29
443.121	22205.27
443.328	21629.79
443.534	22563.67
443.741	22264.66
443.948	21875.55
444.154	23737.15
444.361	23452.48
444.568	23698.24
444.774	23726.91
444.981	23653.19
445.187	24630.07
445.394	25502.5
445.6	25033.52
445.807	27429.64
446.013	26372.89
446.22	27040.53
446.426	27687.68
446.633	28285.69
446.839	29119.21
447.046	27982.59
447.252	29485.8
447.459	29532.9
447.665	29434.6
447.871	30538.46
448.078	31873.73
448.284	30188.25
448.491	31126.22
448.697	32740.02
448.903	32848.57
449.11	33270.45
449.316	32316.09
449.522	32858.81
449.728	33710.76
449.935	34091.68
450.141	33981.09
450.347	34869.91
450.553	33974.95
450.76	34183.84
450.966	35037.84
451.172	34603.67
451.378	35728.01
451.584	34884.25
451.791	35601.04
451.997	35328.66
452.203	36108.93
452.409	36242.05
452.615	36248.19
452.821	34413.21
453.027	34325.15
453.233	35986.05
453.44	34552.48
453.646	34869.91
453.852	35007.12
454.058	35668.62
454.264	34396.83
454.47	35322.51
454.676	33985.19
454.882	35152.53
455.088	32123.58
455.294	32635.58
455.5	33266.35
455.705	33405.61
455.911	31961.79
456.117	31349.45
456.323	30939.86
456.529	29641.45
456.735	30876.37
456.941	29657.83
457.147	29334.25
457.352	28328.7
457.558	28224.25
457.764	28637.94
457.97	27585.29
458.176	26946.32
458.381	26895.12
458.587	25420.58
458.793	25899.81
458.999	24017.72
459.204	25942.81
459.41	25027.37
459.616	23771.97
459.821	23714.62
460.027	23315.27
460.233	22588.24
460.438	21713.76
460.644	22209.37
460.85	20994.92
461.055	20773.74
461.261	20650.86
461.466	18826.12
461.672	18324.37
461.878	19573.63
462.083	18527.12
462.289	18129.81
462.494	17847.19
462.7	17132.45
462.905	16505.77
463.111	17167.27
463.316	17267.62
463.522	16583.6
463.727	16894.89
463.932	16909.22
464.138	16485.3
464.343	16669.61
464.549	16133.04
464.754	16663.47
464.959	16485.3
465.165	16329.65
465.37	15655.87
465.575	14977.99
465.781	15770.55
465.986	15934.39
466.191	15207.36
466.397	14939.08
