Data from USB4F104151__30__12-11-50-459.txt Node

Date: Fri Mar 14 12:11:50 EDT 2025
User: louis
Spectrometer: USB4F10415
Trigger mode: 4
Integration Time (sec): 5.000000E-2
Scans to average: 1
Electric dark correction enabled: true
Nonlinearity correction enabled: false
Boxcar width: 0
XAxis mode: Wavelengths
Number of Pixels in Spectrum: 3648
>>>>>Begin Spectral Data<<<<<
178.204	-241.83
178.424	-241.83
178.644	-241.83
178.864	-159.91
179.084	-180.39
179.304	-32.94
179.524	-2.22
179.744	30.55
179.964	46.93
180.184	32.6
180.404	3.93
180.624	-55.47
180.844	77.65
181.064	-20.65
181.283	-77.99
181.503	-4.27
181.723	1.88
181.943	-73.9
182.163	137.04
182.383	18.26
182.602	65.36
182.822	63.32
183.042	94.04
183.262	91.99
183.482	61.27
183.701	42.84
183.921	96.08
184.141	-12.46
184.361	91.99
184.58	91.99
184.8	8.02
185.02	-2.22
185.239	81.75
185.459	40.79
185.679	14.17
185.898	-28.84
186.118	46.93
186.338	24.4
186.557	87.89
186.777	87.89
186.997	-18.6
187.216	65.36
187.436	190.29
187.655	28.5
187.875	57.17
188.095	94.04
188.314	110.42
188.534	85.84
188.753	26.45
188.973	40.79
189.192	55.12
189.412	46.93
189.631	42.84
189.851	-26.79
190.07	102.23
190.29	-26.79
190.509	30.55
190.729	28.5
190.948	98.13
191.168	210.77
191.387	3.93
191.607	-14.51
191.826	51.03
192.045	48.98
192.265	46.93
192.484	28.5
192.704	53.08
192.923	-2.22
193.142	118.61
193.362	14.17
193.581	89.94
193.8	22.36
194.02	137.04
194.239	-16.55
194.458	83.8
194.678	3.93
194.897	38.74
195.116	32.6
195.335	10.07
195.555	85.84
195.774	-20.65
195.993	24.4
196.212	26.45
196.432	32.6
196.651	-22.7
196.87	-0.17
197.089	126.8
197.308	28.5
197.528	116.56
197.747	-8.36
197.966	44.88
198.185	128.85
198.404	14.17
198.623	91.99
198.842	91.99
199.062	87.89
199.281	48.98
199.5	89.94
199.719	16.21
199.938	65.36
200.157	143.19
200.376	85.84
200.595	91.99
200.814	48.98
201.033	81.75
201.252	110.42
201.471	130.9
201.69	89.94
201.909	65.36
202.128	171.86
202.347	102.23
202.566	85.84
202.785	-4.27
203.004	36.69
203.223	135
203.442	12.12
203.661	38.74
203.879	18.26
204.098	85.84
204.317	-57.51
204.536	85.84
204.755	28.5
204.974	-4.27
205.193	59.22
205.411	128.85
205.63	91.99
205.849	32.6
206.068	73.56
206.287	44.88
206.505	110.42
206.724	36.69
206.943	42.84
207.162	55.12
207.381	-20.65
207.599	10.07
207.818	83.8
208.037	91.99
208.255	-2.22
208.474	14.17
208.693	67.41
208.911	22.36
209.13	42.84
209.349	55.12
209.567	57.17
209.786	143.19
210.005	51.03
210.223	73.56
210.442	-34.99
210.661	83.8
210.879	71.51
211.098	-12.46
211.316	65.36
211.535	118.61
211.753	61.27
211.972	147.28
212.191	26.45
212.409	51.03
212.628	178
212.846	112.47
213.065	110.42
213.283	137.04
213.502	71.51
213.72	65.36
213.938	3.93
214.157	38.74
214.375	79.7
214.594	69.46
214.812	48.98
215.031	38.74
215.249	32.6
215.467	104.28
215.686	42.84
215.904	112.47
216.122	1.88
216.341	42.84
216.559	63.32
216.778	169.81
216.996	112.47
217.214	-6.31
217.432	46.93
217.651	-0.17
217.869	61.27
218.087	-6.31
218.306	34.64
218.524	24.4
218.742	-37.03
218.96	28.5
219.179	22.36
219.397	8.02
219.615	227.15
219.833	79.7
220.051	30.55
220.27	98.13
220.488	112.47
220.706	151.38
220.924	110.42
221.142	81.75
221.36	22.36
221.578	63.32
221.796	87.89
222.015	48.98
222.233	24.4
222.451	110.42
222.669	48.98
222.887	55.12
223.105	36.69
223.323	-8.36
223.541	-10.41
223.759	44.88
223.977	30.55
224.195	104.28
224.413	10.07
224.631	-14.51
224.849	28.5
225.067	116.56
225.285	89.94
225.503	32.6
225.721	-116.9
225.939	71.51
226.157	-10.41
226.375	110.42
226.592	40.79
226.81	8.02
227.028	110.42
227.246	122.71
227.464	36.69
227.682	57.17
227.9	83.8
228.117	102.23
228.335	36.69
228.553	42.84
228.771	36.69
228.989	81.75
229.206	30.55
229.424	-0.17
229.642	63.32
229.86	53.08
230.077	108.37
230.295	30.55
230.513	14.17
230.731	87.89
230.948	135
231.166	126.8
231.384	71.51
231.601	12.12
231.819	104.28
232.037	38.74
232.254	40.79
232.472	46.93
232.689	38.74
232.907	36.69
233.125	28.5
233.342	83.8
233.56	75.6
233.777	48.98
233.995	-18.6
234.213	102.23
234.43	48.98
234.648	34.64
234.865	14.17
235.083	65.36
235.3	69.46
235.518	77.65
235.735	104.28
235.953	124.76
236.17	30.55
236.388	51.03
236.605	67.41
236.822	135
237.04	59.22
237.257	18.26
237.475	-22.7
237.692	75.6
237.909	73.56
238.127	30.55
238.344	36.69
238.562	18.26
238.779	46.93
238.996	-4.27
239.214	94.04
239.431	81.75
239.648	-14.51
239.865	-4.27
240.083	22.36
240.3	26.45
240.517	63.32
240.735	36.69
240.952	44.88
241.169	96.08
241.386	151.38
241.603	-12.46
241.821	32.6
242.038	61.27
242.255	102.23
242.472	26.45
242.689	61.27
242.907	-12.46
243.124	57.17
243.341	26.45
243.558	-39.08
243.775	-4.27
243.992	32.6
244.209	94.04
244.426	147.28
244.643	116.56
244.86	55.12
245.078	63.32
245.295	38.74
245.512	32.6
245.729	44.88
245.946	-16.55
246.163	3.93
246.38	1.88
246.597	87.89
246.814	108.37
247.031	-12.46
247.248	73.56
247.464	141.14
247.681	22.36
247.898	130.9
248.115	81.75
248.332	5.97
248.549	91.99
248.766	34.64
248.983	10.07
249.2	59.22
249.417	98.13
249.633	26.45
249.85	12.12
250.067	40.79
250.284	5.97
250.501	87.89
250.717	18.26
250.934	-39.08
251.151	16.21
251.368	51.03
251.585	36.69
251.801	18.26
252.018	118.61
252.235	71.51
252.451	12.12
252.668	44.88
252.885	96.08
253.102	100.18
253.318	28.5
253.535	118.61
253.752	51.03
253.968	-12.46
254.185	32.6
254.401	71.51
254.618	14.17
254.835	-53.42
255.051	169.81
255.268	75.6
255.484	-12.46
255.701	59.22
255.917	65.36
256.134	30.55
256.351	65.36
256.567	28.5
256.784	8.02
257	-12.46
257.217	24.4
257.433	12.12
257.65	79.7
257.866	48.98
258.082	-34.99
258.299	16.21
258.515	100.18
258.732	-57.51
258.948	26.45
259.165	57.17
259.381	-2.22
259.597	-43.18
259.814	46.93
260.03	42.84
260.246	38.74
260.463	36.69
260.679	89.94
260.895	-6.31
261.112	38.74
261.328	34.64
261.544	46.93
261.761	114.52
261.977	-41.13
262.193	28.5
262.409	79.7
262.626	130.9
262.842	-6.31
263.058	16.21
263.274	132.95
263.49	55.12
263.707	112.47
263.923	104.28
264.139	-39.08
264.355	87.89
264.571	53.08
264.787	71.51
265.004	36.69
265.22	71.51
265.436	-0.17
265.652	61.27
265.868	22.36
266.084	-32.94
266.3	71.51
266.516	24.4
266.732	106.32
266.948	106.32
267.164	-16.55
267.38	57.17
267.596	137.04
267.812	83.8
268.028	83.8
268.244	22.36
268.46	-4.27
268.676	10.07
268.892	71.51
269.108	16.21
269.324	-90.28
269.54	-32.94
269.756	98.13
269.972	-65.71
270.188	-55.47
270.403	1.88
270.619	77.65
270.835	38.74
271.051	22.36
271.267	12.12
271.483	98.13
271.698	5.97
271.914	65.36
272.13	28.5
272.346	55.12
272.562	-10.41
272.777	46.93
272.993	16.21
273.209	24.4
273.425	85.84
273.64	22.36
273.856	26.45
274.072	77.65
274.287	44.88
274.503	169.81
274.719	91.99
274.934	-6.31
275.15	-45.23
275.366	-20.65
275.581	53.08
275.797	85.84
276.012	14.17
276.228	30.55
276.444	42.84
276.659	26.45
276.875	65.36
277.09	-26.79
277.306	46.93
277.521	14.17
277.737	28.5
277.952	67.41
278.168	-10.41
278.383	34.64
278.599	38.74
278.814	126.8
279.03	55.12
279.245	63.32
279.461	32.6
279.676	116.56
279.892	-37.03
280.107	-4.27
280.322	-47.27
280.538	28.5
280.753	-6.31
280.969	38.74
281.184	81.75
281.399	63.32
281.615	-24.75
281.83	87.89
282.045	26.45
282.26	-32.94
282.476	12.12
282.691	126.8
282.906	18.26
283.122	51.03
283.337	55.12
283.552	-4.27
283.767	-8.36
283.983	-6.31
284.198	81.75
284.413	36.69
284.628	-47.27
284.843	16.21
285.058	38.74
285.274	3.93
285.489	30.55
285.704	116.56
285.919	65.36
286.134	14.17
286.349	22.36
286.564	55.12
286.779	165.71
286.995	46.93
287.21	-53.42
287.425	71.51
287.64	20.31
287.855	48.98
288.07	16.21
288.285	42.84
288.5	98.13
288.715	81.75
288.93	71.51
289.145	-6.31
289.36	20.31
289.575	-8.36
289.79	139.09
290.004	75.6
290.219	94.04
290.434	36.69
290.649	-26.79
290.864	32.6
291.079	112.47
291.294	85.84
291.509	26.45
291.724	-37.03
291.938	65.36
292.153	46.93
292.368	34.64
292.583	51.03
292.798	59.22
293.012	46.93
293.227	96.08
293.442	44.88
293.657	85.84
293.871	63.32
294.086	8.02
294.301	81.75
294.516	14.17
294.73	61.27
294.945	26.45
295.16	8.02
295.374	63.32
295.589	87.89
295.804	71.51
296.018	-6.31
296.233	89.94
296.447	69.46
296.662	61.27
296.877	10.07
297.091	67.41
297.306	-0.17
297.52	26.45
297.735	77.65
297.949	40.79
298.164	10.07
298.378	30.55
298.593	63.32
298.807	-39.08
299.022	48.98
299.236	137.04
299.451	34.64
299.665	20.31
299.88	65.36
300.094	-49.32
300.309	53.08
300.523	98.13
300.737	44.88
300.952	12.12
301.166	91.99
301.381	12.12
301.595	-2.22
301.809	42.84
302.024	79.7
302.238	10.07
302.452	69.46
302.667	28.5
302.881	38.74
303.095	59.22
303.309	22.36
303.524	22.36
303.738	-6.31
303.952	63.32
304.166	102.23
304.381	-20.65
304.595	63.32
304.809	16.21
305.023	53.08
305.237	22.36
305.452	30.55
305.666	98.13
305.88	61.27
306.094	130.9
306.308	83.8
306.522	57.17
306.736	1.88
306.95	85.84
307.164	24.4
307.379	14.17
307.593	77.65
307.807	91.99
308.021	51.03
308.235	34.64
308.449	-14.51
308.663	30.55
308.877	235.35
309.091	28.5
309.305	38.74
309.519	-67.75
309.733	63.32
309.947	5.97
310.161	79.7
310.374	83.8
310.588	69.46
310.802	48.98
311.016	-8.36
311.23	-2.22
311.444	-63.66
311.658	18.26
311.872	65.36
312.085	137.04
312.299	63.32
312.513	147.28
312.727	40.79
312.941	85.84
313.154	61.27
313.368	128.85
313.582	69.46
313.796	63.32
314.009	-8.36
314.223	139.09
314.437	57.17
314.651	36.69
314.864	40.79
315.078	8.02
315.292	-30.89
315.505	12.12
315.719	42.84
315.933	132.95
316.146	36.69
316.36	-82.09
316.573	108.37
316.787	77.65
317.001	71.51
317.214	-18.6
317.428	30.55
317.641	-18.6
317.855	40.79
318.068	-0.17
318.282	18.26
318.495	98.13
318.709	61.27
318.922	44.88
319.136	110.42
319.349	94.04
319.563	3.93
319.776	5.97
319.99	-55.47
320.203	16.21
320.417	110.42
320.63	85.84
320.843	63.32
321.057	12.12
321.27	71.51
321.483	38.74
321.697	141.14
321.91	85.84
322.124	42.84
322.337	65.36
322.55	36.69
322.763	44.88
322.977	126.8
323.19	-4.27
323.403	-14.51
323.617	65.36
323.83	34.64
324.043	20.31
324.256	3.93
324.469	-16.55
324.683	110.42
324.896	40.79
325.109	24.4
325.322	-18.6
325.535	77.65
325.748	51.03
325.962	110.42
326.175	55.12
326.388	69.46
326.601	38.74
326.814	-69.8
327.027	71.51
327.24	120.66
327.453	-82.09
327.666	18.26
327.879	63.32
328.092	34.64
328.305	77.65
328.518	-8.36
328.731	-45.23
328.944	30.55
329.157	48.98
329.37	32.6
329.583	100.18
329.796	71.51
330.009	-22.7
330.222	12.12
330.435	73.56
330.648	53.08
330.861	98.13
331.073	94.04
331.286	51.03
331.499	48.98
331.712	-55.47
331.925	-18.6
332.138	10.07
332.35	77.65
332.563	51.03
332.776	89.94
332.989	51.03
333.202	26.45
333.414	34.64
333.627	14.17
333.84	46.93
334.053	110.42
334.265	40.79
334.478	-22.7
334.691	46.93
334.903	85.84
335.116	26.45
335.329	-8.36
335.541	1.88
335.754	161.62
335.966	26.45
336.179	36.69
336.392	48.98
336.604	73.56
336.817	108.37
337.029	36.69
337.242	46.93
337.454	96.08
337.667	55.12
337.88	196.43
338.092	-30.89
338.305	73.56
338.517	61.27
338.729	46.93
338.942	104.28
339.154	18.26
339.367	-6.31
339.579	114.52
339.792	20.31
340.004	26.45
340.217	71.51
340.429	30.55
340.641	28.5
340.854	8.02
341.066	-14.51
341.278	63.32
341.491	79.7
341.703	79.7
341.915	-30.89
342.128	24.4
342.34	61.27
342.552	65.36
342.764	67.41
342.977	48.98
343.189	77.65
343.401	48.98
343.613	-12.46
343.826	24.4
344.038	22.36
344.25	10.07
344.462	-32.94
344.674	61.27
344.886	59.22
345.099	85.84
345.311	-6.31
345.523	100.18
345.735	20.31
345.947	57.17
346.159	1.88
346.371	75.6
346.583	-14.51
346.795	167.76
347.007	10.07
347.219	100.18
347.431	73.56
347.643	192.34
347.855	34.64
348.067	110.42
348.279	-51.37
348.491	48.98
348.703	38.74
348.915	36.69
349.127	-8.36
349.339	69.46
349.551	63.32
349.763	77.65
349.975	34.64
350.187	44.88
350.399	69.46
350.61	65.36
350.822	118.61
351.034	44.88
351.246	24.4
351.458	24.4
351.669	53.08
351.881	94.04
352.093	75.6
352.305	30.55
352.517	26.45
352.728	34.64
352.94	71.51
353.152	5.97
353.363	10.07
353.575	71.51
353.787	87.89
353.999	42.84
354.21	94.04
354.422	28.5
354.633	1.88
354.845	42.84
355.057	38.74
355.268	184.15
355.48	81.75
355.692	42.84
355.903	-6.31
356.115	44.88
356.326	-47.27
356.538	85.84
356.749	-0.17
356.961	63.32
357.172	28.5
357.384	-28.84
357.595	79.7
357.807	67.41
358.018	46.93
358.23	94.04
358.441	147.28
358.653	57.17
358.864	-26.79
359.075	55.12
359.287	-59.56
359.498	143.19
359.709	51.03
359.921	126.8
360.132	91.99
360.344	53.08
360.555	59.22
360.766	96.08
360.977	20.31
361.189	59.22
361.4	116.56
361.611	89.94
361.823	132.95
362.034	61.27
362.245	-6.31
362.456	1.88
362.667	18.26
362.879	-18.6
363.09	44.88
363.301	61.27
363.512	65.36
363.723	110.42
363.935	12.12
364.146	46.93
364.357	75.6
364.568	48.98
364.779	-16.55
364.99	10.07
365.201	28.5
365.412	44.88
365.623	12.12
365.834	69.46
366.045	30.55
366.256	85.84
366.467	32.6
366.678	79.7
366.889	53.08
367.1	-6.31
367.311	75.6
367.522	-0.17
367.733	75.6
367.944	153.43
368.155	36.69
368.366	63.32
368.577	96.08
368.788	61.27
368.999	55.12
369.209	143.19
369.42	163.67
369.631	145.24
369.842	91.99
370.053	-6.31
370.264	77.65
370.474	32.6
370.685	94.04
370.896	77.65
371.107	94.04
371.317	28.5
371.528	26.45
371.739	67.41
371.95	61.27
372.16	79.7
372.371	59.22
372.582	69.46
372.792	126.8
373.003	-12.46
373.214	44.88
373.424	46.93
373.635	-28.84
373.846	114.52
374.056	63.32
374.267	79.7
374.477	79.7
374.688	51.03
374.898	-8.36
375.109	30.55
375.319	85.84
375.53	77.65
375.74	102.23
375.951	-8.36
376.161	75.6
376.372	145.24
376.582	128.85
376.793	132.95
377.003	20.31
377.214	-22.7
377.424	34.64
377.635	16.21
377.845	-8.36
378.055	20.31
378.266	-47.27
378.476	65.36
378.686	83.8
378.897	61.27
379.107	147.28
379.317	94.04
379.528	44.88
379.738	55.12
379.948	12.12
380.158	94.04
380.369	-8.36
380.579	139.09
380.789	98.13
380.999	67.41
381.21	65.36
381.42	104.28
381.63	-30.89
381.84	38.74
382.05	120.66
382.261	57.17
382.471	91.99
382.681	83.8
382.891	102.23
383.101	12.12
383.311	-14.51
383.521	51.03
383.731	69.46
383.941	53.08
384.151	67.41
384.361	18.26
384.571	46.93
384.781	71.51
384.991	48.98
385.201	153.43
385.411	81.75
385.621	128.85
385.831	94.04
386.041	73.56
386.251	59.22
386.461	130.9
386.671	40.79
386.881	59.22
387.091	32.6
387.301	51.03
387.511	-28.84
387.72	5.97
387.93	38.74
388.14	-55.47
388.35	100.18
388.56	71.51
388.769	202.58
388.979	57.17
389.189	10.07
389.399	40.79
389.609	110.42
389.818	69.46
390.028	81.75
390.238	83.8
390.447	14.17
390.657	81.75
390.867	26.45
391.076	48.98
391.286	24.4
391.496	46.93
391.705	40.79
391.915	108.37
392.125	83.8
392.334	26.45
392.544	135
392.753	-39.08
392.963	-63.66
393.172	104.28
393.382	10.07
393.591	147.28
393.801	40.79
394.01	73.56
394.22	96.08
394.429	26.45
394.639	5.97
394.848	28.5
395.058	28.5
395.267	65.36
395.477	69.46
395.686	112.47
395.895	110.42
396.105	83.8
396.314	81.75
396.524	81.75
396.733	153.43
396.942	51.03
397.152	108.37
397.361	79.7
397.57	122.71
397.78	149.33
397.989	100.18
398.198	218.96
398.407	102.23
398.617	173.91
398.826	106.32
399.035	85.84
399.244	104.28
399.453	85.84
399.663	81.75
399.872	98.13
400.081	20.31
400.29	112.47
400.499	34.64
400.708	186.19
400.917	42.84
401.127	51.03
401.336	3.93
401.545	163.67
401.754	175.95
401.963	116.56
402.172	71.51
402.381	63.32
402.59	53.08
402.799	26.45
403.008	151.38
403.217	104.28
403.426	149.33
403.635	73.56
403.844	128.85
404.053	59.22
404.262	51.03
404.471	235.35
404.68	91.99
404.888	94.04
405.097	122.71
405.306	114.52
405.515	141.14
405.724	114.52
405.933	255.83
406.142	143.19
406.35	124.76
406.559	171.86
406.768	180.05
406.977	167.76
407.185	182.1
407.394	132.95
407.603	126.8
407.812	196.43
408.02	237.39
408.229	130.9
408.438	237.39
408.646	159.57
408.855	190.29
409.064	272.21
409.272	190.29
409.481	255.83
409.69	284.5
409.898	132.95
410.107	282.45
410.315	241.49
410.524	167.76
410.733	278.35
410.941	266.07
411.15	337.74
411.358	292.69
411.567	345.94
411.775	313.17
411.984	362.32
412.192	296.78
412.401	237.39
412.609	456.53
412.818	399.18
413.026	454.48
413.234	413.52
413.443	456.53
413.651	438.09
413.86	528.21
414.068	485.2
414.276	526.16
414.485	460.62
414.693	593.74
414.901	585.55
415.11	587.6
415.318	567.12
415.526	585.55
415.734	679.75
415.943	567.12
416.151	603.98
416.359	608.08
416.567	698.19
416.776	667.47
416.984	790.35
417.192	831.3
417.4	671.56
417.608	743.24
417.817	708.43
418.025	927.56
418.233	974.66
418.441	835.4
418.649	923.46
418.857	954.18
419.065	1025.86
419.273	905.03
419.481	1046.34
419.689	1109.83
419.897	1210.18
420.105	1087.3
420.313	1199.94
420.521	1357.63
420.729	1236.8
420.937	1165.12
421.145	1210.18
421.353	1433.41
421.561	1472.32
421.769	1417.02
421.977	1482.56
422.185	1460.03
422.393	1611.58
422.601	1808.19
422.809	1675.07
423.017	1736.51
423.224	1777.47
423.432	1802.04
423.64	1789.75
423.848	1984.31
424.056	1961.78
424.263	2076.47
424.471	2074.42
424.679	2154.29
424.887	2201.4
425.094	2387.76
425.302	2258.74
425.51	2299.7
425.718	2510.64
425.925	2604.85
426.133	2649.9
426.341	2887.47
426.548	2836.27
426.756	2977.58
426.964	2957.1
427.171	3094.31
427.379	3135.27
427.586	3120.93
427.794	3389.22
428.001	3417.89
428.209	3577.63
428.417	3469.09
428.624	3731.23
428.832	3829.53
429.039	3817.24
429.247	3745.56
429.454	4071.19
429.662	4413.2
429.869	4099.86
430.076	4308.76
430.284	4339.48
430.491	4407.06
430.699	4603.66
430.906	4620.05
431.114	4699.92
431.321	4960.01
431.528	4976.39
431.736	5230.34
431.943	5416.71
432.15	5279.49
432.358	5435.14
432.565	5785.34
432.772	5857.02
432.979	5943.03
433.187	6229.75
433.394	6153.98
433.601	6729.45
433.808	6389.49
434.016	6452.98
434.223	6872.81
434.43	7266.02
434.637	7073.51
434.844	7548.64
435.052	7593.7
435.259	7585.51
435.466	7677.66
435.673	7769.82
435.88	8177.37
436.087	8376.02
436.294	8490.71
436.501	8320.73
436.708	8189.66
436.915	8734.42
437.122	8949.45
437.329	8924.88
437.537	9244.36
437.743	9357
437.95	9510.6
438.157	9987.77
438.364	10290.87
438.571	10020.54
438.778	10272.44
438.985	11144.88
439.192	10626.74
439.399	11026.09
439.606	10583.73
439.813	11652.77
440.02	12082.84
440.227	11959.97
440.433	11968.16
440.64	12265.11
440.847	12095.13
441.054	12316.31
441.261	13274.76
441.467	13039.25
441.674	13297.29
441.881	13629.06
442.088	13592.2
442.294	13518.47
442.501	14118.53
442.708	14192.25
442.914	14581.37
443.121	15126.13
443.328	15115.89
443.534	16127.58
443.741	15767.14
443.948	15406.7
444.154	16653.91
444.361	16528.99
444.568	16418.39
444.774	16737.88
444.981	16764.5
445.187	17274.45
445.394	17671.75
445.6	17673.8
445.807	19365.42
446.013	18634.3
446.22	18902.58
446.426	19451.44
446.633	19602.99
446.839	20491.8
447.046	19273.26
447.252	20567.58
447.459	20633.11
447.665	20325.92
447.871	21646.86
448.078	22492.67
448.284	21159.44
448.491	22062.6
448.697	23041.53
448.903	23240.18
449.11	23358.96
449.316	23086.58
449.522	23481.84
449.728	23829.99
449.935	24190.44
450.141	23895.53
450.347	24550.88
450.553	23711.21
450.76	24172
450.966	25007.58
451.172	24503.78
451.378	25013.72
451.584	24628.7
451.791	25261.52
451.997	25222.61
452.203	25791.95
452.409	25548.24
452.615	25255.38
452.821	24423.9
453.027	24409.57
453.233	25484.75
453.44	24380.9
453.646	24692.19
453.852	24905.18
454.058	25091.54
454.264	24120.81
454.47	24747.48
454.676	24489.44
454.882	25105.88
455.088	22605.31
455.294	23102.96
455.5	23782.89
455.705	23803.37
455.911	22728.19
456.117	22136.32
456.323	22048.26
456.529	20811.29
456.735	21612.04
456.941	21206.55
457.147	21026.32
457.352	20090.4
457.558	19963.43
457.764	19910.18
457.97	19598.89
458.176	19052.08
458.381	18748.98
458.587	18073.15
458.793	18128.45
458.999	17210.96
459.204	18337.34
459.41	18165.31
459.616	16578.14
459.821	16664.15
460.027	16494.17
460.233	16258.65
460.438	15347.31
460.644	15576.68
460.85	14843.51
461.055	14831.22
461.261	14493.3
461.466	13446.79
461.672	13153.93
461.878	13858.43
462.083	12965.52
462.289	12854.93
462.494	12547.73
462.7	12152.48
462.905	11771.55
463.111	12332.7
463.316	12125.85
463.522	11955.87
463.727	11763.36
463.932	11859.62
464.138	11945.63
464.343	11892.38
464.549	11339.43
464.754	11767.46
464.959	11679.4
465.165	11607.72
465.37	11185.83
465.575	10679.99
465.781	11114.16
465.986	11304.62
466.191	10786.48
466.397	10471.09
466.602	10006.2
466.807	10596.02
467.012	10442.42
467.218	10383.03
