Data from USB4F104151__36__12-11-59-208.txt Node

Date: Fri Mar 14 12:11:59 EDT 2025
User: louis
Spectrometer: USB4F10415
Trigger mode: 4
Integration Time (sec): 5.000000E-2
Scans to average: 1
Electric dark correction enabled: true
Nonlinearity correction enabled: false
Boxcar width: 0
XAxis mode: Wavelengths
Number of Pixels in Spectrum: 3648
>>>>>Begin Spectral Data<<<<<
178.204	-295.59
178.424	-295.59
178.644	-295.59
178.864	-215.72
179.084	-219.82
179.304	1.37
179.524	-21.16
179.744	46.42
179.964	50.52
180.184	5.46
180.404	-33.45
180.624	-21.16
180.844	-37.55
181.064	-84.65
181.283	9.56
181.503	15.7
181.723	68.95
181.943	-62.12
182.163	56.66
182.383	5.46
182.602	42.32
182.822	89.43
183.042	1.37
183.262	5.46
183.482	-82.6
183.701	23.89
183.921	-10.92
184.141	-86.7
184.361	44.37
184.58	-21.16
184.8	-27.31
185.02	-4.78
185.239	19.8
185.459	83.28
185.679	97.62
185.898	-60.07
186.118	58.71
186.338	-19.11
186.557	68.95
186.777	23.89
186.997	-0.68
187.216	-86.7
187.436	50.52
187.655	64.85
187.875	-27.31
188.095	5.46
188.314	-29.35
188.534	89.43
188.753	5.46
188.973	-37.55
189.192	130.39
189.412	17.75
189.631	93.52
189.851	-58.03
190.07	105.81
190.29	-49.83
190.509	3.41
190.729	-17.07
190.948	105.81
191.168	179.54
191.387	25.94
191.607	-19.11
191.826	-0.68
192.045	-6.83
192.265	34.13
192.484	11.61
192.704	-47.79
192.923	25.94
193.142	81.24
193.362	77.14
193.581	60.76
193.8	21.85
194.02	81.24
194.239	-2.73
194.458	-27.31
194.678	79.19
194.897	-0.68
195.116	85.33
195.335	50.52
195.555	81.24
195.774	27.99
195.993	17.75
196.212	-33.45
196.432	-31.4
196.651	3.41
196.87	19.8
197.089	161.11
197.308	17.75
197.528	136.53
197.747	-88.75
197.966	15.7
198.185	87.38
198.404	-23.21
198.623	77.14
198.842	15.7
199.062	48.47
199.281	-4.78
199.5	32.08
199.719	21.85
199.938	-2.73
200.157	11.61
200.376	58.71
200.595	144.72
200.814	64.85
201.033	-92.84
201.252	79.19
201.471	7.51
201.69	19.8
201.909	3.41
202.128	25.94
202.347	50.52
202.566	-2.73
202.785	27.99
203.004	27.99
203.223	144.72
203.442	21.85
203.661	-45.74
203.879	13.65
204.098	46.42
204.317	-4.78
204.536	15.7
204.755	-0.68
204.974	23.89
205.193	-43.69
205.411	159.06
205.63	52.56
205.849	-6.83
206.068	75.09
206.287	-15.02
206.505	73.04
206.724	1.37
206.943	-58.03
207.162	27.99
207.381	42.32
207.599	-45.74
207.818	-19.11
208.037	11.61
208.255	-33.45
208.474	21.85
208.693	48.47
208.911	-8.87
209.13	50.52
209.349	87.38
209.567	120.15
209.786	122.2
210.005	38.23
210.223	56.66
210.442	-119.46
210.661	27.99
210.879	-4.78
211.098	-19.11
211.316	19.8
211.535	42.32
211.753	44.37
211.972	30.04
212.191	73.04
212.409	34.13
212.628	58.71
212.846	-15.02
213.065	30.04
213.283	32.08
213.502	54.61
213.72	-8.87
213.938	-21.16
214.157	27.99
214.375	3.41
214.594	-17.07
214.812	-12.97
215.031	-33.45
215.249	25.94
215.467	-35.5
215.686	5.46
215.904	60.76
216.122	-2.73
216.341	50.52
216.559	-119.46
216.778	30.04
216.996	25.94
217.214	3.41
217.432	3.41
217.651	-27.31
217.869	3.41
218.087	-39.59
218.306	5.46
218.524	-29.35
218.742	-12.97
218.96	-27.31
219.179	-29.35
219.397	-37.55
219.615	126.29
219.833	19.8
220.051	15.7
220.27	81.24
220.488	93.52
220.706	44.37
220.924	-0.68
221.142	5.46
221.36	-2.73
221.578	-12.97
221.796	73.04
222.015	62.8
222.233	34.13
222.451	128.34
222.669	-115.37
222.887	23.89
223.105	-33.45
223.323	17.75
223.541	-45.74
223.759	60.76
223.977	17.75
224.195	101.72
224.413	15.7
224.631	21.85
224.849	3.41
225.067	99.67
225.285	-21.16
225.503	7.51
225.721	-39.59
225.939	-49.83
226.157	42.32
226.375	136.53
226.592	32.08
226.81	-62.12
227.028	120.15
227.246	91.48
227.464	34.13
227.682	105.81
227.9	58.71
228.117	-45.74
228.335	-25.26
228.553	3.41
228.771	15.7
228.989	7.51
229.206	19.8
229.424	36.18
229.642	27.99
229.86	-31.4
230.077	44.37
230.295	-25.26
230.513	-2.73
230.731	58.71
230.948	81.24
231.166	87.38
231.384	36.18
231.601	-80.55
231.819	103.76
232.037	-0.68
232.254	-15.02
232.472	27.99
232.689	5.46
232.907	75.09
233.125	50.52
233.342	13.65
233.56	-0.68
233.777	-6.83
233.995	32.08
234.213	101.72
234.43	52.56
234.648	42.32
234.865	13.65
235.083	25.94
235.3	21.85
235.518	-8.87
235.735	42.32
235.953	75.09
236.17	38.23
236.388	13.65
236.605	34.13
236.822	71
237.04	81.24
237.257	50.52
237.475	-92.84
237.692	42.32
237.909	19.8
238.127	-17.07
238.344	15.7
238.562	54.61
238.779	-109.22
238.996	-17.07
239.214	56.66
239.431	83.28
239.648	30.04
239.865	19.8
240.083	60.76
240.3	62.8
240.517	-62.12
240.735	85.33
240.952	19.8
241.169	62.8
241.386	7.51
241.603	-31.4
241.821	-27.31
242.038	36.18
242.255	19.8
242.472	44.37
242.689	-21.16
242.907	62.8
243.124	30.04
243.341	15.7
243.558	-23.21
243.775	-88.75
243.992	-12.97
244.209	44.37
244.426	73.04
244.643	62.8
244.86	38.23
245.078	7.51
245.295	-80.55
245.512	-4.78
245.729	-55.98
245.946	-19.11
246.163	66.9
246.38	38.23
246.597	25.94
246.814	-19.11
247.031	58.71
247.248	38.23
247.464	-10.92
247.681	-2.73
247.898	-62.12
248.115	-45.74
248.332	-27.31
248.549	27.99
248.766	50.52
248.983	40.28
249.2	34.13
249.417	44.37
249.633	-49.83
249.85	99.67
250.067	34.13
250.284	3.41
250.501	62.8
250.717	99.67
250.934	-47.79
251.151	-0.68
251.368	60.76
251.585	54.61
251.801	1.37
252.018	-0.68
252.235	32.08
252.451	-35.5
252.668	-29.35
252.885	87.38
253.102	85.33
253.318	25.94
253.535	81.24
253.752	68.95
253.968	-43.69
254.185	25.94
254.401	9.56
254.618	-6.83
254.835	68.95
255.051	73.04
255.268	50.52
255.484	-17.07
255.701	23.89
255.917	54.61
256.134	60.76
256.351	27.99
256.567	46.42
256.784	-0.68
257	-47.79
257.217	64.85
257.433	27.99
257.65	27.99
257.866	93.52
258.082	-98.99
258.299	-53.93
258.515	68.95
258.732	17.75
258.948	-60.07
259.165	17.75
259.381	-4.78
259.597	124.24
259.814	-8.87
260.03	27.99
260.246	-37.55
260.463	30.04
260.679	75.09
260.895	-4.78
261.112	60.76
261.328	1.37
261.544	-12.97
261.761	150.87
261.977	21.85
262.193	17.75
262.409	25.94
262.626	60.76
262.842	-27.31
263.058	40.28
263.274	-33.45
263.49	-4.78
263.707	17.75
263.923	54.61
264.139	-0.68
264.355	7.51
264.571	11.61
264.787	11.61
265.004	50.52
265.22	23.89
265.436	15.7
265.652	-37.55
265.868	-27.31
266.084	-8.87
266.3	-6.83
266.516	-25.26
266.732	46.42
266.948	-23.21
267.164	9.56
267.38	62.8
267.596	13.65
267.812	62.8
268.028	64.85
268.244	-60.07
268.46	30.04
268.676	89.43
268.892	25.94
269.108	-2.73
269.324	38.23
269.54	7.51
269.756	101.72
269.972	-70.31
270.188	32.08
270.403	-35.5
270.619	30.04
270.835	-27.31
271.051	9.56
271.267	-43.69
271.483	11.61
271.698	89.43
271.914	7.51
272.13	54.61
272.346	-4.78
272.562	25.94
272.777	73.04
272.993	-47.79
273.209	-33.45
273.425	46.42
273.64	9.56
273.856	103.76
274.072	-12.97
274.287	-39.59
274.503	-8.87
274.719	23.89
274.934	34.13
275.15	-17.07
275.366	56.66
275.581	40.28
275.797	-10.92
276.012	46.42
276.228	7.51
276.444	17.75
276.659	120.15
276.875	-55.98
277.09	19.8
277.306	7.51
277.521	58.71
277.737	5.46
277.952	19.8
278.168	9.56
278.383	30.04
278.599	46.42
278.814	83.28
279.03	68.95
279.245	101.72
279.461	-29.35
279.676	17.75
279.892	-35.5
280.107	-33.45
280.322	7.51
280.538	62.8
280.753	-45.74
280.969	60.76
281.184	21.85
281.399	54.61
281.615	15.7
281.83	27.99
282.045	-45.74
282.26	-58.03
282.476	11.61
282.691	27.99
282.906	48.47
283.122	58.71
283.337	-17.07
283.552	42.32
283.767	-107.18
283.983	9.56
284.198	-84.65
284.413	136.53
284.628	-66.22
284.843	30.04
285.058	15.7
285.274	93.52
285.489	-78.51
285.704	134.48
285.919	-23.21
286.134	9.56
286.349	-10.92
286.564	23.89
286.779	85.33
286.995	19.8
287.21	-27.31
287.425	68.95
287.64	-37.55
287.855	3.41
288.07	-12.97
288.285	19.8
288.5	87.38
288.715	99.67
288.93	60.76
289.145	-35.5
289.36	87.38
289.575	-19.11
289.79	-4.78
290.004	19.8
290.219	11.61
290.434	-41.64
290.649	-29.35
290.864	-29.35
291.079	-8.87
291.294	13.65
291.509	30.04
291.724	-4.78
291.938	-21.16
292.153	-29.35
292.368	-8.87
292.583	-23.21
292.798	71
293.012	-55.98
293.227	46.42
293.442	19.8
293.657	75.09
293.871	15.7
294.086	62.8
294.301	101.72
294.516	52.56
294.73	42.32
294.945	-84.65
295.16	11.61
295.374	109.91
295.589	71
295.804	27.99
296.018	27.99
296.233	79.19
296.447	-23.21
296.662	-21.16
296.877	124.24
297.091	5.46
297.306	42.32
297.52	15.7
297.735	32.08
297.949	13.65
298.164	30.04
298.378	-19.11
298.593	-101.03
298.807	-45.74
299.022	44.37
299.236	46.42
299.451	-70.31
299.665	-19.11
299.88	48.47
300.094	-10.92
300.309	-29.35
300.523	42.32
300.737	-21.16
300.952	48.47
301.166	42.32
301.381	-68.27
301.595	-43.69
301.809	-19.11
302.024	-37.55
302.238	-47.79
302.452	40.28
302.667	30.04
302.881	36.18
303.095	95.57
303.309	62.8
303.524	77.14
303.738	32.08
303.952	3.41
304.166	62.8
304.381	-74.41
304.595	136.53
304.809	-33.45
305.023	-37.55
305.237	105.81
305.452	-66.22
305.666	36.18
305.88	25.94
306.094	1.37
306.308	85.33
306.522	23.89
306.736	1.37
306.95	32.08
307.164	103.76
307.379	40.28
307.593	25.94
307.807	42.32
308.021	27.99
308.235	1.37
308.449	-21.16
308.663	48.47
308.877	136.53
309.091	71
309.305	103.76
309.519	-51.88
309.733	46.42
309.947	-41.64
310.161	-55.98
310.374	27.99
310.588	114
310.802	-6.83
311.016	3.41
311.23	9.56
311.444	15.7
311.658	9.56
311.872	118.1
312.085	68.95
312.299	-4.78
312.513	42.32
312.727	-60.07
312.941	-8.87
313.154	50.52
313.368	-47.79
313.582	-39.59
313.796	-27.31
314.009	-0.68
314.223	79.19
314.437	3.41
314.651	36.18
314.864	-86.7
315.078	-10.92
315.292	-23.21
315.505	-23.21
315.719	60.76
315.933	40.28
316.146	27.99
316.36	-12.97
316.573	60.76
316.787	44.37
317.001	44.37
317.214	-45.74
317.428	15.7
317.641	13.65
317.855	-12.97
318.068	5.46
318.282	32.08
318.495	114
318.709	15.7
318.922	-0.68
319.136	83.28
319.349	58.71
319.563	50.52
319.776	54.61
319.99	-0.68
320.203	21.85
320.417	-8.87
320.63	-47.79
320.843	77.14
321.057	-31.4
321.27	36.18
321.483	-21.16
321.697	83.28
321.91	-31.4
322.124	-64.17
322.337	-2.73
322.55	-29.35
322.763	9.56
322.977	58.71
323.19	54.61
323.403	30.04
323.617	9.56
323.83	87.38
324.043	25.94
324.256	11.61
324.469	-12.97
324.683	91.48
324.896	-62.12
325.109	15.7
325.322	3.41
325.535	42.32
325.748	73.04
325.962	-0.68
326.175	-25.26
326.388	-17.07
326.601	9.56
326.814	-49.83
327.027	34.13
327.24	62.8
327.453	-45.74
327.666	75.09
327.879	73.04
328.092	97.62
328.305	5.46
328.518	-68.27
328.731	7.51
328.944	25.94
329.157	3.41
329.37	-31.4
329.583	54.61
329.796	91.48
330.009	-10.92
330.222	52.56
330.435	46.42
330.648	1.37
330.861	54.61
331.073	32.08
331.286	42.32
331.499	-53.93
331.712	-8.87
331.925	-47.79
332.138	27.99
332.35	-12.97
332.563	1.37
332.776	34.13
332.989	-70.31
333.202	-23.21
333.414	27.99
333.627	11.61
333.84	52.56
334.053	5.46
334.265	-6.83
334.478	-10.92
334.691	-25.26
334.903	11.61
335.116	3.41
335.329	75.09
335.541	-0.68
335.754	56.66
335.966	17.75
336.179	68.95
336.392	-23.21
336.604	91.48
336.817	85.33
337.029	-17.07
337.242	-8.87
337.454	-0.68
337.667	-17.07
337.88	99.67
338.092	58.71
338.305	138.58
338.517	-33.45
338.729	58.71
338.942	109.91
339.154	30.04
339.367	-43.69
339.579	68.95
339.792	-53.93
340.004	64.85
340.217	23.89
340.429	68.95
340.641	34.13
340.854	-6.83
341.066	19.8
341.278	118.1
341.491	171.35
341.703	75.09
341.915	-4.78
342.128	5.46
342.34	-2.73
342.552	7.51
342.764	46.42
342.977	46.42
343.189	-27.31
343.401	-10.92
343.613	-12.97
343.826	9.56
344.038	3.41
344.25	-2.73
344.462	-15.02
344.674	38.23
344.886	-6.83
345.099	32.08
345.311	52.56
345.523	1.37
345.735	7.51
345.947	17.75
346.159	3.41
346.371	46.42
346.583	-21.16
346.795	111.96
347.007	-35.5
347.219	13.65
347.431	32.08
347.643	60.76
347.855	64.85
348.067	87.38
348.279	23.89
348.491	-53.93
348.703	19.8
348.915	19.8
349.127	-29.35
349.339	21.85
349.551	-8.87
349.763	13.65
349.975	-45.74
350.187	66.9
350.399	107.86
350.61	54.61
350.822	87.38
351.034	34.13
351.246	36.18
351.458	73.04
351.669	73.04
351.881	3.41
352.093	85.33
352.305	89.43
352.517	50.52
352.728	32.08
352.94	38.23
353.152	95.57
353.363	17.75
353.575	5.46
353.787	36.18
353.999	66.9
354.21	126.29
354.422	38.23
354.633	44.37
354.845	19.8
355.057	-17.07
355.268	23.89
355.48	40.28
355.692	9.56
355.903	13.65
356.115	-4.78
356.326	-15.02
356.538	109.91
356.749	60.76
356.961	42.32
357.172	-15.02
357.384	-76.46
357.595	75.09
357.807	-105.13
358.018	62.8
358.23	62.8
358.441	136.53
358.653	-4.78
358.864	-10.92
359.075	-51.88
359.287	62.8
359.498	32.08
359.709	7.51
359.921	36.18
360.132	132.44
360.344	-10.92
360.555	-8.87
360.766	58.71
360.977	17.75
361.189	11.61
361.4	-72.36
361.611	21.85
361.823	91.48
362.034	21.85
362.245	-29.35
362.456	-12.97
362.667	58.71
362.879	54.61
363.09	-2.73
363.301	103.76
363.512	62.8
363.723	13.65
363.935	-0.68
364.146	71
364.357	58.71
364.568	122.2
364.779	-25.26
364.99	99.67
365.201	-25.26
365.412	116.05
365.623	-49.83
365.834	97.62
366.045	-8.87
366.256	58.71
366.467	-15.02
366.678	40.28
366.889	60.76
367.1	79.19
367.311	54.61
367.522	17.75
367.733	73.04
367.944	75.09
368.155	48.47
368.366	42.32
368.577	77.14
368.788	118.1
368.999	9.56
369.209	58.71
369.42	136.53
369.631	136.53
369.842	9.56
370.053	-10.92
370.264	46.42
370.474	7.51
370.685	15.7
370.896	79.19
371.107	81.24
371.317	68.95
371.528	-82.6
371.739	107.86
371.95	23.89
372.16	77.14
372.371	-51.88
372.582	-15.02
372.792	105.81
373.003	146.77
373.214	-6.83
373.424	91.48
373.635	-27.31
373.846	120.15
374.056	-0.68
374.267	71
374.477	89.43
374.688	-0.68
374.898	-8.87
375.109	50.52
375.319	9.56
375.53	138.58
375.74	118.1
375.951	40.28
376.161	36.18
376.372	99.67
376.582	-15.02
376.793	95.57
377.003	-15.02
377.214	-0.68
377.424	3.41
377.635	91.48
377.845	-15.02
378.055	-4.78
378.266	-2.73
378.476	75.09
378.686	36.18
378.897	101.72
379.107	11.61
379.317	54.61
379.528	30.04
379.738	91.48
379.948	11.61
380.158	75.09
380.369	-6.83
380.579	109.91
380.789	64.85
380.999	95.57
381.21	85.33
381.42	181.59
381.63	-70.31
381.84	107.86
382.05	58.71
382.261	118.1
382.471	79.19
382.681	56.66
382.891	99.67
383.101	11.61
383.311	9.56
383.521	30.04
383.731	73.04
383.941	52.56
384.151	87.38
384.361	-45.74
384.571	46.42
384.781	48.47
384.991	107.86
385.201	111.96
385.411	87.38
385.621	97.62
385.831	3.41
386.041	32.08
386.251	95.57
386.461	-6.83
386.671	30.04
386.881	75.09
387.091	-55.98
387.301	132.44
387.511	89.43
387.72	54.61
387.93	23.89
388.14	-15.02
388.35	66.9
388.56	111.96
388.769	38.23
388.979	50.52
389.189	46.42
389.399	50.52
389.609	56.66
389.818	58.71
390.028	23.89
390.238	165.2
390.447	-45.74
390.657	50.52
390.867	83.28
391.076	21.85
391.286	71
391.496	73.04
391.705	42.32
391.915	130.39
392.125	103.76
392.334	23.89
392.544	105.81
392.753	66.9
392.963	-15.02
393.172	107.86
393.382	-58.03
393.591	103.76
393.801	-15.02
394.01	148.82
394.22	109.91
394.429	40.28
394.639	128.34
394.848	111.96
395.058	103.76
395.267	62.8
395.477	118.1
395.686	83.28
395.895	101.72
396.105	169.3
396.314	52.56
396.524	36.18
396.733	9.56
396.942	95.57
397.152	34.13
397.361	181.59
397.57	48.47
397.78	40.28
397.989	197.97
398.198	189.78
398.407	27.99
398.617	114
398.826	-0.68
399.035	85.33
399.244	130.39
399.453	40.28
399.663	111.96
399.872	138.58
400.081	85.33
400.29	167.25
400.499	130.39
400.708	101.72
400.917	85.33
401.127	114
401.336	77.14
401.545	202.07
401.754	122.2
401.963	118.1
402.172	148.82
402.381	30.04
402.59	56.66
402.799	38.23
403.008	132.44
403.217	103.76
403.426	73.04
403.635	-8.87
403.844	134.48
404.053	103.76
404.262	111.96
404.471	216.4
404.68	202.07
404.888	79.19
405.097	97.62
405.306	97.62
405.515	130.39
405.724	138.58
405.933	187.73
406.142	202.07
406.35	228.69
406.559	173.39
406.768	183.63
406.977	224.59
407.185	238.93
407.394	169.3
407.603	132.44
407.812	132.44
408.02	261.46
408.229	214.35
408.438	257.36
408.646	191.83
408.855	277.84
409.064	271.7
409.272	290.13
409.481	386.38
409.69	247.12
409.898	243.03
410.107	304.46
410.315	259.41
410.524	271.7
410.733	365.9
410.941	392.53
411.15	406.86
411.358	357.71
411.567	435.53
411.775	439.63
411.984	417.1
412.192	517.45
412.401	425.29
412.609	539.98
412.818	476.49
413.026	505.17
413.234	503.12
413.443	548.17
413.651	472.4
413.86	578.89
414.068	617.8
414.276	632.14
414.485	595.28
414.693	664.91
414.901	783.69
415.11	726.35
415.318	705.87
415.526	724.3
415.734	841.03
415.943	793.93
416.151	871.75
416.359	838.98
416.567	804.17
416.776	937.29
416.984	906.57
417.192	1062.21
417.4	951.62
417.608	920.9
417.817	1023.3
418.025	1074.5
418.233	1185.09
418.441	1004.87
418.649	1144.13
418.857	1312.07
419.065	1307.97
419.273	1203.52
419.481	1353.02
419.689	1467.71
419.897	1561.92
420.105	1434.94
420.313	1580.35
420.521	1705.28
420.729	1656.12
420.937	1658.17
421.145	1760.57
421.353	1867.06
421.561	1928.5
421.769	1983.8
421.977	2143.54
422.185	1975.61
422.393	2245.94
422.601	2233.65
422.809	2315.57
423.017	2219.32
423.224	2448.69
423.432	2602.29
423.64	2518.32
423.848	2741.55
424.056	2614.57
424.263	2868.52
424.471	2923.82
424.679	3001.64
424.887	3083.56
425.094	3198.24
425.302	3269.92
425.51	3317.03
425.718	3396.9
425.925	3478.82
426.133	3470.62
426.341	3716.38
426.548	3867.93
426.756	3990.81
426.964	3960.09
427.171	4250.9
427.379	4261.14
427.586	4365.59
427.794	4455.7
428.001	4918.54
428.209	4875.53
428.417	4975.88
428.624	5242.12
428.832	5217.54
429.039	5154.05
429.247	5168.39
429.454	5702.91
429.662	6067.45
429.869	5682.43
430.076	5989.63
430.284	5913.85
430.491	6100.22
430.699	6692.08
430.906	6495.47
431.114	6575.35
431.321	6864.11
431.528	6870.25
431.736	7349.48
431.943	7666.91
432.15	7628
432.358	7652.58
432.565	8187.1
432.772	7961.82
432.979	8391.89
433.187	8619.22
433.394	8469.72
433.601	9114.83
433.808	9340.1
434.016	9075.91
434.223	9393.35
434.43	9995.45
434.637	9735.36
434.844	10525.88
435.052	10724.53
435.259	10667.19
435.466	10644.66
435.673	10650.8
435.88	11316.39
436.087	11988.13
436.294	11953.31
436.501	11529.38
436.708	11996.32
436.915	12428.44
437.122	12895.38
437.329	12760.21
437.537	13321.35
437.743	13448.33
437.95	13282.44
438.157	14095.49
438.364	14417.02
438.571	14435.45
438.778	14718.07
438.985	16163.93
439.192	15340.65
439.399	15740.01
439.606	15451.24
439.813	16354.4
440.02	17069.14
440.227	16929.88
440.433	16757.85
440.64	17255.5
440.847	17429.58
441.054	17689.67
441.261	18895.92
441.467	18506.81
441.674	19110.96
441.881	19844.13
442.088	19397.68
442.294	19256.37
442.501	19905.57
442.708	20374.56
442.914	21251.09
443.121	21967.88
443.328	21488.65
443.534	22934.52
443.741	22230.02
443.948	21853.19
444.154	23880.68
444.361	23313.39
444.568	23962.6
444.774	23716.84
444.981	24017.89
445.187	24685.53
445.394	25891.79
445.6	25492.43
445.807	27900.84
446.013	26887.1
446.22	27116.47
446.426	28427.17
446.633	28187.56
446.839	29705.1
447.046	28271.53
447.252	29887.37
447.459	29627.28
447.665	29868.94
447.871	31277.94
448.078	32564.07
448.284	30942.08
448.491	31656.82
448.697	33061.72
448.903	33571.67
449.11	33227.61
449.316	33043.29
449.522	33586
449.728	34569.03
449.935	34509.64
450.141	34865.99
450.347	35935.02
450.553	34732.87
450.76	35023.68
450.966	36117.29
451.172	35414.84
451.378	36191.02
451.584	36408.11
451.791	37036.83
451.997	36645.67
452.203	37274.4
452.409	37133.09
452.615	37073.7
452.821	35566.39
453.027	35304.25
453.233	37024.54
453.44	35722.04
453.646	35988.27
453.852	36229.93
454.058	37036.83
454.264	35560.25
454.47	36412.2
454.676	35664.69
454.882	36852.51
455.088	33809.23
455.294	34145.1
455.5	34730.82
455.705	35078.97
455.911	33495.89
456.117	33215.32
456.323	32539.49
456.529	31056.76
456.735	32408.42
456.941	31230.84
457.147	30829.44
457.352	29825.93
457.558	29768.59
457.764	29684.62
457.97	29209.5
458.176	28525.47
458.381	28500.9
458.587	27075.51
458.793	26983.35
458.999	25603.02
459.204	27538.35
459.41	26729.41
459.616	25330.64
459.821	24689.63
460.027	24929.24
460.233	24370.15
460.438	23198.71
460.644	23432.18
460.85	22615.04
461.055	22012.93
461.261	21947.4
461.466	20339.74
461.672	19682.34
461.878	21085.2
462.083	19653.67
462.289	19248.18
462.494	19233.84
462.7	18183.23
462.905	17873.99
463.111	18441.28
463.316	18515
463.522	17880.13
463.727	18031.68
463.932	18172.99
464.138	17904.71
464.343	18050.11
464.549	17421.39
464.754	18117.7
464.959	17921.09
465.165	17529.93
465.37	16936.02
465.575	16755.8
465.781	17120.34
465.986	17228.88
466.191	16675.93
466.397	16471.13
466.602	15627.37
