Data from USB4F104151__62__12-12-27-154.txt Node

Date: Fri Mar 14 12:12:27 EDT 2025
User: louis
Spectrometer: USB4F10415
Trigger mode: 4
Integration Time (sec): 5.000000E-2
Scans to average: 1
Electric dark correction enabled: true
Nonlinearity correction enabled: false
Boxcar width: 0
XAxis mode: Wavelengths
Number of Pixels in Spectrum: 3648
>>>>>Begin Spectral Data<<<<<
178.204	-237.39
178.424	-237.39
178.644	-237.39
178.864	-245.59
179.084	-184.15
179.304	45.23
179.524	22.7
179.744	0.17
179.964	88.23
180.184	-51.03
180.404	0.17
180.624	12.46
180.844	-34.64
181.064	-34.64
181.283	22.7
181.503	-51.03
181.723	-20.31
181.943	-12.12
182.163	145.58
182.383	51.37
182.602	22.7
182.822	67.75
183.042	69.8
183.262	-61.27
183.482	-24.4
183.701	34.99
183.921	55.47
184.141	0.17
184.361	164.01
184.58	24.75
184.8	-5.97
185.02	32.94
185.239	104.62
185.459	53.42
185.679	24.75
185.898	-34.64
186.118	4.27
186.338	34.99
186.557	84.14
186.777	2.22
186.997	-10.07
187.216	90.28
187.436	77.99
187.655	131.24
187.875	14.51
188.095	-8.02
188.314	51.37
188.534	143.53
188.753	-32.6
188.973	26.79
189.192	63.66
189.412	26.79
189.631	39.08
189.851	61.61
190.07	55.47
190.29	-59.22
190.509	28.84
190.729	-32.6
190.948	73.9
191.168	149.67
191.387	34.99
191.607	22.7
191.826	71.85
192.045	37.03
192.265	37.03
192.484	116.9
192.704	8.36
192.923	-8.02
193.142	143.53
193.362	82.09
193.581	86.19
193.8	94.38
194.02	106.67
194.239	92.33
194.458	51.37
194.678	59.56
194.897	69.8
195.116	69.8
195.335	73.9
195.555	131.24
195.774	16.55
195.993	71.85
196.212	-5.97
196.432	45.23
196.651	12.46
196.87	73.9
197.089	114.86
197.308	34.99
197.528	55.47
197.747	-10.07
197.966	96.43
198.185	147.62
198.404	-38.74
198.623	131.24
198.842	37.03
199.062	86.19
199.281	65.71
199.5	94.38
199.719	43.18
199.938	125.1
200.157	45.23
200.376	77.99
200.595	45.23
200.814	71.85
201.033	-30.55
201.252	24.75
201.471	61.61
201.69	135.34
201.909	10.41
202.128	-18.26
202.347	61.61
202.566	-20.31
202.785	59.56
203.004	-10.07
203.223	77.99
203.442	6.31
203.661	12.46
203.879	61.61
204.098	61.61
204.317	14.51
204.536	55.47
204.755	51.37
204.974	65.71
205.193	125.1
205.411	139.43
205.63	88.23
205.849	-22.36
206.068	75.95
206.287	57.51
206.505	65.71
206.724	37.03
206.943	32.94
207.162	61.61
207.381	75.95
207.599	22.7
207.818	45.23
208.037	47.27
208.255	8.36
208.474	12.46
208.693	47.27
208.911	69.8
209.13	-12.12
209.349	94.38
209.567	-51.03
209.786	104.62
210.005	45.23
210.223	67.75
210.442	2.22
210.661	49.32
210.879	4.27
211.098	2.22
211.316	28.84
211.535	10.41
211.753	0.17
211.972	75.95
212.191	24.75
212.409	24.75
212.628	18.6
212.846	-40.79
213.065	86.19
213.283	53.42
213.502	43.18
213.72	-48.98
213.938	41.13
214.157	12.46
214.375	61.61
214.594	84.14
214.812	116.9
215.031	102.57
215.249	28.84
215.467	0.17
215.686	82.09
215.904	49.32
216.122	18.6
216.341	125.1
216.559	14.51
216.778	90.28
216.996	73.9
217.214	32.94
217.432	-1.88
217.651	37.03
217.869	37.03
218.087	39.08
218.306	-16.21
218.524	94.38
218.742	-24.4
218.96	61.61
219.179	51.37
219.397	18.6
219.615	121
219.833	80.04
220.051	30.89
220.27	32.94
220.488	55.47
220.706	-3.93
220.924	59.56
221.142	18.6
221.36	82.09
221.578	67.75
221.796	80.04
222.015	6.31
222.233	69.8
222.451	47.27
222.669	2.22
222.887	73.9
223.105	-87.89
223.323	51.37
223.541	51.37
223.759	92.33
223.977	92.33
224.195	106.67
224.413	125.1
224.631	108.71
224.849	34.99
225.067	82.09
225.285	-34.64
225.503	53.42
225.721	-46.93
225.939	18.6
226.157	77.99
226.375	110.76
226.592	30.89
226.81	73.9
227.028	118.95
227.246	86.19
227.464	61.61
227.682	141.48
227.9	96.43
228.117	0.17
228.335	100.52
228.553	-28.5
228.771	10.41
228.989	45.23
229.206	127.14
229.424	37.03
229.642	37.03
229.86	-28.5
230.077	71.85
230.295	51.37
230.513	125.1
230.731	61.61
230.948	51.37
231.166	77.99
231.384	2.22
231.601	6.31
231.819	73.9
232.037	53.42
232.254	-10.07
232.472	16.55
232.689	73.9
232.907	2.22
233.125	16.55
233.342	28.84
233.56	-3.93
233.777	34.99
233.995	37.03
234.213	88.23
234.43	57.51
234.648	47.27
234.865	47.27
235.083	53.42
235.3	16.55
235.518	45.23
235.735	57.51
235.953	53.42
236.17	12.46
236.388	6.31
236.605	77.99
236.822	71.85
237.04	69.8
237.257	63.66
237.475	-36.69
237.692	59.56
237.909	82.09
238.127	10.41
238.344	39.08
238.562	90.28
238.779	-20.31
238.996	-28.5
239.214	12.46
239.431	53.42
239.648	-34.64
239.865	10.41
240.083	-5.97
240.3	-5.97
240.517	24.75
240.735	18.6
240.952	43.18
241.169	28.84
241.386	43.18
241.603	69.8
241.821	37.03
242.038	53.42
242.255	75.95
242.472	-20.31
242.689	86.19
242.907	55.47
243.124	-20.31
243.341	-3.93
243.558	8.36
243.775	14.51
243.992	-30.55
244.209	110.76
244.426	86.19
244.643	82.09
244.86	-20.31
245.078	84.14
245.295	20.65
245.512	108.71
245.729	-77.65
245.946	123.05
246.163	57.51
246.38	26.79
246.597	51.37
246.814	-32.6
247.031	-8.02
247.248	-34.64
247.464	47.27
247.681	41.13
247.898	53.42
248.115	96.43
248.332	-55.12
248.549	22.7
248.766	121
248.983	73.9
249.2	45.23
249.417	96.43
249.633	-14.17
249.85	77.99
250.067	18.6
250.284	14.51
250.501	88.23
250.717	51.37
250.934	41.13
251.151	71.85
251.368	-24.4
251.585	24.75
251.801	39.08
252.018	-30.55
252.235	8.36
252.451	37.03
252.668	86.19
252.885	63.66
253.102	-1.88
253.318	47.27
253.535	22.7
253.752	28.84
253.968	-18.26
254.185	45.23
254.401	39.08
254.618	0.17
254.835	26.79
255.051	139.43
255.268	49.32
255.484	-32.6
255.701	57.51
255.917	98.47
256.134	14.51
256.351	2.22
256.567	90.28
256.784	49.32
257	-55.12
257.217	59.56
257.433	49.32
257.65	88.23
257.866	98.47
258.082	18.6
258.299	39.08
258.515	84.14
258.732	-1.88
258.948	-16.21
259.165	-30.55
259.381	22.7
259.597	100.52
259.814	-44.88
260.03	57.51
260.246	75.95
260.463	102.57
260.679	24.75
260.895	59.56
261.112	80.04
261.328	77.99
261.544	26.79
261.761	149.67
261.977	63.66
262.193	-8.02
262.409	-5.97
262.626	67.75
262.842	8.36
263.058	118.95
263.274	20.65
263.49	26.79
263.707	75.95
263.923	-10.07
264.139	-87.89
264.355	16.55
264.571	157.86
264.787	61.61
265.004	32.94
265.22	-10.07
265.436	-1.88
265.652	6.31
265.868	2.22
266.084	8.36
266.3	51.37
266.516	32.94
266.732	92.33
266.948	69.8
267.164	92.33
267.38	-12.12
267.596	20.65
267.812	108.71
268.028	30.89
268.244	14.51
268.46	37.03
268.676	104.62
268.892	92.33
269.108	-46.93
269.324	6.31
269.54	4.27
269.756	77.99
269.972	-8.02
270.188	28.84
270.403	2.22
270.619	34.99
270.835	94.38
271.051	63.66
271.267	0.17
271.483	51.37
271.698	32.94
271.914	100.52
272.13	-20.31
272.346	53.42
272.562	-3.93
272.777	37.03
272.993	86.19
273.209	37.03
273.425	20.65
273.64	-30.55
273.856	67.75
274.072	39.08
274.287	-10.07
274.503	10.41
274.719	14.51
274.934	26.79
275.15	4.27
275.366	8.36
275.581	-5.97
275.797	-12.12
276.012	71.85
276.228	49.32
276.444	71.85
276.659	100.52
276.875	-10.07
277.09	30.89
277.306	-8.02
277.521	34.99
277.737	63.66
277.952	77.99
278.168	80.04
278.383	65.71
278.599	57.51
278.814	94.38
279.03	26.79
279.245	96.43
279.461	75.95
279.676	67.75
279.892	-10.07
280.107	135.34
280.322	-5.97
280.538	65.71
280.753	-12.12
280.969	77.99
281.184	45.23
281.399	51.37
281.615	55.47
281.83	51.37
282.045	-12.12
282.26	-3.93
282.476	6.31
282.691	63.66
282.906	24.75
283.122	34.99
283.337	-1.88
283.552	102.57
283.767	-3.93
283.983	49.32
284.198	88.23
284.413	166.06
284.628	-3.93
284.843	51.37
285.058	125.1
285.274	24.75
285.489	86.19
285.704	63.66
285.919	8.36
286.134	75.95
286.349	57.51
286.564	77.99
286.779	51.37
286.995	77.99
287.21	-5.97
287.425	65.71
287.64	-28.5
287.855	22.7
288.07	-24.4
288.285	63.66
288.5	178.34
288.715	110.76
288.93	34.99
289.145	16.55
289.36	121
289.575	-16.21
289.79	155.82
290.004	-30.55
290.219	41.13
290.434	-3.93
290.649	-24.4
290.864	20.65
291.079	10.41
291.294	6.31
291.509	-57.17
291.724	2.22
291.938	-18.26
292.153	-55.12
292.368	12.46
292.583	2.22
292.798	88.23
293.012	20.65
293.227	-26.45
293.442	-22.36
293.657	143.53
293.871	106.67
294.086	92.33
294.301	90.28
294.516	-18.26
294.73	86.19
294.945	18.6
295.16	-1.88
295.374	90.28
295.589	118.95
295.804	2.22
296.018	-18.26
296.233	-20.31
296.447	67.75
296.662	14.51
296.877	20.65
297.091	53.42
297.306	61.61
297.52	123.05
297.735	88.23
297.949	92.33
298.164	53.42
298.378	-12.12
298.593	12.46
298.807	10.41
299.022	86.19
299.236	139.43
299.451	6.31
299.665	34.99
299.88	24.75
300.094	63.66
300.309	-5.97
300.523	30.89
300.737	86.19
300.952	94.38
301.166	4.27
301.381	-10.07
301.595	2.22
301.809	26.79
302.024	18.6
302.238	-28.5
302.452	59.56
302.667	-3.93
302.881	141.48
303.095	108.71
303.309	114.86
303.524	-8.02
303.738	14.51
303.952	39.08
304.166	86.19
304.381	28.84
304.595	116.9
304.809	8.36
305.023	80.04
305.237	59.56
305.452	-22.36
305.666	75.95
305.88	-8.02
306.094	22.7
306.308	77.99
306.522	125.1
306.736	55.47
306.95	53.42
307.164	59.56
307.379	39.08
307.593	127.14
307.807	45.23
308.021	49.32
308.235	125.1
308.449	39.08
308.663	65.71
308.877	104.62
309.091	2.22
309.305	75.95
309.519	-18.26
309.733	102.57
309.947	-32.6
310.161	82.09
310.374	30.89
310.588	137.38
310.802	37.03
311.016	12.46
311.23	67.75
311.444	8.36
311.658	14.51
311.872	59.56
312.085	59.56
312.299	110.76
312.513	59.56
312.727	30.89
312.941	6.31
313.154	69.8
313.368	141.48
313.582	86.19
313.796	28.84
314.009	43.18
314.223	108.71
314.437	131.24
314.651	61.61
314.864	18.6
315.078	-22.36
315.292	24.75
315.505	-12.12
315.719	86.19
315.933	118.95
316.146	71.85
316.36	-59.22
316.573	41.13
316.787	92.33
317.001	41.13
317.214	-40.79
317.428	112.81
317.641	34.99
317.855	20.65
318.068	16.55
318.282	47.27
318.495	141.48
318.709	59.56
318.922	-10.07
319.136	116.9
319.349	96.43
319.563	10.41
319.776	-12.12
319.99	-40.79
320.203	67.75
320.417	43.18
320.63	90.28
320.843	94.38
321.057	98.47
321.27	65.71
321.483	2.22
321.697	96.43
321.91	94.38
322.124	61.61
322.337	16.55
322.55	24.75
322.763	80.04
322.977	0.17
323.19	55.47
323.403	45.23
323.617	57.51
323.83	-3.93
324.043	75.95
324.256	59.56
324.469	-14.17
324.683	30.89
324.896	51.37
325.109	55.47
325.322	-8.02
325.535	125.1
325.748	41.13
325.962	-14.17
326.175	39.08
326.388	-51.03
326.601	164.01
326.814	-3.93
327.027	51.37
327.24	145.58
327.453	55.47
327.666	96.43
327.879	-8.02
328.092	67.75
328.305	12.46
328.518	45.23
328.731	43.18
328.944	20.65
329.157	53.42
329.37	39.08
329.583	112.81
329.796	71.85
330.009	-5.97
330.222	26.79
330.435	45.23
330.648	51.37
330.861	75.95
331.073	57.51
331.286	145.58
331.499	26.79
331.712	84.14
331.925	22.7
332.138	88.23
332.35	80.04
332.563	32.94
332.776	73.9
332.989	-14.17
333.202	-14.17
333.414	-3.93
333.627	63.66
333.84	8.36
334.053	39.08
334.265	34.99
334.478	51.37
334.691	41.13
334.903	59.56
335.116	14.51
335.329	37.03
335.541	65.71
335.754	65.71
335.966	26.79
336.179	61.61
336.392	26.79
336.604	-12.12
336.817	61.61
337.029	69.8
337.242	26.79
337.454	61.61
337.667	84.14
337.88	100.52
338.092	57.51
338.305	18.6
338.517	37.03
338.729	30.89
338.942	100.52
339.154	12.46
339.367	26.79
339.579	51.37
339.792	-22.36
340.004	100.52
340.217	2.22
340.429	108.71
340.641	45.23
340.854	73.9
341.066	121
341.278	149.67
341.491	143.53
341.703	51.37
341.915	75.95
342.128	100.52
342.34	16.55
342.552	24.75
342.764	20.65
342.977	80.04
343.189	49.32
343.401	86.19
343.613	67.75
343.826	51.37
344.038	-24.4
344.25	61.61
344.462	-44.88
344.674	-30.55
344.886	84.14
345.099	121
345.311	123.05
345.523	30.89
345.735	-44.88
345.947	12.46
346.159	55.47
346.371	4.27
346.583	57.51
346.795	192.68
347.007	71.85
347.219	-1.88
347.431	-40.79
347.643	90.28
347.855	88.23
348.067	149.67
348.279	-8.02
348.491	32.94
348.703	22.7
348.915	69.8
349.127	4.27
349.339	147.62
349.551	55.47
349.763	75.95
349.975	-14.17
350.187	71.85
350.399	116.9
350.61	39.08
350.822	14.51
351.034	123.05
351.246	53.42
351.458	80.04
351.669	77.99
351.881	102.57
352.093	71.85
352.305	32.94
352.517	116.9
352.728	84.14
352.94	90.28
353.152	4.27
353.363	30.89
353.575	39.08
353.787	71.85
353.999	67.75
354.21	118.95
354.422	-46.93
354.633	18.6
354.845	47.27
355.057	129.19
355.268	43.18
355.48	88.23
355.692	53.42
355.903	-5.97
356.115	32.94
356.326	-46.93
356.538	110.76
356.749	30.89
356.961	131.24
357.172	34.99
357.384	-24.4
357.595	118.95
357.807	39.08
358.018	10.41
358.23	30.89
358.441	118.95
358.653	20.65
358.864	59.56
359.075	26.79
359.287	114.86
359.498	96.43
359.709	18.6
359.921	53.42
360.132	94.38
360.344	65.71
360.555	26.79
360.766	86.19
360.977	-5.97
361.189	65.71
361.4	45.23
361.611	73.9
361.823	88.23
362.034	88.23
362.245	-104.28
362.456	-36.69
362.667	69.8
362.879	-28.5
363.09	53.42
363.301	102.57
363.512	77.99
363.723	12.46
363.935	6.31
364.146	86.19
364.357	47.27
364.568	98.47
364.779	-48.98
364.99	73.9
365.201	-8.02
365.412	100.52
365.623	24.75
365.834	63.66
366.045	92.33
366.256	82.09
366.467	96.43
366.678	49.32
366.889	98.47
367.1	43.18
367.311	24.75
367.522	69.8
367.733	59.56
367.944	143.53
368.155	125.1
368.366	125.1
368.577	84.14
368.788	135.34
368.999	82.09
369.209	12.46
369.42	178.34
369.631	121
369.842	-20.31
370.053	32.94
370.264	39.08
370.474	32.94
370.685	65.71
370.896	77.99
371.107	100.52
371.317	118.95
371.528	14.51
371.739	198.82
371.95	82.09
372.16	88.23
372.371	24.75
372.582	41.13
372.792	32.94
373.003	43.18
373.214	57.51
373.424	88.23
373.635	43.18
373.846	96.43
374.056	108.71
374.267	53.42
374.477	47.27
374.688	22.7
374.898	37.03
375.109	18.6
375.319	86.19
375.53	127.14
375.74	108.71
375.951	98.47
376.161	82.09
376.372	47.27
376.582	49.32
376.793	77.99
377.003	53.42
377.214	41.13
377.424	22.7
377.635	133.29
377.845	22.7
378.055	118.95
378.266	-18.26
378.476	125.1
378.686	102.57
378.897	86.19
379.107	47.27
379.317	55.47
379.528	63.66
379.738	106.67
379.948	-24.4
380.158	75.95
380.369	34.99
380.579	88.23
380.789	43.18
380.999	59.56
381.21	71.85
381.42	90.28
381.63	6.31
381.84	127.14
382.05	131.24
382.261	59.56
382.471	77.99
382.681	30.89
382.891	112.81
383.101	80.04
383.311	53.42
383.521	45.23
383.731	98.47
383.941	104.62
384.151	110.76
384.361	41.13
384.571	47.27
384.781	88.23
384.991	129.19
385.201	20.65
385.411	121
385.621	45.23
385.831	92.33
386.041	86.19
386.251	12.46
386.461	51.37
386.671	-18.26
386.881	116.9
387.091	32.94
387.301	88.23
387.511	59.56
387.72	100.52
387.93	59.56
388.14	32.94
388.35	88.23
388.56	86.19
388.769	170.15
388.979	16.55
389.189	-32.6
389.399	127.14
389.609	139.43
389.818	75.95
390.028	86.19
390.238	145.58
390.447	-57.17
390.657	141.48
390.867	82.09
391.076	22.7
391.286	49.32
391.496	73.9
391.705	114.86
391.915	188.58
392.125	110.76
392.334	34.99
392.544	112.81
392.753	26.79
392.963	20.65
393.172	86.19
393.382	57.51
393.591	129.19
393.801	57.51
394.01	24.75
394.22	94.38
394.429	75.95
394.639	77.99
394.848	149.67
395.058	34.99
395.267	65.71
395.477	127.14
395.686	161.96
395.895	125.1
396.105	137.38
396.314	67.75
396.524	94.38
396.733	149.67
396.942	198.82
397.152	219.3
397.361	137.38
397.57	28.84
397.78	145.58
397.989	73.9
398.198	164.01
398.407	75.95
398.617	73.9
398.826	151.72
399.035	80.04
399.244	164.01
399.453	131.24
399.663	116.9
399.872	164.01
400.081	73.9
400.29	217.26
400.499	61.61
400.708	174.25
400.917	24.75
401.127	123.05
401.336	145.58
401.545	176.3
401.754	176.3
401.963	209.06
402.172	180.39
402.381	94.38
402.59	100.52
402.799	53.42
403.008	204.97
403.217	176.3
403.426	149.67
403.635	98.47
403.844	196.78
404.053	80.04
404.262	174.25
404.471	282.79
404.68	194.73
404.888	90.28
405.097	157.86
405.306	223.4
405.515	182.44
405.724	67.75
405.933	262.31
406.142	184.49
406.35	272.55
406.559	186.54
406.768	225.45
406.977	274.6
407.185	264.36
407.394	305.32
407.603	207.02
407.812	250.02
408.02	284.84
408.229	295.08
408.438	262.31
408.646	190.63
408.855	247.97
409.064	237.74
409.272	270.5
409.481	377
409.69	377
409.898	235.69
410.107	317.61
410.315	362.66
410.524	329.89
410.733	415.91
410.941	356.52
411.15	409.76
411.358	415.91
411.567	508.07
411.775	430.24
411.984	438.44
412.192	491.68
412.401	485.54
412.609	571.55
412.818	602.27
413.026	596.13
413.234	585.89
413.443	551.07
413.651	622.75
413.86	583.84
414.068	649.38
414.276	702.62
414.485	743.58
414.693	762.02
414.901	809.12
415.11	780.45
415.318	790.69
415.526	850.08
415.734	993.44
415.943	874.65
416.151	946.33
416.359	870.56
416.567	966.81
416.776	1075.35
416.984	1108.12
417.192	1104.03
417.4	1054.87
417.608	1147.03
417.817	1108.12
418.025	1185.94
418.233	1433.75
418.441	1134.75
418.649	1263.77
418.857	1466.52
419.065	1417.37
419.273	1423.51
419.481	1394.84
419.689	1536.15
419.897	1609.87
420.105	1560.72
420.313	1552.53
420.521	1755.28
420.729	1835.15
420.937	1796.24
421.145	1831.05
421.353	1951.88
421.561	2021.52
421.769	2027.66
421.977	2205.83
422.185	2218.12
422.393	2398.34
422.601	2502.79
422.809	2349.19
423.017	2410.63
423.224	2560.13
423.432	2709.63
423.64	2687.11
423.848	3031.16
424.056	2801.79
424.263	3074.17
424.471	2973.82
424.679	3182.71
424.887	3373.18
425.094	3504.25
425.302	3344.5
425.51	3522.68
425.718	3639.41
425.925	3764.34
426.133	3827.82
426.341	3860.59
426.548	4221.03
426.756	4216.94
426.964	4255.85
427.171	4540.52
427.379	4456.55
427.586	4632.68
427.794	4925.54
428.001	5048.41
428.209	5204.06
428.417	5236.83
428.624	5369.94
428.832	5453.91
429.039	5392.47
429.247	5398.62
429.454	6064.21
429.662	6375.5
429.869	5871.7
430.076	6344.78
430.284	6099.02
430.491	6490.18
430.699	6793.28
430.906	6930.5
431.114	6801.47
431.321	7145.53
431.528	7247.93
431.736	7761.97
431.943	8065.07
432.15	7665.72
432.358	7903.28
432.565	8345.64
432.772	8165.42
432.979	8630.31
433.187	8886.31
433.394	8689.7
433.601	9455.64
433.808	9584.66
434.016	9439.26
434.223	9777.17
434.43	10395.66
434.637	10199.06
434.844	10776.58
435.052	10946.56
435.259	10921.99
435.466	11083.78
435.673	10911.75
435.88	11554.81
436.087	12257.26
436.294	12193.78
436.501	12005.36
436.708	12115.95
436.915	12437.48
437.122	13258.72
437.329	12982.24
437.537	13412.32
437.743	13608.92
437.95	13533.15
438.157	14256.08
438.364	14596.04
438.571	14634.96
438.778	14725.07
438.985	16193.46
439.192	15583.16
439.399	16033.72
439.606	15507.39
439.813	16324.53
440.02	17301.41
440.227	17199.01
440.433	17139.62
440.64	17549.21
440.847	17455.01
441.054	17899.42
441.261	19150.73
441.467	18745.23
441.674	19134.34
441.881	19726.21
442.088	19593.09
442.294	19308.42
442.501	19801.98
442.708	20234.1
442.914	21032.81
443.121	22081.37
443.328	21450.6
443.534	22900.56
443.741	22452.05
443.948	21755.74
444.154	23562.05
444.361	23222.09
444.568	23711.55
444.774	23375.69
444.981	23779.14
445.187	24481.59
445.394	25614.12
445.6	25290.54
445.807	27614.98
446.013	26414.87
446.22	26777.36
446.426	27606.79
446.633	28018.43
446.839	29202.16
447.046	27752.2
447.252	29322.99
447.459	29224.68
447.665	29101.81
447.871	30097.12
448.078	31706.82
448.284	30412.51
448.491	30854.87
448.697	32544.44
448.903	32755.38
449.11	32763.57
449.316	32220.86
449.522	32999.09
449.728	33849
449.935	33803.94
450.141	34225.82
450.347	34238.11
450.553	33482.41
450.76	33447.6
450.966	34932.37
451.172	34463.39
451.378	35116.69
451.584	34821.78
451.791	35782.28
451.997	35122.83
452.203	35452.56
452.409	35948.17
452.615	35886.73
452.821	34246.3
453.027	34078.37
453.233	35796.62
453.44	34256.54
453.646	34518.68
453.852	34743.96
454.058	35485.33
454.264	34293.41
454.47	35399.31
454.676	34092.71
454.882	35339.92
455.088	32104.13
455.294	32671.42
455.5	33275.57
455.705	33400.49
455.911	31758.02
456.117	31708.87
456.323	30844.63
456.529	29218.54
456.735	30609.11
456.941	29658.85
457.147	29325.04
457.352	28538.62
457.558	27662.08
457.764	28165.88
457.97	27698.95
458.176	26982.16
458.381	26998.54
458.587	25476.9
458.793	25655.08
458.999	24352.57
459.204	25992.99
459.41	25155.37
459.616	23668.55
459.821	23527.24
460.027	23150.41
460.233	23220.04
460.438	21798.75
460.644	21983.07
460.85	20637.55
461.055	20428.66
461.261	20531.06
461.466	18888.59
461.672	18302.87
461.878	19562.37
462.083	18345.87
462.289	17905.56
462.494	17631.13
462.7	17219.49
462.905	16715.69
463.111	17074.09
463.316	17090.47
463.522	16650.16
463.727	16412.59
463.932	16793.51
464.138	16424.88
464.343	16252.85
464.549	15990.71
464.754	16693.16
464.959	16523.18
465.165	15982.52
465.37	15658.94
465.575	14976.97
465.781	15519.68
465.986	15890.36
466.191	15247.3
466.397	14706.63
466.602	14153.68
