Data from USB4F104151__21__12-11-41-509.txt Node

Date: Fri Mar 14 12:11:41 EDT 2025
User: louis
Spectrometer: USB4F10415
Trigger mode: 4
Integration Time (sec): 5.000000E-2
Scans to average: 1
Electric dark correction enabled: true
Nonlinearity correction enabled: false
Boxcar width: 0
XAxis mode: Wavelengths
Number of Pixels in Spectrum: 3648
>>>>>Begin Spectral Data<<<<<
178.204	-167.08
178.424	-167.08
178.644	-167.08
178.864	-189.61
179.084	-199.85
179.304	29.52
179.524	2.9
179.744	11.09
179.964	58.2
180.184	41.81
180.404	2.9
180.624	-64.68
180.844	-3.24
181.064	-140.46
181.283	52.05
181.503	-17.58
181.723	27.48
181.943	-85.16
182.163	86.87
182.383	-13.48
182.602	70.48
182.822	88.92
183.042	86.87
183.262	43.86
183.482	50
183.701	33.62
183.921	54.1
184.141	11.09
184.361	70.48
184.58	37.72
184.8	68.44
185.02	-62.63
185.239	105.3
185.459	-19.63
185.679	150.36
185.898	-56.49
186.118	2.9
186.338	-7.34
186.557	90.96
186.777	4.95
186.997	-42.15
187.216	50
187.436	131.92
187.655	95.06
187.875	78.68
188.095	80.72
188.314	47.96
188.534	60.24
188.753	-13.48
188.973	31.57
189.192	95.06
189.412	111.44
189.631	-13.48
189.851	47.96
190.07	97.11
190.29	-17.58
190.509	21.33
190.729	-36.01
190.948	93.01
191.168	205.65
191.387	129.88
191.607	76.63
191.826	99.16
192.045	17.24
192.265	-19.63
192.484	37.72
192.704	-17.58
192.923	-33.96
193.142	121.68
193.362	7
193.581	70.48
193.8	66.39
194.02	9.05
194.239	23.38
194.458	62.29
194.678	-48.3
194.897	39.76
195.116	-3.24
195.335	64.34
195.555	107.35
195.774	-7.34
195.993	111.44
196.212	15.19
196.432	41.81
196.651	7
196.87	-50.35
197.089	74.58
197.308	43.86
197.528	56.15
197.747	7
197.966	-5.29
198.185	68.44
198.404	43.86
198.623	50
198.842	82.77
199.062	93.01
199.281	127.83
199.5	-23.72
199.719	93.01
199.938	76.63
200.157	62.29
200.376	43.86
200.595	70.48
200.814	0.85
201.033	-62.63
201.252	60.24
201.471	97.11
201.69	19.29
201.909	7
202.128	35.67
202.347	25.43
202.566	-23.72
202.785	72.53
203.004	-9.39
203.223	47.96
203.442	58.2
203.661	13.14
203.879	66.39
204.098	84.82
204.317	9.05
204.536	56.15
204.755	15.19
204.974	138.07
205.193	99.16
205.411	205.65
205.63	-31.91
205.849	47.96
206.068	13.14
206.287	15.19
206.505	50
206.724	13.14
206.943	0.85
207.162	-3.24
207.381	64.34
207.599	105.3
207.818	19.29
208.037	-27.82
208.255	0.85
208.474	52.05
208.693	31.57
208.911	-42.15
209.13	99.16
209.349	21.33
209.567	54.1
209.786	64.34
210.005	17.24
210.223	7
210.442	-89.26
210.661	82.77
210.879	80.72
211.098	9.05
211.316	-40.11
211.535	-9.39
211.753	2.9
211.972	15.19
212.191	50
212.409	13.14
212.628	39.76
212.846	50
213.065	95.06
213.283	13.14
213.502	17.24
213.72	68.44
213.938	-72.87
214.157	0.85
214.375	33.62
214.594	78.68
214.812	-50.35
215.031	7
215.249	-50.35
215.467	33.62
215.686	64.34
215.904	119.64
216.122	-9.39
216.341	133.97
216.559	86.87
216.778	148.31
216.996	101.2
217.214	66.39
217.432	9.05
217.651	7
217.869	60.24
218.087	15.19
218.306	23.38
218.524	29.52
218.742	19.29
218.96	23.38
219.179	58.2
219.397	9.05
219.615	119.64
219.833	84.82
220.051	23.38
220.27	97.11
220.488	101.2
220.706	17.24
220.924	9.05
221.142	39.76
221.36	39.76
221.578	119.64
221.796	52.05
222.015	9.05
222.233	23.38
222.451	111.44
222.669	-1.19
222.887	47.96
223.105	-3.24
223.323	-19.63
223.541	17.24
223.759	56.15
223.977	23.38
224.195	103.25
224.413	56.15
224.631	88.92
224.849	45.91
225.067	109.4
225.285	21.33
225.503	50
225.721	-50.35
225.939	-52.39
226.157	43.86
226.375	146.26
226.592	-9.39
226.81	64.34
227.028	43.86
227.246	109.4
227.464	-21.67
227.682	105.3
227.9	-5.29
228.117	60.24
228.335	-11.43
228.553	0.85
228.771	-19.63
228.989	99.16
229.206	41.81
229.424	4.95
229.642	-19.63
229.86	13.14
230.077	35.67
230.295	7
230.513	88.92
230.731	74.58
230.948	54.1
231.166	76.63
231.384	97.11
231.601	45.91
231.819	105.3
232.037	19.29
232.254	-5.29
232.472	-9.39
232.689	35.67
232.907	11.09
233.125	15.19
233.342	19.29
233.56	41.81
233.777	45.91
233.995	43.86
234.213	19.29
234.43	27.48
234.648	7
234.865	13.14
235.083	60.24
235.3	-9.39
235.518	19.29
235.735	105.3
235.953	78.68
236.17	45.91
236.388	54.1
236.605	-3.24
236.822	84.82
237.04	60.24
237.257	17.24
237.475	19.29
237.692	23.38
237.909	54.1
238.127	27.48
238.344	35.67
238.562	50
238.779	2.9
238.996	15.19
239.214	62.29
239.431	82.77
239.648	47.96
239.865	99.16
240.083	84.82
240.3	68.44
240.517	-64.68
240.735	21.33
240.952	72.53
241.169	93.01
241.386	-23.72
241.603	-23.72
241.821	43.86
242.038	54.1
242.255	68.44
242.472	-25.77
242.689	11.09
242.907	78.68
243.124	25.43
243.341	-11.43
243.558	35.67
243.775	37.72
243.992	9.05
244.209	93.01
244.426	95.06
244.643	45.91
244.86	39.76
245.078	37.72
245.295	72.53
245.512	-7.34
245.729	70.48
245.946	80.72
246.163	23.38
246.38	76.63
246.597	13.14
246.814	99.16
247.031	-1.19
247.248	19.29
247.464	117.59
247.681	23.38
247.898	17.24
248.115	21.33
248.332	-11.43
248.549	64.34
248.766	148.31
248.983	68.44
249.2	-19.63
249.417	136.02
249.633	-19.63
249.85	115.54
250.067	52.05
250.284	70.48
250.501	9.05
250.717	97.11
250.934	-19.63
251.151	-36.01
251.368	47.96
251.585	15.19
251.801	-13.48
252.018	43.86
252.235	86.87
252.451	-7.34
252.668	-15.53
252.885	25.43
253.102	-5.29
253.318	-3.24
253.535	39.76
253.752	-11.43
253.968	17.24
254.185	0.85
254.401	82.77
254.618	56.15
254.835	62.29
255.051	95.06
255.268	39.76
255.484	39.76
255.701	4.95
255.917	74.58
256.134	23.38
256.351	27.48
256.567	-40.11
256.784	76.63
257	2.9
257.217	27.48
257.433	70.48
257.65	9.05
257.866	72.53
258.082	-91.31
258.299	-21.67
258.515	41.81
258.732	17.24
258.948	7
259.165	35.67
259.381	41.81
259.597	86.87
259.814	52.05
260.03	-9.39
260.246	68.44
260.463	131.92
260.679	82.77
260.895	86.87
261.112	72.53
261.328	-64.68
261.544	43.86
261.761	219.99
261.977	-1.19
262.193	-56.49
262.409	39.76
262.626	54.1
262.842	-42.15
263.058	72.53
263.274	21.33
263.49	66.39
263.707	25.43
263.923	68.44
264.139	-72.87
264.355	7
264.571	56.15
264.787	56.15
265.004	74.58
265.22	50
265.436	-29.87
265.652	47.96
265.868	127.83
266.084	39.76
266.3	64.34
266.516	-11.43
266.732	66.39
266.948	68.44
267.164	29.52
267.38	21.33
267.596	41.81
267.812	43.86
268.028	7
268.244	-23.72
268.46	-17.58
268.676	-33.96
268.892	86.87
269.108	13.14
269.324	31.57
269.54	-36.01
269.756	80.72
269.972	-76.97
270.188	7
270.403	-11.43
270.619	133.97
270.835	-95.4
271.051	29.52
271.267	41.81
271.483	-9.39
271.698	27.48
271.914	-3.24
272.13	99.16
272.346	0.85
272.562	31.57
272.777	58.2
272.993	41.81
273.209	-44.2
273.425	7
273.64	-17.58
273.856	11.09
274.072	-124.07
274.287	-21.67
274.503	23.38
274.719	97.11
274.934	-23.72
275.15	0.85
275.366	54.1
275.581	-46.25
275.797	33.62
276.012	-9.39
276.228	35.67
276.444	35.67
276.659	82.77
276.875	-17.58
277.09	25.43
277.306	50
277.521	0.85
277.737	-5.29
277.952	29.52
278.168	-1.19
278.383	86.87
278.599	70.48
278.814	66.39
279.03	74.58
279.245	43.86
279.461	50
279.676	119.64
279.892	41.81
280.107	-23.72
280.322	31.57
280.538	15.19
280.753	-48.3
280.969	-1.19
281.184	37.72
281.399	93.01
281.615	25.43
281.83	27.48
282.045	39.76
282.26	62.29
282.476	70.48
282.691	41.81
282.906	11.09
283.122	41.81
283.337	-87.21
283.552	78.68
283.767	-15.53
283.983	15.19
284.198	19.29
284.413	105.3
284.628	-62.63
284.843	2.9
285.058	56.15
285.274	84.82
285.489	4.95
285.704	13.14
285.919	19.29
286.134	31.57
286.349	93.01
286.564	29.52
286.779	136.02
286.995	70.48
287.21	-5.29
287.425	39.76
287.64	-62.63
287.855	-11.43
288.07	-29.87
288.285	43.86
288.5	-25.77
288.715	90.96
288.93	-46.25
289.145	-56.49
289.36	13.14
289.575	25.43
289.79	82.77
290.004	31.57
290.219	80.72
290.434	72.53
290.649	50
290.864	54.1
291.079	39.76
291.294	11.09
291.509	31.57
291.724	29.52
291.938	60.24
292.153	45.91
292.368	-9.39
292.583	82.77
292.798	54.1
293.012	41.81
293.227	78.68
293.442	105.3
293.657	86.87
293.871	138.07
294.086	54.1
294.301	150.36
294.516	95.06
294.73	9.05
294.945	-1.19
295.16	4.95
295.374	121.68
295.589	109.4
295.804	-19.63
296.018	62.29
296.233	47.96
296.447	-7.34
296.662	9.05
296.877	82.77
297.091	-27.82
297.306	84.82
297.52	-3.24
297.735	60.24
297.949	74.58
298.164	113.49
298.378	86.87
298.593	-42.15
298.807	47.96
299.022	52.05
299.236	95.06
299.451	-62.63
299.665	47.96
299.88	23.38
300.094	35.67
300.309	23.38
300.523	25.43
300.737	74.58
300.952	-29.87
301.166	31.57
301.381	-9.39
301.595	-36.01
301.809	62.29
302.024	19.29
302.238	-5.29
302.452	15.19
302.667	56.15
302.881	27.48
303.095	154.45
303.309	66.39
303.524	41.81
303.738	4.95
303.952	11.09
304.166	66.39
304.381	-66.73
304.595	21.33
304.809	43.86
305.023	-17.58
305.237	0.85
305.452	95.06
305.666	23.38
305.88	74.58
306.094	62.29
306.308	68.44
306.522	74.58
306.736	-21.67
306.95	50
307.164	-19.63
307.379	17.24
307.593	117.59
307.807	164.69
308.021	107.35
308.235	82.77
308.449	-76.97
308.663	41.81
308.877	117.59
309.091	-23.72
309.305	97.11
309.519	-27.82
309.733	86.87
309.947	-17.58
310.161	105.3
310.374	101.2
310.588	152.4
310.802	-72.87
311.016	88.92
311.23	-3.24
311.444	-40.11
311.658	56.15
311.872	41.81
312.085	33.62
312.299	9.05
312.513	156.5
312.727	80.72
312.941	15.19
313.154	2.9
313.368	47.96
313.582	21.33
313.796	-1.19
314.009	54.1
314.223	133.97
314.437	99.16
314.651	19.29
314.864	33.62
315.078	27.48
315.292	-15.53
315.505	62.29
315.719	95.06
315.933	-5.29
316.146	60.24
316.36	17.24
316.573	70.48
316.787	27.48
317.001	62.29
317.214	-1.19
317.428	60.24
317.641	-11.43
317.855	50
318.068	72.53
318.282	29.52
318.495	47.96
318.709	7
318.922	19.29
319.136	74.58
319.349	136.02
319.563	-15.53
319.776	76.63
319.99	-3.24
320.203	86.87
320.417	39.76
320.63	23.38
320.843	131.92
321.057	50
321.27	117.59
321.483	64.34
321.697	146.26
321.91	17.24
322.124	33.62
322.337	66.39
322.55	47.96
322.763	66.39
322.977	29.52
323.19	37.72
323.403	-52.39
323.617	45.91
323.83	68.44
324.043	-1.19
324.256	23.38
324.469	72.53
324.683	127.83
324.896	103.25
325.109	13.14
325.322	0.85
325.535	176.98
325.748	-17.58
325.962	39.76
326.175	54.1
326.388	47.96
326.601	74.58
326.814	-25.77
327.027	86.87
327.24	103.25
327.453	-52.39
327.666	62.29
327.879	70.48
328.092	101.2
328.305	66.39
328.518	25.43
328.731	19.29
328.944	136.02
329.157	72.53
329.37	62.29
329.583	47.96
329.796	62.29
330.009	-27.82
330.222	62.29
330.435	80.72
330.648	86.87
330.861	88.92
331.073	-33.96
331.286	39.76
331.499	47.96
331.712	-48.3
331.925	60.24
332.138	-13.48
332.35	68.44
332.563	37.72
332.776	66.39
332.989	-9.39
333.202	0.85
333.414	33.62
333.627	35.67
333.84	54.1
334.053	13.14
334.265	25.43
334.478	-7.34
334.691	47.96
334.903	17.24
335.116	-68.78
335.329	23.38
335.541	2.9
335.754	101.2
335.966	7
336.179	-64.68
336.392	-11.43
336.604	80.72
336.817	-3.24
337.029	-23.72
337.242	21.33
337.454	95.06
337.667	-44.2
337.88	105.3
338.092	54.1
338.305	95.06
338.517	-11.43
338.729	37.72
338.942	133.97
339.154	-9.39
339.367	52.05
339.579	39.76
339.792	7
340.004	80.72
340.217	17.24
340.429	43.86
340.641	27.48
340.854	33.62
341.066	-11.43
341.278	97.11
341.491	174.93
341.703	68.44
341.915	17.24
342.128	62.29
342.34	64.34
342.552	29.52
342.764	93.01
342.977	101.2
343.189	66.39
343.401	111.44
343.613	17.24
343.826	37.72
344.038	25.43
344.25	74.58
344.462	45.91
344.674	82.77
344.886	35.67
345.099	115.54
345.311	60.24
345.523	101.2
345.735	-107.69
345.947	31.57
346.159	-40.11
346.371	43.86
346.583	50
346.795	113.49
347.007	-21.67
347.219	72.53
347.431	-5.29
347.643	78.68
347.855	-79.02
348.067	50
348.279	13.14
348.491	76.63
348.703	140.12
348.915	33.62
349.127	-52.39
349.339	45.91
349.551	25.43
349.763	39.76
349.975	84.82
350.187	101.2
350.399	123.73
350.61	90.96
350.822	43.86
351.034	-9.39
351.246	66.39
351.458	37.72
351.669	82.77
351.881	80.72
352.093	21.33
352.305	93.01
352.517	31.57
352.728	86.87
352.94	109.4
353.152	45.91
353.363	47.96
353.575	50
353.787	113.49
353.999	88.92
354.21	103.25
354.422	25.43
354.633	113.49
354.845	84.82
355.057	-25.77
355.268	78.68
355.48	33.62
355.692	50
355.903	-9.39
356.115	23.38
356.326	-33.96
356.538	76.63
356.749	50
356.961	19.29
357.172	78.68
357.384	19.29
357.595	115.54
357.807	11.09
358.018	43.86
358.23	56.15
358.441	103.25
358.653	56.15
358.864	105.3
359.075	37.72
359.287	70.48
359.498	64.34
359.709	-17.58
359.921	43.86
360.132	11.09
360.344	54.1
360.555	11.09
360.766	68.44
360.977	41.81
361.189	86.87
361.4	33.62
361.611	82.77
361.823	60.24
362.034	9.05
362.245	-17.58
362.456	72.53
362.667	41.81
362.879	-76.97
363.09	35.67
363.301	138.07
363.512	62.29
363.723	74.58
363.935	47.96
364.146	105.3
364.357	0.85
364.568	95.06
364.779	-1.19
364.99	119.64
365.201	31.57
365.412	23.38
365.623	-9.39
365.834	41.81
366.045	86.87
366.256	50
366.467	47.96
366.678	11.09
366.889	4.95
367.1	95.06
367.311	56.15
367.522	58.2
367.733	-46.25
367.944	43.86
368.155	56.15
368.366	93.01
368.577	133.97
368.788	181.07
368.999	13.14
369.209	50
369.42	228.18
369.631	213.84
369.842	113.49
370.053	-19.63
370.264	86.87
370.474	-31.91
370.685	60.24
370.896	4.95
371.107	158.55
371.317	56.15
371.528	76.63
371.739	56.15
371.95	45.91
372.16	117.59
372.371	-50.35
372.582	64.34
372.792	111.44
373.003	70.48
373.214	15.19
373.424	80.72
373.635	21.33
373.846	93.01
374.056	50
374.267	31.57
374.477	58.2
374.688	58.2
374.898	39.76
375.109	39.76
375.319	-13.48
375.53	117.59
375.74	84.82
375.951	39.76
376.161	50
376.372	111.44
376.582	-9.39
376.793	93.01
377.003	52.05
377.214	15.19
377.424	93.01
377.635	-33.96
377.845	68.44
378.055	80.72
378.266	-27.82
378.476	21.33
378.686	31.57
378.897	109.4
379.107	82.77
379.317	121.68
379.528	-7.34
379.738	70.48
379.948	23.38
380.158	9.05
380.369	68.44
380.579	68.44
380.789	54.1
380.999	52.05
381.21	101.2
381.42	109.4
381.63	-27.82
381.84	64.34
382.05	-1.19
382.261	123.73
382.471	52.05
382.681	52.05
382.891	62.29
383.101	129.88
383.311	-54.44
383.521	4.95
383.731	119.64
383.941	76.63
384.151	64.34
384.361	31.57
384.571	21.33
384.781	80.72
384.991	111.44
385.201	113.49
385.411	76.63
385.621	80.72
385.831	101.2
386.041	95.06
386.251	56.15
386.461	64.34
386.671	52.05
386.881	45.91
387.091	19.29
387.301	138.07
387.511	56.15
387.72	117.59
387.93	121.68
388.14	-3.24
388.35	58.2
388.56	97.11
388.769	97.11
388.979	19.29
389.189	4.95
389.399	45.91
389.609	119.64
389.818	90.96
390.028	23.38
390.238	150.36
390.447	25.43
390.657	52.05
390.867	-9.39
391.076	52.05
391.286	93.01
391.496	58.2
391.705	95.06
391.915	158.55
392.125	123.73
392.334	25.43
392.544	152.4
392.753	105.3
392.963	103.25
393.172	78.68
393.382	82.77
393.591	187.22
393.801	17.24
394.01	129.88
394.22	113.49
394.429	17.24
394.639	-50.35
394.848	56.15
395.058	50
395.267	99.16
395.477	109.4
395.686	90.96
395.895	189.27
396.105	207.7
396.314	187.22
396.524	121.68
396.733	148.31
396.942	95.06
397.152	119.64
397.361	160.59
397.57	125.78
397.78	103.25
397.989	78.68
398.198	179.03
398.407	101.2
398.617	78.68
398.826	72.53
399.035	101.2
399.244	164.69
399.453	99.16
399.663	54.1
399.872	101.2
400.081	88.92
400.29	123.73
400.499	78.68
400.708	152.4
400.917	109.4
401.127	138.07
401.336	162.64
401.545	199.51
401.754	101.2
401.963	252.75
402.172	97.11
402.381	74.58
402.59	105.3
402.799	201.55
403.008	174.93
403.217	127.83
403.426	129.88
403.635	103.25
403.844	187.22
404.053	181.07
404.262	82.77
404.471	181.07
404.68	195.41
404.888	156.5
405.097	154.45
405.306	111.44
405.515	156.5
405.724	68.44
405.933	195.41
406.142	209.75
406.35	226.13
406.559	146.26
406.768	131.92
406.977	289.62
407.185	219.99
407.394	226.13
407.603	187.22
407.812	236.37
408.02	291.66
408.229	230.23
408.438	185.17
408.646	140.12
408.855	222.03
409.064	256.85
409.272	244.56
409.481	283.47
409.69	353.1
409.898	265.04
410.107	265.04
410.315	275.28
410.524	336.72
410.733	219.99
410.941	336.72
411.15	338.77
411.358	365.39
411.567	451.41
411.775	349.01
411.984	402.26
412.192	457.55
412.401	357.2
412.609	488.27
412.818	545.61
413.026	453.45
413.234	500.56
413.443	469.84
413.651	480.08
413.86	459.6
414.068	621.39
414.276	602.96
414.485	510.8
414.693	674.64
414.901	742.22
415.11	688.97
415.318	602.96
415.526	783.18
415.734	738.12
415.943	754.51
416.151	832.33
416.359	754.51
416.567	865.1
416.776	1000.26
416.984	959.3
417.192	1035.08
417.4	887.62
417.608	967.49
417.817	1104.71
418.025	1155.91
418.233	1196.87
418.441	1235.78
418.649	1131.33
418.857	1221.44
419.065	1332.03
419.273	1243.97
419.481	1313.6
419.689	1430.34
419.897	1418.05
420.105	1370.94
420.313	1469.25
420.521	1561.41
420.729	1674.04
420.937	1733.43
421.145	1682.24
421.353	1772.35
421.561	1827.64
421.769	1936.18
421.977	1987.38
422.185	2085.69
422.393	2161.46
422.601	2251.57
422.809	2218.8
423.017	2267.95
423.224	2405.17
423.432	2493.23
423.64	2399.02
423.848	2630.45
424.056	2521.9
424.263	2771.76
424.471	2636.59
424.679	2890.54
424.887	3054.37
425.094	3181.35
425.302	3214.12
425.51	3296.04
425.718	3265.32
425.925	3328.8
426.133	3490.59
426.341	3762.97
426.548	3814.17
426.756	3969.82
426.964	3857.18
427.171	4231.96
427.379	4109.08
427.586	4143.89
427.794	4336.4
428.001	4659.98
428.209	4815.63
428.417	4799.24
428.624	4981.51
428.832	5036.81
429.039	4971.27
429.247	5004.04
429.454	5556.99
429.662	6066.94
429.869	5524.23
430.076	5989.11
430.284	5722.88
430.491	6177.53
430.699	6337.27
430.906	6458.1
431.114	6402.8
431.321	6560.5
431.528	6591.22
431.736	7256.81
431.943	7412.45
432.15	7217.9
432.358	7430.88
432.565	7789.28
432.772	7570.15
432.979	8200.92
433.187	8262.36
433.394	8377.05
433.601	8889.04
433.808	9022.16
434.016	8925.9
434.223	9261.77
434.43	9886.4
434.637	9624.26
434.844	10234.55
435.052	10357.43
435.259	10322.62
435.466	10629.81
435.673	10425.01
435.88	11190.95
436.087	11606.69
436.294	11508.39
436.501	11377.32
436.708	11545.25
436.915	11920.03
437.122	12421.78
437.329	12413.59
437.537	12720.79
437.743	12941.97
437.95	12788.37
438.157	13847.17
438.364	13836.93
438.571	14045.82
438.778	14406.27
438.985	15485.55
439.192	14717.56
439.399	15190.64
439.606	14959.22
439.813	15938.15
440.02	16902.74
440.227	16450.14
440.433	16263.77
440.64	16847.44
440.847	16654.94
441.054	17085.01
441.261	18401.85
441.467	18139.71
441.674	18108.99
441.881	19264.05
442.088	18985.52
442.294	18766.39
442.501	19391.02
442.708	19735.08
442.914	20417.05
443.121	21008.92
443.328	20808.22
443.534	22331.9
443.741	21807.62
443.948	21430.8
444.154	23013.88
444.361	22766.07
444.568	22770.17
444.774	22860.28
444.981	23144.95
445.187	23957.99
445.394	24789.47
445.6	24693.21
445.807	27058.62
446.013	25807.31
446.22	25924.04
446.426	27034.04
446.633	27480.5
446.839	28465.57
447.046	27513.27
447.252	28699.04
447.459	28887.45
447.665	28471.71
447.871	30011.79
448.078	31498.61
448.284	29536.66
448.491	30800.26
448.697	31512.95
448.903	32463.21
449.11	32369
449.316	31861.1
449.522	32536.93
449.728	33360.22
449.935	33546.58
450.141	33702.23
450.347	34212.17
450.553	33108.32
450.76	33595.73
450.966	34330.95
451.172	34181.45
451.378	35098.94
451.584	34306.38
451.791	35461.43
451.997	35152.19
452.203	35914.03
452.409	35959.09
452.615	35580.21
452.821	34124.11
453.027	34017.61
453.233	35426.62
453.44	34337.1
453.646	34509.13
453.852	34595.14
454.058	35236.16
454.264	34257.23
454.47	35234.11
454.676	33896.78
454.882	35137.85
455.088	32272.74
455.294	32815.46
455.5	32850.27
455.705	33329.5
455.911	31957.36
456.117	31621.49
456.323	31097.21
456.529	29458.84
456.735	30650.75
456.941	29966.73
457.147	29102.49
457.352	28608.93
457.558	28008.87
457.764	28266.92
457.97	27589.04
458.176	27046.33
458.381	27222.45
458.587	25694.67
458.793	25872.84
458.999	24390.11
459.204	26141.13
459.41	25381.33
459.616	23697.9
459.821	23341.55
460.027	23276.02
460.233	22952.44
460.438	21887.5
460.644	22305.28
460.85	20797.98
461.055	20988.44
461.261	20533.79
461.466	19218.99
461.672	18623.03
461.878	19982.88
462.083	18577.98
462.289	17992.26
462.494	18186.82
462.7	17199.69
462.905	16691.8
463.111	17390.16
463.316	17320.53
463.522	16843.35
463.727	17334.86
463.932	16962.13
464.138	17101.39
464.343	17199.69
464.549	16312.92
464.754	17134.16
464.959	16679.51
465.165	16689.75
465.37	16022.11
465.575	15764.07
465.781	16288.35
465.986	16458.33
466.191	15651.43
466.397	15293.04
466.602	14742.13
466.807	15209.07
467.012	15334
467.218	14922.35
467.423	14971.5
467.628	14930.55
467.833	15616.62
