Data from USB4F104151__16__12-11-37-710.txt Node

Date: Fri Mar 14 12:11:37 EDT 2025
User: louis
Spectrometer: USB4F10415
Trigger mode: 4
Integration Time (sec): 5.000000E-2
Scans to average: 1
Electric dark correction enabled: true
Nonlinearity correction enabled: false
Boxcar width: 0
XAxis mode: Wavelengths
Number of Pixels in Spectrum: 3648
>>>>>Begin Spectral Data<<<<<
178.204	-269.82
178.424	-269.82
178.644	-269.82
178.864	-218.62
179.084	-165.37
179.304	35.33
179.524	-34.3
179.744	-17.92
179.964	23.04
180.184	-17.92
180.404	10.75
180.624	-5.63
180.844	-17.92
181.064	-97.79
181.283	33.28
181.503	31.23
181.723	57.86
181.943	-36.35
182.163	88.57
182.383	-13.82
182.602	2.56
182.822	88.57
183.042	16.9
183.262	-38.4
183.482	68.09
183.701	-3.58
183.921	29.18
184.141	-5.63
184.361	68.09
184.58	27.14
184.8	29.18
185.02	41.47
185.239	-1.54
185.459	57.86
185.679	55.81
185.898	-79.36
186.118	53.76
186.338	-11.78
186.557	78.33
186.777	-5.63
186.997	-15.87
187.216	-5.63
187.436	51.71
187.655	49.66
187.875	37.38
188.095	-9.73
188.314	49.66
188.534	123.39
188.753	-40.45
188.973	0.51
189.192	51.71
189.412	16.9
189.631	23.04
189.851	55.81
190.07	55.81
190.29	18.94
190.509	12.8
190.729	55.81
190.948	96.77
191.168	254.46
191.387	53.76
191.607	-17.92
191.826	14.85
192.045	-11.78
192.265	-1.54
192.484	14.85
192.704	-17.92
192.923	45.57
193.142	135.68
193.362	90.62
193.581	68.09
193.8	74.24
194.02	90.62
194.239	-19.97
194.458	-26.11
194.678	10.75
194.897	2.56
195.116	16.9
195.335	-15.87
195.555	23.04
195.774	18.94
195.993	51.71
196.212	-32.26
196.432	-1.54
196.651	100.86
196.87	-32.26
197.089	139.77
197.308	64
197.528	27.14
197.747	-13.82
197.966	45.57
198.185	96.77
198.404	-26.11
198.623	39.42
198.842	0.51
199.062	64
199.281	100.86
199.5	-11.78
199.719	61.95
199.938	57.86
200.157	0.51
200.376	64
200.595	6.66
200.814	74.24
201.033	37.38
201.252	47.62
201.471	-38.4
201.69	14.85
201.909	43.52
202.128	41.47
202.347	45.57
202.566	51.71
202.785	16.9
203.004	-48.64
203.223	84.48
203.442	-32.26
203.661	0.51
203.879	-77.31
204.098	115.2
204.317	43.52
204.536	80.38
204.755	-56.83
204.974	57.86
205.193	49.66
205.411	104.96
205.63	0.51
205.849	4.61
206.068	82.43
206.287	-48.64
206.505	27.14
206.724	-24.06
206.943	27.14
207.162	12.8
207.381	68.09
207.599	51.71
207.818	84.48
208.037	-54.78
208.255	8.7
208.474	82.43
208.693	-3.58
208.911	37.38
209.13	-7.68
209.349	-60.93
209.567	98.81
209.786	57.86
210.005	37.38
210.223	-5.63
210.442	-50.69
210.661	64
210.879	14.85
211.098	4.61
211.316	-38.4
211.535	82.43
211.753	-38.4
211.972	-7.68
212.191	-34.3
212.409	31.23
212.628	-24.06
212.846	33.28
213.065	61.95
213.283	74.24
213.502	43.52
213.72	47.62
213.938	47.62
214.157	20.99
214.375	31.23
214.594	2.56
214.812	107.01
215.031	33.28
215.249	12.8
215.467	49.66
215.686	29.18
215.904	35.33
216.122	-22.02
216.341	94.72
216.559	27.14
216.778	145.92
216.996	104.96
217.214	10.75
217.432	-24.06
217.651	-38.4
217.869	10.75
218.087	86.53
218.306	31.23
218.524	-7.68
218.742	-28.16
218.96	29.18
219.179	-34.3
219.397	16.9
219.615	90.62
219.833	2.56
220.051	-36.35
220.27	39.42
220.488	33.28
220.706	31.23
220.924	16.9
221.142	23.04
221.36	14.85
221.578	90.62
221.796	31.23
222.015	-3.58
222.233	55.81
222.451	100.86
222.669	90.62
222.887	64
223.105	37.38
223.323	61.95
223.541	16.9
223.759	-52.74
223.977	43.52
224.195	78.33
224.413	8.7
224.631	-17.92
224.849	43.52
225.067	123.39
225.285	49.66
225.503	-44.54
225.721	-17.92
225.939	64
226.157	68.09
226.375	190.97
226.592	29.18
226.81	47.62
227.028	14.85
227.246	137.73
227.464	-24.06
227.682	-26.11
227.9	96.77
228.117	49.66
228.335	47.62
228.553	-13.82
228.771	18.94
228.989	-48.64
229.206	92.67
229.424	-24.06
229.642	-3.58
229.86	-11.78
230.077	82.43
230.295	16.9
230.513	70.14
230.731	96.77
230.948	12.8
231.166	107.01
231.384	-5.63
231.601	-34.3
231.819	80.38
232.037	-44.54
232.254	-60.93
232.472	53.76
232.689	-26.11
232.907	102.91
233.125	-5.63
233.342	4.61
233.56	6.66
233.777	10.75
233.995	55.81
234.213	78.33
234.43	18.94
234.648	-28.16
234.865	-30.21
235.083	41.47
235.3	66.05
235.518	-91.65
235.735	94.72
235.953	90.62
236.17	29.18
236.388	-3.58
236.605	51.71
236.822	74.24
237.04	35.33
237.257	76.29
237.475	-50.69
237.692	-11.78
237.909	-40.45
238.127	-22.02
238.344	70.14
238.562	-30.21
238.779	-24.06
238.996	-73.21
239.214	10.75
239.431	39.42
239.648	-38.4
239.865	88.57
240.083	43.52
240.3	-9.73
240.517	-22.02
240.735	-9.73
240.952	129.53
241.169	53.76
241.386	-22.02
241.603	-1.54
241.821	-32.26
242.038	131.58
242.255	100.86
242.472	10.75
242.689	98.81
242.907	61.95
243.124	-44.54
243.341	0.51
243.558	-48.64
243.775	-15.87
243.992	-73.21
244.209	41.47
244.426	90.62
244.643	33.28
244.86	4.61
245.078	25.09
245.295	-9.73
245.512	-46.59
245.729	-26.11
245.946	29.18
246.163	31.23
246.38	51.71
246.597	49.66
246.814	-13.82
247.031	27.14
247.248	76.29
247.464	61.95
247.681	-5.63
247.898	53.76
248.115	-24.06
248.332	-30.21
248.549	41.47
248.766	119.29
248.983	14.85
249.2	-26.11
249.417	29.18
249.633	57.86
249.85	41.47
250.067	33.28
250.284	37.38
250.501	10.75
250.717	61.95
250.934	-38.4
251.151	-36.35
251.368	31.23
251.585	23.04
251.801	74.24
252.018	-40.45
252.235	6.66
252.451	-85.5
252.668	-38.4
252.885	33.28
253.102	12.8
253.318	8.7
253.535	-5.63
253.752	53.76
253.968	45.57
254.185	-9.73
254.401	-34.3
254.618	-15.87
254.835	14.85
255.051	61.95
255.268	51.71
255.484	49.66
255.701	-19.97
255.917	66.05
256.134	-79.36
256.351	-1.54
256.567	-9.73
256.784	23.04
257	-54.78
257.217	51.71
257.433	0.51
257.65	41.47
257.866	43.52
258.082	-13.82
258.299	27.14
258.515	-24.06
258.732	-5.63
258.948	47.62
259.165	14.85
259.381	-89.6
259.597	64
259.814	-30.21
260.03	-32.26
260.246	59.9
260.463	10.75
260.679	76.29
260.895	53.76
261.112	-17.92
261.328	-5.63
261.544	29.18
261.761	113.15
261.977	-50.69
262.193	-3.58
262.409	20.99
262.626	59.9
262.842	-19.97
263.058	-34.3
263.274	66.05
263.49	66.05
263.707	96.77
263.923	113.15
264.139	4.61
264.355	-44.54
264.571	16.9
264.787	37.38
265.004	94.72
265.22	55.81
265.436	16.9
265.652	-32.26
265.868	23.04
266.084	-75.26
266.3	37.38
266.516	-19.97
266.732	2.56
266.948	14.85
267.164	20.99
267.38	41.47
267.596	37.38
267.812	96.77
268.028	6.66
268.244	-22.02
268.46	-32.26
268.676	6.66
268.892	31.23
269.108	-32.26
269.324	27.14
269.54	-36.35
269.756	-11.78
269.972	16.9
270.188	-11.78
270.403	-28.16
270.619	49.66
270.835	12.8
271.051	49.66
271.267	-34.3
271.483	12.8
271.698	72.19
271.914	4.61
272.13	-19.97
272.346	-7.68
272.562	35.33
272.777	131.58
272.993	-67.07
273.209	12.8
273.425	-9.73
273.64	-81.41
273.856	66.05
274.072	6.66
274.287	-40.45
274.503	41.47
274.719	-1.54
274.934	0.51
275.15	-110.08
275.366	86.53
275.581	12.8
275.797	-15.87
276.012	23.04
276.228	-26.11
276.444	-22.02
276.659	39.42
276.875	10.75
277.09	-1.54
277.306	4.61
277.521	51.71
277.737	16.9
277.952	68.09
278.168	35.33
278.383	27.14
278.599	53.76
278.814	27.14
279.03	18.94
279.245	31.23
279.461	-5.63
279.676	59.9
279.892	-32.26
280.107	-36.35
280.322	-30.21
280.538	82.43
280.753	23.04
280.969	0.51
281.184	84.48
281.399	119.29
281.615	18.94
281.83	8.7
282.045	-93.69
282.26	-67.07
282.476	72.19
282.691	111.1
282.906	6.66
283.122	29.18
283.337	2.56
283.552	66.05
283.767	14.85
283.983	-24.06
284.198	-40.45
284.413	25.09
284.628	-13.82
284.843	57.86
285.058	37.38
285.274	6.66
285.489	-40.45
285.704	72.19
285.919	-26.11
286.134	-19.97
286.349	10.75
286.564	47.62
286.779	133.63
286.995	-97.79
287.21	-44.54
287.425	33.28
287.64	-65.02
287.855	16.9
288.07	-62.98
288.285	51.71
288.5	10.75
288.715	-19.97
288.93	47.62
289.145	-9.73
289.36	88.57
289.575	-11.78
289.79	51.71
290.004	-1.54
290.219	88.57
290.434	-65.02
290.649	-62.98
290.864	37.38
291.079	14.85
291.294	51.71
291.509	4.61
291.724	37.38
291.938	-95.74
292.153	-7.68
292.368	-73.21
292.583	-7.68
292.798	82.43
293.012	12.8
293.227	98.81
293.442	45.57
293.657	84.48
293.871	107.01
294.086	27.14
294.301	25.09
294.516	47.62
294.73	45.57
294.945	29.18
295.16	-36.35
295.374	6.66
295.589	-7.68
295.804	16.9
296.018	53.76
296.233	72.19
296.447	31.23
296.662	8.7
296.877	10.75
297.091	-38.4
297.306	-56.83
297.52	-46.59
297.735	39.42
297.949	-11.78
298.164	64
298.378	-24.06
298.593	-28.16
298.807	70.14
299.022	-9.73
299.236	104.96
299.451	-13.82
299.665	35.33
299.88	4.61
300.094	-28.16
300.309	10.75
300.523	68.09
300.737	12.8
300.952	47.62
301.166	25.09
301.381	23.04
301.595	-7.68
301.809	43.52
302.024	14.85
302.238	20.99
302.452	39.42
302.667	27.14
302.881	53.76
303.095	-28.16
303.309	31.23
303.524	8.7
303.738	111.1
303.952	55.81
304.166	43.52
304.381	-110.08
304.595	74.24
304.809	-22.02
305.023	90.62
305.237	2.56
305.452	2.56
305.666	-7.68
305.88	102.91
306.094	82.43
306.308	61.95
306.522	86.53
306.736	59.9
306.95	18.94
307.164	43.52
307.379	4.61
307.593	111.1
307.807	35.33
308.021	8.7
308.235	66.05
308.449	-24.06
308.663	37.38
308.877	90.62
309.091	-5.63
309.305	64
309.519	14.85
309.733	12.8
309.947	-9.73
310.161	84.48
310.374	23.04
310.588	102.91
310.802	-48.64
311.016	-73.21
311.23	8.7
311.444	8.7
311.658	94.72
311.872	14.85
312.085	39.42
312.299	104.96
312.513	121.34
312.727	43.52
312.941	-38.4
313.154	39.42
313.368	-24.06
313.582	-87.55
313.796	-24.06
314.009	12.8
314.223	127.49
314.437	10.75
314.651	-7.68
314.864	45.57
315.078	31.23
315.292	-132.61
315.505	18.94
315.719	39.42
315.933	-5.63
316.146	-1.54
316.36	-67.07
316.573	-9.73
316.787	37.38
317.001	43.52
317.214	-93.69
317.428	51.71
317.641	-46.59
317.855	-3.58
318.068	-3.58
318.282	55.81
318.495	164.35
318.709	16.9
318.922	-36.35
319.136	137.73
319.349	74.24
319.563	-65.02
319.776	27.14
319.99	-60.93
320.203	68.09
320.417	35.33
320.63	14.85
320.843	119.29
321.057	61.95
321.27	55.81
321.483	68.09
321.697	59.9
321.91	-19.97
322.124	41.47
322.337	33.28
322.55	23.04
322.763	-24.06
322.977	-42.5
323.19	-77.31
323.403	39.42
323.617	29.18
323.83	80.38
324.043	-1.54
324.256	51.71
324.469	-22.02
324.683	84.48
324.896	-56.83
325.109	-38.4
325.322	25.09
325.535	18.94
325.748	107.01
325.962	-3.58
326.175	16.9
326.388	-34.3
326.601	98.81
326.814	47.62
327.027	6.66
327.24	70.14
327.453	-91.65
327.666	29.18
327.879	72.19
328.092	72.19
328.305	59.9
328.518	-52.74
328.731	37.38
328.944	45.57
329.157	-5.63
329.37	14.85
329.583	139.77
329.796	61.95
330.009	-48.64
330.222	37.38
330.435	20.99
330.648	20.99
330.861	76.29
331.073	35.33
331.286	96.77
331.499	41.47
331.712	-48.64
331.925	-48.64
332.138	43.52
332.35	18.94
332.563	-26.11
332.776	49.66
332.989	-50.69
333.202	16.9
333.414	16.9
333.627	4.61
333.84	-28.16
334.053	-9.73
334.265	-32.26
334.478	51.71
334.691	-26.11
334.903	16.9
335.116	-3.58
335.329	-3.58
335.541	-1.54
335.754	-1.54
335.966	-36.35
336.179	-7.68
336.392	-71.17
336.604	-7.68
336.817	33.28
337.029	27.14
337.242	-15.87
337.454	8.7
337.667	20.99
337.88	88.57
338.092	70.14
338.305	23.04
338.517	14.85
338.729	-1.54
338.942	59.9
339.154	4.61
339.367	-50.69
339.579	72.19
339.792	6.66
340.004	4.61
340.217	16.9
340.429	-11.78
340.641	47.62
340.854	-19.97
341.066	0.51
341.278	92.67
341.491	154.11
341.703	33.28
341.915	-9.73
342.128	55.81
342.34	10.75
342.552	-54.78
342.764	-9.73
342.977	76.29
343.189	12.8
343.401	-77.31
343.613	-22.02
343.826	10.75
344.038	-50.69
344.25	66.05
344.462	-17.92
344.674	-71.17
344.886	35.33
345.099	35.33
345.311	-32.26
345.523	-91.65
345.735	14.85
345.947	49.66
346.159	39.42
346.371	-48.64
346.583	82.43
346.795	145.92
347.007	-24.06
347.219	10.75
347.431	6.66
347.643	16.9
347.855	-89.6
348.067	68.09
348.279	-60.93
348.491	0.51
348.703	45.57
348.915	25.09
349.127	-9.73
349.339	98.81
349.551	-19.97
349.763	82.43
349.975	10.75
350.187	31.23
350.399	80.38
350.61	102.91
350.822	-38.4
351.034	31.23
351.246	45.57
351.458	-9.73
351.669	-19.97
351.881	76.29
352.093	80.38
352.305	35.33
352.517	2.56
352.728	66.05
352.94	37.38
353.152	27.14
353.363	94.72
353.575	107.01
353.787	37.38
353.999	45.57
354.21	104.96
354.422	10.75
354.633	-15.87
354.845	10.75
355.057	53.76
355.268	43.52
355.48	66.05
355.692	0.51
355.903	61.95
356.115	-5.63
356.326	-28.16
356.538	152.06
356.749	-11.78
356.961	8.7
357.172	47.62
357.384	25.09
357.595	45.57
357.807	-54.78
358.018	-54.78
358.23	-9.73
358.441	119.29
358.653	78.33
358.864	-17.92
359.075	-9.73
359.287	64
359.498	31.23
359.709	43.52
359.921	-5.63
360.132	88.57
360.344	8.7
360.555	8.7
360.766	4.61
360.977	31.23
361.189	78.33
361.4	-40.45
361.611	61.95
361.823	66.05
362.034	47.62
362.245	-42.5
362.456	-58.88
362.667	4.61
362.879	-40.45
363.09	4.61
363.301	43.52
363.512	37.38
363.723	-48.64
363.935	-42.5
364.146	-17.92
364.357	2.56
364.568	61.95
364.779	-60.93
364.99	70.14
365.201	20.99
365.412	39.42
365.623	-50.69
365.834	-5.63
366.045	53.76
366.256	66.05
366.467	78.33
366.678	41.47
366.889	31.23
367.1	29.18
367.311	78.33
367.522	12.8
367.733	64
367.944	-1.54
368.155	0.51
368.366	45.57
368.577	127.49
368.788	66.05
368.999	49.66
369.209	47.62
369.42	137.73
369.631	70.14
369.842	29.18
370.053	-9.73
370.264	88.57
370.474	-13.82
370.685	100.86
370.896	64
371.107	72.19
371.317	76.29
371.528	18.94
371.739	23.04
371.95	66.05
372.16	45.57
372.371	18.94
372.582	33.28
372.792	-5.63
373.003	-13.82
373.214	6.66
373.424	43.52
373.635	-34.3
373.846	100.86
374.056	96.77
374.267	53.76
374.477	41.47
374.688	39.42
374.898	55.81
375.109	8.7
375.319	51.71
375.53	-36.35
375.74	35.33
375.951	23.04
376.161	31.23
376.372	119.29
376.582	29.18
376.793	43.52
377.003	-1.54
377.214	2.56
377.424	39.42
377.635	8.7
377.845	70.14
378.055	78.33
378.266	10.75
378.476	43.52
378.686	39.42
378.897	78.33
379.107	25.09
379.317	102.91
379.528	37.38
379.738	72.19
379.948	-67.07
380.158	70.14
380.369	121.34
380.579	61.95
380.789	-1.54
380.999	59.9
381.21	64
381.42	98.81
381.63	51.71
381.84	78.33
382.05	51.71
382.261	35.33
382.471	104.96
382.681	31.23
382.891	111.1
383.101	45.57
383.311	8.7
383.521	-9.73
383.731	47.62
383.941	100.86
384.151	47.62
384.361	-38.4
384.571	16.9
384.781	33.28
384.991	88.57
385.201	100.86
385.411	72.19
385.621	4.61
385.831	61.95
386.041	4.61
386.251	35.33
386.461	70.14
386.671	-5.63
386.881	72.19
387.091	-30.21
387.301	68.09
387.511	43.52
387.72	61.95
387.93	25.09
388.14	-3.58
388.35	-52.74
388.56	135.68
388.769	57.86
388.979	25.09
389.189	14.85
389.399	90.62
389.609	61.95
389.818	107.01
390.028	-28.16
390.238	72.19
390.447	55.81
390.657	74.24
390.867	-26.11
391.076	-67.07
391.286	20.99
391.496	-19.97
391.705	35.33
391.915	115.2
392.125	70.14
392.334	20.99
392.544	41.47
392.753	61.95
392.963	-48.64
393.172	31.23
393.382	29.18
393.591	70.14
393.801	68.09
394.01	170.49
394.22	12.8
394.429	18.94
394.639	49.66
394.848	33.28
395.058	61.95
395.267	8.7
395.477	98.81
395.686	86.53
395.895	68.09
396.105	152.06
396.314	119.29
396.524	74.24
396.733	-17.92
396.942	117.25
397.152	82.43
397.361	31.23
397.57	80.38
397.78	66.05
397.989	8.7
398.198	115.2
398.407	27.14
398.617	98.81
398.826	4.61
399.035	55.81
399.244	80.38
399.453	82.43
399.663	-3.58
399.872	61.95
400.081	84.48
400.29	88.57
400.499	14.85
400.708	139.77
400.917	86.53
401.127	31.23
401.336	59.9
401.545	150.01
401.754	39.42
401.963	6.66
402.172	80.38
402.381	35.33
402.59	57.86
402.799	25.09
403.008	66.05
403.217	94.72
403.426	164.35
403.635	8.7
403.844	66.05
404.053	64
404.262	47.62
404.471	145.92
404.68	94.72
404.888	70.14
405.097	2.56
405.306	72.19
405.515	66.05
405.724	74.24
405.933	98.81
406.142	164.35
406.35	164.35
406.559	121.34
406.768	127.49
406.977	170.49
407.185	113.15
407.394	107.01
407.603	35.33
407.812	88.57
408.02	154.11
408.229	150.01
408.438	131.58
408.646	119.29
408.855	147.97
409.064	227.84
409.272	145.92
409.481	178.69
409.69	150.01
409.898	90.62
410.107	150.01
410.315	233.98
410.524	150.01
410.733	270.84
410.941	229.88
411.15	303.61
411.358	258.56
411.567	268.8
411.775	221.69
411.984	274.94
412.192	279.04
412.401	213.5
412.609	348.67
412.818	293.37
413.026	395.77
413.234	283.13
413.443	293.37
413.651	352.76
413.86	324.09
414.068	385.53
414.276	465.4
414.485	363
414.693	442.87
414.901	426.49
415.11	504.31
415.318	399.87
415.526	424.44
415.734	471.54
415.943	498.17
416.151	557.56
416.359	487.93
416.567	541.18
416.776	498.17
416.984	561.66
417.192	627.19
417.4	532.98
417.608	514.55
417.817	588.28
418.025	651.77
418.233	709.11
418.441	707.06
418.649	737.78
418.857	811.51
419.065	784.88
419.273	729.59
419.481	860.66
419.689	901.62
419.897	881.14
420.105	831.99
420.313	938.48
420.521	1104.37
420.729	1087.98
420.937	1016.3
421.145	999.92
421.353	1153.52
421.561	1143.28
421.769	1198.57
421.977	1178.09
422.185	1219.05
422.393	1303.02
422.601	1452.52
422.809	1397.23
423.017	1399.27
423.224	1522.15
423.432	1550.82
423.64	1440.23
423.848	1653.22
424.056	1556.97
424.263	1800.68
424.471	1747.43
424.679	1839.59
424.887	1866.21
425.094	1984.99
425.302	1870.31
425.51	1976.8
425.718	2097.63
425.925	2075.1
426.133	2052.58
426.341	2286.05
426.548	2275.81
426.756	2324.96
426.964	2482.65
427.171	2499.03
427.379	2517.47
427.586	2664.92
427.794	2857.43
428.001	2943.44
428.209	3043.79
428.417	2976.21
428.624	3125.71
428.832	3226.06
429.039	3230.16
429.247	3201.49
429.454	3396.04
429.662	3582.41
429.869	3414.48
430.076	3707.34
430.284	3527.11
430.491	3783.11
430.699	3875.27
430.906	3989.96
431.114	3981.76
431.321	4145.6
431.528	4270.53
431.736	4420.03
431.943	4678.07
432.15	4635.07
432.358	4518.33
432.565	4866.49
432.772	4829.62
432.979	5063.09
433.187	5198.26
433.394	5188.02
433.601	5431.73
433.808	5530.03
434.016	5566.89
434.223	5849.51
434.43	6007.2
434.637	5999.01
434.844	6422.94
435.052	6377.89
435.259	6353.31
435.466	6590.88
435.673	6449.57
435.88	6791.58
436.087	7317.9
436.294	7270.8
436.501	7008.66
436.708	7074.2
436.915	7348.62
437.122	7645.58
437.329	7735.69
437.537	7889.29
437.743	8026.5
437.95	7913.86
438.157	8358.27
438.364	8735.1
438.571	8710.52
438.778	8913.27
438.985	9585.01
439.192	9204.08
439.399	9443.7
439.606	9257.33
439.813	9707.88
440.02	10336.61
440.227	10260.84
440.433	9970.02
440.64	10369.38
440.847	10451.3
441.054	10701.15
441.261	11407.7
441.467	10948.95
441.674	11188.57
441.881	11866.44
442.088	11614.54
442.294	11635.02
442.501	11868.49
442.708	12118.34
442.914	12640.58
443.121	13220.15
443.328	12841.28
443.534	13871.4
443.741	13320.5
443.948	13252.92
444.154	14063.91
444.361	14078.25
444.568	14133.54
444.774	14219.56
444.981	14424.36
445.187	14758.17
445.394	15589.65
445.6	15036.7
445.807	16713.98
446.013	15673.62
446.22	16339.21
446.426	16961.79
446.633	16939.26
446.839	17500.4
447.046	16795.9
447.252	17953.01
447.459	18061.55
447.665	17717.49
447.871	18827.49
448.078	19323.1
448.284	18520.29
448.491	19030.24
448.697	19800.27
448.903	19931.34
449.11	20070.61
449.316	19781.84
449.522	20060.37
449.728	20967.62
449.935	20820.16
450.141	20900.03
450.347	21194.94
450.553	20435.14
450.76	20975.81
450.966	21567.67
451.172	21174.46
451.378	21913.78
451.584	21672.12
451.791	22259.88
451.997	22126.77
452.203	22569.13
452.409	22266.03
452.615	22345.9
452.821	21549.24
453.027	20994.24
453.233	22497.45
453.44	21473.46
453.646	21708.98
453.852	21477.56
454.058	22251.69
454.264	21278.91
454.47	21893.3
454.676	21147.84
454.882	22157.49
455.088	20322.51
455.294	20334.79
455.5	20482.25
455.705	20938.94
455.911	20121.8
456.117	19720.4
456.323	19513.56
456.529	18233.58
456.735	19407.06
456.941	19046.62
457.147	18485.48
457.352	17594.61
457.558	17744.11
457.764	17815.79
457.97	17506.55
458.176	16945.41
458.381	16906.49
458.587	16142.6
458.793	15964.43
458.999	15448.34
459.204	16417.03
459.41	15733.01
459.616	14727.46
459.821	14727.46
460.027	14477.6
460.233	14420.26
460.438	13732.14
460.644	14012.71
460.85	13373.75
461.055	13039.93
461.261	13072.7
461.466	12073.29
461.672	11843.92
461.878	12493.12
462.083	11733.32
462.289	11385.17
462.494	11381.07
462.7	10811.74
462.905	10695
463.111	11166.04
463.316	11178.33
463.522	10586.46
463.727	10836.31
463.932	10598.75
464.138	10729.82
464.343	10604.89
464.549	10457.44
464.754	10692.96
464.959	10539.36
465.165	10729.82
465.37	9951.59
465.575	9787.75
465.781	10340.71
465.986	10187.11
466.191	9560.43
466.397	9519.47
466.602	9251.19
466.807	9673.07
467.012	9513.33
467.218	9458.03
467.423	9353.59
467.628	9421.17
467.833	9908.58
