Data from USB4F104151__44__12-12-04-197.txt Node

Date: Fri Mar 14 12:12:04 EDT 2025
User: louis
Spectrometer: USB4F10415
Trigger mode: 4
Integration Time (sec): 5.000000E-2
Scans to average: 1
Electric dark correction enabled: true
Nonlinearity correction enabled: false
Boxcar width: 0
XAxis mode: Wavelengths
Number of Pixels in Spectrum: 3648
>>>>>Begin Spectral Data<<<<<
178.204	-211.62
178.424	-211.62
178.644	-211.62
178.864	-275.11
179.084	-178.86
179.304	-119.46
179.524	-6.83
179.744	-12.97
179.964	71
180.184	136.53
180.404	19.8
180.624	-15.02
180.844	56.66
181.064	-33.45
181.283	-23.21
181.503	-76.46
181.723	3.41
181.943	-35.5
182.163	103.76
182.383	-74.41
182.602	77.14
182.822	54.61
183.042	40.28
183.262	91.48
183.482	105.81
183.701	-21.16
183.921	-6.83
184.141	-31.4
184.361	85.33
184.58	-10.92
184.8	81.24
185.02	21.84
185.239	144.72
185.459	118.1
185.679	44.37
185.898	-4.78
186.118	56.66
186.338	38.23
186.557	77.14
186.777	-4.78
186.997	-10.92
187.216	1.37
187.436	191.83
187.655	120.15
187.875	101.72
188.095	1.37
188.314	89.43
188.534	75.09
188.753	7.51
188.973	87.38
189.192	60.76
189.412	-25.26
189.631	-0.68
189.851	3.41
190.07	132.44
190.29	-70.31
190.509	38.23
190.729	11.61
190.948	48.47
191.168	245.07
191.387	60.76
191.607	-12.97
191.826	93.52
192.045	68.95
192.265	23.89
192.484	36.18
192.704	75.09
192.923	-41.64
193.142	197.97
193.362	93.52
193.581	114
193.8	116.05
194.02	75.09
194.239	48.47
194.458	89.43
194.678	-2.73
194.897	-25.26
195.116	3.41
195.335	-0.68
195.555	105.81
195.774	66.9
195.993	23.89
196.212	5.46
196.432	13.65
196.651	77.14
196.87	54.61
197.089	124.24
197.308	36.18
197.528	66.9
197.747	-4.78
197.966	48.47
198.185	148.82
198.404	-12.97
198.623	62.8
198.842	111.96
199.062	36.18
199.281	111.96
199.5	66.9
199.719	81.24
199.938	97.62
200.157	111.96
200.376	68.95
200.595	48.47
200.814	3.41
201.033	77.14
201.252	79.19
201.471	-21.16
201.69	85.33
201.909	21.84
202.128	116.05
202.347	56.66
202.566	68.95
202.785	60.76
203.004	48.47
203.223	152.91
203.442	93.52
203.661	85.33
203.879	3.41
204.098	138.58
204.317	-27.31
204.536	58.71
204.755	97.62
204.974	99.67
205.193	81.24
205.411	103.76
205.63	99.67
205.849	118.1
206.068	81.24
206.287	-2.73
206.505	99.67
206.724	148.82
206.943	83.28
207.162	118.1
207.381	56.66
207.599	21.84
207.818	99.67
208.037	-33.45
208.255	87.38
208.474	-62.12
208.693	79.19
208.911	30.04
209.13	54.61
209.349	79.19
209.567	91.48
209.786	97.62
210.005	1.37
210.223	-29.35
210.442	-19.11
210.661	42.32
210.879	60.76
211.098	48.47
211.316	101.72
211.535	71
211.753	56.66
211.972	101.72
212.191	60.76
212.409	19.8
212.628	25.94
212.846	5.46
213.065	103.76
213.283	68.95
213.502	97.62
213.72	118.1
213.938	-4.78
214.157	3.41
214.375	60.76
214.594	36.18
214.812	116.05
215.031	19.8
215.249	60.76
215.467	40.28
215.686	27.99
215.904	75.09
216.122	97.62
216.341	105.81
216.559	42.32
216.778	58.71
216.996	62.8
217.214	54.61
217.432	-62.12
217.651	-35.5
217.869	38.23
218.087	11.61
218.306	13.65
218.524	-27.31
218.742	52.56
218.96	73.04
219.179	-60.07
219.397	21.84
219.615	140.63
219.833	52.56
220.051	73.04
220.27	97.62
220.488	97.62
220.706	34.13
220.924	-19.11
221.142	5.46
221.36	60.76
221.578	50.52
221.796	99.67
222.015	73.04
222.233	56.66
222.451	105.81
222.669	7.51
222.887	64.85
223.105	-35.5
223.323	38.23
223.541	3.41
223.759	11.61
223.977	23.89
224.195	56.66
224.413	144.72
224.631	114
224.849	73.04
225.067	56.66
225.285	13.65
225.503	27.99
225.721	-78.51
225.939	62.8
226.157	73.04
226.375	193.87
226.592	-29.35
226.81	15.7
227.028	136.53
227.246	68.95
227.464	-64.17
227.682	30.04
227.9	64.85
228.117	1.37
228.335	-39.59
228.553	95.57
228.771	79.19
228.989	79.19
229.206	68.95
229.424	-0.68
229.642	7.51
229.86	7.51
230.077	46.42
230.295	23.89
230.513	85.33
230.731	50.52
230.948	77.14
231.166	48.47
231.384	23.89
231.601	-27.31
231.819	89.43
232.037	36.18
232.254	-45.74
232.472	77.14
232.689	38.23
232.907	148.82
233.125	15.7
233.342	68.95
233.56	-0.68
233.777	7.51
233.995	3.41
234.213	179.54
234.43	81.24
234.648	52.56
234.865	79.19
235.083	122.2
235.3	120.15
235.518	103.76
235.735	73.04
235.953	111.96
236.17	60.76
236.388	-6.83
236.605	91.48
236.822	95.57
237.04	101.72
237.257	64.85
237.475	32.08
237.692	91.48
237.909	81.24
238.127	-15.02
238.344	68.95
238.562	60.76
238.779	-60.07
238.996	30.04
239.214	58.71
239.431	150.87
239.648	27.99
239.865	75.09
240.083	44.37
240.3	11.61
240.517	75.09
240.735	52.56
240.952	114
241.169	93.52
241.386	91.48
241.603	17.75
241.821	60.76
242.038	118.1
242.255	11.61
242.472	27.99
242.689	114
242.907	83.28
243.124	23.89
243.341	-19.11
243.558	19.8
243.775	-27.31
243.992	7.51
244.209	17.75
244.426	152.91
244.643	83.28
244.86	71
245.078	25.94
245.295	1.37
245.512	175.44
245.729	27.99
245.946	44.37
246.163	71
246.38	13.65
246.597	54.61
246.814	68.95
247.031	42.32
247.248	52.56
247.464	-8.87
247.681	118.1
247.898	50.52
248.115	48.47
248.332	9.56
248.549	11.61
248.766	99.67
248.983	109.91
249.2	91.48
249.417	85.33
249.633	1.37
249.85	71
250.067	17.75
250.284	38.23
250.501	101.72
250.717	52.56
250.934	-51.88
251.151	-2.73
251.368	11.61
251.585	124.24
251.801	46.42
252.018	5.46
252.235	101.72
252.451	21.84
252.668	-66.22
252.885	89.43
253.102	144.72
253.318	27.99
253.535	13.65
253.752	101.72
253.968	48.47
254.185	-4.78
254.401	21.84
254.618	71
254.835	-8.87
255.051	161.11
255.268	50.52
255.484	54.61
255.701	81.24
255.917	126.29
256.134	17.75
256.351	120.15
256.567	13.65
256.784	71
257	17.75
257.217	124.24
257.433	99.67
257.65	64.85
257.866	79.19
258.082	7.51
258.299	85.33
258.515	130.39
258.732	58.71
258.948	44.37
259.165	95.57
259.381	50.52
259.597	95.57
259.814	11.61
260.03	-27.31
260.246	3.41
260.463	103.76
260.679	128.34
260.895	95.57
261.112	75.09
261.328	23.89
261.544	44.37
261.761	150.87
261.977	-31.4
262.193	-19.11
262.409	83.28
262.626	40.28
262.842	-25.26
263.058	44.37
263.274	71
263.49	64.85
263.707	93.52
263.923	89.43
264.139	11.61
264.355	62.8
264.571	66.9
264.787	54.61
265.004	130.39
265.22	-17.07
265.436	91.48
265.652	7.51
265.868	40.28
266.084	-0.68
266.3	181.59
266.516	3.41
266.732	93.52
266.948	42.32
267.164	34.13
267.38	56.66
267.596	5.46
267.812	120.15
268.028	75.09
268.244	56.66
268.46	83.28
268.676	85.33
268.892	81.24
269.108	17.75
269.324	3.41
269.54	-35.5
269.756	105.81
269.972	-31.4
270.188	52.56
270.403	-0.68
270.619	44.37
270.835	-51.88
271.051	17.75
271.267	-17.07
271.483	15.7
271.698	66.9
271.914	99.67
272.13	-33.45
272.346	44.37
272.562	21.84
272.777	101.72
272.993	-39.59
273.209	62.8
273.425	138.58
273.64	58.71
273.856	66.9
274.072	44.37
274.287	25.94
274.503	77.14
274.719	148.82
274.934	105.81
275.15	9.56
275.366	-4.78
275.581	23.89
275.797	-0.68
276.012	89.43
276.228	-19.11
276.444	36.18
276.659	114
276.875	1.37
277.09	-12.97
277.306	50.52
277.521	118.1
277.737	3.41
277.952	27.99
278.168	116.05
278.383	21.84
278.599	109.91
278.814	73.04
279.03	54.61
279.245	42.32
279.461	62.8
279.676	81.24
279.892	-15.02
280.107	56.66
280.322	52.56
280.538	54.61
280.753	-31.4
280.969	99.67
281.184	32.08
281.399	19.8
281.615	93.52
281.83	46.42
282.045	-21.16
282.26	19.8
282.476	52.56
282.691	25.94
282.906	21.84
283.122	56.66
283.337	56.66
283.552	38.23
283.767	46.42
283.983	120.15
284.198	58.71
284.413	54.61
284.628	-29.35
284.843	46.42
285.058	103.76
285.274	36.18
285.489	-12.97
285.704	83.28
285.919	71
286.134	44.37
286.349	44.37
286.564	-10.92
286.779	193.87
286.995	54.61
287.21	-8.87
287.425	85.33
287.64	48.47
287.855	68.95
288.07	-90.79
288.285	146.77
288.5	146.77
288.715	111.96
288.93	38.23
289.145	25.94
289.36	56.66
289.575	48.47
289.79	87.38
290.004	56.66
290.219	73.04
290.434	11.61
290.649	38.23
290.864	21.84
291.079	27.99
291.294	62.8
291.509	56.66
291.724	87.38
291.938	-15.02
292.153	68.95
292.368	71
292.583	81.24
292.798	150.87
293.012	111.96
293.227	38.23
293.442	-19.11
293.657	77.14
293.871	97.62
294.086	99.67
294.301	128.34
294.516	116.05
294.73	-29.35
294.945	-4.78
295.16	93.52
295.374	116.05
295.589	13.65
295.804	40.28
296.018	-27.31
296.233	77.14
296.447	64.85
296.662	54.61
296.877	101.72
297.091	60.76
297.306	19.8
297.52	34.13
297.735	50.52
297.949	83.28
298.164	163.15
298.378	105.81
298.593	-17.07
298.807	71
299.022	58.71
299.236	91.48
299.451	42.32
299.665	-8.87
299.88	1.37
300.094	9.56
300.309	25.94
300.523	52.56
300.737	44.37
300.952	15.7
301.166	91.48
301.381	40.28
301.595	71
301.809	71
302.024	42.32
302.238	30.04
302.452	134.48
302.667	-4.78
302.881	118.1
303.095	58.71
303.309	73.04
303.524	9.56
303.738	40.28
303.952	5.46
304.166	50.52
304.381	25.94
304.595	85.33
304.809	-53.93
305.023	56.66
305.237	66.9
305.452	50.52
305.666	75.09
305.88	93.52
306.094	23.89
306.308	87.38
306.522	42.32
306.736	132.44
306.95	30.04
307.164	36.18
307.379	-10.92
307.593	124.24
307.807	50.52
308.021	83.28
308.235	120.15
308.449	-17.07
308.663	62.8
308.877	107.86
309.091	116.05
309.305	128.34
309.519	19.8
309.733	77.14
309.947	-55.98
310.161	58.71
310.374	134.48
310.588	120.15
310.802	42.32
311.016	71
311.23	95.57
311.444	73.04
311.658	48.47
311.872	60.76
312.085	105.81
312.299	81.24
312.513	116.05
312.727	101.72
312.941	-43.69
313.154	13.65
313.368	-53.93
313.582	30.04
313.796	58.71
314.009	54.61
314.223	9.56
314.437	118.1
314.651	46.42
314.864	-49.83
315.078	77.14
315.292	15.7
315.505	128.34
315.719	66.9
315.933	52.56
316.146	54.61
316.36	56.66
316.573	99.67
316.787	118.1
317.001	116.05
317.214	62.8
317.428	48.47
317.641	-27.31
317.855	-39.59
318.068	-23.21
318.282	85.33
318.495	210.26
318.709	83.28
318.922	66.9
319.136	109.91
319.349	105.81
319.563	-21.16
319.776	91.48
319.99	25.94
320.203	97.62
320.417	15.7
320.63	42.32
320.843	150.87
321.057	56.66
321.27	-45.74
321.483	-8.87
321.697	111.96
321.91	-35.5
322.124	68.95
322.337	107.86
322.55	50.52
322.763	81.24
322.977	-41.64
323.19	-8.87
323.403	87.38
323.617	38.23
323.83	66.9
324.043	120.15
324.256	58.71
324.469	7.51
324.683	34.13
324.896	73.04
325.109	46.42
325.322	15.7
325.535	81.24
325.748	68.95
325.962	-41.64
326.175	79.19
326.388	7.51
326.601	62.8
326.814	99.67
327.027	85.33
327.24	138.58
327.453	15.7
327.666	99.67
327.879	122.2
328.092	44.37
328.305	32.08
328.518	-19.11
328.731	5.46
328.944	-29.35
329.157	154.96
329.37	23.89
329.583	79.19
329.796	95.57
330.009	27.99
330.222	118.1
330.435	77.14
330.648	83.28
330.861	30.04
331.073	36.18
331.286	68.95
331.499	-4.78
331.712	66.9
331.925	97.62
332.138	148.82
332.35	132.44
332.563	40.28
332.776	159.06
332.989	-21.16
333.202	120.15
333.414	-10.92
333.627	7.51
333.84	81.24
334.053	36.18
334.265	23.89
334.478	64.85
334.691	-0.68
334.903	13.65
335.116	60.76
335.329	95.57
335.541	68.95
335.754	163.15
335.966	79.19
336.179	77.14
336.392	62.8
336.604	42.32
336.817	97.62
337.029	38.23
337.242	15.7
337.454	73.04
337.667	30.04
337.88	218.45
338.092	32.08
338.305	3.41
338.517	60.76
338.729	46.42
338.942	122.2
339.154	50.52
339.367	34.13
339.579	181.59
339.792	-21.16
340.004	75.09
340.217	-6.83
340.429	77.14
340.641	-29.35
340.854	-10.92
341.066	103.76
341.278	142.68
341.491	107.86
341.703	21.84
341.915	46.42
342.128	85.33
342.34	46.42
342.552	21.84
342.764	75.09
342.977	46.42
343.189	126.29
343.401	66.9
343.613	5.46
343.826	75.09
344.038	17.75
344.25	40.28
344.462	50.52
344.674	32.08
344.886	3.41
345.099	111.96
345.311	40.28
345.523	-19.11
345.735	-21.16
345.947	83.28
346.159	-2.73
346.371	128.34
346.583	44.37
346.795	118.1
347.007	77.14
347.219	95.57
347.431	32.08
347.643	140.63
347.855	30.04
348.067	142.68
348.279	38.23
348.491	44.37
348.703	122.2
348.915	-2.73
349.127	32.08
349.339	32.08
349.551	95.57
349.763	140.63
349.975	95.57
350.187	118.1
350.399	130.39
350.61	73.04
350.822	36.18
351.034	124.24
351.246	120.15
351.458	83.28
351.669	81.24
351.881	60.76
352.093	105.81
352.305	159.06
352.517	54.61
352.728	173.39
352.94	44.37
353.152	111.96
353.363	5.46
353.575	99.67
353.787	191.83
353.999	40.28
354.21	93.52
354.422	-51.88
354.633	95.57
354.845	56.66
355.057	9.56
355.268	79.19
355.48	54.61
355.692	50.52
355.903	25.94
356.115	-58.03
356.326	64.85
356.538	179.54
356.749	89.43
356.961	136.53
357.172	42.32
357.384	-17.07
357.595	159.06
357.807	111.96
358.018	68.95
358.23	1.37
358.441	128.34
358.653	81.24
358.864	13.65
359.075	25.94
359.287	54.61
359.498	138.58
359.709	23.89
359.921	130.39
360.132	40.28
360.344	7.51
360.555	-2.73
360.766	93.52
360.977	5.46
361.189	144.72
361.4	34.13
361.611	118.1
361.823	142.68
362.034	126.29
362.245	38.23
362.456	50.52
362.667	17.75
362.879	40.28
363.09	136.53
363.301	134.48
363.512	30.04
363.723	79.19
363.935	32.08
364.146	114
364.357	52.56
364.568	71
364.779	50.52
364.99	136.53
365.201	79.19
365.412	187.73
365.623	-35.5
365.834	81.24
366.045	95.57
366.256	124.24
366.467	75.09
366.678	71
366.889	-23.21
367.1	114
367.311	79.19
367.522	40.28
367.733	124.24
367.944	154.96
368.155	79.19
368.366	175.44
368.577	118.1
368.788	189.78
368.999	-35.5
369.209	81.24
369.42	130.39
369.631	132.44
369.842	68.95
370.053	40.28
370.264	79.19
370.474	9.56
370.685	42.32
370.896	144.72
371.107	62.8
371.317	62.8
371.528	107.86
371.739	77.14
371.95	81.24
372.16	130.39
372.371	91.48
372.582	46.42
372.792	103.76
373.003	83.28
373.214	23.89
373.424	107.86
373.635	54.61
373.846	85.33
374.056	34.13
374.267	54.61
374.477	103.76
374.688	21.84
374.898	134.48
375.109	152.91
375.319	60.76
375.53	157.01
375.74	107.86
375.951	66.9
376.161	19.8
376.372	107.86
376.582	83.28
376.793	128.34
377.003	91.48
377.214	81.24
377.424	79.19
377.635	-0.68
377.845	23.89
378.055	140.63
378.266	77.14
378.476	17.75
378.686	118.1
378.897	75.09
379.107	161.11
379.317	71
379.528	87.38
379.738	71
379.948	95.57
380.158	136.53
380.369	87.38
380.579	97.62
380.789	73.04
380.999	103.76
381.21	109.91
381.42	134.48
381.63	40.28
381.84	23.89
382.05	116.05
382.261	169.3
382.471	177.49
382.681	36.18
382.891	220.5
383.101	97.62
383.311	36.18
383.521	9.56
383.731	60.76
383.941	118.1
384.151	17.75
384.361	93.52
384.571	27.99
384.781	66.9
384.991	148.82
385.201	165.2
385.411	122.2
385.621	142.68
385.831	62.8
386.041	60.76
386.251	159.06
386.461	191.83
386.671	93.52
386.881	62.8
387.091	-6.83
387.301	120.15
387.511	36.18
387.72	95.57
387.93	85.33
388.14	-62.12
388.35	77.14
388.56	66.9
388.769	161.11
388.979	99.67
389.189	52.56
389.399	9.56
389.609	109.91
389.818	103.76
390.028	87.38
390.238	126.29
390.447	38.23
390.657	81.24
390.867	34.13
391.076	1.37
391.286	75.09
391.496	95.57
391.705	42.32
391.915	157.01
392.125	187.73
392.334	103.76
392.544	118.1
392.753	120.15
392.963	83.28
393.172	128.34
393.382	109.91
393.591	175.44
393.801	19.8
394.01	222.55
394.22	130.39
394.429	73.04
394.639	109.91
394.848	197.97
395.058	73.04
395.267	107.86
395.477	118.1
395.686	142.68
395.895	195.92
396.105	245.07
396.314	46.42
396.524	81.24
396.733	120.15
396.942	185.68
397.152	95.57
397.361	146.77
397.57	95.57
397.78	107.86
397.989	56.66
398.198	212.31
398.407	163.15
398.617	136.53
398.826	165.2
399.035	232.79
399.244	146.77
399.453	165.2
399.663	177.49
399.872	226.64
400.081	128.34
400.29	111.96
400.499	107.86
400.708	161.11
400.917	138.58
401.127	134.48
401.336	132.44
401.545	193.87
401.754	187.73
401.963	200.02
402.172	122.2
402.381	150.87
402.59	154.96
402.799	232.79
403.008	255.31
403.217	200.02
403.426	177.49
403.635	111.96
403.844	142.68
404.053	159.06
404.262	234.83
404.471	200.02
404.68	208.21
404.888	222.55
405.097	157.01
405.306	204.11
405.515	222.55
405.724	185.68
405.933	206.16
406.142	281.94
406.35	243.03
406.559	216.4
406.768	318.8
406.977	378.19
407.185	277.84
407.394	324.94
407.603	195.92
407.812	349.52
408.02	392.53
408.229	447.82
408.438	365.9
408.646	349.52
408.855	324.94
409.064	431.44
409.272	460.11
409.481	490.83
409.69	384.34
409.898	447.82
410.107	468.3
410.315	529.74
410.524	437.58
410.733	472.4
410.941	578.89
411.15	593.23
411.358	752.97
411.567	673.1
411.775	591.18
411.984	648.52
412.192	701.77
412.401	662.86
412.609	744.78
412.818	789.83
413.026	773.45
413.234	732.49
413.443	816.46
413.651	808.26
413.86	900.42
414.068	1054.02
414.276	1006.92
414.485	988.49
414.693	970.05
414.901	1094.98
415.11	1181
415.318	1133.89
415.526	1170.76
415.734	1166.66
415.943	1170.76
416.151	1334.59
416.359	1410.37
416.567	1301.83
416.776	1418.56
416.984	1520.96
417.192	1586.49
417.4	1611.07
417.608	1576.25
417.817	1592.64
418.025	1774.91
418.233	1881.4
418.441	1758.52
418.649	1860.92
418.857	1846.59
419.065	2123.06
419.273	1957.18
419.481	2151.73
419.689	2366.77
419.897	2358.58
420.105	2460.98
420.313	2391.34
420.521	2581.81
420.729	2546.99
420.937	2667.82
421.145	2780.46
421.353	2895.15
421.561	2960.68
421.769	3167.52
421.977	3384.61
422.185	3224.87
422.393	3362.08
422.601	3716.38
422.809	3493.15
423.017	3611.93
423.224	3730.72
423.432	4021.53
423.64	3904.79
423.848	4295.96
424.056	4156.69
424.263	4480.27
424.471	4547.86
424.679	4656.4
424.887	4709.65
425.094	4957.45
425.302	5057.8
425.51	5135.62
425.718	5221.64
425.925	5422.34
426.133	5580.03
426.341	5700.86
426.548	6053.11
426.756	5936.38
426.964	6235.38
427.171	6464.75
427.379	6599.92
427.586	6780.14
427.794	7159.02
428.001	7216.36
428.209	7640.29
428.417	7419.11
428.624	8099.03
428.832	8158.42
429.039	8047.83
429.247	7863.52
429.454	8848.59
429.662	9432.26
429.869	8662.23
430.076	9245.9
430.284	8950.99
430.491	9456.84
430.699	10056.89
430.906	9923.77
431.114	10042.56
431.321	10669.23
431.528	10671.28
431.736	11304.1
431.943	11633.83
432.15	11510.95
432.358	11682.98
432.565	12330.14
432.772	11965.6
432.979	12575.89
433.187	12864.66
433.394	13018.25
433.601	13921.41
433.808	14066.81
434.016	13798.53
434.223	14462.07
434.43	15275.12
434.637	15035.5
434.844	15856.74
435.052	16342.11
435.259	16151.65
435.466	16028.77
435.673	15799.4
435.88	17259.6
436.087	17964.1
436.294	17853.51
436.501	17392.72
436.708	17730.63
436.915	18404.41
437.122	19405.87
437.329	19407.92
437.537	19870.76
437.743	20263.97
437.95	19989.54
438.157	21183.51
438.364	21691.4
438.571	21693.45
438.778	21826.57
438.985	23499.76
439.192	22623.23
439.399	23385.07
439.606	22866.94
439.813	24173.54
440.02	25639.89
440.227	25326.55
440.433	24695.77
440.64	25947.08
440.847	25369.55
441.054	26260.42
441.261	27780.01
441.467	27380.66
441.674	28158.89
441.881	28683.17
442.088	28951.45
442.294	28664.74
442.501	29627.28
442.708	29854.61
442.914	31120.25
443.121	32404.33
443.328	31449.97
443.534	33536.85
443.741	32631.65
443.948	32174.95
444.154	34509.64
444.361	34220.88
444.568	34261.83
444.774	34351.95
444.981	34745.16
445.187	35466.04
445.394	37110.56
445.6	36954.91
445.807	40215.28
446.013	38134.54
446.22	38830.85
446.426	40551.15
446.633	41030.37
446.839	42384.08
447.046	40579.82
447.252	42549.96
447.459	42375.89
447.665	42461.9
447.871	44659.37
448.078	45963.93
448.284	44024.5
448.491	45320.87
448.697	46684.81
448.903	47450.75
449.11	47241.86
449.316	46645.9
449.522	47723.13
449.728	48976.49
449.935	48611.95
450.141	48364.15
450.347	50195.03
450.553	48261.75
450.76	48650.86
450.966	50534.99
451.172	49916.51
451.378	51122.76
451.584	49887.84
451.791	50862.67
451.997	51071.56
452.203	51485.25
452.409	51673.66
452.615	51018.31
452.821	49242.73
453.027	49003.11
453.233	51677.76
453.44	49455.71
453.646	50023
453.852	49789.53
454.058	51087.95
454.264	49386.08
454.47	50209.37
454.676	48812.65
454.882	50295.38
455.088	45937.3
455.294	46758.54
455.5	47286.92
455.705	47780.48
455.911	45621.92
456.117	44911.27
456.323	43965.11
456.529	42216.15
456.735	43915.96
456.941	42687.18
457.147	42068.69
457.352	40442.6
457.558	39975.67
457.764	40258.29
457.97	39547.64
458.176	38333.2
458.381	38540.04
458.587	36479.78
458.793	36498.22
458.999	34626.37
459.204	37083.94
459.41	35881.78
459.616	33805.14
459.821	33731.41
460.027	33112.92
460.233	32801.63
460.438	31157.11
460.644	31484.79
460.85	30024.59
461.055	29254.55
461.261	29305.75
461.466	27110.33
461.672	26405.83
461.878	28160.94
462.083	26448.83
462.289	25711.56
462.494	25318.35
462.7	24384.48
462.905	23434.22
463.111	24402.91
463.316	24458.21
463.522	24212.45
463.727	24249.32
463.932	23800.81
464.138	23630.83
464.343	23888.87
464.549	22543.36
464.754	23423.98
464.959	23413.74
465.165	23337.97
465.37	22254.59
465.575	21715.98
465.781	22795.26
465.986	22916.09
