Data from USB4F104151__91__12-13-05-000.txt Node

Date: Fri Mar 14 12:13:05 EDT 2025
User: louis
Spectrometer: USB4F10415
Trigger mode: 4
Integration Time (sec): 5.000000E-2
Scans to average: 1
Electric dark correction enabled: true
Nonlinearity correction enabled: false
Boxcar width: 0
XAxis mode: Wavelengths
Number of Pixels in Spectrum: 3648
>>>>>Begin Spectral Data<<<<<
178.204	-244.56
178.424	-244.56
178.644	-244.56
178.864	-273.23
179.084	-152.4
179.304	52.39
179.524	5.29
179.744	-47.96
179.964	62.63
180.184	25.77
180.404	-0.85
180.624	25.77
180.844	-13.14
181.064	-21.33
181.283	33.96
181.503	-95.06
181.723	-27.48
181.943	-13.14
182.163	144.55
182.383	-21.33
182.602	36.01
182.822	15.53
183.042	58.54
183.262	50.35
183.482	9.39
183.701	58.54
183.921	74.92
184.141	-33.62
184.361	70.83
184.58	-19.29
184.8	40.11
185.02	72.87
185.239	81.07
185.459	64.68
185.679	101.55
185.898	-39.76
186.118	101.55
186.338	25.77
186.557	40.11
186.777	64.68
186.997	33.96
187.216	29.87
187.436	144.55
187.655	91.31
187.875	29.87
188.095	-25.43
188.314	70.83
188.534	109.74
188.753	-7
188.973	7.34
189.192	126.12
189.412	31.91
189.631	48.3
189.851	66.73
190.07	48.3
190.29	50.35
190.509	-13.14
190.729	1.19
190.948	62.63
191.168	220.33
191.387	64.68
191.607	40.11
191.826	36.01
192.045	17.58
192.265	40.11
192.484	21.67
192.704	9.39
192.923	-21.33
193.142	148.65
193.362	44.2
193.581	122.02
193.8	-9.05
194.02	70.83
194.239	79.02
194.458	25.77
194.678	-33.62
194.897	44.2
195.116	54.44
195.335	64.68
195.555	83.11
195.774	15.53
195.993	74.92
196.212	11.43
196.432	-43.86
196.651	15.53
196.87	38.06
197.089	148.65
197.308	33.96
197.528	25.77
197.747	19.63
197.966	48.3
198.185	99.5
198.404	-45.91
198.623	87.21
198.842	72.87
199.062	72.87
199.281	23.72
199.5	44.2
199.719	46.25
199.938	89.26
200.157	54.44
200.376	91.31
200.595	70.83
200.814	29.87
201.033	-13.14
201.252	146.6
201.471	-25.43
201.69	72.87
201.909	119.98
202.128	-35.67
202.347	72.87
202.566	-27.48
202.785	-33.62
203.004	-29.52
203.223	66.73
203.442	68.78
203.661	-0.85
203.879	33.96
204.098	33.96
204.317	7.34
204.536	105.64
204.755	99.5
204.974	72.87
205.193	5.29
205.411	124.07
205.63	111.78
205.849	70.83
206.068	17.58
206.287	31.91
206.505	93.35
206.724	31.91
206.943	-0.85
207.162	1.19
207.381	113.83
207.599	52.39
207.818	87.21
208.037	50.35
208.255	-9.05
208.474	19.63
208.693	52.39
208.911	-125.78
209.13	42.15
209.349	66.73
209.567	83.11
209.786	101.55
210.005	48.3
210.223	-37.72
210.442	-17.24
210.661	27.82
210.879	85.16
211.098	23.72
211.316	-56.15
211.535	64.68
211.753	52.39
211.972	-9.05
212.191	33.96
212.409	38.06
212.628	48.3
212.846	-0.85
213.065	56.49
213.283	-0.85
213.502	64.68
213.72	38.06
213.938	66.73
214.157	19.63
214.375	40.11
214.594	74.92
214.812	46.25
215.031	23.72
215.249	68.78
215.467	-37.72
215.686	25.77
215.904	36.01
216.122	66.73
216.341	97.45
216.559	33.96
216.778	136.36
216.996	66.73
217.214	17.58
217.432	-13.14
217.651	29.87
217.869	-0.85
218.087	31.91
218.306	5.29
218.524	19.63
218.742	-37.72
218.96	-2.9
219.179	17.58
219.397	11.43
219.615	83.11
219.833	5.29
220.051	-37.72
220.27	142.5
220.488	68.78
220.706	15.53
220.924	-41.81
221.142	-64.34
221.36	13.48
221.578	36.01
221.796	5.29
222.015	1.19
222.233	-60.24
222.451	171.18
222.669	13.48
222.887	60.59
223.105	62.63
223.323	3.24
223.541	-31.57
223.759	-19.29
223.977	36.01
224.195	119.98
224.413	64.68
224.631	115.88
224.849	46.25
225.067	66.73
225.285	42.15
225.503	19.63
225.721	-54.1
225.939	15.53
226.157	58.54
226.375	134.31
226.592	58.54
226.81	27.82
227.028	109.74
227.246	156.84
227.464	-2.9
227.682	36.01
227.9	136.36
228.117	42.15
228.335	74.92
228.553	15.53
228.771	27.82
228.989	93.35
229.206	85.16
229.424	-0.85
229.642	11.43
229.86	-2.9
230.077	42.15
230.295	36.01
230.513	169.13
230.731	103.59
230.948	138.41
231.166	91.31
231.384	-13.14
231.601	-11.09
231.819	107.69
232.037	54.44
232.254	13.48
232.472	-33.62
232.689	60.59
232.907	179.37
233.125	93.35
233.342	36.01
233.56	-58.2
233.777	-19.29
233.995	23.72
234.213	79.02
234.43	-29.52
234.648	19.63
234.865	-9.05
235.083	44.2
235.3	17.58
235.518	54.44
235.735	-21.33
235.953	79.02
236.17	56.49
236.388	40.11
236.605	17.58
236.822	87.21
237.04	29.87
237.257	23.72
237.475	-56.15
237.692	62.63
237.909	13.48
238.127	17.58
238.344	87.21
238.562	5.29
238.779	-13.14
238.996	-56.15
239.214	46.25
239.431	128.17
239.648	89.26
239.865	5.29
240.083	46.25
240.3	38.06
240.517	56.49
240.735	60.59
240.952	85.16
241.169	25.77
241.386	79.02
241.603	52.39
241.821	42.15
242.038	36.01
242.255	99.5
242.472	-31.57
242.689	70.83
242.907	83.11
243.124	44.2
243.341	15.53
243.558	31.91
243.775	7.34
243.992	-78.68
244.209	50.35
244.426	216.23
244.643	11.43
244.86	-60.24
245.078	48.3
245.295	132.26
245.512	-4.95
245.729	-15.19
245.946	70.83
246.163	56.49
246.38	72.87
246.597	-15.19
246.814	13.48
247.031	66.73
247.248	76.97
247.464	56.49
247.681	1.19
247.898	23.72
248.115	-0.85
248.332	46.25
248.549	91.31
248.766	167.08
248.983	113.83
249.2	27.82
249.417	36.01
249.633	-37.72
249.85	62.63
250.067	85.16
250.284	36.01
250.501	36.01
250.717	17.58
250.934	23.72
251.151	33.96
251.368	-4.95
251.585	15.53
251.801	17.58
252.018	-43.86
252.235	-13.14
252.451	-86.87
252.668	70.83
252.885	70.83
253.102	62.63
253.318	-9.05
253.535	27.82
253.752	-43.86
253.968	-21.33
254.185	-0.85
254.401	-58.2
254.618	76.97
254.835	-11.09
255.051	74.92
255.268	-21.33
255.484	70.83
255.701	54.44
255.917	-9.05
256.134	-17.24
256.351	-4.95
256.567	-17.24
256.784	89.26
257	19.63
257.217	95.4
257.433	-13.14
257.65	87.21
257.866	74.92
258.082	-27.48
258.299	27.82
258.515	11.43
258.732	25.77
258.948	-50
259.165	60.59
259.381	-19.29
259.597	70.83
259.814	36.01
260.03	46.25
260.246	79.02
260.463	-29.52
260.679	52.39
260.895	64.68
261.112	9.39
261.328	-66.39
261.544	-25.43
261.761	175.27
261.977	21.67
262.193	19.63
262.409	58.54
262.626	27.82
262.842	31.91
263.058	-11.09
263.274	85.16
263.49	19.63
263.707	87.21
263.923	113.83
264.139	-76.63
264.355	-2.9
264.571	134.31
264.787	11.43
265.004	87.21
265.22	27.82
265.436	15.53
265.652	46.25
265.868	87.21
266.084	-39.76
266.3	58.54
266.516	15.53
266.732	60.59
266.948	115.88
267.164	3.24
267.38	50.35
267.596	105.64
267.812	72.87
268.028	44.2
268.244	-23.38
268.46	19.63
268.676	42.15
268.892	91.31
269.108	-0.85
269.324	54.44
269.54	-54.1
269.756	40.11
269.972	5.29
270.188	-15.19
270.403	68.78
270.619	50.35
270.835	17.58
271.051	66.73
271.267	-11.09
271.483	-29.52
271.698	93.35
271.914	109.74
272.13	17.58
272.346	-2.9
272.562	5.29
272.777	87.21
272.993	33.96
273.209	15.53
273.425	81.07
273.64	-37.72
273.856	68.78
274.072	42.15
274.287	-23.38
274.503	-7
274.719	38.06
274.934	15.53
275.15	-50
275.366	-21.33
275.581	5.29
275.797	7.34
276.012	33.96
276.228	27.82
276.444	-31.57
276.659	138.41
276.875	36.01
277.09	87.21
277.306	40.11
277.521	33.96
277.737	66.73
277.952	70.83
278.168	44.2
278.383	25.77
278.599	27.82
278.814	64.68
279.03	85.16
279.245	64.68
279.461	111.78
279.676	52.39
279.892	-60.24
280.107	50.35
280.322	-64.34
280.538	-11.09
280.753	-13.14
280.969	3.24
281.184	23.72
281.399	29.87
281.615	72.87
281.83	23.72
282.045	7.34
282.26	-21.33
282.476	70.83
282.691	74.92
282.906	1.19
283.122	70.83
283.337	23.72
283.552	21.67
283.767	29.87
283.983	105.64
284.198	66.73
284.413	44.2
284.628	-88.92
284.843	54.44
285.058	56.49
285.274	79.02
285.489	-45.91
285.704	52.39
285.919	17.58
286.134	-19.29
286.349	60.59
286.564	-33.62
286.779	68.78
286.995	-11.09
287.21	9.39
287.425	70.83
287.64	68.78
287.855	3.24
288.07	-4.95
288.285	56.49
288.5	87.21
288.715	87.21
288.93	11.43
289.145	13.48
289.36	58.54
289.575	25.77
289.79	79.02
290.004	19.63
290.219	29.87
290.434	15.53
290.649	-4.95
290.864	11.43
291.079	79.02
291.294	48.3
291.509	15.53
291.724	42.15
291.938	56.49
292.153	23.72
292.368	11.43
292.583	-39.76
292.798	33.96
293.012	36.01
293.227	109.74
293.442	-11.09
293.657	119.98
293.871	76.97
294.086	68.78
294.301	107.69
294.516	72.87
294.73	83.11
294.945	-4.95
295.16	31.91
295.374	103.59
295.589	87.21
295.804	9.39
296.018	33.96
296.233	42.15
296.447	87.21
296.662	25.77
296.877	140.46
297.091	50.35
297.306	9.39
297.52	31.91
297.735	136.36
297.949	36.01
298.164	74.92
298.378	52.39
298.593	11.43
298.807	31.91
299.022	56.49
299.236	54.44
299.451	85.16
299.665	60.59
299.88	7.34
300.094	-15.19
300.309	19.63
300.523	50.35
300.737	81.07
300.952	64.68
301.166	29.87
301.381	81.07
301.595	68.78
301.809	21.67
302.024	74.92
302.238	3.24
302.452	95.4
302.667	5.29
302.881	103.59
303.095	76.97
303.309	38.06
303.524	-11.09
303.738	27.82
303.952	-29.52
304.166	70.83
304.381	21.67
304.595	76.97
304.809	-35.67
305.023	62.63
305.237	9.39
305.452	5.29
305.666	29.87
305.88	74.92
306.094	70.83
306.308	76.97
306.522	70.83
306.736	60.59
306.95	111.78
307.164	44.2
307.379	11.43
307.593	144.55
307.807	85.16
308.021	93.35
308.235	60.59
308.449	-62.29
308.663	70.83
308.877	89.26
309.091	-19.29
309.305	29.87
309.519	-115.54
309.733	64.68
309.947	-31.57
310.161	54.44
310.374	81.07
310.588	130.22
310.802	-70.48
311.016	-25.43
311.23	-4.95
311.444	64.68
311.658	44.2
311.872	91.31
312.085	74.92
312.299	62.63
312.513	5.29
312.727	42.15
312.941	13.48
313.154	70.83
313.368	64.68
313.582	42.15
313.796	54.44
314.009	-17.24
314.223	74.92
314.437	-33.62
314.651	11.43
314.864	99.5
315.078	-23.38
315.292	-11.09
315.505	89.26
315.719	85.16
315.933	40.11
316.146	42.15
316.36	21.67
316.573	56.49
316.787	95.4
317.001	58.54
317.214	-29.52
317.428	56.49
317.641	-17.24
317.855	27.82
318.068	93.35
318.282	17.58
318.495	50.35
318.709	68.78
318.922	58.54
319.136	79.02
319.349	36.01
319.563	56.49
319.776	29.87
319.99	9.39
320.203	74.92
320.417	42.15
320.63	56.49
320.843	113.83
321.057	29.87
321.27	66.73
321.483	81.07
321.697	87.21
321.91	173.22
322.124	33.96
322.337	21.67
322.55	36.01
322.763	83.11
322.977	54.44
323.19	-21.33
323.403	11.43
323.617	25.77
323.83	29.87
324.043	-27.48
324.256	23.72
324.469	36.01
324.683	146.6
324.896	44.2
325.109	93.35
325.322	-11.09
325.535	68.78
325.748	74.92
325.962	-23.38
326.175	81.07
326.388	36.01
326.601	19.63
326.814	15.53
327.027	76.97
327.24	97.45
327.453	-37.72
327.666	62.63
327.879	103.59
328.092	122.02
328.305	107.69
328.518	68.78
328.731	-31.57
328.944	-13.14
329.157	-4.95
329.37	46.25
329.583	87.21
329.796	95.4
330.009	-31.57
330.222	101.55
330.435	140.46
330.648	-4.95
330.861	17.58
331.073	46.25
331.286	97.45
331.499	46.25
331.712	-15.19
331.925	44.2
332.138	19.63
332.35	85.16
332.563	-15.19
332.776	89.26
332.989	-31.57
333.202	89.26
333.414	-13.14
333.627	74.92
333.84	17.58
334.053	29.87
334.265	29.87
334.478	5.29
334.691	101.55
334.903	27.82
335.116	-35.67
335.329	-43.86
335.541	40.11
335.754	93.35
335.966	40.11
336.179	5.29
336.392	74.92
336.604	-27.48
336.817	64.68
337.029	27.82
337.242	93.35
337.454	19.63
337.667	7.34
337.88	79.02
338.092	97.45
338.305	74.92
338.517	54.44
338.729	-13.14
338.942	113.83
339.154	13.48
339.367	9.39
339.579	56.49
339.792	152.74
340.004	87.21
340.217	-27.48
340.429	79.02
340.641	15.53
340.854	62.63
341.066	74.92
341.278	107.69
341.491	79.02
341.703	38.06
341.915	9.39
342.128	128.17
342.34	81.07
342.552	5.29
342.764	29.87
342.977	42.15
343.189	132.26
343.401	58.54
343.613	-43.86
343.826	-19.29
344.038	60.59
344.25	107.69
344.462	29.87
344.674	-9.05
344.886	-7
345.099	99.5
345.311	97.45
345.523	-4.95
345.735	21.67
345.947	68.78
346.159	29.87
346.371	11.43
346.583	-17.24
346.795	113.83
347.007	48.3
347.219	31.91
347.431	60.59
347.643	-31.57
347.855	-11.09
348.067	87.21
348.279	74.92
348.491	42.15
348.703	74.92
348.915	105.64
349.127	-68.44
349.339	52.39
349.551	-62.29
349.763	58.54
349.975	91.31
350.187	66.73
350.399	115.88
350.61	128.17
350.822	66.73
351.034	101.55
351.246	48.3
351.458	-29.52
351.669	122.02
351.881	29.87
352.093	140.46
352.305	5.29
352.517	1.19
352.728	70.83
352.94	13.48
353.152	74.92
353.363	5.29
353.575	9.39
353.787	173.22
353.999	9.39
354.21	103.59
354.422	42.15
354.633	-25.43
354.845	52.39
355.057	81.07
355.268	87.21
355.48	99.5
355.692	-29.52
355.903	70.83
356.115	58.54
356.326	27.82
356.538	136.36
356.749	66.73
356.961	105.64
357.172	27.82
357.384	-23.38
357.595	152.74
357.807	113.83
358.018	81.07
358.23	81.07
358.441	136.36
358.653	70.83
358.864	27.82
359.075	27.82
359.287	21.67
359.498	93.35
359.709	50.35
359.921	-4.95
360.132	36.01
360.344	-17.24
360.555	19.63
360.766	40.11
360.977	5.29
361.189	105.64
361.4	74.92
361.611	79.02
361.823	72.87
362.034	103.59
362.245	-15.19
362.456	-4.95
362.667	11.43
362.879	50.35
363.09	48.3
363.301	89.26
363.512	5.29
363.723	36.01
363.935	17.58
364.146	-39.76
364.357	81.07
364.568	83.11
364.779	-47.96
364.99	85.16
365.201	27.82
365.412	117.93
365.623	42.15
365.834	48.3
366.045	81.07
366.256	46.25
366.467	83.11
366.678	21.67
366.889	48.3
367.1	31.91
367.311	36.01
367.522	19.63
367.733	72.87
367.944	79.02
368.155	-21.33
368.366	76.97
368.577	93.35
368.788	76.97
368.999	11.43
369.209	42.15
369.42	60.59
369.631	187.56
369.842	79.02
370.053	1.19
370.264	87.21
370.474	74.92
370.685	36.01
370.896	74.92
371.107	83.11
371.317	87.21
371.528	54.44
371.739	144.55
371.95	99.5
372.16	81.07
372.371	38.06
372.582	29.87
372.792	81.07
373.003	31.91
373.214	25.77
373.424	79.02
373.635	66.73
373.846	81.07
374.056	44.2
374.267	50.35
374.477	17.58
374.688	-37.72
374.898	42.15
375.109	52.39
375.319	46.25
375.53	76.97
375.74	72.87
375.951	42.15
376.161	183.46
376.372	97.45
376.582	76.97
376.793	83.11
377.003	-2.9
377.214	64.68
377.424	11.43
377.635	79.02
377.845	-7
378.055	62.63
378.266	-2.9
378.476	15.53
378.686	23.72
378.897	119.98
379.107	103.59
379.317	134.31
379.528	54.44
379.738	29.87
379.948	15.53
380.158	136.36
380.369	-17.24
380.579	46.25
380.789	107.69
380.999	48.3
381.21	85.16
381.42	136.36
381.63	5.29
381.84	126.12
382.05	70.83
382.261	42.15
382.471	38.06
382.681	52.39
382.891	60.59
383.101	17.58
383.311	-23.38
383.521	85.16
383.731	93.35
383.941	183.46
384.151	15.53
384.361	23.72
384.571	79.02
384.781	48.3
384.991	160.94
385.201	58.54
385.411	64.68
385.621	54.44
385.831	158.89
386.041	103.59
386.251	-0.85
386.461	81.07
386.671	9.39
386.881	89.26
387.091	46.25
387.301	70.83
387.511	21.67
387.72	27.82
387.93	72.87
388.14	-27.48
388.35	3.24
388.56	109.74
388.769	95.4
388.979	46.25
389.189	-11.09
389.399	74.92
389.609	95.4
389.818	93.35
390.028	62.63
390.238	128.17
390.447	60.59
390.657	105.64
390.867	9.39
391.076	-13.14
391.286	50.35
391.496	42.15
391.705	105.64
391.915	99.5
392.125	60.59
392.334	107.69
392.544	93.35
392.753	72.87
392.963	9.39
393.172	36.01
393.382	38.06
393.591	130.22
393.801	44.2
394.01	111.78
394.22	58.54
394.429	58.54
394.639	93.35
394.848	119.98
395.058	5.29
395.267	33.96
395.477	154.79
395.686	93.35
395.895	154.79
396.105	201.9
396.314	130.22
396.524	64.68
396.733	70.83
396.942	126.12
397.152	158.89
397.361	165.03
397.57	142.5
397.78	74.92
397.989	85.16
398.198	130.22
398.407	93.35
398.617	21.67
398.826	68.78
399.035	128.17
399.244	126.12
399.453	85.16
399.663	130.22
399.872	70.83
400.081	70.83
400.29	119.98
400.499	38.06
400.708	146.6
400.917	103.59
401.127	76.97
401.336	83.11
401.545	165.03
401.754	130.22
401.963	119.98
402.172	40.11
402.381	50.35
402.59	66.73
402.799	126.12
403.008	173.22
403.217	76.97
403.426	181.42
403.635	97.45
403.844	115.88
404.053	191.66
404.262	44.2
404.471	232.62
404.68	19.63
404.888	76.97
405.097	138.41
405.306	154.79
405.515	195.75
405.724	126.12
405.933	246.95
406.142	130.22
406.35	165.03
406.559	119.98
406.768	218.28
406.977	271.53
407.185	203.94
407.394	216.23
407.603	177.32
407.812	150.7
408.02	187.56
408.229	175.27
408.438	244.9
408.646	226.47
408.855	234.66
409.064	226.47
409.272	306.34
409.481	337.06
409.69	259.24
409.898	236.71
410.107	281.77
410.315	373.92
410.524	263.33
410.733	410.79
410.941	263.33
411.15	396.45
411.358	357.54
411.567	435.36
411.775	361.64
411.984	445.6
412.192	504.99
412.401	498.85
412.609	498.85
412.818	578.72
413.026	509.09
413.234	441.51
413.443	523.43
413.651	513.19
413.86	560.29
414.068	623.78
414.276	670.88
414.485	582.82
414.693	724.13
414.901	787.61
415.11	677.02
415.318	634.02
415.526	736.42
415.734	736.42
415.943	779.42
416.151	799.9
416.359	830.62
416.567	877.73
416.776	840.86
416.984	933.02
417.192	1021.08
417.4	959.64
417.608	961.69
417.817	994.46
418.025	1041.56
418.233	1141.91
418.441	1082.52
418.649	1158.3
418.857	1281.18
419.065	1291.41
419.273	1307.8
419.481	1352.85
419.689	1414.29
419.897	1416.34
420.105	1420.44
420.313	1666.19
420.521	1635.47
420.729	1701.01
420.937	1528.98
421.145	1715.34
421.353	1795.22
421.561	1907.85
421.769	1891.47
421.977	1967.24
422.185	2092.17
422.393	2190.47
422.601	2153.61
422.809	2270.34
423.017	2307.21
423.224	2323.59
423.432	2464.9
423.64	2333.83
423.848	2657.41
424.056	2507.91
424.263	2684.03
424.471	2788.48
424.679	2845.82
424.887	3009.66
425.094	3122.3
425.302	3112.06
425.51	3355.77
425.718	3361.91
425.925	3359.86
426.133	3533.94
426.341	3705.97
426.548	3839.09
426.756	4060.27
426.964	3896.43
427.171	4119.66
427.379	4344.94
427.586	4496.49
427.794	4363.37
428.001	4742.24
428.209	4807.78
428.417	4686.95
428.624	5119.07
428.832	5082.21
429.039	5098.59
429.247	5123.16
429.454	5532.76
429.662	5923.92
429.869	5649.49
430.076	5987.41
430.284	5762.13
430.491	5983.31
430.699	6421.58
430.906	6423.62
431.114	6513.74
431.321	6706.24
431.528	6890.56
431.736	7226.43
431.943	7476.28
432.15	7373.88
432.358	7412.79
432.565	7908.4
432.772	7715.89
432.979	8309.8
433.187	8459.31
433.394	8447.02
433.601	9071.65
433.808	9012.26
434.016	9157.66
434.223	9366.56
434.43	9907.22
434.637	9606.17
434.844	10163.22
435.052	10689.54
435.259	10335.24
435.466	10331.15
435.673	10310.67
435.88	11281.41
436.087	11529.21
436.294	12010.48
436.501	11518.97
436.708	11621.37
436.915	12211.18
437.122	12710.89
437.329	12614.63
437.537	13063.14
437.743	13263.84
437.95	13087.71
438.157	13792.22
438.364	14203.86
438.571	14175.19
438.778	14371.79
438.985	15502.27
439.192	14898.12
439.399	15504.32
439.606	14920.65
439.813	15936.44
440.02	16845.74
440.227	16747.44
440.433	16491.44
440.64	17036.2
440.847	16968.62
441.054	17273.76
441.261	18420.63
441.467	18199.44
441.674	18611.09
441.881	19309.44
442.088	19291.01
442.294	19014.54
442.501	19516.29
442.708	20165.49
442.914	20806.51
443.121	21511.01
443.328	21281.64
443.534	22627.15
443.741	21687.14
443.948	21496.67
444.154	23345.99
444.361	23374.66
444.568	23219.02
444.774	23040.84
444.981	23788.35
445.187	24199.99
445.394	25236.27
445.6	25027.37
445.807	27165.45
446.013	26227.48
446.22	26675.99
446.426	27912.96
446.633	27880.19
446.839	29154.03
447.046	27575.05
447.252	29221.61
447.459	29246.19
447.665	29143.79
447.871	30540.5
448.078	31728.33
448.284	30261.98
448.491	31187.66
448.697	32559.8
448.903	32694.97
449.11	32979.64
449.316	32285.37
449.522	33163.95
449.728	33729.19
449.935	33839.78
450.141	34011.81
450.347	34673.31
450.553	33821.35
450.76	34267.81
450.966	35445.39
451.172	34452.12
451.378	35900.04
451.584	34857.62
451.791	35988.1
451.997	35666.57
452.203	36350.59
452.409	36543.1
452.615	36127.36
452.821	34900.63
453.027	34540.19
453.233	36321.92
453.44	34738.84
453.646	35111.57
453.852	35461.77
454.058	36416.13
454.264	34892.44
454.47	35637.9
454.676	34718.36
454.882	35871.37
455.088	32819.89
455.294	33299.12
455.5	33630.89
455.705	34005.67
455.911	32756.41
456.117	32488.12
456.323	31914.69
456.529	30253.79
456.735	31277.77
456.941	30391
457.147	30098.14
457.352	29139.69
457.558	28824.31
457.764	28945.14
457.97	28486.39
458.176	27833.09
458.381	27718.4
458.587	26073.88
458.793	26393.37
458.999	24986.41
459.204	26506.01
459.41	25738.02
459.616	24111.93
459.821	24585.01
460.027	24056.64
460.233	23667.52
460.438	22416.21
460.644	22541.14
460.85	21908.32
461.055	21146.47
461.261	21594.98
461.466	19766.14
461.672	19102.6
461.878	20695.92
462.083	19233.67
462.289	18766.73
462.494	18594.7
462.7	17927.07
462.905	17263.52
463.111	18228.12
463.316	17898.39
463.522	17585.05
463.727	17709.98
463.932	17492.9
464.138	17697.69
464.343	17658.78
464.549	16870.31
464.754	17808.28
464.959	17183.65
465.165	17578.91
465.37	16395.18
465.575	15727.55
465.781	16757.67
465.986	16896.94
466.191	16260.02
