Data from USB4F104151__74__12-12-40-902.txt Node

Date: Fri Mar 14 12:12:40 EDT 2025
User: louis
Spectrometer: USB4F10415
Trigger mode: 4
Integration Time (sec): 5.000000E-2
Scans to average: 1
Electric dark correction enabled: true
Nonlinearity correction enabled: false
Boxcar width: 0
XAxis mode: Wavelengths
Number of Pixels in Spectrum: 3648
>>>>>Begin Spectral Data<<<<<
178.204	-232.44
178.424	-232.44
178.644	-232.44
178.864	-193.53
179.084	-261.12
179.304	9.22
179.524	56.32
179.744	-46.08
179.964	68.61
180.184	-54.27
180.404	-7.17
180.624	19.46
180.844	19.46
181.064	-15.36
181.283	5.12
181.503	3.07
181.723	-58.37
181.943	-33.79
182.163	84.99
182.383	9.22
182.602	37.89
182.822	41.98
183.042	-3.07
183.262	3.07
183.482	5.12
183.701	-9.22
183.921	23.55
184.141	-19.46
184.361	-1.02
184.58	27.65
184.8	56.32
185.02	-48.13
185.239	95.23
185.459	25.6
185.679	56.32
185.898	35.84
186.118	105.47
186.338	33.79
186.557	109.57
186.777	9.22
186.997	-25.6
187.216	1.02
187.436	125.95
187.655	5.12
187.875	99.33
188.095	-29.7
188.314	52.22
188.534	148.48
188.753	-5.12
188.973	-7.17
189.192	5.12
189.412	9.22
189.631	9.22
189.851	52.22
190.07	78.85
190.29	3.07
190.509	15.36
190.729	29.7
190.948	31.74
191.168	189.44
191.387	115.71
191.607	50.18
191.826	3.07
192.045	-5.12
192.265	-13.31
192.484	52.22
192.704	48.13
192.923	-23.55
193.142	132.09
193.362	15.36
193.581	70.65
193.8	39.94
194.02	17.41
194.239	54.27
194.458	93.18
194.678	29.7
194.897	31.74
195.116	21.5
195.335	48.13
195.555	35.84
195.774	62.46
195.993	130.05
196.212	-11.26
196.432	19.46
196.651	-50.18
196.87	-46.08
197.089	142.33
197.308	111.61
197.528	21.5
197.747	-23.55
197.966	54.27
198.185	80.89
198.404	-13.31
198.623	46.08
198.842	68.61
199.062	78.85
199.281	68.61
199.5	-3.07
199.719	93.18
199.938	27.65
200.157	54.27
200.376	-7.17
200.595	58.37
200.814	66.56
201.033	54.27
201.252	56.32
201.471	-48.13
201.69	84.99
201.909	56.32
202.128	78.85
202.347	99.33
202.566	37.89
202.785	-29.7
203.004	-19.46
203.223	142.33
203.442	44.03
203.661	17.41
203.879	-68.61
204.098	25.6
204.317	-11.26
204.536	27.65
204.755	21.5
204.974	-21.5
205.193	27.65
205.411	117.76
205.63	44.03
205.849	66.56
206.068	5.12
206.287	11.26
206.505	95.23
206.724	-50.18
206.943	39.94
207.162	-48.13
207.381	82.94
207.599	-29.7
207.818	35.84
208.037	-46.08
208.255	113.66
208.474	48.13
208.693	78.85
208.911	-29.7
209.13	109.57
209.349	48.13
209.567	62.46
209.786	48.13
210.005	-21.5
210.223	-64.51
210.442	-13.31
210.661	33.79
210.879	19.46
211.098	-15.36
211.316	17.41
211.535	62.46
211.753	50.18
211.972	48.13
212.191	9.22
212.409	48.13
212.628	29.7
212.846	58.37
213.065	56.32
213.283	48.13
213.502	-17.41
213.72	50.18
213.938	5.12
214.157	29.7
214.375	70.65
214.594	35.84
214.812	142.33
215.031	29.7
215.249	21.5
215.467	121.85
215.686	39.94
215.904	70.65
216.122	-5.12
216.341	78.85
216.559	33.79
216.778	56.32
216.996	29.7
217.214	-17.41
217.432	76.8
217.651	-17.41
217.869	-60.42
218.087	113.66
218.306	7.17
218.524	64.51
218.742	-27.65
218.96	56.32
219.179	5.12
219.397	-35.84
219.615	140.29
219.833	23.55
220.051	-33.79
220.27	132.09
220.488	105.47
220.706	33.79
220.924	29.7
221.142	50.18
221.36	84.99
221.578	113.66
221.796	23.55
222.015	60.42
222.233	-44.03
222.451	76.8
222.669	-95.23
222.887	46.08
223.105	41.98
223.323	19.46
223.541	19.46
223.759	33.79
223.977	3.07
224.195	105.47
224.413	54.27
224.631	-3.07
224.849	25.6
225.067	91.13
225.285	-56.32
225.503	-5.12
225.721	-35.84
225.939	-7.17
226.157	35.84
226.375	240.64
226.592	-21.5
226.81	23.55
227.028	109.57
227.246	91.13
227.464	-9.22
227.682	62.46
227.9	3.07
228.117	13.31
228.335	33.79
228.553	35.84
228.771	66.56
228.989	-9.22
229.206	27.65
229.424	50.18
229.642	-29.7
229.86	-66.56
230.077	56.32
230.295	31.74
230.513	97.28
230.731	87.04
230.948	115.71
231.166	46.08
231.384	82.94
231.601	-15.36
231.819	62.46
232.037	-54.27
232.254	-56.32
232.472	7.17
232.689	-44.03
232.907	78.85
233.125	39.94
233.342	11.26
233.56	35.84
233.777	62.46
233.995	48.13
234.213	21.5
234.43	1.02
234.648	48.13
234.865	39.94
235.083	52.22
235.3	29.7
235.518	35.84
235.735	95.23
235.953	62.46
236.17	15.36
236.388	-21.5
236.605	1.02
236.822	64.51
237.04	123.9
237.257	39.94
237.475	-29.7
237.692	87.04
237.909	39.94
238.127	11.26
238.344	107.52
238.562	41.98
238.779	7.17
238.996	-35.84
239.214	80.89
239.431	64.51
239.648	-3.07
239.865	-15.36
240.083	41.98
240.3	-50.18
240.517	-46.08
240.735	54.27
240.952	13.31
241.169	58.37
241.386	89.09
241.603	25.6
241.821	19.46
242.038	103.42
242.255	52.22
242.472	-60.42
242.689	48.13
242.907	60.42
243.124	-35.84
243.341	13.31
243.558	-3.07
243.775	-87.04
243.992	46.08
244.209	107.52
244.426	91.13
244.643	103.42
244.86	60.42
245.078	31.74
245.295	23.55
245.512	13.31
245.729	-13.31
245.946	-1.02
246.163	46.08
246.38	23.55
246.597	-15.36
246.814	60.42
247.031	50.18
247.248	62.46
247.464	-23.55
247.681	-5.12
247.898	70.65
248.115	15.36
248.332	-17.41
248.549	66.56
248.766	171.01
248.983	39.94
249.2	46.08
249.417	21.5
249.633	-19.46
249.85	-9.22
250.067	25.6
250.284	50.18
250.501	33.79
250.717	41.98
250.934	-17.41
251.151	21.5
251.368	19.46
251.585	58.37
251.801	-5.12
252.018	23.55
252.235	-17.41
252.451	3.07
252.668	15.36
252.885	66.56
253.102	52.22
253.318	89.09
253.535	-35.84
253.752	19.46
253.968	-48.13
254.185	-72.7
254.401	50.18
254.618	78.85
254.835	5.12
255.051	78.85
255.268	140.29
255.484	19.46
255.701	7.17
255.917	19.46
256.134	17.41
256.351	17.41
256.567	-29.7
256.784	50.18
257	-123.9
257.217	23.55
257.433	41.98
257.65	84.99
257.866	91.13
258.082	-19.46
258.299	-27.65
258.515	74.75
258.732	-39.94
258.948	-3.07
259.165	62.46
259.381	-60.42
259.597	-29.7
259.814	-25.6
260.03	-37.89
260.246	72.7
260.463	123.9
260.679	87.04
260.895	5.12
261.112	62.46
261.328	29.7
261.544	27.65
261.761	84.99
261.977	23.55
262.193	35.84
262.409	125.95
262.626	13.31
262.842	13.31
263.058	-91.13
263.274	-7.17
263.49	-27.65
263.707	68.61
263.923	66.56
264.139	19.46
264.355	3.07
264.571	97.28
264.787	52.22
265.004	70.65
265.22	31.74
265.436	-21.5
265.652	29.7
265.868	-27.65
266.084	-9.22
266.3	-7.17
266.516	41.98
266.732	-23.55
266.948	99.33
267.164	31.74
267.38	31.74
267.596	60.42
267.812	56.32
268.028	80.89
268.244	35.84
268.46	33.79
268.676	-50.18
268.892	62.46
269.108	52.22
269.324	15.36
269.54	-27.65
269.756	113.66
269.972	-5.12
270.188	7.17
270.403	68.61
270.619	52.22
270.835	-78.85
271.051	68.61
271.267	52.22
271.483	3.07
271.698	17.41
271.914	27.65
272.13	17.41
272.346	33.79
272.562	33.79
272.777	50.18
272.993	56.32
273.209	-19.46
273.425	-25.6
273.64	-31.74
273.856	89.09
274.072	-62.46
274.287	5.12
274.503	19.46
274.719	66.56
274.934	58.37
275.15	-52.22
275.366	44.03
275.581	21.5
275.797	68.61
276.012	33.79
276.228	-31.74
276.444	21.5
276.659	52.22
276.875	-1.02
277.09	9.22
277.306	-7.17
277.521	46.08
277.737	-7.17
277.952	64.51
278.168	-7.17
278.383	-33.79
278.599	39.94
278.814	37.89
279.03	9.22
279.245	95.23
279.461	48.13
279.676	25.6
279.892	41.98
280.107	-9.22
280.322	-9.22
280.538	101.37
280.753	21.5
280.969	103.42
281.184	-19.46
281.399	70.65
281.615	3.07
281.83	46.08
282.045	-29.7
282.26	-50.18
282.476	46.08
282.691	46.08
282.906	54.27
283.122	7.17
283.337	17.41
283.552	50.18
283.767	15.36
283.983	64.51
284.198	27.65
284.413	19.46
284.628	-35.84
284.843	15.36
285.058	41.98
285.274	74.75
285.489	-46.08
285.704	54.27
285.919	39.94
286.134	87.04
286.349	19.46
286.564	-58.37
286.779	121.85
286.995	-13.31
287.21	-1.02
287.425	48.13
287.64	3.07
287.855	31.74
288.07	-37.89
288.285	1.02
288.5	60.42
288.715	-19.46
288.93	33.79
289.145	-13.31
289.36	80.89
289.575	35.84
289.79	76.8
290.004	-39.94
290.219	56.32
290.434	-1.02
290.649	-89.09
290.864	29.7
291.079	37.89
291.294	-44.03
291.509	46.08
291.724	-56.32
291.938	-5.12
292.153	-33.79
292.368	60.42
292.583	-21.5
292.798	105.47
293.012	37.89
293.227	31.74
293.442	-35.84
293.657	74.75
293.871	80.89
294.086	11.26
294.301	54.27
294.516	58.37
294.73	44.03
294.945	-41.98
295.16	60.42
295.374	21.5
295.589	125.95
295.804	21.5
296.018	33.79
296.233	115.71
296.447	33.79
296.662	-7.17
296.877	48.13
297.091	44.03
297.306	-21.5
297.52	66.56
297.735	-27.65
297.949	41.98
298.164	15.36
298.378	74.75
298.593	-56.32
298.807	-13.31
299.022	-1.02
299.236	46.08
299.451	33.79
299.665	-1.02
299.88	13.31
300.094	37.89
300.309	27.65
300.523	25.6
300.737	-37.89
300.952	97.28
301.166	21.5
301.381	25.6
301.595	7.17
301.809	35.84
302.024	-39.94
302.238	3.07
302.452	78.85
302.667	11.26
302.881	101.37
303.095	74.75
303.309	39.94
303.524	17.41
303.738	19.46
303.952	-35.84
304.166	84.99
304.381	-87.04
304.595	117.76
304.809	-13.31
305.023	19.46
305.237	48.13
305.452	-37.89
305.666	52.22
305.88	70.65
306.094	-31.74
306.308	48.13
306.522	50.18
306.736	33.79
306.95	13.31
307.164	66.56
307.379	-13.31
307.593	111.61
307.807	19.46
308.021	68.61
308.235	80.89
308.449	-82.94
308.663	-41.98
308.877	99.33
309.091	76.8
309.305	5.12
309.519	-70.65
309.733	52.22
309.947	-44.03
310.161	5.12
310.374	25.6
310.588	84.99
310.802	-19.46
311.016	13.31
311.23	113.66
311.444	37.89
311.658	-23.55
311.872	37.89
312.085	56.32
312.299	68.61
312.513	35.84
312.727	-23.55
312.941	-29.7
313.154	11.26
313.368	-11.26
313.582	58.37
313.796	25.6
314.009	-3.07
314.223	48.13
314.437	27.65
314.651	107.52
314.864	19.46
315.078	-50.18
315.292	21.5
315.505	-11.26
315.719	58.37
315.933	13.31
316.146	74.75
316.36	-50.18
316.573	44.03
316.787	111.61
317.001	66.56
317.214	-7.17
317.428	74.75
317.641	-62.46
317.855	-29.7
318.068	78.85
318.282	39.94
318.495	177.15
318.709	41.98
318.922	-39.94
319.136	117.76
319.349	31.74
319.563	56.32
319.776	1.02
319.99	-21.5
320.203	31.74
320.417	115.71
320.63	-3.07
320.843	91.13
321.057	15.36
321.27	29.7
321.483	31.74
321.697	111.61
321.91	9.22
322.124	101.37
322.337	15.36
322.55	-17.41
322.763	-35.84
322.977	54.27
323.19	60.42
323.403	29.7
323.617	62.46
323.83	1.02
324.043	76.8
324.256	-9.22
324.469	-13.31
324.683	-33.79
324.896	5.12
325.109	56.32
325.322	5.12
325.535	11.26
325.748	39.94
325.962	-19.46
326.175	93.18
326.388	50.18
326.601	1.02
326.814	33.79
327.027	-1.02
327.24	74.75
327.453	-54.27
327.666	66.56
327.879	66.56
328.092	123.9
328.305	21.5
328.518	52.22
328.731	-95.23
328.944	58.37
329.157	52.22
329.37	29.7
329.583	52.22
329.796	68.61
330.009	1.02
330.222	17.41
330.435	11.26
330.648	1.02
330.861	-23.55
331.073	-1.02
331.286	29.7
331.499	78.85
331.712	-7.17
331.925	13.31
332.138	-109.57
332.35	60.42
332.563	7.17
332.776	115.71
332.989	3.07
333.202	-58.37
333.414	62.46
333.627	-50.18
333.84	-11.26
334.053	13.31
334.265	-17.41
334.478	9.22
334.691	-87.04
334.903	76.8
335.116	-9.22
335.329	35.84
335.541	84.99
335.754	82.94
335.966	23.55
336.179	17.41
336.392	-68.61
336.604	17.41
336.817	37.89
337.029	15.36
337.242	29.7
337.454	107.52
337.667	33.79
337.88	82.94
338.092	66.56
338.305	-37.89
338.517	37.89
338.729	64.51
338.942	-3.07
339.154	-41.98
339.367	-33.79
339.579	31.74
339.792	-29.7
340.004	21.5
340.217	11.26
340.429	27.65
340.641	-72.7
340.854	-3.07
341.066	-54.27
341.278	52.22
341.491	109.57
341.703	-13.31
341.915	5.12
342.128	74.75
342.34	37.89
342.552	-13.31
342.764	-29.7
342.977	-5.12
343.189	19.46
343.401	-21.5
343.613	-5.12
343.826	7.17
344.038	-21.5
344.25	74.75
344.462	-68.61
344.674	17.41
344.886	33.79
345.099	19.46
345.311	82.94
345.523	-35.84
345.735	-72.7
345.947	17.41
346.159	33.79
346.371	13.31
346.583	39.94
346.795	125.95
347.007	11.26
347.219	58.37
347.431	-23.55
347.643	72.7
347.855	-11.26
348.067	128
348.279	21.5
348.491	21.5
348.703	15.36
348.915	-15.36
349.127	5.12
349.339	56.32
349.551	-19.46
349.763	9.22
349.975	23.55
350.187	78.85
350.399	89.09
350.61	33.79
350.822	-78.85
351.034	5.12
351.246	44.03
351.458	1.02
351.669	33.79
351.881	148.48
352.093	50.18
352.305	64.51
352.517	17.41
352.728	62.46
352.94	35.84
353.152	5.12
353.363	15.36
353.575	46.08
353.787	35.84
353.999	140.29
354.21	117.76
354.422	-11.26
354.633	29.7
354.845	9.22
355.057	56.32
355.268	-1.02
355.48	29.7
355.692	-70.65
355.903	9.22
356.115	-27.65
356.326	-66.56
356.538	107.52
356.749	37.89
356.961	46.08
357.172	-7.17
357.384	-17.41
357.595	171.01
357.807	-52.22
358.018	25.6
358.23	-19.46
358.441	175.1
358.653	21.5
358.864	23.55
359.075	84.99
359.287	52.22
359.498	95.23
359.709	46.08
359.921	-31.74
360.132	89.09
360.344	13.31
360.555	52.22
360.766	35.84
360.977	-25.6
361.189	39.94
361.4	17.41
361.611	82.94
361.823	70.65
362.034	19.46
362.245	27.65
362.456	-33.79
362.667	-33.79
362.879	-13.31
363.09	7.17
363.301	9.22
363.512	46.08
363.723	-15.36
363.935	-52.22
364.146	50.18
364.357	-44.03
364.568	35.84
364.779	13.31
364.99	35.84
365.201	-19.46
365.412	80.89
365.623	-25.6
365.834	-11.26
366.045	-25.6
366.256	66.56
366.467	-44.03
366.678	-46.08
366.889	60.42
367.1	-1.02
367.311	72.7
367.522	3.07
367.733	99.33
367.944	37.89
368.155	-1.02
368.366	84.99
368.577	91.13
368.788	158.72
368.999	-52.22
369.209	-21.5
369.42	136.19
369.631	164.86
369.842	82.94
370.053	84.99
370.264	48.13
370.474	-58.37
370.685	-3.07
370.896	-70.65
371.107	70.65
371.317	35.84
371.528	-44.03
371.739	99.33
371.95	99.33
372.16	62.46
372.371	-15.36
372.582	-27.65
372.792	78.85
373.003	7.17
373.214	58.37
373.424	25.6
373.635	-21.5
373.846	72.7
374.056	-58.37
374.267	11.26
374.477	130.05
374.688	5.12
374.898	70.65
375.109	70.65
375.319	-1.02
375.53	82.94
375.74	7.17
375.951	25.6
376.161	-11.26
376.372	13.31
376.582	-33.79
376.793	109.57
377.003	3.07
377.214	5.12
377.424	-13.31
377.635	62.46
377.845	-25.6
378.055	87.04
378.266	-11.26
378.476	39.94
378.686	93.18
378.897	23.55
379.107	19.46
379.317	25.6
379.528	23.55
379.738	31.74
379.948	-91.13
380.158	64.51
380.369	25.6
380.579	-39.94
380.789	33.79
380.999	78.85
381.21	93.18
381.42	125.95
381.63	48.13
381.84	25.6
382.05	105.47
382.261	125.95
382.471	97.28
382.681	41.98
382.891	95.23
383.101	70.65
383.311	-19.46
383.521	89.09
383.731	44.03
383.941	37.89
384.151	-5.12
384.361	-23.55
384.571	37.89
384.781	48.13
384.991	103.42
385.201	125.95
385.411	105.47
385.621	52.22
385.831	95.23
386.041	78.85
386.251	29.7
386.461	99.33
386.671	39.94
386.881	27.65
387.091	31.74
387.301	33.79
387.511	11.26
387.72	60.42
387.93	82.94
388.14	-5.12
388.35	23.55
388.56	113.66
388.769	27.65
388.979	62.46
389.189	-9.22
389.399	1.02
389.609	101.37
389.818	101.37
390.028	41.98
390.238	136.19
390.447	41.98
390.657	84.99
390.867	3.07
391.076	-25.6
391.286	7.17
391.496	37.89
391.705	78.85
391.915	68.61
392.125	101.37
392.334	-5.12
392.544	119.81
392.753	54.27
392.963	3.07
393.172	-54.27
393.382	-15.36
393.591	115.71
393.801	35.84
394.01	119.81
394.22	68.61
394.429	70.65
394.639	87.04
394.848	97.28
395.058	41.98
395.267	21.5
395.477	46.08
395.686	7.17
395.895	185.34
396.105	119.81
396.314	72.7
396.524	72.7
396.733	64.51
396.942	66.56
397.152	134.14
397.361	52.22
397.57	1.02
397.78	46.08
397.989	97.28
398.198	121.85
398.407	27.65
398.617	105.47
398.826	70.65
399.035	91.13
399.244	95.23
399.453	150.53
399.663	74.75
399.872	5.12
400.081	52.22
400.29	158.72
400.499	-19.46
400.708	87.04
400.917	44.03
401.127	84.99
401.336	68.61
401.545	166.91
401.754	121.85
401.963	27.65
402.172	99.33
402.381	5.12
402.59	48.13
402.799	50.18
403.008	99.33
403.217	117.76
403.426	66.56
403.635	31.74
403.844	107.52
404.053	80.89
404.262	62.46
404.471	66.56
404.68	68.61
404.888	11.26
405.097	128
405.306	101.37
405.515	58.37
405.724	48.13
405.933	109.57
406.142	109.57
406.35	66.56
406.559	113.66
406.768	128
406.977	168.96
407.185	181.25
407.394	220.16
407.603	31.74
407.812	138.24
408.02	232.44
408.229	168.96
408.438	140.29
408.646	146.43
408.855	117.76
409.064	168.96
409.272	130.05
409.481	150.53
409.69	136.19
409.898	140.29
410.107	177.15
410.315	207.87
410.524	111.61
410.733	181.25
410.941	201.72
411.15	218.11
411.358	291.84
411.567	287.74
411.775	250.88
411.984	285.69
412.192	338.94
412.401	254.97
412.609	312.32
412.818	373.75
413.026	250.88
413.234	244.73
413.443	302.08
413.651	338.94
413.86	297.98
414.068	365.56
414.276	435.19
414.485	293.88
414.693	488.44
414.901	439.29
415.11	408.57
415.318	406.52
415.526	398.33
415.734	478.2
415.943	502.78
416.151	547.83
416.359	404.47
416.567	467.96
416.776	549.88
416.984	543.74
417.192	680.95
417.4	521.21
417.608	545.78
417.817	590.84
418.025	584.7
418.233	754.68
418.441	666.61
418.649	676.85
418.857	730.1
419.065	752.63
419.273	750.58
419.481	832.5
419.689	822.26
419.897	883.7
420.105	846.84
420.313	941.04
420.521	961.52
420.729	912.37
420.937	951.28
421.145	975.86
421.353	1053.68
421.561	1197.04
421.769	1139.69
421.977	1252.33
422.185	1240.05
422.393	1272.81
422.601	1258.48
422.809	1321.96
423.017	1385.45
423.224	1469.42
423.432	1563.62
423.64	1461.23
423.848	1487.85
424.056	1500.14
424.263	1674.21
424.471	1633.26
424.679	1723.37
424.887	1805.28
425.094	1850.34
425.302	1905.63
425.51	1907.68
425.718	1950.69
425.925	1903.59
426.133	2046.94
426.341	2223.07
426.548	2296.8
426.756	2241.5
426.964	2257.89
427.171	2280.41
427.379	2575.32
427.586	2491.35
427.794	2573.27
428.001	2755.54
428.209	2720.73
428.417	2757.59
428.624	3007.44
428.832	3003.35
429.039	3081.17
429.247	2927.57
429.454	3234.77
429.662	3580.87
429.869	3367.88
430.076	3384.27
430.284	3390.41
430.491	3529.67
430.699	3804.1
430.906	3746.76
431.114	3757
431.321	3834.82
431.528	4006.85
431.736	4203.46
431.943	4361.15
432.15	4178.88
432.358	4383.68
432.565	4633.53
432.772	4441.02
432.979	4660.15
433.187	4719.54
433.394	4805.56
433.601	5063.6
433.808	5284.78
434.016	5157.81
434.223	5311.41
434.43	5761.96
434.637	5608.36
434.844	6056.87
435.052	6091.68
435.259	6042.53
435.466	6011.81
435.673	6134.69
435.88	6554.52
436.087	6648.73
436.294	6632.35
436.501	6605.72
436.708	6652.83
436.915	6837.14
437.122	7435.15
437.329	7240.59
437.537	7447.44
437.743	7441.29
437.95	7512.97
438.157	7953.29
438.364	8035.21
438.571	8076.16
438.778	8209.28
438.985	8778.62
439.192	8614.78
439.399	8919.93
439.606	8522.62
439.813	9110.39
440.02	9698.16
440.227	9554.8
440.433	9436.02
440.64	9485.17
440.847	9782.12
441.054	9892.71
441.261	10460
441.467	10447.71
441.674	10900.31
441.881	11033.43
442.088	10849.11
442.294	11031.38
442.501	11115.35
442.708	11387.73
442.914	11821.9
443.121	12501.83
443.328	11877.19
443.534	12942.14
443.741	12286.79
443.948	12172.1
444.154	12933.95
444.361	13005.63
444.568	13099.83
444.774	13366.07
444.981	13280.05
445.187	13671.22
445.394	14377.76
445.6	14125.86
445.807	15536.91
446.013	14705.44
446.22	15094.55
446.426	15713.04
446.633	15774.48
446.839	16452.36
447.046	15604.5
447.252	16780.03
447.459	16507.65
447.665	16474.88
447.871	17277.69
448.078	18297.58
448.284	17105.66
448.491	17515.25
448.697	18322.15
448.903	18557.67
449.11	18373.35
449.316	18193.13
449.522	18563.81
449.728	19141.34
449.935	19159.77
450.141	19077.85
450.347	19960.53
450.553	19210.97
450.76	19223.26
450.966	20030.16
451.172	19546.84
451.378	20298.44
451.584	19815.12
451.791	20202.19
451.997	20396.74
452.203	20730.56
452.409	20660.93
452.615	20556.49
452.821	19729.11
453.027	19407.58
453.233	20474.57
453.44	19614.42
453.646	19931.86
453.852	20120.27
454.058	20431.56
454.264	19710.68
454.47	20097.74
454.676	19673.81
454.882	20615.88
455.088	18922.21
455.294	18780.9
455.5	19122.91
455.705	19215.07
455.911	18549.48
456.117	18252.52
456.323	17974
456.529	17007.36
456.735	17828.59
456.941	17484.53
457.147	17146.62
457.352	16691.97
457.558	16118.54
457.764	16532.23
457.97	15874.83
458.176	15782.67
458.381	15596.31
458.587	15039.26
458.793	15035.16
458.999	14007.08
459.204	15018.78
459.41	14627.62
459.616	13798.19
459.821	14041.9
460.027	13587.25
460.233	13683.5
460.438	12620.61
460.644	12917.56
460.85	12223.3
461.055	12143.43
461.261	12055.37
461.466	11035.48
461.672	10826.59
461.878	11533.14
462.083	11002.71
462.289	10732.38
462.494	10513.25
462.7	10169.19
462.905	9888.62
463.111	10292.07
463.316	10492.77
463.522	9861.99
463.727	9706.35
463.932	9786.22
464.138	9780.07
464.343	9900.9
464.549	9646.96
464.754	9833.32
464.959	9782.12
465.165	9673.58
465.37	9220.98
465.575	8962.94
465.781	9337.71
465.986	9446.26
466.191	9202.55
466.397	8848.25
466.602	8469.37
466.807	8686.46
467.012	8995.7
467.218	8868.73
467.423	8635.26
467.628	8772.47
