Data from USB4F104151__49__12-12-14-706.txt Node

Date: Fri Mar 14 12:12:14 EDT 2025
User: louis
Spectrometer: USB4F10415
Trigger mode: 4
Integration Time (sec): 5.000000E-2
Scans to average: 1
Electric dark correction enabled: true
Nonlinearity correction enabled: false
Boxcar width: 0
XAxis mode: Wavelengths
Number of Pixels in Spectrum: 3648
>>>>>Begin Spectral Data<<<<<
178.204	-187.05
178.424	-187.05
178.644	-187.05
178.864	-244.39
179.084	-137.9
179.304	-2.73
179.524	1.37
179.744	34.13
179.964	7.51
180.184	-8.87
180.404	62.8
180.624	-31.4
180.844	27.99
181.064	-43.69
181.283	15.7
181.503	-55.98
181.723	-6.83
181.943	-17.07
182.163	77.14
182.383	-2.73
182.602	68.95
182.822	19.8
183.042	25.94
183.262	7.51
183.482	52.56
183.701	75.09
183.921	34.13
184.141	-2.73
184.361	99.67
184.58	11.61
184.8	77.14
185.02	11.61
185.239	193.87
185.459	13.65
185.679	152.91
185.898	15.7
186.118	48.47
186.338	46.42
186.557	27.99
186.777	-35.5
186.997	54.61
187.216	68.95
187.436	111.96
187.655	130.39
187.875	75.09
188.095	34.13
188.314	130.39
188.534	89.43
188.753	-8.87
188.973	25.94
189.192	146.77
189.412	27.99
189.631	107.86
189.851	79.19
190.07	58.71
190.29	-58.03
190.509	-31.4
190.729	-19.11
190.948	114
191.168	214.35
191.387	118.1
191.607	19.8
191.826	83.28
192.045	46.42
192.265	15.7
192.484	93.52
192.704	17.75
192.923	-35.5
193.142	124.24
193.362	71
193.581	81.24
193.8	89.43
194.02	126.29
194.239	54.61
194.458	54.61
194.678	23.89
194.897	77.14
195.116	50.52
195.335	52.56
195.555	101.72
195.774	27.99
195.993	140.63
196.212	21.85
196.432	-12.97
196.651	-8.87
196.87	60.76
197.089	208.21
197.308	75.09
197.528	38.23
197.747	3.41
197.966	15.7
198.185	81.24
198.404	1.37
198.623	79.19
198.842	181.59
199.062	68.95
199.281	75.09
199.5	32.08
199.719	85.33
199.938	60.76
200.157	107.86
200.376	62.8
200.595	42.32
200.814	52.56
201.033	-0.68
201.252	122.2
201.471	48.47
201.69	68.95
201.909	32.08
202.128	107.86
202.347	66.9
202.566	40.28
202.785	66.9
203.004	9.56
203.223	163.15
203.442	118.1
203.661	1.37
203.879	89.43
204.098	118.1
204.317	25.94
204.536	23.89
204.755	79.19
204.974	114
205.193	21.85
205.411	132.44
205.63	75.09
205.849	-19.11
206.068	56.66
206.287	97.62
206.505	77.14
206.724	-21.16
206.943	3.41
207.162	21.85
207.381	64.85
207.599	7.51
207.818	9.56
208.037	-4.78
208.255	-37.55
208.474	17.75
208.693	77.14
208.911	50.52
209.13	42.32
209.349	62.8
209.567	48.47
209.786	64.85
210.005	89.43
210.223	64.85
210.442	-47.79
210.661	-15.02
210.879	77.14
211.098	-10.92
211.316	130.39
211.535	30.04
211.753	68.95
211.972	103.76
212.191	-6.83
212.409	19.8
212.628	62.8
212.846	30.04
213.065	226.64
213.283	140.63
213.502	54.61
213.72	32.08
213.938	81.24
214.157	42.32
214.375	83.28
214.594	27.99
214.812	101.72
215.031	66.9
215.249	3.41
215.467	40.28
215.686	1.37
215.904	138.58
216.122	109.91
216.341	71
216.559	50.52
216.778	116.05
216.996	38.23
217.214	25.94
217.432	52.56
217.651	-10.92
217.869	-19.11
218.087	-19.11
218.306	44.37
218.524	97.62
218.742	-4.78
218.96	99.67
219.179	-37.55
219.397	97.62
219.615	150.87
219.833	79.19
220.051	27.99
220.27	7.51
220.488	48.47
220.706	118.1
220.924	46.42
221.142	-55.98
221.36	71
221.578	42.32
221.796	-6.83
222.015	52.56
222.233	77.14
222.451	116.05
222.669	9.56
222.887	83.28
223.105	30.04
223.323	62.8
223.541	-8.87
223.759	66.9
223.977	50.52
224.195	193.87
224.413	122.2
224.631	77.14
224.849	25.94
225.067	150.87
225.285	48.47
225.503	48.47
225.721	9.56
225.939	-47.79
226.157	36.18
226.375	226.64
226.592	46.42
226.81	71
227.028	136.53
227.246	146.77
227.464	83.28
227.682	25.94
227.9	3.41
228.117	48.47
228.335	23.89
228.553	3.41
228.771	87.38
228.989	111.96
229.206	136.53
229.424	-15.02
229.642	44.37
229.86	1.37
230.077	81.24
230.295	58.71
230.513	42.32
230.731	85.33
230.948	116.05
231.166	58.71
231.384	62.8
231.601	79.19
231.819	181.59
232.037	1.37
232.254	9.56
232.472	52.56
232.689	23.89
232.907	124.24
233.125	62.8
233.342	58.71
233.56	17.75
233.777	-6.83
233.995	60.76
234.213	97.62
234.43	-10.92
234.648	71
234.865	34.13
235.083	40.28
235.3	58.71
235.518	89.43
235.735	126.29
235.953	21.85
236.17	13.65
236.388	34.13
236.605	30.04
236.822	85.33
237.04	122.2
237.257	103.76
237.475	9.56
237.692	56.66
237.909	58.71
238.127	54.61
238.344	50.52
238.562	23.89
238.779	-8.87
238.996	23.89
239.214	54.61
239.431	1.37
239.648	54.61
239.865	91.48
240.083	58.71
240.3	48.47
240.517	23.89
240.735	68.95
240.952	62.8
241.169	93.52
241.386	9.56
241.603	77.14
241.821	-31.4
242.038	71
242.255	77.14
242.472	-6.83
242.689	68.95
242.907	157.01
243.124	56.66
243.341	81.24
243.558	52.56
243.775	5.46
243.992	11.61
244.209	105.81
244.426	138.58
244.643	32.08
244.86	36.18
245.078	75.09
245.295	87.38
245.512	142.68
245.729	52.56
245.946	30.04
246.163	52.56
246.38	-6.83
246.597	42.32
246.814	105.81
247.031	46.42
247.248	116.05
247.464	81.24
247.681	50.52
247.898	93.52
248.115	66.9
248.332	103.76
248.549	56.66
248.766	173.39
248.983	91.48
249.2	103.76
249.417	85.33
249.633	11.61
249.85	25.94
250.067	48.47
250.284	58.71
250.501	159.06
250.717	38.23
250.934	64.85
251.151	40.28
251.368	25.94
251.585	30.04
251.801	38.23
252.018	-6.83
252.235	148.82
252.451	-19.11
252.668	1.37
252.885	48.47
253.102	27.99
253.318	17.75
253.535	15.7
253.752	116.05
253.968	75.09
254.185	-41.64
254.401	54.61
254.618	62.8
254.835	44.37
255.051	150.87
255.268	122.2
255.484	9.56
255.701	21.85
255.917	79.19
256.134	60.76
256.351	50.52
256.567	-6.83
256.784	58.71
257	1.37
257.217	64.85
257.433	134.48
257.65	62.8
257.866	93.52
258.082	-55.98
258.299	56.66
258.515	62.8
258.732	19.8
258.948	-6.83
259.165	118.1
259.381	32.08
259.597	89.43
259.814	91.48
260.03	75.09
260.246	36.18
260.463	79.19
260.679	116.05
260.895	62.8
261.112	128.34
261.328	52.56
261.544	-41.64
261.761	120.15
261.977	54.61
262.193	50.52
262.409	87.38
262.626	79.19
262.842	56.66
263.058	-31.4
263.274	132.44
263.49	87.38
263.707	85.33
263.923	140.63
264.139	-33.45
264.355	124.24
264.571	118.1
264.787	105.81
265.004	58.71
265.22	44.37
265.436	-4.78
265.652	1.37
265.868	9.56
266.084	-0.68
266.3	128.34
266.516	34.13
266.732	44.37
266.948	56.66
267.164	7.51
267.38	83.28
267.596	181.59
267.812	58.71
268.028	66.9
268.244	-27.31
268.46	75.09
268.676	15.7
268.892	95.57
269.108	-4.78
269.324	50.52
269.54	-19.11
269.756	126.29
269.972	13.65
270.188	38.23
270.403	64.85
270.619	5.46
270.835	-39.59
271.051	13.65
271.267	15.7
271.483	73.04
271.698	50.52
271.914	95.57
272.13	73.04
272.346	40.28
272.562	109.91
272.777	34.13
272.993	7.51
273.209	48.47
273.425	68.95
273.64	25.94
273.856	99.67
274.072	91.48
274.287	-4.78
274.503	83.28
274.719	66.9
274.934	81.24
275.15	38.23
275.366	111.96
275.581	-6.83
275.797	44.37
276.012	75.09
276.228	95.57
276.444	54.61
276.659	73.04
276.875	17.75
277.09	85.33
277.306	44.37
277.521	99.67
277.737	58.71
277.952	68.95
278.168	64.85
278.383	-2.73
278.599	62.8
278.814	62.8
279.03	62.8
279.245	187.73
279.461	52.56
279.676	132.44
279.892	32.08
280.107	34.13
280.322	44.37
280.538	44.37
280.753	-4.78
280.969	75.09
281.184	81.24
281.399	195.92
281.615	34.13
281.83	40.28
282.045	3.41
282.26	-31.4
282.476	36.18
282.691	171.35
282.906	71
283.122	93.52
283.337	120.15
283.552	89.43
283.767	44.37
283.983	79.19
284.198	116.05
284.413	93.52
284.628	13.65
284.843	128.34
285.058	62.8
285.274	11.61
285.489	30.04
285.704	105.81
285.919	114
286.134	42.32
286.349	38.23
286.564	-39.59
286.779	99.67
286.995	-29.35
287.21	-41.64
287.425	118.1
287.64	17.75
287.855	58.71
288.07	-12.97
288.285	77.14
288.5	66.9
288.715	83.28
288.93	87.38
289.145	79.19
289.36	25.94
289.575	27.99
289.79	103.76
290.004	50.52
290.219	77.14
290.434	48.47
290.649	23.89
290.864	19.8
291.079	44.37
291.294	-37.55
291.509	36.18
291.724	111.96
291.938	36.18
292.153	9.56
292.368	21.85
292.583	128.34
292.798	144.72
293.012	56.66
293.227	30.04
293.442	-0.68
293.657	140.63
293.871	52.56
294.086	64.85
294.301	81.24
294.516	197.97
294.73	68.95
294.945	-41.64
295.16	50.52
295.374	77.14
295.589	97.62
295.804	36.18
296.018	44.37
296.233	208.21
296.447	36.18
296.662	17.75
296.877	169.3
297.091	25.94
297.306	68.95
297.52	81.24
297.735	17.75
297.949	107.86
298.164	95.57
298.378	56.66
298.593	81.24
298.807	-0.68
299.022	56.66
299.236	122.2
299.451	-12.97
299.665	58.71
299.88	77.14
300.094	56.66
300.309	38.23
300.523	52.56
300.737	48.47
300.952	111.96
301.166	134.48
301.381	27.99
301.595	48.47
301.809	50.52
302.024	-2.73
302.238	-10.92
302.452	136.53
302.667	40.28
302.881	138.58
303.095	144.72
303.309	62.8
303.524	105.81
303.738	-4.78
303.952	66.9
304.166	111.96
304.381	30.04
304.595	91.48
304.809	32.08
305.023	93.52
305.237	73.04
305.452	105.81
305.666	46.42
305.88	50.52
306.094	-10.92
306.308	5.46
306.522	124.24
306.736	-6.83
306.95	34.13
307.164	17.75
307.379	-0.68
307.593	134.48
307.807	38.23
308.021	91.48
308.235	79.19
308.449	71
308.663	30.04
308.877	208.21
309.091	25.94
309.305	101.72
309.519	44.37
309.733	85.33
309.947	11.61
310.161	111.96
310.374	111.96
310.588	77.14
310.802	-17.07
311.016	32.08
311.23	60.76
311.444	25.94
311.658	62.8
311.872	81.24
312.085	73.04
312.299	169.3
312.513	130.39
312.727	46.42
312.941	-41.64
313.154	17.75
313.368	34.13
313.582	68.95
313.796	13.65
314.009	38.23
314.223	144.72
314.437	27.99
314.651	52.56
314.864	3.41
315.078	52.56
315.292	30.04
315.505	15.7
315.719	30.04
315.933	34.13
316.146	60.76
316.36	-84.65
316.573	85.33
316.787	68.95
317.001	150.87
317.214	1.37
317.428	50.52
317.641	56.66
317.855	30.04
318.068	44.37
318.282	79.19
318.495	150.87
318.709	144.72
318.922	23.89
319.136	175.44
319.349	66.9
319.563	60.76
319.776	46.42
319.99	-31.4
320.203	111.96
320.417	114
320.63	83.28
320.843	111.96
321.057	30.04
321.27	71
321.483	71
321.697	144.72
321.91	62.8
322.124	118.1
322.337	124.24
322.55	50.52
322.763	124.24
322.977	17.75
323.19	52.56
323.403	71
323.617	66.9
323.83	77.14
324.043	32.08
324.256	13.65
324.469	-51.88
324.683	126.29
324.896	-21.16
325.109	97.62
325.322	-37.55
325.535	148.82
325.748	87.38
325.962	79.19
326.175	68.95
326.388	-2.73
326.601	118.1
326.814	44.37
327.027	46.42
327.24	52.56
327.453	11.61
327.666	34.13
327.879	101.72
328.092	89.43
328.305	66.9
328.518	7.51
328.731	13.65
328.944	73.04
329.157	17.75
329.37	93.52
329.583	150.87
329.796	46.42
330.009	48.47
330.222	58.71
330.435	167.25
330.648	75.09
330.861	17.75
331.073	140.63
331.286	138.58
331.499	32.08
331.712	105.81
331.925	157.01
332.138	64.85
332.35	-21.16
332.563	75.09
332.776	126.29
332.989	105.81
333.202	73.04
333.414	27.99
333.627	93.52
333.84	-12.97
334.053	56.66
334.265	66.9
334.478	46.42
334.691	17.75
334.903	101.72
335.116	73.04
335.329	-6.83
335.541	81.24
335.754	140.63
335.966	38.23
336.179	66.9
336.392	89.43
336.604	42.32
336.817	42.32
337.029	128.34
337.242	5.46
337.454	46.42
337.667	109.91
337.88	93.52
338.092	50.52
338.305	111.96
338.517	128.34
338.729	71
338.942	122.2
339.154	5.46
339.367	-21.16
339.579	93.52
339.792	13.65
340.004	118.1
340.217	13.65
340.429	-27.31
340.641	30.04
340.854	17.75
341.066	32.08
341.278	56.66
341.491	120.15
341.703	93.52
341.915	79.19
342.128	124.24
342.34	87.38
342.552	-8.87
342.764	13.65
342.977	62.8
343.189	87.38
343.401	134.48
343.613	38.23
343.826	77.14
344.038	-51.88
344.25	11.61
344.462	32.08
344.674	128.34
344.886	73.04
345.099	91.48
345.311	54.61
345.523	79.19
345.735	-4.78
345.947	42.32
346.159	120.15
346.371	73.04
346.583	15.7
346.795	136.53
347.007	-2.73
347.219	173.39
347.431	62.8
347.643	136.53
347.855	3.41
348.067	111.96
348.279	17.75
348.491	68.95
348.703	50.52
348.915	154.96
349.127	89.43
349.339	15.7
349.551	19.8
349.763	30.04
349.975	25.94
350.187	85.33
350.399	71
350.61	142.68
350.822	93.52
351.034	134.48
351.246	111.96
351.458	130.39
351.669	79.19
351.881	105.81
352.093	99.67
352.305	56.66
352.517	146.77
352.728	111.96
352.94	138.58
353.152	87.38
353.363	34.13
353.575	148.82
353.787	171.35
353.999	97.62
354.21	66.9
354.422	21.85
354.633	46.42
354.845	179.54
355.057	11.61
355.268	118.1
355.48	179.54
355.692	30.04
355.903	85.33
356.115	-6.83
356.326	-8.87
356.538	148.82
356.749	13.65
356.961	146.77
357.172	77.14
357.384	21.85
357.595	232.79
357.807	103.76
358.018	1.37
358.23	36.18
358.441	126.29
358.653	81.24
358.864	97.62
359.075	32.08
359.287	89.43
359.498	58.71
359.709	122.2
359.921	77.14
360.132	21.85
360.344	93.52
360.555	95.57
360.766	122.2
360.977	68.95
361.189	50.52
361.4	23.89
361.611	30.04
361.823	177.49
362.034	128.34
362.245	42.32
362.456	71
362.667	83.28
362.879	1.37
363.09	27.99
363.301	105.81
363.512	73.04
363.723	34.13
363.935	52.56
364.146	107.86
364.357	46.42
364.568	85.33
364.779	66.9
364.99	146.77
365.201	130.39
365.412	103.76
365.623	-47.79
365.834	87.38
366.045	68.95
366.256	46.42
366.467	21.85
366.678	79.19
366.889	167.25
367.1	7.51
367.311	120.15
367.522	64.85
367.733	58.71
367.944	54.61
368.155	101.72
368.366	89.43
368.577	171.35
368.788	109.91
368.999	11.61
369.209	71
369.42	171.35
369.631	175.44
369.842	60.76
370.053	17.75
370.264	134.48
370.474	3.41
370.685	120.15
370.896	81.24
371.107	128.34
371.317	126.29
371.528	81.24
371.739	114
371.95	109.91
372.16	58.71
372.371	38.23
372.582	1.37
372.792	163.15
373.003	95.57
373.214	103.76
373.424	140.63
373.635	5.46
373.846	114
374.056	124.24
374.267	97.62
374.477	138.58
374.688	44.37
374.898	54.61
375.109	134.48
375.319	142.68
375.53	154.96
375.74	66.9
375.951	89.43
376.161	91.48
376.372	107.86
376.582	40.28
376.793	114
377.003	-8.87
377.214	17.75
377.424	71
377.635	36.18
377.845	-4.78
378.055	77.14
378.266	44.37
378.476	138.58
378.686	132.44
378.897	124.24
379.107	183.63
379.317	71
379.528	71
379.738	79.19
379.948	68.95
380.158	114
380.369	93.52
380.579	128.34
380.789	54.61
380.999	56.66
381.21	142.68
381.42	154.96
381.63	75.09
381.84	150.87
382.05	83.28
382.261	73.04
382.471	87.38
382.681	60.76
382.891	114
383.101	52.56
383.311	103.76
383.521	118.1
383.731	105.81
383.941	167.25
384.151	64.85
384.361	89.43
384.571	15.7
384.781	150.87
384.991	187.73
385.201	165.2
385.411	118.1
385.621	95.57
385.831	136.53
386.041	116.05
386.251	154.96
386.461	144.72
386.671	60.76
386.881	3.41
387.091	99.67
387.301	107.86
387.511	46.42
387.72	62.8
387.93	89.43
388.14	56.66
388.35	114
388.56	111.96
388.769	159.06
388.979	75.09
389.189	99.67
389.399	56.66
389.609	136.53
389.818	154.96
390.028	167.25
390.238	183.63
390.447	-33.45
390.657	97.62
390.867	83.28
391.076	66.9
391.286	144.72
391.496	107.86
391.705	17.75
391.915	97.62
392.125	177.49
392.334	146.77
392.544	177.49
392.753	38.23
392.963	44.37
393.172	105.81
393.382	73.04
393.591	259.41
393.801	116.05
394.01	212.31
394.22	152.91
394.429	111.96
394.639	111.96
394.848	101.72
395.058	187.73
395.267	62.8
395.477	159.06
395.686	120.15
395.895	249.17
396.105	191.83
396.314	261.46
396.524	187.73
396.733	130.39
396.942	171.35
397.152	140.63
397.361	144.72
397.57	206.16
397.78	118.1
397.989	177.49
398.198	224.59
398.407	163.15
398.617	167.25
398.826	140.63
399.035	154.96
399.244	210.26
399.453	171.35
399.663	157.01
399.872	195.92
400.081	118.1
400.29	216.4
400.499	107.86
400.708	159.06
400.917	175.44
401.127	71
401.336	179.54
401.545	298.32
401.754	204.11
401.963	212.31
402.172	171.35
402.381	81.24
402.59	124.24
402.799	210.26
403.008	212.31
403.217	161.11
403.426	257.36
403.635	195.92
403.844	146.77
404.053	191.83
404.262	230.74
404.471	296.27
404.68	210.26
404.888	234.83
405.097	234.83
405.306	224.59
405.515	245.07
405.724	230.74
405.933	275.79
406.142	277.84
406.35	279.89
406.559	169.3
406.768	308.56
406.977	370
407.185	275.79
407.394	357.71
407.603	326.99
407.812	304.46
408.02	384.34
408.229	294.22
408.438	370
408.646	286.03
408.855	423.25
409.064	435.53
409.272	331.09
409.481	363.86
409.69	380.24
409.898	351.57
410.107	453.97
410.315	474.45
410.524	431.44
410.733	576.84
410.941	386.38
411.15	681.29
411.358	589.13
411.567	650.57
411.775	687.43
411.984	648.52
412.192	613.71
412.401	576.84
412.609	806.22
412.818	752.97
413.026	683.34
413.234	712.01
413.443	752.97
413.651	787.79
413.86	816.46
414.068	963.91
414.276	906.57
414.485	890.18
414.693	986.44
414.901	1103.17
415.11	1103.17
415.318	1017.16
415.526	1035.59
415.734	1162.56
415.943	1150.28
416.151	1293.63
416.359	1154.37
416.567	1291.59
416.776	1373.5
416.984	1457.47
417.192	1420.61
417.4	1457.47
417.608	1439.04
417.817	1512.77
418.025	1713.47
418.233	1817.91
418.441	1772.86
418.649	1770.81
418.857	1819.96
419.065	1936.7
419.273	1850.68
419.481	1946.94
419.689	2090.29
419.897	2192.69
420.105	2258.23
420.313	2383.15
420.521	2422.06
420.729	2374.96
420.937	2557.23
421.145	2714.92
421.353	2731.31
421.561	2921.77
421.769	3007.78
421.977	3079.46
422.185	2979.11
422.393	3052.84
422.601	3392.8
422.809	3237.16
423.017	3376.42
423.224	3497.25
423.432	3611.93
423.64	3632.41
423.848	3990.81
424.056	4019.48
424.263	4230.42
424.471	4171.03
424.679	4250.9
424.887	4558.1
425.094	4621.58
425.302	4572.43
425.51	4748.56
425.718	4982.03
425.925	5080.33
426.133	5082.38
426.341	5430.53
426.548	5704.96
426.756	5598.46
426.964	5946.62
427.171	5958.91
427.379	6296.82
427.586	6483.19
427.794	6669.55
428.001	6829.29
428.209	7310.57
428.417	7195.88
428.624	7404.77
428.832	7621.86
429.039	7312.61
429.247	7783.65
429.454	8334.55
429.662	8924.37
429.869	8164.57
430.076	8756.43
430.284	8682.7
430.491	8975.56
430.699	9608.39
430.906	9485.51
431.114	9723.07
431.321	9854.14
431.528	10071.23
431.736	10460.34
431.943	11154.6
432.15	10958
432.358	11031.72
432.565	11646.12
432.772	11601.06
432.979	12291.23
433.187	12364.95
433.394	12416.15
433.601	13296.78
433.808	13323.4
434.016	13194.38
434.223	13640.84
434.43	14500.98
434.637	14216.32
434.844	15283.31
435.052	15422.57
435.259	15441
435.466	15367.27
435.673	15387.75
435.88	16254.05
436.087	17009.75
436.294	16974.93
436.501	16571.48
436.708	17153.1
436.915	17493.07
437.122	18510.91
437.329	18351.17
437.537	18842.68
437.743	19375.15
437.95	18900.02
438.157	19713.06
438.364	20509.72
438.571	20507.68
438.778	20765.72
438.985	22825.98
439.192	21924.87
439.399	22393.86
439.606	21998.6
439.813	23120.88
440.02	24497.12
440.227	24161.25
440.433	23557.1
440.64	24536.03
440.847	24110.05
441.054	25027.54
441.261	26692.54
441.467	26401.73
441.674	27325.36
441.881	27814.83
442.088	27745.2
442.294	27685.81
442.501	28230.57
442.708	28892.06
442.914	30100.36
443.121	31101.82
443.328	30196.62
443.534	32512.87
443.741	31124.35
443.948	30823.29
444.154	33366.87
444.361	33026.91
444.568	33289.05
444.774	32883.55
444.981	33557.33
445.187	34523.97
445.394	35822.39
445.6	35459.9
445.807	38843.14
446.013	37223.2
446.22	37872.4
446.426	39428.86
446.633	39639.8
446.839	40950.5
447.046	38787.85
447.252	41302.75
447.459	41476.83
447.665	40870.63
447.871	42951.37
448.078	44716.71
448.284	42404.56
448.491	44051.13
448.697	45083.3
448.903	46121.62
449.11	45712.03
449.316	44909.22
449.522	46084.76
449.728	47448.71
449.935	47536.77
450.141	47323.78
450.347	48466.55
450.553	47157.89
450.76	47514.24
450.966	48702.06
451.172	48284.28
451.378	50025.05
451.584	49001.07
451.791	49660.51
451.997	49871.45
452.203	50272.85
452.409	50532.95
452.615	49932.89
452.821	48206.45
453.027	47946.36
453.233	50537.04
453.44	48226.93
453.646	48829.04
453.852	48982.63
454.058	50127.45
454.264	48130.68
454.47	49132.14
454.676	47975.03
454.882	49177.19
455.088	44960.42
455.294	45683.36
455.5	46346.9
455.705	47075.97
455.911	45468.32
456.117	44133.04
456.323	43348.67
456.529	41321.18
456.735	43086.53
456.941	41738.97
457.147	41235.17
457.352	40243.95
457.558	39568.12
457.764	39883.51
457.97	38888.2
458.176	37847.83
458.381	37579.54
458.587	36168.49
458.793	36074.29
458.999	34235.21
459.204	36399.91
459.41	35470.14
459.616	33727.31
459.821	33278.81
460.027	33026.91
460.233	32789.35
460.438	30606.21
460.644	31196.03
460.85	29391.76
461.055	29375.38
461.261	29072.28
461.466	26762.17
461.672	26266.56
461.878	27855.79
462.083	26090.44
462.289	25529.3
462.494	25314.26
462.7	23987.18
462.905	23716.84
463.111	24204.26
463.316	24216.55
463.522	23935.98
463.727	24077.29
463.932	23978.98
464.138	23290.87
464.343	23538.67
464.549	22762.49
464.754	23542.77
464.959	23294.96
465.165	23143.41
465.37	22135.81
465.575	21675.02
465.781	22406.14
465.986	22277.12
466.191	21750.79
466.397	21412.88
