Data from USB4F104151__92__12-13-05-300.txt Node

Date: Fri Mar 14 12:13:05 EDT 2025
User: louis
Spectrometer: USB4F10415
Trigger mode: 4
Integration Time (sec): 5.000000E-2
Scans to average: 1
Electric dark correction enabled: true
Nonlinearity correction enabled: false
Boxcar width: 0
XAxis mode: Wavelengths
Number of Pixels in Spectrum: 3648
>>>>>Begin Spectral Data<<<<<
178.204	-238.08
178.424	-238.08
178.644	-238.08
178.864	-244.22
179.084	-242.17
179.304	-2.56
179.524	-61.95
179.744	-10.75
179.964	87.55
180.184	22.02
180.404	28.16
180.624	-25.09
180.844	-12.8
181.064	-72.19
181.283	28.16
181.503	-55.81
181.723	75.26
181.943	-45.57
182.163	79.36
182.383	-43.52
182.602	19.97
182.822	19.97
183.042	-18.94
183.262	-27.14
183.482	-4.61
183.701	7.68
183.921	50.69
184.141	-8.7
184.361	26.11
184.58	36.35
184.8	7.68
185.02	-31.23
185.239	120.32
185.459	71.17
185.679	22.02
185.898	-41.47
186.118	67.07
186.338	40.45
186.557	26.11
186.777	30.21
186.997	-51.71
187.216	-49.66
187.436	173.57
187.655	32.26
187.875	97.79
188.095	-14.85
188.314	120.32
188.534	73.21
188.753	-39.42
188.973	11.78
189.192	140.8
189.412	15.87
189.631	81.41
189.851	97.79
190.07	56.83
190.29	7.68
190.509	77.31
190.729	-31.23
190.948	97.79
191.168	89.6
191.387	42.5
191.607	-6.66
191.826	15.87
192.045	79.36
192.265	3.58
192.484	15.87
192.704	151.04
192.923	-70.14
193.142	144.89
193.362	58.88
193.581	157.18
193.8	13.82
194.02	120.32
194.239	28.16
194.458	62.98
194.678	40.45
194.897	50.69
195.116	19.97
195.335	50.69
195.555	93.69
195.774	-6.66
195.993	46.59
196.212	22.02
196.432	52.74
196.651	32.26
196.87	5.63
197.089	120.32
197.308	24.06
197.528	93.69
197.747	-23.04
197.966	58.88
198.185	187.9
198.404	60.93
198.623	44.54
198.842	22.02
199.062	13.82
199.281	15.87
199.5	40.45
199.719	44.54
199.938	42.5
200.157	89.6
200.376	97.79
200.595	124.41
200.814	38.4
201.033	36.35
201.252	99.84
201.471	22.02
201.69	46.59
201.909	54.78
202.128	56.83
202.347	101.89
202.566	7.68
202.785	-27.14
203.004	-41.47
203.223	114.17
203.442	83.45
203.661	11.78
203.879	67.07
204.098	99.84
204.317	46.59
204.536	71.17
204.755	-33.28
204.974	136.7
205.193	32.26
205.411	138.75
205.63	5.63
205.849	-27.14
206.068	30.21
206.287	-6.66
206.505	120.32
206.724	-16.9
206.943	-20.99
207.162	95.74
207.381	-12.8
207.599	9.73
207.818	52.74
208.037	42.5
208.255	38.4
208.474	120.32
208.693	36.35
208.911	3.58
209.13	36.35
209.349	24.06
209.567	-27.14
209.786	89.6
210.005	62.98
210.223	30.21
210.442	-0.51
210.661	91.65
210.879	-0.51
211.098	7.68
211.316	110.08
211.535	67.07
211.753	-35.33
211.972	60.93
212.191	-8.7
212.409	108.03
212.628	103.93
212.846	-12.8
213.065	81.41
213.283	204.28
213.502	-35.33
213.72	7.68
213.938	87.55
214.157	-8.7
214.375	34.3
214.594	42.5
214.812	13.82
215.031	7.68
215.249	-4.61
215.467	91.65
215.686	28.16
215.904	89.6
216.122	32.26
216.341	67.07
216.559	-25.09
216.778	91.65
216.996	-23.04
217.214	13.82
217.432	19.97
217.651	44.54
217.869	-31.23
218.087	56.83
218.306	-33.28
218.524	42.5
218.742	9.73
218.96	15.87
219.179	32.26
219.397	30.21
219.615	136.7
219.833	110.08
220.051	11.78
220.27	52.74
220.488	17.92
220.706	138.75
220.924	46.59
221.142	46.59
221.36	3.58
221.578	13.82
221.796	52.74
222.015	-23.04
222.233	44.54
222.451	183.81
222.669	-2.56
222.887	32.26
223.105	-12.8
223.323	48.64
223.541	58.88
223.759	93.69
223.977	30.21
224.195	114.17
224.413	110.08
224.631	81.41
224.849	-12.8
225.067	79.36
225.285	-20.99
225.503	54.78
225.721	-72.19
225.939	32.26
226.157	79.36
226.375	198.14
226.592	-33.28
226.81	5.63
227.028	93.69
227.246	165.37
227.464	-8.7
227.682	101.89
227.9	58.88
228.117	-4.61
228.335	73.21
228.553	58.88
228.771	71.17
228.989	75.26
229.206	-35.33
229.424	73.21
229.642	19.97
229.86	42.5
230.077	50.69
230.295	15.87
230.513	91.65
230.731	3.58
230.948	87.55
231.166	73.21
231.384	48.64
231.601	1.54
231.819	114.17
232.037	-0.51
232.254	-2.56
232.472	77.31
232.689	-51.71
232.907	44.54
233.125	52.74
233.342	-14.85
233.56	22.02
233.777	79.36
233.995	-31.23
234.213	140.8
234.43	105.98
234.648	-29.18
234.865	81.41
235.083	85.5
235.3	91.65
235.518	71.17
235.735	161.28
235.953	42.5
236.17	32.26
236.388	114.17
236.605	67.07
236.822	79.36
237.04	69.12
237.257	50.69
237.475	-0.51
237.692	89.6
237.909	-12.8
238.127	32.26
238.344	-4.61
238.562	32.26
238.779	17.92
238.996	19.97
239.214	-4.61
239.431	46.59
239.648	-27.14
239.865	116.22
240.083	105.98
240.3	32.26
240.517	9.73
240.735	38.4
240.952	122.37
241.169	7.68
241.386	85.5
241.603	-23.04
241.821	65.02
242.038	38.4
242.255	50.69
242.472	-18.94
242.689	3.58
242.907	120.32
243.124	50.69
243.341	56.83
243.558	65.02
243.775	-8.7
243.992	-41.47
244.209	56.83
244.426	110.08
244.643	130.56
244.86	-10.75
245.078	42.5
245.295	58.88
245.512	60.93
245.729	-10.75
245.946	73.21
246.163	15.87
246.38	22.02
246.597	24.06
246.814	-33.28
247.031	-0.51
247.248	7.68
247.464	56.83
247.681	-43.52
247.898	179.71
248.115	38.4
248.332	-41.47
248.549	75.26
248.766	120.32
248.983	93.69
249.2	5.63
249.417	52.74
249.633	-59.9
249.85	77.31
250.067	-25.09
250.284	79.36
250.501	62.98
250.717	81.41
250.934	36.35
251.151	58.88
251.368	73.21
251.585	7.68
251.801	112.13
252.018	42.5
252.235	54.78
252.451	50.69
252.668	15.87
252.885	54.78
253.102	46.59
253.318	50.69
253.535	54.78
253.752	81.41
253.968	-35.33
254.185	-14.85
254.401	-35.33
254.618	54.78
254.835	22.02
255.051	108.03
255.268	114.17
255.484	19.97
255.701	13.82
255.917	71.17
256.134	22.02
256.351	60.93
256.567	-41.47
256.784	34.3
257	-57.86
257.217	77.31
257.433	58.88
257.65	-27.14
257.866	69.12
258.082	-16.9
258.299	83.45
258.515	13.82
258.732	36.35
258.948	-39.42
259.165	36.35
259.381	3.58
259.597	52.74
259.814	-12.8
260.03	-2.56
260.246	95.74
260.463	48.64
260.679	87.55
260.895	44.54
261.112	56.83
261.328	7.68
261.544	30.21
261.761	196.09
261.977	15.87
262.193	-2.56
262.409	75.26
262.626	19.97
262.842	56.83
263.058	48.64
263.274	38.4
263.49	48.64
263.707	83.45
263.923	87.55
264.139	-25.09
264.355	9.73
264.571	101.89
264.787	116.22
265.004	95.74
265.22	-35.33
265.436	54.78
265.652	11.78
265.868	128.51
266.084	-8.7
266.3	34.3
266.516	-59.9
266.732	67.07
266.948	5.63
267.164	-8.7
267.38	75.26
267.596	-2.56
267.812	118.27
268.028	15.87
268.244	71.17
268.46	-4.61
268.676	54.78
268.892	52.74
269.108	-10.75
269.324	-51.71
269.54	5.63
269.756	30.21
269.972	-16.9
270.188	44.54
270.403	58.88
270.619	-55.81
270.835	77.31
271.051	13.82
271.267	-12.8
271.483	54.78
271.698	67.07
271.914	81.41
272.13	85.5
272.346	-4.61
272.562	101.89
272.777	13.82
272.993	81.41
273.209	-6.66
273.425	69.12
273.64	-18.94
273.856	79.36
274.072	22.02
274.287	-35.33
274.503	56.83
274.719	44.54
274.934	17.92
275.15	58.88
275.366	3.58
275.581	30.21
275.797	-14.85
276.012	-27.14
276.228	5.63
276.444	87.55
276.659	56.83
276.875	24.06
277.09	-14.85
277.306	32.26
277.521	67.07
277.737	1.54
277.952	15.87
278.168	26.11
278.383	-2.56
278.599	-23.04
278.814	83.45
279.03	50.69
279.245	134.65
279.461	50.69
279.676	48.64
279.892	17.92
280.107	79.36
280.322	-18.94
280.538	32.26
280.753	7.68
280.969	62.98
281.184	15.87
281.399	132.61
281.615	32.26
281.83	-8.7
282.045	-82.43
282.26	36.35
282.476	9.73
282.691	140.8
282.906	17.92
283.122	30.21
283.337	5.63
283.552	11.78
283.767	17.92
283.983	77.31
284.198	75.26
284.413	-29.18
284.628	-6.66
284.843	-27.14
285.058	44.54
285.274	85.5
285.489	-72.19
285.704	114.17
285.919	9.73
286.134	40.45
286.349	67.07
286.564	71.17
286.779	38.4
286.995	34.3
287.21	-68.09
287.425	46.59
287.64	28.16
287.855	97.79
288.07	-39.42
288.285	17.92
288.5	108.03
288.715	97.79
288.93	1.54
289.145	-12.8
289.36	5.63
289.575	87.55
289.79	91.65
290.004	38.4
290.219	146.94
290.434	-20.99
290.649	3.58
290.864	26.11
291.079	58.88
291.294	50.69
291.509	75.26
291.724	93.69
291.938	-33.28
292.153	87.55
292.368	99.84
292.583	-0.51
292.798	122.37
293.012	46.59
293.227	-14.85
293.442	-25.09
293.657	73.21
293.871	65.02
294.086	11.78
294.301	79.36
294.516	99.84
294.73	13.82
294.945	-96.77
295.16	-2.56
295.374	89.6
295.589	87.55
295.804	52.74
296.018	71.17
296.233	15.87
296.447	38.4
296.662	-0.51
296.877	165.37
297.091	34.3
297.306	54.78
297.52	-41.47
297.735	62.98
297.949	77.31
298.164	58.88
298.378	75.26
298.593	85.5
298.807	-10.75
299.022	81.41
299.236	48.64
299.451	40.45
299.665	-61.95
299.88	81.41
300.094	140.8
300.309	-8.7
300.523	19.97
300.737	71.17
300.952	69.12
301.166	19.97
301.381	11.78
301.595	56.83
301.809	71.17
302.024	108.03
302.238	-4.61
302.452	87.55
302.667	11.78
302.881	95.74
303.095	77.31
303.309	30.21
303.524	50.69
303.738	32.26
303.952	11.78
304.166	28.16
304.381	-20.99
304.595	142.85
304.809	-2.56
305.023	13.82
305.237	17.92
305.452	89.6
305.666	67.07
305.88	58.88
306.094	44.54
306.308	19.97
306.522	38.4
306.736	124.41
306.95	97.79
307.164	87.55
307.379	3.58
307.593	120.32
307.807	65.02
308.021	-12.8
308.235	93.69
308.449	40.45
308.663	1.54
308.877	183.81
309.091	48.64
309.305	48.64
309.519	-86.53
309.733	60.93
309.947	-49.66
310.161	124.41
310.374	54.78
310.588	93.69
310.802	124.41
311.016	19.97
311.23	3.58
311.444	38.4
311.658	32.26
311.872	15.87
312.085	56.83
312.299	112.13
312.513	95.74
312.727	58.88
312.941	-10.75
313.154	40.45
313.368	50.69
313.582	-20.99
313.796	48.64
314.009	17.92
314.223	85.5
314.437	60.93
314.651	93.69
314.864	-57.86
315.078	1.54
315.292	73.21
315.505	56.83
315.719	79.36
315.933	89.6
316.146	46.59
316.36	-4.61
316.573	151.04
316.787	34.3
317.001	91.65
317.214	-29.18
317.428	62.98
317.641	69.12
317.855	103.93
318.068	62.98
318.282	22.02
318.495	138.75
318.709	91.65
318.922	-12.8
319.136	169.47
319.349	40.45
319.563	73.21
319.776	73.21
319.99	-8.7
320.203	19.97
320.417	-29.18
320.63	83.45
320.843	89.6
321.057	3.58
321.27	75.26
321.483	71.17
321.697	-2.56
321.91	52.74
322.124	73.21
322.337	-0.51
322.55	1.54
322.763	-4.61
322.977	-25.09
323.19	44.54
323.403	-16.9
323.617	120.32
323.83	32.26
324.043	28.16
324.256	-29.18
324.469	9.73
324.683	101.89
324.896	13.82
325.109	-2.56
325.322	-39.42
325.535	40.45
325.748	32.26
325.962	-18.94
326.175	24.06
326.388	85.5
326.601	69.12
326.814	42.5
327.027	44.54
327.24	118.27
327.453	-12.8
327.666	56.83
327.879	120.32
328.092	69.12
328.305	108.03
328.518	-14.85
328.731	75.26
328.944	-45.57
329.157	30.21
329.37	-18.94
329.583	34.3
329.796	114.17
330.009	7.68
330.222	89.6
330.435	48.64
330.648	54.78
330.861	71.17
331.073	38.4
331.286	5.63
331.499	79.36
331.712	40.45
331.925	11.78
332.138	44.54
332.35	60.93
332.563	11.78
332.776	81.41
332.989	11.78
333.202	3.58
333.414	89.6
333.627	112.13
333.84	24.06
334.053	30.21
334.265	-0.51
334.478	30.21
334.691	-23.04
334.903	75.26
335.116	-45.57
335.329	34.3
335.541	77.31
335.754	97.79
335.966	3.58
336.179	116.22
336.392	65.02
336.604	24.06
336.817	32.26
337.029	93.69
337.242	79.36
337.454	13.82
337.667	120.32
337.88	138.75
338.092	85.5
338.305	-8.7
338.517	11.78
338.729	73.21
338.942	130.56
339.154	38.4
339.367	-14.85
339.579	46.59
339.792	32.26
340.004	17.92
340.217	62.98
340.429	69.12
340.641	15.87
340.854	-76.29
341.066	24.06
341.278	75.26
341.491	112.13
341.703	1.54
341.915	5.63
342.128	101.89
342.34	42.5
342.552	34.3
342.764	36.35
342.977	56.83
343.189	60.93
343.401	24.06
343.613	5.63
343.826	60.93
344.038	-27.14
344.25	-4.61
344.462	60.93
344.674	67.07
344.886	101.89
345.099	42.5
345.311	116.22
345.523	67.07
345.735	-4.61
345.947	28.16
346.159	62.98
346.371	32.26
346.583	77.31
346.795	136.7
347.007	3.58
347.219	56.83
347.431	-4.61
347.643	116.22
347.855	22.02
348.067	132.61
348.279	-41.47
348.491	73.21
348.703	67.07
348.915	50.69
349.127	26.11
349.339	56.83
349.551	-8.7
349.763	73.21
349.975	69.12
350.187	77.31
350.399	128.51
350.61	83.45
350.822	79.36
351.034	50.69
351.246	95.74
351.458	116.22
351.669	48.64
351.881	52.74
352.093	132.61
352.305	112.13
352.517	44.54
352.728	34.3
352.94	17.92
353.152	67.07
353.363	5.63
353.575	65.02
353.787	116.22
353.999	62.98
354.21	79.36
354.422	-10.75
354.633	40.45
354.845	38.4
355.057	60.93
355.268	91.65
355.48	32.26
355.692	-37.38
355.903	46.59
356.115	13.82
356.326	26.11
356.538	91.65
356.749	67.07
356.961	110.08
357.172	89.6
357.384	19.97
357.595	126.46
357.807	46.59
358.018	28.16
358.23	7.68
358.441	140.8
358.653	54.78
358.864	19.97
359.075	-37.38
359.287	3.58
359.498	28.16
359.709	89.6
359.921	52.74
360.132	32.26
360.344	69.12
360.555	19.97
360.766	30.21
360.977	60.93
361.189	79.36
361.4	79.36
361.611	148.99
361.823	163.33
362.034	42.5
362.245	-23.04
362.456	81.41
362.667	30.21
362.879	-53.76
363.09	-0.51
363.301	101.89
363.512	17.92
363.723	5.63
363.935	3.58
364.146	62.98
364.357	62.98
364.568	50.69
364.779	-8.7
364.99	50.69
365.201	46.59
365.412	97.79
365.623	-39.42
365.834	62.98
366.045	30.21
366.256	126.46
366.467	91.65
366.678	22.02
366.889	93.69
367.1	-29.18
367.311	101.89
367.522	19.97
367.733	97.79
367.944	22.02
368.155	-86.53
368.366	-8.7
368.577	136.7
368.788	54.78
368.999	122.37
369.209	91.65
369.42	132.61
369.631	116.22
369.842	69.12
370.053	42.5
370.264	42.5
370.474	-25.09
370.685	60.93
370.896	11.78
371.107	124.41
371.317	112.13
371.528	56.83
371.739	17.92
371.95	95.74
372.16	13.82
372.371	24.06
372.582	91.65
372.792	89.6
373.003	22.02
373.214	7.68
373.424	97.79
373.635	36.35
373.846	140.8
374.056	97.79
374.267	103.93
374.477	87.55
374.688	-16.9
374.898	134.65
375.109	48.64
375.319	116.22
375.53	120.32
375.74	46.59
375.951	69.12
376.161	83.45
376.372	87.55
376.582	19.97
376.793	85.5
377.003	28.16
377.214	56.83
377.424	87.55
377.635	103.93
377.845	30.21
378.055	144.89
378.266	5.63
378.476	24.06
378.686	65.02
378.897	60.93
379.107	140.8
379.317	97.79
379.528	15.87
379.738	46.59
379.948	-29.18
380.158	101.89
380.369	26.11
380.579	165.37
380.789	69.12
380.999	122.37
381.21	114.17
381.42	120.32
381.63	-6.66
381.84	32.26
382.05	144.89
382.261	114.17
382.471	128.51
382.681	62.98
382.891	116.22
383.101	28.16
383.311	1.54
383.521	-4.61
383.731	110.08
383.941	132.61
384.151	60.93
384.361	-55.81
384.571	77.31
384.781	42.5
384.991	159.23
385.201	165.37
385.411	28.16
385.621	134.65
385.831	69.12
386.041	28.16
386.251	62.98
386.461	89.6
386.671	38.4
386.881	71.17
387.091	105.98
387.301	81.41
387.511	79.36
387.72	153.09
387.93	81.41
388.14	-53.76
388.35	91.65
388.56	65.02
388.769	67.07
388.979	65.02
389.189	40.45
389.399	87.55
389.609	81.41
389.818	67.07
390.028	116.22
390.238	93.69
390.447	-4.61
390.657	34.3
390.867	22.02
391.076	-10.75
391.286	112.13
391.496	153.09
391.705	48.64
391.915	194.05
392.125	77.31
392.334	87.55
392.544	136.7
392.753	5.63
392.963	48.64
393.172	120.32
393.382	52.74
393.591	216.57
393.801	75.26
394.01	208.38
394.22	101.89
394.429	38.4
394.639	77.31
394.848	93.69
395.058	93.69
395.267	38.4
395.477	81.41
395.686	-27.14
395.895	204.28
396.105	187.9
396.314	73.21
396.524	71.17
396.733	79.36
396.942	155.13
397.152	101.89
397.361	171.52
397.57	30.21
397.78	48.64
397.989	32.26
398.198	206.33
398.407	105.98
398.617	71.17
398.826	171.52
399.035	126.46
399.244	169.47
399.453	161.28
399.663	130.56
399.872	134.65
400.081	75.26
400.29	140.8
400.499	91.65
400.708	155.13
400.917	87.55
401.127	146.94
401.336	105.98
401.545	169.47
401.754	103.93
401.963	151.04
402.172	99.84
402.381	138.75
402.59	130.56
402.799	91.65
403.008	116.22
403.217	165.37
403.426	198.14
403.635	163.33
403.844	108.03
404.053	142.85
404.262	50.69
404.471	153.09
404.68	163.33
404.888	151.04
405.097	177.66
405.306	220.67
405.515	206.33
405.724	114.17
405.933	151.04
406.142	112.13
406.35	245.24
406.559	159.23
406.768	241.15
406.977	222.72
407.185	255.48
407.394	247.29
407.603	144.89
407.812	218.62
408.02	290.3
408.229	222.72
408.438	192
408.646	237.05
408.855	243.2
409.064	208.38
409.272	284.16
409.481	284.16
409.69	235
409.898	368.12
410.107	327.16
410.315	292.35
410.524	300.54
410.733	355.83
410.941	284.16
411.15	351.74
411.358	329.21
411.567	404.99
411.775	425.47
411.984	425.47
412.192	417.27
412.401	431.61
412.609	507.38
412.818	554.49
413.026	609.78
413.234	525.82
413.443	495.1
413.651	480.76
413.86	572.92
414.068	644.6
414.276	675.32
414.485	630.26
414.693	648.69
414.901	771.57
415.11	714.23
415.318	663.03
415.526	706.04
415.734	761.33
415.943	837.11
416.151	775.67
416.359	871.92
416.567	882.16
416.776	927.22
416.984	951.79
417.192	1076.72
417.4	998.9
417.608	1017.33
417.817	1019.38
418.025	1177.07
418.233	1150.45
418.441	1132.01
418.649	1132.01
418.857	1293.8
419.065	1351.15
419.273	1373.68
419.481	1340.91
419.689	1459.69
419.897	1476.07
420.105	1496.55
420.313	1476.07
420.521	1650.15
420.729	1666.53
420.937	1627.62
421.145	1644.01
421.353	1836.52
421.561	1936.87
421.769	1938.91
421.977	2041.31
422.185	2043.36
422.393	2035.17
422.601	2223.58
422.809	2246.11
423.017	2295.26
423.224	2299.36
423.432	2493.91
423.64	2448.86
423.848	2813.4
424.056	2563.54
424.263	2971.09
424.471	2930.13
424.679	2872.79
424.887	3003.86
425.094	3065.3
425.302	3173.84
425.51	3292.62
425.718	3270.09
425.925	3569.1
426.133	3450.32
426.341	3843.53
426.548	3870.15
426.756	3743.17
426.964	4048.32
427.171	4222.4
427.379	4144.58
427.586	4373.95
427.794	4410.81
428.001	4804.02
428.209	4836.79
428.417	4779.45
428.624	5166.51
428.832	5072.31
429.039	5129.65
429.247	5154.23
429.454	5588.39
429.662	6043.04
429.869	5520.81
430.076	6008.23
430.284	5897.64
430.491	6241.7
430.699	6348.19
430.906	6372.77
431.114	6497.69
431.321	6673.82
431.528	7155.09
431.736	7234.96
431.943	7632.27
432.15	7482.77
432.358	7439.76
432.565	7964.04
432.772	7869.83
432.979	8455.55
433.187	8488.32
433.394	8557.95
433.601	9014.65
433.808	9143.67
434.016	9186.68
434.223	9454.96
434.43	9981.29
434.637	9887.08
434.844	10399.07
435.052	10581.34
435.259	10603.87
435.466	10571.1
435.673	10517.86
435.88	11056.47
436.087	11760.97
436.294	11828.56
436.501	11564.37
436.708	11750.73
436.915	12154.18
437.122	12764.48
437.329	12500.29
437.537	13098.3
437.743	13356.34
437.95	13194.55
438.157	13927.72
438.364	14165.29
438.571	14339.37
438.778	14374.18
438.985	15594.77
439.192	14920.99
439.399	15686.93
439.606	15303.96
439.813	16149.77
440.02	17003.77
440.227	16778.5
440.433	16618.75
440.64	17227
440.847	16999.68
441.054	17738.99
441.261	18681.06
441.467	18171.11
441.674	18857.18
441.881	19248.35
442.088	19350.74
442.294	19158.24
442.501	19895.5
442.708	20307.15
442.914	20923.58
443.121	21699.76
443.328	21241.02
443.534	22721.7
443.741	22052.02
443.948	21798.07
444.154	23461.02
444.361	23489.69
444.568	23327.9
444.774	23483.55
444.981	23825.56
445.187	24370.32
445.394	25392.25
445.6	25277.57
445.807	27679.83
446.013	26340.46
446.22	26539.12
446.426	27948.12
446.633	28181.59
446.839	28920.9
447.046	27751.51
447.252	29557.82
447.459	29373.5
447.665	29099.08
447.871	30606.38
448.078	31849.5
448.284	30258.23
448.491	31388.71
448.697	32631.82
448.903	33104.9
449.11	33059.85
449.316	32263.19
449.522	33174.53
449.728	33659.9
449.935	34046.97
450.141	33944.57
450.347	35070.95
450.553	33741.82
450.76	34055.16
450.966	35505.12
451.172	34923.5
451.378	35578.85
451.584	35222.5
451.791	36373.46
451.997	35714.02
452.203	36434.9
452.409	36883.41
452.615	36334.55
452.821	35068.9
453.027	34706.41
453.233	36432.85
453.44	35140.58
453.646	35312.61
453.852	35920.86
454.058	36273.11
454.264	34933.74
454.47	35894.24
454.676	34634.74
454.882	35994.59
455.088	32732.17
455.294	33303.56
455.5	34006.01
455.705	34059.26
455.911	32873.48
456.117	32189.46
456.323	32003.1
456.529	30272.56
456.735	31644.7
456.941	30620.72
457.147	30231.6
457.352	29062.21
457.558	29316.16
457.764	29277.25
457.97	28386.38
458.176	27933.78
458.381	27462.75
458.587	26557.55
458.793	26455.15
458.999	25003.14
459.204	26981.48
459.41	26297.45
459.616	24439.95
459.821	24210.57
460.027	24276.11
460.233	23792.79
460.438	22820
460.644	22725.8
460.85	21793.97
461.055	21554.36
461.261	21427.39
461.466	19713.24
461.672	19039.45
461.878	20554.95
462.083	19268.83
462.289	18760.93
462.494	18697.44
462.7	17868.02
462.905	17239.29
463.111	17954.03
463.316	17968.37
463.522	18023.66
463.727	17669.36
463.932	17997.04
464.138	17564.92
464.343	17601.78
464.549	17100.03
464.754	17726.71
464.959	17429.75
465.165	17263.86
465.37	16469.25
465.575	16360.71
465.781	16854.27
465.986	16964.86
466.191	16112.91
466.397	15990.03
466.602	15211.8
