Data from USB4F104151__50__12-12-17-705.txt Node

Date: Fri Mar 14 12:12:17 EDT 2025
User: louis
Spectrometer: USB4F10415
Trigger mode: 4
Integration Time (sec): 5.000000E-2
Scans to average: 1
Electric dark correction enabled: true
Nonlinearity correction enabled: false
Boxcar width: 0
XAxis mode: Wavelengths
Number of Pixels in Spectrum: 3648
>>>>>Begin Spectral Data<<<<<
178.204	-177.15
178.424	-177.15
178.644	-177.15
178.864	-179.2
179.084	-173.05
179.304	-37.89
179.524	-17.41
179.744	-27.65
179.964	68.61
180.184	13.31
180.404	-17.41
180.624	-15.36
180.844	1.02
181.064	-21.5
181.283	72.7
181.503	-33.79
181.723	15.36
181.943	-50.18
182.163	60.42
182.383	21.5
182.602	132.09
182.822	56.32
183.042	-19.46
183.262	33.79
183.482	-9.22
183.701	-5.12
183.921	33.79
184.141	72.7
184.361	46.08
184.58	3.07
184.8	101.37
185.02	54.27
185.239	115.71
185.459	87.04
185.679	74.75
185.898	-27.65
186.118	95.23
186.338	72.7
186.557	64.51
186.777	3.07
186.997	52.22
187.216	-27.65
187.436	105.47
187.655	95.23
187.875	117.76
188.095	48.13
188.314	56.32
188.534	117.76
188.753	-21.5
188.973	105.47
189.192	142.33
189.412	-1.02
189.631	54.27
189.851	-11.26
190.07	150.53
190.29	7.17
190.509	-13.31
190.729	37.89
190.948	80.89
191.168	201.72
191.387	95.23
191.607	-5.12
191.826	7.17
192.045	23.55
192.265	27.65
192.484	-46.08
192.704	35.84
192.923	66.56
193.142	134.14
193.362	72.7
193.581	74.75
193.8	89.09
194.02	70.65
194.239	19.46
194.458	66.56
194.678	58.37
194.897	15.36
195.116	52.22
195.335	41.98
195.555	78.85
195.774	-13.31
195.993	72.7
196.212	-23.55
196.432	39.94
196.651	93.18
196.87	3.07
197.089	158.72
197.308	68.61
197.528	87.04
197.747	-58.37
197.966	103.42
198.185	62.46
198.404	21.5
198.623	54.27
198.842	168.96
199.062	87.04
199.281	91.13
199.5	113.66
199.719	82.94
199.938	56.32
200.157	44.03
200.376	64.51
200.595	41.98
200.814	80.89
201.033	-35.84
201.252	105.47
201.471	19.46
201.69	89.09
201.909	105.47
202.128	58.37
202.347	105.47
202.566	56.32
202.785	29.7
203.004	-19.46
203.223	134.14
203.442	54.27
203.661	-35.84
203.879	54.27
204.098	23.55
204.317	25.6
204.536	74.75
204.755	27.65
204.974	31.74
205.193	91.13
205.411	115.71
205.63	13.31
205.849	39.94
206.068	-5.12
206.287	44.03
206.505	111.61
206.724	-5.12
206.943	-17.41
207.162	37.89
207.381	80.89
207.599	29.7
207.818	74.75
208.037	11.26
208.255	-21.5
208.474	66.56
208.693	66.56
208.911	17.41
209.13	54.27
209.349	87.04
209.567	64.51
209.786	142.33
210.005	68.61
210.223	9.22
210.442	-7.17
210.661	52.22
210.879	50.18
211.098	99.33
211.316	29.7
211.535	37.89
211.753	11.26
211.972	58.37
212.191	62.46
212.409	95.23
212.628	66.56
212.846	-39.94
213.065	82.94
213.283	128
213.502	84.99
213.72	103.42
213.938	54.27
214.157	54.27
214.375	62.46
214.594	-7.17
214.812	68.61
215.031	52.22
215.249	56.32
215.467	11.26
215.686	25.6
215.904	107.52
216.122	76.8
216.341	95.23
216.559	25.6
216.778	93.18
216.996	152.57
217.214	13.31
217.432	-21.5
217.651	54.27
217.869	29.7
218.087	84.99
218.306	-19.46
218.524	27.65
218.742	39.94
218.96	62.46
219.179	-35.84
219.397	66.56
219.615	140.29
219.833	70.65
220.051	103.42
220.27	97.28
220.488	128
220.706	109.57
220.924	27.65
221.142	11.26
221.36	113.66
221.578	37.89
221.796	56.32
222.015	-74.75
222.233	46.08
222.451	68.61
222.669	-27.65
222.887	82.94
223.105	68.61
223.323	66.56
223.541	31.74
223.759	64.51
223.977	33.79
224.195	148.48
224.413	115.71
224.631	93.18
224.849	21.5
225.067	162.81
225.285	87.04
225.503	-7.17
225.721	-31.74
225.939	39.94
226.157	97.28
226.375	156.67
226.592	44.03
226.81	50.18
227.028	132.09
227.246	144.38
227.464	93.18
227.682	109.57
227.9	72.7
228.117	23.55
228.335	60.42
228.553	25.6
228.771	84.99
228.989	52.22
229.206	54.27
229.424	54.27
229.642	50.18
229.86	-1.02
230.077	87.04
230.295	91.13
230.513	162.81
230.731	78.85
230.948	95.23
231.166	48.13
231.384	25.6
231.601	74.75
231.819	132.09
232.037	48.13
232.254	70.65
232.472	74.75
232.689	-35.84
232.907	46.08
233.125	-3.07
233.342	5.12
233.56	-50.18
233.777	3.07
233.995	78.85
234.213	27.65
234.43	54.27
234.648	44.03
234.865	44.03
235.083	84.99
235.3	101.37
235.518	80.89
235.735	87.04
235.953	130.05
236.17	64.51
236.388	7.17
236.605	-9.22
236.822	56.32
237.04	123.9
237.257	13.31
237.475	-37.89
237.692	54.27
237.909	23.55
238.127	-29.7
238.344	46.08
238.562	68.61
238.779	17.41
238.996	17.41
239.214	-5.12
239.431	78.85
239.648	13.31
239.865	68.61
240.083	27.65
240.3	76.8
240.517	31.74
240.735	25.6
240.952	54.27
241.169	130.05
241.386	25.6
241.603	44.03
241.821	-44.03
242.038	23.55
242.255	70.65
242.472	31.74
242.689	68.61
242.907	19.46
243.124	64.51
243.341	76.8
243.558	54.27
243.775	11.26
243.992	-3.07
244.209	72.7
244.426	154.62
244.643	-35.84
244.86	1.02
245.078	89.09
245.295	-3.07
245.512	39.94
245.729	27.65
245.946	68.61
246.163	11.26
246.38	54.27
246.597	52.22
246.814	-15.36
247.031	56.32
247.248	62.46
247.464	1.02
247.681	46.08
247.898	78.85
248.115	60.42
248.332	35.84
248.549	158.72
248.766	89.09
248.983	87.04
249.2	113.66
249.417	60.42
249.633	87.04
249.85	109.57
250.067	80.89
250.284	37.89
250.501	56.32
250.717	62.46
250.934	-62.46
251.151	46.08
251.368	15.36
251.585	132.09
251.801	31.74
252.018	58.37
252.235	91.13
252.451	107.52
252.668	17.41
252.885	62.46
253.102	60.42
253.318	37.89
253.535	33.79
253.752	58.37
253.968	-41.98
254.185	-21.5
254.401	31.74
254.618	48.13
254.835	50.18
255.051	93.18
255.268	84.99
255.484	80.89
255.701	46.08
255.917	80.89
256.134	39.94
256.351	9.22
256.567	21.5
256.784	80.89
257	-9.22
257.217	37.89
257.433	35.84
257.65	-21.5
257.866	91.13
258.082	46.08
258.299	56.32
258.515	68.61
258.732	-3.07
258.948	-5.12
259.165	39.94
259.381	-54.27
259.597	11.26
259.814	9.22
260.03	95.23
260.246	72.7
260.463	113.66
260.679	123.9
260.895	-64.51
261.112	52.22
261.328	25.6
261.544	68.61
261.761	103.42
261.977	66.56
262.193	-9.22
262.409	103.42
262.626	64.51
262.842	44.03
263.058	-33.79
263.274	89.09
263.49	17.41
263.707	93.18
263.923	62.46
264.139	-46.08
264.355	25.6
264.571	56.32
264.787	19.46
265.004	82.94
265.22	50.18
265.436	62.46
265.652	5.12
265.868	-29.7
266.084	1.02
266.3	-13.31
266.516	-46.08
266.732	101.37
266.948	27.65
267.164	97.28
267.38	27.65
267.596	50.18
267.812	76.8
268.028	84.99
268.244	-19.46
268.46	27.65
268.676	13.31
268.892	82.94
269.108	-1.02
269.324	-5.12
269.54	54.27
269.756	103.42
269.972	-27.65
270.188	93.18
270.403	-15.36
270.619	76.8
270.835	54.27
271.051	3.07
271.267	82.94
271.483	9.22
271.698	72.7
271.914	-5.12
272.13	62.46
272.346	-62.46
272.562	109.57
272.777	-13.31
272.993	-1.02
273.209	-7.17
273.425	87.04
273.64	-37.89
273.856	91.13
274.072	25.6
274.287	-23.55
274.503	103.42
274.719	80.89
274.934	64.51
275.15	-7.17
275.366	29.7
275.581	-11.26
275.797	82.94
276.012	41.98
276.228	-9.22
276.444	62.46
276.659	107.52
276.875	5.12
277.09	60.42
277.306	5.12
277.521	62.46
277.737	23.55
277.952	64.51
278.168	72.7
278.383	80.89
278.599	-3.07
278.814	70.65
279.03	-7.17
279.245	123.9
279.461	33.79
279.676	132.09
279.892	-37.89
280.107	-50.18
280.322	72.7
280.538	70.65
280.753	5.12
280.969	-31.74
281.184	87.04
281.399	132.09
281.615	93.18
281.83	3.07
282.045	9.22
282.26	-37.89
282.476	9.22
282.691	89.09
282.906	13.31
283.122	-60.42
283.337	17.41
283.552	52.22
283.767	46.08
283.983	109.57
284.198	29.7
284.413	-31.74
284.628	3.07
284.843	-3.07
285.058	60.42
285.274	68.61
285.489	19.46
285.704	87.04
285.919	33.79
286.134	99.33
286.349	44.03
286.564	21.5
286.779	146.43
286.995	15.36
287.21	-25.6
287.425	44.03
287.64	-3.07
287.855	105.47
288.07	15.36
288.285	29.7
288.5	117.76
288.715	29.7
288.93	64.51
289.145	62.46
289.36	33.79
289.575	13.31
289.79	78.85
290.004	23.55
290.219	101.37
290.434	-64.51
290.649	11.26
290.864	-19.46
291.079	23.55
291.294	31.74
291.509	-25.6
291.724	33.79
291.938	9.22
292.153	29.7
292.368	19.46
292.583	39.94
292.798	103.42
293.012	23.55
293.227	37.89
293.442	-37.89
293.657	84.99
293.871	70.65
294.086	19.46
294.301	197.63
294.516	21.5
294.73	146.43
294.945	-19.46
295.16	64.51
295.374	87.04
295.589	64.51
295.804	31.74
296.018	99.33
296.233	80.89
296.447	78.85
296.662	64.51
296.877	70.65
297.091	39.94
297.306	44.03
297.52	23.55
297.735	56.32
297.949	89.09
298.164	66.56
298.378	58.37
298.593	87.04
298.807	25.6
299.022	119.81
299.236	134.14
299.451	66.56
299.665	66.56
299.88	60.42
300.094	62.46
300.309	66.56
300.523	-13.31
300.737	60.42
300.952	54.27
301.166	99.33
301.381	25.6
301.595	50.18
301.809	41.98
302.024	13.31
302.238	-23.55
302.452	93.18
302.667	54.27
302.881	74.75
303.095	144.38
303.309	-1.02
303.524	17.41
303.738	-29.7
303.952	-13.31
304.166	25.6
304.381	-64.51
304.595	76.8
304.809	68.61
305.023	17.41
305.237	41.98
305.452	17.41
305.666	56.32
305.88	82.94
306.094	154.62
306.308	39.94
306.522	109.57
306.736	89.09
306.95	41.98
307.164	101.37
307.379	97.28
307.593	1.02
307.807	93.18
308.021	72.7
308.235	82.94
308.449	-11.26
308.663	-7.17
308.877	171.01
309.091	37.89
309.305	113.66
309.519	-21.5
309.733	95.23
309.947	-9.22
310.161	31.74
310.374	105.47
310.588	99.33
310.802	46.08
311.016	-1.02
311.23	74.75
311.444	-21.5
311.658	103.42
311.872	87.04
312.085	103.42
312.299	11.26
312.513	123.9
312.727	54.27
312.941	44.03
313.154	113.66
313.368	44.03
313.582	11.26
313.796	152.57
314.009	41.98
314.223	105.47
314.437	66.56
314.651	3.07
314.864	128
315.078	27.65
315.292	50.18
315.505	7.17
315.719	84.99
315.933	119.81
316.146	44.03
316.36	-11.26
316.573	82.94
316.787	89.09
317.001	76.8
317.214	-17.41
317.428	125.95
317.641	23.55
317.855	33.79
318.068	60.42
318.282	128
318.495	41.98
318.709	162.81
318.922	89.09
319.136	115.71
319.349	119.81
319.563	64.51
319.776	23.55
319.99	-23.55
320.203	46.08
320.417	46.08
320.63	48.13
320.843	183.29
321.057	89.09
321.27	101.37
321.483	64.51
321.697	89.09
321.91	99.33
322.124	105.47
322.337	19.46
322.55	9.22
322.763	39.94
322.977	-21.5
323.19	44.03
323.403	11.26
323.617	13.31
323.83	56.32
324.043	15.36
324.256	31.74
324.469	60.42
324.683	3.07
324.896	7.17
325.109	3.07
325.322	-128
325.535	87.04
325.748	52.22
325.962	76.8
326.175	41.98
326.388	29.7
326.601	113.66
326.814	87.04
327.027	82.94
327.24	134.14
327.453	-27.65
327.666	78.85
327.879	93.18
328.092	119.81
328.305	89.09
328.518	1.02
328.731	103.42
328.944	60.42
329.157	113.66
329.37	-13.31
329.583	152.57
329.796	119.81
330.009	7.17
330.222	109.57
330.435	125.95
330.648	11.26
330.861	41.98
331.073	84.99
331.286	78.85
331.499	-9.22
331.712	5.12
331.925	123.9
332.138	72.7
332.35	101.37
332.563	50.18
332.776	101.37
332.989	27.65
333.202	87.04
333.414	56.32
333.627	87.04
333.84	13.31
334.053	62.46
334.265	72.7
334.478	29.7
334.691	-1.02
334.903	60.42
335.116	21.5
335.329	60.42
335.541	56.32
335.754	119.81
335.966	-23.55
336.179	56.32
336.392	41.98
336.604	78.85
336.817	82.94
337.029	76.8
337.242	23.55
337.454	66.56
337.667	27.65
337.88	109.57
338.092	72.7
338.305	168.96
338.517	58.37
338.729	132.09
338.942	72.7
339.154	5.12
339.367	25.6
339.579	99.33
339.792	25.6
340.004	99.33
340.217	84.99
340.429	35.84
340.641	-7.17
340.854	60.42
341.066	-7.17
341.278	105.47
341.491	152.57
341.703	44.03
341.915	-21.5
342.128	109.57
342.34	74.75
342.552	39.94
342.764	97.28
342.977	87.04
343.189	48.13
343.401	64.51
343.613	62.46
343.826	95.23
344.038	27.65
344.25	74.75
344.462	48.13
344.674	72.7
344.886	113.66
345.099	70.65
345.311	72.7
345.523	-31.74
345.735	-60.42
345.947	82.94
346.159	84.99
346.371	52.22
346.583	37.89
346.795	140.29
347.007	46.08
347.219	105.47
347.431	35.84
347.643	160.77
347.855	13.31
348.067	87.04
348.279	-19.46
348.491	64.51
348.703	138.24
348.915	27.65
349.127	-50.18
349.339	37.89
349.551	50.18
349.763	64.51
349.975	-23.55
350.187	154.62
350.399	101.37
350.61	-13.31
350.822	64.51
351.034	52.22
351.246	84.99
351.458	113.66
351.669	140.29
351.881	146.43
352.093	99.33
352.305	68.61
352.517	111.61
352.728	93.18
352.94	37.89
353.152	35.84
353.363	25.6
353.575	54.27
353.787	128
353.999	74.75
354.21	56.32
354.422	35.84
354.633	48.13
354.845	46.08
355.057	3.07
355.268	56.32
355.48	15.36
355.692	60.42
355.903	44.03
356.115	1.02
356.326	13.31
356.538	119.81
356.749	60.42
356.961	119.81
357.172	17.41
357.384	-54.27
357.595	150.53
357.807	62.46
358.018	1.02
358.23	-48.13
358.441	95.23
358.653	168.96
358.864	78.85
359.075	33.79
359.287	11.26
359.498	121.85
359.709	111.61
359.921	23.55
360.132	113.66
360.344	52.22
360.555	70.65
360.766	48.13
360.977	-21.5
361.189	152.57
361.4	-31.74
361.611	80.89
361.823	70.65
362.034	39.94
362.245	-11.26
362.456	103.42
362.667	84.99
362.879	-68.61
363.09	119.81
363.301	41.98
363.512	25.6
363.723	25.6
363.935	52.22
364.146	44.03
364.357	105.47
364.568	93.18
364.779	31.74
364.99	160.77
365.201	37.89
365.412	144.38
365.623	13.31
365.834	58.37
366.045	-3.07
366.256	103.42
366.467	74.75
366.678	87.04
366.889	78.85
367.1	52.22
367.311	70.65
367.522	21.5
367.733	93.18
367.944	76.8
368.155	46.08
368.366	105.47
368.577	70.65
368.788	109.57
368.999	7.17
369.209	15.36
369.42	218.11
369.631	173.05
369.842	31.74
370.053	103.42
370.264	54.27
370.474	27.65
370.685	21.5
370.896	46.08
371.107	58.37
371.317	48.13
371.528	68.61
371.739	80.89
371.95	74.75
372.16	128
372.371	27.65
372.582	37.89
372.792	66.56
373.003	60.42
373.214	52.22
373.424	78.85
373.635	60.42
373.846	97.28
374.056	70.65
374.267	58.37
374.477	44.03
374.688	-19.46
374.898	25.6
375.109	23.55
375.319	68.61
375.53	109.57
375.74	117.76
375.951	74.75
376.161	95.23
376.372	136.19
376.582	1.02
376.793	121.85
377.003	58.37
377.214	-7.17
377.424	87.04
377.635	23.55
377.845	68.61
378.055	60.42
378.266	11.26
378.476	113.66
378.686	15.36
378.897	123.9
379.107	84.99
379.317	70.65
379.528	58.37
379.738	158.72
379.948	-25.6
380.158	101.37
380.369	89.09
380.579	72.7
380.789	80.89
380.999	87.04
381.21	87.04
381.42	158.72
381.63	3.07
381.84	37.89
382.05	37.89
382.261	136.19
382.471	93.18
382.681	97.28
382.891	119.81
383.101	68.61
383.311	-9.22
383.521	50.18
383.731	115.71
383.941	87.04
384.151	52.22
384.361	44.03
384.571	39.94
384.781	76.8
384.991	164.86
385.201	128
385.411	23.55
385.621	121.85
385.831	21.5
386.041	87.04
386.251	99.33
386.461	56.32
386.671	48.13
386.881	35.84
387.091	15.36
387.301	91.13
387.511	54.27
387.72	44.03
387.93	1.02
388.14	5.12
388.35	39.94
388.56	111.61
388.769	125.95
388.979	111.61
389.189	54.27
389.399	50.18
389.609	76.8
389.818	173.05
390.028	78.85
390.238	138.24
390.447	99.33
390.657	78.85
390.867	37.89
391.076	-17.41
391.286	119.81
391.496	173.05
391.705	64.51
391.915	152.57
392.125	130.05
392.334	48.13
392.544	138.24
392.753	33.79
392.963	76.8
393.172	58.37
393.382	72.7
393.591	123.9
393.801	113.66
394.01	121.85
394.22	166.91
394.429	50.18
394.639	21.5
394.848	91.13
395.058	111.61
395.267	101.37
395.477	121.85
395.686	115.71
395.895	209.92
396.105	152.57
396.314	95.23
396.524	138.24
396.733	91.13
396.942	148.48
397.152	154.62
397.361	160.77
397.57	136.19
397.78	136.19
397.989	119.81
398.198	160.77
398.407	62.46
398.617	134.14
398.826	134.14
399.035	107.52
399.244	123.9
399.453	78.85
399.663	123.9
399.872	84.99
400.081	123.9
400.29	214.01
400.499	144.38
400.708	148.48
400.917	134.14
401.127	113.66
401.336	115.71
401.545	160.77
401.754	177.15
401.963	166.91
402.172	177.15
402.381	128
402.59	87.04
402.799	193.53
403.008	191.49
403.217	156.67
403.426	142.33
403.635	142.33
403.844	173.05
404.053	195.58
404.262	80.89
404.471	277.5
404.68	156.67
404.888	191.49
405.097	105.47
405.306	173.05
405.515	103.42
405.724	185.34
405.933	199.68
406.142	238.59
406.35	254.97
406.559	177.15
406.768	168.96
406.977	375.8
407.185	214.01
407.394	199.68
407.603	205.82
407.812	295.93
408.02	340.99
408.229	203.77
408.438	297.98
408.646	230.4
408.855	236.54
409.064	287.74
409.272	283.64
409.481	338.94
409.69	232.44
409.898	267.26
410.107	320.51
410.315	355.32
410.524	279.55
410.733	388.09
410.941	345.08
411.15	414.71
411.358	449.53
411.567	578.55
411.775	533.5
411.984	424.95
412.192	472.06
412.401	463.86
412.609	599.03
412.818	506.87
413.026	582.65
413.234	617.46
413.443	627.7
413.651	523.26
413.86	625.65
414.068	658.42
414.276	779.25
414.485	715.77
414.693	809.97
414.901	766.96
415.11	728.05
415.318	723.96
415.526	928.75
415.734	924.66
415.943	791.54
416.151	1010.67
416.359	869.36
416.567	945.14
416.776	992.24
416.984	1129.45
417.192	1149.93
417.4	1149.93
417.608	1068.02
417.817	1168.37
418.025	1229.81
418.233	1358.83
418.441	1147.89
418.649	1266.67
418.857	1436.65
419.065	1471.47
419.273	1348.59
419.481	1489.9
419.689	1565.67
419.897	1571.82
420.105	1666.02
420.313	1743.85
420.521	1793
420.729	1858.53
420.937	1811.43
421.145	1915.87
421.353	1950.69
421.561	2120.67
421.769	2075.62
421.977	2094.05
422.185	2243.55
422.393	2315.23
422.601	2462.68
422.809	2462.68
423.017	2399.2
423.224	2634.71
423.432	2718.68
423.64	2655.19
423.848	2952.15
424.056	2886.61
424.263	3105.74
424.471	3115.98
424.679	3103.7
424.887	3218.38
425.094	3288.01
425.302	3431.37
425.51	3552.2
425.718	3529.67
425.925	3730.38
426.133	3961.8
426.341	4121.54
426.548	4236.22
426.756	4254.66
426.964	4498.36
427.171	4383.68
427.379	4699.06
427.586	4733.88
427.794	4729.78
428.001	5110.71
428.209	5366.7
428.417	5229.49
428.624	5624.75
428.832	5540.78
429.039	5479.34
429.247	5661.61
429.454	6058.92
429.662	6476.7
429.869	6081.44
430.076	6546.33
430.284	6319.01
430.491	6816.66
430.699	7015.32
430.906	6988.69
431.114	7179.15
431.321	7234.45
431.528	7441.29
431.736	7766.92
431.943	8235.91
432.15	8139.65
432.358	8276.87
432.565	8432.51
432.772	8502.14
432.979	9073.53
433.187	9188.21
433.394	9286.51
433.601	9833.32
433.808	10005.35
434.016	9808.75
434.223	10275.68
434.43	10849.11
434.637	10629.98
434.844	11393.87
435.052	11303.76
435.259	11254.61
435.466	11658.06
435.673	11195.22
435.88	12163.91
436.087	12956.47
436.294	12626.75
436.501	12475.2
436.708	12620.61
436.915	12981.05
437.122	13814.57
437.329	13718.32
437.537	14035.75
437.743	14695.2
437.95	14166.82
438.157	15145.75
438.364	15389.46
438.571	15252.25
438.778	15553.3
438.985	16870.14
439.192	16366.34
439.399	16583.43
439.606	16413.45
439.813	17509.11
440.02	18352.87
440.227	17978.09
440.433	18146.03
440.64	18340.58
440.847	18318.06
441.054	18926.3
441.261	20128.46
441.467	19831.51
441.674	20480.71
441.881	21011.14
442.088	20697.8
442.294	20615.88
442.501	21316.28
442.708	21617.33
442.914	22348.46
443.121	23319.2
443.328	22821.54
443.534	24427.15
443.741	23493.27
443.948	23429.79
444.154	25125.5
444.361	24777.35
444.568	25154.18
444.774	25094.79
444.981	25334.4
445.187	26255.98
445.394	27486.81
445.6	26849.89
445.807	29563.45
446.013	28121.68
446.22	28447.31
446.426	29553.21
446.633	29762.11
446.839	31228.45
447.046	29567.55
447.252	31259.17
447.459	31216.16
447.665	31244.84
447.871	32492.05
448.078	34085.37
448.284	32586.25
448.491	32907.79
448.697	34351.6
448.903	35181.03
449.11	34929.13
449.316	34623.98
449.522	35697.12
449.728	36067.8
449.935	36375
450.141	36248.02
450.347	37294.53
450.553	36014.55
450.76	36698.58
450.966	37552.58
451.172	37075.4
451.378	37661.12
451.584	37054.92
451.791	38427.06
451.997	38123.96
452.203	38875.57
452.409	38498.74
452.615	38486.45
452.821	36923.85
453.027	36463.06
453.233	38982.06
453.44	36952.52
453.646	37147.08
453.852	37528
454.058	38519.22
454.264	37194.18
454.47	37962.17
454.676	36755.92
454.882	37970.36
455.088	34843.12
455.294	34845.16
455.5	35977.69
455.705	36094.43
455.911	34462.19
456.117	33925.63
456.323	33841.66
456.529	31603.23
456.735	33229.32
456.941	31830.55
457.147	31744.54
457.352	30591.53
457.558	30267.95
457.764	30347.82
457.97	29825.59
458.176	28871.24
458.381	29129.28
458.587	27802.2
458.793	27525.72
458.999	26221.17
459.204	28240.47
459.41	27316.83
459.616	25322.11
459.821	25707.13
460.027	25492.09
460.233	25041.54
460.438	23593.62
460.644	23806.61
460.85	22821.54
461.055	22465.19
461.261	22489.77
461.466	20597.45
461.672	19999.44
461.878	21490.36
462.083	20030.16
462.289	19653.33
462.494	19573.46
462.7	18594.53
462.905	17994.48
463.111	18868.96
463.316	18547.43
463.522	18248.43
463.727	18608.87
463.932	18137.84
464.138	18076.4
464.343	18119.4
464.549	17476.34
464.754	17902.32
464.959	17887.98
465.165	17890.03
465.37	17240.82
465.575	16792.32
465.781	17208.06
465.986	17425.14
466.191	16640.77
466.397	16550.66
