Data from USB4F104151__35__12-11-58-908.txt Node

Date: Fri Mar 14 12:11:58 EDT 2025
User: louis
Spectrometer: USB4F10415
Trigger mode: 4
Integration Time (sec): 5.000000E-2
Scans to average: 1
Electric dark correction enabled: true
Nonlinearity correction enabled: false
Boxcar width: 0
XAxis mode: Wavelengths
Number of Pixels in Spectrum: 3648
>>>>>Begin Spectral Data<<<<<
178.204	-208.72
178.424	-208.72
178.644	-208.72
178.864	-223.06
179.084	-161.62
179.304	0.17
179.524	51.37
179.744	-10.07
179.964	75.95
180.184	12.46
180.404	28.84
180.624	-36.69
180.844	-53.08
181.064	-75.6
181.283	26.79
181.503	-22.36
181.723	2.22
181.943	-63.32
182.163	151.72
182.383	102.57
182.602	84.14
182.822	94.38
183.042	-10.07
183.262	90.28
183.482	-24.4
183.701	65.71
183.921	75.95
184.141	-20.31
184.361	92.33
184.58	80.04
184.8	-18.26
185.02	-28.5
185.239	141.48
185.459	43.18
185.679	92.33
185.898	-40.79
186.118	170.15
186.338	22.7
186.557	157.86
186.777	34.99
186.997	28.84
187.216	71.85
187.436	141.48
187.655	26.79
187.875	69.8
188.095	59.56
188.314	14.51
188.534	147.62
188.753	43.18
188.973	116.9
189.192	123.05
189.412	84.14
189.631	-20.31
189.851	49.32
190.07	82.09
190.29	-18.26
190.509	61.61
190.729	20.65
190.948	133.29
191.168	299.17
191.387	41.13
191.607	10.41
191.826	20.65
192.045	28.84
192.265	8.36
192.484	28.84
192.704	49.32
192.923	32.94
193.142	180.39
193.362	37.03
193.581	75.95
193.8	86.19
194.02	112.81
194.239	53.42
194.458	47.27
194.678	69.8
194.897	26.79
195.116	80.04
195.335	26.79
195.555	82.09
195.774	30.89
195.993	65.71
196.212	-3.93
196.432	57.51
196.651	71.85
196.87	88.23
197.089	194.73
197.308	55.47
197.528	102.57
197.747	32.94
197.966	45.23
198.185	155.82
198.404	55.47
198.623	53.42
198.842	-5.97
199.062	55.47
199.281	49.32
199.5	51.37
199.719	67.75
199.938	39.08
200.157	110.76
200.376	121
200.595	102.57
200.814	90.28
201.033	24.75
201.252	67.75
201.471	41.13
201.69	71.85
201.909	-36.69
202.128	2.22
202.347	135.34
202.566	71.85
202.785	53.42
203.004	18.6
203.223	143.53
203.442	6.31
203.661	-30.55
203.879	69.8
204.098	53.42
204.317	22.7
204.536	92.33
204.755	63.66
204.974	94.38
205.193	84.14
205.411	108.71
205.63	53.42
205.849	123.05
206.068	20.65
206.287	16.55
206.505	71.85
206.724	41.13
206.943	69.8
207.162	28.84
207.381	69.8
207.599	-40.79
207.818	22.7
208.037	34.99
208.255	28.84
208.474	-16.21
208.693	61.61
208.911	65.71
209.13	129.19
209.349	-8.02
209.567	80.04
209.786	133.29
210.005	159.91
210.223	102.57
210.442	-32.6
210.661	53.42
210.879	57.51
211.098	71.85
211.316	121
211.535	123.05
211.753	-32.6
211.972	10.41
212.191	30.89
212.409	71.85
212.628	59.56
212.846	-1.88
213.065	84.14
213.283	135.34
213.502	43.18
213.72	-14.17
213.938	55.47
214.157	45.23
214.375	61.61
214.594	24.75
214.812	26.79
215.031	90.28
215.249	12.46
215.467	90.28
215.686	53.42
215.904	12.46
216.122	71.85
216.341	116.9
216.559	-5.97
216.778	123.05
216.996	57.51
217.214	121
217.432	16.55
217.651	2.22
217.869	10.41
218.087	6.31
218.306	34.99
218.524	53.42
218.742	59.56
218.96	102.57
219.179	32.94
219.397	80.04
219.615	141.48
219.833	94.38
220.051	59.56
220.27	116.9
220.488	57.51
220.706	2.22
220.924	18.6
221.142	0.17
221.36	94.38
221.578	45.23
221.796	8.36
222.015	80.04
222.233	18.6
222.451	112.81
222.669	-57.17
222.887	123.05
223.105	-5.97
223.323	43.18
223.541	45.23
223.759	39.08
223.977	57.51
224.195	161.96
224.413	2.22
224.631	100.52
224.849	41.13
225.067	75.95
225.285	16.55
225.503	-10.07
225.721	39.08
225.939	73.9
226.157	-22.36
226.375	129.19
226.592	-1.88
226.81	26.79
227.028	127.14
227.246	94.38
227.464	61.61
227.682	53.42
227.9	2.22
228.117	51.37
228.335	90.28
228.553	61.61
228.771	53.42
228.989	4.27
229.206	73.9
229.424	-1.88
229.642	100.52
229.86	32.94
230.077	65.71
230.295	77.99
230.513	168.1
230.731	28.84
230.948	127.14
231.166	59.56
231.384	37.03
231.601	59.56
231.819	94.38
232.037	41.13
232.254	0.17
232.472	8.36
232.689	28.84
232.907	51.37
233.125	2.22
233.342	26.79
233.56	49.32
233.777	-55.12
233.995	30.89
234.213	47.27
234.43	69.8
234.648	6.31
234.865	32.94
235.083	53.42
235.3	82.09
235.518	45.23
235.735	75.95
235.953	153.77
236.17	26.79
236.388	-44.88
236.605	73.9
236.822	12.46
237.04	129.19
237.257	4.27
237.475	-1.88
237.692	20.65
237.909	32.94
238.127	24.75
238.344	18.6
238.562	43.18
238.779	37.03
238.996	-24.4
239.214	49.32
239.431	102.57
239.648	-10.07
239.865	14.51
240.083	59.56
240.3	-30.55
240.517	-3.93
240.735	14.51
240.952	114.86
241.169	75.95
241.386	94.38
241.603	-3.93
241.821	-28.5
242.038	86.19
242.255	63.66
242.472	-1.88
242.689	96.43
242.907	65.71
243.124	39.08
243.341	90.28
243.558	10.41
243.775	-67.41
243.992	14.51
244.209	65.71
244.426	168.1
244.643	141.48
244.86	-28.5
245.078	2.22
245.295	71.85
245.512	-20.31
245.729	-22.36
245.946	14.51
246.163	82.09
246.38	-28.5
246.597	47.27
246.814	51.37
247.031	73.9
247.248	51.37
247.464	18.6
247.681	63.66
247.898	131.24
248.115	34.99
248.332	-28.5
248.549	53.42
248.766	123.05
248.983	59.56
249.2	69.8
249.417	49.32
249.633	-22.36
249.85	75.95
250.067	18.6
250.284	82.09
250.501	123.05
250.717	127.14
250.934	26.79
251.151	59.56
251.368	92.33
251.585	116.9
251.801	14.51
252.018	4.27
252.235	170.15
252.451	-32.6
252.668	45.23
252.885	98.47
253.102	49.32
253.318	14.51
253.535	2.22
253.752	-40.79
253.968	18.6
254.185	88.23
254.401	30.89
254.618	26.79
254.835	71.85
255.051	135.34
255.268	6.31
255.484	51.37
255.701	41.13
255.917	102.57
256.134	2.22
256.351	6.31
256.567	-8.02
256.784	6.31
257	-5.97
257.217	96.43
257.433	55.47
257.65	49.32
257.866	121
258.082	20.65
258.299	-12.12
258.515	-3.93
258.732	2.22
258.948	12.46
259.165	55.47
259.381	-61.27
259.597	34.99
259.814	43.18
260.03	82.09
260.246	71.85
260.463	114.86
260.679	94.38
260.895	90.28
261.112	57.51
261.328	20.65
261.544	49.32
261.761	88.23
261.977	-38.74
262.193	-22.36
262.409	22.7
262.626	49.32
262.842	30.89
263.058	-16.21
263.274	106.67
263.49	30.89
263.707	92.33
263.923	67.75
264.139	24.75
264.355	16.55
264.571	57.51
264.787	32.94
265.004	110.76
265.22	51.37
265.436	69.8
265.652	14.51
265.868	49.32
266.084	-20.31
266.3	59.56
266.516	-5.97
266.732	82.09
266.948	143.53
267.164	82.09
267.38	10.41
267.596	18.6
267.812	131.24
268.028	67.75
268.244	30.89
268.46	14.51
268.676	-1.88
268.892	-1.88
269.108	-63.32
269.324	92.33
269.54	-18.26
269.756	16.55
269.972	-44.88
270.188	75.95
270.403	67.75
270.619	6.31
270.835	26.79
271.051	34.99
271.267	37.03
271.483	-18.26
271.698	55.47
271.914	94.38
272.13	88.23
272.346	80.04
272.562	71.85
272.777	39.08
272.993	47.27
273.209	51.37
273.425	49.32
273.64	20.65
273.856	141.48
274.072	-28.5
274.287	96.43
274.503	24.75
274.719	135.34
274.934	55.47
275.15	41.13
275.366	65.71
275.581	2.22
275.797	127.14
276.012	86.19
276.228	39.08
276.444	-5.97
276.659	24.75
276.875	-22.36
277.09	63.66
277.306	-10.07
277.521	51.37
277.737	57.51
277.952	80.04
278.168	65.71
278.383	51.37
278.599	2.22
278.814	94.38
279.03	67.75
279.245	12.46
279.461	18.6
279.676	118.95
279.892	-38.74
280.107	-36.69
280.322	0.17
280.538	67.75
280.753	41.13
280.969	45.23
281.184	34.99
281.399	118.95
281.615	94.38
281.83	75.95
282.045	-34.64
282.26	10.41
282.476	12.46
282.691	37.03
282.906	92.33
283.122	84.14
283.337	0.17
283.552	82.09
283.767	65.71
283.983	18.6
284.198	6.31
284.413	34.99
284.628	32.94
284.843	84.14
285.058	-5.97
285.274	28.84
285.489	63.66
285.704	34.99
285.919	88.23
286.134	75.95
286.349	8.36
286.564	41.13
286.779	71.85
286.995	-8.02
287.21	-12.12
287.425	49.32
287.64	34.99
287.855	43.18
288.07	-30.55
288.285	96.43
288.5	137.38
288.715	116.9
288.93	45.23
289.145	30.89
289.36	135.34
289.575	20.65
289.79	88.23
290.004	-20.31
290.219	59.56
290.434	67.75
290.649	-36.69
290.864	61.61
291.079	20.65
291.294	67.75
291.509	28.84
291.724	18.6
291.938	59.56
292.153	110.76
292.368	59.56
292.583	49.32
292.798	104.62
293.012	51.37
293.227	30.89
293.442	57.51
293.657	47.27
293.871	161.96
294.086	-1.88
294.301	133.29
294.516	84.14
294.73	133.29
294.945	-44.88
295.16	118.95
295.374	104.62
295.589	92.33
295.804	-34.64
296.018	59.56
296.233	75.95
296.447	45.23
296.662	10.41
296.877	129.19
297.091	94.38
297.306	84.14
297.52	43.18
297.735	67.75
297.949	65.71
298.164	26.79
298.378	82.09
298.593	-18.26
298.807	-14.17
299.022	67.75
299.236	92.33
299.451	14.51
299.665	80.04
299.88	45.23
300.094	10.41
300.309	18.6
300.523	43.18
300.737	47.27
300.952	0.17
301.166	24.75
301.381	18.6
301.595	86.19
301.809	65.71
302.024	118.95
302.238	30.89
302.452	94.38
302.667	39.08
302.881	90.28
303.095	37.03
303.309	57.51
303.524	8.36
303.738	-3.93
303.952	14.51
304.166	49.32
304.381	37.03
304.595	80.04
304.809	-57.17
305.023	84.14
305.237	18.6
305.452	26.79
305.666	100.52
305.88	133.29
306.094	112.81
306.308	49.32
306.522	98.47
306.736	164.01
306.95	96.43
307.164	102.57
307.379	6.31
307.593	135.34
307.807	18.6
308.021	135.34
308.235	0.17
308.449	34.99
308.663	96.43
308.877	102.57
309.091	41.13
309.305	73.9
309.519	-14.17
309.733	168.1
309.947	10.41
310.161	10.41
310.374	57.51
310.588	110.76
310.802	47.27
311.016	-28.5
311.23	63.66
311.444	32.94
311.658	16.55
311.872	94.38
312.085	43.18
312.299	45.23
312.513	51.37
312.727	43.18
312.941	-5.97
313.154	-16.21
313.368	104.62
313.582	63.66
313.796	63.66
314.009	53.42
314.223	75.95
314.437	102.57
314.651	47.27
314.864	53.42
315.078	-28.5
315.292	4.27
315.505	10.41
315.719	71.85
315.933	90.28
316.146	45.23
316.36	-10.07
316.573	118.95
316.787	88.23
317.001	84.14
317.214	-46.93
317.428	43.18
317.641	-32.6
317.855	77.99
318.068	16.55
318.282	-5.97
318.495	84.14
318.709	67.75
318.922	94.38
319.136	63.66
319.349	106.67
319.563	47.27
319.776	106.67
319.99	-16.21
320.203	114.86
320.417	92.33
320.63	102.57
320.843	104.62
321.057	86.19
321.27	59.56
321.483	24.75
321.697	123.05
321.91	71.85
322.124	100.52
322.337	45.23
322.55	34.99
322.763	43.18
322.977	-24.4
323.19	26.79
323.403	8.36
323.617	94.38
323.83	84.14
324.043	41.13
324.256	51.37
324.469	69.8
324.683	80.04
324.896	135.34
325.109	8.36
325.322	-57.17
325.535	-14.17
325.748	20.65
325.962	96.43
326.175	41.13
326.388	73.9
326.601	49.32
326.814	67.75
327.027	61.61
327.24	100.52
327.453	-32.6
327.666	90.28
327.879	94.38
328.092	114.86
328.305	100.52
328.518	69.8
328.731	63.66
328.944	53.42
329.157	75.95
329.37	80.04
329.583	92.33
329.796	88.23
330.009	61.61
330.222	145.58
330.435	127.14
330.648	94.38
330.861	32.94
331.073	34.99
331.286	88.23
331.499	92.33
331.712	43.18
331.925	28.84
332.138	30.89
332.35	8.36
332.563	49.32
332.776	98.47
332.989	61.61
333.202	28.84
333.414	67.75
333.627	41.13
333.84	43.18
334.053	102.57
334.265	32.94
334.478	14.51
334.691	28.84
334.903	-36.69
335.116	-61.27
335.329	20.65
335.541	86.19
335.754	82.09
335.966	41.13
336.179	71.85
336.392	28.84
336.604	69.8
336.817	63.66
337.029	69.8
337.242	45.23
337.454	37.03
337.667	77.99
337.88	67.75
338.092	73.9
338.305	127.14
338.517	10.41
338.729	57.51
338.942	112.81
339.154	4.27
339.367	-36.69
339.579	24.75
339.792	43.18
340.004	45.23
340.217	75.95
340.429	90.28
340.641	6.31
340.854	-26.45
341.066	24.75
341.278	118.95
341.491	133.29
341.703	26.79
341.915	-12.12
342.128	59.56
342.34	96.43
342.552	-26.45
342.764	65.71
342.977	-24.4
343.189	47.27
343.401	118.95
343.613	-38.74
343.826	92.33
344.038	18.6
344.25	108.71
344.462	59.56
344.674	32.94
344.886	-5.97
345.099	59.56
345.311	22.7
345.523	102.57
345.735	6.31
345.947	104.62
346.159	24.75
346.371	88.23
346.583	-81.75
346.795	121
347.007	65.71
347.219	112.81
347.431	39.08
347.643	61.61
347.855	82.09
348.067	116.9
348.279	24.75
348.491	18.6
348.703	102.57
348.915	118.95
349.127	24.75
349.339	98.47
349.551	-22.36
349.763	94.38
349.975	47.27
350.187	92.33
350.399	145.58
350.61	100.52
350.822	14.51
351.034	32.94
351.246	98.47
351.458	28.84
351.669	-5.97
351.881	94.38
352.093	59.56
352.305	121
352.517	116.9
352.728	43.18
352.94	51.37
353.152	45.23
353.363	-14.17
353.575	20.65
353.787	153.77
353.999	118.95
354.21	112.81
354.422	20.65
354.633	49.32
354.845	90.28
355.057	57.51
355.268	131.24
355.48	110.76
355.692	57.51
355.903	41.13
356.115	10.41
356.326	-53.08
356.538	121
356.749	106.67
356.961	86.19
357.172	24.75
357.384	57.51
357.595	180.39
357.807	12.46
358.018	41.13
358.23	47.27
358.441	110.76
358.653	-5.97
358.864	123.05
359.075	-14.17
359.287	131.24
359.498	63.66
359.709	137.38
359.921	92.33
360.132	110.76
360.344	69.8
360.555	30.89
360.766	123.05
360.977	-12.12
361.189	100.52
361.4	59.56
361.611	127.14
361.823	98.47
362.034	94.38
362.245	39.08
362.456	88.23
362.667	157.86
362.879	63.66
363.09	24.75
363.301	49.32
363.512	94.38
363.723	14.51
363.935	53.42
364.146	53.42
364.357	55.47
364.568	108.71
364.779	-38.74
364.99	73.9
365.201	4.27
365.412	77.99
365.623	22.7
365.834	86.19
366.045	86.19
366.256	127.14
366.467	34.99
366.678	100.52
366.889	69.8
367.1	86.19
367.311	96.43
367.522	65.71
367.733	69.8
367.944	164.01
368.155	45.23
368.366	47.27
368.577	129.19
368.788	161.96
368.999	2.22
369.209	10.41
369.42	153.77
369.631	133.29
369.842	73.9
370.053	-22.36
370.264	90.28
370.474	2.22
370.685	51.37
370.896	55.47
371.107	168.1
371.317	133.29
371.528	88.23
371.739	39.08
371.95	59.56
372.16	143.53
372.371	20.65
372.582	-28.5
372.792	129.19
373.003	133.29
373.214	65.71
373.424	92.33
373.635	84.14
373.846	61.61
374.056	53.42
374.267	26.79
374.477	69.8
374.688	118.95
374.898	73.9
375.109	45.23
375.319	114.86
375.53	106.67
375.74	106.67
375.951	51.37
376.161	118.95
376.372	123.05
376.582	10.41
376.793	67.75
377.003	75.95
377.214	22.7
377.424	141.48
377.635	30.89
377.845	-28.5
378.055	116.9
378.266	20.65
378.476	30.89
378.686	86.19
378.897	-20.31
379.107	108.71
379.317	98.47
379.528	127.14
379.738	137.38
379.948	26.79
380.158	100.52
380.369	28.84
380.579	94.38
380.789	41.13
380.999	24.75
381.21	147.62
381.42	137.38
381.63	55.47
381.84	43.18
382.05	94.38
382.261	125.1
382.471	84.14
382.681	45.23
382.891	157.86
383.101	82.09
383.311	-5.97
383.521	-38.74
383.731	82.09
383.941	104.62
384.151	102.57
384.361	37.03
384.571	114.86
384.781	77.99
384.991	127.14
385.201	149.67
385.411	125.1
385.621	133.29
385.831	100.52
386.041	47.27
386.251	88.23
386.461	92.33
386.671	104.62
386.881	71.85
387.091	32.94
387.301	45.23
387.511	121
387.72	121
387.93	121
388.14	28.84
388.35	47.27
388.56	180.39
388.769	145.58
388.979	106.67
389.189	82.09
389.399	26.79
389.609	121
389.818	98.47
390.028	102.57
390.238	96.43
390.447	18.6
390.657	116.9
390.867	92.33
391.076	-12.12
391.286	96.43
391.496	30.89
391.705	43.18
391.915	151.72
392.125	94.38
392.334	57.51
392.544	139.43
392.753	94.38
392.963	114.86
393.172	41.13
393.382	-8.02
393.591	157.86
393.801	110.76
394.01	149.67
394.22	63.66
394.429	102.57
394.639	116.9
394.848	98.47
395.058	174.25
395.267	112.81
395.477	59.56
395.686	90.28
395.895	227.5
396.105	209.06
396.314	57.51
396.524	63.66
396.733	84.14
396.942	153.77
397.152	108.71
397.361	143.53
397.57	75.95
397.78	12.46
397.989	168.1
398.198	237.74
398.407	182.44
398.617	59.56
398.826	61.61
399.035	127.14
399.244	213.16
399.453	110.76
399.663	133.29
399.872	100.52
400.081	96.43
400.29	161.96
400.499	82.09
400.708	127.14
400.917	96.43
401.127	112.81
401.336	123.05
401.545	174.25
401.754	164.01
401.963	151.72
402.172	145.58
402.381	170.15
402.59	127.14
402.799	176.3
403.008	190.63
403.217	133.29
403.426	100.52
403.635	37.03
403.844	90.28
404.053	166.06
404.262	202.92
404.471	256.17
404.68	157.86
404.888	190.63
405.097	219.3
405.306	166.06
405.515	227.5
405.724	213.16
405.933	260.26
406.142	207.02
406.35	229.54
406.559	250.02
406.768	196.78
406.977	344.23
407.185	211.11
407.394	225.45
407.603	133.29
407.812	243.88
408.02	276.65
408.229	180.39
408.438	336.04
408.646	223.4
408.855	280.74
409.064	317.61
409.272	331.94
409.481	258.21
409.69	233.64
409.898	307.37
410.107	389.28
410.315	428.2
410.524	405.67
410.733	331.94
410.941	352.42
411.15	415.91
411.358	444.58
411.567	424.1
411.775	454.82
411.984	407.72
412.192	506.02
412.401	510.11
412.609	499.88
412.818	573.6
413.026	534.69
413.234	430.24
413.443	600.23
413.651	589.99
413.86	653.47
414.068	665.76
414.276	653.47
414.485	667.81
414.693	653.47
414.901	749.73
415.11	747.68
415.318	698.53
415.526	733.34
415.734	809.12
415.943	798.88
416.151	911.52
416.359	850.08
416.567	895.13
416.776	975
416.984	993.44
417.192	1050.78
417.4	1024.16
417.608	1058.97
417.817	1110.17
418.025	1132.7
418.233	1300.63
418.441	1202.33
418.649	1222.81
418.857	1267.86
419.065	1398.93
419.273	1353.88
419.481	1435.8
419.689	1437.84
419.897	1515.67
420.105	1491.09
420.313	1566.87
420.521	1673.36
420.729	1661.07
420.937	1714.32
421.145	1849.49
421.353	1902.73
421.561	1925.26
421.769	2031.76
421.977	2140.3
422.185	2207.88
422.393	2107.53
422.601	2367.62
422.809	2300.04
423.017	2328.71
423.224	2519.17
423.432	2642.05
423.64	2406.53
423.848	2734.21
424.056	2752.64
424.263	2936.96
424.471	2893.95
424.679	2975.87
424.887	3154.04
425.094	3231.87
425.302	3313.78
425.51	3188.86
425.718	3407.99
425.925	3475.57
426.133	3641.46
426.341	3862.64
426.548	3993.71
426.756	3928.17
426.964	4036.72
427.171	4163.69
427.379	4384.87
427.586	4479.08
427.794	4706.4
428.001	4911.2
428.209	5079.13
428.417	4978.78
428.624	5132.38
428.832	5263.45
429.039	5181.53
429.247	5199.96
429.454	5732.44
429.662	6203.47
429.869	5736.53
430.076	6058.06
430.284	5910.61
430.491	6107.21
430.699	6660.17
430.906	6615.11
431.114	6701.12
431.321	7018.56
431.528	7108.67
431.736	7475.26
431.943	7931.95
432.15	7616.57
432.358	7563.32
432.565	8241.2
432.772	8198.19
432.979	8454.19
433.187	8634.41
433.394	8693.8
433.601	9189.41
433.808	9343
434.016	9205.79
434.223	9631.77
434.43	10082.32
434.637	9848.85
434.844	10434.57
435.052	10805.25
435.259	10637.32
435.466	10905.6
435.673	10655.75
435.88	11388.92
436.087	12210.16
436.294	11876.34
436.501	11632.63
436.708	12021.75
436.915	12298.22
437.122	13023.2
437.329	13031.4
437.537	13137.89
437.743	13508.57
437.95	13352.93
438.157	14008.28
438.364	14661.58
438.571	14477.26
438.778	14647.24
438.985	15720.38
439.192	15128.52
439.399	15808.44
439.606	15400.9
439.813	16445.36
440.02	17096.61
440.227	17047.46
440.433	16934.82
440.64	17491.87
440.847	17450.91
441.054	17584.03
441.261	18798.48
441.467	18575.25
441.674	18931.59
441.881	19804.03
442.088	19521.41
442.294	19400.58
442.501	20047.74
442.708	20547.44
442.914	21253.99
443.121	21909.34
443.328	21624.67
443.534	22912.85
443.741	22300.5
443.948	22130.52
444.154	23605.06
444.361	23609.15
444.568	23850.81
444.774	23940.93
444.981	24112.95
445.187	24801.07
445.394	25913.12
445.6	25501.48
445.807	28194.56
446.013	26824.47
446.22	27254.54
446.426	28811
446.633	28466.94
446.839	29724.39
447.046	28452.6
447.252	29953.76
447.459	29863.65
447.665	29871.84
447.871	31258.32
448.078	32421.56
448.284	30582.49
448.491	31852.23
448.697	32941.75
448.903	33773.22
449.11	34033.32
449.316	33273.52
449.522	33742.5
449.728	34918.04
449.935	34782.87
450.141	34719.38
450.347	35503.76
450.553	34360.99
450.76	34743.96
450.966	35772.04
451.172	35913.35
451.378	36730.49
451.584	36259.46
451.791	36767.35
451.997	36685.43
452.203	37381.74
452.409	37525.1
452.615	36890.23
452.821	35491.47
453.027	35298.96
453.233	37314.16
453.44	35544.72
453.646	36591.23
453.852	36365.95
454.058	37006.97
454.264	36009.61
454.47	36216.45
454.676	35899.01
454.882	36816.5
455.088	33900.2
455.294	34324.13
455.5	34662.04
455.705	35202.71
455.911	33834.66
456.117	33105.59
456.323	32571.07
456.529	30897.88
456.735	32050.88
456.941	31395.53
457.147	30775
457.352	30166.75
457.558	29837.03
457.764	29861.6
457.97	29271.79
458.176	28710.64
458.381	28299
458.587	27348.75
458.793	27389.7
458.999	25622.31
459.204	27608.84
459.41	27053.84
459.616	25132.84
459.821	25372.46
460.027	25145.13
460.233	24641.33
460.438	23066.44
460.644	23611.2
460.85	22431.57
461.055	22198.1
461.261	22245.21
461.466	20203.38
461.672	19490.69
461.878	21546.85
462.083	19765.12
462.289	19500.93
462.494	19269.51
462.7	18558.86
462.905	17766.3
463.111	18585.49
463.316	18614.16
463.522	18161.56
463.727	18229.14
463.932	18171.8
464.138	17991.58
464.343	17858.46
464.549	17684.38
464.754	18356.11
464.959	18040.73
465.165	17885.08
465.37	17045.41
465.575	16750.51
465.781	17502.11
465.986	17633.18
466.191	16725.93
466.397	16119.73
