Data from USB4F104151__58__12-12-25-704.txt Node

Date: Fri Mar 14 12:12:25 EDT 2025
User: louis
Spectrometer: USB4F10415
Trigger mode: 4
Integration Time (sec): 5.000000E-2
Scans to average: 1
Electric dark correction enabled: true
Nonlinearity correction enabled: false
Boxcar width: 0
XAxis mode: Wavelengths
Number of Pixels in Spectrum: 3648
>>>>>Begin Spectral Data<<<<<
178.204	-205.65
178.424	-205.65
178.644	-205.65
178.864	-166.74
179.084	-179.03
179.304	-60.24
179.524	-19.29
179.744	-4.95
179.964	119.98
180.184	9.39
180.404	-68.44
180.624	-72.53
180.844	7.34
181.064	25.77
181.283	11.43
181.503	21.67
181.723	29.87
181.943	-70.48
182.163	107.69
182.383	105.64
182.602	46.25
182.822	81.07
183.042	58.54
183.262	33.96
183.482	38.06
183.701	185.51
183.921	38.06
184.141	33.96
184.361	72.87
184.58	7.34
184.8	66.73
185.02	21.67
185.239	160.94
185.459	15.53
185.679	13.48
185.898	-17.24
186.118	107.69
186.338	15.53
186.557	46.25
186.777	-2.9
186.997	5.29
187.216	25.77
187.436	95.4
187.655	89.26
187.875	95.4
188.095	19.63
188.314	111.78
188.534	99.5
188.753	48.3
188.973	36.01
189.192	134.31
189.412	60.59
189.631	50.35
189.851	33.96
190.07	136.36
190.29	-7
190.509	-21.33
190.729	36.01
190.948	85.16
191.168	273.57
191.387	144.55
191.607	-2.9
191.826	23.72
192.045	-9.05
192.265	122.02
192.484	109.74
192.704	36.01
192.923	-0.85
193.142	128.17
193.362	76.97
193.581	64.68
193.8	70.83
194.02	5.29
194.239	79.02
194.458	81.07
194.678	101.55
194.897	76.97
195.116	9.39
195.335	44.2
195.555	15.53
195.774	89.26
195.993	17.58
196.212	-23.38
196.432	60.59
196.651	7.34
196.87	95.4
197.089	99.5
197.308	56.49
197.528	-23.38
197.747	72.87
197.966	-27.48
198.185	162.98
198.404	74.92
198.623	162.98
198.842	40.11
199.062	58.54
199.281	60.59
199.5	29.87
199.719	44.2
199.938	64.68
200.157	115.88
200.376	111.78
200.595	60.59
200.814	56.49
201.033	66.73
201.252	38.06
201.471	31.91
201.69	81.07
201.909	140.46
202.128	81.07
202.347	99.5
202.566	48.3
202.785	7.34
203.004	9.39
203.223	205.99
203.442	15.53
203.661	9.39
203.879	44.2
204.098	91.31
204.317	-0.85
204.536	115.88
204.755	93.35
204.974	46.25
205.193	74.92
205.411	128.17
205.63	89.26
205.849	42.15
206.068	54.44
206.287	33.96
206.505	31.91
206.724	48.3
206.943	76.97
207.162	5.29
207.381	44.2
207.599	3.24
207.818	36.01
208.037	25.77
208.255	27.82
208.474	27.82
208.693	89.26
208.911	-37.72
209.13	107.69
209.349	74.92
209.567	89.26
209.786	87.21
210.005	117.93
210.223	58.54
210.442	-41.81
210.661	23.72
210.879	91.31
211.098	74.92
211.316	50.35
211.535	74.92
211.753	38.06
211.972	138.41
212.191	27.82
212.409	74.92
212.628	44.2
212.846	52.39
213.065	93.35
213.283	111.78
213.502	15.53
213.72	-29.52
213.938	38.06
214.157	44.2
214.375	60.59
214.594	74.92
214.812	44.2
215.031	40.11
215.249	17.58
215.467	21.67
215.686	66.73
215.904	154.79
216.122	-15.19
216.341	167.08
216.559	173.22
216.778	42.15
216.996	72.87
217.214	-29.52
217.432	72.87
217.651	36.01
217.869	15.53
218.087	156.84
218.306	97.45
218.524	54.44
218.742	17.58
218.96	89.26
219.179	70.83
219.397	105.64
219.615	117.93
219.833	76.97
220.051	44.2
220.27	124.07
220.488	50.35
220.706	58.54
220.924	7.34
221.142	42.15
221.36	36.01
221.578	126.12
221.796	23.72
222.015	-7
222.233	81.07
222.451	148.65
222.669	27.82
222.887	81.07
223.105	29.87
223.323	-7
223.541	-13.14
223.759	9.39
223.977	17.58
224.195	138.41
224.413	124.07
224.631	132.26
224.849	60.59
225.067	128.17
225.285	44.2
225.503	27.82
225.721	-33.62
225.939	107.69
226.157	50.35
226.375	173.22
226.592	46.25
226.81	68.78
227.028	83.11
227.246	152.74
227.464	85.16
227.682	31.91
227.9	85.16
228.117	97.45
228.335	103.59
228.553	7.34
228.771	48.3
228.989	66.73
229.206	91.31
229.424	46.25
229.642	44.2
229.86	7.34
230.077	103.59
230.295	66.73
230.513	154.79
230.731	83.11
230.948	68.78
231.166	79.02
231.384	-19.29
231.601	122.02
231.819	68.78
232.037	70.83
232.254	29.87
232.472	27.82
232.689	-41.81
232.907	74.92
233.125	70.83
233.342	74.92
233.56	29.87
233.777	70.83
233.995	15.53
234.213	132.26
234.43	115.88
234.648	-2.9
234.865	25.77
235.083	70.83
235.3	76.97
235.518	9.39
235.735	117.93
235.953	113.83
236.17	17.58
236.388	-0.85
236.605	44.2
236.822	56.49
237.04	124.07
237.257	31.91
237.475	50.35
237.692	52.39
237.909	117.93
238.127	-0.85
238.344	64.68
238.562	54.44
238.779	68.78
238.996	25.77
239.214	38.06
239.431	40.11
239.648	-21.33
239.865	74.92
240.083	134.31
240.3	93.35
240.517	-11.09
240.735	89.26
240.952	156.84
241.169	48.3
241.386	-9.05
241.603	38.06
241.821	25.77
242.038	79.02
242.255	146.6
242.472	-15.19
242.689	31.91
242.907	46.25
243.124	50.35
243.341	95.4
243.558	74.92
243.775	-2.9
243.992	46.25
244.209	-0.85
244.426	136.36
244.643	46.25
244.86	42.15
245.078	31.91
245.295	15.53
245.512	52.39
245.729	38.06
245.946	74.92
246.163	97.45
246.38	79.02
246.597	89.26
246.814	103.59
247.031	93.35
247.248	-7
247.464	89.26
247.681	68.78
247.898	99.5
248.115	103.59
248.332	-27.48
248.549	81.07
248.766	40.11
248.983	91.31
249.2	7.34
249.417	79.02
249.633	50.35
249.85	154.79
250.067	27.82
250.284	81.07
250.501	91.31
250.717	124.07
250.934	-33.62
251.151	64.68
251.368	58.54
251.585	95.4
251.801	31.91
252.018	-29.52
252.235	70.83
252.451	46.25
252.668	5.29
252.885	68.78
253.102	91.31
253.318	64.68
253.535	-25.43
253.752	38.06
253.968	40.11
254.185	-31.57
254.401	60.59
254.618	54.44
254.835	97.45
255.051	95.4
255.268	44.2
255.484	36.01
255.701	62.63
255.917	115.88
256.134	19.63
256.351	31.91
256.567	11.43
256.784	-39.76
257	81.07
257.217	74.92
257.433	87.21
257.65	87.21
257.866	70.83
258.082	40.11
258.299	29.87
258.515	113.83
258.732	29.87
258.948	29.87
259.165	122.02
259.381	40.11
259.597	62.63
259.814	-56.15
260.03	60.59
260.246	36.01
260.463	130.22
260.679	79.02
260.895	-0.85
261.112	70.83
261.328	11.43
261.544	-39.76
261.761	162.98
261.977	15.53
262.193	-33.62
262.409	138.41
262.626	126.12
262.842	66.73
263.058	40.11
263.274	11.43
263.49	29.87
263.707	70.83
263.923	38.06
264.139	-45.91
264.355	15.53
264.571	74.92
264.787	83.11
265.004	89.26
265.22	93.35
265.436	60.59
265.652	79.02
265.868	81.07
266.084	15.53
266.3	42.15
266.516	1.19
266.732	36.01
266.948	128.17
267.164	93.35
267.38	111.78
267.596	115.88
267.812	158.89
268.028	13.48
268.244	-2.9
268.46	70.83
268.676	-9.05
268.892	91.31
269.108	11.43
269.324	-31.57
269.54	-0.85
269.756	38.06
269.972	33.96
270.188	-4.95
270.403	-7
270.619	83.11
270.835	-9.05
271.051	56.49
271.267	9.39
271.483	-7
271.698	33.96
271.914	95.4
272.13	-13.14
272.346	13.48
272.562	87.21
272.777	87.21
272.993	70.83
273.209	48.3
273.425	27.82
273.64	72.87
273.856	27.82
274.072	48.3
274.287	54.44
274.503	87.21
274.719	64.68
274.934	-2.9
275.15	-23.38
275.366	42.15
275.581	27.82
275.797	81.07
276.012	103.59
276.228	68.78
276.444	85.16
276.659	81.07
276.875	-47.96
277.09	62.63
277.306	-35.67
277.521	44.2
277.737	76.97
277.952	89.26
278.168	25.77
278.383	81.07
278.599	89.26
278.814	126.12
279.03	54.44
279.245	89.26
279.461	81.07
279.676	171.18
279.892	-33.62
280.107	-25.43
280.322	-52.05
280.538	42.15
280.753	66.73
280.969	74.92
281.184	21.67
281.399	99.5
281.615	74.92
281.83	97.45
282.045	38.06
282.26	17.58
282.476	48.3
282.691	58.54
282.906	7.34
283.122	99.5
283.337	23.72
283.552	50.35
283.767	-19.29
283.983	64.68
284.198	3.24
284.413	132.26
284.628	31.91
284.843	33.96
285.058	81.07
285.274	95.4
285.489	124.07
285.704	50.35
285.919	40.11
286.134	48.3
286.349	46.25
286.564	33.96
286.779	140.46
286.995	113.83
287.21	-13.14
287.425	101.55
287.64	7.34
287.855	66.73
288.07	11.43
288.285	89.26
288.5	128.17
288.715	138.41
288.93	79.02
289.145	11.43
289.36	38.06
289.575	31.91
289.79	85.16
290.004	89.26
290.219	122.02
290.434	40.11
290.649	36.01
290.864	89.26
291.079	27.82
291.294	87.21
291.509	83.11
291.724	-25.43
291.938	15.53
292.153	46.25
292.368	79.02
292.583	95.4
292.798	48.3
293.012	56.49
293.227	44.2
293.442	117.93
293.657	33.96
293.871	62.63
294.086	72.87
294.301	87.21
294.516	17.58
294.73	54.44
294.945	-2.9
295.16	11.43
295.374	119.98
295.589	54.44
295.804	-13.14
296.018	85.16
296.233	109.74
296.447	97.45
296.662	21.67
296.877	126.12
297.091	68.78
297.306	64.68
297.52	38.06
297.735	62.63
297.949	48.3
298.164	103.59
298.378	33.96
298.593	-15.19
298.807	66.73
299.022	97.45
299.236	111.78
299.451	85.16
299.665	74.92
299.88	-0.85
300.094	44.2
300.309	46.25
300.523	64.68
300.737	68.78
300.952	79.02
301.166	48.3
301.381	40.11
301.595	29.87
301.809	9.39
302.024	-17.24
302.238	79.02
302.452	79.02
302.667	-2.9
302.881	126.12
303.095	68.78
303.309	60.59
303.524	23.72
303.738	-25.43
303.952	33.96
304.166	117.93
304.381	17.58
304.595	109.74
304.809	15.53
305.023	23.72
305.237	31.91
305.452	-2.9
305.666	119.98
305.88	93.35
306.094	76.97
306.308	56.49
306.522	111.78
306.736	130.22
306.95	124.07
307.164	54.44
307.379	62.63
307.593	134.31
307.807	132.26
308.021	160.94
308.235	52.39
308.449	23.72
308.663	52.39
308.877	99.5
309.091	54.44
309.305	85.16
309.519	-52.05
309.733	105.64
309.947	-7
310.161	76.97
310.374	193.7
310.588	144.55
310.802	-7
311.016	25.77
311.23	103.59
311.444	33.96
311.658	19.63
311.872	91.31
312.085	76.97
312.299	193.7
312.513	111.78
312.727	9.39
312.941	7.34
313.154	95.4
313.368	60.59
313.582	54.44
313.796	111.78
314.009	50.35
314.223	119.98
314.437	95.4
314.651	107.69
314.864	-23.38
315.078	-9.05
315.292	60.59
315.505	-4.95
315.719	76.97
315.933	107.69
316.146	7.34
316.36	17.58
316.573	74.92
316.787	58.54
317.001	85.16
317.214	15.53
317.428	66.73
317.641	93.35
317.855	-0.85
318.068	132.26
318.282	11.43
318.495	148.65
318.709	134.31
318.922	-45.91
319.136	68.78
319.349	119.98
319.563	19.63
319.776	17.58
319.99	15.53
320.203	101.55
320.417	13.48
320.63	148.65
320.843	115.88
321.057	44.2
321.27	72.87
321.483	60.59
321.697	122.02
321.91	44.2
322.124	122.02
322.337	109.74
322.55	36.01
322.763	68.78
322.977	-33.62
323.19	64.68
323.403	89.26
323.617	54.44
323.83	117.93
324.043	27.82
324.256	109.74
324.469	-7
324.683	130.22
324.896	-68.44
325.109	81.07
325.322	7.34
325.535	134.31
325.748	70.83
325.962	-62.29
326.175	-27.48
326.388	150.7
326.601	132.26
326.814	-4.95
327.027	89.26
327.24	83.11
327.453	-37.72
327.666	117.93
327.879	93.35
328.092	89.26
328.305	29.87
328.518	52.39
328.731	93.35
328.944	68.78
329.157	105.64
329.37	38.06
329.583	115.88
329.796	79.02
330.009	23.72
330.222	101.55
330.435	60.59
330.648	68.78
330.861	68.78
331.073	64.68
331.286	60.59
331.499	109.74
331.712	29.87
331.925	68.78
332.138	9.39
332.35	95.4
332.563	58.54
332.776	148.65
332.989	107.69
333.202	99.5
333.414	54.44
333.627	19.63
333.84	23.72
334.053	138.41
334.265	68.78
334.478	19.63
334.691	48.3
334.903	64.68
335.116	13.48
335.329	29.87
335.541	115.88
335.754	103.59
335.966	66.73
336.179	48.3
336.392	150.7
336.604	111.78
336.817	66.73
337.029	91.31
337.242	48.3
337.454	154.79
337.667	68.78
337.88	119.98
338.092	44.2
338.305	97.45
338.517	58.54
338.729	74.92
338.942	132.26
339.154	-11.09
339.367	56.49
339.579	113.83
339.792	52.39
340.004	111.78
340.217	85.16
340.429	99.5
340.641	68.78
340.854	31.91
341.066	-19.29
341.278	48.3
341.491	165.03
341.703	117.93
341.915	-25.43
342.128	70.83
342.34	111.78
342.552	95.4
342.764	132.26
342.977	64.68
343.189	87.21
343.401	62.63
343.613	-0.85
343.826	70.83
344.038	25.77
344.25	42.15
344.462	97.45
344.674	62.63
344.886	19.63
345.099	7.34
345.311	128.17
345.523	54.44
345.735	-45.91
345.947	46.25
346.159	95.4
346.371	74.92
346.583	-27.48
346.795	177.32
347.007	25.77
347.219	44.2
347.431	40.11
347.643	83.11
347.855	48.3
348.067	122.02
348.279	17.58
348.491	15.53
348.703	117.93
348.915	27.82
349.127	15.53
349.339	27.82
349.551	-74.58
349.763	87.21
349.975	87.21
350.187	111.78
350.399	72.87
350.61	87.21
350.822	50.35
351.034	9.39
351.246	89.26
351.458	60.59
351.669	122.02
351.881	197.8
352.093	91.31
352.305	162.98
352.517	81.07
352.728	126.12
352.94	50.35
353.152	87.21
353.363	7.34
353.575	68.78
353.787	124.07
353.999	97.45
354.21	105.64
354.422	42.15
354.633	56.49
354.845	101.55
355.057	138.41
355.268	93.35
355.48	97.45
355.692	56.49
355.903	89.26
356.115	124.07
356.326	58.54
356.538	152.74
356.749	83.11
356.961	130.22
357.172	56.49
357.384	36.01
357.595	177.32
357.807	33.96
358.018	-13.14
358.23	113.83
358.441	128.17
358.653	132.26
358.864	60.59
359.075	46.25
359.287	85.16
359.498	150.7
359.709	56.49
359.921	70.83
360.132	62.63
360.344	124.07
360.555	66.73
360.766	74.92
360.977	-4.95
361.189	113.83
361.4	1.19
361.611	85.16
361.823	89.26
362.034	72.87
362.245	3.24
362.456	23.72
362.667	52.39
362.879	68.78
363.09	27.82
363.301	93.35
363.512	119.98
363.723	105.64
363.935	124.07
364.146	122.02
364.357	19.63
364.568	132.26
364.779	31.91
364.99	109.74
365.201	44.2
365.412	66.73
365.623	11.43
365.834	68.78
366.045	60.59
366.256	107.69
366.467	58.54
366.678	64.68
366.889	-19.29
367.1	50.35
367.311	72.87
367.522	21.67
367.733	56.49
367.944	81.07
368.155	68.78
368.366	48.3
368.577	146.6
368.788	119.98
368.999	-0.85
369.209	81.07
369.42	136.36
369.631	195.75
369.842	74.92
370.053	52.39
370.264	117.93
370.474	-2.9
370.685	64.68
370.896	91.31
371.107	109.74
371.317	70.83
371.528	23.72
371.739	132.26
371.95	-7
372.16	56.49
372.371	-2.9
372.582	107.69
372.792	113.83
373.003	68.78
373.214	76.97
373.424	150.7
373.635	-33.62
373.846	113.83
374.056	124.07
374.267	111.78
374.477	56.49
374.688	50.35
374.898	113.83
375.109	17.58
375.319	13.48
375.53	103.59
375.74	162.98
375.951	25.77
376.161	89.26
376.372	128.17
376.582	101.55
376.793	56.49
377.003	-25.43
377.214	15.53
377.424	91.31
377.635	70.83
377.845	62.63
378.055	148.65
378.266	13.48
378.476	44.2
378.686	142.5
378.897	48.3
379.107	165.03
379.317	72.87
379.528	-54.1
379.738	154.79
379.948	99.5
380.158	95.4
380.369	33.96
380.579	140.46
380.789	76.97
380.999	64.68
381.21	109.74
381.42	171.18
381.63	13.48
381.84	105.64
382.05	23.72
382.261	79.02
382.471	197.8
382.681	15.53
382.891	136.36
383.101	70.83
383.311	66.73
383.521	17.58
383.731	134.31
383.941	68.78
384.151	87.21
384.361	87.21
384.571	50.35
384.781	15.53
384.991	128.17
385.201	183.46
385.411	126.12
385.621	113.83
385.831	-13.14
386.041	64.68
386.251	44.2
386.461	62.63
386.671	134.31
386.881	160.94
387.091	72.87
387.301	107.69
387.511	44.2
387.72	3.24
387.93	103.59
388.14	31.91
388.35	119.98
388.56	81.07
388.769	130.22
388.979	44.2
389.189	46.25
389.399	44.2
389.609	68.78
389.818	148.65
390.028	101.55
390.238	124.07
390.447	76.97
390.657	56.49
390.867	205.99
391.076	15.53
391.286	81.07
391.496	105.64
391.705	105.64
391.915	128.17
392.125	156.84
392.334	122.02
392.544	99.5
392.753	171.18
392.963	-13.14
393.172	89.26
393.382	31.91
393.591	167.08
393.801	48.3
394.01	140.46
394.22	134.31
394.429	83.11
394.639	50.35
394.848	146.6
395.058	48.3
395.267	23.72
395.477	128.17
395.686	119.98
395.895	232.62
396.105	136.36
396.314	177.32
396.524	97.45
396.733	162.98
396.942	165.03
397.152	126.12
397.361	238.76
397.57	99.5
397.78	79.02
397.989	165.03
398.198	160.94
398.407	93.35
398.617	154.79
398.826	177.32
399.035	187.56
399.244	124.07
399.453	99.5
399.663	134.31
399.872	193.7
400.081	83.11
400.29	177.32
400.499	95.4
400.708	107.69
400.917	148.65
401.127	85.16
401.336	169.13
401.545	171.18
401.754	216.23
401.963	105.64
402.172	124.07
402.381	199.85
402.59	156.84
402.799	152.74
403.008	232.62
403.217	117.93
403.426	158.89
403.635	107.69
403.844	109.74
404.053	220.33
404.262	140.46
404.471	279.72
404.68	269.48
404.888	117.93
405.097	185.51
405.306	115.88
405.515	218.28
405.724	261.29
405.933	197.8
406.142	195.75
406.35	265.38
406.559	197.8
406.768	222.38
406.977	226.47
407.185	267.43
407.394	201.9
407.603	160.94
407.812	261.29
408.02	273.57
408.229	214.18
408.438	300.2
408.646	234.66
408.855	283.81
409.064	382.12
409.272	324.77
409.481	418.98
409.69	226.47
409.898	308.39
410.107	359.59
410.315	433.32
410.524	234.66
410.733	388.26
410.941	371.88
411.15	441.51
411.358	412.84
411.567	461.99
411.775	427.17
411.984	492.71
412.192	502.95
412.401	486.56
412.609	564.39
412.818	560.29
413.026	611.49
413.234	580.77
413.443	500.9
413.651	658.59
413.86	580.77
414.068	674.98
414.276	795.81
414.485	713.89
414.693	801.95
414.901	791.71
415.11	818.33
415.318	781.47
415.526	871.58
415.734	896.16
415.943	832.67
416.151	965.79
416.359	871.58
416.567	926.88
416.776	906.4
416.984	1051.8
417.192	1125.53
417.4	1168.54
417.608	1096.86
417.817	1057.95
418.025	1311.89
418.233	1270.94
418.441	1258.65
418.649	1320.09
418.857	1350.81
419.065	1449.11
419.273	1365.14
419.481	1555.6
419.689	1524.88
419.897	1621.14
420.105	1664.15
420.313	1649.81
420.521	1805.46
420.729	1764.5
420.937	1899.66
421.145	1893.52
421.353	1981.58
421.561	2016.4
421.769	2188.43
421.977	2147.47
422.185	2270.34
422.393	2335.88
422.601	2417.8
422.809	2376.84
423.017	2497.67
423.224	2698.37
423.432	2690.18
423.64	2577.54
423.848	2925.69
424.056	2704.51
424.263	3189.88
424.471	3101.82
424.679	3169.4
424.887	3286.14
425.094	3472.5
425.302	3474.55
425.51	3492.98
425.718	3626.1
425.925	3800.18
426.133	3900.53
426.341	4129.9
426.548	4099.18
426.756	4236.39
426.964	4394.09
427.171	4480.1
427.379	4627.56
427.586	4521.06
427.794	4854.88
428.001	5102.68
428.209	5219.42
428.417	5069.92
428.624	5602.39
428.832	5565.53
429.039	5532.76
429.247	5413.98
429.454	5815.38
429.662	6245.45
429.869	5987.41
430.076	6372.43
430.284	6421.58
430.491	6511.69
430.699	6915.14
430.906	6730.82
431.114	6947.9
431.321	7203.9
431.528	7273.53
431.736	7734.32
431.943	8109.1
432.15	7818.29
432.358	7963.7
432.565	8326.19
432.772	8328.24
432.979	8772.64
433.187	8930.34
433.394	9102.37
433.601	9591.83
433.808	9638.94
434.016	9460.76
434.223	9970.71
434.43	10343.44
434.637	10216.46
434.844	10894.34
435.052	11056.13
435.259	10871.81
435.466	11246.59
435.673	11125.76
435.88	11764.73
436.087	12383.21
436.294	12307.44
436.501	12004.34
436.708	12106.74
436.915	12540.91
437.122	13253.6
437.329	13034.47
437.537	13620.19
437.743	13741.02
437.95	13525.98
438.157	14379.98
438.364	14787.53
438.571	14828.49
438.778	14918.6
438.985	16217.01
439.192	15504.32
439.399	15915.96
439.606	15573.95
439.813	16690.09
440.02	17458.08
440.227	16997.29
440.433	17013.67
440.64	17898.39
440.847	17394.59
441.054	17896.35
441.261	19184.52
441.467	18858.89
441.674	19020.68
441.881	19643.26
442.088	19751.81
442.294	19932.03
442.501	20122.49
442.708	20278.13
442.914	21255.01
443.121	22043.48
443.328	21531.49
443.534	23118.67
443.741	22272.85
443.948	21902.17
444.154	23696.19
444.361	23268.17
444.568	23733.06
444.774	23358.28
444.981	23804.74
445.187	24953.65
445.394	25637.67
445.6	25183.02
445.807	27591.43
446.013	26317.59
446.22	26923.79
446.426	27859.71
446.633	28130.05
446.839	29162.22
447.046	27699.97
447.252	29487.85
447.459	29455.08
447.665	29076.21
447.871	30448.35
448.078	32158.4
448.284	30315.23
448.491	31216.33
448.697	32072.39
448.903	32799.41
449.11	32832.18
449.316	32608.95
449.522	32815.8
449.728	33634.99
449.935	34216.61
450.141	33661.61
450.347	34609.82
450.553	33677.99
450.76	34214.56
450.966	35310.22
451.172	34609.82
451.378	35519.12
451.584	34734.74
451.791	35717.77
451.997	35613.32
452.203	36172.42
452.409	36246.15
452.615	35779.21
452.821	34409.12
453.027	34187.94
453.233	36254.34
453.44	34605.72
453.646	34953.88
453.852	35244.69
454.058	35723.91
454.264	34454.17
454.47	35375.76
454.676	34382.49
454.882	35340.94
455.088	32260.8
455.294	32791.22
455.5	33254.06
455.705	33456.81
455.911	32416.44
456.117	31660.74
456.323	31382.22
456.529	29151.98
456.735	30640.86
456.941	30284.51
457.147	29733.6
457.352	28326.65
457.558	28312.31
457.764	28246.78
457.97	27564.81
458.176	27124.49
458.381	26968.85
458.587	25748.26
458.793	25830.18
458.999	24243
459.204	25641.76
459.41	25223.98
459.616	23536.45
459.821	23808.83
460.027	23249.74
460.233	23083.85
460.438	22080.35
460.644	21941.08
460.85	20972.39
461.055	20525.94
461.261	20503.41
461.466	19016.58
461.672	18332.56
461.878	19704.7
462.083	18191.25
462.289	18064.28
462.494	17736.6
462.7	16982.95
462.905	16524.21
463.111	17292.19
463.316	17294.24
463.522	16737.2
463.727	16473.01
463.932	16745.39
464.138	16485.3
464.343	16470.96
464.549	16010.17
464.754	16864.17
464.959	16438.19
465.165	16311.22
465.37	15219.65
465.575	14967.75
465.781	16020.41
465.986	16100.28
