Data from USB4F104151__19__12-11-38-660.txt Node

Date: Fri Mar 14 12:11:38 EDT 2025
User: louis
Spectrometer: USB4F10415
Trigger mode: 4
Integration Time (sec): 5.000000E-2
Scans to average: 1
Electric dark correction enabled: true
Nonlinearity correction enabled: false
Boxcar width: 0
XAxis mode: Wavelengths
Number of Pixels in Spectrum: 3648
>>>>>Begin Spectral Data<<<<<
178.204	-148.65
178.424	-148.65
178.644	-148.65
178.864	-224.42
179.084	-152.74
179.304	-19.63
179.524	17.24
179.744	33.62
179.964	121.68
180.184	-3.24
180.404	50
180.624	-5.29
180.844	-56.49
181.064	-40.11
181.283	9.05
181.503	-93.35
181.723	-13.48
181.943	11.09
182.163	205.65
182.383	56.15
182.602	-1.19
182.822	41.81
183.042	58.2
183.262	25.43
183.482	-29.87
183.701	7
183.921	68.44
184.141	-27.82
184.361	41.81
184.58	84.82
184.8	47.96
185.02	-25.77
185.239	76.63
185.459	54.1
185.679	103.25
185.898	-3.24
186.118	93.01
186.338	88.92
186.557	56.15
186.777	13.14
186.997	15.19
187.216	50
187.436	142.16
187.655	33.62
187.875	90.96
188.095	58.2
188.314	107.35
188.534	56.15
188.753	84.82
188.973	105.3
189.192	127.83
189.412	56.15
189.631	107.35
189.851	52.05
190.07	97.11
190.29	-29.87
190.509	-11.43
190.729	27.48
190.948	72.53
191.168	240.47
191.387	7
191.607	-11.43
191.826	39.76
192.045	9.05
192.265	-1.19
192.484	-3.24
192.704	52.05
192.923	-56.49
193.142	156.5
193.362	105.3
193.581	93.01
193.8	56.15
194.02	47.96
194.239	-3.24
194.458	52.05
194.678	17.24
194.897	-19.63
195.116	68.44
195.335	23.38
195.555	52.05
195.774	-23.72
195.993	115.54
196.212	31.57
196.432	19.29
196.651	2.9
196.87	-31.91
197.089	191.31
197.308	58.2
197.528	107.35
197.747	17.24
197.966	109.4
198.185	117.59
198.404	31.57
198.623	187.22
198.842	23.38
199.062	131.92
199.281	148.31
199.5	33.62
199.719	58.2
199.938	66.39
200.157	56.15
200.376	11.09
200.595	66.39
200.814	33.62
201.033	2.9
201.252	109.4
201.471	47.96
201.69	68.44
201.909	58.2
202.128	29.52
202.347	103.25
202.566	84.82
202.785	33.62
203.004	95.06
203.223	187.22
203.442	74.58
203.661	90.96
203.879	68.44
204.098	123.73
204.317	-85.16
204.536	58.2
204.755	68.44
204.974	74.58
205.193	-7.34
205.411	74.58
205.63	74.58
205.849	47.96
206.068	78.68
206.287	58.2
206.505	138.07
206.724	-15.53
206.943	74.58
207.162	33.62
207.381	41.81
207.599	-7.34
207.818	54.1
208.037	54.1
208.255	29.52
208.474	70.48
208.693	4.95
208.911	-13.48
209.13	93.01
209.349	15.19
209.567	33.62
209.786	56.15
210.005	15.19
210.223	-3.24
210.442	-29.87
210.661	129.88
210.879	127.83
211.098	-1.19
211.316	54.1
211.535	109.4
211.753	58.2
211.972	78.68
212.191	88.92
212.409	107.35
212.628	62.29
212.846	2.9
213.065	82.77
213.283	140.12
213.502	25.43
213.72	-13.48
213.938	93.01
214.157	50
214.375	68.44
214.594	35.67
214.812	101.2
215.031	58.2
215.249	27.48
215.467	19.29
215.686	64.34
215.904	119.64
216.122	99.16
216.341	86.87
216.559	45.91
216.778	56.15
216.996	37.72
217.214	-9.39
217.432	19.29
217.651	43.86
217.869	66.39
218.087	52.05
218.306	74.58
218.524	41.81
218.742	-7.34
218.96	52.05
219.179	-23.72
219.397	99.16
219.615	195.41
219.833	58.2
220.051	66.39
220.27	43.86
220.488	54.1
220.706	7
220.924	82.77
221.142	64.34
221.36	-11.43
221.578	27.48
221.796	107.35
222.015	-33.96
222.233	152.4
222.451	158.55
222.669	39.76
222.887	115.54
223.105	-13.48
223.323	-21.67
223.541	64.34
223.759	66.39
223.977	31.57
224.195	90.96
224.413	25.43
224.631	45.91
224.849	179.03
225.067	119.64
225.285	95.06
225.503	-5.29
225.721	31.57
225.939	2.9
226.157	23.38
226.375	172.88
226.592	31.57
226.81	33.62
227.028	93.01
227.246	144.21
227.464	52.05
227.682	72.53
227.9	88.92
228.117	-3.24
228.335	107.35
228.553	74.58
228.771	56.15
228.989	45.91
229.206	27.48
229.424	-89.26
229.642	-23.72
229.86	64.34
230.077	70.48
230.295	47.96
230.513	103.25
230.731	47.96
230.948	74.58
231.166	72.53
231.384	41.81
231.601	27.48
231.819	86.87
232.037	-3.24
232.254	27.48
232.472	56.15
232.689	4.95
232.907	72.53
233.125	47.96
233.342	0.85
233.56	-36.01
233.777	84.82
233.995	56.15
234.213	43.86
234.43	125.78
234.648	0.85
234.865	66.39
235.083	54.1
235.3	93.01
235.518	58.2
235.735	123.73
235.953	119.64
236.17	19.29
236.388	-21.67
236.605	-5.29
236.822	64.34
237.04	117.59
237.257	-56.49
237.475	72.53
237.692	11.09
237.909	9.05
238.127	43.86
238.344	33.62
238.562	107.35
238.779	11.09
238.996	-1.19
239.214	84.82
239.431	23.38
239.648	43.86
239.865	80.72
240.083	99.16
240.3	25.43
240.517	23.38
240.735	82.77
240.952	136.02
241.169	-9.39
241.386	45.91
241.603	70.48
241.821	-15.53
242.038	107.35
242.255	41.81
242.472	50
242.689	80.72
242.907	31.57
243.124	136.02
243.341	-9.39
243.558	27.48
243.775	4.95
243.992	-33.96
244.209	86.87
244.426	195.41
244.643	39.76
244.86	19.29
245.078	25.43
245.295	0.85
245.512	31.57
245.729	7
245.946	45.91
246.163	113.49
246.38	7
246.597	138.07
246.814	47.96
247.031	97.11
247.248	33.62
247.464	17.24
247.681	35.67
247.898	45.91
248.115	62.29
248.332	0.85
248.549	82.77
248.766	138.07
248.983	115.54
249.2	66.39
249.417	80.72
249.633	-44.2
249.85	33.62
250.067	25.43
250.284	86.87
250.501	29.52
250.717	111.44
250.934	-5.29
251.151	23.38
251.368	29.52
251.585	17.24
251.801	31.57
252.018	4.95
252.235	187.22
252.451	-5.29
252.668	33.62
252.885	103.25
253.102	4.95
253.318	-15.53
253.535	-23.72
253.752	-56.49
253.968	70.48
254.185	29.52
254.401	58.2
254.618	15.19
254.835	2.9
255.051	82.77
255.268	19.29
255.484	33.62
255.701	37.72
255.917	70.48
256.134	84.82
256.351	76.63
256.567	33.62
256.784	19.29
257	-17.58
257.217	115.54
257.433	76.63
257.65	82.77
257.866	127.83
258.082	43.86
258.299	-68.78
258.515	50
258.732	-17.58
258.948	29.52
259.165	-15.53
259.381	23.38
259.597	105.3
259.814	0.85
260.03	29.52
260.246	68.44
260.463	107.35
260.679	86.87
260.895	74.58
261.112	50
261.328	82.77
261.544	-23.72
261.761	119.64
261.977	21.33
262.193	-9.39
262.409	33.62
262.626	15.19
262.842	115.54
263.058	66.39
263.274	123.73
263.49	52.05
263.707	80.72
263.923	41.81
264.139	23.38
264.355	99.16
264.571	99.16
264.787	29.52
265.004	88.92
265.22	-33.96
265.436	60.24
265.652	84.82
265.868	25.43
266.084	29.52
266.3	31.57
266.516	-19.63
266.732	70.48
266.948	56.15
267.164	35.67
267.38	70.48
267.596	97.11
267.812	93.01
268.028	84.82
268.244	33.62
268.46	74.58
268.676	0.85
268.892	2.9
269.108	-9.39
269.324	7
269.54	-7.34
269.756	125.78
269.972	-7.34
270.188	15.19
270.403	21.33
270.619	66.39
270.835	103.25
271.051	-15.53
271.267	64.34
271.483	105.3
271.698	107.35
271.914	13.14
272.13	11.09
272.346	35.67
272.562	-23.72
272.777	43.86
272.993	-36.01
273.209	74.58
273.425	19.29
273.64	-23.72
273.856	0.85
274.072	11.09
274.287	33.62
274.503	47.96
274.719	56.15
274.934	74.58
275.15	58.2
275.366	93.01
275.581	17.24
275.797	-13.48
276.012	78.68
276.228	7
276.444	58.2
276.659	86.87
276.875	4.95
277.09	43.86
277.306	-40.11
277.521	45.91
277.737	37.72
277.952	7
278.168	19.29
278.383	35.67
278.599	101.2
278.814	84.82
279.03	105.3
279.245	90.96
279.461	70.48
279.676	95.06
279.892	-13.48
280.107	-40.11
280.322	4.95
280.538	39.76
280.753	101.2
280.969	47.96
281.184	19.29
281.399	176.98
281.615	0.85
281.83	13.14
282.045	19.29
282.26	88.92
282.476	86.87
282.691	138.07
282.906	4.95
283.122	72.53
283.337	0.85
283.552	64.34
283.767	-21.67
283.983	62.29
284.198	-1.19
284.413	33.62
284.628	-5.29
284.843	4.95
285.058	52.05
285.274	62.29
285.489	-46.25
285.704	90.96
285.919	31.57
286.134	-17.58
286.349	25.43
286.564	-5.29
286.779	109.4
286.995	45.91
287.21	-23.72
287.425	54.1
287.64	25.43
287.855	66.39
288.07	0.85
288.285	4.95
288.5	84.82
288.715	9.05
288.93	50
289.145	29.52
289.36	52.05
289.575	37.72
289.79	39.76
290.004	-1.19
290.219	60.24
290.434	13.14
290.649	23.38
290.864	58.2
291.079	23.38
291.294	84.82
291.509	80.72
291.724	25.43
291.938	-19.63
292.153	80.72
292.368	58.2
292.583	66.39
292.798	13.14
293.012	9.05
293.227	33.62
293.442	7
293.657	76.63
293.871	58.2
294.086	35.67
294.301	93.01
294.516	93.01
294.73	4.95
294.945	-3.24
295.16	72.53
295.374	82.77
295.589	82.77
295.804	-31.91
296.018	25.43
296.233	62.29
296.447	-9.39
296.662	-1.19
296.877	90.96
297.091	35.67
297.306	21.33
297.52	-3.24
297.735	50
297.949	47.96
298.164	107.35
298.378	41.81
298.593	15.19
298.807	17.24
299.022	84.82
299.236	111.44
299.451	93.01
299.665	111.44
299.88	29.52
300.094	107.35
300.309	86.87
300.523	146.26
300.737	21.33
300.952	64.34
301.166	47.96
301.381	43.86
301.595	0.85
301.809	41.81
302.024	29.52
302.238	2.9
302.452	140.12
302.667	4.95
302.881	54.1
303.095	93.01
303.309	15.19
303.524	11.09
303.738	2.9
303.952	7
304.166	50
304.381	-64.68
304.595	62.29
304.809	33.62
305.023	37.72
305.237	9.05
305.452	-9.39
305.666	39.76
305.88	76.63
306.094	11.09
306.308	-1.19
306.522	78.68
306.736	138.07
306.95	78.68
307.164	144.21
307.379	2.9
307.593	154.45
307.807	39.76
308.021	54.1
308.235	95.06
308.449	-7.34
308.663	0.85
308.877	93.01
309.091	62.29
309.305	105.3
309.519	-23.72
309.733	95.06
309.947	43.86
310.161	43.86
310.374	-13.48
310.588	86.87
310.802	56.15
311.016	11.09
311.23	25.43
311.444	7
311.658	74.58
311.872	144.21
312.085	162.64
312.299	78.68
312.513	115.54
312.727	88.92
312.941	95.06
313.154	52.05
313.368	47.96
313.582	64.34
313.796	56.15
314.009	-3.24
314.223	97.11
314.437	101.2
314.651	133.97
314.864	19.29
315.078	31.57
315.292	-1.19
315.505	7
315.719	86.87
315.933	60.24
316.146	52.05
316.36	-11.43
316.573	76.63
316.787	111.44
317.001	52.05
317.214	-17.58
317.428	68.44
317.641	37.72
317.855	-5.29
318.068	15.19
318.282	50
318.495	93.01
318.709	31.57
318.922	125.78
319.136	88.92
319.349	193.36
319.563	66.39
319.776	7
319.99	-29.87
320.203	50
320.417	27.48
320.63	64.34
320.843	101.2
321.057	41.81
321.27	50
321.483	93.01
321.697	111.44
321.91	58.2
322.124	60.24
322.337	27.48
322.55	-56.49
322.763	2.9
322.977	15.19
323.19	19.29
323.403	-15.53
323.617	41.81
323.83	84.82
324.043	-15.53
324.256	90.96
324.469	21.33
324.683	72.53
324.896	76.63
325.109	60.24
325.322	-56.49
325.535	41.81
325.748	11.09
325.962	11.09
326.175	41.81
326.388	82.77
326.601	56.15
326.814	33.62
327.027	13.14
327.24	90.96
327.453	-29.87
327.666	45.91
327.879	-13.48
328.092	-15.53
328.305	109.4
328.518	45.91
328.731	4.95
328.944	-7.34
329.157	15.19
329.37	9.05
329.583	123.73
329.796	54.1
330.009	-42.15
330.222	136.02
330.435	31.57
330.648	76.63
330.861	17.24
331.073	107.35
331.286	66.39
331.499	90.96
331.712	0.85
331.925	-15.53
332.138	109.4
332.35	78.68
332.563	4.95
332.776	117.59
332.989	-13.48
333.202	68.44
333.414	47.96
333.627	-3.24
333.84	62.29
334.053	45.91
334.265	-13.48
334.478	-15.53
334.691	2.9
334.903	68.44
335.116	-23.72
335.329	13.14
335.541	62.29
335.754	54.1
335.966	-64.68
336.179	23.38
336.392	29.52
336.604	0.85
336.817	11.09
337.029	82.77
337.242	43.86
337.454	76.63
337.667	17.24
337.88	25.43
338.092	25.43
338.305	123.73
338.517	13.14
338.729	93.01
338.942	156.5
339.154	27.48
339.367	-44.2
339.579	-21.67
339.792	25.43
340.004	84.82
340.217	64.34
340.429	66.39
340.641	2.9
340.854	76.63
341.066	52.05
341.278	70.48
341.491	166.74
341.703	47.96
341.915	9.05
342.128	45.91
342.34	90.96
342.552	17.24
342.764	70.48
342.977	109.4
343.189	95.06
343.401	7
343.613	13.14
343.826	29.52
344.038	-7.34
344.25	111.44
344.462	50
344.674	-1.19
344.886	74.58
345.099	103.25
345.311	19.29
345.523	15.19
345.735	-52.39
345.947	95.06
346.159	35.67
346.371	58.2
346.583	23.38
346.795	129.88
347.007	52.05
347.219	52.05
347.431	107.35
347.643	74.58
347.855	74.58
348.067	111.44
348.279	21.33
348.491	52.05
348.703	58.2
348.915	2.9
349.127	78.68
349.339	37.72
349.551	33.62
349.763	56.15
349.975	41.81
350.187	142.16
350.399	123.73
350.61	33.62
350.822	15.19
351.034	23.38
351.246	29.52
351.458	90.96
351.669	37.72
351.881	99.16
352.093	47.96
352.305	95.06
352.517	125.78
352.728	99.16
352.94	29.52
353.152	-3.24
353.363	35.67
353.575	111.44
353.787	70.48
353.999	76.63
354.21	101.2
354.422	11.09
354.633	-21.67
354.845	35.67
355.057	-31.91
355.268	70.48
355.48	72.53
355.692	-50.35
355.903	-1.19
356.115	4.95
356.326	2.9
356.538	68.44
356.749	4.95
356.961	119.64
357.172	-1.19
357.384	68.44
357.595	160.59
357.807	88.92
358.018	52.05
358.23	-3.24
358.441	101.2
358.653	138.07
358.864	11.09
359.075	-17.58
359.287	4.95
359.498	138.07
359.709	66.39
359.921	64.34
360.132	99.16
360.344	62.29
360.555	-27.82
360.766	4.95
360.977	7
361.189	121.68
361.4	4.95
361.611	41.81
361.823	99.16
362.034	68.44
362.245	-48.3
362.456	13.14
362.667	-15.53
362.879	17.24
363.09	52.05
363.301	111.44
363.512	45.91
363.723	4.95
363.935	-58.54
364.146	43.86
364.357	64.34
364.568	11.09
364.779	-13.48
364.99	27.48
365.201	39.76
365.412	125.78
365.623	-31.91
365.834	-11.43
366.045	-17.58
366.256	50
366.467	52.05
366.678	4.95
366.889	64.34
367.1	45.91
367.311	41.81
367.522	58.2
367.733	78.68
367.944	45.91
368.155	70.48
368.366	41.81
368.577	58.2
368.788	99.16
368.999	-31.91
369.209	11.09
369.42	166.74
369.631	152.4
369.842	37.72
370.053	93.01
370.264	183.12
370.474	43.86
370.685	39.76
370.896	-13.48
371.107	119.64
371.317	13.14
371.528	9.05
371.739	95.06
371.95	80.72
372.16	74.58
372.371	70.48
372.582	66.39
372.792	-33.96
373.003	119.64
373.214	66.39
373.424	37.72
373.635	0.85
373.846	164.69
374.056	2.9
374.267	33.62
374.477	56.15
374.688	15.19
374.898	58.2
375.109	111.44
375.319	58.2
375.53	117.59
375.74	80.72
375.951	52.05
376.161	125.78
376.372	117.59
376.582	-29.87
376.793	37.72
377.003	-23.72
377.214	21.33
377.424	7
377.635	88.92
377.845	43.86
378.055	86.87
378.266	9.05
378.476	41.81
378.686	62.29
378.897	56.15
379.107	140.12
379.317	117.59
379.528	23.38
379.738	97.11
379.948	41.81
380.158	123.73
380.369	-1.19
380.579	25.43
380.789	58.2
380.999	64.34
381.21	121.68
381.42	121.68
381.63	47.96
381.84	86.87
382.05	88.92
382.261	33.62
382.471	111.44
382.681	45.91
382.891	90.96
383.101	72.53
383.311	-7.34
383.521	7
383.731	156.5
383.941	109.4
384.151	86.87
384.361	72.53
384.571	84.82
384.781	84.82
384.991	152.4
385.201	115.54
385.411	121.68
385.621	45.91
385.831	72.53
386.041	62.29
386.251	23.38
386.461	131.92
386.671	-52.39
386.881	78.68
387.091	86.87
387.301	58.2
387.511	74.58
387.72	166.74
387.93	90.96
388.14	-48.3
388.35	101.2
388.56	74.58
388.769	101.2
388.979	-21.67
389.189	-3.24
389.399	43.86
389.609	15.19
389.818	50
390.028	86.87
390.238	52.05
390.447	37.72
390.657	66.39
390.867	62.29
391.076	17.24
391.286	60.24
391.496	58.2
391.705	64.34
391.915	58.2
392.125	99.16
392.334	-5.29
392.544	101.2
392.753	47.96
392.963	45.91
393.172	86.87
393.382	21.33
393.591	80.72
393.801	7
394.01	121.68
394.22	31.57
394.429	97.11
394.639	41.81
394.848	82.77
395.058	105.3
395.267	9.05
395.477	113.49
395.686	33.62
395.895	78.68
396.105	203.6
396.314	97.11
396.524	62.29
396.733	82.77
396.942	107.35
397.152	43.86
397.361	27.48
397.57	107.35
397.78	84.82
397.989	113.49
398.198	193.36
398.407	64.34
398.617	68.44
398.826	15.19
399.035	37.72
399.244	74.58
399.453	76.63
399.663	82.77
399.872	154.45
400.081	82.77
400.29	101.2
400.499	62.29
400.708	154.45
400.917	39.76
401.127	133.97
401.336	62.29
401.545	185.17
401.754	101.2
401.963	33.62
402.172	90.96
402.381	60.24
402.59	62.29
402.799	136.02
403.008	97.11
403.217	121.68
403.426	150.36
403.635	33.62
403.844	136.02
404.053	66.39
404.262	90.96
404.471	148.31
404.68	72.53
404.888	144.21
405.097	107.35
405.306	199.51
405.515	146.26
405.724	101.2
405.933	172.88
406.142	107.35
406.35	224.08
406.559	99.16
406.768	93.01
406.977	185.17
407.185	201.55
407.394	195.41
407.603	56.15
407.812	103.25
408.02	162.64
408.229	136.02
408.438	166.74
408.646	156.5
408.855	213.84
409.064	224.08
409.272	217.94
409.481	144.21
409.69	193.36
409.898	152.4
410.107	271.19
410.315	285.52
410.524	172.88
410.733	121.68
410.941	123.73
411.15	287.57
411.358	277.33
411.567	289.62
411.775	289.62
411.984	277.33
412.192	367.44
412.401	256.85
412.609	277.33
412.818	340.82
413.026	334.67
413.234	318.29
413.443	400.21
413.651	314.19
413.86	373.58
414.068	435.02
414.276	451.41
414.485	398.16
414.693	486.22
414.901	480.08
415.11	449.36
415.318	430.93
415.526	516.94
415.734	582.48
415.943	523.09
416.151	541.52
416.359	500.56
416.567	596.81
416.776	621.39
416.984	688.97
417.192	711.5
417.4	611.15
417.608	602.96
417.817	615.24
418.025	748.36
418.233	807.75
418.441	721.74
418.649	688.97
418.857	748.36
419.065	789.32
419.273	867.14
419.481	799.56
419.689	961.35
419.897	951.11
420.105	932.68
420.313	1014.6
420.521	1121.09
420.729	1061.7
420.937	944.97
421.145	975.69
421.353	1090.37
421.561	1164.1
421.769	1153.86
421.977	1182.53
422.185	1303.36
422.393	1383.23
422.601	1436.48
422.809	1403.71
423.017	1407.81
423.224	1473.34
423.432	1573.69
423.64	1600.32
423.848	1794.87
424.056	1620.8
424.263	1829.69
424.471	1721.15
424.679	1721.15
424.887	1821.5
425.094	1862.46
425.302	1956.66
425.51	2032.44
425.718	2112.31
425.925	2106.17
426.133	2239.28
426.341	2452.27
426.548	2427.7
426.756	2399.02
426.964	2505.52
427.171	2562.86
427.379	2618.16
427.586	2628.4
427.794	2837.29
428.001	2880.3
428.209	2900.78
428.417	3072.81
428.624	3154.73
428.832	3121.96
429.039	3150.63
429.247	3136.29
429.454	3568.41
429.662	3685.15
429.869	3433.25
430.076	3760.92
430.284	3617.57
430.491	3795.74
430.699	3941.15
430.906	4023.06
431.114	3932.95
431.321	4119.32
431.528	4199.19
431.736	4496.14
431.943	4565.78
432.15	4479.76
432.358	4651.79
432.565	4952.84
432.772	4778.76
432.979	5184.26
433.187	5110.54
433.394	5294.85
433.601	5579.52
433.808	5604.1
434.016	5495.55
434.223	5817.08
434.43	6093.56
434.637	5888.76
434.844	6447.86
435.052	6392.56
435.259	6380.28
435.466	6568.69
435.673	6503.15
435.88	6648.56
436.087	7221.99
436.294	7320.29
436.501	7193.32
436.708	7129.83
436.915	7381.73
437.122	7965.4
437.329	7531.23
437.537	7979.74
437.743	7906.01
437.95	7998.17
438.157	8534.74
438.364	8630.99
438.571	8680.14
438.778	8784.59
438.985	9462.47
439.192	9149.13
439.399	9513.67
439.606	9335.49
439.813	9884.35
440.02	10418.87
440.227	10359.48
440.433	10040
440.64	10326.71
440.847	10355.38
441.054	10750.64
441.261	11438.76
441.467	11225.77
441.674	11281.07
441.881	11924.13
442.088	11684.52
442.294	11715.23
442.501	12139.16
442.708	12294.81
442.914	12784.27
443.121	13281.93
443.328	12737.17
443.534	13996.67
443.741	13408.9
443.948	13406.86
444.154	14117.5
444.361	14140.03
444.568	14357.11
444.774	14312.06
444.981	14262.91
445.187	14856.82
445.394	15374.95
445.6	15258.22
445.807	16556.63
446.013	16087.65
446.22	16425.56
446.426	16835.16
446.633	17308.24
446.839	17818.18
447.046	16869.97
447.252	17689.16
447.459	17723.97
447.665	18133.57
447.871	18604.6
448.078	19536.43
448.284	18387.52
448.491	19161.65
448.697	19894.82
448.903	19892.77
449.11	20265.5
449.316	19788.33
449.522	20341.28
449.728	20781.59
449.935	20955.67
450.141	20795.93
450.347	21436.94
450.553	20929.05
450.76	20953.62
450.966	21746.19
451.172	21533.2
451.378	21920.26
451.584	21506.57
451.791	22102.53
451.997	22102.53
452.203	22516.22
452.409	22327.81
452.615	22264.32
452.821	21576.2
453.027	21201.43
453.233	22233.6
453.44	21137.94
453.646	21608.97
453.852	21940.74
454.058	22170.12
454.264	21520.91
454.47	21891.59
454.676	21387.79
454.882	22184.45
455.088	20148.77
455.294	20546.08
455.5	20918.81
455.705	21109.27
455.911	20326.94
456.117	19913.25
456.323	19493.42
456.529	18428.48
456.735	19450.41
456.941	19018.29
457.147	18686.52
457.352	17857.09
457.558	17648.2
457.764	17885.76
457.97	17369.68
458.176	16955.99
458.381	17121.87
458.587	16185.95
458.793	16177.76
458.999	15391.34
459.204	16308.83
459.41	15858.28
459.616	15116.91
459.821	14967.41
460.027	14772.85
460.233	14500.47
460.438	13783.68
460.644	14117.5
460.85	13255.31
461.055	13003.41
461.261	13075.09
461.466	12010.14
461.672	11752.1
461.878	12788.37
462.083	11762.34
462.289	11356.84
462.494	11362.98
462.7	10900.14
462.905	10570.42
463.111	11006.64
463.316	11012.78
463.522	10728.11
463.727	10717.87
463.932	10650.29
464.138	10701.49
464.343	10685.11
464.549	10513.08
464.754	10689.2
464.959	10422.97
465.165	10621.62
465.37	10089.15
465.575	9802.43
465.781	9970.37
465.986	10271.42
466.191	9798.34
466.397	9859.77
466.602	9114.31
466.807	9495.24
467.012	9667.27
467.218	9609.92
467.423	9525.96
467.628	9585.35
467.833	9749.18
468.038	9532.1
468.244	9075.4
468.449	9614.02
468.654	9206.47
468.859	9206.47
