Data from USB4F104151__24__12-11-42-459.txt Node

Date: Fri Mar 14 12:11:42 EDT 2025
User: louis
Spectrometer: USB4F10415
Trigger mode: 4
Integration Time (sec): 5.000000E-2
Scans to average: 1
Electric dark correction enabled: true
Nonlinearity correction enabled: false
Boxcar width: 0
XAxis mode: Wavelengths
Number of Pixels in Spectrum: 3648
>>>>>Begin Spectral Data<<<<<
178.204	-311.63
178.424	-311.63
178.644	-311.63
178.864	-229.71
179.084	-254.29
179.304	42.67
179.524	-20.82
179.744	-4.44
179.964	34.47
180.184	-2.39
180.404	-33.11
180.624	-31.06
180.844	-47.44
181.064	-29.01
181.283	87.72
181.503	-55.64
181.723	59.05
181.943	-84.31
182.163	36.52
182.383	18.09
182.602	40.62
182.822	36.52
183.042	32.43
183.262	-4.44
183.482	-2.39
183.701	1.71
183.921	65.19
184.141	-16.73
184.361	46.76
184.58	-80.21
184.8	36.52
185.02	-26.96
185.239	18.09
185.459	24.23
185.679	26.28
185.898	-0.34
186.118	79.53
186.338	-57.68
186.557	36.52
186.777	20.14
186.997	-72.02
187.216	22.19
187.436	81.58
187.655	38.57
187.875	-14.68
188.095	65.19
188.314	40.62
188.534	83.63
188.753	-55.64
188.973	11.95
189.192	50.86
189.412	18.09
189.631	32.43
189.851	-41.3
190.07	44.71
190.29	-8.53
190.509	-31.06
190.729	44.71
190.948	48.81
191.168	163.5
191.387	75.43
191.607	-24.92
191.826	1.71
192.045	-26.96
192.265	11.95
192.484	-45.4
192.704	73.39
192.923	-53.59
193.142	110.25
193.362	34.47
193.581	65.19
193.8	126.63
194.02	-31.06
194.239	22.19
194.458	-14.68
194.678	59.05
194.897	-16.73
195.116	59.05
195.335	20.14
195.555	-0.34
195.774	-6.49
195.993	61.1
196.212	24.23
196.432	20.14
196.651	-2.39
196.87	22.19
197.089	165.54
197.308	1.71
197.528	18.09
197.747	-41.3
197.966	79.53
198.185	54.95
198.404	-31.06
198.623	9.9
198.842	7.85
199.062	95.91
199.281	61.1
199.5	-4.44
199.719	63.15
199.938	5.8
200.157	36.52
200.376	54.95
200.595	83.63
200.814	24.23
201.033	32.43
201.252	136.87
201.471	-20.82
201.69	16.04
201.909	54.95
202.128	83.63
202.347	48.81
202.566	28.33
202.785	69.29
203.004	-12.63
203.223	165.54
203.442	65.19
203.661	5.8
203.879	16.04
204.098	95.91
204.317	-76.12
204.536	42.67
204.755	34.47
204.974	18.09
205.193	38.57
205.411	108.2
205.63	11.95
205.849	77.48
206.068	52.91
206.287	3.75
206.505	42.67
206.724	-29.01
206.943	26.28
207.162	9.9
207.381	77.48
207.599	7.85
207.818	-8.53
208.037	-10.58
208.255	24.23
208.474	-39.25
208.693	26.28
208.911	-72.02
209.13	32.43
209.349	1.71
209.567	18.09
209.786	48.81
210.005	46.76
210.223	26.28
210.442	11.95
210.661	52.91
210.879	-6.49
211.098	-29.01
211.316	138.92
211.535	61.1
211.753	42.67
211.972	114.34
212.191	-29.01
212.409	26.28
212.628	-4.44
212.846	-24.92
213.065	20.14
213.283	36.52
213.502	-20.82
213.72	-4.44
213.938	32.43
214.157	38.57
214.375	34.47
214.594	-10.58
214.812	9.9
215.031	-26.96
215.249	3.75
215.467	1.71
215.686	73.39
215.904	79.53
216.122	13.99
216.341	-22.87
216.559	59.05
216.778	102.06
216.996	13.99
217.214	65.19
217.432	-72.02
217.651	-65.88
217.869	-37.2
218.087	38.57
218.306	-24.92
218.524	40.62
218.742	-10.58
218.96	89.77
219.179	3.75
219.397	-2.39
219.615	59.05
219.833	83.63
220.051	-16.73
220.27	-47.44
220.488	65.19
220.706	32.43
220.924	13.99
221.142	-12.63
221.36	20.14
221.578	73.39
221.796	13.99
222.015	-4.44
222.233	18.09
222.451	34.47
222.669	-78.16
222.887	24.23
223.105	-24.92
223.323	22.19
223.541	-92.5
223.759	50.86
223.977	-47.44
224.195	38.57
224.413	57
224.631	79.53
224.849	61.1
225.067	136.87
225.285	9.9
225.503	-6.49
225.721	-78.16
225.939	-49.49
226.157	79.53
226.375	106.15
226.592	28.33
226.81	20.14
227.028	61.1
227.246	165.54
227.464	-53.59
227.682	52.91
227.9	42.67
228.117	40.62
228.335	-57.68
228.553	-6.49
228.771	44.71
228.989	87.72
229.206	32.43
229.424	93.87
229.642	-10.58
229.86	-35.16
230.077	81.58
230.295	52.91
230.513	167.59
230.731	9.9
230.948	71.34
231.166	77.48
231.384	-61.78
231.601	3.75
231.819	63.15
232.037	-33.11
232.254	-14.68
232.472	-6.49
232.689	-2.39
232.907	54.95
233.125	71.34
233.342	-96.6
233.56	42.67
233.777	-22.87
233.995	24.23
234.213	106.15
234.43	40.62
234.648	61.1
234.865	32.43
235.083	52.91
235.3	-26.96
235.518	9.9
235.735	73.39
235.953	61.1
236.17	-31.06
236.388	-31.06
236.605	-8.53
236.822	104.11
237.04	30.38
237.257	18.09
237.475	-39.25
237.692	9.9
237.909	28.33
238.127	-29.01
238.344	67.24
238.562	32.43
238.779	-33.11
238.996	13.99
239.214	16.04
239.431	7.85
239.648	-45.4
239.865	32.43
240.083	69.29
240.3	34.47
240.517	38.57
240.735	30.38
240.952	91.82
241.169	3.75
241.386	-31.06
241.603	24.23
241.821	-14.68
242.038	93.87
242.255	67.24
242.472	-31.06
242.689	-12.63
242.907	44.71
243.124	-4.44
243.341	-0.34
243.558	1.71
243.775	-43.35
243.992	-106.84
244.209	-8.53
244.426	87.72
244.643	71.34
244.86	-67.92
245.078	36.52
245.295	-4.44
245.512	34.47
245.729	30.38
245.946	1.71
246.163	-26.96
246.38	-37.2
246.597	61.1
246.814	26.28
247.031	-6.49
247.248	28.33
247.464	52.91
247.681	11.95
247.898	63.15
248.115	50.86
248.332	5.8
248.549	18.09
248.766	118.44
248.983	42.67
249.2	-4.44
249.417	-0.34
249.633	-4.44
249.85	83.63
250.067	34.47
250.284	18.09
250.501	34.47
250.717	32.43
250.934	-63.83
251.151	13.99
251.368	-43.35
251.585	93.87
251.801	38.57
252.018	-33.11
252.235	26.28
252.451	-14.68
252.668	16.04
252.885	102.06
253.102	-29.01
253.318	-6.49
253.535	5.8
253.752	18.09
253.968	26.28
254.185	7.85
254.401	-6.49
254.618	32.43
254.835	-41.3
255.051	118.44
255.268	36.52
255.484	57
255.701	54.95
255.917	120.49
256.134	16.04
256.351	-4.44
256.567	-72.02
256.784	52.91
257	44.71
257.217	7.85
257.433	46.76
257.65	44.71
257.866	-14.68
258.082	-49.49
258.299	-26.96
258.515	-24.92
258.732	16.04
258.948	24.23
259.165	57
259.381	3.75
259.597	69.29
259.814	24.23
260.03	-61.78
260.246	-51.54
260.463	52.91
260.679	77.48
260.895	-29.01
261.112	85.67
261.328	9.9
261.544	30.38
261.761	87.72
261.977	-2.39
262.193	-55.64
262.409	28.33
262.626	3.75
262.842	52.91
263.058	-80.21
263.274	59.05
263.49	42.67
263.707	26.28
263.923	16.04
264.139	32.43
264.355	-24.92
264.571	120.49
264.787	32.43
265.004	54.95
265.22	44.71
265.436	42.67
265.652	61.1
265.868	28.33
266.084	79.53
266.3	5.8
266.516	26.28
266.732	16.04
266.948	59.05
267.164	38.57
267.38	77.48
267.596	40.62
267.812	112.3
268.028	46.76
268.244	-57.68
268.46	18.09
268.676	50.86
268.892	18.09
269.108	-47.44
269.324	-39.25
269.54	-26.96
269.756	44.71
269.972	-59.73
270.188	65.19
270.403	-82.26
270.619	-31.06
270.835	-12.63
271.051	-39.25
271.267	-4.44
271.483	-63.83
271.698	50.86
271.914	63.15
272.13	75.43
272.346	36.52
272.562	-53.59
272.777	36.52
272.993	-29.01
273.209	42.67
273.425	24.23
273.64	-43.35
273.856	42.67
274.072	-106.84
274.287	22.19
274.503	59.05
274.719	-24.92
274.934	-4.44
275.15	-47.44
275.366	-35.16
275.581	-2.39
275.797	16.04
276.012	50.86
276.228	-78.16
276.444	-0.34
276.659	42.67
276.875	-29.01
277.09	-43.35
277.306	-16.73
277.521	5.8
277.737	-20.82
277.952	-16.73
278.168	24.23
278.383	30.38
278.599	46.76
278.814	50.86
279.03	28.33
279.245	52.91
279.461	40.62
279.676	-4.44
279.892	-29.01
280.107	-63.83
280.322	44.71
280.538	3.75
280.753	9.9
280.969	11.95
281.184	11.95
281.399	69.29
281.615	-33.11
281.83	81.58
282.045	-78.16
282.26	-90.45
282.476	28.33
282.691	32.43
282.906	-8.53
283.122	50.86
283.337	-33.11
283.552	-12.63
283.767	-63.83
283.983	112.3
284.198	28.33
284.413	46.76
284.628	-8.53
284.843	-59.73
285.058	59.05
285.274	3.75
285.489	-74.07
285.704	87.72
285.919	-55.64
286.134	-65.88
286.349	-59.73
286.564	16.04
286.779	46.76
286.995	-39.25
287.21	-55.64
287.425	26.28
287.64	11.95
287.855	-26.96
288.07	-82.26
288.285	36.52
288.5	38.57
288.715	-18.77
288.93	22.19
289.145	-10.58
289.36	-39.25
289.575	-45.4
289.79	-20.82
290.004	34.47
290.219	97.96
290.434	-24.92
290.649	13.99
290.864	40.62
291.079	-43.35
291.294	16.04
291.509	9.9
291.724	-2.39
291.938	24.23
292.153	-24.92
292.368	-2.39
292.583	22.19
292.798	63.15
293.012	57
293.227	-29.01
293.442	-55.64
293.657	7.85
293.871	69.29
294.086	-0.34
294.301	11.95
294.516	32.43
294.73	24.23
294.945	-8.53
295.16	-0.34
295.374	46.76
295.589	61.1
295.804	-12.63
296.018	36.52
296.233	63.15
296.447	3.75
296.662	7.85
296.877	85.67
297.091	44.71
297.306	3.75
297.52	36.52
297.735	28.33
297.949	26.28
298.164	40.62
298.378	18.09
298.593	-59.73
298.807	-98.64
299.022	34.47
299.236	16.04
299.451	-16.73
299.665	18.09
299.88	61.1
300.094	-14.68
300.309	52.91
300.523	30.38
300.737	-4.44
300.952	61.1
301.166	1.71
301.381	-76.12
301.595	-14.68
301.809	-20.82
302.024	-35.16
302.238	5.8
302.452	57
302.667	-26.96
302.881	67.24
303.095	50.86
303.309	22.19
303.524	32.43
303.738	63.15
303.952	-14.68
304.166	42.67
304.381	-16.73
304.595	63.15
304.809	-22.87
305.023	75.43
305.237	1.71
305.452	-14.68
305.666	-6.49
305.88	32.43
306.094	83.63
306.308	18.09
306.522	73.39
306.736	-14.68
306.95	18.09
307.164	36.52
307.379	-0.34
307.593	50.86
307.807	40.62
308.021	46.76
308.235	28.33
308.449	-22.87
308.663	57
308.877	114.34
309.091	-59.73
309.305	34.47
309.519	-29.01
309.733	114.34
309.947	-76.12
310.161	11.95
310.374	32.43
310.588	38.57
310.802	-24.92
311.016	-53.59
311.23	-4.44
311.444	-2.39
311.658	52.91
311.872	52.91
312.085	50.86
312.299	100.01
312.513	-4.44
312.727	18.09
312.941	-18.77
313.154	73.39
313.368	67.24
313.582	50.86
313.796	44.71
314.009	3.75
314.223	-0.34
314.437	-14.68
314.651	16.04
314.864	-12.63
315.078	-45.4
315.292	-102.74
315.505	-6.49
315.719	20.14
315.933	63.15
316.146	-6.49
316.36	-119.12
316.573	104.11
316.787	24.23
317.001	34.47
317.214	-39.25
317.428	-0.34
317.641	-57.68
317.855	-14.68
318.068	-18.77
318.282	9.9
318.495	140.97
318.709	67.24
318.922	-45.4
319.136	71.34
319.349	24.23
319.563	67.24
319.776	-14.68
319.99	-61.78
320.203	44.71
320.417	-16.73
320.63	57
320.843	163.5
321.057	16.04
321.27	-12.63
321.483	16.04
321.697	42.67
321.91	20.14
322.124	-49.49
322.337	61.1
322.55	13.99
322.763	-8.53
322.977	34.47
323.19	9.9
323.403	16.04
323.617	-26.96
323.83	16.04
324.043	-14.68
324.256	-20.82
324.469	16.04
324.683	91.82
324.896	61.1
325.109	24.23
325.322	22.19
325.535	93.87
325.748	38.57
325.962	32.43
326.175	18.09
326.388	-2.39
326.601	57
326.814	3.75
327.027	52.91
327.24	124.58
327.453	-35.16
327.666	44.71
327.879	54.95
328.092	-41.3
328.305	65.19
328.518	-6.49
328.731	5.8
328.944	9.9
329.157	75.43
329.37	-104.79
329.583	140.97
329.796	138.92
330.009	-41.3
330.222	65.19
330.435	5.8
330.648	7.85
330.861	16.04
331.073	-0.34
331.286	97.96
331.499	95.91
331.712	3.75
331.925	34.47
332.138	22.19
332.35	46.76
332.563	11.95
332.776	95.91
332.989	-18.77
333.202	-33.11
333.414	24.23
333.627	24.23
333.84	-18.77
334.053	-2.39
334.265	-16.73
334.478	11.95
334.691	-37.2
334.903	18.09
335.116	16.04
335.329	67.24
335.541	61.1
335.754	116.39
335.966	57
336.179	-47.44
336.392	-14.68
336.604	13.99
336.817	95.91
337.029	-22.87
337.242	9.9
337.454	52.91
337.667	-2.39
337.88	91.82
338.092	-33.11
338.305	-37.2
338.517	-61.78
338.729	1.71
338.942	28.33
339.154	-0.34
339.367	-10.58
339.579	91.82
339.792	-74.07
340.004	140.97
340.217	24.23
340.429	9.9
340.641	-59.73
340.854	44.71
341.066	46.76
341.278	38.57
341.491	100.01
341.703	54.95
341.915	-14.68
342.128	59.05
342.34	-6.49
342.552	44.71
342.764	-31.06
342.977	7.85
343.189	106.15
343.401	24.23
343.613	-39.25
343.826	-14.68
344.038	-29.01
344.25	69.29
344.462	-14.68
344.674	46.76
344.886	18.09
345.099	7.85
345.311	18.09
345.523	24.23
345.735	-18.77
345.947	65.19
346.159	77.48
346.371	44.71
346.583	-4.44
346.795	130.73
347.007	-37.2
347.219	54.95
347.431	-49.49
347.643	93.87
347.855	-39.25
348.067	104.11
348.279	-16.73
348.491	69.29
348.703	-59.73
348.915	34.47
349.127	30.38
349.339	97.96
349.551	-18.77
349.763	54.95
349.975	61.1
350.187	59.05
350.399	77.48
350.61	46.76
350.822	-6.49
351.034	63.15
351.246	65.19
351.458	61.1
351.669	26.28
351.881	48.81
352.093	130.73
352.305	22.19
352.517	48.81
352.728	114.34
352.94	46.76
353.152	7.85
353.363	-57.68
353.575	-2.39
353.787	67.24
353.999	-84.31
354.21	118.44
354.422	28.33
354.633	-49.49
354.845	73.39
355.057	108.2
355.268	54.95
355.48	-14.68
355.692	-2.39
355.903	44.71
356.115	-39.25
356.326	-20.82
356.538	97.96
356.749	32.43
356.961	106.15
357.172	-24.92
357.384	-22.87
357.595	149.16
357.807	-29.01
358.018	5.8
358.23	-12.63
358.441	108.2
358.653	-10.58
358.864	48.81
359.075	-24.92
359.287	61.1
359.498	38.57
359.709	42.67
359.921	20.14
360.132	79.53
360.344	57
360.555	26.28
360.766	79.53
360.977	26.28
361.189	40.62
361.4	77.48
361.611	71.34
361.823	50.86
362.034	38.57
362.245	13.99
362.456	50.86
362.667	54.95
362.879	-4.44
363.09	71.34
363.301	118.44
363.512	71.34
363.723	1.71
363.935	-20.82
364.146	108.2
364.357	5.8
364.568	24.23
364.779	-29.01
364.99	57
365.201	28.33
365.412	57
365.623	-20.82
365.834	71.34
366.045	-2.39
366.256	59.05
366.467	30.38
366.678	3.75
366.889	89.77
367.1	-55.64
367.311	46.76
367.522	-24.92
367.733	54.95
367.944	-33.11
368.155	-8.53
368.366	69.29
368.577	83.63
368.788	57
368.999	-0.34
369.209	83.63
369.42	177.83
369.631	91.82
369.842	-6.49
370.053	-8.53
370.264	81.58
370.474	-16.73
370.685	85.67
370.896	-65.88
371.107	57
371.317	-0.34
371.528	16.04
371.739	42.67
371.95	5.8
372.16	26.28
372.371	42.67
372.582	34.47
372.792	7.85
373.003	32.43
373.214	1.71
373.424	81.58
373.635	81.58
373.846	61.1
374.056	61.1
374.267	11.95
374.477	54.95
374.688	-12.63
374.898	44.71
375.109	73.39
375.319	71.34
375.53	50.86
375.74	-6.49
375.951	16.04
376.161	-0.34
376.372	50.86
376.582	-29.01
376.793	24.23
377.003	54.95
377.214	36.52
377.424	24.23
377.635	7.85
377.845	46.76
378.055	65.19
378.266	34.47
378.476	13.99
378.686	5.8
378.897	-35.16
379.107	65.19
379.317	-4.44
379.528	-39.25
379.738	77.48
379.948	-53.59
380.158	54.95
380.369	50.86
380.579	-24.92
380.789	11.95
380.999	38.57
381.21	34.47
381.42	132.78
381.63	57
381.84	30.38
382.05	28.33
382.261	204.46
382.471	79.53
382.681	11.95
382.891	163.5
383.101	20.14
383.311	5.8
383.521	-0.34
383.731	65.19
383.941	73.39
384.151	9.9
384.361	67.24
384.571	32.43
384.781	91.82
384.991	61.1
385.201	124.58
385.411	-35.16
385.621	79.53
385.831	-33.11
386.041	59.05
386.251	83.63
386.461	79.53
386.671	69.29
386.881	3.75
387.091	-24.92
387.301	81.58
387.511	50.86
387.72	73.39
387.93	1.71
388.14	1.71
388.35	32.43
388.56	38.57
388.769	-4.44
388.979	30.38
389.189	-16.73
389.399	65.19
389.609	32.43
389.818	13.99
390.028	63.15
390.238	73.39
390.447	1.71
390.657	-0.34
390.867	112.3
391.076	48.81
391.286	140.97
391.496	13.99
391.705	5.8
391.915	28.33
392.125	50.86
392.334	20.14
392.544	30.38
392.753	-33.11
392.963	38.57
393.172	110.25
393.382	54.95
393.591	155.3
393.801	28.33
394.01	75.43
394.22	34.47
394.429	48.81
394.639	71.34
394.848	50.86
395.058	71.34
395.267	16.04
395.477	104.11
395.686	77.48
395.895	71.34
396.105	124.58
396.314	183.98
396.524	102.06
396.733	71.34
396.942	67.24
397.152	173.74
397.361	100.01
397.57	18.09
397.78	28.33
397.989	40.62
398.198	143.02
398.407	63.15
398.617	48.81
398.826	18.09
399.035	34.47
399.244	87.72
399.453	73.39
399.663	114.34
399.872	40.62
400.081	50.86
400.29	159.4
400.499	-2.39
400.708	181.93
400.917	102.06
401.127	93.87
401.336	95.91
401.545	171.69
401.754	110.25
401.963	108.2
402.172	114.34
402.381	44.71
402.59	104.11
402.799	132.78
403.008	59.05
403.217	138.92
403.426	173.74
403.635	95.91
403.844	67.24
404.053	145.06
404.262	116.39
404.471	212.65
404.68	46.76
404.888	106.15
405.097	159.4
405.306	132.78
405.515	196.26
405.724	153.26
405.933	192.17
406.142	118.44
406.35	231.08
406.559	110.25
406.768	126.63
406.977	202.41
407.185	192.17
407.394	198.31
407.603	136.87
407.812	208.55
408.02	198.31
408.229	171.69
408.438	210.6
408.646	190.12
408.855	206.5
409.064	233.13
409.272	192.17
409.481	247.46
409.69	229.03
409.898	263.85
410.107	259.75
410.315	231.08
410.524	190.12
410.733	347.81
410.941	304.81
411.15	382.63
411.358	345.77
411.567	384.68
411.775	321.19
411.984	466.6
412.192	435.88
412.401	446.12
412.609	495.27
412.818	554.66
413.026	462.5
413.234	509.6
413.443	546.47
413.651	581.28
413.86	550.56
414.068	573.09
414.276	622.24
414.485	603.81
414.693	730.78
414.901	767.65
415.11	661.15
415.318	741.02
415.526	704.16
415.734	673.44
415.943	786.08
416.151	755.36
416.359	822.94
416.567	861.85
416.776	960.16
416.984	904.86
417.192	894.62
417.4	915.1
417.608	962.2
417.817	984.73
418.025	1076.89
418.233	1234.58
418.441	1138.33
418.649	1101.47
418.857	1201.82
419.065	1296.02
419.273	1312.41
419.481	1265.3
419.689	1453.72
419.897	1443.48
420.105	1443.48
420.313	1523.35
420.521	1564.31
420.729	1625.75
420.937	1728.14
421.145	1707.66
421.353	1848.97
421.561	1836.69
421.769	1906.32
421.977	1988.24
422.185	2014.86
422.393	2096.78
422.601	2156.17
422.809	2334.34
423.017	2258.57
423.224	2371.21
423.432	2514.56
423.64	2467.46
423.848	2829.95
424.056	2545.28
424.263	2901.63
424.471	2832
424.679	2965.12
424.887	3018.36
425.094	3116.67
425.302	3081.85
425.51	3163.77
425.718	3317.37
425.925	3464.82
426.133	3438.2
426.341	3661.43
426.548	3737.2
426.756	3972.72
426.964	3923.57
427.171	4105.84
427.379	4193.9
427.586	4300.39
427.794	4474.47
428.001	4808.29
428.209	4642.4
428.417	5002.85
428.624	4963.93
428.832	5144.16
429.039	5082.72
429.247	5088.86
429.454	5600.85
429.662	5832.27
429.869	5467.74
430.076	5824.08
430.284	5836.37
430.491	6100.56
430.699	6405.7
430.906	6309.45
431.114	6538.82
431.321	6676.04
431.528	6960.7
431.736	7102.01
431.943	7484.98
432.15	7374.39
432.358	7294.52
432.565	7945.78
432.772	7554.62
432.979	8310.32
433.187	8277.55
433.394	8414.76
433.601	9113.12
433.808	8889.89
434.016	8898.08
434.223	9242.14
434.43	9756.18
434.637	9602.58
434.844	10251.79
435.052	10485.26
435.259	10534.41
435.466	10591.75
435.673	10550.79
435.88	11081.22
436.087	11691.51
436.294	11744.76
436.501	11412.99
436.708	11548.15
436.915	12140.02
437.122	12858.85
437.329	12770.79
437.537	12955.11
437.743	13018.6
437.95	13161.95
438.157	13714.91
438.364	14247.38
438.571	14067.16
438.778	14327.25
438.985	15584.7
439.192	15312.32
439.399	15359.42
439.606	15060.42
439.813	15898.04
440.02	16962.98
440.227	16750
440.433	16414.13
440.64	17116.58
440.847	16635.31
441.054	17638.81
441.261	18625.93
441.467	18242.96
441.674	18509.2
441.881	19533.18
442.088	19258.76
442.294	19105.16
442.501	19455.36
442.708	20147.58
442.914	20483.44
443.121	21464.42
443.328	21290.34
443.534	22480.21
443.741	21826.91
443.948	21413.22
444.154	23457.09
444.361	23143.75
444.568	23297.35
444.774	23027.02
444.981	23620.93
445.187	24040.76
445.394	24855.86
445.6	25081.13
445.807	27360.52
446.013	26156.32
446.22	26533.14
446.426	27696.39
446.633	27684.1
446.839	28640.5
447.046	27514.12
447.252	29054.19
447.459	29267.18
447.665	28896.5
447.871	30244.06
448.078	31608.01
448.284	30211.29
448.491	30704.85
448.697	31739.08
448.903	32484.54
449.11	32943.28
449.316	32027.84
449.522	32976.05
449.728	33686.7
449.935	33911.97
450.141	34038.95
450.347	34383.01
450.553	33563.82
450.76	34088.1
450.966	34788.5
451.172	34858.13
451.378	35511.44
451.584	34663.58
451.791	35677.32
451.997	35247.25
452.203	36199.55
452.409	36476.03
452.615	36232.32
452.821	34608.28
453.027	34426.01
453.233	36220.03
453.44	34903.19
453.646	34993.3
453.852	34970.77
454.058	35708.04
454.264	34651.29
454.47	35251.34
454.676	34335.9
454.882	35685.51
455.088	32435.39
455.294	32974
455.5	33240.24
455.705	33533.1
455.911	32505.02
456.117	31743.17
456.323	31225.04
456.529	29461.74
456.735	31053.01
456.941	30190.81
457.147	29717.73
457.352	28706.04
457.558	28067.07
457.764	28589.3
457.97	27872.51
458.176	27346.19
458.381	26926.35
458.587	26015.01
458.793	25906.46
458.999	24218.94
459.204	26213.66
459.41	25451.81
459.616	23928.13
459.821	23856.45
460.027	23981.37
460.233	23176.52
460.438	22082.91
460.644	22482.26
460.85	21478.75
461.055	20974.95
461.261	20942.19
461.466	19367.3
461.672	18640.27
461.878	20020.6
462.083	18994.57
462.289	18355.6
462.494	18064.79
462.7	17384.87
462.905	17112.49
463.111	17595.81
463.316	17468.83
463.522	17307.04
463.727	17423.78
463.932	17286.56
464.138	17223.08
464.343	17280.42
464.549	16641.45
464.754	17071.53
464.959	17204.64
465.165	16772.52
465.37	16033.21
465.575	15623.61
465.781	16401.84
465.986	16442.8
466.191	16039.35
466.397	15705.53
466.602	15064.52
