Data from USB4F104151__48__12-12-14-406.txt Node

Date: Fri Mar 14 12:12:14 EDT 2025
User: louis
Spectrometer: USB4F10415
Trigger mode: 4
Integration Time (sec): 5.000000E-2
Scans to average: 1
Electric dark correction enabled: true
Nonlinearity correction enabled: false
Boxcar width: 0
XAxis mode: Wavelengths
Number of Pixels in Spectrum: 3648
>>>>>Begin Spectral Data<<<<<
178.204	-231.08
178.424	-231.08
178.644	-231.08
178.864	-239.27
179.084	-257.7
179.304	-65.19
179.524	-9.9
179.744	51.54
179.964	-24.23
180.184	4.44
180.404	74.07
180.624	-34.47
180.844	2.39
181.064	-9.9
181.283	53.59
181.503	-46.76
181.723	4.44
181.943	-61.1
182.163	106.84
182.383	-40.62
182.602	51.54
182.822	119.12
183.042	12.63
183.262	-13.99
183.482	41.3
183.701	-54.95
183.921	18.77
184.141	31.06
184.361	121.17
184.58	22.87
184.8	4.44
185.02	0.34
185.239	100.69
185.459	-42.67
185.679	2.39
185.898	-89.77
186.118	51.54
186.338	57.68
186.557	16.73
186.777	-65.19
186.997	57.68
187.216	4.44
187.436	47.44
187.655	53.59
187.875	59.73
188.095	14.68
188.314	74.07
188.534	16.73
188.753	8.53
188.973	133.46
189.192	100.69
189.412	20.82
189.631	-9.9
189.851	74.07
190.07	-3.75
190.29	29.01
190.509	-11.95
190.729	-97.96
190.948	69.97
191.168	188.75
191.387	51.54
191.607	57.68
191.826	33.11
192.045	0.34
192.265	18.77
192.484	-44.71
192.704	33.11
192.923	-67.24
193.142	178.51
193.362	33.11
193.581	33.11
193.8	88.4
194.02	45.4
194.239	-9.9
194.458	76.12
194.678	-5.8
194.897	63.83
195.116	10.58
195.335	76.12
195.555	35.16
195.774	39.25
195.993	43.35
196.212	35.16
196.432	6.49
196.651	31.06
196.87	-42.67
197.089	94.55
197.308	69.97
197.528	49.49
197.747	-9.9
197.966	8.53
198.185	14.68
198.404	16.73
198.623	84.31
198.842	12.63
199.062	47.44
199.281	155.99
199.5	-16.04
199.719	-1.71
199.938	63.83
200.157	67.92
200.376	31.06
200.595	65.88
200.814	8.53
201.033	-36.52
201.252	33.11
201.471	-30.38
201.69	82.26
201.909	16.73
202.128	110.93
202.347	-9.9
202.566	2.39
202.785	-61.1
203.004	2.39
203.223	149.84
203.442	12.63
203.661	22.87
203.879	26.96
204.098	55.64
204.317	-63.15
204.536	106.84
204.755	2.39
204.974	74.07
205.193	76.12
205.411	112.98
205.63	96.6
205.849	78.16
206.068	158.03
206.287	35.16
206.505	53.59
206.724	0.34
206.943	-46.76
207.162	-48.81
207.381	41.3
207.599	43.35
207.818	6.49
208.037	-30.38
208.255	45.4
208.474	-22.19
208.693	16.73
208.911	102.74
209.13	-5.8
209.349	-13.99
209.567	47.44
209.786	121.17
210.005	82.26
210.223	53.59
210.442	-3.75
210.661	102.74
210.879	22.87
211.098	-24.23
211.316	37.2
211.535	51.54
211.753	86.36
211.972	53.59
212.191	104.79
212.409	65.88
212.628	57.68
212.846	-24.23
213.065	29.01
213.283	80.21
213.502	72.02
213.72	4.44
213.938	10.58
214.157	-1.71
214.375	53.59
214.594	-7.85
214.812	94.55
215.031	41.3
215.249	6.49
215.467	98.64
215.686	53.59
215.904	31.06
216.122	12.63
216.341	45.4
216.559	108.88
216.778	41.3
216.996	74.07
217.214	8.53
217.432	6.49
217.651	0.34
217.869	49.49
218.087	16.73
218.306	67.92
218.524	8.53
218.742	-3.75
218.96	41.3
219.179	2.39
219.397	84.31
219.615	90.45
219.833	92.5
220.051	10.58
220.27	-42.67
220.488	84.31
220.706	-13.99
220.924	-34.47
221.142	45.4
221.36	37.2
221.578	108.88
221.796	14.68
222.015	88.4
222.233	37.2
222.451	139.6
222.669	-22.19
222.887	94.55
223.105	16.73
223.323	31.06
223.541	-48.81
223.759	57.68
223.977	22.87
224.195	172.37
224.413	14.68
224.631	47.44
224.849	31.06
225.067	110.93
225.285	4.44
225.503	6.49
225.721	-50.86
225.939	14.68
226.157	16.73
226.375	129.36
226.592	-95.91
226.81	14.68
227.028	49.49
227.246	135.51
227.464	24.92
227.682	69.97
227.9	90.45
228.117	10.58
228.335	45.4
228.553	-46.76
228.771	-38.57
228.989	82.26
229.206	6.49
229.424	-20.14
229.642	37.2
229.86	59.73
230.077	102.74
230.295	14.68
230.513	72.02
230.731	-3.75
230.948	84.31
231.166	78.16
231.384	-5.8
231.601	24.92
231.819	78.16
232.037	6.49
232.254	-95.91
232.472	41.3
232.689	-40.62
232.907	24.92
233.125	10.58
233.342	31.06
233.56	88.4
233.777	14.68
233.995	61.78
234.213	98.64
234.43	-5.8
234.648	8.53
234.865	20.82
235.083	31.06
235.3	35.16
235.518	98.64
235.735	117.08
235.953	55.64
236.17	55.64
236.388	-91.82
236.605	10.58
236.822	74.07
237.04	94.55
237.257	20.82
237.475	0.34
237.692	47.44
237.909	86.36
238.127	20.82
238.344	47.44
238.562	76.12
238.779	16.73
238.996	6.49
239.214	59.73
239.431	125.27
239.648	-3.75
239.865	72.02
240.083	90.45
240.3	-16.04
240.517	74.07
240.735	26.96
240.952	131.41
241.169	45.4
241.386	47.44
241.603	16.73
241.821	-22.19
242.038	57.68
242.255	84.31
242.472	-30.38
242.689	47.44
242.907	129.36
243.124	0.34
243.341	84.31
243.558	10.58
243.775	45.4
243.992	2.39
244.209	49.49
244.426	131.41
244.643	4.44
244.86	-20.14
245.078	65.88
245.295	55.64
245.512	47.44
245.729	57.68
245.946	119.12
246.163	69.97
246.38	0.34
246.597	65.88
246.814	88.4
247.031	8.53
247.248	14.68
247.464	102.74
247.681	-30.38
247.898	-11.95
248.115	143.7
248.332	-30.38
248.549	86.36
248.766	127.32
248.983	65.88
249.2	14.68
249.417	-11.95
249.633	0.34
249.85	61.78
250.067	-42.67
250.284	14.68
250.501	-3.75
250.717	65.88
250.934	-11.95
251.151	35.16
251.368	6.49
251.585	98.64
251.801	-24.23
252.018	-20.14
252.235	31.06
252.451	-30.38
252.668	-5.8
252.885	127.32
253.102	43.35
253.318	35.16
253.535	55.64
253.752	-7.85
253.968	-48.81
254.185	-79.53
254.401	37.2
254.618	39.25
254.835	57.68
255.051	141.65
255.268	94.55
255.484	-65.19
255.701	37.2
255.917	24.92
256.134	6.49
256.351	29.01
256.567	43.35
256.784	53.59
257	-16.04
257.217	41.3
257.433	72.02
257.65	2.39
257.866	41.3
258.082	6.49
258.299	2.39
258.515	-20.14
258.732	-7.85
258.948	-36.52
259.165	4.44
259.381	8.53
259.597	-9.9
259.814	-67.24
260.03	78.16
260.246	72.02
260.463	78.16
260.679	106.84
260.895	8.53
261.112	57.68
261.328	2.39
261.544	8.53
261.761	84.31
261.977	33.11
262.193	-50.86
262.409	98.64
262.626	-44.71
262.842	-22.19
263.058	-38.57
263.274	47.44
263.49	80.21
263.707	141.65
263.923	29.01
264.139	-9.9
264.355	-9.9
264.571	61.78
264.787	102.74
265.004	65.88
265.22	-57
265.436	57.68
265.652	55.64
265.868	72.02
266.084	16.73
266.3	-75.43
266.516	-3.75
266.732	51.54
266.948	84.31
267.164	96.6
267.38	43.35
267.596	55.64
267.812	115.03
268.028	-24.23
268.244	0.34
268.46	24.92
268.676	-18.09
268.892	74.07
269.108	-69.29
269.324	-7.85
269.54	-79.53
269.756	63.83
269.972	-11.95
270.188	55.64
270.403	-11.95
270.619	26.96
270.835	94.55
271.051	16.73
271.267	57.68
271.483	2.39
271.698	145.75
271.914	55.64
272.13	-26.28
272.346	20.82
272.562	63.83
272.777	33.11
272.993	2.39
273.209	57.68
273.425	14.68
273.64	14.68
273.856	74.07
274.072	0.34
274.287	4.44
274.503	37.2
274.719	59.73
274.934	-9.9
275.15	-1.71
275.366	33.11
275.581	12.63
275.797	82.26
276.012	53.59
276.228	39.25
276.444	69.97
276.659	86.36
276.875	-3.75
277.09	53.59
277.306	69.97
277.521	76.12
277.737	31.06
277.952	98.64
278.168	14.68
278.383	49.49
278.599	31.06
278.814	2.39
279.03	65.88
279.245	76.12
279.461	33.11
279.676	145.75
279.892	-54.95
280.107	2.39
280.322	-5.8
280.538	55.64
280.753	-42.67
280.969	31.06
281.184	49.49
281.399	96.6
281.615	104.79
281.83	55.64
282.045	-83.63
282.26	-59.05
282.476	57.68
282.691	129.36
282.906	41.3
283.122	80.21
283.337	-40.62
283.552	57.68
283.767	45.4
283.983	31.06
284.198	100.69
284.413	0.34
284.628	-20.14
284.843	6.49
285.058	24.92
285.274	6.49
285.489	-46.76
285.704	33.11
285.919	37.2
286.134	49.49
286.349	31.06
286.564	-54.95
286.779	74.07
286.995	-26.28
287.21	-3.75
287.425	24.92
287.64	12.63
287.855	65.88
288.07	-36.52
288.285	43.35
288.5	94.55
288.715	94.55
288.93	24.92
289.145	0.34
289.36	67.92
289.575	-1.71
289.79	94.55
290.004	67.92
290.219	51.54
290.434	33.11
290.649	39.25
290.864	94.55
291.079	-28.33
291.294	41.3
291.509	76.12
291.724	90.45
291.938	-5.8
292.153	55.64
292.368	24.92
292.583	4.44
292.798	51.54
293.012	12.63
293.227	31.06
293.442	-46.76
293.657	63.83
293.871	67.92
294.086	69.97
294.301	76.12
294.516	84.31
294.73	14.68
294.945	-13.99
295.16	47.44
295.374	145.75
295.589	84.31
295.804	14.68
296.018	90.45
296.233	139.6
296.447	39.25
296.662	31.06
296.877	8.53
297.091	102.74
297.306	-52.91
297.52	12.63
297.735	39.25
297.949	29.01
298.164	2.39
298.378	35.16
298.593	18.77
298.807	2.39
299.022	49.49
299.236	12.63
299.451	-9.9
299.665	-26.28
299.88	43.35
300.094	72.02
300.309	63.83
300.523	26.96
300.737	20.82
300.952	24.92
301.166	63.83
301.381	-28.33
301.595	76.12
301.809	78.16
302.024	67.92
302.238	37.2
302.452	78.16
302.667	35.16
302.881	98.64
303.095	33.11
303.309	53.59
303.524	-28.33
303.738	4.44
303.952	12.63
304.166	10.58
304.381	-26.28
304.595	102.74
304.809	24.92
305.023	37.2
305.237	-18.09
305.452	82.26
305.666	72.02
305.88	45.4
306.094	16.73
306.308	41.3
306.522	98.64
306.736	22.87
306.95	106.84
307.164	24.92
307.379	-7.85
307.593	104.79
307.807	94.55
308.021	80.21
308.235	63.83
308.449	-11.95
308.663	-11.95
308.877	119.12
309.091	14.68
309.305	47.44
309.519	-57
309.733	-7.85
309.947	18.77
310.161	-18.09
310.374	96.6
310.588	72.02
310.802	-30.38
311.016	51.54
311.23	-3.75
311.444	24.92
311.658	29.01
311.872	135.51
312.085	84.31
312.299	123.22
312.513	133.46
312.727	-16.04
312.941	82.26
313.154	55.64
313.368	53.59
313.582	51.54
313.796	33.11
314.009	76.12
314.223	119.12
314.437	16.73
314.651	74.07
314.864	10.58
315.078	53.59
315.292	10.58
315.505	51.54
315.719	16.73
315.933	82.26
316.146	0.34
316.36	37.2
316.573	137.56
316.787	41.3
317.001	33.11
317.214	-13.99
317.428	84.31
317.641	-28.33
317.855	22.87
318.068	49.49
318.282	-11.95
318.495	98.64
318.709	78.16
318.922	69.97
319.136	72.02
319.349	100.69
319.563	45.4
319.776	-18.09
319.99	-83.63
320.203	67.92
320.417	100.69
320.63	76.12
320.843	112.98
321.057	-24.23
321.27	100.69
321.483	65.88
321.697	18.77
321.91	-13.99
322.124	-22.19
322.337	18.77
322.55	-42.67
322.763	55.64
322.977	16.73
323.19	20.82
323.403	84.31
323.617	24.92
323.83	57.68
324.043	90.45
324.256	18.77
324.469	-54.95
324.683	125.27
324.896	43.35
325.109	-20.14
325.322	-32.43
325.535	74.07
325.748	92.5
325.962	2.39
326.175	57.68
326.388	14.68
326.601	72.02
326.814	-3.75
327.027	76.12
327.24	127.32
327.453	-30.38
327.666	-3.75
327.879	94.55
328.092	65.88
328.305	45.4
328.518	31.06
328.731	-22.19
328.944	-5.8
329.157	4.44
329.37	-9.9
329.583	74.07
329.796	98.64
330.009	41.3
330.222	158.03
330.435	90.45
330.648	53.59
330.861	-28.33
331.073	45.4
331.286	104.79
331.499	47.44
331.712	-5.8
331.925	0.34
332.138	-7.85
332.35	82.26
332.563	31.06
332.776	117.08
332.989	-13.99
333.202	59.73
333.414	59.73
333.627	-13.99
333.84	39.25
334.053	69.97
334.265	41.3
334.478	33.11
334.691	49.49
334.903	59.73
335.116	20.82
335.329	-11.95
335.541	74.07
335.754	47.44
335.966	26.96
336.179	-46.76
336.392	49.49
336.604	80.21
336.817	84.31
337.029	39.25
337.242	-3.75
337.454	108.88
337.667	69.97
337.88	94.55
338.092	106.84
338.305	90.45
338.517	16.73
338.729	82.26
338.942	12.63
339.154	-16.04
339.367	-48.81
339.579	14.68
339.792	0.34
340.004	65.88
340.217	63.83
340.429	12.63
340.641	6.49
340.854	-30.38
341.066	-1.71
341.278	121.17
341.491	67.92
341.703	59.73
341.915	24.92
342.128	92.5
342.34	-26.28
342.552	14.68
342.764	26.96
342.977	49.49
343.189	63.83
343.401	65.88
343.613	18.77
343.826	18.77
344.038	-59.05
344.25	53.59
344.462	0.34
344.674	-9.9
344.886	4.44
345.099	55.64
345.311	69.97
345.523	-5.8
345.735	-91.82
345.947	104.79
346.159	39.25
346.371	88.4
346.583	35.16
346.795	137.56
347.007	35.16
347.219	74.07
347.431	-1.71
347.643	67.92
347.855	43.35
348.067	90.45
348.279	10.58
348.491	59.73
348.703	61.78
348.915	39.25
349.127	51.54
349.339	47.44
349.551	-22.19
349.763	72.02
349.975	65.88
350.187	90.45
350.399	80.21
350.61	98.64
350.822	37.2
351.034	53.59
351.246	115.03
351.458	80.21
351.669	24.92
351.881	100.69
352.093	16.73
352.305	117.08
352.517	57.68
352.728	100.69
352.94	16.73
353.152	61.78
353.363	-59.05
353.575	61.78
353.787	158.03
353.999	29.01
354.21	127.32
354.422	53.59
354.633	69.97
354.845	14.68
355.057	35.16
355.268	88.4
355.48	67.92
355.692	-34.47
355.903	100.69
356.115	-57
356.326	-22.19
356.538	131.41
356.749	215.38
356.961	129.36
357.172	59.73
357.384	-9.9
357.595	106.84
357.807	59.73
358.018	8.53
358.23	4.44
358.441	65.88
358.653	26.96
358.864	-34.47
359.075	29.01
359.287	86.36
359.498	162.13
359.709	49.49
359.921	41.3
360.132	-5.8
360.344	45.4
360.555	65.88
360.766	84.31
360.977	33.11
361.189	63.83
361.4	61.78
361.611	117.08
361.823	108.88
362.034	61.78
362.245	6.49
362.456	100.69
362.667	72.02
362.879	0.34
363.09	96.6
363.301	2.39
363.512	55.64
363.723	26.96
363.935	16.73
364.146	112.98
364.357	121.17
364.568	84.31
364.779	41.3
364.99	43.35
365.201	41.3
365.412	33.11
365.623	59.73
365.834	129.36
366.045	10.58
366.256	49.49
366.467	-5.8
366.678	69.97
366.889	39.25
367.1	39.25
367.311	51.54
367.522	16.73
367.733	125.27
367.944	86.36
368.155	72.02
368.366	76.12
368.577	35.16
368.788	108.88
368.999	49.49
369.209	51.54
369.42	100.69
369.631	164.18
369.842	86.36
370.053	31.06
370.264	53.59
370.474	-1.71
370.685	49.49
370.896	74.07
371.107	137.56
371.317	69.97
371.528	53.59
371.739	59.73
371.95	92.5
372.16	104.79
372.371	47.44
372.582	24.92
372.792	69.97
373.003	-16.04
373.214	33.11
373.424	47.44
373.635	63.83
373.846	88.4
374.056	29.01
374.267	104.79
374.477	76.12
374.688	51.54
374.898	-7.85
375.109	76.12
375.319	51.54
375.53	86.36
375.74	162.13
375.951	-1.71
376.161	8.53
376.372	69.97
376.582	45.4
376.793	112.98
377.003	4.44
377.214	-13.99
377.424	61.78
377.635	0.34
377.845	6.49
378.055	102.74
378.266	4.44
378.476	96.6
378.686	26.96
378.897	16.73
379.107	137.56
379.317	41.3
379.528	-5.8
379.738	76.12
379.948	-44.71
380.158	76.12
380.369	20.82
380.579	94.55
380.789	49.49
380.999	88.4
381.21	123.22
381.42	115.03
381.63	-1.71
381.84	72.02
382.05	84.31
382.261	108.88
382.471	104.79
382.681	31.06
382.891	86.36
383.101	86.36
383.311	59.73
383.521	14.68
383.731	119.12
383.941	59.73
384.151	45.4
384.361	-34.47
384.571	129.36
384.781	106.84
384.991	135.51
385.201	198.99
385.411	76.12
385.621	119.12
385.831	88.4
386.041	96.6
386.251	20.82
386.461	100.69
386.671	24.92
386.881	51.54
387.091	74.07
387.301	123.22
387.511	35.16
387.72	119.12
387.93	26.96
388.14	-54.95
388.35	78.16
388.56	115.03
388.769	123.22
388.979	14.68
389.189	-32.43
389.399	63.83
389.609	57.68
389.818	94.55
390.028	47.44
390.238	82.26
390.447	14.68
390.657	69.97
390.867	100.69
391.076	14.68
391.286	59.73
391.496	33.11
391.705	112.98
391.915	151.89
392.125	100.69
392.334	108.88
392.544	172.37
392.753	18.77
392.963	-1.71
393.172	153.94
393.382	22.87
393.591	158.03
393.801	88.4
394.01	115.03
394.22	119.12
394.429	67.92
394.639	100.69
394.848	112.98
395.058	137.56
395.267	31.06
395.477	139.6
395.686	139.6
395.895	233.81
396.105	239.95
396.314	84.31
396.524	160.08
396.733	155.99
396.942	127.32
397.152	117.08
397.361	194.9
397.57	121.17
397.78	104.79
397.989	131.41
398.198	137.56
398.407	67.92
398.617	84.31
398.826	153.94
399.035	147.8
399.244	100.69
399.453	117.08
399.663	180.56
399.872	192.85
400.081	96.6
400.29	127.32
400.499	112.98
400.708	164.18
400.917	166.23
401.127	90.45
401.336	133.46
401.545	280.91
401.754	211.28
401.963	100.69
402.172	176.47
402.381	53.59
402.59	145.75
402.799	190.8
403.008	203.09
403.217	186.71
403.426	221.52
403.635	158.03
403.844	98.64
404.053	293.2
404.262	127.32
404.471	231.76
404.68	153.94
404.888	158.03
405.097	158.03
405.306	233.81
405.515	258.39
405.724	164.18
405.933	272.72
406.142	192.85
406.35	248.15
406.559	233.81
406.768	233.81
406.977	321.87
407.185	307.54
407.394	289.1
407.603	178.51
407.812	321.87
408.02	342.35
408.229	307.54
408.438	346.45
408.646	233.81
408.855	276.82
409.064	358.74
409.272	379.22
409.481	379.22
409.69	401.74
409.898	424.27
410.107	461.13
410.315	475.47
410.524	409.94
410.733	528.72
410.941	547.15
411.15	461.13
411.358	571.72
411.567	635.21
411.775	674.12
411.984	543.05
412.192	633.16
412.401	553.29
412.609	713.03
412.818	776.52
413.026	725.32
413.234	854.34
413.443	764.23
413.651	782.67
413.86	858.44
414.068	973.13
414.276	964.93
414.485	837.96
414.693	1016.13
414.901	1087.81
415.11	969.03
415.318	964.93
415.526	1110.34
415.734	1110.34
415.943	1151.3
416.151	1247.55
416.359	1196.36
416.567	1255.75
416.776	1364.29
416.984	1413.44
417.192	1429.82
417.4	1407.3
417.608	1399.1
417.817	1538.37
418.025	1624.38
418.233	1698.11
418.441	1585.47
418.649	1755.45
418.857	1878.33
419.065	1945.91
419.273	1863.99
419.481	1898.81
419.689	2144.56
419.897	2142.52
420.105	2195.76
420.313	2316.59
420.521	2455.86
420.729	2359.6
420.937	2533.68
421.145	2615.6
421.353	2713.9
421.561	2906.41
421.769	2924.84
421.977	2922.79
422.185	2955.56
422.393	3164.45
422.601	3365.15
422.809	3307.81
423.017	3299.62
423.224	3531.04
423.432	3639.58
423.64	3660.06
423.848	4043.03
424.056	3834.14
424.263	4102.42
424.471	4219.16
424.679	4253.97
424.887	4495.63
425.094	4485.39
425.302	4759.82
425.51	4819.21
425.718	4946.19
425.925	5064.97
426.133	5275.91
426.341	5501.19
426.548	5677.31
426.756	5724.41
426.964	5781.76
427.171	6091
427.379	6097.14
427.586	6445.3
427.794	6680.82
428.001	6969.58
428.209	7088.36
428.417	6998.25
428.624	7360.74
428.832	7577.83
429.039	7549.15
429.247	7577.83
429.454	8202.46
429.662	8593.62
429.869	8136.92
430.076	8786.13
430.284	8726.74
430.491	8827.09
430.699	9347.27
430.906	9435.33
431.114	9349.32
431.321	9711.81
431.528	10078.4
431.736	10703.03
431.943	11067.56
432.15	10993.84
432.358	11161.77
432.565	11581.6
432.772	11489.45
432.979	12228.76
433.187	12351.64
433.394	12374.17
433.601	13164.68
433.808	13260.94
434.016	12875.92
434.223	13764.74
434.43	14696.57
434.637	14205.05
434.844	15153.26
435.052	15372.39
435.259	15304.81
435.466	15341.68
435.673	15319.15
435.88	16193.63
436.087	16988.24
436.294	17209.42
436.501	16527.45
436.708	17066.06
436.915	17641.54
437.122	18495.55
437.329	18237.5
437.537	18855.99
437.743	19380.27
437.95	19009.59
438.157	20156.45
438.364	20547.61
438.571	20611.1
438.778	20631.58
438.985	22659.07
439.192	21508.11
439.399	22648.83
439.606	22005.77
439.813	23255.03
440.02	24440.8
440.227	24133.61
440.433	23896.04
440.64	24586.21
440.847	24463.33
441.054	25001.94
441.261	26597.31
441.467	26537.92
441.674	26724.29
441.881	27977.64
442.088	27559.86
442.294	27277.24
442.501	28258.21
442.708	28637.09
442.914	30005.13
443.121	31491.96
443.328	30162.83
443.534	32384.87
443.741	31704.95
443.948	30904.19
444.154	33179.48
444.361	33183.58
444.568	33281.88
444.774	33290.07
444.981	33529.69
445.187	34711.36
445.394	35987.25
445.6	35841.84
445.807	38774.53
446.013	36886.31
446.22	37900.05
446.426	39608.06
446.633	39595.77
446.839	40716.01
447.046	39112.45
447.252	41602.78
447.459	40929
447.665	40978.15
447.871	42858.18
448.078	44443.31
448.284	42129.11
448.491	43443.9
448.697	45301.41
448.903	46327.44
449.11	45993.62
449.316	45399.71
449.522	45962.9
449.728	47304.32
449.935	47478.4
450.141	47574.66
450.347	48627.31
450.553	47054.47
450.76	47502.98
450.966	48590.45
451.172	48500.34
451.378	49735.26
451.584	48834.16
451.791	50079.32
451.997	49616.48
452.203	50488.91
452.409	50687.57
452.615	50329.17
452.821	48246.39
453.027	47681.15
453.233	50230.87
453.44	48395.89
453.646	48623.22
453.852	48565.87
454.058	49739.36
454.264	48449.14
454.47	49172.07
454.676	48096.89
454.882	49575.52
455.088	45223.59
455.294	46055.06
455.5	46218.9
455.705	46859.91
455.911	45055.65
456.117	44390.06
456.323	43632.32
456.529	41799.38
456.735	43028.16
456.941	42039
457.147	41258.72
457.352	39931.64
457.558	39622.39
457.764	39825.14
457.97	38909.7
458.176	38225.68
458.381	38209.29
458.587	36271.92
458.793	36007.73
458.999	34017.1
459.204	36497.19
459.41	35417.91
459.616	33271.64
459.821	33396.57
460.027	33105.76
460.233	32202.6
460.438	30871.42
460.644	31131.51
460.85	29581.2
461.055	29112.22
461.261	29056.92
461.466	26738.62
461.672	25890.76
461.878	28016.55
462.083	25763.79
462.289	25513.94
462.494	25380.82
462.7	24088.55
462.905	23500.78
463.111	24242.15
463.316	24297.44
463.522	23547.89
463.727	23748.59
463.932	23711.72
464.138	23402.48
464.343	23701.48
464.549	22501.37
464.754	23627.76
464.959	23730.16
465.165	23447.54
465.37	22249.47
465.575	21426.19
465.781	22349.82
465.986	22306.82
466.191	21700.62
466.397	21331.98
