Data from USB4F104151__56__12-12-25-055.txt Node

Date: Fri Mar 14 12:12:25 EDT 2025
User: louis
Spectrometer: USB4F10415
Trigger mode: 4
Integration Time (sec): 5.000000E-2
Scans to average: 1
Electric dark correction enabled: true
Nonlinearity correction enabled: false
Boxcar width: 0
XAxis mode: Wavelengths
Number of Pixels in Spectrum: 3648
>>>>>Begin Spectral Data<<<<<
178.204	-245.93
178.424	-245.93
178.644	-245.93
178.864	-202.92
179.084	-186.54
179.304	40.79
179.524	-28.84
179.744	18.26
179.964	14.17
180.184	32.6
180.404	-55.47
180.624	12.12
180.844	-34.99
181.064	-47.27
181.283	73.56
181.503	-75.95
181.723	51.03
181.943	-32.94
182.163	85.84
182.383	-43.18
182.602	59.22
182.822	135
183.042	-18.6
183.262	96.08
183.482	38.74
183.701	81.75
183.921	61.27
184.141	-12.46
184.361	104.28
184.58	24.4
184.8	24.4
185.02	30.55
185.239	77.65
185.459	36.69
185.679	87.89
185.898	18.26
186.118	116.56
186.338	89.94
186.557	-18.6
186.777	-8.36
186.997	38.74
187.216	-2.22
187.436	89.94
187.655	55.12
187.875	102.23
188.095	3.93
188.314	42.84
188.534	46.93
188.753	36.69
188.973	81.75
189.192	110.42
189.412	51.03
189.631	48.98
189.851	36.69
190.07	122.71
190.29	30.55
190.509	48.98
190.729	-26.79
190.948	75.6
191.168	241.49
191.387	5.97
191.607	32.6
191.826	-0.17
192.045	8.02
192.265	12.12
192.484	46.93
192.704	110.42
192.923	-14.51
193.142	149.33
193.362	42.84
193.581	24.4
193.8	94.04
194.02	61.27
194.239	57.17
194.458	83.8
194.678	59.22
194.897	42.84
195.116	-20.65
195.335	34.64
195.555	81.75
195.774	-32.94
195.993	51.03
196.212	83.8
196.432	36.69
196.651	-14.51
196.87	-16.55
197.089	141.14
197.308	102.23
197.528	83.8
197.747	-75.95
197.966	46.93
198.185	147.28
198.404	28.5
198.623	51.03
198.842	141.14
199.062	120.66
199.281	28.5
199.5	-0.17
199.719	85.84
199.938	110.42
200.157	122.71
200.376	34.64
200.595	116.56
200.814	16.21
201.033	-16.55
201.252	89.94
201.471	-53.42
201.69	46.93
201.909	73.56
202.128	16.21
202.347	-20.65
202.566	-18.6
202.785	42.84
203.004	36.69
203.223	157.52
203.442	-12.46
203.661	10.07
203.879	100.18
204.098	77.65
204.317	8.02
204.536	83.8
204.755	75.6
204.974	42.84
205.193	22.36
205.411	81.75
205.63	48.98
205.849	59.22
206.068	71.51
206.287	-71.85
206.505	36.69
206.724	-41.13
206.943	14.17
207.162	-57.51
207.381	75.6
207.599	44.88
207.818	32.6
208.037	10.07
208.255	71.51
208.474	40.79
208.693	100.18
208.911	16.21
209.13	18.26
209.349	42.84
209.567	32.6
209.786	51.03
210.005	1.88
210.223	18.26
210.442	-82.09
210.661	85.84
210.879	79.7
211.098	-24.75
211.316	53.08
211.535	87.89
211.753	-8.36
211.972	118.61
212.191	-39.08
212.409	-20.65
212.628	87.89
212.846	8.02
213.065	159.57
213.283	20.31
213.502	-10.41
213.72	36.69
213.938	14.17
214.157	-4.27
214.375	73.56
214.594	-14.51
214.812	57.17
215.031	-28.84
215.249	24.4
215.467	-4.27
215.686	34.64
215.904	59.22
216.122	120.66
216.341	5.97
216.559	46.93
216.778	32.6
216.996	98.13
217.214	42.84
217.432	69.46
217.651	-45.23
217.869	51.03
218.087	3.93
218.306	-12.46
218.524	28.5
218.742	16.21
218.96	12.12
219.179	-20.65
219.397	42.84
219.615	71.51
219.833	44.88
220.051	20.31
220.27	98.13
220.488	98.13
220.706	1.88
220.924	16.21
221.142	59.22
221.36	34.64
221.578	118.61
221.796	57.17
222.015	-16.55
222.233	8.02
222.451	22.36
222.669	-63.66
222.887	63.32
223.105	55.12
223.323	24.4
223.541	24.4
223.759	81.75
223.977	24.4
224.195	155.47
224.413	206.67
224.631	8.02
224.849	69.46
225.067	159.57
225.285	-12.46
225.503	30.55
225.721	-53.42
225.939	-12.46
226.157	48.98
226.375	171.86
226.592	8.02
226.81	63.32
227.028	81.75
227.246	108.37
227.464	75.6
227.682	48.98
227.9	38.74
228.117	59.22
228.335	48.98
228.553	26.45
228.771	51.03
228.989	75.6
229.206	42.84
229.424	44.88
229.642	-6.31
229.86	18.26
230.077	85.84
230.295	10.07
230.513	163.67
230.731	94.04
230.948	42.84
231.166	77.65
231.384	67.41
231.601	40.79
231.819	77.65
232.037	22.36
232.254	32.6
232.472	5.97
232.689	8.02
232.907	18.26
233.125	71.51
233.342	71.51
233.56	32.6
233.777	40.79
233.995	-0.17
234.213	30.55
234.43	-80.04
234.648	75.6
234.865	34.64
235.083	112.47
235.3	96.08
235.518	67.41
235.735	102.23
235.953	83.8
236.17	18.26
236.388	28.5
236.605	51.03
236.822	124.76
237.04	71.51
237.257	53.08
237.475	30.55
237.692	61.27
237.909	-2.22
238.127	3.93
238.344	61.27
238.562	3.93
238.779	-6.31
238.996	-49.32
239.214	91.99
239.431	51.03
239.648	32.6
239.865	48.98
240.083	87.89
240.3	3.93
240.517	26.45
240.735	32.6
240.952	91.99
241.169	96.08
241.386	55.12
241.603	36.69
241.821	26.45
242.038	77.65
242.255	3.93
242.472	-12.46
242.689	71.51
242.907	75.6
243.124	83.8
243.341	20.31
243.558	30.55
243.775	1.88
243.992	-20.65
244.209	116.56
244.426	130.9
244.643	61.27
244.86	24.4
245.078	126.8
245.295	-24.75
245.512	3.93
245.729	55.12
245.946	63.32
246.163	118.61
246.38	87.89
246.597	36.69
246.814	26.45
247.031	1.88
247.248	48.98
247.464	-37.03
247.681	32.6
247.898	30.55
248.115	120.66
248.332	-0.17
248.549	79.7
248.766	155.47
248.983	71.51
249.2	3.93
249.417	61.27
249.633	59.22
249.85	42.84
250.067	-0.17
250.284	36.69
250.501	89.94
250.717	20.31
250.934	-2.22
251.151	85.84
251.368	14.17
251.585	94.04
251.801	22.36
252.018	-16.55
252.235	38.74
252.451	8.02
252.668	36.69
252.885	89.94
253.102	32.6
253.318	108.37
253.535	10.07
253.752	28.5
253.968	42.84
254.185	18.26
254.401	26.45
254.618	16.21
254.835	1.88
255.051	87.89
255.268	57.17
255.484	69.46
255.701	-30.89
255.917	38.74
256.134	-49.32
256.351	69.46
256.567	-0.17
256.784	44.88
257	14.17
257.217	63.32
257.433	-10.41
257.65	59.22
257.866	69.46
258.082	-2.22
258.299	3.93
258.515	91.99
258.732	-4.27
258.948	53.08
259.165	61.27
259.381	36.69
259.597	122.71
259.814	36.69
260.03	18.26
260.246	48.98
260.463	69.46
260.679	75.6
260.895	-14.51
261.112	26.45
261.328	10.07
261.544	63.32
261.761	159.57
261.977	22.36
262.193	20.31
262.409	96.08
262.626	89.94
262.842	3.93
263.058	-49.32
263.274	69.46
263.49	55.12
263.707	22.36
263.923	132.95
264.139	-6.31
264.355	87.89
264.571	69.46
264.787	94.04
265.004	96.08
265.22	-12.46
265.436	38.74
265.652	30.55
265.868	59.22
266.084	38.74
266.3	10.07
266.516	-32.94
266.732	57.17
266.948	1.88
267.164	67.41
267.38	8.02
267.596	63.32
267.812	83.8
268.028	38.74
268.244	16.21
268.46	-18.6
268.676	20.31
268.892	71.51
269.108	83.8
269.324	-0.17
269.54	-4.27
269.756	67.41
269.972	-34.99
270.188	26.45
270.403	-47.27
270.619	-4.27
270.835	-59.56
271.051	57.17
271.267	-18.6
271.483	-0.17
271.698	20.31
271.914	36.69
272.13	81.75
272.346	20.31
272.562	1.88
272.777	61.27
272.993	-57.51
273.209	14.17
273.425	18.26
273.64	42.84
273.856	69.46
274.072	-2.22
274.287	-51.37
274.503	5.97
274.719	81.75
274.934	46.93
275.15	-37.03
275.366	-45.23
275.581	-16.55
275.797	71.51
276.012	30.55
276.228	8.02
276.444	71.51
276.659	94.04
276.875	-2.22
277.09	30.55
277.306	-51.37
277.521	-4.27
277.737	-63.66
277.952	85.84
278.168	83.8
278.383	61.27
278.599	30.55
278.814	100.18
279.03	18.26
279.245	73.56
279.461	24.4
279.676	71.51
279.892	24.4
280.107	10.07
280.322	83.8
280.538	110.42
280.753	-12.46
280.969	98.13
281.184	8.02
281.399	149.33
281.615	30.55
281.83	71.51
282.045	1.88
282.26	57.17
282.476	77.65
282.691	69.46
282.906	65.36
283.122	61.27
283.337	-55.47
283.552	65.36
283.767	-49.32
283.983	83.8
284.198	-39.08
284.413	83.8
284.628	-10.41
284.843	44.88
285.058	157.52
285.274	22.36
285.489	10.07
285.704	16.21
285.919	-43.18
286.134	116.56
286.349	-6.31
286.564	36.69
286.779	59.22
286.995	-61.61
287.21	30.55
287.425	-2.22
287.64	51.03
287.855	42.84
288.07	-88.23
288.285	96.08
288.5	89.94
288.715	-16.55
288.93	55.12
289.145	102.23
289.36	42.84
289.575	-0.17
289.79	40.79
290.004	-20.65
290.219	20.31
290.434	94.04
290.649	32.6
290.864	104.28
291.079	36.69
291.294	83.8
291.509	40.79
291.724	48.98
291.938	30.55
292.153	53.08
292.368	-4.27
292.583	61.27
292.798	69.46
293.012	98.13
293.227	36.69
293.442	-43.18
293.657	132.95
293.871	112.47
294.086	24.4
294.301	98.13
294.516	71.51
294.73	48.98
294.945	-4.27
295.16	83.8
295.374	81.75
295.589	104.28
295.804	-14.51
296.018	44.88
296.233	85.84
296.447	73.56
296.662	73.56
296.877	100.18
297.091	55.12
297.306	28.5
297.52	18.26
297.735	20.31
297.949	71.51
298.164	87.89
298.378	40.79
298.593	-53.42
298.807	-90.28
299.022	91.99
299.236	116.56
299.451	-55.47
299.665	-22.7
299.88	-14.51
300.094	24.4
300.309	30.55
300.523	112.47
300.737	48.98
300.952	63.32
301.166	91.99
301.381	32.6
301.595	38.74
301.809	-8.36
302.024	79.7
302.238	61.27
302.452	98.13
302.667	20.31
302.881	157.52
303.095	94.04
303.309	61.27
303.524	-49.32
303.738	65.36
303.952	69.46
304.166	75.6
304.381	-45.23
304.595	147.28
304.809	10.07
305.023	75.6
305.237	28.5
305.452	14.17
305.666	-10.41
305.88	104.28
306.094	161.62
306.308	69.46
306.522	57.17
306.736	26.45
306.95	100.18
307.164	40.79
307.379	20.31
307.593	149.33
307.807	114.52
308.021	77.65
308.235	73.56
308.449	-41.13
308.663	-6.31
308.877	124.76
309.091	42.84
309.305	79.7
309.519	-51.37
309.733	106.32
309.947	-26.79
310.161	124.76
310.374	100.18
310.588	116.56
310.802	-41.13
311.016	69.46
311.23	69.46
311.444	-32.94
311.658	16.21
311.872	77.65
312.085	12.12
312.299	120.66
312.513	108.37
312.727	36.69
312.941	-30.89
313.154	81.75
313.368	8.02
313.582	32.6
313.796	26.45
314.009	59.22
314.223	75.6
314.437	120.66
314.651	104.28
314.864	55.12
315.078	48.98
315.292	-14.51
315.505	-4.27
315.719	5.97
315.933	118.61
316.146	42.84
316.36	59.22
316.573	157.52
316.787	139.09
317.001	1.88
317.214	-2.22
317.428	44.88
317.641	-12.46
317.855	5.97
318.068	83.8
318.282	36.69
318.495	173.91
318.709	18.26
318.922	26.45
319.136	130.9
319.349	55.12
319.563	28.5
319.776	77.65
319.99	-63.66
320.203	81.75
320.417	46.93
320.63	40.79
320.843	126.8
321.057	94.04
321.27	28.5
321.483	57.17
321.697	87.89
321.91	8.02
322.124	53.08
322.337	51.03
322.55	-10.41
322.763	-12.46
322.977	44.88
323.19	-0.17
323.403	38.74
323.617	55.12
323.83	46.93
324.043	-2.22
324.256	94.04
324.469	-43.18
324.683	120.66
324.896	36.69
325.109	-20.65
325.322	48.98
325.535	3.93
325.748	55.12
325.962	-8.36
326.175	96.08
326.388	44.88
326.601	77.65
326.814	67.41
327.027	53.08
327.24	102.23
327.453	-47.27
327.666	-37.03
327.879	30.55
328.092	65.36
328.305	42.84
328.518	30.55
328.731	5.97
328.944	30.55
329.157	96.08
329.37	40.79
329.583	149.33
329.796	100.18
330.009	-20.65
330.222	44.88
330.435	89.94
330.648	44.88
330.861	59.22
331.073	96.08
331.286	12.12
331.499	75.6
331.712	-22.7
331.925	100.18
332.138	-26.79
332.35	137.04
332.563	32.6
332.776	186.19
332.989	34.64
333.202	44.88
333.414	22.36
333.627	-61.61
333.84	67.41
334.053	-14.51
334.265	8.02
334.478	8.02
334.691	34.64
334.903	16.21
335.116	-8.36
335.329	36.69
335.541	79.7
335.754	128.85
335.966	30.55
336.179	22.36
336.392	155.47
336.604	77.65
336.817	-0.17
337.029	-26.79
337.242	16.21
337.454	104.28
337.667	14.17
337.88	89.94
338.092	28.5
338.305	69.46
338.517	-10.41
338.729	36.69
338.942	106.32
339.154	-4.27
339.367	26.45
339.579	26.45
339.792	-28.84
340.004	85.84
340.217	112.47
340.429	51.03
340.641	32.6
340.854	-8.36
341.066	14.17
341.278	118.61
341.491	44.88
341.703	94.04
341.915	-6.31
342.128	61.27
342.34	5.97
342.552	61.27
342.764	63.32
342.977	5.97
343.189	44.88
343.401	79.7
343.613	-49.32
343.826	-6.31
344.038	-4.27
344.25	22.36
344.462	-4.27
344.674	-39.08
344.886	48.98
345.099	-2.22
345.311	122.71
345.523	71.51
345.735	12.12
345.947	32.6
346.159	65.36
346.371	42.84
346.583	-43.18
346.795	124.76
347.007	87.89
347.219	96.08
347.431	-28.84
347.643	139.09
347.855	28.5
348.067	91.99
348.279	-6.31
348.491	112.47
348.703	126.8
348.915	16.21
349.127	-55.47
349.339	-30.89
349.551	-16.55
349.763	46.93
349.975	3.93
350.187	67.41
350.399	75.6
350.61	61.27
350.822	-0.17
351.034	69.46
351.246	77.65
351.458	114.52
351.669	42.84
351.881	40.79
352.093	57.17
352.305	110.42
352.517	110.42
352.728	28.5
352.94	32.6
353.152	91.99
353.363	48.98
353.575	128.85
353.787	75.6
353.999	28.5
354.21	147.28
354.422	67.41
354.633	96.08
354.845	42.84
355.057	51.03
355.268	16.21
355.48	38.74
355.692	10.07
355.903	67.41
356.115	53.08
356.326	-12.46
356.538	143.19
356.749	169.81
356.961	157.52
357.172	1.88
357.384	-32.94
357.595	53.08
357.807	-18.6
358.018	73.56
358.23	116.56
358.441	126.8
358.653	108.37
358.864	-47.27
359.075	67.41
359.287	8.02
359.498	108.37
359.709	36.69
359.921	53.08
360.132	26.45
360.344	26.45
360.555	59.22
360.766	-14.51
360.977	30.55
361.189	44.88
361.4	61.27
361.611	135
361.823	81.75
362.034	98.13
362.245	-20.65
362.456	18.26
362.667	94.04
362.879	32.6
363.09	42.84
363.301	20.31
363.512	-8.36
363.723	-10.41
363.935	-53.42
364.146	94.04
364.357	-20.65
364.568	71.51
364.779	-47.27
364.99	26.45
365.201	40.79
365.412	67.41
365.623	-16.55
365.834	42.84
366.045	46.93
366.256	175.95
366.467	59.22
366.678	16.21
366.889	40.79
367.1	36.69
367.311	96.08
367.522	-2.22
367.733	81.75
367.944	149.33
368.155	20.31
368.366	83.8
368.577	75.6
368.788	38.74
368.999	8.02
369.209	24.4
369.42	135
369.631	157.52
369.842	44.88
370.053	12.12
370.264	98.13
370.474	-24.75
370.685	32.6
370.896	22.36
371.107	65.36
371.317	188.24
371.528	81.75
371.739	110.42
371.95	75.6
372.16	16.21
372.371	-47.27
372.582	42.84
372.792	81.75
373.003	163.67
373.214	69.46
373.424	79.7
373.635	22.36
373.846	83.8
374.056	40.79
374.267	38.74
374.477	100.18
374.688	53.08
374.898	114.52
375.109	112.47
375.319	85.84
375.53	51.03
375.74	87.89
375.951	59.22
376.161	46.93
376.372	65.36
376.582	69.46
376.793	10.07
377.003	46.93
377.214	18.26
377.424	173.91
377.635	65.36
377.845	14.17
378.055	130.9
378.266	81.75
378.476	28.5
378.686	87.89
378.897	53.08
379.107	79.7
379.317	100.18
379.528	30.55
379.738	87.89
379.948	38.74
380.158	51.03
380.369	94.04
380.579	91.99
380.789	63.32
380.999	59.22
381.21	59.22
381.42	149.33
381.63	44.88
381.84	57.17
382.05	100.18
382.261	94.04
382.471	65.36
382.681	-2.22
382.891	145.24
383.101	59.22
383.311	42.84
383.521	38.74
383.731	51.03
383.941	98.13
384.151	132.95
384.361	75.6
384.571	-2.22
384.781	91.99
384.991	110.42
385.201	61.27
385.411	149.33
385.621	63.32
385.831	44.88
386.041	44.88
386.251	71.51
386.461	67.41
386.671	-41.13
386.881	67.41
387.091	-20.65
387.301	100.18
387.511	22.36
387.72	94.04
387.93	46.93
388.14	67.41
388.35	83.8
388.56	126.8
388.769	149.33
388.979	-16.55
389.189	-2.22
389.399	-14.51
389.609	135
389.818	114.52
390.028	130.9
390.238	94.04
390.447	67.41
390.657	116.56
390.867	96.08
391.076	106.32
391.286	36.69
391.496	98.13
391.705	14.17
391.915	132.95
392.125	100.18
392.334	12.12
392.544	180.05
392.753	-6.31
392.963	18.26
393.172	71.51
393.382	40.79
393.591	175.95
393.801	51.03
394.01	180.05
394.22	48.98
394.429	116.56
394.639	91.99
394.848	26.45
395.058	28.5
395.267	139.09
395.477	61.27
395.686	81.75
395.895	192.34
396.105	122.71
396.314	104.28
396.524	67.41
396.733	44.88
396.942	155.47
397.152	141.14
397.361	85.84
397.57	57.17
397.78	104.28
397.989	94.04
398.198	198.48
398.407	124.76
398.617	104.28
398.826	106.32
399.035	126.8
399.244	91.99
399.453	155.47
399.663	132.95
399.872	157.52
400.081	89.94
400.29	132.95
400.499	116.56
400.708	198.48
400.917	87.89
401.127	145.24
401.336	83.8
401.545	169.81
401.754	132.95
401.963	139.09
402.172	98.13
402.381	108.37
402.59	46.93
402.799	171.86
403.008	112.47
403.217	182.1
403.426	149.33
403.635	126.8
403.844	182.1
404.053	206.67
404.262	114.52
404.471	251.73
404.68	87.89
404.888	227.15
405.097	204.63
405.306	235.35
405.515	124.76
405.724	79.7
405.933	196.43
406.142	278.35
406.35	270.16
406.559	272.21
406.768	182.1
406.977	268.11
407.185	296.78
407.394	264.02
407.603	214.87
407.812	239.44
408.02	331.6
408.229	282.45
408.438	227.15
408.646	169.81
408.855	313.17
409.064	333.65
409.272	231.25
409.481	272.21
409.69	358.22
409.898	347.98
410.107	341.84
410.315	370.51
410.524	393.04
410.733	374.61
410.941	401.23
411.15	382.8
411.358	552.78
411.567	466.77
411.775	419.66
411.984	417.61
412.192	474.96
412.401	456.53
412.609	606.03
412.818	606.03
413.026	587.6
413.234	552.78
413.443	536.4
413.651	571.21
413.86	595.79
414.068	669.52
414.276	708.43
414.485	603.98
414.693	735.05
414.901	767.82
415.11	761.67
415.318	837.45
415.526	816.97
415.734	886.6
415.943	841.54
416.151	1001.29
416.359	911.18
416.567	1003.33
416.776	1013.57
416.984	1091.4
417.192	1046.34
417.4	1212.23
417.608	1163.08
417.817	1210.18
418.025	1204.03
418.233	1324.87
418.441	1216.32
418.649	1402.69
418.857	1371.97
419.065	1544
419.273	1466.17
419.481	1451.84
419.689	1529.66
419.897	1578.81
420.105	1718.08
420.313	1654.59
420.521	1873.72
420.729	1902.39
420.937	1713.98
421.145	1933.11
421.353	1996.6
421.561	2092.85
421.769	2301.75
421.977	2211.64
422.185	2275.12
422.393	2291.51
422.601	2469.68
422.809	2459.44
423.017	2395.95
423.224	2598.7
423.432	2672.43
423.64	2662.19
423.848	3010.34
424.056	2942.76
424.263	2998.06
424.471	3034.92
424.679	3264.29
424.887	3333.92
425.094	3411.75
425.302	3501.86
425.51	3561.25
425.718	3594.01
425.925	3825.43
426.133	3917.59
426.341	3946.27
426.548	4243.22
426.756	4175.64
426.964	4212.5
427.171	4364.05
427.379	4534.03
427.586	4550.42
427.794	4843.28
428.001	4833.04
428.209	5281.54
428.417	5132.04
428.624	5562.11
428.832	5496.58
429.039	5453.57
429.247	5490.43
429.454	5957.37
429.662	6391.54
429.869	6080.25
430.076	6481.65
430.284	6285.05
430.491	6375.16
430.699	6878.96
430.906	6835.95
431.114	6956.78
431.321	7130.86
431.528	7206.63
431.736	7909.08
431.943	8150.74
432.15	7911.13
432.358	8154.84
432.565	8283.86
432.772	8390.36
432.979	8924.88
433.187	8896.21
433.394	8816.33
433.601	9535.17
433.808	9555.65
434.016	9578.18
434.223	9877.18
434.43	10413.75
434.637	10286.78
434.844	11005.61
435.052	10983.09
435.259	11120.3
435.466	11126.44
435.673	10823.34
435.88	11775.65
436.087	12183.2
436.294	12275.35
436.501	12238.49
436.708	12125.85
436.915	12574.36
437.122	13147.79
437.329	13072.01
437.537	13735.56
437.743	13944.45
437.95	13575.81
438.157	14446.2
438.364	14859.89
438.571	14696.05
438.778	15132.27
438.985	16322.14
439.192	15629.93
439.399	15945.31
439.606	15681.13
439.813	16617.05
440.02	17458.76
440.227	17366.6
440.433	17210.96
440.64	17471.05
440.847	17477.19
441.054	17860.16
441.261	18976.31
441.467	18816.57
441.674	19097.14
441.881	19996.2
442.088	19883.56
442.294	19707.43
442.501	20102.69
442.708	20504.09
442.914	21351.95
443.121	22177.28
443.328	21384.72
443.534	23193.08
443.741	22726.14
443.948	22382.08
444.154	23694.83
444.361	23735.79
444.568	23686.64
444.774	23854.57
444.981	24079.85
445.187	24700.38
445.394	25812.43
445.6	25331.15
445.807	27346.36
446.013	26670.53
446.22	26707.39
446.426	28065.19
446.633	28325.29
446.839	29023.64
447.046	27874.73
447.252	29642.13
447.459	29597.07
447.665	29285.78
447.871	30702.98
448.078	31810.93
448.284	30240.14
448.491	31296.89
448.697	32296.3
448.903	32855.39
449.11	33678.68
449.316	32515.43
449.522	33166.68
449.728	34006.35
449.935	34405.7
450.141	33977.68
450.347	34827.59
450.553	33582.42
450.76	34043.21
450.966	35351.87
451.172	34889.02
451.378	35716.4
451.584	34784.58
451.791	35812.66
451.997	35763.51
452.203	35972.4
452.409	36349.23
452.615	36048.18
452.821	34792.77
453.027	34147.66
453.233	35835.19
453.44	34774.34
453.646	35124.54
453.852	35087.68
454.058	35849.52
454.264	34561.35
454.47	34915.65
454.676	34553.16
454.882	35724.6
455.088	32251.24
455.294	32849.25
455.5	33125.72
455.705	33496.41
455.911	32202.09
456.117	31632.75
456.323	31393.14
456.529	29341.08
456.735	30838.14
456.941	30070.15
457.147	29242.78
457.352	28605.86
457.558	28040.62
457.764	28073.38
457.97	27805.1
458.176	26721.73
458.381	26951.1
458.587	26043.85
458.793	25757.13
458.999	24215.01
459.204	26146.25
459.41	25230.8
459.616	23334.39
459.821	23731.69
460.027	23305.71
460.233	23004.66
460.438	21796.36
460.644	22031.88
460.85	21218.83
461.055	20610.59
461.261	20581.92
461.466	19240.5
461.672	18470.46
461.878	19988
462.083	18548.28
462.289	18124.35
462.494	17927.75
462.7	17010.26
462.905	16676.44
463.111	17217.1
463.316	17223.25
463.522	16658.01
463.727	16916.05
463.932	16512.6
464.138	16496.22
464.343	16617.05
464.549	16354.91
464.754	16569.94
464.959	16322.14
465.165	16131.68
465.37	15629.93
465.575	15130.22
465.781	15750.76
465.986	15736.42
466.191	15212.14
466.397	14962.29
