Data from USB4F104151__37__12-11-59-507.txt Node

Date: Fri Mar 14 12:11:59 EDT 2025
User: louis
Spectrometer: USB4F10415
Trigger mode: 4
Integration Time (sec): 5.000000E-2
Scans to average: 1
Electric dark correction enabled: true
Nonlinearity correction enabled: false
Boxcar width: 0
XAxis mode: Wavelengths
Number of Pixels in Spectrum: 3648
>>>>>Begin Spectral Data<<<<<
178.204	-270.16
178.424	-270.16
178.644	-270.16
178.864	-210.77
179.084	-196.43
179.304	-16.21
179.524	-40.79
179.744	-8.02
179.964	92.33
180.184	28.84
180.404	77.99
180.624	18.6
180.844	-10.07
181.064	-26.45
181.283	-38.74
181.503	-77.65
181.723	0.17
181.943	-132.95
182.163	92.33
182.383	-36.69
182.602	16.55
182.822	65.71
183.042	-8.02
183.262	-40.79
183.482	-63.32
183.701	-18.26
183.921	125.1
184.141	47.27
184.361	71.85
184.58	61.61
184.8	24.75
185.02	-30.55
185.239	84.14
185.459	80.04
185.679	34.99
185.898	-36.69
186.118	12.46
186.338	10.41
186.557	73.9
186.777	-22.36
186.997	12.46
187.216	-3.93
187.436	145.58
187.655	2.22
187.875	108.71
188.095	26.79
188.314	49.32
188.534	135.34
188.753	-24.4
188.973	18.6
189.192	135.34
189.412	-34.64
189.631	55.47
189.851	10.41
190.07	49.32
190.29	-28.5
190.509	84.14
190.729	12.46
190.948	110.76
191.168	262.31
191.387	69.8
191.607	34.99
191.826	88.23
192.045	16.55
192.265	-1.88
192.484	26.79
192.704	49.32
192.923	16.55
193.142	67.75
193.362	90.28
193.581	43.18
193.8	61.61
194.02	65.71
194.239	14.51
194.458	65.71
194.678	94.38
194.897	14.51
195.116	75.95
195.335	28.84
195.555	49.32
195.774	43.18
195.993	55.47
196.212	-1.88
196.432	14.51
196.651	28.84
196.87	28.84
197.089	188.58
197.308	71.85
197.528	0.17
197.747	-57.17
197.966	2.22
198.185	104.62
198.404	20.65
198.623	77.99
198.842	84.14
199.062	45.23
199.281	71.85
199.5	-3.93
199.719	41.13
199.938	49.32
200.157	104.62
200.376	-14.17
200.595	86.19
200.814	88.23
201.033	18.6
201.252	24.75
201.471	26.79
201.69	90.28
201.909	106.67
202.128	59.56
202.347	-24.4
202.566	-34.64
202.785	2.22
203.004	-87.89
203.223	135.34
203.442	34.99
203.661	-14.17
203.879	14.51
204.098	28.84
204.317	32.94
204.536	100.52
204.755	80.04
204.974	43.18
205.193	71.85
205.411	164.01
205.63	14.51
205.849	-3.93
206.068	8.36
206.287	47.27
206.505	86.19
206.724	55.47
206.943	90.28
207.162	10.41
207.381	0.17
207.599	43.18
207.818	4.27
208.037	20.65
208.255	0.17
208.474	12.46
208.693	16.55
208.911	24.75
209.13	47.27
209.349	-5.97
209.567	129.19
209.786	51.37
210.005	84.14
210.223	-16.21
210.442	14.51
210.661	73.9
210.879	18.6
211.098	24.75
211.316	24.75
211.535	51.37
211.753	12.46
211.972	102.57
212.191	63.66
212.409	45.23
212.628	20.65
212.846	10.41
213.065	41.13
213.283	26.79
213.502	-14.17
213.72	59.56
213.938	-22.36
214.157	39.08
214.375	51.37
214.594	90.28
214.812	84.14
215.031	18.6
215.249	39.08
215.467	22.7
215.686	16.55
215.904	16.55
216.122	-5.97
216.341	90.28
216.559	77.99
216.778	57.51
216.996	80.04
217.214	-65.36
217.432	-3.93
217.651	-57.17
217.869	28.84
218.087	12.46
218.306	-34.64
218.524	45.23
218.742	26.79
218.96	84.14
219.179	26.79
219.397	28.84
219.615	61.61
219.833	8.36
220.051	32.94
220.27	82.09
220.488	37.03
220.706	28.84
220.924	-16.21
221.142	51.37
221.36	65.71
221.578	77.99
221.796	16.55
222.015	6.31
222.233	-14.17
222.451	123.05
222.669	-32.6
222.887	100.52
223.105	53.42
223.323	47.27
223.541	-28.5
223.759	55.47
223.977	80.04
224.195	90.28
224.413	39.08
224.631	114.86
224.849	57.51
225.067	110.76
225.285	-71.51
225.503	41.13
225.721	-128.85
225.939	30.89
226.157	41.13
226.375	164.01
226.592	-57.17
226.81	90.28
227.028	98.47
227.246	84.14
227.464	14.51
227.682	0.17
227.9	47.27
228.117	69.8
228.335	6.31
228.553	37.03
228.771	-34.64
228.989	39.08
229.206	-8.02
229.424	24.75
229.642	-5.97
229.86	47.27
230.077	98.47
230.295	41.13
230.513	61.61
230.731	-28.5
230.948	92.33
231.166	82.09
231.384	-14.17
231.601	-32.6
231.819	90.28
232.037	-42.84
232.254	22.7
232.472	28.84
232.689	71.85
232.907	96.43
233.125	18.6
233.342	28.84
233.56	22.7
233.777	34.99
233.995	18.6
234.213	8.36
234.43	-8.02
234.648	22.7
234.865	61.61
235.083	16.55
235.3	41.13
235.518	92.33
235.735	102.57
235.953	51.37
236.17	41.13
236.388	-61.27
236.605	-3.93
236.822	121
237.04	32.94
237.257	37.03
237.475	39.08
237.692	67.75
237.909	77.99
238.127	45.23
238.344	82.09
238.562	129.19
238.779	8.36
238.996	-8.02
239.214	41.13
239.431	71.85
239.648	-18.26
239.865	67.75
240.083	-12.12
240.3	-32.6
240.517	-14.17
240.735	22.7
240.952	96.43
241.169	121
241.386	37.03
241.603	71.85
241.821	-61.27
242.038	100.52
242.255	73.9
242.472	32.94
242.689	69.8
242.907	51.37
243.124	57.51
243.341	-20.31
243.558	-12.12
243.775	8.36
243.992	-22.36
244.209	65.71
244.426	98.47
244.643	-14.17
244.86	-3.93
245.078	24.75
245.295	43.18
245.512	75.95
245.729	-12.12
245.946	-30.55
246.163	-5.97
246.38	0.17
246.597	57.51
246.814	69.8
247.031	14.51
247.248	63.66
247.464	61.61
247.681	43.18
247.898	55.47
248.115	61.61
248.332	14.51
248.549	20.65
248.766	114.86
248.983	102.57
249.2	-1.88
249.417	34.99
249.633	28.84
249.85	32.94
250.067	28.84
250.284	49.32
250.501	67.75
250.717	34.99
250.934	16.55
251.151	86.19
251.368	-40.79
251.585	4.27
251.801	8.36
252.018	-1.88
252.235	112.81
252.451	-83.8
252.668	-32.6
252.885	92.33
253.102	49.32
253.318	-22.36
253.535	49.32
253.752	16.55
253.968	26.79
254.185	-114.52
254.401	10.41
254.618	80.04
254.835	-36.69
255.051	63.66
255.268	65.71
255.484	10.41
255.701	96.43
255.917	75.95
256.134	49.32
256.351	71.85
256.567	14.51
256.784	12.46
257	-44.88
257.217	96.43
257.433	67.75
257.65	28.84
257.866	84.14
258.082	18.6
258.299	-3.93
258.515	47.27
258.732	26.79
258.948	-46.93
259.165	114.86
259.381	16.55
259.597	96.43
259.814	6.31
260.03	61.61
260.246	-12.12
260.463	63.66
260.679	2.22
260.895	47.27
261.112	61.61
261.328	43.18
261.544	14.51
261.761	32.94
261.977	6.31
262.193	-8.02
262.409	-8.02
262.626	88.23
262.842	-10.07
263.058	-3.93
263.274	20.65
263.49	82.09
263.707	108.71
263.923	53.42
264.139	-59.22
264.355	18.6
264.571	82.09
264.787	-10.07
265.004	41.13
265.22	49.32
265.436	30.89
265.652	-8.02
265.868	41.13
266.084	-38.74
266.3	112.81
266.516	0.17
266.732	8.36
266.948	-24.4
267.164	59.56
267.38	69.8
267.596	92.33
267.812	123.05
268.028	-55.12
268.244	-18.26
268.46	-5.97
268.676	100.52
268.892	41.13
269.108	61.61
269.324	-40.79
269.54	-3.93
269.756	65.71
269.972	24.75
270.188	24.75
270.403	26.79
270.619	75.95
270.835	34.99
271.051	26.79
271.267	10.41
271.483	39.08
271.698	16.55
271.914	69.8
272.13	37.03
272.346	49.32
272.562	49.32
272.777	112.81
272.993	-16.21
273.209	108.71
273.425	26.79
273.64	-5.97
273.856	80.04
274.072	-12.12
274.287	34.99
274.503	-57.17
274.719	32.94
274.934	49.32
275.15	-77.65
275.366	106.67
275.581	-1.88
275.797	18.6
276.012	-42.84
276.228	-46.93
276.444	-10.07
276.659	102.57
276.875	12.46
277.09	0.17
277.306	0.17
277.521	30.89
277.737	45.23
277.952	28.84
278.168	100.52
278.383	-28.5
278.599	49.32
278.814	57.51
279.03	-40.79
279.245	20.65
279.461	6.31
279.676	129.19
279.892	34.99
280.107	-46.93
280.322	-3.93
280.538	125.1
280.753	10.41
280.969	-73.56
281.184	22.7
281.399	168.1
281.615	6.31
281.83	77.99
282.045	-18.26
282.26	51.37
282.476	18.6
282.691	57.51
282.906	14.51
283.122	37.03
283.337	45.23
283.552	102.57
283.767	22.7
283.983	102.57
284.198	18.6
284.413	61.61
284.628	-14.17
284.843	49.32
285.058	118.95
285.274	26.79
285.489	-28.5
285.704	41.13
285.919	51.37
286.134	80.04
286.349	53.42
286.564	-12.12
286.779	84.14
286.995	37.03
287.21	-12.12
287.425	-20.31
287.64	-28.5
287.855	45.23
288.07	-36.69
288.285	53.42
288.5	73.9
288.715	-57.17
288.93	6.31
289.145	51.37
289.36	65.71
289.575	43.18
289.79	98.47
290.004	43.18
290.219	45.23
290.434	12.46
290.649	14.51
290.864	37.03
291.079	-30.55
291.294	16.55
291.509	26.79
291.724	28.84
291.938	65.71
292.153	14.51
292.368	67.75
292.583	65.71
292.798	106.67
293.012	96.43
293.227	-10.07
293.442	22.7
293.657	57.51
293.871	100.52
294.086	0.17
294.301	131.24
294.516	24.75
294.73	47.27
294.945	8.36
295.16	-1.88
295.374	116.9
295.589	112.81
295.804	-1.88
296.018	43.18
296.233	155.82
296.447	22.7
296.662	-48.98
296.877	137.38
297.091	51.37
297.306	14.51
297.52	49.32
297.735	-14.17
297.949	59.56
298.164	45.23
298.378	30.89
298.593	10.41
298.807	-3.93
299.022	-53.08
299.236	80.04
299.451	8.36
299.665	-24.4
299.88	-32.6
300.094	-18.26
300.309	61.61
300.523	37.03
300.737	16.55
300.952	16.55
301.166	106.67
301.381	47.27
301.595	8.36
301.809	30.89
302.024	2.22
302.238	39.08
302.452	41.13
302.667	2.22
302.881	51.37
303.095	43.18
303.309	22.7
303.524	28.84
303.738	8.36
303.952	-96.08
304.166	28.84
304.381	-10.07
304.595	69.8
304.809	2.22
305.023	32.94
305.237	24.75
305.452	4.27
305.666	8.36
305.88	61.61
306.094	41.13
306.308	118.95
306.522	77.99
306.736	2.22
306.95	-28.5
307.164	26.79
307.379	41.13
307.593	123.05
307.807	98.47
308.021	41.13
308.235	106.67
308.449	-63.32
308.663	67.75
308.877	102.57
309.091	71.85
309.305	-26.45
309.519	-67.41
309.733	75.95
309.947	-69.46
310.161	51.37
310.374	59.56
310.588	53.42
310.802	22.7
311.016	61.61
311.23	80.04
311.444	0.17
311.658	92.33
311.872	86.19
312.085	82.09
312.299	71.85
312.513	161.96
312.727	59.56
312.941	0.17
313.154	39.08
313.368	98.47
313.582	16.55
313.796	53.42
314.009	59.56
314.223	61.61
314.437	49.32
314.651	69.8
314.864	0.17
315.078	55.47
315.292	4.27
315.505	-83.8
315.719	16.55
315.933	18.6
316.146	-22.36
316.36	39.08
316.573	55.47
316.787	39.08
317.001	69.8
317.214	-14.17
317.428	-26.45
317.641	-69.46
317.855	61.61
318.068	30.89
318.282	96.43
318.495	41.13
318.709	108.71
318.922	-3.93
319.136	63.66
319.349	145.58
319.563	61.61
319.776	82.09
319.99	59.56
320.203	34.99
320.417	26.79
320.63	26.79
320.843	61.61
321.057	-10.07
321.27	77.99
321.483	22.7
321.697	65.71
321.91	47.27
322.124	88.23
322.337	98.47
322.55	-65.36
322.763	32.94
322.977	63.66
323.19	-51.03
323.403	63.66
323.617	26.79
323.83	63.66
324.043	47.27
324.256	63.66
324.469	-32.6
324.683	116.9
324.896	-8.02
325.109	-34.64
325.322	-20.31
325.535	98.47
325.748	24.75
325.962	55.47
326.175	39.08
326.388	61.61
326.601	96.43
326.814	6.31
327.027	8.36
327.24	104.62
327.453	30.89
327.666	61.61
327.879	75.95
328.092	41.13
328.305	10.41
328.518	22.7
328.731	-22.36
328.944	57.51
329.157	43.18
329.37	34.99
329.583	114.86
329.796	131.24
330.009	-40.79
330.222	61.61
330.435	34.99
330.648	84.14
330.861	80.04
331.073	121
331.286	37.03
331.499	49.32
331.712	37.03
331.925	114.86
332.138	10.41
332.35	82.09
332.563	0.17
332.776	90.28
332.989	-18.26
333.202	-14.17
333.414	86.19
333.627	96.43
333.84	75.95
334.053	75.95
334.265	-20.31
334.478	45.23
334.691	49.32
334.903	-12.12
335.116	8.36
335.329	59.56
335.541	10.41
335.754	108.71
335.966	6.31
336.179	-12.12
336.392	-28.5
336.604	94.38
336.817	135.34
337.029	28.84
337.242	118.95
337.454	39.08
337.667	26.79
337.88	143.53
338.092	47.27
338.305	69.8
338.517	-63.32
338.729	55.47
338.942	92.33
339.154	84.14
339.367	20.65
339.579	18.6
339.792	2.22
340.004	61.61
340.217	75.95
340.429	-16.21
340.641	-5.97
340.854	8.36
341.066	51.37
341.278	88.23
341.491	125.1
341.703	55.47
341.915	4.27
342.128	94.38
342.34	2.22
342.552	8.36
342.764	53.42
342.977	28.84
343.189	110.76
343.401	55.47
343.613	69.8
343.826	104.62
344.038	16.55
344.25	118.95
344.462	41.13
344.674	45.23
344.886	10.41
345.099	98.47
345.311	84.14
345.523	65.71
345.735	-22.36
345.947	102.57
346.159	8.36
346.371	77.99
346.583	47.27
346.795	180.39
347.007	6.31
347.219	71.85
347.431	84.14
347.643	71.85
347.855	0.17
348.067	63.66
348.279	-10.07
348.491	45.23
348.703	123.05
348.915	96.43
349.127	43.18
349.339	49.32
349.551	2.22
349.763	133.29
349.975	16.55
350.187	96.43
350.399	100.52
350.61	139.43
350.822	14.51
351.034	63.66
351.246	41.13
351.458	24.75
351.669	6.31
351.881	71.85
352.093	133.29
352.305	92.33
352.517	67.75
352.728	147.62
352.94	61.61
353.152	73.9
353.363	8.36
353.575	94.38
353.787	149.67
353.999	75.95
354.21	102.57
354.422	67.75
354.633	47.27
354.845	-24.4
355.057	37.03
355.268	47.27
355.48	45.23
355.692	-16.21
355.903	37.03
356.115	-59.22
356.326	-32.6
356.538	69.8
356.749	94.38
356.961	77.99
357.172	61.61
357.384	59.56
357.595	153.77
357.807	0.17
358.018	-26.45
358.23	57.51
358.441	161.96
358.653	106.67
358.864	55.47
359.075	59.56
359.287	104.62
359.498	88.23
359.709	39.08
359.921	43.18
360.132	12.46
360.344	32.94
360.555	-32.6
360.766	37.03
360.977	59.56
361.189	59.56
361.4	47.27
361.611	49.32
361.823	88.23
362.034	94.38
362.245	4.27
362.456	53.42
362.667	2.22
362.879	20.65
363.09	77.99
363.301	43.18
363.512	57.51
363.723	32.94
363.935	30.89
364.146	18.6
364.357	-5.97
364.568	51.37
364.779	-30.55
364.99	67.75
365.201	-22.36
365.412	141.48
365.623	39.08
365.834	102.57
366.045	121
366.256	18.6
366.467	45.23
366.678	41.13
366.889	18.6
367.1	37.03
367.311	143.53
367.522	49.32
367.733	73.9
367.944	69.8
368.155	37.03
368.366	45.23
368.577	57.51
368.788	98.47
368.999	-42.84
369.209	18.6
369.42	112.81
369.631	166.06
369.842	63.66
370.053	24.75
370.264	106.67
370.474	49.32
370.685	-14.17
370.896	77.99
371.107	94.38
371.317	135.34
371.528	26.79
371.739	106.67
371.95	145.58
372.16	49.32
372.371	4.27
372.582	30.89
372.792	108.71
373.003	88.23
373.214	67.75
373.424	121
373.635	-20.31
373.846	73.9
374.056	-1.88
374.267	2.22
374.477	98.47
374.688	53.42
374.898	75.95
375.109	34.99
375.319	24.75
375.53	49.32
375.74	53.42
375.951	8.36
376.161	47.27
376.372	75.95
376.582	24.75
376.793	-12.12
377.003	28.84
377.214	16.55
377.424	12.46
377.635	0.17
377.845	-55.12
378.055	88.23
378.266	59.56
378.476	-5.97
378.686	-14.17
378.897	84.14
379.107	114.86
379.317	88.23
379.528	-18.26
379.738	67.75
379.948	-28.5
380.158	51.37
380.369	39.08
380.579	71.85
380.789	22.7
380.999	100.52
381.21	47.27
381.42	149.67
381.63	16.55
381.84	100.52
382.05	125.1
382.261	86.19
382.471	32.94
382.681	-8.02
382.891	45.23
383.101	84.14
383.311	-100.18
383.521	2.22
383.731	69.8
383.941	20.65
384.151	73.9
384.361	-5.97
384.571	82.09
384.781	12.46
384.991	88.23
385.201	123.05
385.411	88.23
385.621	94.38
385.831	26.79
386.041	6.31
386.251	71.85
386.461	141.48
386.671	55.47
386.881	84.14
387.091	77.99
387.301	45.23
387.511	69.8
387.72	63.66
387.93	82.09
388.14	-28.5
388.35	90.28
388.56	82.09
388.769	172.2
388.979	106.67
389.189	-12.12
389.399	32.94
389.609	116.9
389.818	82.09
390.028	26.79
390.238	100.52
390.447	77.99
390.657	67.75
390.867	-53.08
391.076	0.17
391.286	30.89
391.496	98.47
391.705	86.19
391.915	161.96
392.125	155.82
392.334	-22.36
392.544	106.67
392.753	65.71
392.963	0.17
393.172	90.28
393.382	65.71
393.591	86.19
393.801	37.03
394.01	121
394.22	94.38
394.429	125.1
394.639	26.79
394.848	34.99
395.058	75.95
395.267	67.75
395.477	143.53
395.686	94.38
395.895	196.78
396.105	114.86
396.314	88.23
396.524	127.14
396.733	47.27
396.942	71.85
397.152	129.19
397.361	153.77
397.57	47.27
397.78	49.32
397.989	112.81
398.198	192.68
398.407	125.1
398.617	63.66
398.826	65.71
399.035	71.85
399.244	143.53
399.453	102.57
399.663	159.91
399.872	143.53
400.081	125.1
400.29	168.1
400.499	39.08
400.708	155.82
400.917	159.91
401.127	47.27
401.336	145.58
401.545	207.02
401.754	123.05
401.963	112.81
402.172	90.28
402.381	82.09
402.59	86.19
402.799	180.39
403.008	153.77
403.217	135.34
403.426	139.43
403.635	123.05
403.844	104.62
404.053	207.02
404.262	53.42
404.471	221.35
404.68	73.9
404.888	172.2
405.097	141.48
405.306	96.43
405.515	170.15
405.724	184.49
405.933	202.92
406.142	108.71
406.35	200.87
406.559	194.73
406.768	190.63
406.977	268.45
407.185	243.88
407.394	231.59
407.603	176.3
407.812	217.26
408.02	207.02
408.229	260.26
408.438	262.31
408.646	221.35
408.855	241.83
409.064	276.65
409.272	229.54
409.481	264.36
409.69	223.4
409.898	270.5
410.107	325.8
410.315	377
410.524	309.41
410.733	338.09
410.941	391.33
411.15	405.67
411.358	407.72
411.567	385.19
411.775	393.38
411.984	403.62
412.192	508.07
412.401	444.58
412.609	553.12
412.818	555.17
413.026	522.4
413.234	485.54
413.443	415.91
413.651	684.19
413.86	510.11
414.068	665.76
414.276	620.71
414.485	600.23
414.693	753.82
414.901	766.11
415.11	686.24
415.318	762.02
415.526	753.82
415.734	845.98
415.943	815.26
416.151	923.8
416.359	909.47
416.567	909.47
416.776	962.72
416.984	987.29
417.192	1032.35
417.4	970.91
417.608	989.34
417.817	1052.83
418.025	1235.1
418.233	1222.81
418.441	1169.56
418.649	1274.01
418.857	1261.72
419.065	1335.45
419.273	1271.96
419.481	1394.84
419.689	1441.94
419.897	1540.24
420.105	1501.33
420.313	1663.12
420.521	1605.78
420.729	1693.84
420.937	1671.31
421.145	1769.62
421.353	1972.36
421.561	2089.1
421.769	1970.32
421.977	2027.66
422.185	1970.32
422.393	2138.25
422.601	2320.52
422.809	2310.28
423.017	2392.2
423.224	2375.81
423.432	2603.14
423.64	2578.56
423.848	2738.3
424.056	2721.92
424.263	2898.05
424.471	2926.72
424.679	2934.91
424.887	3119.23
425.094	3211.39
425.302	3227.77
425.51	3305.59
425.718	3379.32
425.925	3430.52
426.133	3479.67
426.341	3860.59
426.548	3971.18
426.756	4010.09
426.964	4018.29
427.171	4272.23
427.379	4325.48
427.586	4425.83
427.794	4704.35
428.001	4667.49
428.209	4907.1
428.417	4794.47
428.624	5081.18
428.832	5202.01
429.039	5376.09
429.247	5167.2
429.454	5765.2
429.662	6092.88
429.869	5693.52
430.076	6170.7
430.284	5924.94
430.491	6228.04
430.699	6443.08
430.906	6500.42
431.114	6514.76
431.321	6901.83
431.528	7118.91
431.736	7327.8
431.943	7686.2
432.15	7469.11
432.358	7759.92
432.565	8028.21
432.772	7977.01
432.979	8374.31
433.187	8476.71
433.394	8634.41
433.601	9027.62
433.808	9136.16
434.016	9246.75
434.223	9697.3
434.43	10008.59
434.637	10248.21
434.844	10532.87
435.052	10809.35
435.259	10792.97
435.466	10647.56
435.673	10622.98
435.88	11313.15
436.087	12005.36
436.294	12009.46
436.501	11718.65
436.708	11872.25
436.915	12351.47
437.122	12842.98
437.329	12783.59
437.537	13369.31
437.743	13635.55
437.95	13498.33
438.157	14061.52
438.364	14686.15
438.571	14211.03
438.778	14649.29
438.985	15900.6
439.192	15431.62
439.399	15847.35
439.606	15261.63
439.813	16283.57
440.02	17145.77
440.227	16967.59
440.433	16961.45
440.64	17276.84
440.847	17227.68
441.054	17835.93
441.261	19134.34
441.467	18691.98
441.674	18636.69
441.881	19724.16
442.088	19642.24
442.294	19468.16
442.501	20045.69
442.708	20586.35
442.914	21155.69
443.121	21972.83
443.328	21462.88
443.534	23029.58
443.741	22548.31
443.948	22087.51
444.154	23729.98
444.361	23623.49
444.568	23881.53
444.774	23705.41
444.981	24457.01
445.187	24559.41
445.394	25788.19
445.6	25351.98
445.807	27461.38
446.013	26697.49
446.22	27051.79
446.426	28202.75
446.633	28745.46
446.839	29519.59
447.046	28073.73
447.252	29816.55
447.459	29955.81
447.665	29777.64
447.871	31241.93
448.078	32407.23
448.284	30658.26
448.491	31422.16
448.697	33386.16
448.903	33392.3
449.11	33648.3
449.316	33089.2
449.522	33648.3
449.728	34457.24
449.935	34786.97
450.141	34766.49
450.347	35667.59
450.553	34516.64
450.76	34520.73
450.966	36150.92
451.172	35628.68
451.378	36892.28
451.584	35835.53
451.791	36871.8
451.997	36785.79
452.203	37060.21
452.409	37426.8
452.615	37047.93
452.821	35585.68
453.027	35669.64
453.233	37107.32
453.44	35550.86
453.646	35948.17
453.852	36816.5
454.058	37092.98
454.264	36081.28
454.47	36615.8
454.676	35260.05
454.882	36646.52
455.088	33808.04
455.294	33947.3
455.5	35002
455.705	35133.07
455.911	33380.01
456.117	32868.02
456.323	32546.49
456.529	30867.16
456.735	32218.82
456.941	31540.94
457.147	31059.66
457.352	29777.64
457.558	29556.46
457.764	29665
457.97	29175.53
458.176	28524.28
458.381	28921.59
458.587	27420.42
458.793	27094.8
458.999	25775.91
459.204	27647.75
459.41	26724.11
459.616	25284.39
459.821	24837.94
460.027	24844.08
460.233	24563.51
460.438	23111.5
460.644	23514.95
460.85	22513.49
461.055	22089.56
461.261	21956.44
461.466	20268.92
461.672	19826.56
461.878	21026.67
462.083	19855.23
462.289	19439.49
462.494	19240.84
462.7	18470.8
462.905	17737.63
463.111	18452.37
463.316	18489.23
463.522	17991.58
463.727	18112.41
463.932	18073.49
464.138	17991.58
464.343	18016.15
464.549	17541.02
464.754	18114.45
464.959	17940.38
465.165	17610.65
465.37	17100.71
465.575	16547.76
465.781	17319.84
465.986	17274.79
466.191	16738.22
466.397	16687.02
466.602	15568.83
466.807	16211.89
