Data from USB4F104151__5__12-11-15-263.txt Node

Date: Fri Mar 14 12:11:15 EDT 2025
User: louis
Spectrometer: USB4F10415
Trigger mode: 4
Integration Time (sec): 5.000000E-2
Scans to average: 1
Electric dark correction enabled: true
Nonlinearity correction enabled: false
Boxcar width: 0
XAxis mode: Wavelengths
Number of Pixels in Spectrum: 3648
>>>>>Begin Spectral Data<<<<<
178.204	-136.36
178.424	-136.36
178.644	-136.36
178.864	-165.03
179.084	-296.1
179.304	13.14
179.524	0.85
179.744	-25.77
179.964	17.24
180.184	-1.19
180.404	50
180.624	33.62
180.844	4.95
181.064	-70.83
181.283	19.29
181.503	-76.97
181.723	35.67
181.943	-29.87
182.163	99.16
182.383	13.14
182.602	78.68
182.822	140.12
183.042	-1.19
183.262	19.29
183.482	23.38
183.701	17.24
183.921	-3.24
184.141	-1.19
184.361	52.05
184.58	25.43
184.8	29.52
185.02	7
185.239	129.88
185.459	52.05
185.679	82.77
185.898	-36.01
186.118	68.44
186.338	9.05
186.557	39.76
186.777	2.9
186.997	9.05
187.216	64.34
187.436	146.26
187.655	127.83
187.875	140.12
188.095	52.05
188.314	93.01
188.534	113.49
188.753	-9.39
188.973	168.79
189.192	76.63
189.412	29.52
189.631	29.52
189.851	68.44
190.07	113.49
190.29	-36.01
190.509	60.24
190.729	21.33
190.948	66.39
191.168	226.13
191.387	90.96
191.607	-23.72
191.826	99.16
192.045	82.77
192.265	15.19
192.484	-23.72
192.704	68.44
192.923	-3.24
193.142	117.59
193.362	23.38
193.581	109.4
193.8	72.53
194.02	60.24
194.239	45.91
194.458	90.96
194.678	17.24
194.897	31.57
195.116	66.39
195.335	-1.19
195.555	7
195.774	-9.39
195.993	50
196.212	50
196.432	-33.96
196.651	47.96
196.87	41.81
197.089	138.07
197.308	54.1
197.528	72.53
197.747	-76.97
197.966	97.11
198.185	105.3
198.404	-7.34
198.623	74.58
198.842	90.96
199.062	43.86
199.281	109.4
199.5	64.34
199.719	-1.19
199.938	4.95
200.157	111.44
200.376	111.44
200.595	41.81
200.814	97.11
201.033	56.15
201.252	99.16
201.471	109.4
201.69	109.4
201.909	76.63
202.128	111.44
202.347	45.91
202.566	70.48
202.785	-40.11
203.004	-60.59
203.223	170.83
203.442	68.44
203.661	37.72
203.879	99.16
204.098	105.3
204.317	13.14
204.536	21.33
204.755	60.24
204.974	15.19
205.193	23.38
205.411	93.01
205.63	95.06
205.849	97.11
206.068	-25.77
206.287	43.86
206.505	72.53
206.724	2.9
206.943	13.14
207.162	-7.34
207.381	41.81
207.599	52.05
207.818	-1.19
208.037	4.95
208.255	45.91
208.474	27.48
208.693	70.48
208.911	84.82
209.13	58.2
209.349	101.2
209.567	33.62
209.786	97.11
210.005	39.76
210.223	50
210.442	-54.44
210.661	72.53
210.879	9.05
211.098	29.52
211.316	37.72
211.535	27.48
211.753	11.09
211.972	60.24
212.191	35.67
212.409	109.4
212.628	35.67
212.846	-7.34
213.065	68.44
213.283	158.55
213.502	113.49
213.72	-23.72
213.938	11.09
214.157	-46.25
214.375	66.39
214.594	70.48
214.812	64.34
215.031	50
215.249	-19.63
215.467	93.01
215.686	-19.63
215.904	101.2
216.122	9.05
216.341	70.48
216.559	13.14
216.778	88.92
216.996	105.3
217.214	-5.29
217.432	-9.39
217.651	23.38
217.869	43.86
218.087	19.29
218.306	11.09
218.524	99.16
218.742	47.96
218.96	-11.43
219.179	21.33
219.397	45.91
219.615	86.87
219.833	56.15
220.051	58.2
220.27	62.29
220.488	115.54
220.706	60.24
220.924	27.48
221.142	47.96
221.36	29.52
221.578	88.92
221.796	70.48
222.015	47.96
222.233	72.53
222.451	127.83
222.669	7
222.887	62.29
223.105	15.19
223.323	43.86
223.541	25.43
223.759	64.34
223.977	88.92
224.195	82.77
224.413	117.59
224.631	107.35
224.849	76.63
225.067	129.88
225.285	-29.87
225.503	19.29
225.721	-33.96
225.939	74.58
226.157	-9.39
226.375	236.37
226.592	19.29
226.81	88.92
227.028	115.54
227.246	43.86
227.464	50
227.682	56.15
227.9	-19.63
228.117	50
228.335	43.86
228.553	72.53
228.771	-27.82
228.989	-3.24
229.206	78.68
229.424	64.34
229.642	17.24
229.86	50
230.077	129.88
230.295	-17.58
230.513	78.68
230.731	78.68
230.948	123.73
231.166	119.64
231.384	82.77
231.601	39.76
231.819	78.68
232.037	35.67
232.254	9.05
232.472	25.43
232.689	31.57
232.907	62.29
233.125	7
233.342	2.9
233.56	-38.06
233.777	27.48
233.995	17.24
234.213	84.82
234.43	17.24
234.648	21.33
234.865	47.96
235.083	47.96
235.3	-3.24
235.518	-33.96
235.735	152.4
235.953	54.1
236.17	-7.34
236.388	9.05
236.605	2.9
236.822	123.73
237.04	70.48
237.257	21.33
237.475	-23.72
237.692	70.48
237.909	76.63
238.127	13.14
238.344	58.2
238.562	-31.91
238.779	-42.15
238.996	19.29
239.214	31.57
239.431	68.44
239.648	50
239.865	47.96
240.083	52.05
240.3	115.54
240.517	56.15
240.735	31.57
240.952	101.2
241.169	162.64
241.386	-36.01
241.603	41.81
241.821	17.24
242.038	78.68
242.255	62.29
242.472	-44.2
242.689	4.95
242.907	25.43
243.124	121.68
243.341	45.91
243.558	50
243.775	-25.77
243.992	13.14
244.209	54.1
244.426	146.26
244.643	142.16
244.86	27.48
245.078	56.15
245.295	78.68
245.512	101.2
245.729	0.85
245.946	56.15
246.163	33.62
246.38	47.96
246.597	33.62
246.814	41.81
247.031	29.52
247.248	39.76
247.464	45.91
247.681	37.72
247.898	29.52
248.115	37.72
248.332	93.01
248.549	58.2
248.766	101.2
248.983	93.01
249.2	37.72
249.417	54.1
249.633	39.76
249.85	11.09
250.067	99.16
250.284	41.81
250.501	2.9
250.717	64.34
250.934	-19.63
251.151	-42.15
251.368	-36.01
251.585	25.43
251.801	-15.53
252.018	19.29
252.235	99.16
252.451	45.91
252.668	7
252.885	58.2
253.102	37.72
253.318	33.62
253.535	29.52
253.752	50
253.968	0.85
254.185	21.33
254.401	35.67
254.618	82.77
254.835	19.29
255.051	105.3
255.268	95.06
255.484	113.49
255.701	21.33
255.917	109.4
256.134	43.86
256.351	47.96
256.567	-1.19
256.784	50
257	52.05
257.217	50
257.433	80.72
257.65	47.96
257.866	101.2
258.082	-11.43
258.299	-7.34
258.515	95.06
258.732	37.72
258.948	-5.29
259.165	80.72
259.381	21.33
259.597	64.34
259.814	56.15
260.03	13.14
260.246	37.72
260.463	-11.43
260.679	138.07
260.895	29.52
261.112	37.72
261.328	27.48
261.544	9.05
261.761	78.68
261.977	-5.29
262.193	19.29
262.409	58.2
262.626	-5.29
262.842	43.86
263.058	29.52
263.274	56.15
263.49	-3.24
263.707	129.88
263.923	86.87
264.139	78.68
264.355	13.14
264.571	72.53
264.787	109.4
265.004	11.09
265.22	-11.43
265.436	-19.63
265.652	11.09
265.868	82.77
266.084	17.24
266.3	21.33
266.516	54.1
266.732	23.38
266.948	99.16
267.164	23.38
267.38	43.86
267.596	9.05
267.812	133.97
268.028	47.96
268.244	-21.67
268.46	-19.63
268.676	23.38
268.892	19.29
269.108	-11.43
269.324	15.19
269.54	-52.39
269.756	97.11
269.972	-21.67
270.188	31.57
270.403	-13.48
270.619	39.76
270.835	45.91
271.051	19.29
271.267	56.15
271.483	9.05
271.698	60.24
271.914	58.2
272.13	84.82
272.346	58.2
272.562	-40.11
272.777	99.16
272.993	25.43
273.209	52.05
273.425	23.38
273.64	-19.63
273.856	-1.19
274.072	35.67
274.287	9.05
274.503	29.52
274.719	111.44
274.934	50
275.15	25.43
275.366	-31.91
275.581	39.76
275.797	9.05
276.012	105.3
276.228	-9.39
276.444	41.81
276.659	101.2
276.875	-93.35
277.09	17.24
277.306	29.52
277.521	117.59
277.737	62.29
277.952	99.16
278.168	50
278.383	13.14
278.599	50
278.814	66.39
279.03	15.19
279.245	74.58
279.461	84.82
279.676	-38.06
279.892	-27.82
280.107	27.48
280.322	25.43
280.538	50
280.753	33.62
280.969	129.88
281.184	25.43
281.399	99.16
281.615	50
281.83	41.81
282.045	56.15
282.26	115.54
282.476	33.62
282.691	47.96
282.906	50
283.122	11.09
283.337	-79.02
283.552	150.36
283.767	66.39
283.983	41.81
284.198	-15.53
284.413	62.29
284.628	41.81
284.843	13.14
285.058	58.2
285.274	62.29
285.489	52.05
285.704	-23.72
285.919	-11.43
286.134	2.9
286.349	54.1
286.564	43.86
286.779	123.73
286.995	25.43
287.21	-17.58
287.425	74.58
287.64	17.24
287.855	21.33
288.07	62.29
288.285	82.77
288.5	37.72
288.715	4.95
288.93	21.33
289.145	84.82
289.36	56.15
289.575	-38.06
289.79	115.54
290.004	-60.59
290.219	70.48
290.434	-87.21
290.649	45.91
290.864	37.72
291.079	62.29
291.294	78.68
291.509	86.87
291.724	56.15
291.938	-62.63
292.153	76.63
292.368	-27.82
292.583	64.34
292.798	58.2
293.012	74.58
293.227	-13.48
293.442	35.67
293.657	19.29
293.871	88.92
294.086	133.97
294.301	113.49
294.516	164.69
294.73	125.78
294.945	-5.29
295.16	84.82
295.374	90.96
295.589	56.15
295.804	127.83
296.018	72.53
296.233	31.57
296.447	15.19
296.662	33.62
296.877	99.16
297.091	62.29
297.306	33.62
297.52	109.4
297.735	105.3
297.949	35.67
298.164	47.96
298.378	45.91
298.593	-25.77
298.807	17.24
299.022	50
299.236	144.21
299.451	45.91
299.665	0.85
299.88	29.52
300.094	0.85
300.309	31.57
300.523	78.68
300.737	43.86
300.952	105.3
301.166	64.34
301.381	47.96
301.595	21.33
301.809	93.01
302.024	11.09
302.238	35.67
302.452	58.2
302.667	45.91
302.881	72.53
303.095	66.39
303.309	82.77
303.524	70.48
303.738	76.63
303.952	9.05
304.166	43.86
304.381	-103.59
304.595	158.55
304.809	-19.63
305.023	101.2
305.237	52.05
305.452	9.05
305.666	70.48
305.88	105.3
306.094	105.3
306.308	37.72
306.522	58.2
306.736	154.45
306.95	41.81
307.164	33.62
307.379	74.58
307.593	90.96
307.807	93.01
308.021	66.39
308.235	58.2
308.449	-44.2
308.663	-29.87
308.877	95.06
309.091	58.2
309.305	31.57
309.519	-36.01
309.733	58.2
309.947	-56.49
310.161	109.4
310.374	68.44
310.588	119.64
310.802	-15.53
311.016	113.49
311.23	41.81
311.444	-3.24
311.658	45.91
311.872	45.91
312.085	80.72
312.299	119.64
312.513	111.44
312.727	-5.29
312.941	52.05
313.154	33.62
313.368	17.24
313.582	56.15
313.796	13.14
314.009	115.54
314.223	109.4
314.437	99.16
314.651	52.05
314.864	-3.24
315.078	45.91
315.292	-33.96
315.505	76.63
315.719	54.1
315.933	60.24
316.146	88.92
316.36	17.24
316.573	88.92
316.787	45.91
317.001	62.29
317.214	-44.2
317.428	56.15
317.641	50
317.855	41.81
318.068	70.48
318.282	50
318.495	88.92
318.709	125.78
318.922	56.15
319.136	138.07
319.349	88.92
319.563	4.95
319.776	-7.34
319.99	-21.67
320.203	33.62
320.417	52.05
320.63	99.16
320.843	109.4
321.057	-36.01
321.27	13.14
321.483	117.59
321.697	58.2
321.91	64.34
322.124	68.44
322.337	72.53
322.55	25.43
322.763	37.72
322.977	47.96
323.19	76.63
323.403	76.63
323.617	109.4
323.83	99.16
324.043	39.76
324.256	60.24
324.469	45.91
324.683	82.77
324.896	50
325.109	72.53
325.322	7
325.535	58.2
325.748	7
325.962	90.96
326.175	15.19
326.388	2.9
326.601	60.24
326.814	-1.19
327.027	58.2
327.24	107.35
327.453	29.52
327.666	105.3
327.879	82.77
328.092	58.2
328.305	58.2
328.518	37.72
328.731	33.62
328.944	50
329.157	37.72
329.37	31.57
329.583	156.5
329.796	88.92
330.009	-27.82
330.222	121.68
330.435	72.53
330.648	99.16
330.861	86.87
331.073	35.67
331.286	62.29
331.499	86.87
331.712	13.14
331.925	58.2
332.138	64.34
332.35	138.07
332.563	13.14
332.776	113.49
332.989	-54.44
333.202	-15.53
333.414	105.3
333.627	-40.11
333.84	25.43
334.053	60.24
334.265	19.29
334.478	109.4
334.691	21.33
334.903	7
335.116	33.62
335.329	35.67
335.541	45.91
335.754	119.64
335.966	19.29
336.179	66.39
336.392	103.25
336.604	78.68
336.817	35.67
337.029	25.43
337.242	64.34
337.454	60.24
337.667	7
337.88	170.83
338.092	25.43
338.305	9.05
338.517	47.96
338.729	70.48
338.942	76.63
339.154	31.57
339.367	41.81
339.579	123.73
339.792	62.29
340.004	-1.19
340.217	25.43
340.429	-33.96
340.641	43.86
340.854	60.24
341.066	58.2
341.278	11.09
341.491	70.48
341.703	76.63
341.915	-23.72
342.128	97.11
342.34	-7.34
342.552	35.67
342.764	-13.48
342.977	37.72
343.189	101.2
343.401	37.72
343.613	33.62
343.826	109.4
344.038	-31.91
344.25	45.91
344.462	62.29
344.674	45.91
344.886	17.24
345.099	82.77
345.311	95.06
345.523	13.14
345.735	17.24
345.947	64.34
346.159	76.63
346.371	39.76
346.583	23.38
346.795	199.51
347.007	-1.19
347.219	80.72
347.431	39.76
347.643	127.83
347.855	0.85
348.067	11.09
348.279	25.43
348.491	78.68
348.703	99.16
348.915	76.63
349.127	76.63
349.339	39.76
349.551	15.19
349.763	70.48
349.975	86.87
350.187	78.68
350.399	115.54
350.61	72.53
350.822	-9.39
351.034	27.48
351.246	109.4
351.458	90.96
351.669	31.57
351.881	133.97
352.093	95.06
352.305	45.91
352.517	33.62
352.728	78.68
352.94	33.62
353.152	84.82
353.363	76.63
353.575	123.73
353.787	170.83
353.999	99.16
354.21	62.29
354.422	-38.06
354.633	97.11
354.845	62.29
355.057	-23.72
355.268	86.87
355.48	45.91
355.692	0.85
355.903	4.95
356.115	17.24
356.326	-66.73
356.538	86.87
356.749	105.3
356.961	160.59
357.172	-5.29
357.384	17.24
357.595	183.12
357.807	21.33
358.018	54.1
358.23	-7.34
358.441	111.44
358.653	97.11
358.864	43.86
359.075	27.48
359.287	35.67
359.498	64.34
359.709	31.57
359.921	33.62
360.132	90.96
360.344	33.62
360.555	-21.67
360.766	52.05
360.977	13.14
361.189	68.44
361.4	4.95
361.611	174.93
361.823	64.34
362.034	56.15
362.245	-1.19
362.456	7
362.667	-21.67
362.879	133.97
363.09	-15.53
363.301	82.77
363.512	62.29
363.723	93.01
363.935	0.85
364.146	88.92
364.357	37.72
364.568	-1.19
364.779	-11.43
364.99	123.73
365.201	13.14
365.412	97.11
365.623	-50.35
365.834	174.93
366.045	80.72
366.256	88.92
366.467	37.72
366.678	66.39
366.889	78.68
367.1	97.11
367.311	133.97
367.522	23.38
367.733	7
367.944	54.1
368.155	27.48
368.366	50
368.577	62.29
368.788	72.53
368.999	105.3
369.209	25.43
369.42	109.4
369.631	133.97
369.842	11.09
370.053	56.15
370.264	113.49
370.474	39.76
370.685	50
370.896	66.39
371.107	105.3
371.317	31.57
371.528	37.72
371.739	93.01
371.95	50
372.16	99.16
372.371	-25.77
372.582	-7.34
372.792	23.38
373.003	119.64
373.214	88.92
373.424	15.19
373.635	33.62
373.846	95.06
374.056	31.57
374.267	146.26
374.477	47.96
374.688	23.38
374.898	17.24
375.109	101.2
375.319	54.1
375.53	99.16
375.74	103.25
375.951	97.11
376.161	123.73
376.372	82.77
376.582	35.67
376.793	70.48
377.003	37.72
377.214	29.52
377.424	70.48
377.635	68.44
377.845	11.09
378.055	129.88
378.266	29.52
378.476	105.3
378.686	121.68
378.897	142.16
379.107	52.05
379.317	41.81
379.528	138.07
379.738	39.76
379.948	58.2
380.158	164.69
380.369	68.44
380.579	66.39
380.789	41.81
380.999	72.53
381.21	58.2
381.42	99.16
381.63	74.58
381.84	148.31
382.05	97.11
382.261	117.59
382.471	99.16
382.681	-17.58
382.891	93.01
383.101	64.34
383.311	21.33
383.521	-7.34
383.731	78.68
383.941	148.31
384.151	117.59
384.361	43.86
384.571	129.88
384.781	133.97
384.991	136.02
385.201	107.35
385.411	70.48
385.621	80.72
385.831	123.73
386.041	41.81
386.251	50
386.461	107.35
386.671	43.86
386.881	62.29
387.091	-11.43
387.301	21.33
387.511	19.29
387.72	66.39
387.93	37.72
388.14	13.14
388.35	105.3
388.56	-1.19
388.769	133.97
388.979	70.48
389.189	-19.63
389.399	15.19
389.609	56.15
389.818	179.03
390.028	45.91
390.238	60.24
390.447	37.72
390.657	64.34
390.867	62.29
391.076	-21.67
391.286	29.52
391.496	7
391.705	156.5
391.915	72.53
392.125	101.2
392.334	78.68
392.544	99.16
392.753	56.15
392.963	7
393.172	101.2
393.382	47.96
393.591	176.98
393.801	52.05
394.01	68.44
394.22	129.88
394.429	82.77
394.639	93.01
394.848	90.96
395.058	39.76
395.267	0.85
395.477	76.63
395.686	144.21
395.895	133.97
396.105	162.64
396.314	90.96
396.524	125.78
396.733	56.15
396.942	123.73
397.152	35.67
397.361	125.78
397.57	181.07
397.78	56.15
397.989	95.06
398.198	213.84
398.407	123.73
398.617	60.24
398.826	99.16
399.035	105.3
399.244	109.4
399.453	123.73
399.663	119.64
399.872	76.63
400.081	160.59
400.29	203.6
400.499	80.72
400.708	170.83
400.917	111.44
401.127	111.44
401.336	72.53
401.545	238.42
401.754	185.17
401.963	142.16
402.172	123.73
402.381	58.2
402.59	93.01
402.799	56.15
403.008	150.36
403.217	103.25
403.426	107.35
403.635	88.92
403.844	136.02
404.053	129.88
404.262	84.82
404.471	164.69
404.68	158.55
404.888	148.31
405.097	170.83
405.306	111.44
405.515	187.22
405.724	191.31
405.933	215.89
406.142	162.64
406.35	236.37
406.559	133.97
406.768	181.07
406.977	289.62
407.185	207.7
407.394	144.21
407.603	90.96
407.812	230.23
408.02	211.79
408.229	205.65
408.438	199.51
408.646	183.12
408.855	203.6
409.064	285.52
409.272	209.75
409.481	281.43
409.69	273.23
409.898	258.9
410.107	359.25
410.315	312.14
410.524	246.61
410.733	291.66
410.941	293.71
411.15	349.01
411.358	387.92
411.567	469.84
411.775	357.2
411.984	359.25
412.192	424.78
412.401	459.6
412.609	469.84
412.818	426.83
413.026	467.79
413.234	416.59
413.443	455.5
413.651	486.22
413.86	525.13
414.068	580.43
414.276	568.14
414.485	537.42
414.693	635.72
414.901	686.92
415.11	664.4
415.318	607.05
415.526	693.07
415.734	774.99
415.943	717.64
416.151	817.99
416.359	713.55
416.567	756.55
416.776	785.23
416.984	938.82
417.192	848.71
417.4	836.42
417.608	830.28
417.817	793.42
418.025	955.21
418.233	1151.81
418.441	1051.46
418.649	1119.04
418.857	1170.24
419.065	1215.3
419.273	1102.66
419.481	1264.45
419.689	1211.2
419.897	1440.58
420.105	1250.11
420.313	1391.42
420.521	1403.71
420.729	1506.11
420.937	1504.06
421.145	1620.8
421.353	1647.42
421.561	1708.86
421.769	1796.92
421.977	1809.21
422.185	1805.11
422.393	1893.18
422.601	2036.53
422.809	1985.34
423.017	2073.4
423.224	2114.36
423.432	2171.7
423.64	2196.28
423.848	2339.63
424.056	2270
424.263	2607.92
424.471	2460.46
424.679	2587.44
424.887	2716.46
425.094	2765.61
425.302	2833.19
425.51	2833.19
425.718	2945.83
425.925	2970.41
426.133	2972.46
426.341	3377.95
426.548	3455.78
426.756	3560.22
426.964	3455.78
427.171	3713.82
427.379	3908.38
427.586	3883.8
427.794	3775.26
428.001	4201.24
428.209	4231.96
428.417	4281.11
428.624	4535.06
428.832	4653.84
429.039	4592.4
429.247	4496.14
429.454	4907.79
429.662	5180.17
429.869	4895.5
430.076	5176.07
430.284	5059.34
430.491	5479.17
430.699	5565.18
430.906	5593.86
431.114	5616.38
431.321	5972.73
431.528	6142.71
431.736	6308.6
431.943	6699.76
432.15	6570.74
432.358	6589.17
432.565	7019.24
432.772	6875.88
432.979	7275.24
433.187	7281.38
433.394	7373.54
433.601	7650.02
433.808	7987.93
434.016	7789.28
434.223	8207.06
434.43	8747.73
434.637	8600.27
434.844	8774.35
435.052	9206.47
435.259	9163.47
435.466	9224.9
435.673	8985.29
435.88	9761.47
436.087	10382.01
436.294	10392.25
436.501	10197.69
436.708	10310.33
436.915	10523.32
437.122	11094.7
437.329	11010.73
437.537	11518.63
437.743	11418.28
437.95	11592.36
438.157	11946.66
438.364	12532.37
438.571	12311.19
438.778	12683.92
438.985	13578.89
439.192	13023.89
439.399	13464.2
439.606	13179.53
439.813	13906.56
440.02	14856.82
440.227	14805.62
440.433	14307.96
440.64	14912.11
440.847	14779
441.054	15114.86
441.261	16128.61
441.467	15952.48
441.674	16140.9
441.881	16951.89
442.088	16675.41
442.294	16661.08
442.501	17111.63
442.708	17506.89
442.914	18209.34
443.121	18606.65
443.328	18522.68
443.534	19589.67
443.741	19102.26
443.948	18715.19
444.154	20238.88
444.361	20384.29
444.568	20148.77
444.774	19956.26
444.981	20574.75
445.187	20998.68
445.394	21821.96
445.6	21340.69
445.807	23620.08
446.013	22741.5
446.22	22923.77
446.426	23671.28
446.633	23845.35
446.839	24965.59
447.046	23652.84
447.252	25336.27
447.459	25063.89
447.665	24998.36
447.871	26368.45
448.078	27345.33
448.284	26223.05
448.491	26898.87
448.697	27974.06
448.903	28365.22
449.11	28246.44
449.316	27822.51
449.522	28498.34
449.728	29495.7
449.935	29415.83
450.141	29401.49
450.347	29948.3
450.553	29215.13
450.76	29479.32
450.966	30382.47
451.172	29960.59
451.378	30595.46
451.584	30214.54
451.791	30876.03
451.997	30609.79
452.203	31191.42
452.409	31562.1
452.615	31162.75
452.821	30005.64
453.027	29612.43
453.233	31179.13
453.44	30007.69
453.646	30378.37
453.852	30755.2
454.058	30935.42
454.264	30036.36
454.47	30708.1
454.676	30003.6
454.882	30980.48
455.088	28293.54
455.294	28733.85
455.5	29079.96
455.705	29237.66
455.911	27746.73
456.117	27679.15
456.323	26927.55
456.529	25631.18
456.735	26319.3
456.941	26259.91
457.147	25926.09
457.352	24951.26
457.558	24383.97
457.764	24857.05
457.97	24134.12
458.176	23941.61
458.381	23794.15
458.587	22479.36
458.793	22559.23
458.999	21051.92
459.204	22794.75
459.41	22022.66
459.616	20744.73
459.821	20787.74
460.027	20341.28
460.233	20312.61
460.438	19063.35
460.644	19423.79
460.85	18561.59
461.055	17977.92
461.261	17906.24
461.466	16861.78
461.672	16048.74
461.878	17615.43
462.083	16161.37
462.289	16044.64
462.494	15819.36
462.7	15067.76
462.905	14600.82
463.111	15276.65
463.316	15207.02
463.522	15026.8
463.727	15012.46
463.932	15002.22
464.138	14566.01
464.343	14891.63
464.549	14451.32
464.754	14666.36
464.959	14514.81
465.165	14629.49
465.37	13986.43
465.575	13662.85
465.781	14092.93
465.986	14215.8
466.191	13636.23
466.397	13351.56
466.602	12649.11
466.807	13298.31
467.012	13277.83
467.218	13103.76
467.423	13116.05
467.628	12853.91
467.833	13619.85
468.038	13326.99
468.244	12700.31
