Data from USB4F104151__86__12-13-00-451.txt Node

Date: Fri Mar 14 12:13:00 EDT 2025
User: louis
Spectrometer: USB4F10415
Trigger mode: 4
Integration Time (sec): 5.000000E-2
Scans to average: 1
Electric dark correction enabled: true
Nonlinearity correction enabled: false
Boxcar width: 0
XAxis mode: Wavelengths
Number of Pixels in Spectrum: 3648
>>>>>Begin Spectral Data<<<<<
178.204	-223.91
178.424	-223.91
178.644	-223.91
178.864	-203.43
179.084	-215.72
179.304	11.61
179.524	-64.17
179.744	46.42
179.964	15.7
180.184	58.71
180.404	21.85
180.624	-62.12
180.844	-66.22
181.064	-41.64
181.283	13.65
181.503	44.37
181.723	21.85
181.943	-141.99
182.163	132.44
182.383	-15.02
182.602	87.38
182.822	71
183.042	7.51
183.262	-53.93
183.482	9.56
183.701	25.94
183.921	30.04
184.141	38.23
184.361	107.86
184.58	32.08
184.8	5.46
185.02	-51.88
185.239	48.47
185.459	13.65
185.679	42.32
185.898	-12.97
186.118	44.37
186.338	-2.73
186.557	130.39
186.777	-45.74
186.997	-72.36
187.216	-15.02
187.436	132.44
187.655	34.13
187.875	19.8
188.095	23.89
188.314	38.23
188.534	71
188.753	75.09
188.973	175.44
189.192	97.62
189.412	46.42
189.631	85.33
189.851	-37.55
190.07	54.61
190.29	7.51
190.509	-2.73
190.729	38.23
190.948	46.42
191.168	226.64
191.387	-12.97
191.607	23.89
191.826	68.95
192.045	48.47
192.265	66.9
192.484	-6.83
192.704	71
192.923	-29.35
193.142	97.62
193.362	79.19
193.581	48.47
193.8	11.61
194.02	114
194.239	46.42
194.458	38.23
194.678	-0.68
194.897	13.65
195.116	50.52
195.335	-2.73
195.555	13.65
195.774	-25.26
195.993	148.82
196.212	68.95
196.432	-4.78
196.651	-25.26
196.87	-55.98
197.089	130.39
197.308	-10.92
197.528	27.99
197.747	-10.92
197.966	9.56
198.185	163.15
198.404	-45.74
198.623	-21.16
198.842	89.43
199.062	60.76
199.281	68.95
199.5	30.04
199.719	-15.02
199.938	89.43
200.157	58.71
200.376	107.86
200.595	83.28
200.814	34.13
201.033	-29.35
201.252	25.94
201.471	-25.26
201.69	60.76
201.909	77.14
202.128	54.61
202.347	3.41
202.566	27.99
202.785	-8.87
203.004	-10.92
203.223	58.71
203.442	13.65
203.661	58.71
203.879	15.7
204.098	36.18
204.317	17.75
204.536	52.56
204.755	30.04
204.974	42.32
205.193	36.18
205.411	157.01
205.63	42.32
205.849	11.61
206.068	-0.68
206.287	-12.97
206.505	42.32
206.724	87.38
206.943	3.41
207.162	79.19
207.381	9.56
207.599	54.61
207.818	44.37
208.037	23.89
208.255	-23.21
208.474	23.89
208.693	71
208.911	107.86
209.13	101.72
209.349	46.42
209.567	97.62
209.786	124.24
210.005	124.24
210.223	-25.26
210.442	-64.17
210.661	-21.16
210.879	-10.92
211.098	42.32
211.316	83.28
211.535	75.09
211.753	-10.92
211.972	99.67
212.191	54.61
212.409	7.51
212.628	34.13
212.846	40.28
213.065	85.33
213.283	68.95
213.502	-4.78
213.72	54.61
213.938	-17.07
214.157	-35.5
214.375	85.33
214.594	15.7
214.812	66.9
215.031	-39.59
215.249	40.28
215.467	91.48
215.686	17.75
215.904	111.96
216.122	52.56
216.341	50.52
216.559	38.23
216.778	15.7
216.996	140.63
217.214	-60.07
217.432	50.52
217.651	-0.68
217.869	21.85
218.087	81.24
218.306	15.7
218.524	62.8
218.742	-17.07
218.96	19.8
219.179	-12.97
219.397	71
219.615	79.19
219.833	77.14
220.051	105.81
220.27	111.96
220.488	105.81
220.706	23.89
220.924	-10.92
221.142	7.51
221.36	58.71
221.578	89.43
221.796	48.47
222.015	68.95
222.233	-6.83
222.451	136.53
222.669	9.56
222.887	87.38
223.105	-60.07
223.323	-0.68
223.541	5.46
223.759	64.85
223.977	5.46
224.195	85.33
224.413	116.05
224.631	91.48
224.849	-0.68
225.067	107.86
225.285	-41.64
225.503	42.32
225.721	-96.94
225.939	19.8
226.157	48.47
226.375	146.77
226.592	-62.12
226.81	-4.78
227.028	146.77
227.246	161.11
227.464	-10.92
227.682	50.52
227.9	101.72
228.117	85.33
228.335	85.33
228.553	-17.07
228.771	79.19
228.989	56.66
229.206	34.13
229.424	5.46
229.642	13.65
229.86	30.04
230.077	32.08
230.295	7.51
230.513	91.48
230.731	-29.35
230.948	-8.87
231.166	34.13
231.384	19.8
231.601	-6.83
231.819	42.32
232.037	42.32
232.254	-19.11
232.472	-92.84
232.689	11.61
232.907	73.04
233.125	62.8
233.342	-33.45
233.56	-4.78
233.777	-29.35
233.995	36.18
234.213	44.37
234.43	36.18
234.648	3.41
234.865	-47.79
235.083	68.95
235.3	77.14
235.518	-23.21
235.735	109.91
235.953	56.66
236.17	13.65
236.388	34.13
236.605	73.04
236.822	1.37
237.04	56.66
237.257	85.33
237.475	-12.97
237.692	-23.21
237.909	40.28
238.127	-49.83
238.344	44.37
238.562	23.89
238.779	5.46
238.996	38.23
239.214	58.71
239.431	87.38
239.648	32.08
239.865	87.38
240.083	17.75
240.3	-31.4
240.517	-47.79
240.735	30.04
240.952	48.47
241.169	79.19
241.386	48.47
241.603	50.52
241.821	-31.4
242.038	87.38
242.255	56.66
242.472	-8.87
242.689	-6.83
242.907	54.61
243.124	19.8
243.341	54.61
243.558	5.46
243.775	-10.92
243.992	-4.78
244.209	83.28
244.426	109.91
244.643	-35.5
244.86	-23.21
245.078	114
245.295	27.99
245.512	75.09
245.729	-12.97
245.946	32.08
246.163	111.96
246.38	48.47
246.597	30.04
246.814	36.18
247.031	46.42
247.248	7.51
247.464	-19.11
247.681	44.37
247.898	81.24
248.115	101.72
248.332	-29.35
248.549	56.66
248.766	132.44
248.983	128.34
249.2	15.7
249.417	118.1
249.633	-23.21
249.85	99.67
250.067	-17.07
250.284	75.09
250.501	7.51
250.717	44.37
250.934	38.23
251.151	19.8
251.368	44.37
251.585	64.85
251.801	44.37
252.018	-49.83
252.235	48.47
252.451	19.8
252.668	54.61
252.885	-17.07
253.102	48.47
253.318	15.7
253.535	103.76
253.752	42.32
253.968	60.76
254.185	-49.83
254.401	68.95
254.618	23.89
254.835	46.42
255.051	40.28
255.268	-35.5
255.484	-2.73
255.701	23.89
255.917	-2.73
256.134	-10.92
256.351	-21.16
256.567	-49.83
256.784	-25.26
257	54.61
257.217	25.94
257.433	36.18
257.65	44.37
257.866	38.23
258.082	-43.69
258.299	-78.51
258.515	-4.78
258.732	-0.68
258.948	9.56
259.165	5.46
259.381	-17.07
259.597	77.14
259.814	-4.78
260.03	30.04
260.246	-6.83
260.463	36.18
260.679	-4.78
260.895	-51.88
261.112	30.04
261.328	-8.87
261.544	-0.68
261.761	85.33
261.977	42.32
262.193	75.09
262.409	13.65
262.626	11.61
262.842	134.48
263.058	13.65
263.274	25.94
263.49	17.75
263.707	46.42
263.923	17.75
264.139	-70.31
264.355	52.56
264.571	50.52
264.787	27.99
265.004	52.56
265.22	-27.31
265.436	7.51
265.652	21.85
265.868	-29.35
266.084	-19.11
266.3	-6.83
266.516	44.37
266.732	50.52
266.948	32.08
267.164	64.85
267.38	54.61
267.596	122.2
267.812	173.39
268.028	44.37
268.244	-39.59
268.46	52.56
268.676	30.04
268.892	64.85
269.108	25.94
269.324	-2.73
269.54	23.89
269.756	81.24
269.972	-39.59
270.188	9.56
270.403	-29.35
270.619	19.8
270.835	71
271.051	50.52
271.267	19.8
271.483	-6.83
271.698	23.89
271.914	13.65
272.13	38.23
272.346	13.65
272.562	25.94
272.777	89.43
272.993	21.85
273.209	91.48
273.425	36.18
273.64	7.51
273.856	5.46
274.072	50.52
274.287	9.56
274.503	87.38
274.719	7.51
274.934	-19.11
275.15	19.8
275.366	17.75
275.581	-31.4
275.797	-6.83
276.012	-4.78
276.228	-21.16
276.444	27.99
276.659	68.95
276.875	-53.93
277.09	13.65
277.306	-35.5
277.521	64.85
277.737	64.85
277.952	52.56
278.168	46.42
278.383	54.61
278.599	23.89
278.814	-19.11
279.03	66.9
279.245	38.23
279.461	36.18
279.676	27.99
279.892	44.37
280.107	-2.73
280.322	17.75
280.538	42.32
280.753	9.56
280.969	27.99
281.184	32.08
281.399	81.24
281.615	91.48
281.83	-2.73
282.045	-94.89
282.26	-27.31
282.476	44.37
282.691	111.96
282.906	23.89
283.122	91.48
283.337	23.89
283.552	15.7
283.767	-84.65
283.983	126.29
284.198	40.28
284.413	40.28
284.628	-41.64
284.843	1.37
285.058	48.47
285.274	85.33
285.489	7.51
285.704	105.81
285.919	-47.79
286.134	3.41
286.349	77.14
286.564	-55.98
286.779	62.8
286.995	9.56
287.21	-35.5
287.425	60.76
287.64	-74.41
287.855	34.13
288.07	-49.83
288.285	40.28
288.5	107.86
288.715	103.76
288.93	19.8
289.145	-27.31
289.36	-8.87
289.575	68.95
289.79	62.8
290.004	21.85
290.219	23.89
290.434	-4.78
290.649	-31.4
290.864	52.56
291.079	30.04
291.294	38.23
291.509	68.95
291.724	34.13
291.938	46.42
292.153	52.56
292.368	79.19
292.583	54.61
292.798	91.48
293.012	-12.97
293.227	62.8
293.442	-21.16
293.657	56.66
293.871	95.57
294.086	-0.68
294.301	142.68
294.516	148.82
294.73	34.13
294.945	-27.31
295.16	46.42
295.374	52.56
295.589	73.04
295.804	11.61
296.018	27.99
296.233	77.14
296.447	140.63
296.662	-4.78
296.877	50.52
297.091	122.2
297.306	34.13
297.52	44.37
297.735	23.89
297.949	-35.5
298.164	38.23
298.378	56.66
298.593	9.56
298.807	-55.98
299.022	83.28
299.236	97.62
299.451	13.65
299.665	64.85
299.88	11.61
300.094	56.66
300.309	58.71
300.523	118.1
300.737	-8.87
300.952	-29.35
301.166	87.38
301.381	36.18
301.595	-31.4
301.809	71
302.024	27.99
302.238	-17.07
302.452	116.05
302.667	85.33
302.881	83.28
303.095	105.81
303.309	34.13
303.524	5.46
303.738	48.47
303.952	-76.46
304.166	99.67
304.381	-47.79
304.595	120.15
304.809	-41.64
305.023	62.8
305.237	-12.97
305.452	17.75
305.666	1.37
305.88	32.08
306.094	91.48
306.308	75.09
306.522	66.9
306.736	27.99
306.95	48.47
307.164	11.61
307.379	79.19
307.593	105.81
307.807	25.94
308.021	75.09
308.235	15.7
308.449	-29.35
308.663	85.33
308.877	83.28
309.091	68.95
309.305	81.24
309.519	27.99
309.733	64.85
309.947	-39.59
310.161	73.04
310.374	58.71
310.588	-2.73
310.802	-66.22
311.016	-21.16
311.23	111.96
311.444	17.75
311.658	-43.69
311.872	81.24
312.085	97.62
312.299	79.19
312.513	-2.73
312.727	30.04
312.941	66.9
313.154	136.53
313.368	107.86
313.582	3.41
313.796	52.56
314.009	54.61
314.223	83.28
314.437	68.95
314.651	89.43
314.864	-70.31
315.078	-41.64
315.292	19.8
315.505	5.46
315.719	48.47
315.933	-6.83
316.146	-12.97
316.36	-45.74
316.573	-29.35
316.787	3.41
317.001	27.99
317.214	15.7
317.428	140.63
317.641	9.56
317.855	-74.41
318.068	25.94
318.282	-6.83
318.495	87.38
318.709	9.56
318.922	5.46
319.136	124.24
319.349	62.8
319.563	73.04
319.776	60.76
319.99	-17.07
320.203	68.95
320.417	21.85
320.63	21.85
320.843	163.15
321.057	56.66
321.27	118.1
321.483	103.76
321.697	40.28
321.91	11.61
322.124	44.37
322.337	21.85
322.55	-4.78
322.763	23.89
322.977	17.75
323.19	-10.92
323.403	77.14
323.617	54.61
323.83	44.37
324.043	-29.35
324.256	68.95
324.469	-53.93
324.683	136.53
324.896	-12.97
325.109	17.75
325.322	-29.35
325.535	68.95
325.748	107.86
325.962	36.18
326.175	89.43
326.388	36.18
326.601	75.09
326.814	46.42
327.027	15.7
327.24	93.52
327.453	-29.35
327.666	11.61
327.879	95.57
328.092	23.89
328.305	13.65
328.518	-15.02
328.731	9.56
328.944	79.19
329.157	19.8
329.37	-47.79
329.583	124.24
329.796	159.06
330.009	-6.83
330.222	32.08
330.435	75.09
330.648	3.41
330.861	-29.35
331.073	50.52
331.286	83.28
331.499	9.56
331.712	-23.21
331.925	105.81
332.138	62.8
332.35	46.42
332.563	-15.02
332.776	52.56
332.989	30.04
333.202	54.61
333.414	21.85
333.627	52.56
333.84	-8.87
334.053	30.04
334.265	-6.83
334.478	62.8
334.691	64.85
334.903	-25.26
335.116	75.09
335.329	-27.31
335.541	64.85
335.754	169.3
335.966	21.85
336.179	23.89
336.392	17.75
336.604	48.47
336.817	11.61
337.029	21.85
337.242	-15.02
337.454	89.43
337.667	-33.45
337.88	-10.92
338.092	48.47
338.305	34.13
338.517	34.13
338.729	79.19
338.942	40.28
339.154	-19.11
339.367	44.37
339.579	81.24
339.792	15.7
340.004	23.89
340.217	-19.11
340.429	-23.21
340.641	23.89
340.854	-49.83
341.066	30.04
341.278	105.81
341.491	109.91
341.703	32.08
341.915	5.46
342.128	38.23
342.34	62.8
342.552	-8.87
342.764	-64.17
342.977	1.37
343.189	62.8
343.401	36.18
343.613	-33.45
343.826	30.04
344.038	-8.87
344.25	54.61
344.462	-8.87
344.674	19.8
344.886	68.95
345.099	44.37
345.311	83.28
345.523	40.28
345.735	-8.87
345.947	89.43
346.159	173.39
346.371	101.72
346.583	7.51
346.795	118.1
347.007	15.7
347.219	9.56
347.431	11.61
347.643	165.2
347.855	27.99
348.067	99.67
348.279	27.99
348.491	9.56
348.703	46.42
348.915	30.04
349.127	17.75
349.339	15.7
349.551	-47.79
349.763	64.85
349.975	11.61
350.187	87.38
350.399	66.9
350.61	73.04
350.822	-19.11
351.034	118.1
351.246	48.47
351.458	40.28
351.669	40.28
351.881	36.18
352.093	77.14
352.305	85.33
352.517	44.37
352.728	105.81
352.94	93.52
353.152	38.23
353.363	-51.88
353.575	3.41
353.787	87.38
353.999	75.09
354.21	124.24
354.422	-21.16
354.633	9.56
354.845	-21.16
355.057	109.91
355.268	79.19
355.48	11.61
355.692	32.08
355.903	97.62
356.115	25.94
356.326	-8.87
356.538	60.76
356.749	9.56
356.961	91.48
357.172	15.7
357.384	40.28
357.595	128.34
357.807	17.75
358.018	27.99
358.23	54.61
358.441	118.1
358.653	56.66
358.864	99.67
359.075	-10.92
359.287	36.18
359.498	46.42
359.709	85.33
359.921	34.13
360.132	17.75
360.344	-41.64
360.555	38.23
360.766	66.9
360.977	15.7
361.189	95.57
361.4	-33.45
361.611	71
361.823	87.38
362.034	64.85
362.245	60.76
362.456	42.32
362.667	101.72
362.879	17.75
363.09	109.91
363.301	42.32
363.512	68.95
363.723	68.95
363.935	-21.16
364.146	30.04
364.357	-17.07
364.568	120.15
364.779	-12.97
364.99	93.52
365.201	-6.83
365.412	27.99
365.623	13.65
365.834	50.52
366.045	64.85
366.256	54.61
366.467	54.61
366.678	75.09
366.889	50.52
367.1	42.32
367.311	68.95
367.522	-17.07
367.733	40.28
367.944	48.47
368.155	32.08
368.366	50.52
368.577	111.96
368.788	130.39
368.999	-17.07
369.209	81.24
369.42	159.06
369.631	148.82
369.842	62.8
370.053	66.9
370.264	71
370.474	-23.21
370.685	-31.4
370.896	34.13
371.107	111.96
371.317	89.43
371.528	-21.16
371.739	152.91
371.95	25.94
372.16	42.32
372.371	-29.35
372.582	17.75
372.792	124.24
373.003	58.71
373.214	109.91
373.424	25.94
373.635	81.24
373.846	136.53
374.056	77.14
374.267	-4.78
374.477	25.94
374.688	17.75
374.898	79.19
375.109	132.44
375.319	13.65
375.53	91.48
375.74	62.8
375.951	-6.83
376.161	83.28
376.372	95.57
376.582	48.47
376.793	9.56
377.003	13.65
377.214	-15.02
377.424	60.76
377.635	46.42
377.845	-43.69
378.055	150.87
378.266	-0.68
378.476	-45.74
378.686	42.32
378.897	44.37
379.107	95.57
379.317	109.91
379.528	79.19
379.738	19.8
379.948	-37.55
380.158	66.9
380.369	66.9
380.579	111.96
380.789	81.24
380.999	38.23
381.21	30.04
381.42	114
381.63	54.61
381.84	-15.02
382.05	66.9
382.261	93.52
382.471	91.48
382.681	30.04
382.891	142.68
383.101	62.8
383.311	-25.26
383.521	68.95
383.731	91.48
383.941	81.24
384.151	-33.45
384.361	23.89
384.571	152.91
384.781	146.77
384.991	101.72
385.201	167.25
385.411	42.32
385.621	62.8
385.831	36.18
386.041	44.37
386.251	44.37
386.461	107.86
386.671	36.18
386.881	3.41
387.091	68.95
387.301	109.91
387.511	56.66
387.72	68.95
387.93	64.85
388.14	1.37
388.35	25.94
388.56	75.09
388.769	50.52
388.979	-2.73
389.189	79.19
389.399	75.09
389.609	144.72
389.818	77.14
390.028	97.62
390.238	130.39
390.447	-12.97
390.657	60.76
390.867	48.47
391.076	-0.68
391.286	68.95
391.496	52.56
391.705	64.85
391.915	87.38
392.125	109.91
392.334	9.56
392.544	91.48
392.753	23.89
392.963	54.61
393.172	25.94
393.382	44.37
393.591	79.19
393.801	50.52
394.01	89.43
394.22	73.04
394.429	50.52
394.639	27.99
394.848	85.33
395.058	83.28
395.267	97.62
395.477	38.23
395.686	50.52
395.895	195.92
396.105	208.21
396.314	71
396.524	114
396.733	71
396.942	120.15
397.152	48.47
397.361	146.77
397.57	95.57
397.78	138.58
397.989	-31.4
398.198	97.62
398.407	71
398.617	71
398.826	3.41
399.035	52.56
399.244	77.14
399.453	79.19
399.663	97.62
399.872	60.76
400.081	52.56
400.29	134.48
400.499	11.61
400.708	105.81
400.917	56.66
401.127	101.72
401.336	1.37
401.545	109.91
401.754	144.72
401.963	146.77
402.172	-8.87
402.381	83.28
402.59	122.2
402.799	103.76
403.008	93.52
403.217	187.73
403.426	101.72
403.635	44.37
403.844	132.44
404.053	138.58
404.262	202.07
404.471	114
404.68	214.35
404.888	228.69
405.097	83.28
405.306	89.43
405.515	183.63
405.724	208.21
405.933	167.25
406.142	148.82
406.35	173.39
406.559	128.34
406.768	93.52
406.977	224.59
407.185	128.34
407.394	161.11
407.603	167.25
407.812	150.87
408.02	283.98
408.229	175.44
408.438	167.25
408.646	146.77
408.855	253.27
409.064	187.73
409.272	189.78
409.481	279.89
409.69	253.27
409.898	218.45
410.107	314.7
410.315	310.61
410.524	224.59
410.733	249.17
410.941	224.59
411.15	329.04
411.358	382.29
411.567	384.34
411.775	253.27
411.984	335.18
412.192	398.67
412.401	341.33
412.609	458.06
412.818	386.38
413.026	458.06
413.234	464.21
413.443	441.68
413.651	472.4
413.86	505.17
414.068	521.55
414.276	646.48
414.485	464.21
414.693	640.33
414.901	607.56
415.11	582.99
415.318	615.76
415.526	529.74
415.734	687.43
415.943	634.19
416.151	632.14
416.359	660.81
416.567	632.14
416.776	734.54
416.984	699.72
417.192	773.45
417.4	814.41
417.608	783.69
417.817	795.98
418.025	970.05
418.233	1011.01
418.441	918.86
418.649	986.44
418.857	1056.07
419.065	1101.12
419.273	1049.93
419.481	1099.08
419.689	1219.91
419.897	1336.64
420.105	1181
420.313	1324.35
420.521	1396.03
420.729	1320.26
420.937	1402.18
421.145	1400.13
421.353	1477.95
421.561	1572.16
421.769	1594.68
421.977	1641.79
422.185	1721.66
422.393	1731.9
422.601	1854.78
422.809	1905.98
423.017	1862.97
423.224	1996.09
423.432	2012.47
423.64	2069.81
423.848	2358.58
424.056	2098.49
424.263	2405.68
424.471	2297.14
424.679	2420.02
424.887	2475.31
425.094	2604.33
425.302	2723.12
425.51	2725.16
425.718	2762.03
425.925	2647.34
426.133	2932.01
426.341	3173.67
426.548	3206.44
426.756	3128.61
426.964	3251.49
427.171	3460.38
427.379	3446.05
427.586	3605.79
427.794	3681.57
428.001	3912.99
428.209	4042.01
428.417	4042.01
428.624	4269.33
428.832	4281.62
429.039	4279.57
429.247	4144.41
429.454	4482.32
429.662	4816.14
429.869	4519.18
430.076	4994.31
430.284	4789.52
430.491	5115.14
430.699	5311.75
430.906	5385.48
431.114	5287.17
431.321	5463.3
431.528	5727.49
431.736	5999.87
431.943	6139.13
432.15	6044.92
432.358	6079.74
432.565	6761.71
432.772	6423.8
432.979	6823.15
433.187	7032.04
433.394	6995.18
433.601	7462.12
433.808	7591.14
434.016	7556.32
434.223	7740.64
434.43	8254.68
434.637	8004.83
434.844	8598.74
435.052	8664.27
435.259	8709.33
435.466	8658.13
435.673	8586.45
435.88	9200.84
436.087	9725.12
436.294	9657.54
436.501	9395.4
436.708	9651.39
436.915	10063.04
437.122	10349.75
437.329	10349.75
437.537	10493.11
437.743	11003.05
437.95	10785.97
438.157	11484.33
438.364	11842.72
438.571	11793.57
438.778	11730.08
438.985	12838.03
439.192	12565.65
439.399	12692.63
439.606	12498.07
439.813	13042.83
440.02	14105.73
440.227	13911.17
440.433	13855.87
440.64	14062.72
440.847	14005.38
441.054	14240.89
441.261	15318.12
441.467	14914.67
441.674	15586.41
441.881	16129.12
442.088	16020.58
442.294	15776.87
442.501	16237.66
442.708	16499.8
442.914	17101.9
443.121	17941.57
443.328	17310.8
443.534	18727.99
443.741	18162.75
443.948	17951.81
444.154	19047.47
444.361	19217.46
444.568	19360.81
444.774	19250.22
444.981	19362.86
445.187	20349.98
445.394	20751.38
445.6	20646.94
445.807	22363.14
446.013	21457.93
446.22	21994.5
446.426	22995.96
446.633	23028.73
446.839	23643.12
447.046	22729.72
447.252	23921.64
447.459	24351.71
447.665	23852.01
447.871	25205.72
448.078	26330.05
448.284	25060.31
448.491	25451.47
448.697	26694.59
448.903	27120.57
449.11	26729.41
449.316	26221.51
449.522	27171.77
449.728	27900.84
449.935	28205.99
450.141	28199.85
450.347	28677.02
450.553	27708.33
450.76	28175.27
450.966	29275.03
451.172	28900.25
451.378	29350.81
451.584	29025.18
451.791	29709.2
451.997	29784.97
452.203	30098.31
452.409	29836.17
452.615	29973.39
452.821	28550.05
453.027	28533.67
453.233	29971.34
453.44	28599.2
453.646	29037.47
453.852	29086.62
454.058	29637.52
454.264	28824.48
454.47	29254.55
454.676	28584.87
454.882	29549.46
455.088	26768.32
455.294	27347.89
455.5	27546.54
455.705	28175.27
455.911	26893.24
456.117	26463.17
456.323	25992.14
456.529	24689.63
456.735	25891.79
456.941	25072.6
457.147	24548.32
457.352	24005.61
457.558	23540.72
457.764	23776.23
457.97	23194.61
458.176	22537.21
458.381	22787.07
458.587	21595.15
458.793	21404.69
458.999	20460.57
459.204	22096.9
459.41	21228.56
459.616	20048.93
459.821	19954.72
460.027	19901.48
460.233	19315.76
460.438	18472
460.644	18617.4
460.85	17749.06
461.055	17306.7
461.261	17595.46
461.466	16217.18
461.672	15686.76
461.878	16751.7
462.083	15570.02
462.289	15250.54
462.494	14959.73
462.7	14331
462.905	14165.12
463.111	14679.16
463.316	14537.85
463.522	14234.75
463.727	14324.86
463.932	14349.43
464.138	14251.13
464.343	14285.95
464.549	14015.62
464.754	14292.09
464.959	14275.71
465.165	14146.69
465.37	13390.98
465.575	13057.17
465.781	13415.56
465.986	13698.18
466.191	13352.07
466.397	13053.07
466.602	12450.97
466.807	12878.99
467.012	12772.5
