Data from USB4F104151__54__12-12-19-105.txt Node

Date: Fri Mar 14 12:12:19 EDT 2025
User: louis
Spectrometer: USB4F10415
Trigger mode: 4
Integration Time (sec): 5.000000E-2
Scans to average: 1
Electric dark correction enabled: true
Nonlinearity correction enabled: false
Boxcar width: 0
XAxis mode: Wavelengths
Number of Pixels in Spectrum: 3648
>>>>>Begin Spectral Data<<<<<
178.204	-235.35
178.424	-235.35
178.644	-235.35
178.864	-163.67
179.084	-216.91
179.304	-20.31
179.524	10.41
179.744	-26.45
179.964	18.6
180.184	-1.88
180.404	-16.21
180.624	-40.79
180.844	-38.74
181.064	-22.36
181.283	67.75
181.503	6.31
181.723	63.66
181.943	-46.93
182.163	147.62
182.383	-61.27
182.602	55.47
182.822	112.81
183.042	88.23
183.262	100.52
183.482	59.56
183.701	-59.22
183.921	73.9
184.141	-38.74
184.361	129.19
184.58	-5.97
184.8	98.47
185.02	-24.4
185.239	94.38
185.459	69.8
185.679	92.33
185.898	4.27
186.118	69.8
186.338	22.7
186.557	51.37
186.777	-22.36
186.997	57.51
187.216	22.7
187.436	168.1
187.655	131.24
187.875	41.13
188.095	-46.93
188.314	86.19
188.534	84.14
188.753	80.04
188.973	12.46
189.192	26.79
189.412	67.75
189.631	-22.36
189.851	59.56
190.07	71.85
190.29	75.95
190.509	32.94
190.729	-30.55
190.948	57.51
191.168	233.64
191.387	116.9
191.607	57.51
191.826	26.79
192.045	24.75
192.265	61.61
192.484	14.51
192.704	24.75
192.923	0.17
193.142	53.42
193.362	39.08
193.581	106.67
193.8	-10.07
194.02	55.47
194.239	-22.36
194.458	57.51
194.678	63.66
194.897	-18.26
195.116	104.62
195.335	49.32
195.555	-65.36
195.774	-36.69
195.993	92.33
196.212	84.14
196.432	18.6
196.651	-24.4
196.87	-30.55
197.089	143.53
197.308	94.38
197.528	84.14
197.747	-12.12
197.966	16.55
198.185	51.37
198.404	41.13
198.623	20.65
198.842	92.33
199.062	90.28
199.281	96.43
199.5	18.6
199.719	-42.84
199.938	30.89
200.157	84.14
200.376	135.34
200.595	69.8
200.814	77.99
201.033	108.71
201.252	112.81
201.471	43.18
201.69	73.9
201.909	-20.31
202.128	67.75
202.347	59.56
202.566	61.61
202.785	45.23
203.004	-71.51
203.223	237.74
203.442	-1.88
203.661	-5.97
203.879	-12.12
204.098	86.19
204.317	-40.79
204.536	90.28
204.755	6.31
204.974	28.84
205.193	2.22
205.411	161.96
205.63	65.71
205.849	-1.88
206.068	84.14
206.287	90.28
206.505	86.19
206.724	-16.21
206.943	24.75
207.162	59.56
207.381	53.42
207.599	4.27
207.818	24.75
208.037	-44.88
208.255	20.65
208.474	139.43
208.693	96.43
208.911	69.8
209.13	59.56
209.349	22.7
209.567	94.38
209.786	94.38
210.005	49.32
210.223	88.23
210.442	-69.46
210.661	73.9
210.879	-18.26
211.098	92.33
211.316	71.85
211.535	39.08
211.753	-24.4
211.972	92.33
212.191	51.37
212.409	-63.32
212.628	37.03
212.846	-34.64
213.065	28.84
213.283	49.32
213.502	65.71
213.72	-3.93
213.938	28.84
214.157	-20.31
214.375	12.46
214.594	-26.45
214.812	-10.07
215.031	53.42
215.249	-1.88
215.467	32.94
215.686	57.51
215.904	67.75
216.122	61.61
216.341	67.75
216.559	18.6
216.778	47.27
216.996	108.71
217.214	20.65
217.432	96.43
217.651	65.71
217.869	8.36
218.087	-36.69
218.306	82.09
218.524	26.79
218.742	30.89
218.96	37.03
219.179	16.55
219.397	-55.12
219.615	108.71
219.833	77.99
220.051	45.23
220.27	77.99
220.488	98.47
220.706	55.47
220.924	18.6
221.142	61.61
221.36	10.41
221.578	63.66
221.796	116.9
222.015	32.94
222.233	71.85
222.451	133.29
222.669	-40.79
222.887	75.95
223.105	-1.88
223.323	22.7
223.541	-28.5
223.759	121
223.977	14.51
224.195	75.95
224.413	49.32
224.631	18.6
224.849	65.71
225.067	82.09
225.285	45.23
225.503	43.18
225.721	-79.7
225.939	0.17
226.157	51.37
226.375	176.3
226.592	34.99
226.81	-51.03
227.028	59.56
227.246	28.84
227.464	34.99
227.682	108.71
227.9	30.89
228.117	-10.07
228.335	26.79
228.553	0.17
228.771	96.43
228.989	135.34
229.206	71.85
229.424	41.13
229.642	-18.26
229.86	20.65
230.077	121
230.295	51.37
230.513	88.23
230.731	71.85
230.948	94.38
231.166	145.58
231.384	-22.36
231.601	69.8
231.819	96.43
232.037	30.89
232.254	-36.69
232.472	24.75
232.689	61.61
232.907	32.94
233.125	45.23
233.342	94.38
233.56	-67.41
233.777	-3.93
233.995	49.32
234.213	84.14
234.43	108.71
234.648	28.84
234.865	26.79
235.083	170.15
235.3	-10.07
235.518	65.71
235.735	80.04
235.953	28.84
236.17	45.23
236.388	18.6
236.605	88.23
236.822	34.99
237.04	57.51
237.257	92.33
237.475	18.6
237.692	75.95
237.909	84.14
238.127	20.65
238.344	30.89
238.562	59.56
238.779	-44.88
238.996	-24.4
239.214	12.46
239.431	53.42
239.648	-8.02
239.865	88.23
240.083	65.71
240.3	43.18
240.517	-14.17
240.735	24.75
240.952	82.09
241.169	84.14
241.386	51.37
241.603	77.99
241.821	-16.21
242.038	98.47
242.255	32.94
242.472	-55.12
242.689	-1.88
242.907	80.04
243.124	24.75
243.341	41.13
243.558	-16.21
243.775	-34.64
243.992	-5.97
244.209	12.46
244.426	174.25
244.643	137.38
244.86	55.47
245.078	82.09
245.295	30.89
245.512	75.95
245.729	-51.03
245.946	71.85
246.163	18.6
246.38	6.31
246.597	63.66
246.814	137.38
247.031	26.79
247.248	39.08
247.464	41.13
247.681	39.08
247.898	49.32
248.115	30.89
248.332	2.22
248.549	41.13
248.766	98.47
248.983	4.27
249.2	-12.12
249.417	104.62
249.633	-10.07
249.85	73.9
250.067	82.09
250.284	-10.07
250.501	43.18
250.717	135.34
250.934	-48.98
251.151	43.18
251.368	22.7
251.585	12.46
251.801	-40.79
252.018	-36.69
252.235	80.04
252.451	49.32
252.668	16.55
252.885	80.04
253.102	-12.12
253.318	-18.26
253.535	59.56
253.752	20.65
253.968	-16.21
254.185	-36.69
254.401	16.55
254.618	-81.75
254.835	24.75
255.051	116.9
255.268	96.43
255.484	2.22
255.701	34.99
255.917	71.85
256.134	18.6
256.351	55.47
256.567	-32.6
256.784	73.9
257	-14.17
257.217	125.1
257.433	45.23
257.65	65.71
257.866	137.38
258.082	-5.97
258.299	-24.4
258.515	43.18
258.732	32.94
258.948	20.65
259.165	75.95
259.381	-34.64
259.597	22.7
259.814	-16.21
260.03	10.41
260.246	-5.97
260.463	82.09
260.679	57.51
260.895	30.89
261.112	108.71
261.328	-1.88
261.544	55.47
261.761	118.95
261.977	67.75
262.193	-69.46
262.409	30.89
262.626	37.03
262.842	10.41
263.058	10.41
263.274	84.14
263.49	-3.93
263.707	141.48
263.923	84.14
264.139	-14.17
264.355	77.99
264.571	133.29
264.787	96.43
265.004	65.71
265.22	47.27
265.436	-46.93
265.652	24.75
265.868	80.04
266.084	10.41
266.3	49.32
266.516	-32.6
266.732	14.51
266.948	20.65
267.164	-46.93
267.38	75.95
267.596	4.27
267.812	63.66
268.028	45.23
268.244	34.99
268.46	32.94
268.676	65.71
268.892	22.7
269.108	-48.98
269.324	67.75
269.54	53.42
269.756	53.42
269.972	57.51
270.188	-1.88
270.403	14.51
270.619	12.46
270.835	32.94
271.051	12.46
271.267	-12.12
271.483	49.32
271.698	73.9
271.914	59.56
272.13	67.75
272.346	73.9
272.562	26.79
272.777	106.67
272.993	53.42
273.209	37.03
273.425	51.37
273.64	-32.6
273.856	57.51
274.072	59.56
274.287	12.46
274.503	-12.12
274.719	104.62
274.934	-10.07
275.15	4.27
275.366	37.03
275.581	2.22
275.797	51.37
276.012	-40.79
276.228	14.51
276.444	86.19
276.659	135.34
276.875	16.55
277.09	-38.74
277.306	55.47
277.521	84.14
277.737	-26.45
277.952	41.13
278.168	43.18
278.383	-28.5
278.599	18.6
278.814	65.71
279.03	26.79
279.245	77.99
279.461	114.86
279.676	133.29
279.892	22.7
280.107	-28.5
280.322	-32.6
280.538	34.99
280.753	37.03
280.969	45.23
281.184	37.03
281.399	100.52
281.615	45.23
281.83	98.47
282.045	-30.55
282.26	37.03
282.476	32.94
282.691	49.32
282.906	82.09
283.122	16.55
283.337	-14.17
283.552	114.86
283.767	0.17
283.983	133.29
284.198	43.18
284.413	39.08
284.628	2.22
284.843	16.55
285.058	-1.88
285.274	43.18
285.489	-71.51
285.704	69.8
285.919	-10.07
286.134	2.22
286.349	22.7
286.564	26.79
286.779	73.9
286.995	90.28
287.21	-51.03
287.425	123.05
287.64	20.65
287.855	45.23
288.07	-30.55
288.285	73.9
288.5	20.65
288.715	43.18
288.93	77.99
289.145	-12.12
289.36	80.04
289.575	24.75
289.79	14.51
290.004	8.36
290.219	65.71
290.434	45.23
290.649	-3.93
290.864	-14.17
291.079	34.99
291.294	34.99
291.509	32.94
291.724	75.95
291.938	53.42
292.153	77.99
292.368	-3.93
292.583	-30.55
292.798	10.41
293.012	0.17
293.227	32.94
293.442	-5.97
293.657	47.27
293.871	53.42
294.086	57.51
294.301	139.43
294.516	59.56
294.73	18.6
294.945	-24.4
295.16	139.43
295.374	108.71
295.589	41.13
295.804	2.22
296.018	49.32
296.233	92.33
296.447	34.99
296.662	-10.07
296.877	84.14
297.091	92.33
297.306	75.95
297.52	-55.12
297.735	104.62
297.949	75.95
298.164	96.43
298.378	61.61
298.593	22.7
298.807	18.6
299.022	-8.02
299.236	112.81
299.451	20.65
299.665	-5.97
299.88	71.85
300.094	43.18
300.309	39.08
300.523	47.27
300.737	-10.07
300.952	86.19
301.166	30.89
301.381	16.55
301.595	57.51
301.809	0.17
302.024	45.23
302.238	-5.97
302.452	59.56
302.667	-10.07
302.881	110.76
303.095	55.47
303.309	84.14
303.524	8.36
303.738	-16.21
303.952	22.7
304.166	65.71
304.381	-40.79
304.595	104.62
304.809	14.51
305.023	41.13
305.237	39.08
305.452	22.7
305.666	69.8
305.88	73.9
306.094	34.99
306.308	94.38
306.522	10.41
306.736	61.61
306.95	114.86
307.164	69.8
307.379	47.27
307.593	123.05
307.807	39.08
308.021	104.62
308.235	65.71
308.449	41.13
308.663	24.75
308.877	104.62
309.091	20.65
309.305	92.33
309.519	-89.94
309.733	114.86
309.947	-32.6
310.161	65.71
310.374	57.51
310.588	75.95
310.802	37.03
311.016	28.84
311.23	-24.4
311.444	71.85
311.658	37.03
311.872	143.53
312.085	86.19
312.299	125.1
312.513	151.72
312.727	100.52
312.941	45.23
313.154	106.67
313.368	34.99
313.582	34.99
313.796	61.61
314.009	59.56
314.223	82.09
314.437	20.65
314.651	65.71
314.864	47.27
315.078	22.7
315.292	-38.74
315.505	51.37
315.719	67.75
315.933	67.75
316.146	-48.98
316.36	-16.21
316.573	157.86
316.787	80.04
317.001	18.6
317.214	-18.26
317.428	18.6
317.641	10.41
317.855	-36.69
318.068	26.79
318.282	37.03
318.495	141.48
318.709	47.27
318.922	69.8
319.136	125.1
319.349	49.32
319.563	18.6
319.776	51.37
319.99	-18.26
320.203	43.18
320.417	73.9
320.63	96.43
320.843	145.58
321.057	65.71
321.27	16.55
321.483	53.42
321.697	106.67
321.91	63.66
322.124	43.18
322.337	49.32
322.55	57.51
322.763	37.03
322.977	4.27
323.19	-28.5
323.403	53.42
323.617	84.14
323.83	102.57
324.043	34.99
324.256	16.55
324.469	10.41
324.683	63.66
324.896	41.13
325.109	82.09
325.322	18.6
325.535	24.75
325.748	57.51
325.962	39.08
326.175	12.46
326.388	127.14
326.601	127.14
326.814	45.23
327.027	8.36
327.24	157.86
327.453	59.56
327.666	39.08
327.879	112.81
328.092	8.36
328.305	47.27
328.518	18.6
328.731	-40.79
328.944	73.9
329.157	69.8
329.37	34.99
329.583	139.43
329.796	143.53
330.009	0.17
330.222	57.51
330.435	-1.88
330.648	43.18
330.861	28.84
331.073	63.66
331.286	121
331.499	49.32
331.712	-38.74
331.925	-30.55
332.138	24.75
332.35	-69.46
332.563	0.17
332.776	114.86
332.989	63.66
333.202	69.8
333.414	37.03
333.627	77.99
333.84	24.75
334.053	-36.69
334.265	77.99
334.478	20.65
334.691	20.65
334.903	86.19
335.116	37.03
335.329	14.51
335.541	30.89
335.754	90.28
335.966	34.99
336.179	-8.02
336.392	-46.93
336.604	57.51
336.817	118.95
337.029	86.19
337.242	37.03
337.454	100.52
337.667	43.18
337.88	12.46
338.092	12.46
338.305	39.08
338.517	59.56
338.729	73.9
338.942	104.62
339.154	-36.69
339.367	16.55
339.579	127.14
339.792	4.27
340.004	26.79
340.217	57.51
340.429	34.99
340.641	-48.98
340.854	55.47
341.066	10.41
341.278	61.61
341.491	143.53
341.703	2.22
341.915	-57.17
342.128	131.24
342.34	47.27
342.552	-1.88
342.764	47.27
342.977	34.99
343.189	80.04
343.401	96.43
343.613	12.46
343.826	80.04
344.038	20.65
344.25	-14.17
344.462	22.7
344.674	90.28
344.886	73.9
345.099	186.54
345.311	53.42
345.523	-5.97
345.735	8.36
345.947	43.18
346.159	45.23
346.371	49.32
346.583	67.75
346.795	133.29
347.007	-16.21
347.219	92.33
347.431	59.56
347.643	121
347.855	20.65
348.067	118.95
348.279	127.14
348.491	26.79
348.703	69.8
348.915	6.31
349.127	-18.26
349.339	86.19
349.551	26.79
349.763	80.04
349.975	51.37
350.187	90.28
350.399	108.71
350.61	129.19
350.822	118.95
351.034	65.71
351.246	-16.21
351.458	110.76
351.669	75.95
351.881	12.46
352.093	49.32
352.305	92.33
352.517	98.47
352.728	133.29
352.94	32.94
353.152	49.32
353.363	53.42
353.575	16.55
353.787	71.85
353.999	96.43
354.21	90.28
354.422	12.46
354.633	24.75
354.845	-12.12
355.057	80.04
355.268	112.81
355.48	77.99
355.692	-38.74
355.903	41.13
356.115	20.65
356.326	-61.27
356.538	92.33
356.749	49.32
356.961	86.19
357.172	114.86
357.384	20.65
357.595	114.86
357.807	34.99
358.018	59.56
358.23	67.75
358.441	100.52
358.653	116.9
358.864	43.18
359.075	127.14
359.287	24.75
359.498	149.67
359.709	84.14
359.921	49.32
360.132	41.13
360.344	16.55
360.555	18.6
360.766	108.71
360.977	82.09
361.189	86.19
361.4	-59.22
361.611	123.05
361.823	100.52
362.034	82.09
362.245	16.55
362.456	90.28
362.667	108.71
362.879	63.66
363.09	96.43
363.301	96.43
363.512	63.66
363.723	67.75
363.935	0.17
364.146	159.91
364.357	26.79
364.568	92.33
364.779	-16.21
364.99	18.6
365.201	77.99
365.412	102.57
365.623	-51.03
365.834	47.27
366.045	32.94
366.256	75.95
366.467	133.29
366.678	51.37
366.889	45.23
367.1	-46.93
367.311	61.61
367.522	14.51
367.733	96.43
367.944	84.14
368.155	59.56
368.366	88.23
368.577	43.18
368.788	61.61
368.999	2.22
369.209	53.42
369.42	151.72
369.631	90.28
369.842	75.95
370.053	34.99
370.264	92.33
370.474	20.65
370.685	57.51
370.896	65.71
371.107	137.38
371.317	86.19
371.528	22.7
371.739	98.47
371.95	30.89
372.16	157.86
372.371	61.61
372.582	0.17
372.792	65.71
373.003	22.7
373.214	39.08
373.424	43.18
373.635	94.38
373.846	41.13
374.056	-1.88
374.267	104.62
374.477	55.47
374.688	34.99
374.898	98.47
375.109	43.18
375.319	63.66
375.53	116.9
375.74	143.53
375.951	22.7
376.161	55.47
376.372	108.71
376.582	-61.27
376.793	94.38
377.003	77.99
377.214	49.32
377.424	106.67
377.635	67.75
377.845	20.65
378.055	188.58
378.266	-28.5
378.476	26.79
378.686	32.94
378.897	30.89
379.107	73.9
379.317	53.42
379.528	12.46
379.738	39.08
379.948	30.89
380.158	73.9
380.369	69.8
380.579	45.23
380.789	65.71
380.999	65.71
381.21	104.62
381.42	123.05
381.63	86.19
381.84	57.51
382.05	24.75
382.261	127.14
382.471	16.55
382.681	-8.02
382.891	131.24
383.101	71.85
383.311	47.27
383.521	67.75
383.731	182.44
383.941	104.62
384.151	57.51
384.361	96.43
384.571	82.09
384.781	30.89
384.991	127.14
385.201	127.14
385.411	161.96
385.621	84.14
385.831	100.52
386.041	8.36
386.251	20.65
386.461	223.4
386.671	43.18
386.881	37.03
387.091	65.71
387.301	116.9
387.511	53.42
387.72	57.51
387.93	121
388.14	-3.93
388.35	43.18
388.56	129.19
388.769	59.56
388.979	-16.21
389.189	18.6
389.399	4.27
389.609	65.71
389.818	123.05
390.028	63.66
390.238	45.23
390.447	-28.5
390.657	67.75
390.867	110.76
391.076	90.28
391.286	49.32
391.496	71.85
391.705	-1.88
391.915	129.19
392.125	104.62
392.334	116.9
392.544	129.19
392.753	39.08
392.963	73.9
393.172	80.04
393.382	49.32
393.591	137.38
393.801	86.19
394.01	180.39
394.22	39.08
394.429	80.04
394.639	84.14
394.848	75.95
395.058	57.51
395.267	82.09
395.477	104.62
395.686	137.38
395.895	135.34
396.105	178.34
396.314	123.05
396.524	57.51
396.733	131.24
396.942	127.14
397.152	86.19
397.361	168.1
397.57	28.84
397.78	114.86
397.989	118.95
398.198	172.2
398.407	82.09
398.617	92.33
398.826	112.81
399.035	47.27
399.244	137.38
399.453	147.62
399.663	102.57
399.872	110.76
400.081	32.94
400.29	145.58
400.499	34.99
400.708	129.19
400.917	43.18
401.127	86.19
401.336	114.86
401.545	145.58
401.754	204.97
401.963	172.2
402.172	90.28
402.381	127.14
402.59	170.15
402.799	184.49
403.008	217.26
403.217	164.01
403.426	184.49
403.635	135.34
403.844	157.86
404.053	131.24
404.262	178.34
404.471	327.85
404.68	170.15
404.888	157.86
405.097	256.17
405.306	213.16
405.515	229.54
405.724	217.26
405.933	239.78
406.142	209.06
406.35	227.5
406.559	221.35
406.768	174.25
406.977	215.21
407.185	229.54
407.394	262.31
407.603	192.68
407.812	284.84
408.02	290.98
408.229	196.78
408.438	231.59
408.646	260.26
408.855	282.79
409.064	237.74
409.272	227.5
409.481	368.81
409.69	290.98
409.898	260.26
410.107	356.52
410.315	381.09
410.524	268.45
410.733	385.19
410.941	356.52
411.15	465.06
411.358	452.77
411.567	501.92
411.775	383.14
411.984	475.3
412.192	477.35
412.401	467.11
412.609	544.93
412.818	559.27
413.026	551.07
413.234	508.07
413.443	538.79
413.651	618.66
413.86	635.04
414.068	655.52
414.276	700.58
414.485	755.87
414.693	669.86
414.901	770.21
415.11	735.39
415.318	802.97
415.526	772.25
415.734	807.07
415.943	872.61
416.151	940.19
416.359	938.14
416.567	987.29
416.776	921.76
416.984	1005.72
417.192	1063.07
417.4	1065.11
417.608	1087.64
417.817	1036.44
418.025	1228.95
418.233	1239.19
418.441	1198.23
418.649	1360.02
418.857	1327.25
419.065	1439.89
419.273	1360.02
419.481	1448.08
419.689	1564.82
419.897	1640.59
420.105	1626.26
420.313	1734.8
420.521	1794.19
420.729	1845.39
420.937	1759.38
421.145	1917.07
421.353	1978.51
421.561	2146.44
421.769	2076.81
421.977	2267.27
422.185	2154.63
422.393	2349.19
422.601	2375.81
422.809	2433.16
423.017	2541.7
423.224	2662.53
423.432	2701.44
423.64	2693.25
423.848	2973.82
424.056	2861.18
424.263	3076.22
424.471	2994.3
424.679	3125.37
424.887	3375.22
425.094	3510.39
425.302	3414.13
425.51	3670.13
425.718	3709.04
425.925	3723.38
426.133	4016.24
426.341	4057.2
426.548	4298.86
426.756	4175.98
426.964	4296.81
427.171	4446.31
427.379	4585.57
427.586	4739.17
427.794	4868.19
428.001	5175.39
428.209	5339.23
428.417	5152.86
428.624	5558.36
428.832	5656.66
429.039	5390.42
429.247	5415
429.454	6144.08
429.662	6422.6
429.869	6027.34
430.076	6613.06
430.284	6344.78
430.491	6656.07
430.699	7047.23
430.906	6924.35
431.114	7297.08
431.321	7241.79
431.528	7579.7
431.736	7721.01
431.943	8454.19
432.15	8087.6
432.358	8032.3
432.565	8534.06
432.772	8515.62
432.979	9105.44
433.187	9158.69
433.394	9185.31
433.601	9674.78
433.808	9814.04
434.016	9889.81
434.223	10188.82
434.43	10887.17
434.637	10674.18
434.844	11231.23
435.052	11472.89
435.259	11499.52
435.466	11571.19
435.673	11436.03
435.88	11984.88
436.087	12838.89
436.294	12789.74
436.501	12591.08
436.708	12619.75
436.915	13170.66
437.122	13932.5
437.329	13606.88
437.537	14022.61
437.743	14424.01
437.95	14268.37
438.157	15130.56
438.364	15409.09
438.571	15454.14
438.778	15583.16
438.985	17010.6
439.192	16375.73
439.399	16779.18
439.606	16609.2
439.813	17178.53
440.02	18392.98
440.227	17940.38
440.433	17967
440.64	18239.38
440.847	18446.23
441.054	19079.05
441.261	20199.29
441.467	19861.37
441.674	20111.22
441.881	20768.62
442.088	20819.82
442.294	20733.81
442.501	21057.39
442.708	21862.24
442.914	22234.97
443.121	23394.12
443.328	22503.25
443.534	24358.71
443.741	23502.66
443.948	23156.55
444.154	25448.23
444.361	24710.96
444.568	25048.88
444.774	25093.93
444.981	25337.64
445.187	25874.21
445.394	27256.59
445.6	27143.95
445.807	29617.89
446.013	28163.84
446.22	28577.53
446.426	29859.56
446.633	29974.24
446.839	30987.99
447.046	29550.31
447.252	31665.86
447.459	31542.99
447.665	31268.56
447.871	32513.72
448.078	33658.54
448.284	32374.46
448.491	33253.04
448.697	34164.39
448.903	34877.08
449.11	35190.42
449.316	34598.55
449.522	35464.85
449.728	36226.69
449.935	36451.97
450.141	36554.36
450.347	37379.7
450.553	36087.43
450.76	36904.57
450.966	37666.41
451.172	37361.26
451.378	38162.02
451.584	37262.96
451.791	38293.09
451.997	38174.31
452.203	38534.75
452.409	38921.82
452.615	38510.18
452.821	36939.38
453.027	36712.06
453.233	38915.67
453.44	37062.26
453.646	37324.4
453.852	37686.89
454.058	38135.4
454.264	36986.49
454.47	37721.71
454.676	37002.87
454.882	37965.42
455.088	34616.99
455.294	35276.43
455.5	36175.49
455.705	36023.94
455.911	34793.11
456.117	33816.23
456.323	33408.68
456.529	31876.8
456.735	33242.8
456.941	32440
457.147	31555.27
457.352	30785.24
457.558	30320.35
457.764	30777.05
457.97	29742.82
458.176	28946.16
458.381	29292.27
458.587	28034.81
458.793	27438.86
458.999	26011.42
459.204	28411.64
459.41	27252.49
459.616	25450.28
459.821	25634.6
460.027	25218.86
460.233	24457.01
460.438	24010.56
460.644	23848.77
460.85	22716.24
461.055	22402.9
461.261	22464.34
461.466	20586.35
461.672	19689.34
461.878	21368.68
462.083	20068.22
462.289	19535.74
462.494	19224.45
462.7	18700.17
462.905	17958.81
463.111	18524.05
463.316	18687.89
463.522	18354.07
463.727	18364.31
463.932	18339.73
464.138	17952.66
464.343	18225.04
464.549	17567.65
464.754	18124.69
464.959	18087.83
465.165	18003.86
465.37	17190.82
465.575	16625.58
465.781	17170.34
465.986	17344.42
