Data from USB4F104151__13__12-27-02-236.txt Node

Date: Fri Mar 14 12:27:02 EDT 2025
User: louis
Spectrometer: USB4F10415
Trigger mode: 4
Integration Time (sec): 2.000000E-2
Scans to average: 1
Electric dark correction enabled: true
Nonlinearity correction enabled: false
Boxcar width: 0
XAxis mode: Wavelengths
Number of Pixels in Spectrum: 3648
>>>>>Begin Spectral Data<<<<<
178.204	-63.83
178.424	-63.83
178.644	-63.83
178.864	-33.11
179.084	-63.83
179.304	9.9
179.524	-20.82
179.744	26.28
179.964	24.23
180.184	-24.92
180.404	-35.16
180.624	46.76
180.844	-4.44
181.064	-14.68
181.283	-33.11
181.503	-37.2
181.723	63.15
181.943	-0.34
182.163	42.67
182.383	5.8
182.602	48.81
182.822	83.63
183.042	34.47
183.262	18.09
183.482	91.82
183.701	1.71
183.921	67.24
184.141	-8.53
184.361	77.48
184.58	28.33
184.8	48.81
185.02	5.8
185.239	50.86
185.459	28.33
185.679	13.99
185.898	-24.92
186.118	22.19
186.338	57
186.557	34.47
186.777	63.15
186.997	24.23
187.216	42.67
187.436	63.15
187.655	-8.53
187.875	89.77
188.095	-18.77
188.314	-4.44
188.534	50.86
188.753	44.71
188.973	75.43
189.192	63.15
189.412	28.33
189.631	114.34
189.851	81.58
190.07	73.39
190.29	77.48
190.509	-22.87
190.729	22.19
190.948	104.11
191.168	93.87
191.387	28.33
191.607	5.8
191.826	161.45
192.045	5.8
192.265	-43.35
192.484	38.57
192.704	-0.34
192.923	32.43
193.142	106.15
193.362	81.58
193.581	32.43
193.8	44.71
194.02	13.99
194.239	-12.63
194.458	48.81
194.678	67.24
194.897	18.09
195.116	36.52
195.335	32.43
195.555	50.86
195.774	54.95
195.993	97.96
196.212	77.48
196.432	-39.25
196.651	-2.39
196.87	13.99
197.089	95.91
197.308	-4.44
197.528	48.81
197.747	-10.58
197.966	1.71
198.185	102.06
198.404	40.62
198.623	3.75
198.842	18.09
199.062	24.23
199.281	52.91
199.5	22.19
199.719	71.34
199.938	34.47
200.157	40.62
200.376	32.43
200.595	153.26
200.814	87.72
201.033	24.23
201.252	46.76
201.471	30.38
201.69	22.19
201.909	95.91
202.128	108.2
202.347	44.71
202.566	-10.58
202.785	63.15
203.004	61.1
203.223	149.16
203.442	-2.39
203.661	44.71
203.879	-4.44
204.098	36.52
204.317	-4.44
204.536	11.95
204.755	-4.44
204.974	26.28
205.193	50.86
205.411	95.91
205.63	100.01
205.849	143.02
206.068	48.81
206.287	30.38
206.505	52.91
206.724	40.62
206.943	36.52
207.162	83.63
207.381	81.58
207.599	-20.82
207.818	40.62
208.037	-2.39
208.255	38.57
208.474	46.76
208.693	32.43
208.911	42.67
209.13	50.86
209.349	18.09
209.567	22.19
209.786	143.02
210.005	87.72
210.223	44.71
210.442	67.24
210.661	61.1
210.879	7.85
211.098	85.67
211.316	89.77
211.535	54.95
211.753	-41.3
211.972	65.19
212.191	71.34
212.409	71.34
212.628	20.14
212.846	38.57
213.065	32.43
213.283	26.28
213.502	69.29
213.72	36.52
213.938	-22.87
214.157	36.52
214.375	79.53
214.594	75.43
214.812	69.29
215.031	32.43
215.249	34.47
215.467	32.43
215.686	116.39
215.904	16.04
216.122	69.29
216.341	108.2
216.559	73.39
216.778	69.29
216.996	108.2
217.214	75.43
217.432	40.62
217.651	69.29
217.869	24.23
218.087	52.91
218.306	61.1
218.524	120.49
218.742	16.04
218.96	18.09
219.179	54.95
219.397	24.23
219.615	108.2
219.833	95.91
220.051	52.91
220.27	30.38
220.488	54.95
220.706	57
220.924	1.71
221.142	52.91
221.36	59.05
221.578	71.34
221.796	65.19
222.015	69.29
222.233	38.57
222.451	-2.39
222.669	50.86
222.887	59.05
223.105	38.57
223.323	71.34
223.541	93.87
223.759	140.97
223.977	67.24
224.195	114.34
224.413	87.72
224.631	106.15
224.849	44.71
225.067	22.19
225.285	87.72
225.503	48.81
225.721	-4.44
225.939	34.47
226.157	42.67
226.375	116.39
226.592	-10.58
226.81	52.91
227.028	40.62
227.246	104.11
227.464	34.47
227.682	42.67
227.9	18.09
228.117	9.9
228.335	22.19
228.553	63.15
228.771	44.71
228.989	-29.01
229.206	65.19
229.424	65.19
229.642	24.23
229.86	38.57
230.077	69.29
230.295	16.04
230.513	11.95
230.731	130.73
230.948	9.9
231.166	5.8
231.384	69.29
231.601	48.81
231.819	63.15
232.037	-0.34
232.254	50.86
232.472	67.24
232.689	24.23
232.907	54.95
233.125	-14.68
233.342	42.67
233.56	89.77
233.777	32.43
233.995	26.28
234.213	71.34
234.43	-0.34
234.648	91.82
234.865	73.39
235.083	67.24
235.3	30.38
235.518	16.04
235.735	79.53
235.953	67.24
236.17	7.85
236.388	65.19
236.605	28.33
236.822	36.52
237.04	-6.49
237.257	52.91
237.475	18.09
237.692	65.19
237.909	57
238.127	44.71
238.344	95.91
238.562	9.9
238.779	48.81
238.996	54.95
239.214	69.29
239.431	16.04
239.648	75.43
239.865	34.47
240.083	-2.39
240.3	61.1
240.517	38.57
240.735	75.43
240.952	-0.34
241.169	54.95
241.386	116.39
241.603	57
241.821	-4.44
242.038	77.48
242.255	126.63
242.472	63.15
242.689	61.1
242.907	71.34
243.124	24.23
243.341	67.24
243.558	50.86
243.775	13.99
243.992	11.95
244.209	34.47
244.426	89.77
244.643	114.34
244.86	-2.39
245.078	67.24
245.295	36.52
245.512	42.67
245.729	52.91
245.946	87.72
246.163	42.67
246.38	9.9
246.597	114.34
246.814	-10.58
247.031	20.14
247.248	87.72
247.464	126.63
247.681	75.43
247.898	-22.87
248.115	36.52
248.332	79.53
248.549	9.9
248.766	71.34
248.983	75.43
249.2	85.67
249.417	67.24
249.633	69.29
249.85	13.99
250.067	1.71
250.284	54.95
250.501	22.19
250.717	46.76
250.934	30.38
251.151	71.34
251.368	-35.16
251.585	85.67
251.801	36.52
252.018	38.57
252.235	110.25
252.451	13.99
252.668	57
252.885	-10.58
253.102	108.2
253.318	9.9
253.535	3.75
253.752	87.72
253.968	97.96
254.185	57
254.401	24.23
254.618	106.15
254.835	50.86
255.051	71.34
255.268	67.24
255.484	73.39
255.701	-31.06
255.917	-6.49
256.134	44.71
256.351	11.95
256.567	59.05
256.784	73.39
257	-18.77
257.217	61.1
257.433	75.43
257.65	67.24
257.866	73.39
258.082	38.57
258.299	30.38
258.515	102.06
258.732	65.19
258.948	136.87
259.165	63.15
259.381	69.29
259.597	9.9
259.814	-6.49
260.03	22.19
260.246	22.19
260.463	91.82
260.679	93.87
260.895	18.09
261.112	69.29
261.328	-57.68
261.544	-16.73
261.761	81.58
261.977	87.72
262.193	54.95
262.409	42.67
262.626	69.29
262.842	73.39
263.058	46.76
263.274	77.48
263.49	89.77
263.707	52.91
263.923	61.1
264.139	-29.01
264.355	67.24
264.571	155.3
264.787	48.81
265.004	63.15
265.22	24.23
265.436	34.47
265.652	48.81
265.868	-4.44
266.084	71.34
266.3	50.86
266.516	5.8
266.732	-0.34
266.948	50.86
267.164	91.82
267.38	136.87
267.596	54.95
267.812	163.5
268.028	40.62
268.244	30.38
268.46	120.49
268.676	24.23
268.892	13.99
269.108	7.85
269.324	28.33
269.54	89.77
269.756	63.15
269.972	48.81
270.188	69.29
270.403	-8.53
270.619	122.54
270.835	54.95
271.051	28.33
271.267	-2.39
271.483	54.95
271.698	77.48
271.914	63.15
272.13	32.43
272.346	20.14
272.562	63.15
272.777	28.33
272.993	-8.53
273.209	61.1
273.425	46.76
273.64	122.54
273.856	87.72
274.072	97.96
274.287	79.53
274.503	69.29
274.719	91.82
274.934	120.49
275.15	5.8
275.366	73.39
275.581	59.05
275.797	1.71
276.012	73.39
276.228	44.71
276.444	7.85
276.659	69.29
276.875	-8.53
277.09	87.72
277.306	36.52
277.521	114.34
277.737	36.52
277.952	38.57
278.168	153.26
278.383	108.2
278.599	5.8
278.814	112.3
279.03	89.77
279.245	118.44
279.461	20.14
279.676	104.11
279.892	16.04
280.107	91.82
280.322	24.23
280.538	85.67
280.753	38.57
280.969	20.14
281.184	120.49
281.399	140.97
281.615	57
281.83	44.71
282.045	48.81
282.26	69.29
282.476	97.96
282.691	57
282.906	40.62
283.122	140.97
283.337	-33.11
283.552	16.04
283.767	44.71
283.983	118.44
284.198	97.96
284.413	42.67
284.628	48.81
284.843	145.06
285.058	54.95
285.274	-16.73
285.489	54.95
285.704	52.91
285.919	69.29
286.134	22.19
286.349	28.33
286.564	69.29
286.779	-6.49
286.995	32.43
287.21	9.9
287.425	81.58
287.64	32.43
287.855	147.11
288.07	-0.34
288.285	30.38
288.5	97.96
288.715	110.25
288.93	9.9
289.145	-20.82
289.36	38.57
289.575	-6.49
289.79	54.95
290.004	13.99
290.219	52.91
290.434	59.05
290.649	97.96
290.864	-8.53
291.079	71.34
291.294	71.34
291.509	38.57
291.724	63.15
291.938	34.47
292.153	79.53
292.368	-14.68
292.583	50.86
292.798	-2.39
293.012	91.82
293.227	-4.44
293.442	-12.63
293.657	32.43
293.871	79.53
294.086	3.75
294.301	110.25
294.516	93.87
294.73	57
294.945	42.67
295.16	106.15
295.374	100.01
295.589	100.01
295.804	48.81
296.018	46.76
296.233	16.04
296.447	138.92
296.662	-18.77
296.877	77.48
297.091	65.19
297.306	116.39
297.52	89.77
297.735	44.71
297.949	32.43
298.164	65.19
298.378	52.91
298.593	48.81
298.807	46.76
299.022	110.25
299.236	34.47
299.451	5.8
299.665	61.1
299.88	138.92
300.094	22.19
300.309	-4.44
300.523	81.58
300.737	16.04
300.952	91.82
301.166	112.3
301.381	91.82
301.595	126.63
301.809	108.2
302.024	38.57
302.238	116.39
302.452	46.76
302.667	11.95
302.881	87.72
303.095	83.63
303.309	77.48
303.524	11.95
303.738	97.96
303.952	42.67
304.166	102.06
304.381	-47.44
304.595	89.77
304.809	50.86
305.023	22.19
305.237	57
305.452	106.15
305.666	7.85
305.88	38.57
306.094	-4.44
306.308	52.91
306.522	114.34
306.736	36.52
306.95	32.43
307.164	-0.34
307.379	-102.74
307.593	114.34
307.807	34.47
308.021	67.24
308.235	34.47
308.449	48.81
308.663	36.52
308.877	81.58
309.091	38.57
309.305	50.86
309.519	7.85
309.733	-6.49
309.947	-18.77
310.161	95.91
310.374	65.19
310.588	69.29
310.802	59.05
311.016	59.05
311.23	75.43
311.444	34.47
311.658	38.57
311.872	128.68
312.085	7.85
312.299	65.19
312.513	112.3
312.727	93.87
312.941	48.81
313.154	95.91
313.368	5.8
313.582	126.63
313.796	44.71
314.009	32.43
314.223	95.91
314.437	59.05
314.651	97.96
314.864	81.58
315.078	63.15
315.292	81.58
315.505	71.34
315.719	85.67
315.933	65.19
316.146	44.71
316.36	46.76
316.573	149.16
316.787	122.54
317.001	73.39
317.214	59.05
317.428	61.1
317.641	100.01
317.855	59.05
318.068	42.67
318.282	40.62
318.495	59.05
318.709	28.33
318.922	50.86
319.136	95.91
319.349	93.87
319.563	11.95
319.776	65.19
319.99	54.95
320.203	140.97
320.417	106.15
320.63	32.43
320.843	77.48
321.057	130.73
321.27	65.19
321.483	110.25
321.697	118.44
321.91	34.47
322.124	67.24
322.337	134.82
322.55	71.34
322.763	13.99
322.977	11.95
323.19	32.43
323.403	140.97
323.617	24.23
323.83	100.01
324.043	59.05
324.256	54.95
324.469	52.91
324.683	95.91
324.896	87.72
325.109	93.87
325.322	9.9
325.535	126.63
325.748	93.87
325.962	46.76
326.175	89.77
326.388	138.92
326.601	59.05
326.814	153.26
327.027	77.48
327.24	138.92
327.453	9.9
327.666	128.68
327.879	54.95
328.092	57
328.305	28.33
328.518	65.19
328.731	67.24
328.944	77.48
329.157	24.23
329.37	97.96
329.583	61.1
329.796	87.72
330.009	61.1
330.222	63.15
330.435	-10.58
330.648	5.8
330.861	81.58
331.073	106.15
331.286	48.81
331.499	67.24
331.712	34.47
331.925	106.15
332.138	77.48
332.35	118.44
332.563	91.82
332.776	69.29
332.989	20.14
333.202	83.63
333.414	91.82
333.627	100.01
333.84	77.48
334.053	114.34
334.265	18.09
334.478	71.34
334.691	85.67
334.903	40.62
335.116	73.39
335.329	48.81
335.541	114.34
335.754	102.06
335.966	5.8
336.179	26.28
336.392	75.43
336.604	143.02
336.817	112.3
337.029	50.86
337.242	132.78
337.454	83.63
337.667	69.29
337.88	118.44
338.092	59.05
338.305	54.95
338.517	57
338.729	83.63
338.942	110.25
339.154	102.06
339.367	48.81
339.579	112.3
339.792	-20.82
340.004	106.15
340.217	1.71
340.429	116.39
340.641	24.23
340.854	50.86
341.066	22.19
341.278	106.15
341.491	100.01
341.703	77.48
341.915	67.24
342.128	106.15
342.34	5.8
342.552	122.54
342.764	73.39
342.977	91.82
343.189	83.63
343.401	36.52
343.613	67.24
343.826	18.09
344.038	-0.34
344.25	59.05
344.462	75.43
344.674	69.29
344.886	136.87
345.099	77.48
345.311	26.28
345.523	81.58
345.735	50.86
345.947	87.72
346.159	24.23
346.371	116.39
346.583	108.2
346.795	87.72
347.007	100.01
347.219	24.23
347.431	22.19
347.643	149.16
347.855	28.33
348.067	128.68
348.279	57
348.491	63.15
348.703	79.53
348.915	61.1
349.127	63.15
349.339	-6.49
349.551	22.19
349.763	81.58
349.975	24.23
350.187	95.91
350.399	24.23
350.61	89.77
350.822	77.48
351.034	75.43
351.246	26.28
351.458	5.8
351.669	87.72
351.881	67.24
352.093	132.78
352.305	95.91
352.517	38.57
352.728	44.71
352.94	50.86
353.152	40.62
353.363	52.91
353.575	122.54
353.787	118.44
353.999	81.58
354.21	130.73
354.422	100.01
354.633	65.19
354.845	95.91
355.057	50.86
355.268	83.63
355.48	145.06
355.692	91.82
355.903	77.48
356.115	69.29
356.326	65.19
356.538	132.78
356.749	71.34
356.961	57
357.172	16.04
357.384	75.43
357.595	114.34
357.807	1.71
358.018	32.43
358.23	132.78
358.441	128.68
358.653	75.43
358.864	-10.58
359.075	108.2
359.287	34.47
359.498	71.34
359.709	79.53
359.921	93.87
360.132	48.81
360.344	34.47
360.555	50.86
360.766	-6.49
360.977	54.95
361.189	110.25
361.4	118.44
361.611	108.2
361.823	11.95
362.034	83.63
362.245	18.09
362.456	91.82
362.667	91.82
362.879	48.81
363.09	9.9
363.301	20.14
363.512	89.77
363.723	65.19
363.935	34.47
364.146	97.96
364.357	147.11
364.568	52.91
364.779	71.34
364.99	91.82
365.201	54.95
365.412	81.58
365.623	52.91
365.834	30.38
366.045	48.81
366.256	81.58
366.467	50.86
366.678	67.24
366.889	79.53
367.1	114.34
367.311	214.7
367.522	87.72
367.733	75.43
367.944	36.52
368.155	50.86
368.366	91.82
368.577	36.52
368.788	52.91
368.999	85.67
369.209	106.15
369.42	151.21
369.631	81.58
369.842	171.69
370.053	50.86
370.264	112.3
370.474	57
370.685	61.1
370.896	81.58
371.107	11.95
371.317	69.29
371.528	59.05
371.739	153.26
371.95	97.96
372.16	122.54
372.371	65.19
372.582	188.07
372.792	120.49
373.003	112.3
373.214	63.15
373.424	42.67
373.635	-22.87
373.846	40.62
374.056	7.85
374.267	65.19
374.477	124.58
374.688	71.34
374.898	71.34
375.109	100.01
375.319	61.1
375.53	59.05
375.74	147.11
375.951	73.39
376.161	120.49
376.372	89.77
376.582	57
376.793	89.77
377.003	132.78
377.214	83.63
377.424	130.73
377.635	95.91
377.845	100.01
378.055	124.58
378.266	-0.34
378.476	110.25
378.686	54.95
378.897	118.44
379.107	108.2
379.317	91.82
379.528	102.06
379.738	181.93
379.948	89.77
380.158	100.01
380.369	102.06
380.579	7.85
380.789	91.82
380.999	91.82
381.21	93.87
381.42	114.34
381.63	57
381.84	102.06
382.05	126.63
382.261	114.34
382.471	114.34
382.681	71.34
382.891	116.39
383.101	102.06
383.311	116.39
383.521	26.28
383.731	50.86
383.941	93.87
384.151	11.95
384.361	75.43
384.571	132.78
384.781	75.43
384.991	81.58
385.201	120.49
385.411	63.15
385.621	149.16
385.831	87.72
386.041	138.92
386.251	100.01
386.461	149.16
386.671	97.96
386.881	140.97
387.091	48.81
387.301	110.25
387.511	59.05
387.72	77.48
387.93	163.5
388.14	87.72
388.35	67.24
388.56	136.87
388.769	93.87
388.979	95.91
389.189	120.49
389.399	93.87
389.609	73.39
389.818	165.54
390.028	89.77
390.238	57
390.447	85.67
390.657	126.63
390.867	67.24
391.076	85.67
391.286	61.1
391.496	93.87
391.705	100.01
391.915	118.44
392.125	132.78
392.334	91.82
392.544	130.73
392.753	112.3
392.963	54.95
393.172	89.77
393.382	102.06
393.591	122.54
393.801	67.24
394.01	140.97
394.22	63.15
394.429	147.11
394.639	79.53
394.848	69.29
395.058	145.06
395.267	69.29
395.477	30.38
395.686	124.58
395.895	145.06
396.105	159.4
396.314	175.78
396.524	130.73
396.733	126.63
396.942	120.49
397.152	83.63
397.361	145.06
397.57	77.48
397.78	179.88
397.989	157.35
398.198	155.3
398.407	87.72
398.617	95.91
398.826	116.39
399.035	132.78
399.244	130.73
399.453	124.58
399.663	122.54
399.872	202.41
400.081	122.54
400.29	167.59
400.499	181.93
400.708	114.34
400.917	85.67
401.127	171.69
401.336	143.02
401.545	155.3
401.754	186.02
401.963	247.46
402.172	143.02
402.381	132.78
402.59	118.44
402.799	169.64
403.008	188.07
403.217	210.6
403.426	151.21
403.635	183.98
403.844	167.59
404.053	169.64
404.262	153.26
404.471	183.98
404.68	155.3
404.888	202.41
405.097	198.31
405.306	169.64
405.515	288.42
405.724	233.13
405.933	245.41
406.142	200.36
406.35	278.18
406.559	298.66
406.768	249.51
406.977	274.09
407.185	267.94
407.394	239.27
407.603	253.61
407.812	239.27
408.02	310.95
408.229	231.08
408.438	265.89
408.646	243.37
408.855	313
409.064	294.57
409.272	267.94
409.481	351.91
409.69	337.57
409.898	351.91
410.107	382.63
410.315	421.54
410.524	358.05
410.733	358.05
410.941	435.88
411.15	464.55
411.358	489.12
411.567	513.7
411.775	491.17
411.984	478.88
412.192	566.95
412.401	530.08
412.609	472.74
412.818	642.72
413.026	523.94
413.234	644.77
413.443	583.33
413.651	579.23
413.86	638.62
414.068	710.3
414.276	769.69
414.485	784.03
414.693	710.3
414.901	796.32
415.11	861.85
415.318	822.94
415.526	976.54
415.734	798.37
415.943	1007.26
416.151	994.97
416.359	976.54
416.567	1005.21
416.776	1048.22
416.984	1201.82
417.192	1203.86
417.4	1177.24
417.608	1089.18
417.817	1193.62
418.025	1267.35
418.233	1279.64
418.441	1302.17
418.649	1361.56
418.857	1547.92
419.065	1609.36
419.273	1466
419.481	1642.13
419.689	1752.72
419.897	1730.19
420.105	1820.3
420.313	1824.4
420.521	1971.85
420.729	1963.66
420.937	1973.9
421.145	2088.59
421.353	2145.93
421.561	2285.19
421.769	2410.12
421.977	2442.89
422.185	2526.85
422.393	2633.35
422.601	2629.25
422.809	2610.82
423.017	2817.66
423.224	2850.43
423.432	2893.44
423.64	2942.59
423.848	3157.63
424.056	3133.05
424.263	3380.86
424.471	3399.29
424.679	3430.01
424.887	3604.08
425.094	3767.92
425.302	3626.61
425.51	3972.72
425.718	4034.16
425.925	4101.74
426.133	4224.62
426.341	4431.46
426.548	4560.49
426.756	4720.23
426.964	4877.92
427.171	5062.24
427.379	5031.52
427.586	5367.38
427.794	5449.3
428.001	5566.04
428.209	5836.37
428.417	5570.13
428.624	6069.84
428.832	6258.25
429.039	6127.18
429.247	6153.8
429.454	6807.11
429.662	7288.38
429.869	6723.14
430.076	7102.01
430.284	7011.9
430.491	7183.93
430.699	7632.44
430.906	7638.58
431.114	7786.04
431.321	8218.16
431.528	8408.62
431.736	8623.66
431.943	9104.93
432.15	9055.78
432.358	9059.87
432.565	9483.8
432.772	9612.82
432.979	10077.71
433.187	10255.89
433.394	10323.47
433.601	11060.74
433.808	10841.61
434.016	11134.46
434.223	11412.99
434.43	12223.98
434.637	11974.13
434.844	12910.05
435.052	12887.53
435.259	12672.49
435.466	12758.5
435.673	12723.69
435.88	13854.17
436.087	14394.83
436.294	14527.95
436.501	14071.25
436.708	14341.58
436.915	15140.29
437.122	15570.37
437.329	15392.19
437.537	15885.75
437.743	16412.08
437.95	16229.81
438.157	16889.26
438.364	17462.69
438.571	17429.92
438.778	17829.27
438.985	19234.18
439.192	18328.98
439.399	19111.3
439.606	18675.09
439.813	19551.62
440.02	21065.07
440.227	20391.28
440.433	20526.45
440.64	21054.83
440.847	21185.9
441.054	21577.06
441.261	22992.2
441.467	22545.75
441.674	23065.93
441.881	23723.33
442.088	24032.57
442.294	23620.93
442.501	24476.98
442.708	24888.62
442.914	25675.04
443.121	26987.79
443.328	26277.15
443.534	28112.13
443.741	27559.17
443.948	27266.31
444.154	29191.41
444.361	28550.39
444.568	28775.67
444.774	28841.2
444.981	29412.59
445.187	30012.64
445.394	31620.3
445.6	31010
445.807	33727.66
446.013	32246.97
446.22	33084.59
446.426	34624.67
446.633	34768.02
446.839	35847.3
447.046	34862.23
447.252	36185.22
447.459	36308.1
447.665	36293.76
447.871	38194.28
448.078	39623.76
448.284	37868.65
448.491	38362.21
448.697	40225.86
448.903	40813.63
449.11	40942.65
449.316	40303.68
449.522	41264.18
449.728	42263.59
449.935	42775.58
450.141	42308.65
450.347	43762.7
450.553	42456.1
450.76	42929.18
450.966	44112.91
451.172	44092.43
451.378	44835.84
451.584	43691.02
451.791	45177.85
451.997	44790.78
452.203	45564.92
452.409	45655.03
452.615	45321.21
452.821	43801.61
453.027	43377.68
453.233	45468.66
453.44	43508.75
453.646	44407.81
453.852	44674.05
454.058	45349.88
454.264	44354.57
454.47	44657.67
454.676	43709.46
454.882	45347.83
455.088	41571.38
455.294	41931.82
455.5	42578.98
455.705	43258.9
455.911	41733.17
456.117	41018.42
456.323	40422.47
456.529	38288.48
456.735	39625.81
456.941	38949.98
457.147	38112.36
457.352	37115
457.558	36320.38
457.764	36488.32
457.97	36031.62
458.176	34983.06
458.381	35304.59
458.587	33301.68
458.793	33520.81
458.999	31708.36
459.204	34090.15
459.41	33203.38
459.616	31081.68
459.821	30657.75
460.027	30665.94
460.233	30049.5
460.438	28759.28
460.644	29140.21
460.85	27962.62
461.055	27350.28
461.261	27444.49
461.466	25304.36
461.672	24390.97
461.878	26428.7
462.083	24606
462.289	24130.87
462.494	23934.27
462.7	23059.79
462.905	22222.17
463.111	22918.48
463.316	23262.54
463.522	22562.13
463.727	22627.67
463.932	22537.55
464.138	22508.88
464.343	22486.36
464.549	21771.61
464.754	22566.23
464.959	22472.02
465.165	22134.1
465.37	21284.2
465.575	20696.43
465.781	21693.79
465.986	21861.73
466.191	20909.42
466.397	20227.45
466.602	19463.55
466.807	20335.99
467.012	20387.19
