Data from USB4F104151__37__12-27-20-894.txt Node

Date: Fri Mar 14 12:27:20 EDT 2025
User: louis
Spectrometer: USB4F10415
Trigger mode: 4
Integration Time (sec): 2.000000E-2
Scans to average: 1
Electric dark correction enabled: true
Nonlinearity correction enabled: false
Boxcar width: 0
XAxis mode: Wavelengths
Number of Pixels in Spectrum: 3648
>>>>>Begin Spectral Data<<<<<
178.204	-46.42
178.424	-46.42
178.644	-46.42
178.864	-150.87
179.084	-132.44
179.304	-27.99
179.524	-30.04
179.744	-52.56
179.964	12.97
180.184	2.73
180.404	-3.41
180.624	43.69
180.844	2.73
181.064	41.64
181.283	-44.37
181.503	-13.65
181.723	68.27
181.943	-30.04
182.163	33.45
182.383	31.4
182.602	41.64
182.822	29.35
183.042	-25.94
183.262	39.59
183.482	60.07
183.701	-50.52
183.921	53.93
184.141	10.92
184.361	70.31
184.58	-17.75
184.8	-25.94
185.02	27.31
185.239	2.73
185.459	25.26
185.679	-3.41
185.898	15.02
186.118	19.11
186.338	-15.7
186.557	53.93
186.777	19.11
186.997	-3.41
187.216	31.4
187.436	4.78
187.655	68.27
187.875	41.64
188.095	68.27
188.314	-11.61
188.534	2.73
188.753	-1.37
188.973	-13.65
189.192	62.12
189.412	86.7
189.631	33.45
189.851	39.59
190.07	25.26
190.29	41.64
190.509	-42.32
190.729	55.98
190.948	12.97
191.168	111.27
191.387	-15.7
191.607	29.35
191.826	-42.32
192.045	37.55
192.265	58.03
192.484	-42.32
192.704	33.45
192.923	-64.85
193.142	29.35
193.362	62.12
193.581	86.7
193.8	21.16
194.02	4.78
194.239	60.07
194.458	-11.61
194.678	92.84
194.897	39.59
195.116	10.92
195.335	-19.8
195.555	47.79
195.774	6.83
195.993	-25.94
196.212	-9.56
196.432	53.93
196.651	23.21
196.87	23.21
197.089	51.88
197.308	23.21
197.528	19.11
197.747	12.97
197.966	-56.66
198.185	17.07
198.404	4.78
198.623	37.55
198.842	51.88
199.062	6.83
199.281	53.93
199.5	51.88
199.719	64.17
199.938	17.07
200.157	29.35
200.376	-30.04
200.595	-5.46
200.814	-68.95
201.033	-60.76
201.252	6.83
201.471	6.83
201.69	37.55
201.909	-17.75
202.128	-11.61
202.347	72.36
202.566	-40.28
202.785	21.16
203.004	58.03
203.223	62.12
203.442	53.93
203.661	-44.37
203.879	33.45
204.098	86.7
204.317	-11.61
204.536	2.73
204.755	4.78
204.974	12.97
205.193	66.22
205.411	47.79
205.63	27.31
205.849	23.21
206.068	4.78
206.287	4.78
206.505	21.16
206.724	45.74
206.943	29.35
207.162	62.12
207.381	47.79
207.599	-23.89
207.818	-1.37
208.037	-15.7
208.255	-15.7
208.474	45.74
208.693	35.5
208.911	-9.56
209.13	-1.37
209.349	31.4
209.567	33.45
209.786	53.93
210.005	35.5
210.223	23.21
210.442	-1.37
210.661	-71
210.879	68.27
211.098	2.73
211.316	37.55
211.535	29.35
211.753	-17.75
211.972	19.11
212.191	-15.7
212.409	31.4
212.628	-13.65
212.846	8.87
213.065	-42.32
213.283	-21.85
213.502	31.4
213.72	-13.65
213.938	-21.85
214.157	-42.32
214.375	-13.65
214.594	4.78
214.812	-25.94
215.031	27.31
215.249	-3.41
215.467	53.93
215.686	23.21
215.904	78.51
216.122	-15.7
216.341	-7.51
216.559	8.87
216.778	101.03
216.996	2.73
217.214	-19.8
217.432	-46.42
217.651	6.83
217.869	-36.18
218.087	43.69
218.306	4.78
218.524	39.59
218.742	-56.66
218.96	27.31
219.179	21.16
219.397	-13.65
219.615	21.16
219.833	12.97
220.051	-5.46
220.27	78.51
220.488	-5.46
220.706	-15.7
220.924	2.73
221.142	53.93
221.36	21.16
221.578	2.73
221.796	15.02
222.015	23.21
222.233	49.83
222.451	92.84
222.669	21.16
222.887	8.87
223.105	-25.94
223.323	-64.85
223.541	15.02
223.759	55.98
223.977	-7.51
224.195	78.51
224.413	-9.56
224.631	-21.85
224.849	37.55
225.067	41.64
225.285	-46.42
225.503	55.98
225.721	-21.85
225.939	82.6
226.157	66.22
226.375	76.46
226.592	25.26
226.81	-25.94
227.028	51.88
227.246	35.5
227.464	-19.8
227.682	64.17
227.9	-50.52
228.117	-11.61
228.335	-9.56
228.553	37.55
228.771	-34.13
228.989	47.79
229.206	-38.23
229.424	0.68
229.642	-23.89
229.86	2.73
230.077	64.17
230.295	-11.61
230.513	-7.51
230.731	66.22
230.948	-1.37
231.166	72.36
231.384	-32.08
231.601	10.92
231.819	4.78
232.037	88.75
232.254	-48.47
232.472	23.21
232.689	12.97
232.907	113.32
233.125	51.88
233.342	-44.37
233.56	86.7
233.777	90.79
233.995	0.68
234.213	74.41
234.43	-11.61
234.648	-38.23
234.865	23.21
235.083	0.68
235.3	0.68
235.518	-34.13
235.735	60.07
235.953	17.07
236.17	25.26
236.388	-3.41
236.605	-52.56
236.822	70.31
237.04	58.03
237.257	-27.99
237.475	12.97
237.692	12.97
237.909	-32.08
238.127	68.27
238.344	39.59
238.562	35.5
238.779	-44.37
238.996	82.6
239.214	8.87
239.431	60.07
239.648	-13.65
239.865	115.37
240.083	25.26
240.3	-7.51
240.517	49.83
240.735	10.92
240.952	125.61
241.169	25.26
241.386	6.83
241.603	-60.76
241.821	-19.8
242.038	45.74
242.255	0.68
242.472	37.55
242.689	29.35
242.907	53.93
243.124	-11.61
243.341	70.31
243.558	-56.66
243.775	-58.71
243.992	-15.7
244.209	49.83
244.426	31.4
244.643	51.88
244.86	19.11
245.078	15.02
245.295	27.31
245.512	-7.51
245.729	21.16
245.946	-56.66
246.163	43.69
246.38	-7.51
246.597	19.11
246.814	-11.61
247.031	29.35
247.248	25.26
247.464	-15.7
247.681	-54.61
247.898	-30.04
248.115	25.26
248.332	-5.46
248.549	43.69
248.766	62.12
248.983	45.74
249.2	4.78
249.417	37.55
249.633	-3.41
249.85	53.93
250.067	-11.61
250.284	51.88
250.501	43.69
250.717	-17.75
250.934	-30.04
251.151	-21.85
251.368	4.78
251.585	53.93
251.801	4.78
252.018	8.87
252.235	17.07
252.451	19.11
252.668	-21.85
252.885	39.59
253.102	35.5
253.318	25.26
253.535	37.55
253.752	15.02
253.968	12.97
254.185	39.59
254.401	-15.7
254.618	-5.46
254.835	37.55
255.051	62.12
255.268	12.97
255.484	60.07
255.701	-23.89
255.917	70.31
256.134	-77.14
256.351	21.16
256.567	-40.28
256.784	-50.52
257	-15.7
257.217	10.92
257.433	37.55
257.65	27.31
257.866	43.69
258.082	8.87
258.299	-46.42
258.515	6.83
258.732	-7.51
258.948	33.45
259.165	19.11
259.381	51.88
259.597	6.83
259.814	29.35
260.03	37.55
260.246	0.68
260.463	8.87
260.679	43.69
260.895	43.69
261.112	15.02
261.328	12.97
261.544	8.87
261.761	68.27
261.977	0.68
262.193	6.83
262.409	35.5
262.626	-9.56
262.842	21.16
263.058	-9.56
263.274	58.03
263.49	105.13
263.707	-11.61
263.923	27.31
264.139	-9.56
264.355	-27.99
264.571	31.4
264.787	31.4
265.004	8.87
265.22	-9.56
265.436	-25.94
265.652	-32.08
265.868	-34.13
266.084	4.78
266.3	10.92
266.516	-17.75
266.732	0.68
266.948	-9.56
267.164	-27.99
267.38	-21.85
267.596	88.75
267.812	66.22
268.028	41.64
268.244	-60.76
268.46	117.42
268.676	-111.96
268.892	12.97
269.108	-25.94
269.324	6.83
269.54	-36.18
269.756	-30.04
269.972	-9.56
270.188	-9.56
270.403	-27.99
270.619	88.75
270.835	-36.18
271.051	19.11
271.267	8.87
271.483	-46.42
271.698	29.35
271.914	10.92
272.13	-36.18
272.346	-5.46
272.562	-5.46
272.777	51.88
272.993	-32.08
273.209	80.55
273.425	-32.08
273.64	-7.51
273.856	-30.04
274.072	-48.47
274.287	49.83
274.503	111.27
274.719	-36.18
274.934	-27.99
275.15	25.26
275.366	96.94
275.581	-58.71
275.797	0.68
276.012	25.26
276.228	60.07
276.444	-1.37
276.659	-25.94
276.875	4.78
277.09	21.16
277.306	64.17
277.521	45.74
277.737	21.16
277.952	96.94
278.168	0.68
278.383	47.79
278.599	-66.9
278.814	37.55
279.03	39.59
279.245	-7.51
279.461	35.5
279.676	23.21
279.892	0.68
280.107	-15.7
280.322	6.83
280.538	10.92
280.753	-21.85
280.969	17.07
281.184	15.02
281.399	23.21
281.615	31.4
281.83	25.26
282.045	-13.65
282.26	39.59
282.476	-1.37
282.691	-15.7
282.906	0.68
283.122	-3.41
283.337	6.83
283.552	19.11
283.767	51.88
283.983	70.31
284.198	27.31
284.413	-52.56
284.628	-15.7
284.843	37.55
285.058	78.51
285.274	-11.61
285.489	19.11
285.704	39.59
285.919	17.07
286.134	15.02
286.349	-50.52
286.564	109.22
286.779	10.92
286.995	-48.47
287.21	2.73
287.425	19.11
287.64	-36.18
287.855	8.87
288.07	-25.94
288.285	-25.94
288.5	8.87
288.715	8.87
288.93	72.36
289.145	66.22
289.36	17.07
289.575	-1.37
289.79	43.69
290.004	72.36
290.219	45.74
290.434	10.92
290.649	6.83
290.864	62.12
291.079	-21.85
291.294	66.22
291.509	45.74
291.724	-75.09
291.938	6.83
292.153	74.41
292.368	66.22
292.583	45.74
292.798	23.21
293.012	-13.65
293.227	-11.61
293.442	6.83
293.657	6.83
293.871	19.11
294.086	47.79
294.301	47.79
294.516	-9.56
294.73	27.31
294.945	12.97
295.16	39.59
295.374	47.79
295.589	39.59
295.804	27.31
296.018	-11.61
296.233	15.02
296.447	58.03
296.662	-34.13
296.877	27.31
297.091	17.07
297.306	55.98
297.52	6.83
297.735	-7.51
297.949	-5.46
298.164	41.64
298.378	29.35
298.593	39.59
298.807	-89.43
299.022	-36.18
299.236	17.07
299.451	-3.41
299.665	-9.56
299.88	33.45
300.094	47.79
300.309	72.36
300.523	-11.61
300.737	37.55
300.952	4.78
301.166	10.92
301.381	-21.85
301.595	41.64
301.809	-32.08
302.024	-62.8
302.238	21.16
302.452	-13.65
302.667	10.92
302.881	15.02
303.095	41.64
303.309	43.69
303.524	0.68
303.738	-7.51
303.952	-11.61
304.166	66.22
304.381	31.4
304.595	72.36
304.809	-23.89
305.023	-25.94
305.237	-3.41
305.452	19.11
305.666	62.12
305.88	4.78
306.094	-21.85
306.308	2.73
306.522	-38.23
306.736	10.92
306.95	29.35
307.164	47.79
307.379	-23.89
307.593	29.35
307.807	8.87
308.021	-23.89
308.235	12.97
308.449	37.55
308.663	-17.75
308.877	58.03
309.091	-11.61
309.305	39.59
309.519	25.26
309.733	51.88
309.947	47.79
310.161	12.97
310.374	23.21
310.588	37.55
310.802	-11.61
311.016	27.31
311.23	41.64
311.444	-32.08
311.658	29.35
311.872	86.7
312.085	-17.75
312.299	55.98
312.513	74.41
312.727	53.93
312.941	21.16
313.154	74.41
313.368	66.22
313.582	64.17
313.796	-11.61
314.009	-62.8
314.223	43.69
314.437	-46.42
314.651	21.16
314.864	-27.99
315.078	-9.56
315.292	23.21
315.505	-21.85
315.719	27.31
315.933	10.92
316.146	-3.41
316.36	2.73
316.573	-44.37
316.787	70.31
317.001	15.02
317.214	-48.47
317.428	0.68
317.641	-30.04
317.855	-9.56
318.068	-7.51
318.282	25.26
318.495	80.55
318.709	-27.99
318.922	-15.7
319.136	66.22
319.349	92.84
319.563	17.07
319.776	72.36
319.99	72.36
320.203	62.12
320.417	21.16
320.63	41.64
320.843	37.55
321.057	-1.37
321.27	-5.46
321.483	66.22
321.697	31.4
321.91	62.12
322.124	49.83
322.337	-5.46
322.55	15.02
322.763	35.5
322.977	-34.13
323.19	6.83
323.403	25.26
323.617	35.5
323.83	51.88
324.043	19.11
324.256	2.73
324.469	-9.56
324.683	17.07
324.896	27.31
325.109	-5.46
325.322	-50.52
325.535	35.5
325.748	-5.46
325.962	60.07
326.175	74.41
326.388	-1.37
326.601	29.35
326.814	41.64
327.027	17.07
327.24	62.12
327.453	-34.13
327.666	47.79
327.879	-15.7
328.092	-40.28
328.305	8.87
328.518	-7.51
328.731	-11.61
328.944	-25.94
329.157	-95.57
329.37	29.35
329.583	60.07
329.796	66.22
330.009	-5.46
330.222	47.79
330.435	-5.46
330.648	12.97
330.861	-3.41
331.073	35.5
331.286	41.64
331.499	-9.56
331.712	4.78
331.925	0.68
332.138	8.87
332.35	35.5
332.563	17.07
332.776	45.74
332.989	19.11
333.202	53.93
333.414	19.11
333.627	-19.8
333.84	66.22
334.053	29.35
334.265	17.07
334.478	-21.85
334.691	-27.99
334.903	-23.89
335.116	29.35
335.329	37.55
335.541	68.27
335.754	94.89
335.966	-21.85
336.179	58.03
336.392	0.68
336.604	39.59
336.817	23.21
337.029	37.55
337.242	-5.46
337.454	62.12
337.667	47.79
337.88	49.83
338.092	33.45
338.305	17.07
338.517	21.16
338.729	43.69
338.942	37.55
339.154	-36.18
339.367	-38.23
339.579	84.65
339.792	-3.41
340.004	49.83
340.217	-17.75
340.429	-1.37
340.641	47.79
340.854	-52.56
341.066	27.31
341.278	41.64
341.491	2.73
341.703	55.98
341.915	4.78
342.128	76.46
342.34	113.32
342.552	60.07
342.764	-38.23
342.977	-30.04
343.189	70.31
343.401	-36.18
343.613	51.88
343.826	21.16
344.038	-3.41
344.25	27.31
344.462	-1.37
344.674	10.92
344.886	-42.32
345.099	10.92
345.311	19.11
345.523	-3.41
345.735	-50.52
345.947	-1.37
346.159	19.11
346.371	-13.65
346.583	29.35
346.795	51.88
347.007	-5.46
347.219	-17.75
347.431	-30.04
347.643	133.8
347.855	-7.51
348.067	62.12
348.279	80.55
348.491	80.55
348.703	-3.41
348.915	-50.52
349.127	-27.99
349.339	12.97
349.551	31.4
349.763	53.93
349.975	53.93
350.187	84.65
350.399	45.74
350.61	35.5
350.822	39.59
351.034	58.03
351.246	33.45
351.458	12.97
351.669	80.55
351.881	51.88
352.093	15.02
352.305	72.36
352.517	17.07
352.728	33.45
352.94	103.08
353.152	10.92
353.363	6.83
353.575	25.26
353.787	119.46
353.999	-3.41
354.21	41.64
354.422	84.65
354.633	35.5
354.845	64.17
355.057	66.22
355.268	21.16
355.48	37.55
355.692	62.12
355.903	27.31
356.115	29.35
356.326	27.31
356.538	17.07
356.749	45.74
356.961	84.65
357.172	-1.37
357.384	-25.94
357.595	88.75
357.807	27.31
358.018	25.26
358.23	33.45
358.441	51.88
358.653	76.46
358.864	94.89
359.075	41.64
359.287	-19.8
359.498	-5.46
359.709	41.64
359.921	74.41
360.132	23.21
360.344	98.99
360.555	15.02
360.766	-32.08
360.977	35.5
361.189	23.21
361.4	17.07
361.611	84.65
361.823	-11.61
362.034	70.31
362.245	10.92
362.456	53.93
362.667	-15.7
362.879	-7.51
363.09	31.4
363.301	-13.65
363.512	45.74
363.723	6.83
363.935	12.97
364.146	-13.65
364.357	12.97
364.568	-62.8
364.779	0.68
364.99	88.75
365.201	-5.46
365.412	64.17
365.623	-13.65
365.834	84.65
366.045	29.35
366.256	45.74
366.467	115.37
366.678	101.03
366.889	0.68
367.1	62.12
367.311	37.55
367.522	-9.56
367.733	88.75
367.944	2.73
368.155	19.11
368.366	39.59
368.577	82.6
368.788	39.59
368.999	-40.28
369.209	-13.65
369.42	29.35
369.631	58.03
369.842	12.97
370.053	12.97
370.264	-30.04
370.474	64.17
370.685	-3.41
370.896	-27.99
371.107	76.46
371.317	80.55
371.528	86.7
371.739	82.6
371.95	6.83
372.16	23.21
372.371	49.83
372.582	70.31
372.792	35.5
373.003	-17.75
373.214	-25.94
373.424	68.27
373.635	82.6
373.846	21.16
374.056	25.26
374.267	-11.61
374.477	37.55
374.688	39.59
374.898	-38.23
375.109	27.31
375.319	33.45
375.53	127.66
375.74	10.92
375.951	29.35
376.161	25.26
376.372	117.42
376.582	45.74
376.793	21.16
377.003	23.21
377.214	-36.18
377.424	-15.7
377.635	-27.99
377.845	-52.56
378.055	92.84
378.266	-34.13
378.476	-30.04
378.686	37.55
378.897	53.93
379.107	31.4
379.317	12.97
379.528	23.21
379.738	72.36
379.948	27.31
380.158	51.88
380.369	35.5
380.579	76.46
380.789	72.36
380.999	47.79
381.21	-15.7
381.42	139.94
381.63	6.83
381.84	25.26
382.05	51.88
382.261	72.36
382.471	41.64
382.681	45.74
382.891	74.41
383.101	-13.65
383.311	12.97
383.521	4.78
383.731	49.83
383.941	8.87
384.151	33.45
384.361	29.35
384.571	47.79
384.781	21.16
384.991	121.51
385.201	103.08
385.411	49.83
385.621	45.74
385.831	53.93
386.041	37.55
386.251	60.07
386.461	29.35
386.671	29.35
386.881	72.36
387.091	17.07
387.301	62.12
387.511	109.22
387.72	45.74
387.93	29.35
388.14	-11.61
388.35	45.74
388.56	39.59
388.769	148.14
388.979	115.37
389.189	19.11
389.399	66.22
389.609	90.79
389.818	55.98
390.028	70.31
390.238	94.89
390.447	68.27
390.657	47.79
390.867	-3.41
391.076	12.97
391.286	119.46
391.496	53.93
391.705	29.35
391.915	15.02
392.125	66.22
392.334	92.84
392.544	35.5
392.753	-9.56
392.963	-68.95
393.172	33.45
393.382	27.31
393.591	68.27
393.801	4.78
394.01	101.03
394.22	19.11
394.429	68.27
394.639	23.21
394.848	27.31
395.058	98.99
395.267	96.94
395.477	94.89
395.686	10.92
395.895	154.28
396.105	41.64
396.314	10.92
396.524	19.11
396.733	47.79
396.942	72.36
397.152	74.41
397.361	53.93
397.57	123.56
397.78	68.27
397.989	25.26
398.198	156.33
398.407	121.51
398.617	55.98
398.826	66.22
399.035	55.98
399.244	8.87
399.453	141.99
399.663	123.56
399.872	53.93
400.081	51.88
400.29	49.83
400.499	86.7
400.708	86.7
400.917	101.03
401.127	19.11
401.336	-15.7
401.545	53.93
401.754	141.99
401.963	70.31
402.172	187.05
402.381	55.98
402.59	23.21
402.799	47.79
403.008	43.69
403.217	103.08
403.426	64.17
403.635	125.61
403.844	45.74
404.053	105.13
404.262	127.66
404.471	191.14
404.68	80.55
404.888	125.61
405.097	127.66
405.306	109.22
405.515	144.04
405.724	111.27
405.933	139.94
406.142	90.79
406.35	139.94
406.559	137.9
406.768	117.42
406.977	250.53
407.185	158.38
407.394	154.28
407.603	191.14
407.812	172.71
408.02	260.77
408.229	146.09
408.438	144.04
408.646	144.04
408.855	191.14
409.064	193.19
409.272	225.96
409.481	230.06
409.69	185
409.898	250.53
410.107	232.1
410.315	150.18
410.524	273.06
410.733	320.17
410.941	207.53
411.15	316.07
411.358	330.41
411.567	359.08
411.775	291.49
411.984	404.13
412.192	275.11
412.401	293.54
412.609	385.7
412.818	391.84
413.026	320.17
413.234	359.08
413.443	363.17
413.651	393.89
413.86	494.24
414.068	504.48
414.276	510.63
414.485	467.62
414.693	529.06
414.901	570.02
415.11	535.2
415.318	561.83
415.526	545.44
415.734	633.51
415.943	641.7
416.151	627.36
416.359	639.65
416.567	631.46
416.776	719.52
416.984	701.09
417.192	834.21
417.4	735.9
417.608	776.86
417.817	770.72
418.025	785.05
418.233	893.6
418.441	879.26
418.649	864.93
418.857	1055.39
419.065	993.95
419.273	987.8
419.481	1086.11
419.689	1098.39
419.897	1247.9
420.105	1172.12
420.313	1108.63
420.521	1243.8
420.729	1389.21
420.937	1342.1
421.145	1368.73
421.353	1493.65
421.561	1338.01
421.769	1546.9
421.977	1591.95
422.185	1606.29
422.393	1651.35
422.601	1739.41
422.809	1831.57
423.017	1772.18
423.224	1874.57
423.432	1966.73
423.64	1981.07
423.848	2167.43
424.056	2108.04
424.263	2316.94
424.471	2329.22
424.679	2247.3
424.887	2415.24
425.094	2534.02
425.302	2435.72
425.51	2617.99
425.718	2671.23
425.925	2652.8
426.133	2767.49
426.341	3048.06
426.548	3078.78
426.756	3119.74
426.964	3111.55
427.171	3273.34
427.379	3414.65
427.586	3402.36
427.794	3586.68
428.001	3625.59
428.209	3938.93
428.417	3768.95
428.624	4254.31
428.832	4082.28
429.039	4063.85
429.247	4082.28
429.454	4487.78
429.662	4743.78
429.869	4383.34
430.076	4866.66
430.284	4440.68
430.491	4786.79
430.699	5130.84
430.906	5079.65
431.114	5175.9
431.321	5276.25
431.528	5458.52
431.736	5794.39
431.943	6023.76
432.15	5993.04
432.358	5988.94
432.565	6189.64
432.772	6201.93
432.979	6660.68
433.187	6775.36
433.394	6810.18
433.601	7328.31
433.808	7258.68
434.016	7404.09
434.223	7512.63
434.43	8110.64
434.637	7754.29
434.844	8333.87
435.052	8421.93
435.259	8360.49
435.466	8438.31
435.673	8528.42
435.88	9024.03
436.087	9531.93
436.294	9523.74
436.501	9302.56
436.708	9468.44
436.915	9765.4
437.122	10054.16
437.329	10105.36
437.537	10498.57
437.743	10715.66
437.95	10611.21
438.157	11155.97
438.364	11448.83
438.571	11661.82
438.778	11680.25
438.985	12655.08
439.192	12036.59
439.399	12560.88
439.606	12384.75
439.813	12980.71
440.02	13877.72
440.227	13599.2
440.433	13277.66
440.64	14092.76
440.847	13758.94
441.054	14105.04
441.261	14977.48
441.467	14635.47
441.674	15204.8
441.881	15897.02
442.088	15704.51
442.294	15411.65
442.501	15823.29
442.708	16329.14
442.914	16820.65
443.121	17844.63
443.328	17215.91
443.534	18403.73
443.741	17742.24
443.948	17527.2
444.154	19138.95
444.361	18860.43
444.568	19122.57
444.774	19179.91
444.981	19181.96
445.187	19708.29
445.394	20568.43
445.6	20590.96
445.807	22266.2
446.013	21338.47
446.22	21864.8
446.426	22604.11
446.633	23071.05
446.839	23540.04
447.046	22634.83
447.252	23947.58
447.459	24353.08
447.665	23972.16
447.871	24750.39
448.078	25762.08
448.284	25012.53
448.491	25512.23
448.697	26237.21
448.903	26808.59
449.11	27121.93
449.316	26564.89
449.522	27289.87
449.728	27681.03
449.935	28195.07
450.141	27828.48
450.347	28580.09
450.553	27607.3
450.76	27965.7
450.966	28664.05
451.172	28893.43
451.378	29354.22
451.584	28834.03
451.791	29460.71
451.997	29491.43
452.203	30052.58
452.409	30075.1
452.615	30048.48
452.821	28569.85
453.027	28645.62
453.233	30009.57
453.44	28602.61
453.646	29176.05
453.852	28885.23
454.058	29462.76
454.264	28713.2
454.47	29581.54
454.676	28897.52
454.882	29747.43
455.088	26902.8
455.294	27621.64
455.5	28332.28
455.705	28305.66
455.911	27230.48
456.117	26700.05
456.323	26353.94
456.529	25059.63
456.735	26282.27
456.941	25364.78
457.147	24957.23
457.352	24234.3
457.558	24019.26
457.764	23845.18
457.97	23775.55
458.176	22915.4
458.381	22853.97
458.587	21961.05
458.793	22143.32
458.999	20644.21
459.204	22366.55
459.41	21465.44
459.616	20441.46
459.821	20062.58
460.027	20248.95
460.233	19532.16
460.438	18512.27
460.644	18964.87
460.85	18241.94
461.055	17742.24
461.261	17803.67
461.466	16400.82
461.672	15890.87
461.878	17156.52
462.083	15880.63
462.289	15911.35
462.494	15440.32
462.7	14514.64
462.905	14420.43
463.111	14901.7
463.316	15061.44
463.522	14549.45
463.727	14592.46
463.932	14623.18
464.138	14320.08
464.343	14698.95
464.549	14287.31
464.754	14709.19
464.959	14463.44
465.165	14311.89
465.37	13803.99
465.575	13314.53
465.781	14025.17
465.986	13832.66
466.191	13601.24
466.397	13253.09
466.602	12409.33
466.807	13169.12
467.012	13216.22
467.218	13005.28
