Data from USB4F104151__84__12-27-56-611.txt Node

Date: Fri Mar 14 12:27:56 EDT 2025
User: louis
Spectrometer: USB4F10415
Trigger mode: 4
Integration Time (sec): 2.000000E-2
Scans to average: 1
Electric dark correction enabled: true
Nonlinearity correction enabled: false
Boxcar width: 0
XAxis mode: Wavelengths
Number of Pixels in Spectrum: 3648
>>>>>Begin Spectral Data<<<<<
178.204	-66.39
178.424	-66.39
178.644	-66.39
178.864	-93.01
179.084	-62.29
179.304	11.43
179.524	-23.38
179.744	31.91
179.964	15.53
180.184	40.11
180.404	19.63
180.624	-7
180.844	29.87
181.064	-109.4
181.283	-21.33
181.503	-21.33
181.723	33.96
181.943	-9.05
182.163	72.87
182.383	-56.15
182.602	36.01
182.822	119.98
183.042	54.44
183.262	113.83
183.482	19.63
183.701	56.49
183.921	-11.09
184.141	-33.62
184.361	56.49
184.58	17.58
184.8	46.25
185.02	-29.52
185.239	54.44
185.459	-25.43
185.679	15.53
185.898	33.96
186.118	21.67
186.338	25.77
186.557	56.49
186.777	72.87
186.997	95.4
187.216	9.39
187.436	23.72
187.655	11.43
187.875	85.16
188.095	1.19
188.314	97.45
188.534	25.77
188.753	-33.62
188.973	38.06
189.192	81.07
189.412	-2.9
189.631	21.67
189.851	-58.2
190.07	31.91
190.29	44.2
190.509	23.72
190.729	19.63
190.948	97.45
191.168	146.6
191.387	40.11
191.607	21.67
191.826	33.96
192.045	-64.34
192.265	72.87
192.484	1.19
192.704	95.4
192.923	15.53
193.142	119.98
193.362	83.11
193.581	113.83
193.8	1.19
194.02	48.3
194.239	103.59
194.458	56.49
194.678	31.91
194.897	19.63
195.116	23.72
195.335	15.53
195.555	42.15
195.774	64.68
195.993	33.96
196.212	19.63
196.432	36.01
196.651	38.06
196.87	-15.19
197.089	107.69
197.308	17.58
197.528	91.31
197.747	23.72
197.966	17.58
198.185	-9.05
198.404	-9.05
198.623	89.26
198.842	74.92
199.062	31.91
199.281	48.3
199.5	-31.57
199.719	-41.81
199.938	56.49
200.157	58.54
200.376	40.11
200.595	160.94
200.814	97.45
201.033	54.44
201.252	95.4
201.471	-7
201.69	89.26
201.909	70.83
202.128	21.67
202.347	3.24
202.566	-37.72
202.785	-15.19
203.004	17.58
203.223	136.36
203.442	91.31
203.661	1.19
203.879	17.58
204.098	48.3
204.317	-4.95
204.536	29.87
204.755	46.25
204.974	15.53
205.193	52.39
205.411	-2.9
205.63	103.59
205.849	48.3
206.068	23.72
206.287	-4.95
206.505	87.21
206.724	66.73
206.943	1.19
207.162	48.3
207.381	-9.05
207.599	64.68
207.818	3.24
208.037	58.54
208.255	64.68
208.474	70.83
208.693	79.02
208.911	36.01
209.13	40.11
209.349	97.45
209.567	23.72
209.786	31.91
210.005	38.06
210.223	42.15
210.442	36.01
210.661	58.54
210.879	-72.53
211.098	9.39
211.316	29.87
211.535	74.92
211.753	13.48
211.972	101.55
212.191	27.82
212.409	66.73
212.628	76.97
212.846	15.53
213.065	44.2
213.283	38.06
213.502	3.24
213.72	107.69
213.938	72.87
214.157	91.31
214.375	13.48
214.594	54.44
214.812	38.06
215.031	7.34
215.249	27.82
215.467	54.44
215.686	119.98
215.904	138.41
216.122	50.35
216.341	130.22
216.559	-50
216.778	11.43
216.996	-41.81
217.214	7.34
217.432	15.53
217.651	74.92
217.869	13.48
218.087	21.67
218.306	-0.85
218.524	52.39
218.742	44.2
218.96	-0.85
219.179	1.19
219.397	9.39
219.615	40.11
219.833	101.55
220.051	40.11
220.27	11.43
220.488	19.63
220.706	3.24
220.924	-2.9
221.142	25.77
221.36	-19.29
221.578	42.15
221.796	5.29
222.015	85.16
222.233	64.68
222.451	19.63
222.669	-4.95
222.887	68.78
223.105	19.63
223.323	13.48
223.541	52.39
223.759	46.25
223.977	36.01
224.195	74.92
224.413	21.67
224.631	111.78
224.849	58.54
225.067	130.22
225.285	68.78
225.503	-70.48
225.721	52.39
225.939	-35.67
226.157	46.25
226.375	107.69
226.592	48.3
226.81	15.53
227.028	124.07
227.246	70.83
227.464	-4.95
227.682	76.97
227.9	99.5
228.117	-9.05
228.335	60.59
228.553	25.77
228.771	81.07
228.989	27.82
229.206	58.54
229.424	42.15
229.642	25.77
229.86	58.54
230.077	5.29
230.295	85.16
230.513	19.63
230.731	25.77
230.948	19.63
231.166	25.77
231.384	31.91
231.601	19.63
231.819	81.07
232.037	70.83
232.254	-2.9
232.472	99.5
232.689	15.53
232.907	70.83
233.125	-27.48
233.342	70.83
233.56	23.72
233.777	9.39
233.995	103.59
234.213	40.11
234.43	27.82
234.648	-7
234.865	33.96
235.083	17.58
235.3	48.3
235.518	21.67
235.735	95.4
235.953	-2.9
236.17	29.87
236.388	58.54
236.605	29.87
236.822	91.31
237.04	36.01
237.257	11.43
237.475	25.77
237.692	56.49
237.909	29.87
238.127	46.25
238.344	5.29
238.562	38.06
238.779	48.3
238.996	27.82
239.214	87.21
239.431	23.72
239.648	21.67
239.865	87.21
240.083	21.67
240.3	85.16
240.517	23.72
240.735	44.2
240.952	70.83
241.169	13.48
241.386	124.07
241.603	87.21
241.821	50.35
242.038	72.87
242.255	62.63
242.472	9.39
242.689	5.29
242.907	66.73
243.124	23.72
243.341	-7
243.558	36.01
243.775	1.19
243.992	-21.33
244.209	1.19
244.426	66.73
244.643	117.93
244.86	23.72
245.078	101.55
245.295	54.44
245.512	11.43
245.729	21.67
245.946	117.93
246.163	23.72
246.38	31.91
246.597	101.55
246.814	42.15
247.031	15.53
247.248	56.49
247.464	21.67
247.681	87.21
247.898	64.68
248.115	95.4
248.332	-31.57
248.549	21.67
248.766	60.59
248.983	70.83
249.2	-17.24
249.417	93.35
249.633	33.96
249.85	64.68
250.067	27.82
250.284	-19.29
250.501	58.54
250.717	124.07
250.934	95.4
251.151	50.35
251.368	19.63
251.585	56.49
251.801	-15.19
252.018	36.01
252.235	36.01
252.451	15.53
252.668	17.58
252.885	-2.9
253.102	70.83
253.318	40.11
253.535	-35.67
253.752	54.44
253.968	85.16
254.185	9.39
254.401	74.92
254.618	31.91
254.835	-7
255.051	68.78
255.268	56.49
255.484	62.63
255.701	52.39
255.917	87.21
256.134	23.72
256.351	-0.85
256.567	13.48
256.784	21.67
257	-31.57
257.217	113.83
257.433	134.31
257.65	52.39
257.866	62.63
258.082	64.68
258.299	60.59
258.515	70.83
258.732	50.35
258.948	44.2
259.165	19.63
259.381	-7
259.597	42.15
259.814	68.78
260.03	-7
260.246	52.39
260.463	85.16
260.679	101.55
260.895	19.63
261.112	54.44
261.328	91.31
261.544	33.96
261.761	93.35
261.977	56.49
262.193	58.54
262.409	-17.24
262.626	13.48
262.842	33.96
263.058	25.77
263.274	101.55
263.49	25.77
263.707	66.73
263.923	91.31
264.139	-52.05
264.355	42.15
264.571	46.25
264.787	58.54
265.004	72.87
265.22	68.78
265.436	-9.05
265.652	-35.67
265.868	89.26
266.084	42.15
266.3	29.87
266.516	58.54
266.732	11.43
266.948	93.35
267.164	-0.85
267.38	25.77
267.596	25.77
267.812	40.11
268.028	1.19
268.244	19.63
268.46	58.54
268.676	91.31
268.892	19.63
269.108	-0.85
269.324	15.53
269.54	-17.24
269.756	87.21
269.972	42.15
270.188	42.15
270.403	36.01
270.619	54.44
270.835	38.06
271.051	58.54
271.267	17.58
271.483	17.58
271.698	46.25
271.914	38.06
272.13	83.11
272.346	25.77
272.562	66.73
272.777	33.96
272.993	21.67
273.209	38.06
273.425	42.15
273.64	40.11
273.856	19.63
274.072	38.06
274.287	95.4
274.503	52.39
274.719	52.39
274.934	33.96
275.15	21.67
275.366	62.63
275.581	31.91
275.797	60.59
276.012	70.83
276.228	11.43
276.444	15.53
276.659	95.4
276.875	-15.19
277.09	11.43
277.306	76.97
277.521	44.2
277.737	52.39
277.952	79.02
278.168	1.19
278.383	58.54
278.599	79.02
278.814	93.35
279.03	44.2
279.245	40.11
279.461	13.48
279.676	165.03
279.892	-19.29
280.107	19.63
280.322	5.29
280.538	46.25
280.753	3.24
280.969	-11.09
281.184	64.68
281.399	38.06
281.615	93.35
281.83	-23.38
282.045	25.77
282.26	93.35
282.476	60.59
282.691	-11.09
282.906	109.74
283.122	5.29
283.337	66.73
283.552	62.63
283.767	-7
283.983	72.87
284.198	29.87
284.413	15.53
284.628	11.43
284.843	54.44
285.058	85.16
285.274	52.39
285.489	103.59
285.704	62.63
285.919	-11.09
286.134	31.91
286.349	36.01
286.564	48.3
286.779	42.15
286.995	23.72
287.21	-21.33
287.425	70.83
287.64	-2.9
287.855	50.35
288.07	42.15
288.285	40.11
288.5	52.39
288.715	74.92
288.93	23.72
289.145	23.72
289.36	17.58
289.575	79.02
289.79	68.78
290.004	33.96
290.219	66.73
290.434	-7
290.649	79.02
290.864	99.5
291.079	21.67
291.294	9.39
291.509	91.31
291.724	79.02
291.938	29.87
292.153	83.11
292.368	21.67
292.583	66.73
292.798	72.87
293.012	42.15
293.227	33.96
293.442	-9.05
293.657	50.35
293.871	33.96
294.086	50.35
294.301	81.07
294.516	54.44
294.73	-21.33
294.945	74.92
295.16	25.77
295.374	27.82
295.589	52.39
295.804	29.87
296.018	132.26
296.233	72.87
296.447	42.15
296.662	46.25
296.877	56.49
297.091	70.83
297.306	42.15
297.52	7.34
297.735	48.3
297.949	93.35
298.164	56.49
298.378	70.83
298.593	93.35
298.807	-13.14
299.022	165.03
299.236	72.87
299.451	60.59
299.665	19.63
299.88	76.97
300.094	25.77
300.309	-7
300.523	19.63
300.737	68.78
300.952	-17.24
301.166	95.4
301.381	97.45
301.595	29.87
301.809	50.35
302.024	91.31
302.238	81.07
302.452	21.67
302.667	-101.2
302.881	79.02
303.095	115.88
303.309	81.07
303.524	87.21
303.738	19.63
303.952	81.07
304.166	40.11
304.381	66.73
304.595	113.83
304.809	27.82
305.023	87.21
305.237	3.24
305.452	101.55
305.666	52.39
305.88	60.59
306.094	23.72
306.308	52.39
306.522	72.87
306.736	15.53
306.95	44.2
307.164	70.83
307.379	29.87
307.593	58.54
307.807	46.25
308.021	158.89
308.235	107.69
308.449	-56.15
308.663	25.77
308.877	91.31
309.091	25.77
309.305	54.44
309.519	83.11
309.733	74.92
309.947	109.74
310.161	11.43
310.374	17.58
310.588	56.49
310.802	29.87
311.016	5.29
311.23	21.67
311.444	42.15
311.658	50.35
311.872	11.43
312.085	25.77
312.299	87.21
312.513	1.19
312.727	56.49
312.941	117.93
313.154	81.07
313.368	21.67
313.582	76.97
313.796	31.91
314.009	15.53
314.223	50.35
314.437	52.39
314.651	126.12
314.864	9.39
315.078	3.24
315.292	117.93
315.505	40.11
315.719	42.15
315.933	52.39
316.146	13.48
316.36	27.82
316.573	119.98
316.787	60.59
317.001	13.48
317.214	140.46
317.428	44.2
317.641	81.07
317.855	38.06
318.068	54.44
318.282	33.96
318.495	117.93
318.709	83.11
318.922	3.24
319.136	48.3
319.349	81.07
319.563	-64.34
319.776	38.06
319.99	-0.85
320.203	50.35
320.417	52.39
320.63	99.5
320.843	64.68
321.057	25.77
321.27	46.25
321.483	115.88
321.697	128.17
321.91	89.26
322.124	27.82
322.337	58.54
322.55	79.02
322.763	3.24
322.977	38.06
323.19	132.26
323.403	58.54
323.617	52.39
323.83	23.72
324.043	15.53
324.256	23.72
324.469	7.34
324.683	68.78
324.896	9.39
325.109	46.25
325.322	42.15
325.535	91.31
325.748	3.24
325.962	5.29
326.175	50.35
326.388	81.07
326.601	29.87
326.814	29.87
327.027	99.5
327.24	64.68
327.453	9.39
327.666	107.69
327.879	105.64
328.092	83.11
328.305	-47.96
328.518	38.06
328.731	76.97
328.944	81.07
329.157	103.59
329.37	-15.19
329.583	42.15
329.796	50.35
330.009	38.06
330.222	48.3
330.435	38.06
330.648	48.3
330.861	72.87
331.073	95.4
331.286	68.78
331.499	93.35
331.712	74.92
331.925	54.44
332.138	-11.09
332.35	17.58
332.563	-31.57
332.776	25.77
332.989	52.39
333.202	40.11
333.414	50.35
333.627	54.44
333.84	93.35
334.053	46.25
334.265	58.54
334.478	68.78
334.691	-25.43
334.903	40.11
335.116	7.34
335.329	23.72
335.541	66.73
335.754	185.51
335.966	-13.14
336.179	58.54
336.392	91.31
336.604	68.78
336.817	-33.62
337.029	56.49
337.242	38.06
337.454	9.39
337.667	54.44
337.88	64.68
338.092	36.01
338.305	83.11
338.517	72.87
338.729	3.24
338.942	54.44
339.154	25.77
339.367	-0.85
339.579	62.63
339.792	46.25
340.004	68.78
340.217	40.11
340.429	17.58
340.641	-11.09
340.854	27.82
341.066	62.63
341.278	101.55
341.491	27.82
341.703	62.63
341.915	66.73
342.128	107.69
342.34	58.54
342.552	81.07
342.764	7.34
342.977	27.82
343.189	48.3
343.401	-19.29
343.613	64.68
343.826	70.83
344.038	68.78
344.25	27.82
344.462	99.5
344.674	62.63
344.886	3.24
345.099	29.87
345.311	64.68
345.523	19.63
345.735	-37.72
345.947	25.77
346.159	38.06
346.371	79.02
346.583	44.2
346.795	85.16
347.007	-17.24
347.219	64.68
347.431	-35.67
347.643	1.19
347.855	1.19
348.067	64.68
348.279	89.26
348.491	117.93
348.703	-21.33
348.915	-17.24
349.127	38.06
349.339	76.97
349.551	19.63
349.763	13.48
349.975	52.39
350.187	68.78
350.399	97.45
350.61	62.63
350.822	48.3
351.034	9.39
351.246	56.49
351.458	160.94
351.669	31.91
351.881	91.31
352.093	72.87
352.305	74.92
352.517	187.56
352.728	72.87
352.94	56.49
353.152	91.31
353.363	36.01
353.575	58.54
353.787	54.44
353.999	101.55
354.21	79.02
354.422	36.01
354.633	50.35
354.845	107.69
355.057	38.06
355.268	58.54
355.48	9.39
355.692	27.82
355.903	146.6
356.115	81.07
356.326	-15.19
356.538	111.78
356.749	79.02
356.961	132.26
357.172	1.19
357.384	-41.81
357.595	62.63
357.807	58.54
358.018	40.11
358.23	1.19
358.441	113.83
358.653	13.48
358.864	33.96
359.075	23.72
359.287	113.83
359.498	31.91
359.709	48.3
359.921	3.24
360.132	56.49
360.344	42.15
360.555	66.73
360.766	89.26
360.977	-2.9
361.189	54.44
361.4	64.68
361.611	54.44
361.823	66.73
362.034	54.44
362.245	-4.95
362.456	58.54
362.667	128.17
362.879	42.15
363.09	97.45
363.301	58.54
363.512	52.39
363.723	56.49
363.935	74.92
364.146	56.49
364.357	60.59
364.568	85.16
364.779	93.35
364.99	91.31
365.201	72.87
365.412	107.69
365.623	50.35
365.834	27.82
366.045	-27.48
366.256	138.41
366.467	62.63
366.678	29.87
366.889	64.68
367.1	66.73
367.311	74.92
367.522	5.29
367.733	19.63
367.944	64.68
368.155	111.78
368.366	62.63
368.577	79.02
368.788	95.4
368.999	50.35
369.209	44.2
369.42	48.3
369.631	109.74
369.842	97.45
370.053	93.35
370.264	81.07
370.474	99.5
370.685	33.96
370.896	52.39
371.107	76.97
371.317	91.31
371.528	85.16
371.739	44.2
371.95	91.31
372.16	70.83
372.371	60.59
372.582	89.26
372.792	76.97
373.003	113.83
373.214	-13.14
373.424	40.11
373.635	-33.62
373.846	124.07
374.056	-7
374.267	74.92
374.477	62.63
374.688	-21.33
374.898	119.98
375.109	68.78
375.319	111.78
375.53	89.26
375.74	46.25
375.951	66.73
376.161	33.96
376.372	64.68
376.582	138.41
376.793	44.2
377.003	117.93
377.214	54.44
377.424	152.74
377.635	105.64
377.845	11.43
378.055	113.83
378.266	54.44
378.476	117.93
378.686	52.39
378.897	52.39
379.107	66.73
379.317	113.83
379.528	-11.09
379.738	85.16
379.948	27.82
380.158	-7
380.369	97.45
380.579	17.58
380.789	89.26
380.999	52.39
381.21	72.87
381.42	97.45
381.63	46.25
381.84	33.96
382.05	48.3
382.261	40.11
382.471	58.54
382.681	33.96
382.891	122.02
383.101	66.73
383.311	-15.19
383.521	29.87
383.731	85.16
383.941	66.73
384.151	134.31
384.361	40.11
384.571	60.59
384.781	36.01
384.991	103.59
385.201	109.74
385.411	72.87
385.621	113.83
385.831	95.4
386.041	122.02
386.251	72.87
386.461	50.35
386.671	60.59
386.881	81.07
387.091	89.26
387.301	54.44
387.511	50.35
387.72	95.4
387.93	1.19
388.14	-7
388.35	64.68
388.56	76.97
388.769	58.54
388.979	46.25
389.189	46.25
389.399	38.06
389.609	113.83
389.818	113.83
390.028	66.73
390.238	42.15
390.447	89.26
390.657	79.02
390.867	36.01
391.076	74.92
391.286	101.55
391.496	29.87
391.705	72.87
391.915	105.64
392.125	64.68
392.334	52.39
392.544	91.31
392.753	105.64
392.963	54.44
393.172	68.78
393.382	62.63
393.591	109.74
393.801	95.4
394.01	191.66
394.22	134.31
394.429	74.92
394.639	136.36
394.848	177.32
395.058	140.46
395.267	115.88
395.477	97.45
395.686	56.49
395.895	210.09
396.105	117.93
396.314	138.41
396.524	74.92
396.733	64.68
396.942	134.31
397.152	134.31
397.361	179.37
397.57	89.26
397.78	154.79
397.989	146.6
398.198	150.7
398.407	124.07
398.617	79.02
398.826	136.36
399.035	42.15
399.244	111.78
399.453	99.5
399.663	150.7
399.872	111.78
400.081	81.07
400.29	216.23
400.499	48.3
400.708	148.65
400.917	68.78
401.127	117.93
401.336	122.02
401.545	165.03
401.754	103.59
401.963	130.22
402.172	152.74
402.381	132.26
402.59	50.35
402.799	89.26
403.008	189.61
403.217	58.54
403.426	152.74
403.635	130.22
403.844	152.74
404.053	162.98
404.262	111.78
404.471	251.05
404.68	261.29
404.888	162.98
405.097	128.17
405.306	201.9
405.515	132.26
405.724	160.94
405.933	222.38
406.142	201.9
406.35	195.75
406.559	242.85
406.768	201.9
406.977	251.05
407.185	154.79
407.394	208.04
407.603	294.05
407.812	189.61
408.02	214.18
408.229	216.23
408.438	230.57
408.646	218.28
408.855	273.57
409.064	232.62
409.272	279.72
409.481	279.72
409.69	279.72
409.898	261.29
410.107	267.43
410.315	320.68
410.524	351.4
410.733	289.96
410.941	373.92
411.15	380.07
411.358	406.69
411.567	418.98
411.775	449.7
411.984	388.26
412.192	380.07
412.401	453.8
412.609	519.33
412.818	476.32
413.026	461.99
413.234	513.19
413.443	591.01
413.651	634.02
413.86	648.35
414.068	627.87
414.276	638.11
414.485	609.44
414.693	638.11
414.901	715.94
415.11	709.79
415.318	681.12
415.526	715.94
415.734	750.75
415.943	765.09
416.151	740.51
416.359	881.82
416.567	832.67
416.776	982.17
416.984	990.36
417.192	1000.6
417.4	961.69
417.608	994.46
417.817	1135.77
418.025	1207.45
418.233	1174.68
418.441	1111.19
418.649	1303.7
418.857	1313.94
419.065	1232.02
419.273	1291.41
419.481	1365.14
419.689	1338.52
419.897	1471.64
420.105	1528.98
420.313	1551.51
420.521	1684.62
420.729	1752.21
420.937	1725.58
421.145	1780.88
421.353	1768.59
421.561	1903.76
421.769	1983.63
421.977	2075.79
422.185	2120.84
422.393	2204.81
422.601	2223.24
422.809	2262.15
423.017	2362.5
423.224	2413.7
423.432	2495.62
423.64	2616.45
423.848	2684.03
424.056	2585.73
424.263	2833.54
424.471	2811.01
424.679	2995.32
424.887	3093.63
425.094	3150.97
425.302	3204.22
425.51	3327.1
425.718	3456.12
425.925	3431.54
426.133	3511.41
426.341	3804.27
426.548	3894.38
426.756	4023.41
426.964	4054.12
427.171	4185.19
427.379	4342.89
427.586	4502.63
427.794	4576.36
428.001	4674.66
428.209	4971.61
428.417	4959.33
428.624	5262.43
428.832	5289.05
429.039	5217.37
429.247	5092.44
429.454	5651.54
429.662	6059.09
429.869	5721.17
430.076	6210.64
430.284	5919.82
430.491	6200.4
430.699	6501.45
430.906	6509.64
431.114	6659.14
431.321	6865.99
431.528	7121.98
431.736	7529.53
431.943	7904.31
432.15	7697.46
432.358	7574.58
432.565	8080.43
432.772	8006.7
432.979	8516.65
433.187	8725.54
433.394	8723.49
433.601	9145.38
433.808	9235.49
434.016	9290.78
434.223	9405.47
434.43	10206.22
434.637	10118.16
434.844	10497.03
435.052	10849.29
435.259	10988.55
435.466	10892.29
435.673	10961.92
435.88	11396.09
436.087	12153.84
436.294	12098.55
436.501	11817.97
436.708	12026.87
436.915	12696.55
437.122	13233.12
437.329	13116.39
437.537	13624.28
437.743	13999.06
437.95	13454.3
438.157	14347.22
438.364	14769.1
438.571	14887.88
438.778	14795.72
438.985	16047.03
439.192	15670.2
439.399	16298.93
439.606	15672.25
439.813	16765.87
440.02	17566.62
440.227	17353.63
440.433	17310.63
440.64	17898.39
440.847	17802.14
441.054	18170.77
441.261	19405.7
441.467	18979.72
441.674	19567.49
441.881	20243.32
442.088	20241.27
442.294	20063.1
442.501	20335.48
442.708	21017.45
442.914	21764.96
443.121	22612.82
443.328	22176.6
443.534	23434.05
443.741	22987.6
443.948	22889.29
444.154	24431.41
444.361	24345.4
444.568	24499
444.774	24290.1
444.981	24693.55
445.187	25228.07
445.394	26458.9
445.6	26159.9
445.807	28574.45
446.013	27265.8
446.22	27806.47
446.426	29145.84
446.633	29260.52
446.839	30341.85
447.046	28953.33
447.252	30753.49
447.459	30833.36
447.665	30773.97
447.871	32123.58
448.078	33557.16
448.284	31732.42
448.491	32707.26
448.697	33387.18
448.903	34429.6
449.11	34405.02
449.316	34067.11
449.522	34634.39
449.728	35580.56
449.935	36049.54
450.141	35787.4
450.347	36571.77
450.553	35568.27
450.76	36031.11
450.966	37108.34
451.172	36993.65
451.378	37640.81
451.584	37108.34
451.791	37923.43
451.997	37599.85
452.203	38460
452.409	38787.67
452.615	38253.15
452.821	36825.72
453.027	36633.21
453.233	38421.09
453.44	37431.92
453.646	37304.95
453.852	37454.45
454.058	38021.73
454.264	37175.92
454.47	37698.16
454.676	37212.79
454.882	38503.01
455.088	34681.5
455.294	35289.74
455.5	36016.77
455.705	36422.27
455.911	34896.53
456.117	34568.86
456.323	33573.55
456.529	32305.85
456.735	33315.5
456.941	32729.78
457.147	31883.97
457.352	31042.26
457.558	30759.64
457.764	30939.86
457.97	30495.45
458.176	29627.11
458.381	29508.33
458.587	28242.68
458.793	28314.36
458.999	26798.87
459.204	28639.99
459.41	27925.25
459.616	25996.06
459.821	26026.78
460.027	25926.43
460.233	25365.29
460.438	24292.15
460.644	24652.59
460.85	23112.52
461.055	23223.11
461.261	22582.1
461.466	21330.79
461.672	20675.44
461.878	22199.13
462.083	20552.56
462.289	20005.75
462.494	19778.43
462.7	18940.81
462.905	18850.7
463.111	19157.89
463.316	19516.29
463.522	19035.02
463.727	18785.16
463.932	18809.74
464.138	18862.99
464.343	18680.72
464.549	18432.91
464.754	18824.08
464.959	18772.88
465.165	18484.11
465.37	18017.18
465.575	17292.19
465.781	18011.03
465.986	18211.73
466.191	17327.01
466.397	17185.7
466.602	16006.07
466.807	17073.06
467.012	16868.27
467.218	17077.16
467.423	16524.21
467.628	16647.08
467.833	17265.57
