Data from USB4F104151__54__12-27-34-673.txt Node

Date: Fri Mar 14 12:27:34 EDT 2025
User: louis
Spectrometer: USB4F10415
Trigger mode: 4
Integration Time (sec): 2.000000E-2
Scans to average: 1
Electric dark correction enabled: true
Nonlinearity correction enabled: false
Boxcar width: 0
XAxis mode: Wavelengths
Number of Pixels in Spectrum: 3648
>>>>>Begin Spectral Data<<<<<
178.204	-67.58
178.424	-67.58
178.644	-67.58
178.864	-86.01
179.084	-79.87
179.304	-43.01
179.524	-0
179.744	-0
179.964	106.49
180.184	-88.06
180.404	36.86
180.624	43.01
180.844	4.1
181.064	-18.43
181.283	-20.48
181.503	-49.15
181.723	28.67
181.943	-0
182.163	96.25
182.383	-16.38
182.602	10.24
182.822	77.82
183.042	61.44
183.262	110.59
183.482	20.48
183.701	65.53
183.921	69.63
184.141	34.82
184.361	106.49
184.58	26.62
184.8	55.3
185.02	-8.19
185.239	143.36
185.459	49.15
185.679	59.39
185.898	45.06
186.118	153.6
186.338	12.29
186.557	67.58
186.777	2.05
186.997	69.63
187.216	-6.14
187.436	139.26
187.655	47.1
187.875	63.49
188.095	55.3
188.314	98.3
188.534	75.77
188.753	22.53
188.973	47.1
189.192	45.06
189.412	-16.38
189.631	61.44
189.851	26.62
190.07	124.93
190.29	-8.19
190.509	2.05
190.729	49.15
190.948	96.25
191.168	104.45
191.387	30.72
191.607	24.58
191.826	12.29
192.045	47.1
192.265	45.06
192.484	61.44
192.704	38.91
192.923	45.06
193.142	112.64
193.362	104.45
193.581	98.3
193.8	114.69
194.02	4.1
194.239	51.2
194.458	55.3
194.678	28.67
194.897	36.86
195.116	16.38
195.335	77.82
195.555	65.53
195.774	36.86
195.993	47.1
196.212	100.35
196.432	14.34
196.651	79.87
196.87	90.11
197.089	106.49
197.308	47.1
197.528	20.48
197.747	24.58
197.966	45.06
198.185	90.11
198.404	4.1
198.623	81.92
198.842	92.16
199.062	24.58
199.281	75.77
199.5	81.92
199.719	38.91
199.938	104.45
200.157	43.01
200.376	30.72
200.595	122.88
200.814	71.68
201.033	22.53
201.252	59.39
201.471	36.86
201.69	2.05
201.909	36.86
202.128	96.25
202.347	73.73
202.566	59.39
202.785	88.06
203.004	45.06
203.223	194.56
203.442	43.01
203.661	43.01
203.879	47.1
204.098	22.53
204.317	26.62
204.536	55.3
204.755	102.4
204.974	-4.1
205.193	14.34
205.411	67.58
205.63	81.92
205.849	-32.77
206.068	92.16
206.287	57.34
206.505	59.39
206.724	55.3
206.943	-10.24
207.162	69.63
207.381	4.1
207.599	-12.29
207.818	47.1
208.037	40.96
208.255	49.15
208.474	63.49
208.693	120.83
208.911	34.82
209.13	59.39
209.349	14.34
209.567	120.83
209.786	106.49
210.005	63.49
210.223	32.77
210.442	67.58
210.661	59.39
210.879	43.01
211.098	-18.43
211.316	53.25
211.535	51.2
211.753	55.3
211.972	71.68
212.191	43.01
212.409	47.1
212.628	4.1
212.846	61.44
213.065	96.25
213.283	110.59
213.502	45.06
213.72	90.11
213.938	30.72
214.157	77.82
214.375	122.88
214.594	-0
214.812	73.73
215.031	145.41
215.249	71.68
215.467	-14.34
215.686	30.72
215.904	67.58
216.122	51.2
216.341	47.1
216.559	57.34
216.778	47.1
216.996	18.43
217.214	22.53
217.432	131.07
217.651	26.62
217.869	94.21
218.087	43.01
218.306	100.35
218.524	63.49
218.742	71.68
218.96	135.17
219.179	12.29
219.397	49.15
219.615	51.2
219.833	120.83
220.051	18.43
220.27	92.16
220.488	65.53
220.706	43.01
220.924	45.06
221.142	45.06
221.36	16.38
221.578	57.34
221.796	73.73
222.015	28.67
222.233	12.29
222.451	43.01
222.669	-10.24
222.887	28.67
223.105	57.34
223.323	28.67
223.541	43.01
223.759	106.49
223.977	96.25
224.195	73.73
224.413	38.91
224.631	51.2
224.849	143.36
225.067	112.64
225.285	53.25
225.503	63.49
225.721	100.35
225.939	45.06
226.157	151.55
226.375	139.26
226.592	34.82
226.81	-0
227.028	34.82
227.246	100.35
227.464	104.45
227.682	63.49
227.9	26.62
228.117	69.63
228.335	104.45
228.553	75.77
228.771	6.14
228.989	102.4
229.206	63.49
229.424	12.29
229.642	-12.29
229.86	45.06
230.077	100.35
230.295	47.1
230.513	75.77
230.731	133.12
230.948	40.96
231.166	30.72
231.384	83.97
231.601	106.49
231.819	22.53
232.037	10.24
232.254	-2.05
232.472	-14.34
232.689	10.24
232.907	49.15
233.125	90.11
233.342	-24.58
233.56	55.3
233.777	4.1
233.995	2.05
234.213	135.17
234.43	12.29
234.648	43.01
234.865	12.29
235.083	81.92
235.3	90.11
235.518	8.19
235.735	79.87
235.953	98.3
236.17	81.92
236.388	8.19
236.605	53.25
236.822	102.4
237.04	94.21
237.257	59.39
237.475	-6.14
237.692	100.35
237.909	92.16
238.127	49.15
238.344	112.64
238.562	36.86
238.779	73.73
238.996	57.34
239.214	81.92
239.431	18.43
239.648	63.49
239.865	47.1
240.083	51.2
240.3	83.97
240.517	8.19
240.735	57.34
240.952	139.26
241.169	108.54
241.386	28.67
241.603	2.05
241.821	57.34
242.038	47.1
242.255	112.64
242.472	-2.05
242.689	57.34
242.907	133.12
243.124	51.2
243.341	40.96
243.558	92.16
243.775	43.01
243.992	63.49
244.209	135.17
244.426	65.53
244.643	59.39
244.86	75.77
245.078	61.44
245.295	81.92
245.512	61.44
245.729	38.91
245.946	55.3
246.163	116.73
246.38	65.53
246.597	88.06
246.814	81.92
247.031	-22.53
247.248	8.19
247.464	88.06
247.681	30.72
247.898	38.91
248.115	2.05
248.332	-4.1
248.549	102.4
248.766	106.49
248.983	6.14
249.2	55.3
249.417	69.63
249.633	-28.67
249.85	90.11
250.067	81.92
250.284	71.68
250.501	106.49
250.717	126.97
250.934	49.15
251.151	-6.14
251.368	10.24
251.585	110.59
251.801	57.34
252.018	34.82
252.235	2.05
252.451	69.63
252.668	34.82
252.885	114.69
253.102	63.49
253.318	22.53
253.535	69.63
253.752	40.96
253.968	88.06
254.185	49.15
254.401	40.96
254.618	86.01
254.835	73.73
255.051	45.06
255.268	32.77
255.484	26.62
255.701	53.25
255.917	30.72
256.134	18.43
256.351	26.62
256.567	-14.34
256.784	45.06
257	-67.58
257.217	73.73
257.433	38.91
257.65	59.39
257.866	94.21
258.082	47.1
258.299	49.15
258.515	32.77
258.732	30.72
258.948	34.82
259.165	14.34
259.381	112.64
259.597	47.1
259.814	53.25
260.03	4.1
260.246	86.01
260.463	71.68
260.679	53.25
260.895	28.67
261.112	86.01
261.328	12.29
261.544	77.82
261.761	90.11
261.977	45.06
262.193	86.01
262.409	133.12
262.626	118.78
262.842	92.16
263.058	-24.58
263.274	94.21
263.49	16.38
263.707	55.3
263.923	43.01
264.139	38.91
264.355	67.58
264.571	59.39
264.787	32.77
265.004	86.01
265.22	8.19
265.436	10.24
265.652	-20.48
265.868	40.96
266.084	2.05
266.3	43.01
266.516	86.01
266.732	94.21
266.948	47.1
267.164	63.49
267.38	92.16
267.596	-6.14
267.812	10.24
268.028	45.06
268.244	47.1
268.46	57.34
268.676	94.21
268.892	61.44
269.108	-16.38
269.324	24.58
269.54	59.39
269.756	63.49
269.972	24.58
270.188	45.06
270.403	30.72
270.619	102.4
270.835	53.25
271.051	36.86
271.267	81.92
271.483	65.53
271.698	36.86
271.914	126.97
272.13	67.58
272.346	65.53
272.562	69.63
272.777	63.49
272.993	69.63
273.209	14.34
273.425	71.68
273.64	20.48
273.856	92.16
274.072	26.62
274.287	30.72
274.503	104.45
274.719	88.06
274.934	2.05
275.15	75.77
275.366	122.88
275.581	36.86
275.797	92.16
276.012	69.63
276.228	4.1
276.444	83.97
276.659	69.63
276.875	4.1
277.09	88.06
277.306	67.58
277.521	90.11
277.737	32.77
277.952	126.97
278.168	18.43
278.383	67.58
278.599	26.62
278.814	180.22
279.03	71.68
279.245	104.45
279.461	71.68
279.676	96.25
279.892	49.15
280.107	36.86
280.322	28.67
280.538	55.3
280.753	36.86
280.969	10.24
281.184	59.39
281.399	47.1
281.615	47.1
281.83	55.3
282.045	32.77
282.26	47.1
282.476	92.16
282.691	102.4
282.906	86.01
283.122	83.97
283.337	2.05
283.552	26.62
283.767	28.67
283.983	96.25
284.198	96.25
284.413	45.06
284.628	43.01
284.843	104.45
285.058	129.02
285.274	26.62
285.489	28.67
285.704	38.91
285.919	49.15
286.134	34.82
286.349	77.82
286.564	71.68
286.779	40.96
286.995	71.68
287.21	75.77
287.425	98.3
287.64	30.72
287.855	51.2
288.07	57.34
288.285	63.49
288.5	69.63
288.715	69.63
288.93	92.16
289.145	118.78
289.36	57.34
289.575	79.87
289.79	49.15
290.004	143.36
290.219	98.3
290.434	22.53
290.649	45.06
290.864	79.87
291.079	92.16
291.294	75.77
291.509	49.15
291.724	55.3
291.938	-34.82
292.153	96.25
292.368	28.67
292.583	63.49
292.798	69.63
293.012	32.77
293.227	6.14
293.442	34.82
293.657	106.49
293.871	73.73
294.086	18.43
294.301	110.59
294.516	94.21
294.73	28.67
294.945	20.48
295.16	36.86
295.374	67.58
295.589	24.58
295.804	24.58
296.018	51.2
296.233	98.3
296.447	-40.96
296.662	88.06
296.877	112.64
297.091	75.77
297.306	28.67
297.52	96.25
297.735	83.97
297.949	51.2
298.164	165.89
298.378	102.4
298.593	133.12
298.807	47.1
299.022	69.63
299.236	122.88
299.451	67.58
299.665	38.91
299.88	90.11
300.094	-2.05
300.309	14.34
300.523	112.64
300.737	88.06
300.952	102.4
301.166	34.82
301.381	57.34
301.595	90.11
301.809	45.06
302.024	26.62
302.238	18.43
302.452	63.49
302.667	86.01
302.881	92.16
303.095	47.1
303.309	120.83
303.524	16.38
303.738	67.58
303.952	36.86
304.166	92.16
304.381	-49.15
304.595	126.97
304.809	47.1
305.023	30.72
305.237	122.88
305.452	51.2
305.666	61.44
305.88	59.39
306.094	75.77
306.308	102.4
306.522	4.1
306.736	18.43
306.95	4.1
307.164	38.91
307.379	67.58
307.593	98.3
307.807	-10.24
308.021	77.82
308.235	126.97
308.449	61.44
308.663	51.2
308.877	96.25
309.091	108.54
309.305	55.3
309.519	77.82
309.733	63.49
309.947	108.54
310.161	83.97
310.374	102.4
310.588	108.54
310.802	-24.58
311.016	73.73
311.23	67.58
311.444	-0
311.658	28.67
311.872	59.39
312.085	57.34
312.299	135.17
312.513	106.49
312.727	112.64
312.941	106.49
313.154	83.97
313.368	59.39
313.582	38.91
313.796	24.58
314.009	92.16
314.223	112.64
314.437	69.63
314.651	-34.82
314.864	90.11
315.078	38.91
315.292	106.49
315.505	96.25
315.719	47.1
315.933	81.92
316.146	73.73
316.36	36.86
316.573	32.77
316.787	36.86
317.001	-0
317.214	-8.19
317.428	67.58
317.641	55.3
317.855	22.53
318.068	61.44
318.282	96.25
318.495	51.2
318.709	92.16
318.922	110.59
319.136	126.97
319.349	63.49
319.563	-2.05
319.776	43.01
319.99	73.73
320.203	43.01
320.417	38.91
320.63	38.91
320.843	120.83
321.057	45.06
321.27	71.68
321.483	59.39
321.697	71.68
321.91	90.11
322.124	110.59
322.337	73.73
322.55	-12.29
322.763	92.16
322.977	57.34
323.19	102.4
323.403	28.67
323.617	59.39
323.83	61.44
324.043	65.53
324.256	71.68
324.469	24.58
324.683	73.73
324.896	81.92
325.109	120.83
325.322	-26.62
325.535	108.54
325.748	83.97
325.962	131.07
326.175	55.3
326.388	73.73
326.601	71.68
326.814	88.06
327.027	47.1
327.24	79.87
327.453	26.62
327.666	16.38
327.879	100.35
328.092	83.97
328.305	81.92
328.518	47.1
328.731	90.11
328.944	112.64
329.157	88.06
329.37	157.69
329.583	49.15
329.796	75.77
330.009	24.58
330.222	61.44
330.435	-22.53
330.648	38.91
330.861	6.14
331.073	75.77
331.286	135.17
331.499	51.2
331.712	79.87
331.925	77.82
332.138	137.21
332.35	86.01
332.563	30.72
332.776	73.73
332.989	63.49
333.202	30.72
333.414	110.59
333.627	59.39
333.84	63.49
334.053	86.01
334.265	59.39
334.478	77.82
334.691	-36.86
334.903	124.93
335.116	30.72
335.329	38.91
335.541	65.53
335.754	100.35
335.966	75.77
336.179	-32.77
336.392	63.49
336.604	26.62
336.817	112.64
337.029	40.96
337.242	55.3
337.454	88.06
337.667	34.82
337.88	108.54
338.092	83.97
338.305	79.87
338.517	45.06
338.729	98.3
338.942	51.2
339.154	30.72
339.367	120.83
339.579	161.79
339.792	51.2
340.004	112.64
340.217	75.77
340.429	63.49
340.641	14.34
340.854	65.53
341.066	16.38
341.278	104.45
341.491	59.39
341.703	73.73
341.915	65.53
342.128	88.06
342.34	90.11
342.552	12.29
342.764	-28.67
342.977	63.49
343.189	57.34
343.401	16.38
343.613	38.91
343.826	61.44
344.038	77.82
344.25	43.01
344.462	28.67
344.674	26.62
344.886	57.34
345.099	139.26
345.311	122.88
345.523	75.77
345.735	61.44
345.947	73.73
346.159	86.01
346.371	-10.24
346.583	67.58
346.795	83.97
347.007	65.53
347.219	71.68
347.431	55.3
347.643	77.82
347.855	90.11
348.067	118.78
348.279	47.1
348.491	65.53
348.703	67.58
348.915	45.06
349.127	26.62
349.339	102.4
349.551	16.38
349.763	12.29
349.975	71.68
350.187	108.54
350.399	90.11
350.61	12.29
350.822	98.3
351.034	77.82
351.246	88.06
351.458	53.25
351.669	6.14
351.881	49.15
352.093	69.63
352.305	104.45
352.517	77.82
352.728	22.53
352.94	57.34
353.152	30.72
353.363	57.34
353.575	88.06
353.787	102.4
353.999	73.73
354.21	135.17
354.422	40.96
354.633	110.59
354.845	106.49
355.057	108.54
355.268	43.01
355.48	6.14
355.692	51.2
355.903	71.68
356.115	47.1
356.326	53.25
356.538	98.3
356.749	77.82
356.961	129.02
357.172	104.45
357.384	67.58
357.595	106.49
357.807	77.82
358.018	34.82
358.23	30.72
358.441	124.93
358.653	135.17
358.864	92.16
359.075	43.01
359.287	26.62
359.498	90.11
359.709	133.12
359.921	59.39
360.132	104.45
360.344	131.07
360.555	98.3
360.766	69.63
360.977	53.25
361.189	38.91
361.4	45.06
361.611	40.96
361.823	53.25
362.034	83.97
362.245	-22.53
362.456	8.19
362.667	24.58
362.879	10.24
363.09	71.68
363.301	-36.86
363.512	57.34
363.723	24.58
363.935	36.86
364.146	8.19
364.357	-8.19
364.568	135.17
364.779	94.21
364.99	126.97
365.201	61.44
365.412	69.63
365.623	18.43
365.834	139.26
366.045	-55.3
366.256	49.15
366.467	45.06
366.678	71.68
366.889	116.73
367.1	94.21
367.311	110.59
367.522	88.06
367.733	176.13
367.944	79.87
368.155	63.49
368.366	88.06
368.577	102.4
368.788	88.06
368.999	77.82
369.209	79.87
369.42	79.87
369.631	108.54
369.842	102.4
370.053	-0
370.264	69.63
370.474	51.2
370.685	86.01
370.896	92.16
371.107	49.15
371.317	69.63
371.528	106.49
371.739	149.5
371.95	79.87
372.16	122.88
372.371	63.49
372.582	12.29
372.792	26.62
373.003	108.54
373.214	100.35
373.424	22.53
373.635	-8.19
373.846	88.06
374.056	-43.01
374.267	83.97
374.477	-49.15
374.688	96.25
374.898	86.01
375.109	90.11
375.319	22.53
375.53	79.87
375.74	49.15
375.951	98.3
376.161	71.68
376.372	102.4
376.582	112.64
376.793	73.73
377.003	43.01
377.214	116.73
377.424	61.44
377.635	106.49
377.845	36.86
378.055	38.91
378.266	79.87
378.476	65.53
378.686	6.14
378.897	102.4
379.107	18.43
379.317	61.44
379.528	59.39
379.738	96.25
379.948	30.72
380.158	92.16
380.369	16.38
380.579	96.25
380.789	120.83
380.999	59.39
381.21	59.39
381.42	106.49
381.63	20.48
381.84	81.92
382.05	45.06
382.261	32.77
382.471	38.91
382.681	86.01
382.891	94.21
383.101	141.31
383.311	61.44
383.521	51.2
383.731	83.97
383.941	77.82
384.151	71.68
384.361	14.34
384.571	49.15
384.781	24.58
384.991	116.73
385.201	151.55
385.411	86.01
385.621	-0
385.831	83.97
386.041	102.4
386.251	133.12
386.461	106.49
386.671	47.1
386.881	61.44
387.091	61.44
387.301	174.08
387.511	96.25
387.72	90.11
387.93	100.35
388.14	143.36
388.35	108.54
388.56	71.68
388.769	81.92
388.979	110.59
389.189	75.77
389.399	71.68
389.609	186.37
389.818	77.82
390.028	75.77
390.238	77.82
390.447	83.97
390.657	88.06
390.867	77.82
391.076	112.64
391.286	75.77
391.496	75.77
391.705	59.39
391.915	141.31
392.125	133.12
392.334	77.82
392.544	94.21
392.753	124.93
392.963	69.63
393.172	133.12
393.382	38.91
393.591	106.49
393.801	53.25
394.01	92.16
394.22	90.11
394.429	131.07
394.639	102.4
394.848	147.45
395.058	79.87
395.267	157.69
395.477	55.3
395.686	141.31
395.895	120.83
396.105	190.46
396.314	75.77
396.524	49.15
396.733	88.06
396.942	114.69
397.152	135.17
397.361	178.17
397.57	143.36
397.78	153.6
397.989	61.44
398.198	131.07
398.407	104.45
398.617	67.58
398.826	79.87
399.035	14.34
399.244	118.78
399.453	88.06
399.663	145.41
399.872	165.89
400.081	79.87
400.29	75.77
400.499	96.25
400.708	178.17
400.917	135.17
401.127	139.26
401.336	69.63
401.545	63.49
401.754	196.6
401.963	133.12
402.172	102.4
402.381	59.39
402.59	79.87
402.799	198.65
403.008	122.88
403.217	98.3
403.426	116.73
403.635	172.03
403.844	172.03
404.053	192.51
404.262	124.93
404.471	186.37
404.68	65.53
404.888	114.69
405.097	188.41
405.306	163.84
405.515	120.83
405.724	106.49
405.933	167.93
406.142	192.51
406.35	135.17
406.559	180.22
406.768	151.55
406.977	196.6
407.185	172.03
407.394	196.6
407.603	147.45
407.812	221.18
408.02	182.27
408.229	143.36
408.438	153.6
408.646	186.37
408.855	278.52
409.064	225.28
409.272	266.24
409.481	210.94
409.69	165.89
409.898	288.76
410.107	204.8
410.315	325.63
410.524	231.42
410.733	241.66
410.941	247.8
411.15	296.96
411.358	307.2
411.567	370.68
411.775	333.82
411.984	380.92
412.192	370.68
412.401	358.39
412.609	362.49
412.818	358.39
413.026	319.48
413.234	374.78
413.443	428.03
413.651	405.5
413.86	378.87
414.068	489.46
414.276	491.51
414.485	483.32
414.693	540.66
414.901	540.66
415.11	536.57
415.318	587.77
415.526	536.57
415.734	591.86
415.943	636.92
416.151	567.29
416.359	649.21
416.567	651.25
416.776	657.4
416.984	720.88
417.192	784.37
417.4	735.22
417.608	729.08
417.817	675.83
418.025	839.67
418.233	845.81
418.441	786.42
418.649	876.53
418.857	937.97
419.065	917.49
419.273	870.39
419.481	1030.13
419.689	1040.37
419.897	1087.47
420.105	1200.11
420.313	1153.01
420.521	1196.01
420.729	1198.06
420.937	1263.6
421.145	1339.37
421.353	1343.47
421.561	1474.54
421.769	1384.43
421.977	1380.33
422.185	1484.78
422.393	1591.27
422.601	1613.8
422.809	1683.43
423.017	1603.56
423.224	1724.39
423.432	1804.26
423.64	1837.03
423.848	2004.96
424.056	1988.58
424.263	2068.45
424.471	2056.16
424.679	2058.21
424.887	2228.19
425.094	2121.7
425.302	2256.86
425.51	2226.14
425.718	2383.84
425.925	2338.78
426.133	2496.47
426.341	2760.66
426.548	2922.45
426.756	2758.61
426.964	2912.21
427.171	2938.84
427.379	2977.75
427.586	3145.68
427.794	3190.74
428.001	3379.15
428.209	3481.55
428.417	3385.29
428.624	3739.59
428.832	3772.36
429.039	3657.67
429.247	3649.48
429.454	4079.55
429.662	4280.25
429.869	4253.63
430.076	4192.19
430.284	4235.2
430.491	4261.82
430.699	4679.61
430.906	4784.05
431.114	4571.07
431.321	4810.68
431.528	4945.84
431.736	5046.19
431.943	5545.9
432.15	5169.07
432.358	5355.44
432.565	5670.83
432.772	5713.83
432.979	6025.12
433.187	6117.28
433.394	6182.82
433.601	6586.27
433.808	6539.16
434.016	6666.14
434.223	6721.43
434.43	7313.3
434.637	7202.71
434.844	7544.72
435.052	7585.68
435.259	7591.82
435.466	7466.89
435.673	7585.68
435.88	8103.81
436.087	8677.24
436.294	8609.66
436.501	8478.59
436.708	8521.6
436.915	8693.63
437.122	9172.85
437.329	9002.87
437.537	9404.27
437.743	9609.07
437.95	9543.53
438.157	10114.92
438.364	10372.96
438.571	10424.16
438.778	10399.59
438.985	11358.03
439.192	11020.12
439.399	11521.87
439.606	11001.69
439.813	11720.53
440.02	12289.86
440.227	12189.51
440.433	12003.14
440.64	12355.4
440.847	12447.55
441.054	12640.06
441.261	13805.36
441.467	13268.79
441.674	13733.68
441.881	14206.76
442.088	14059.31
442.294	14077.74
442.501	14432.04
442.708	14896.92
442.914	15216.41
443.121	15759.12
443.328	15365.91
443.534	16664.32
443.741	16219.91
443.948	16150.28
444.154	17325.82
444.361	16854.78
444.568	17180.41
444.774	17086.2
444.981	17174.27
445.187	17809.14
445.394	18640.61
445.6	18331.37
445.807	20336.33
446.013	19232.47
446.22	19523.29
446.426	20457.16
446.633	20397.77
446.839	21223.1
447.046	20227.79
447.252	21395.13
447.459	21409.47
447.665	21655.22
447.871	22550.18
448.078	23613.08
448.284	22376.11
448.491	22754.98
448.697	23795.35
448.903	24172.18
449.11	24505.99
449.316	24028.82
449.522	24282.77
449.728	25220.74
449.935	25355.9
450.141	25566.84
450.347	25738.87
450.553	25052.8
450.76	25407.1
450.966	26058.35
451.172	25900.66
451.378	26613.35
451.584	25962.1
451.791	26900.07
451.997	26359.41
452.203	27123.3
452.409	27061.86
452.615	27203.17
452.821	26117.75
453.027	25740.92
453.233	27000.42
453.44	26107.51
453.646	26240.62
453.852	26238.58
454.058	26783.34
454.264	25869.94
454.47	26744.42
454.676	26044.02
454.882	26881.64
455.088	24710.79
455.294	25087.62
455.5	25243.26
455.705	25284.22
455.911	24467.08
456.117	24041.11
456.323	23873.17
456.529	22671.01
456.735	23484.06
456.941	22765.22
457.147	22630.05
457.352	21937.84
457.558	21483.19
457.764	21825.2
457.97	21145.28
458.176	20922.05
458.381	20778.69
458.587	19756.75
458.793	19859.15
458.999	18841.31
459.204	20141.77
459.41	19650.26
459.616	18022.12
459.821	18251.5
460.027	18142.96
460.233	17737.46
460.438	17045.24
460.644	17254.14
460.85	16451.33
461.055	16117.51
461.261	16135.95
461.466	14935.84
461.672	14581.54
461.878	15560.47
462.083	14532.39
462.289	14362.4
462.494	14100.26
462.7	13528.88
462.905	13078.33
463.111	13537.07
463.316	13319.99
463.522	13258.55
463.727	13360.95
463.932	13182.77
464.138	13276.98
464.343	13041.47
464.549	12767.04
464.754	13367.09
464.959	13119.29
465.165	12992.31
465.37	12449.6
465.575	12250.95
465.781	12664.64
465.986	12724.03
466.191	12234.57
466.397	12105.54
466.602	11530.06
466.807	12040.01
467.012	11933.51
467.218	11919.18
467.423	11913.03
467.628	11757.39
