Data from USB4F104151__28__12-27-13-702.txt Node

Date: Fri Mar 14 12:27:13 EDT 2025
User: louis
Spectrometer: USB4F10415
Trigger mode: 4
Integration Time (sec): 2.000000E-2
Scans to average: 1
Electric dark correction enabled: true
Nonlinearity correction enabled: false
Boxcar width: 0
XAxis mode: Wavelengths
Number of Pixels in Spectrum: 3648
>>>>>Begin Spectral Data<<<<<
178.204	-92.67
178.424	-92.67
178.644	-92.67
178.864	-86.53
179.084	-68.09
179.304	22.02
179.524	-59.9
179.744	9.73
179.964	11.78
180.184	54.78
180.404	28.16
180.624	-41.47
180.844	56.83
181.064	-27.14
181.283	1.54
181.503	-57.86
181.723	1.54
181.943	-16.9
182.163	-12.8
182.383	3.58
182.602	-76.29
182.822	62.98
183.042	-16.9
183.262	50.69
183.482	-35.33
183.701	3.58
183.921	19.97
184.141	-12.8
184.361	40.45
184.58	-43.52
184.8	40.45
185.02	-49.66
185.239	83.45
185.459	-20.99
185.679	-49.66
185.898	-16.9
186.118	-23.04
186.338	-29.18
186.557	11.78
186.777	52.74
186.997	-12.8
187.216	-49.66
187.436	22.02
187.655	42.5
187.875	60.93
188.095	19.97
188.314	118.27
188.534	15.87
188.753	-41.47
188.973	13.82
189.192	-0.51
189.412	-4.61
189.631	-6.66
189.851	-14.85
190.07	87.55
190.29	-23.04
190.509	44.54
190.729	-29.18
190.948	24.06
191.168	97.79
191.387	11.78
191.607	-80.38
191.826	-20.99
192.045	-27.14
192.265	34.3
192.484	15.87
192.704	40.45
192.923	-33.28
193.142	85.5
193.362	-2.56
193.581	-8.7
193.8	-45.57
194.02	85.5
194.239	-18.94
194.458	22.02
194.678	5.63
194.897	-29.18
195.116	15.87
195.335	73.21
195.555	62.98
195.774	11.78
195.993	19.97
196.212	30.21
196.432	-4.61
196.651	-4.61
196.87	-23.04
197.089	13.82
197.308	-8.7
197.528	-8.7
197.747	19.97
197.966	13.82
198.185	7.68
198.404	-35.33
198.623	11.78
198.842	5.63
199.062	44.54
199.281	-55.81
199.5	-4.61
199.719	17.92
199.938	-16.9
200.157	44.54
200.376	-35.33
200.595	42.5
200.814	11.78
201.033	15.87
201.252	-10.75
201.471	-51.71
201.69	3.58
201.909	-25.09
202.128	15.87
202.347	-23.04
202.566	19.97
202.785	85.5
203.004	-0.51
203.223	91.65
203.442	-23.04
203.661	9.73
203.879	-51.71
204.098	-14.85
204.317	-6.66
204.536	60.93
204.755	-6.66
204.974	-0.51
205.193	1.54
205.411	19.97
205.63	58.88
205.849	7.68
206.068	-88.57
206.287	22.02
206.505	11.78
206.724	-33.28
206.943	-80.38
207.162	-16.9
207.381	-6.66
207.599	52.74
207.818	-10.75
208.037	-4.61
208.255	26.11
208.474	54.78
208.693	56.83
208.911	34.3
209.13	-0.51
209.349	71.17
209.567	19.97
209.786	7.68
210.005	77.31
210.223	56.83
210.442	-8.7
210.661	-47.62
210.879	-45.57
211.098	1.54
211.316	-23.04
211.535	38.4
211.753	-4.61
211.972	30.21
212.191	7.68
212.409	-27.14
212.628	48.64
212.846	-66.05
213.065	-49.66
213.283	48.64
213.502	-70.14
213.72	-49.66
213.938	11.78
214.157	-12.8
214.375	19.97
214.594	-27.14
214.812	28.16
215.031	11.78
215.249	28.16
215.467	-14.85
215.686	48.64
215.904	40.45
216.122	13.82
216.341	95.74
216.559	67.07
216.778	-41.47
216.996	-4.61
217.214	-33.28
217.432	5.63
217.651	-6.66
217.869	-12.8
218.087	-2.56
218.306	-6.66
218.524	-2.56
218.742	13.82
218.96	19.97
219.179	87.55
219.397	3.58
219.615	79.36
219.833	-20.99
220.051	46.59
220.27	-20.99
220.488	-8.7
220.706	65.02
220.924	-125.44
221.142	-31.23
221.36	13.82
221.578	-14.85
221.796	17.92
222.015	-29.18
222.233	-74.24
222.451	-8.7
222.669	-66.05
222.887	9.73
223.105	75.26
223.323	-4.61
223.541	5.63
223.759	38.4
223.977	-2.56
224.195	67.07
224.413	-12.8
224.631	3.58
224.849	-0.51
225.067	34.3
225.285	36.35
225.503	3.58
225.721	22.02
225.939	-29.18
226.157	-2.56
226.375	11.78
226.592	-2.56
226.81	26.11
227.028	24.06
227.246	62.98
227.464	34.3
227.682	54.78
227.9	-27.14
228.117	24.06
228.335	32.26
228.553	26.11
228.771	75.26
228.989	22.02
229.206	-39.42
229.424	-2.56
229.642	26.11
229.86	30.21
230.077	38.4
230.295	-55.81
230.513	62.98
230.731	32.26
230.948	36.35
231.166	-16.9
231.384	26.11
231.601	-37.38
231.819	58.88
232.037	-4.61
232.254	-0.51
232.472	-12.8
232.689	60.93
232.907	11.78
233.125	-6.66
233.342	-14.85
233.56	24.06
233.777	65.02
233.995	34.3
234.213	-2.56
234.43	17.92
234.648	15.87
234.865	-20.99
235.083	15.87
235.3	-2.56
235.518	56.83
235.735	44.54
235.953	46.59
236.17	-4.61
236.388	-10.75
236.605	24.06
236.822	30.21
237.04	48.64
237.257	105.98
237.475	46.59
237.692	-12.8
237.909	52.74
238.127	62.98
238.344	40.45
238.562	5.63
238.779	-20.99
238.996	26.11
239.214	19.97
239.431	118.27
239.648	-47.62
239.865	24.06
240.083	15.87
240.3	54.78
240.517	-59.9
240.735	50.69
240.952	79.36
241.169	26.11
241.386	44.54
241.603	-2.56
241.821	-27.14
242.038	-29.18
242.255	36.35
242.472	30.21
242.689	-8.7
242.907	-16.9
243.124	-2.56
243.341	26.11
243.558	36.35
243.775	-43.52
243.992	9.73
244.209	24.06
244.426	5.63
244.643	44.54
244.86	15.87
245.078	-2.56
245.295	60.93
245.512	-33.28
245.729	-8.7
245.946	52.74
246.163	13.82
246.38	58.88
246.597	62.98
246.814	5.63
247.031	-14.85
247.248	56.83
247.464	50.69
247.681	-57.86
247.898	56.83
248.115	67.07
248.332	-72.19
248.549	22.02
248.766	17.92
248.983	36.35
249.2	24.06
249.417	52.74
249.633	34.3
249.85	58.88
250.067	28.16
250.284	-6.66
250.501	-16.9
250.717	103.93
250.934	17.92
251.151	56.83
251.368	22.02
251.585	22.02
251.801	-27.14
252.018	-29.18
252.235	1.54
252.451	3.58
252.668	110.08
252.885	-16.9
253.102	42.5
253.318	9.73
253.535	36.35
253.752	36.35
253.968	-35.33
254.185	34.3
254.401	54.78
254.618	-4.61
254.835	-78.33
255.051	36.35
255.268	22.02
255.484	24.06
255.701	34.3
255.917	65.02
256.134	-8.7
256.351	65.02
256.567	30.21
256.784	-27.14
257	24.06
257.217	26.11
257.433	-23.04
257.65	-12.8
257.866	34.3
258.082	-8.7
258.299	19.97
258.515	38.4
258.732	-33.28
258.948	7.68
259.165	-6.66
259.381	-16.9
259.597	17.92
259.814	-6.66
260.03	-27.14
260.246	46.59
260.463	22.02
260.679	38.4
260.895	32.26
261.112	28.16
261.328	1.54
261.544	-29.18
261.761	3.58
261.977	-37.38
262.193	-39.42
262.409	26.11
262.626	44.54
262.842	-23.04
263.058	-35.33
263.274	93.69
263.49	97.79
263.707	42.5
263.923	7.68
264.139	-68.09
264.355	-0.51
264.571	75.26
264.787	-4.61
265.004	38.4
265.22	28.16
265.436	38.4
265.652	52.74
265.868	3.58
266.084	19.97
266.3	-6.66
266.516	7.68
266.732	52.74
266.948	28.16
267.164	-18.94
267.38	77.31
267.596	40.45
267.812	89.6
268.028	-12.8
268.244	-27.14
268.46	7.68
268.676	-23.04
268.892	-14.85
269.108	-43.52
269.324	-8.7
269.54	3.58
269.756	1.54
269.972	26.11
270.188	-49.66
270.403	9.73
270.619	71.17
270.835	11.78
271.051	-6.66
271.267	13.82
271.483	75.26
271.698	7.68
271.914	65.02
272.13	-25.09
272.346	-6.66
272.562	1.54
272.777	85.5
272.993	-35.33
273.209	24.06
273.425	13.82
273.64	38.4
273.856	50.69
274.072	-14.85
274.287	-23.04
274.503	-20.99
274.719	30.21
274.934	-10.75
275.15	19.97
275.366	-29.18
275.581	-2.56
275.797	-25.09
276.012	-35.33
276.228	-10.75
276.444	-61.95
276.659	28.16
276.875	-31.23
277.09	3.58
277.306	15.87
277.521	9.73
277.737	30.21
277.952	30.21
278.168	-41.47
278.383	1.54
278.599	79.36
278.814	60.93
279.03	40.45
279.245	13.82
279.461	-51.71
279.676	103.93
279.892	-29.18
280.107	-14.85
280.322	-23.04
280.538	26.11
280.753	-29.18
280.969	77.31
281.184	67.07
281.399	58.88
281.615	-47.62
281.83	-39.42
282.045	42.5
282.26	46.59
282.476	-37.38
282.691	22.02
282.906	28.16
283.122	22.02
283.337	22.02
283.552	11.78
283.767	83.45
283.983	44.54
284.198	36.35
284.413	-25.09
284.628	-41.47
284.843	7.68
285.058	-2.56
285.274	26.11
285.489	-70.14
285.704	48.64
285.919	42.5
286.134	-37.38
286.349	-14.85
286.564	-12.8
286.779	32.26
286.995	-41.47
287.21	-23.04
287.425	-47.62
287.64	15.87
287.855	60.93
288.07	48.64
288.285	32.26
288.5	79.36
288.715	62.98
288.93	-29.18
289.145	32.26
289.36	1.54
289.575	-6.66
289.79	-10.75
290.004	-88.57
290.219	44.54
290.434	1.54
290.649	58.88
290.864	-4.61
291.079	-23.04
291.294	73.21
291.509	-2.56
291.724	15.87
291.938	56.83
292.153	15.87
292.368	19.97
292.583	130.56
292.798	-0.51
293.012	-33.28
293.227	24.06
293.442	28.16
293.657	36.35
293.871	11.78
294.086	34.3
294.301	79.36
294.516	89.6
294.73	40.45
294.945	-35.33
295.16	73.21
295.374	22.02
295.589	105.98
295.804	-8.7
296.018	73.21
296.233	89.6
296.447	85.5
296.662	71.17
296.877	32.26
297.091	19.97
297.306	-4.61
297.52	-18.94
297.735	13.82
297.949	-10.75
298.164	24.06
298.378	15.87
298.593	36.35
298.807	3.58
299.022	24.06
299.236	73.21
299.451	7.68
299.665	-0.51
299.88	-33.28
300.094	-4.61
300.309	58.88
300.523	50.69
300.737	60.93
300.952	24.06
301.166	-51.71
301.381	-8.7
301.595	73.21
301.809	40.45
302.024	-0.51
302.238	52.74
302.452	44.54
302.667	65.02
302.881	-27.14
303.095	19.97
303.309	3.58
303.524	42.5
303.738	11.78
303.952	30.21
304.166	50.69
304.381	-43.52
304.595	85.5
304.809	-0.51
305.023	52.74
305.237	9.73
305.452	67.07
305.666	-4.61
305.88	-0.51
306.094	54.78
306.308	38.4
306.522	32.26
306.736	22.02
306.95	17.92
307.164	-4.61
307.379	-16.9
307.593	-10.75
307.807	83.45
308.021	26.11
308.235	26.11
308.449	-35.33
308.663	34.3
308.877	89.6
309.091	71.17
309.305	-6.66
309.519	-33.28
309.733	77.31
309.947	-96.77
310.161	-29.18
310.374	62.98
310.588	83.45
310.802	28.16
311.016	34.3
311.23	-35.33
311.444	7.68
311.658	-2.56
311.872	19.97
312.085	42.5
312.299	-10.75
312.513	62.98
312.727	22.02
312.941	1.54
313.154	-33.28
313.368	93.69
313.582	1.54
313.796	30.21
314.009	-41.47
314.223	77.31
314.437	44.54
314.651	-0.51
314.864	11.78
315.078	-27.14
315.292	30.21
315.505	-18.94
315.719	-10.75
315.933	11.78
316.146	-14.85
316.36	-18.94
316.573	24.06
316.787	89.6
317.001	65.02
317.214	42.5
317.428	46.59
317.641	42.5
317.855	-59.9
318.068	-18.94
318.282	28.16
318.495	89.6
318.709	32.26
318.922	13.82
319.136	48.64
319.349	24.06
319.563	42.5
319.776	34.3
319.99	58.88
320.203	-14.85
320.417	19.97
320.63	-20.99
320.843	87.55
321.057	36.35
321.27	69.12
321.483	26.11
321.697	11.78
321.91	50.69
322.124	26.11
322.337	7.68
322.55	-61.95
322.763	-16.9
322.977	71.17
323.19	56.83
323.403	65.02
323.617	62.98
323.83	32.26
324.043	-6.66
324.256	-18.94
324.469	44.54
324.683	22.02
324.896	32.26
325.109	-23.04
325.322	-14.85
325.535	67.07
325.748	-4.61
325.962	34.3
326.175	40.45
326.388	52.74
326.601	81.41
326.814	-25.09
327.027	9.73
327.24	65.02
327.453	-10.75
327.666	36.35
327.879	7.68
328.092	-8.7
328.305	22.02
328.518	34.3
328.731	32.26
328.944	36.35
329.157	60.93
329.37	15.87
329.583	52.74
329.796	112.13
330.009	62.98
330.222	30.21
330.435	40.45
330.648	91.65
330.861	44.54
331.073	58.88
331.286	9.73
331.499	32.26
331.712	7.68
331.925	22.02
332.138	44.54
332.35	71.17
332.563	-10.75
332.776	54.78
332.989	-41.47
333.202	5.63
333.414	-10.75
333.627	32.26
333.84	103.93
334.053	-2.56
334.265	9.73
334.478	69.12
334.691	99.84
334.903	26.11
335.116	-6.66
335.329	22.02
335.541	32.26
335.754	7.68
335.966	46.59
336.179	11.78
336.392	50.69
336.604	1.54
336.817	-41.47
337.029	67.07
337.242	-29.18
337.454	15.87
337.667	42.5
337.88	62.98
338.092	38.4
338.305	65.02
338.517	40.45
338.729	-37.38
338.942	58.88
339.154	15.87
339.367	1.54
339.579	97.79
339.792	34.3
340.004	36.35
340.217	-27.14
340.429	-10.75
340.641	5.63
340.854	-0.51
341.066	22.02
341.278	132.61
341.491	108.03
341.703	65.02
341.915	83.45
342.128	52.74
342.34	50.69
342.552	1.54
342.764	30.21
342.977	85.5
343.189	65.02
343.401	-4.61
343.613	-45.57
343.826	36.35
344.038	-25.09
344.25	-16.9
344.462	-12.8
344.674	46.59
344.886	9.73
345.099	60.93
345.311	112.13
345.523	7.68
345.735	30.21
345.947	65.02
346.159	9.73
346.371	5.63
346.583	1.54
346.795	44.54
347.007	28.16
347.219	48.64
347.431	-6.66
347.643	-2.56
347.855	48.64
348.067	-51.71
348.279	89.6
348.491	75.26
348.703	50.69
348.915	44.54
349.127	3.58
349.339	44.54
349.551	-33.28
349.763	-0.51
349.975	-2.56
350.187	38.4
350.399	108.03
350.61	15.87
350.822	42.5
351.034	46.59
351.246	5.63
351.458	130.56
351.669	-25.09
351.881	69.12
352.093	58.88
352.305	7.68
352.517	34.3
352.728	17.92
352.94	22.02
353.152	60.93
353.363	38.4
353.575	-31.23
353.787	44.54
353.999	9.73
354.21	67.07
354.422	3.58
354.633	-47.62
354.845	13.82
355.057	56.83
355.268	67.07
355.48	60.93
355.692	-66.05
355.903	93.69
356.115	9.73
356.326	-68.09
356.538	26.11
356.749	58.88
356.961	1.54
357.172	105.98
357.384	-16.9
357.595	60.93
357.807	-45.57
358.018	-20.99
358.23	44.54
358.441	97.79
358.653	40.45
358.864	71.17
359.075	36.35
359.287	83.45
359.498	17.92
359.709	-25.09
359.921	42.5
360.132	67.07
360.344	-31.23
360.555	-8.7
360.766	36.35
360.977	46.59
361.189	24.06
361.4	83.45
361.611	77.31
361.823	146.94
362.034	5.63
362.245	44.54
362.456	17.92
362.667	30.21
362.879	11.78
363.09	40.45
363.301	73.21
363.512	7.68
363.723	56.83
363.935	87.55
364.146	22.02
364.357	3.58
364.568	73.21
364.779	-20.99
364.99	17.92
365.201	93.69
365.412	42.5
365.623	24.06
365.834	15.87
366.045	-64
366.256	50.69
366.467	83.45
366.678	65.02
366.889	112.13
367.1	5.63
367.311	52.74
367.522	40.45
367.733	52.74
367.944	60.93
368.155	58.88
368.366	36.35
368.577	-29.18
368.788	13.82
368.999	85.5
369.209	-2.56
369.42	34.3
369.631	48.64
369.842	19.97
370.053	-0.51
370.264	36.35
370.474	7.68
370.685	-25.09
370.896	97.79
371.107	101.89
371.317	67.07
371.528	22.02
371.739	65.02
371.95	73.21
372.16	36.35
372.371	58.88
372.582	58.88
372.792	54.78
373.003	44.54
373.214	-2.56
373.424	50.69
373.635	-31.23
373.846	62.98
374.056	-14.85
374.267	9.73
374.477	-10.75
374.688	114.17
374.898	36.35
375.109	-8.7
375.319	50.69
375.53	46.59
375.74	28.16
375.951	22.02
376.161	91.65
376.372	114.17
376.582	19.97
376.793	26.11
377.003	-4.61
377.214	1.54
377.424	65.02
377.635	101.89
377.845	-12.8
378.055	103.93
378.266	50.69
378.476	5.63
378.686	85.5
378.897	124.41
379.107	48.64
379.317	38.4
379.528	24.06
379.738	56.83
379.948	28.16
380.158	-14.85
380.369	83.45
380.579	54.78
380.789	48.64
380.999	30.21
381.21	50.69
381.42	97.79
381.63	28.16
381.84	54.78
382.05	40.45
382.261	81.41
382.471	62.98
382.681	85.5
382.891	22.02
383.101	73.21
383.311	91.65
383.521	48.64
383.731	58.88
383.941	97.79
384.151	15.87
384.361	38.4
384.571	-10.75
384.781	91.65
384.991	132.61
385.201	103.93
385.411	44.54
385.621	58.88
385.831	71.17
386.041	48.64
386.251	46.59
386.461	73.21
386.671	44.54
386.881	73.21
387.091	-10.75
387.301	17.92
387.511	13.82
387.72	7.68
387.93	65.02
388.14	40.45
388.35	56.83
388.56	24.06
388.769	-16.9
388.979	130.56
389.189	62.98
389.399	1.54
389.609	105.98
389.818	13.82
390.028	46.59
390.238	83.45
390.447	60.93
390.657	65.02
390.867	15.87
391.076	62.98
391.286	95.74
391.496	26.11
391.705	110.08
391.915	36.35
392.125	56.83
392.334	50.69
392.544	75.26
392.753	7.68
392.963	75.26
393.172	79.36
393.382	48.64
393.591	79.36
393.801	-6.66
394.01	136.7
394.22	130.56
394.429	52.74
394.639	46.59
394.848	136.7
395.058	62.98
395.267	15.87
395.477	44.54
395.686	75.26
395.895	105.98
396.105	34.3
396.314	93.69
396.524	116.22
396.733	83.45
396.942	95.74
397.152	118.27
397.361	140.8
397.57	91.65
397.78	167.42
397.989	71.17
398.198	83.45
398.407	79.36
398.617	130.56
398.826	132.61
399.035	85.5
399.244	122.37
399.453	40.45
399.663	108.03
399.872	95.74
400.081	151.04
400.29	114.17
400.499	40.45
400.708	97.79
400.917	118.27
401.127	87.55
401.336	124.41
401.545	202.24
401.754	134.65
401.963	114.17
402.172	112.13
402.381	124.41
402.59	103.93
402.799	153.09
403.008	148.99
403.217	124.41
403.426	71.17
403.635	89.6
403.844	202.24
404.053	177.66
404.262	208.38
404.471	247.29
404.68	103.93
404.888	161.28
405.097	153.09
405.306	169.47
405.515	159.23
405.724	124.41
405.933	196.09
406.142	214.52
406.35	148.99
406.559	230.91
406.768	210.43
406.977	200.19
407.185	261.63
407.394	167.42
407.603	216.57
407.812	247.29
408.02	253.44
408.229	249.34
408.438	212.48
408.646	267.77
408.855	275.96
409.064	325.12
409.272	265.72
409.481	398.84
409.69	327.16
409.898	239.1
410.107	411.13
410.315	382.46
410.524	333.31
410.733	396.79
410.941	294.4
411.15	478.71
411.358	462.33
411.567	382.46
411.775	398.84
411.984	433.66
412.192	513.53
412.401	540.15
412.609	517.62
412.818	556.54
413.026	558.58
413.234	628.21
413.443	556.54
413.651	546.3
413.86	626.17
414.068	622.07
414.276	675.32
414.485	734.71
414.693	708.09
414.901	886.26
415.11	777.72
415.318	820.72
415.526	796.15
415.734	857.59
415.943	853.49
416.151	876.02
416.359	841.2
416.567	953.84
416.776	1019.38
416.984	1093.1
417.192	1179.12
417.4	1078.77
417.608	1082.86
417.817	1107.44
418.025	1156.59
418.233	1242.61
418.441	1279.47
418.649	1271.28
418.857	1496.55
419.065	1619.43
419.273	1394.15
419.481	1523.18
419.689	1596.9
419.897	1746.41
420.105	1660.39
420.313	1687.01
420.521	1818.08
420.729	1934.82
420.937	1920.48
421.145	2061.79
421.353	2158.05
421.561	2299.36
421.769	2115.04
421.977	2414.04
422.185	2244.06
422.393	2510.3
422.601	2473.43
422.809	2549.21
423.017	2588.12
423.224	2817.49
423.432	2827.73
423.64	2858.45
423.848	3085.78
424.056	3149.26
424.263	3284.43
424.471	3325.39
424.679	3317.2
424.887	3464.65
425.094	3651.02
425.302	3673.54
425.51	3732.94
425.718	3921.35
425.925	4064.71
426.133	4144.58
426.341	4459.96
426.548	4439.48
426.756	4631.99
426.964	4586.94
427.171	4892.09
427.379	4959.67
427.586	5158.32
427.794	5117.36
428.001	5467.56
428.209	5682.6
428.417	5594.54
428.624	5950.89
428.832	6079.91
429.039	6063.52
429.247	5928.36
429.454	6462.88
429.662	6897.05
429.869	6569.37
430.076	7034.26
430.284	6716.83
430.491	6964.63
430.699	7366.03
430.906	7548.3
431.114	7515.53
431.321	7849.35
431.528	8097.16
431.736	8615.29
431.943	9018.74
432.15	8629.63
432.358	8668.54
432.565	9254.26
432.772	9158
432.979	9573.74
433.187	9975.14
433.394	10175.84
433.601	10673.5
433.808	10708.32
434.016	10589.53
434.223	11302.23
434.43	11724.11
434.637	11556.18
434.844	12180.81
435.052	12498.24
435.259	12342.6
435.466	12774.72
435.673	12275.01
435.88	12971.32
436.087	13976.87
436.294	13847.85
436.501	13647.15
436.708	13808.94
436.915	14363.94
437.122	14968.09
437.329	15238.42
437.537	15273.24
437.743	15916.3
437.95	15637.78
438.157	16508.16
438.364	16872.7
438.571	16805.12
438.778	17067.26
438.985	18676.96
439.192	17747.19
439.399	18418.92
439.606	17908.97
439.813	18924.77
440.02	20266.19
440.227	19809.49
440.433	19692.76
440.64	20444.36
440.847	20436.17
441.054	20843.71
441.261	22154.41
441.467	22015.15
441.674	22238.38
441.881	22987.94
442.088	22979.75
442.294	22838.44
442.501	23694.49
442.708	23835.8
442.914	24743.05
443.121	25848.95
443.328	25506.94
443.534	27161.7
443.741	26428.52
443.948	25941.11
444.154	27853.91
444.361	27653.21
444.568	27976.79
444.774	27905.11
444.981	28353.62
445.187	29176.9
445.394	30176.31
445.6	30051.38
445.807	32807.95
446.013	31370.27
446.22	32191.51
446.426	33461.25
446.633	33641.47
446.839	34714.61
447.046	33166.34
447.252	34995.18
447.459	35140.58
447.665	35222.5
447.871	36649.94
448.078	38366.13
448.284	36277.21
448.491	37536.71
448.697	38761.39
448.903	39463.85
449.11	39582.63
449.316	38978.48
449.522	39510.95
449.728	40481.69
449.935	41221
450.141	40760.21
450.347	42171.26
450.553	40766.35
450.76	41098.12
450.966	42548.09
451.172	42105.73
451.378	42980.21
451.584	42056.57
451.791	43205.48
451.997	42926.96
452.203	44249.95
452.409	43783.01
452.615	43481.96
452.821	42279.8
453.027	42038.14
453.233	43887.46
453.44	42214.27
453.646	42697.59
453.852	42767.22
454.058	44039.01
454.264	42208.12
454.47	43225.96
454.676	42392.44
454.882	43279.21
455.088	39445.41
455.294	40405.91
455.5	41083.79
455.705	41268.11
455.911	39777.19
456.117	39189.42
456.323	38593.46
456.529	36651.98
456.735	38204.35
456.941	37055.43
457.147	36611.03
457.352	35474.4
457.558	35101.67
457.764	35091.43
457.97	34362.36
458.176	33629.18
458.381	33868.8
458.587	31878.17
458.793	32117.78
458.999	30422.06
459.204	32717.84
459.41	32105.49
459.616	29537.34
459.821	29385.79
460.027	29566.01
460.233	28900.42
460.438	27659.35
460.644	27999.32
460.85	26330.22
461.055	26244.21
461.261	26094.71
461.466	24384.65
461.672	23100.58
461.878	25412.73
462.083	23166.11
462.289	22996.13
462.494	22793.38
462.7	21656.76
462.905	21228.73
463.111	21836.98
463.316	22228.14
463.522	21605.56
463.727	21748.92
463.932	21662.9
464.138	21406.91
464.343	21400.76
464.549	20788.42
464.754	21652.66
464.959	21304.51
465.165	21204.16
465.37	20229.32
465.575	19868.88
465.781	20538.57
465.986	20776.13
466.191	19887.31
466.397	19193.05
466.602	18533.61
466.807	19498.2
467.012	19274.97
467.218	19373.27
