Data from USB4F104151__72__12-27-48-311.txt Node

Date: Fri Mar 14 12:27:48 EDT 2025
User: louis
Spectrometer: USB4F10415
Trigger mode: 4
Integration Time (sec): 2.000000E-2
Scans to average: 1
Electric dark correction enabled: true
Nonlinearity correction enabled: false
Boxcar width: 0
XAxis mode: Wavelengths
Number of Pixels in Spectrum: 3648
>>>>>Begin Spectral Data<<<<<
178.204	-77.31
178.424	-77.31
178.644	-77.31
178.864	-103.93
179.084	-97.79
179.304	-9.73
179.524	4.61
179.744	29.18
179.964	4.61
180.184	23.04
180.404	-56.83
180.624	10.75
180.844	59.9
181.064	-38.4
181.283	51.71
181.503	-71.17
181.723	-7.68
181.943	-73.21
182.163	53.76
182.383	-19.97
182.602	23.04
182.822	20.99
183.042	-3.58
183.262	-5.63
183.482	-5.63
183.701	-22.02
183.921	-1.54
184.141	-30.21
184.361	-15.87
184.58	-40.45
184.8	64
185.02	20.99
185.239	70.14
185.459	2.56
185.679	61.95
185.898	-36.35
186.118	6.66
186.338	-17.92
186.557	61.95
186.777	-42.5
186.997	35.33
187.216	27.14
187.436	41.47
187.655	-38.4
187.875	57.86
188.095	16.9
188.314	33.28
188.534	80.38
188.753	-19.97
188.973	-9.73
189.192	49.66
189.412	51.71
189.631	-32.26
189.851	-17.92
190.07	-3.58
190.29	68.09
190.509	14.85
190.729	-3.58
190.948	88.57
191.168	80.38
191.387	0.51
191.607	-26.11
191.826	-3.58
192.045	-1.54
192.265	16.9
192.484	8.7
192.704	33.28
192.923	-52.74
193.142	113.15
193.362	14.85
193.581	25.09
193.8	-81.41
194.02	25.09
194.239	-1.54
194.458	59.9
194.678	49.66
194.897	-54.78
195.116	-17.92
195.335	74.24
195.555	-15.87
195.774	-7.68
195.993	43.52
196.212	49.66
196.432	-62.98
196.651	4.61
196.87	-9.73
197.089	98.81
197.308	2.56
197.528	12.8
197.747	47.62
197.966	45.57
198.185	31.23
198.404	25.09
198.623	16.9
198.842	37.38
199.062	10.75
199.281	29.18
199.5	33.28
199.719	72.19
199.938	78.33
200.157	47.62
200.376	47.62
200.595	70.14
200.814	6.66
201.033	-1.54
201.252	16.9
201.471	39.42
201.69	20.99
201.909	31.23
202.128	18.94
202.347	66.05
202.566	-13.82
202.785	35.33
203.004	-19.97
203.223	61.95
203.442	27.14
203.661	-17.92
203.879	82.43
204.098	-28.16
204.317	-3.58
204.536	-38.4
204.755	8.7
204.974	61.95
205.193	-26.11
205.411	47.62
205.63	-7.68
205.849	-9.73
206.068	37.38
206.287	16.9
206.505	-1.54
206.724	-11.78
206.943	29.18
207.162	6.66
207.381	-13.82
207.599	-73.21
207.818	10.75
208.037	0.51
208.255	12.8
208.474	-32.26
208.693	25.09
208.911	-36.35
209.13	74.24
209.349	20.99
209.567	37.38
209.786	12.8
210.005	39.42
210.223	39.42
210.442	37.38
210.661	-40.45
210.879	4.61
211.098	-32.26
211.316	49.66
211.535	18.94
211.753	-38.4
211.972	-50.69
212.191	4.61
212.409	20.99
212.628	14.85
212.846	-3.58
213.065	102.91
213.283	-50.69
213.502	37.38
213.72	25.09
213.938	43.52
214.157	-46.59
214.375	-15.87
214.594	39.42
214.812	25.09
215.031	37.38
215.249	20.99
215.467	55.81
215.686	18.94
215.904	66.05
216.122	-9.73
216.341	150.01
216.559	-5.63
216.778	-36.35
216.996	-3.58
217.214	10.75
217.432	27.14
217.651	2.56
217.869	55.81
218.087	-73.21
218.306	43.52
218.524	98.81
218.742	-26.11
218.96	72.19
219.179	47.62
219.397	2.56
219.615	66.05
219.833	49.66
220.051	-38.4
220.27	72.19
220.488	-11.78
220.706	29.18
220.924	12.8
221.142	6.66
221.36	4.61
221.578	-1.54
221.796	-5.63
222.015	10.75
222.233	14.85
222.451	25.09
222.669	-32.26
222.887	43.52
223.105	-5.63
223.323	-28.16
223.541	-17.92
223.759	0.51
223.977	-79.36
224.195	133.63
224.413	-42.5
224.631	-3.58
224.849	51.71
225.067	41.47
225.285	12.8
225.503	-60.93
225.721	-40.45
225.939	-46.59
226.157	84.48
226.375	76.29
226.592	-79.36
226.81	-15.87
227.028	31.23
227.246	76.29
227.464	86.53
227.682	82.43
227.9	31.23
228.117	41.47
228.335	-11.78
228.553	-36.35
228.771	14.85
228.989	25.09
229.206	-15.87
229.424	8.7
229.642	-77.31
229.86	-3.58
230.077	-24.06
230.295	25.09
230.513	20.99
230.731	31.23
230.948	41.47
231.166	27.14
231.384	-30.21
231.601	37.38
231.819	-38.4
232.037	-22.02
232.254	-5.63
232.472	-1.54
232.689	20.99
232.907	8.7
233.125	43.52
233.342	-13.82
233.56	-11.78
233.777	18.94
233.995	6.66
234.213	0.51
234.43	33.28
234.648	37.38
234.865	23.04
235.083	-32.26
235.3	29.18
235.518	37.38
235.735	-7.68
235.953	-9.73
236.17	59.9
236.388	45.57
236.605	-58.88
236.822	31.23
237.04	23.04
237.257	74.24
237.475	-56.83
237.692	61.95
237.909	23.04
238.127	33.28
238.344	55.81
238.562	0.51
238.779	27.14
238.996	-17.92
239.214	-19.97
239.431	-34.3
239.648	12.8
239.865	45.57
240.083	16.9
240.3	66.05
240.517	-13.82
240.735	61.95
240.952	61.95
241.169	59.9
241.386	16.9
241.603	-34.3
241.821	-65.02
242.038	76.29
242.255	-58.88
242.472	29.18
242.689	33.28
242.907	10.75
243.124	-93.69
243.341	121.34
243.558	96.77
243.775	74.24
243.992	-22.02
244.209	-15.87
244.426	107.01
244.643	68.09
244.86	-11.78
245.078	29.18
245.295	6.66
245.512	29.18
245.729	-54.78
245.946	29.18
246.163	14.85
246.38	-22.02
246.597	-13.82
246.814	0.51
247.031	64
247.248	12.8
247.464	98.81
247.681	-3.58
247.898	37.38
248.115	53.76
248.332	8.7
248.549	66.05
248.766	90.62
248.983	16.9
249.2	-15.87
249.417	35.33
249.633	-7.68
249.85	25.09
250.067	0.51
250.284	-1.54
250.501	88.57
250.717	8.7
250.934	8.7
251.151	39.42
251.368	-5.63
251.585	43.52
251.801	-42.5
252.018	-7.68
252.235	-44.54
252.451	-1.54
252.668	-24.06
252.885	59.9
253.102	-48.64
253.318	37.38
253.535	18.94
253.752	55.81
253.968	35.33
254.185	66.05
254.401	-7.68
254.618	29.18
254.835	-5.63
255.051	31.23
255.268	0.51
255.484	72.19
255.701	-32.26
255.917	47.62
256.134	18.94
256.351	-19.97
256.567	-36.35
256.784	25.09
257	-17.92
257.217	25.09
257.433	78.33
257.65	0.51
257.866	4.61
258.082	-32.26
258.299	-56.83
258.515	20.99
258.732	-32.26
258.948	33.28
259.165	35.33
259.381	35.33
259.597	-67.07
259.814	8.7
260.03	-1.54
260.246	76.29
260.463	72.19
260.679	25.09
260.895	-34.3
261.112	-40.45
261.328	-9.73
261.544	-28.16
261.761	33.28
261.977	-81.41
262.193	41.47
262.409	-1.54
262.626	49.66
262.842	70.14
263.058	-40.45
263.274	121.34
263.49	-1.54
263.707	72.19
263.923	51.71
264.139	0.51
264.355	14.85
264.571	23.04
264.787	55.81
265.004	0.51
265.22	53.76
265.436	-3.58
265.652	-48.64
265.868	27.14
266.084	-11.78
266.3	33.28
266.516	-19.97
266.732	66.05
266.948	66.05
267.164	27.14
267.38	49.66
267.596	29.18
267.812	141.82
268.028	6.66
268.244	12.8
268.46	-24.06
268.676	41.47
268.892	37.38
269.108	-7.68
269.324	-19.97
269.54	14.85
269.756	33.28
269.972	-17.92
270.188	64
270.403	27.14
270.619	53.76
270.835	-58.88
271.051	-11.78
271.267	12.8
271.483	-40.45
271.698	8.7
271.914	100.86
272.13	23.04
272.346	78.33
272.562	-67.07
272.777	47.62
272.993	-24.06
273.209	35.33
273.425	27.14
273.64	12.8
273.856	-3.58
274.072	-7.68
274.287	6.66
274.503	37.38
274.719	14.85
274.934	27.14
275.15	-5.63
275.366	31.23
275.581	16.9
275.797	27.14
276.012	-36.35
276.228	2.56
276.444	49.66
276.659	84.48
276.875	6.66
277.09	20.99
277.306	-5.63
277.521	-28.16
277.737	-13.82
277.952	6.66
278.168	-24.06
278.383	57.86
278.599	-1.54
278.814	37.38
279.03	41.47
279.245	68.09
279.461	10.75
279.676	102.91
279.892	14.85
280.107	-40.45
280.322	-24.06
280.538	90.62
280.753	-11.78
280.969	98.81
281.184	51.71
281.399	-9.73
281.615	37.38
281.83	-26.11
282.045	-15.87
282.26	-3.58
282.476	10.75
282.691	0.51
282.906	27.14
283.122	61.95
283.337	-3.58
283.552	61.95
283.767	-3.58
283.983	4.61
284.198	2.56
284.413	37.38
284.628	-13.82
284.843	-3.58
285.058	-1.54
285.274	6.66
285.489	76.29
285.704	45.57
285.919	-26.11
286.134	18.94
286.349	-40.45
286.564	8.7
286.779	12.8
286.995	-1.54
287.21	-7.68
287.425	16.9
287.64	37.38
287.855	37.38
288.07	-5.63
288.285	-11.78
288.5	-7.68
288.715	29.18
288.93	20.99
289.145	-32.26
289.36	10.75
289.575	-40.45
289.79	80.38
290.004	25.09
290.219	25.09
290.434	53.76
290.649	8.7
290.864	2.56
291.079	6.66
291.294	61.95
291.509	0.51
291.724	0.51
291.938	45.57
292.153	117.25
292.368	37.38
292.583	-1.54
292.798	-46.59
293.012	66.05
293.227	-1.54
293.442	6.66
293.657	49.66
293.871	84.48
294.086	18.94
294.301	119.29
294.516	14.85
294.73	20.99
294.945	33.28
295.16	-34.3
295.374	53.76
295.589	25.09
295.804	-40.45
296.018	-38.4
296.233	115.2
296.447	-52.74
296.662	129.53
296.877	23.04
297.091	-7.68
297.306	31.23
297.52	37.38
297.735	-46.59
297.949	41.47
298.164	64
298.378	57.86
298.593	-24.06
298.807	25.09
299.022	16.9
299.236	33.28
299.451	23.04
299.665	-11.78
299.88	49.66
300.094	18.94
300.309	72.19
300.523	-38.4
300.737	59.9
300.952	78.33
301.166	4.61
301.381	-75.26
301.595	20.99
301.809	4.61
302.024	-93.69
302.238	29.18
302.452	16.9
302.667	70.14
302.881	37.38
303.095	61.95
303.309	6.66
303.524	-42.5
303.738	-1.54
303.952	-1.54
304.166	-1.54
304.381	-17.92
304.595	76.29
304.809	82.43
305.023	-50.69
305.237	20.99
305.452	-32.26
305.666	-40.45
305.88	-40.45
306.094	-9.73
306.308	0.51
306.522	0.51
306.736	14.85
306.95	31.23
307.164	31.23
307.379	6.66
307.593	92.67
307.807	59.9
308.021	66.05
308.235	-3.58
308.449	12.8
308.663	-5.63
308.877	25.09
309.091	-3.58
309.305	14.85
309.519	4.61
309.733	6.66
309.947	6.66
310.161	35.33
310.374	-17.92
310.588	0.51
310.802	-30.21
311.016	25.09
311.23	14.85
311.444	4.61
311.658	16.9
311.872	57.86
312.085	78.33
312.299	82.43
312.513	51.71
312.727	49.66
312.941	-24.06
313.154	49.66
313.368	-9.73
313.582	41.47
313.796	33.28
314.009	51.71
314.223	8.7
314.437	-3.58
314.651	-34.3
314.864	4.61
315.078	35.33
315.292	31.23
315.505	2.56
315.719	-58.88
315.933	33.28
316.146	88.57
316.36	14.85
316.573	31.23
316.787	18.94
317.001	27.14
317.214	64
317.428	57.86
317.641	47.62
317.855	37.38
318.068	41.47
318.282	-50.69
318.495	-3.58
318.709	35.33
318.922	-42.5
319.136	53.76
319.349	70.14
319.563	49.66
319.776	53.76
319.99	29.18
320.203	64
320.417	-28.16
320.63	6.66
320.843	66.05
321.057	35.33
321.27	35.33
321.483	-19.97
321.697	-1.54
321.91	23.04
322.124	45.57
322.337	20.99
322.55	0.51
322.763	61.95
322.977	31.23
323.19	20.99
323.403	-11.78
323.617	39.42
323.83	37.38
324.043	12.8
324.256	18.94
324.469	51.71
324.683	18.94
324.896	6.66
325.109	39.42
325.322	-24.06
325.535	43.52
325.748	23.04
325.962	45.57
326.175	-17.92
326.388	59.9
326.601	37.38
326.814	-22.02
327.027	43.52
327.24	53.76
327.453	-44.54
327.666	64
327.879	-19.97
328.092	43.52
328.305	23.04
328.518	23.04
328.731	-5.63
328.944	66.05
329.157	74.24
329.37	-28.16
329.583	70.14
329.796	23.04
330.009	-24.06
330.222	131.58
330.435	51.71
330.648	37.38
330.861	0.51
331.073	31.23
331.286	107.01
331.499	10.75
331.712	43.52
331.925	25.09
332.138	-1.54
332.35	96.77
332.563	-3.58
332.776	57.86
332.989	45.57
333.202	18.94
333.414	-30.21
333.627	109.05
333.84	10.75
334.053	-11.78
334.265	35.33
334.478	33.28
334.691	92.67
334.903	78.33
335.116	-34.3
335.329	-32.26
335.541	49.66
335.754	76.29
335.966	55.81
336.179	45.57
336.392	-32.26
336.604	78.33
336.817	-56.83
337.029	111.1
337.242	49.66
337.454	-7.68
337.667	-3.58
337.88	33.28
338.092	8.7
338.305	47.62
338.517	72.19
338.729	23.04
338.942	70.14
339.154	-62.98
339.367	-1.54
339.579	57.86
339.792	49.66
340.004	47.62
340.217	-1.54
340.429	47.62
340.641	-24.06
340.854	-7.68
341.066	12.8
341.278	-42.5
341.491	0.51
341.703	4.61
341.915	-15.87
342.128	16.9
342.34	35.33
342.552	115.2
342.764	31.23
342.977	16.9
343.189	16.9
343.401	-7.68
343.613	-5.63
343.826	59.9
344.038	35.33
344.25	45.57
344.462	-9.73
344.674	45.57
344.886	0.51
345.099	25.09
345.311	92.67
345.523	45.57
345.735	-19.97
345.947	14.85
346.159	14.85
346.371	31.23
346.583	10.75
346.795	45.57
347.007	-30.21
347.219	23.04
347.431	4.61
347.643	-30.21
347.855	33.28
348.067	47.62
348.279	8.7
348.491	49.66
348.703	70.14
348.915	61.95
349.127	76.29
349.339	68.09
349.551	10.75
349.763	25.09
349.975	57.86
350.187	-22.02
350.399	47.62
350.61	78.33
350.822	59.9
351.034	25.09
351.246	14.85
351.458	70.14
351.669	10.75
351.881	51.71
352.093	53.76
352.305	25.09
352.517	61.95
352.728	33.28
352.94	27.14
353.152	23.04
353.363	10.75
353.575	86.53
353.787	-13.82
353.999	-9.73
354.21	-3.58
354.422	-19.97
354.633	88.57
354.845	55.81
355.057	35.33
355.268	2.56
355.48	-9.73
355.692	76.29
355.903	-13.82
356.115	-40.45
356.326	27.14
356.538	-28.16
356.749	2.56
356.961	27.14
357.172	33.28
357.384	74.24
357.595	61.95
357.807	10.75
358.018	33.28
358.23	94.72
358.441	78.33
358.653	49.66
358.864	61.95
359.075	33.28
359.287	53.76
359.498	-28.16
359.709	-1.54
359.921	-38.4
360.132	6.66
360.344	68.09
360.555	-28.16
360.766	2.56
360.977	-11.78
361.189	-24.06
361.4	20.99
361.611	33.28
361.823	96.77
362.034	-26.11
362.245	27.14
362.456	66.05
362.667	86.53
362.879	-48.64
363.09	86.53
363.301	20.99
363.512	10.75
363.723	-9.73
363.935	78.33
364.146	20.99
364.357	45.57
364.568	59.9
364.779	-7.68
364.99	23.04
365.201	33.28
365.412	27.14
365.623	29.18
365.834	0.51
366.045	115.2
366.256	37.38
366.467	37.38
366.678	16.9
366.889	-17.92
367.1	-36.35
367.311	45.57
367.522	66.05
367.733	94.72
367.944	0.51
368.155	-15.87
368.366	82.43
368.577	80.38
368.788	20.99
368.999	14.85
369.209	-11.78
369.42	-50.69
369.631	109.05
369.842	-36.35
370.053	-46.59
370.264	-13.82
370.474	47.62
370.685	20.99
370.896	20.99
371.107	-28.16
371.317	86.53
371.528	14.85
371.739	10.75
371.95	59.9
372.16	92.67
372.371	-3.58
372.582	10.75
372.792	-13.82
373.003	14.85
373.214	-38.4
373.424	59.9
373.635	8.7
373.846	109.05
374.056	57.86
374.267	51.71
374.477	88.57
374.688	64
374.898	-11.78
375.109	18.94
375.319	98.81
375.53	61.95
375.74	41.47
375.951	2.56
376.161	6.66
376.372	51.71
376.582	84.48
376.793	61.95
377.003	-3.58
377.214	55.81
377.424	104.96
377.635	43.52
377.845	-91.65
378.055	41.47
378.266	-5.63
378.476	80.38
378.686	-40.45
378.897	33.28
379.107	66.05
379.317	82.43
379.528	-40.45
379.738	27.14
379.948	68.09
380.158	43.52
380.369	6.66
380.579	33.28
380.789	6.66
380.999	64
381.21	31.23
381.42	39.42
381.63	-19.97
381.84	57.86
382.05	31.23
382.261	125.44
382.471	76.29
382.681	61.95
382.891	55.81
383.101	41.47
383.311	0.51
383.521	14.85
383.731	80.38
383.941	100.86
384.151	33.28
384.361	29.18
384.571	-24.06
384.781	74.24
384.991	90.62
385.201	39.42
385.411	84.48
385.621	115.2
385.831	-83.45
386.041	59.9
386.251	-5.63
386.461	82.43
386.671	14.85
386.881	74.24
387.091	66.05
387.301	70.14
387.511	47.62
387.72	115.2
387.93	88.57
388.14	-11.78
388.35	29.18
388.56	37.38
388.769	51.71
388.979	76.29
389.189	-11.78
389.399	37.38
389.609	-19.97
389.818	74.24
390.028	57.86
390.238	12.8
390.447	43.52
390.657	25.09
390.867	-28.16
391.076	-7.68
391.286	78.33
391.496	64
391.705	41.47
391.915	143.87
392.125	35.33
392.334	37.38
392.544	82.43
392.753	113.15
392.963	16.9
393.172	49.66
393.382	104.96
393.591	-36.35
393.801	61.95
394.01	6.66
394.22	84.48
394.429	78.33
394.639	20.99
394.848	23.04
395.058	0.51
395.267	92.67
395.477	-24.06
395.686	37.38
395.895	72.19
396.105	43.52
396.314	-11.78
396.524	68.09
396.733	43.52
396.942	6.66
397.152	86.53
397.361	72.19
397.57	125.44
397.78	80.38
397.989	111.1
398.198	117.25
398.407	33.28
398.617	59.9
398.826	113.15
399.035	109.05
399.244	78.33
399.453	123.39
399.663	49.66
399.872	96.77
400.081	94.72
400.29	143.87
400.499	39.42
400.708	16.9
400.917	104.96
401.127	129.53
401.336	84.48
401.545	37.38
401.754	176.64
401.963	90.62
402.172	137.73
402.381	-46.59
402.59	111.1
402.799	107.01
403.008	84.48
403.217	104.96
403.426	51.71
403.635	86.53
403.844	123.39
404.053	125.44
404.262	162.3
404.471	135.68
404.68	74.24
404.888	20.99
405.097	154.11
405.306	119.29
405.515	133.63
405.724	111.1
405.933	129.53
406.142	80.38
406.35	92.67
406.559	147.97
406.768	158.21
406.977	119.29
407.185	178.69
407.394	111.1
407.603	141.82
407.812	137.73
408.02	158.21
408.229	299.52
408.438	207.36
408.646	190.97
408.855	268.8
409.064	158.21
409.272	197.12
409.481	156.16
409.69	131.58
409.898	283.13
410.107	254.46
410.315	242.17
410.524	223.74
410.733	264.7
410.941	244.22
411.15	311.8
411.358	229.88
411.567	322.04
411.775	332.28
411.984	174.59
412.192	295.42
412.401	363
412.609	360.95
412.818	332.28
413.026	342.52
413.234	430.59
413.443	406.01
413.651	391.67
413.86	479.74
414.068	414.2
414.276	514.55
414.485	461.3
414.693	465.4
414.901	616.95
415.11	520.7
415.318	537.08
415.526	557.56
415.734	547.32
415.943	604.66
416.151	606.71
416.359	676.34
416.567	621.05
416.776	688.63
416.984	741.88
417.192	754.16
417.4	850.42
417.608	815.6
417.817	737.78
418.025	893.43
418.233	1059.31
418.441	874.99
418.649	973.3
418.857	1004.02
419.065	1057.26
419.273	1001.97
419.481	989.68
419.689	1227.25
419.897	1200.62
420.105	1200.62
420.313	1135.09
420.521	1276.4
420.729	1298.92
420.937	1315.31
421.145	1348.08
421.353	1458.67
421.561	1495.53
421.769	1591.78
421.977	1552.87
422.185	1640.93
422.393	1655.27
422.601	1780.2
422.809	1722.85
423.017	1849.83
423.224	1921.51
423.432	1894.88
423.64	2019.81
423.848	2128.35
424.056	2032.1
424.263	2191.84
424.471	2273.76
424.679	2265.57
424.887	2492.89
425.094	2509.27
425.302	2445.79
425.51	2648.54
425.718	2750.93
425.925	2664.92
426.133	2748.89
426.341	2888.15
426.548	3064.27
426.756	3033.55
426.964	3060.18
427.171	3400.14
427.379	3480.01
427.586	3398.09
427.794	3639.75
428.001	3662.28
428.209	3938.76
428.417	3764.68
428.624	4112.83
428.832	4080.07
429.039	4211.14
429.247	4069.83
429.454	4372.93
429.662	4876.73
429.869	4438.46
430.076	4782.52
430.284	4592.06
430.491	4766.14
430.699	4966.84
430.906	5120.43
431.114	5237.17
431.321	5319.09
431.528	5441.96
431.736	5863.85
431.943	5949.86
432.15	5900.71
432.358	5900.71
432.565	6236.58
432.772	6308.26
432.979	6574.49
433.187	6863.26
433.394	6848.92
433.601	7295.38
433.808	7397.78
434.016	7174.55
434.223	7395.73
434.43	8112.52
434.637	7881.1
434.844	8315.27
435.052	8352.13
435.259	8483.2
435.466	8440.19
435.673	8415.62
435.88	9124.21
436.087	9390.45
436.294	9492.85
436.501	9349.49
436.708	9654.64
436.915	9441.65
437.122	10244.45
437.329	10125.67
437.537	10520.93
437.743	10635.61
437.95	10500.45
438.157	11041.11
438.364	11278.68
438.571	11391.31
438.778	11831.63
438.985	12689.73
439.192	12169.54
439.399	12712.25
439.606	12167.49
439.813	13046.07
440.02	13918.51
440.227	13656.37
440.433	13644.08
440.64	14016.81
440.847	13846.83
441.054	13893.93
441.261	15012.12
441.467	14967.07
441.674	15270.17
441.881	15585.55
442.088	15595.79
442.294	15546.64
442.501	16011.53
442.708	16394.5
442.914	16779.52
443.121	17246.46
443.328	17125.63
443.534	18682.08
443.741	17797.36
443.948	17615.09
444.154	18905.31
444.361	18606.31
444.568	19146.97
444.774	19087.58
444.981	19132.64
445.187	19677.4
445.394	20396.23
445.6	20084.94
445.807	22204.59
446.013	21702.84
446.22	21625.01
446.426	22448.3
446.633	22833.32
446.839	23697.56
447.046	22558.89
447.252	23861.4
447.459	23888.02
447.665	23619.74
447.871	24942.72
448.078	26337.39
448.284	24879.24
448.491	25614.46
448.697	26464.36
448.903	26835.05
449.11	27009.12
449.316	26683.5
449.522	27060.32
449.728	28063.83
449.935	27951.19
450.141	28026.96
450.347	28498
450.553	27826.26
450.76	28342.35
450.966	29233.22
451.172	28989.51
451.378	29550.65
451.584	29050.95
451.791	29859.9
451.997	29767.74
452.203	29923.38
452.409	30079.03
452.615	29999.16
452.821	28659.79
453.027	28493.9
453.233	30240.82
453.44	28991.56
453.646	29392.96
453.852	29384.77
454.058	29857.85
454.264	29149.25
454.47	29587.52
454.676	28895.3
454.882	29446.21
455.088	27402.33
455.294	27883.61
455.5	28276.82
455.705	28217.43
455.911	27078.75
456.117	26902.63
456.323	26148.98
456.529	25028.74
456.735	26472.56
456.941	25247.87
457.147	25254.01
457.352	24408.2
457.558	24084.62
457.764	24014.99
457.97	23527.58
458.176	22962.34
458.381	23373.98
458.587	22069.42
458.793	21954.74
458.999	21274.81
459.204	22153.39
459.41	21823.67
459.616	20326.6
459.821	20388.04
460.027	20152.52
460.233	19761.36
460.438	18938.08
460.644	19261.66
460.85	18061.55
461.055	17932.53
461.261	17928.43
461.466	16494.85
461.672	16224.52
461.878	17129.72
462.083	15900.94
462.289	15735.06
462.494	15642.9
462.7	14876.96
462.905	14659.87
463.111	15028.51
463.316	15079.71
463.522	14784.8
463.727	14754.08
463.932	14526.75
464.138	14463.27
464.343	14633.25
464.549	14072.11
464.754	14645.54
464.959	14629.15
465.165	14569.76
465.37	13734.19
465.575	13617.46
465.781	13709.61
465.986	14086.44
466.191	13654.32
466.397	13277.49
466.602	12847.42
466.807	13222.2
467.012	13203.77
467.218	13009.21
467.423	12779.84
467.628	13048.12
467.833	13723.95
