Data from USB4F104151__49__12-27-31-133.txt Node

Date: Fri Mar 14 12:27:31 EDT 2025
User: louis
Spectrometer: USB4F10415
Trigger mode: 4
Integration Time (sec): 2.000000E-2
Scans to average: 1
Electric dark correction enabled: true
Nonlinearity correction enabled: false
Boxcar width: 0
XAxis mode: Wavelengths
Number of Pixels in Spectrum: 3648
>>>>>Begin Spectral Data<<<<<
178.204	-103.76
178.424	-103.76
178.644	-103.76
178.864	-73.04
179.084	-52.56
179.304	8.87
179.524	-30.04
179.744	88.75
179.964	58.03
180.184	12.97
180.404	-5.46
180.624	-64.85
180.844	-32.08
181.064	-60.76
181.283	2.73
181.503	-3.41
181.723	25.26
181.943	4.78
182.163	45.74
182.383	-85.33
182.602	53.93
182.822	74.41
183.042	45.74
183.262	41.64
183.482	2.73
183.701	10.92
183.921	41.64
184.141	21.16
184.361	19.11
184.58	-46.42
184.8	-87.38
185.02	62.12
185.239	29.35
185.459	23.21
185.679	49.83
185.898	35.5
186.118	-17.75
186.338	17.07
186.557	-30.04
186.777	35.5
186.997	-93.52
187.216	-15.7
187.436	76.46
187.655	0.68
187.875	39.59
188.095	74.41
188.314	29.35
188.534	-32.08
188.753	-11.61
188.973	-19.8
189.192	49.83
189.412	68.27
189.631	31.4
189.851	-7.51
190.07	6.83
190.29	-32.08
190.509	-1.37
190.729	-11.61
190.948	64.17
191.168	109.23
191.387	19.11
191.607	51.88
191.826	90.79
192.045	47.79
192.265	-25.94
192.484	4.78
192.704	33.45
192.923	-3.41
193.142	47.79
193.362	47.79
193.581	86.7
193.8	76.46
194.02	21.16
194.239	94.89
194.458	55.98
194.678	64.17
194.897	2.73
195.116	-25.94
195.335	94.89
195.555	-7.51
195.774	-5.46
195.993	4.78
196.212	29.35
196.432	-3.41
196.651	10.92
196.87	4.78
197.089	117.42
197.308	72.36
197.528	47.79
197.747	-60.76
197.966	8.87
198.185	51.88
198.404	37.55
198.623	25.26
198.842	27.31
199.062	-23.89
199.281	-17.75
199.5	-21.84
199.719	43.69
199.938	-48.47
200.157	10.92
200.376	21.16
200.595	39.59
200.814	17.07
201.033	17.07
201.252	47.79
201.471	43.69
201.69	94.89
201.909	19.11
202.128	2.73
202.347	4.78
202.566	41.64
202.785	8.87
203.004	58.03
203.223	-17.75
203.442	72.36
203.661	10.92
203.879	10.92
204.098	15.02
204.317	-38.23
204.536	-9.56
204.755	-15.7
204.974	74.41
205.193	-19.8
205.411	123.56
205.63	17.07
205.849	49.83
206.068	49.83
206.287	-30.04
206.505	66.22
206.724	39.59
206.943	0.68
207.162	21.16
207.381	12.97
207.599	0.68
207.818	39.59
208.037	-11.61
208.255	8.87
208.474	45.74
208.693	53.93
208.911	31.4
209.13	74.41
209.349	47.79
209.567	-27.99
209.786	47.79
210.005	-21.84
210.223	-23.89
210.442	19.11
210.661	10.92
210.879	-13.65
211.098	58.03
211.316	21.16
211.535	-62.8
211.753	29.35
211.972	-9.56
212.191	-32.08
212.409	-3.41
212.628	23.21
212.846	2.73
213.065	64.17
213.283	94.89
213.502	-11.61
213.72	29.35
213.938	-30.04
214.157	2.73
214.375	27.31
214.594	96.94
214.812	68.27
215.031	10.92
215.249	19.11
215.467	92.84
215.686	21.16
215.904	137.9
216.122	27.31
216.341	-21.84
216.559	0.68
216.778	88.75
216.996	12.97
217.214	12.97
217.432	8.87
217.651	-1.37
217.869	12.97
218.087	78.51
218.306	-5.46
218.524	12.97
218.742	0.68
218.96	39.59
219.179	60.07
219.397	-17.75
219.615	103.08
219.833	51.88
220.051	-17.75
220.27	109.23
220.488	96.94
220.706	27.31
220.924	-23.89
221.142	-3.41
221.36	2.73
221.578	17.07
221.796	15.02
222.015	-34.13
222.233	19.11
222.451	62.12
222.669	19.11
222.887	-5.46
223.105	60.07
223.323	25.26
223.541	-1.37
223.759	109.23
223.977	-21.84
224.195	58.03
224.413	31.4
224.631	58.03
224.849	58.03
225.067	10.92
225.285	15.02
225.503	-1.37
225.721	92.84
225.939	60.07
226.157	64.17
226.375	174.76
226.592	8.87
226.81	78.51
227.028	39.59
227.246	41.64
227.464	6.83
227.682	0.68
227.9	-25.94
228.117	10.92
228.335	60.07
228.553	-17.75
228.771	-44.37
228.989	58.03
229.206	37.55
229.424	41.64
229.642	45.74
229.86	-48.47
230.077	121.51
230.295	15.02
230.513	29.35
230.731	-1.37
230.948	70.31
231.166	37.55
231.384	-23.89
231.601	-21.84
231.819	94.89
232.037	53.93
232.254	-32.08
232.472	45.74
232.689	88.75
232.907	-13.65
233.125	29.35
233.342	35.5
233.56	43.69
233.777	27.31
233.995	17.07
234.213	4.78
234.43	2.73
234.648	6.83
234.865	39.59
235.083	39.59
235.3	-19.8
235.518	51.88
235.735	90.79
235.953	-11.61
236.17	-5.46
236.388	-30.04
236.605	-9.56
236.822	55.98
237.04	47.79
237.257	25.26
237.475	-13.65
237.692	98.99
237.909	23.21
238.127	-1.37
238.344	27.31
238.562	72.36
238.779	15.02
238.996	21.16
239.214	-32.08
239.431	53.93
239.648	-3.41
239.865	-1.37
240.083	49.83
240.3	45.74
240.517	27.31
240.735	-15.7
240.952	33.45
241.169	-1.37
241.386	39.59
241.603	-23.89
241.821	72.36
242.038	8.87
242.255	43.69
242.472	-1.37
242.689	29.35
242.907	41.64
243.124	35.5
243.341	-30.04
243.558	-1.37
243.775	-1.37
243.992	-13.65
244.209	90.79
244.426	74.41
244.643	51.88
244.86	-13.65
245.078	29.35
245.295	74.41
245.512	35.5
245.729	25.26
245.946	-27.99
246.163	27.31
246.38	35.5
246.597	37.55
246.814	31.4
247.031	92.84
247.248	27.31
247.464	4.78
247.681	29.35
247.898	6.83
248.115	53.93
248.332	23.21
248.549	27.31
248.766	47.79
248.983	10.92
249.2	-46.42
249.417	76.46
249.633	23.21
249.85	41.64
250.067	45.74
250.284	23.21
250.501	-9.56
250.717	45.74
250.934	45.74
251.151	19.11
251.368	78.51
251.585	6.83
251.801	-42.32
252.018	-52.56
252.235	31.4
252.451	10.92
252.668	68.27
252.885	66.22
253.102	53.93
253.318	-7.51
253.535	8.87
253.752	-27.99
253.968	-11.61
254.185	31.4
254.401	-30.04
254.618	2.73
254.835	51.88
255.051	117.42
255.268	6.83
255.484	31.4
255.701	-54.61
255.917	43.69
256.134	55.98
256.351	80.55
256.567	21.16
256.784	-9.56
257	70.31
257.217	27.31
257.433	55.98
257.65	53.93
257.866	66.22
258.082	12.97
258.299	58.03
258.515	19.11
258.732	21.16
258.948	-23.89
259.165	25.26
259.381	45.74
259.597	66.22
259.814	82.6
260.03	19.11
260.246	6.83
260.463	-13.65
260.679	-40.28
260.895	15.02
261.112	4.78
261.328	-23.89
261.544	17.07
261.761	62.12
261.977	47.79
262.193	15.02
262.409	37.55
262.626	27.31
262.842	21.16
263.058	39.59
263.274	129.7
263.49	49.83
263.707	-40.28
263.923	-23.89
264.139	-17.75
264.355	25.26
264.571	70.31
264.787	19.11
265.004	139.94
265.22	94.89
265.436	51.88
265.652	45.74
265.868	19.11
266.084	12.97
266.3	19.11
266.516	-17.75
266.732	-1.37
266.948	25.26
267.164	-42.32
267.38	-40.28
267.596	27.31
267.812	37.55
268.028	25.26
268.244	-73.04
268.46	51.88
268.676	-1.37
268.892	55.98
269.108	-62.8
269.324	21.16
269.54	78.51
269.756	-5.46
269.972	-5.46
270.188	68.27
270.403	6.83
270.619	31.4
270.835	25.26
271.051	19.11
271.267	29.35
271.483	-11.61
271.698	-3.41
271.914	-15.7
272.13	-25.94
272.346	41.64
272.562	84.65
272.777	37.55
272.993	27.31
273.209	-23.89
273.425	10.92
273.64	23.21
273.856	37.55
274.072	60.07
274.287	37.55
274.503	58.03
274.719	74.41
274.934	43.69
275.15	-32.08
275.366	27.31
275.581	4.78
275.797	66.22
276.012	29.35
276.228	12.97
276.444	-3.41
276.659	51.88
276.875	15.02
277.09	82.6
277.306	-5.46
277.521	41.64
277.737	-56.66
277.952	119.46
278.168	-1.37
278.383	51.88
278.599	8.87
278.814	53.93
279.03	4.78
279.245	49.83
279.461	49.83
279.676	64.17
279.892	15.02
280.107	-17.75
280.322	55.98
280.538	25.26
280.753	49.83
280.969	-56.66
281.184	21.16
281.399	-21.84
281.615	25.26
281.83	35.5
282.045	-1.37
282.26	-21.84
282.476	10.92
282.691	4.78
282.906	-19.8
283.122	58.03
283.337	-36.18
283.552	25.26
283.767	60.07
283.983	31.4
284.198	23.21
284.413	39.59
284.628	27.31
284.843	23.21
285.058	21.16
285.274	111.27
285.489	-1.37
285.704	84.65
285.919	15.02
286.134	-50.52
286.349	8.87
286.564	23.21
286.779	94.89
286.995	17.07
287.21	-3.41
287.425	23.21
287.64	29.35
287.855	10.92
288.07	-7.51
288.285	27.31
288.5	25.26
288.715	82.6
288.93	17.07
289.145	31.4
289.36	68.27
289.575	23.21
289.79	-21.84
290.004	17.07
290.219	113.32
290.434	-15.7
290.649	0.68
290.864	-15.7
291.079	-27.99
291.294	6.83
291.509	-23.89
291.724	45.74
291.938	84.65
292.153	23.21
292.368	-23.89
292.583	-58.71
292.798	51.88
293.012	41.64
293.227	33.45
293.442	25.26
293.657	62.12
293.871	80.55
294.086	92.84
294.301	35.5
294.516	29.35
294.73	41.64
294.945	8.87
295.16	-23.89
295.374	35.5
295.589	-25.94
295.804	27.31
296.018	31.4
296.233	-25.94
296.447	53.93
296.662	29.35
296.877	70.31
297.091	-7.51
297.306	80.55
297.52	-17.75
297.735	27.31
297.949	-56.66
298.164	-7.51
298.378	27.31
298.593	27.31
298.807	8.87
299.022	21.16
299.236	58.03
299.451	6.83
299.665	17.07
299.88	41.64
300.094	17.07
300.309	27.31
300.523	8.87
300.737	58.03
300.952	152.23
301.166	25.26
301.381	-15.7
301.595	133.8
301.809	31.4
302.024	15.02
302.238	0.68
302.452	64.17
302.667	53.93
302.881	8.87
303.095	43.69
303.309	55.98
303.524	-30.04
303.738	51.88
303.952	-1.37
304.166	37.55
304.381	12.97
304.595	80.55
304.809	29.35
305.023	-27.99
305.237	12.97
305.452	55.98
305.666	-5.46
305.88	80.55
306.094	23.21
306.308	98.99
306.522	117.42
306.736	35.5
306.95	29.35
307.164	-36.18
307.379	51.88
307.593	78.51
307.807	31.4
308.021	-1.37
308.235	6.83
308.449	6.83
308.663	49.83
308.877	25.26
309.091	35.5
309.305	8.87
309.519	21.16
309.733	88.75
309.947	64.17
310.161	53.93
310.374	53.93
310.588	62.12
310.802	-64.85
311.016	-34.13
311.23	37.55
311.444	-17.75
311.658	80.55
311.872	4.78
312.085	80.55
312.299	58.03
312.513	23.21
312.727	-52.56
312.941	29.35
313.154	74.41
313.368	23.21
313.582	60.07
313.796	25.26
314.009	21.16
314.223	39.59
314.437	101.03
314.651	-38.23
314.864	88.75
315.078	49.83
315.292	45.74
315.505	25.26
315.719	-15.7
315.933	58.03
316.146	-13.65
316.36	6.83
316.573	25.26
316.787	88.75
317.001	68.27
317.214	12.97
317.428	45.74
317.641	-73.04
317.855	17.07
318.068	-1.37
318.282	86.7
318.495	62.12
318.709	119.46
318.922	19.11
319.136	17.07
319.349	82.6
319.563	68.27
319.776	53.93
319.99	49.83
320.203	53.93
320.417	60.07
320.63	4.78
320.843	109.23
321.057	-17.75
321.27	27.31
321.483	23.21
321.697	64.17
321.91	43.69
322.124	21.16
322.337	90.79
322.55	55.98
322.763	27.31
322.977	23.21
323.19	31.4
323.403	72.36
323.617	-7.51
323.83	-21.84
324.043	-5.46
324.256	49.83
324.469	103.08
324.683	29.35
324.896	62.12
325.109	74.41
325.322	-15.7
325.535	0.68
325.748	15.02
325.962	41.64
326.175	25.26
326.388	27.31
326.601	60.07
326.814	35.5
327.027	-9.56
327.24	66.22
327.453	-44.37
327.666	-32.08
327.879	60.07
328.092	12.97
328.305	117.42
328.518	-21.84
328.731	10.92
328.944	58.03
329.157	-32.08
329.37	70.31
329.583	117.42
329.796	21.16
330.009	84.65
330.222	96.94
330.435	88.75
330.648	74.41
330.861	-44.37
331.073	19.11
331.286	25.26
331.499	45.74
331.712	-11.61
331.925	4.78
332.138	86.7
332.35	25.26
332.563	4.78
332.776	15.02
332.989	43.69
333.202	15.02
333.414	23.21
333.627	43.69
333.84	111.27
334.053	23.21
334.265	82.6
334.478	53.93
334.691	27.31
334.903	105.13
335.116	8.87
335.329	58.03
335.541	64.17
335.754	25.26
335.966	8.87
336.179	60.07
336.392	-25.94
336.604	25.26
336.817	74.41
337.029	37.55
337.242	-1.37
337.454	17.07
337.667	23.21
337.88	41.64
338.092	78.51
338.305	33.45
338.517	70.31
338.729	60.07
338.942	-11.61
339.154	21.16
339.367	29.35
339.579	-1.37
339.792	-15.7
340.004	25.26
340.217	-7.51
340.429	-15.7
340.641	15.02
340.854	49.83
341.066	68.27
341.278	105.13
341.491	60.07
341.703	82.6
341.915	109.23
342.128	49.83
342.34	15.02
342.552	-15.7
342.764	64.17
342.977	47.79
343.189	47.79
343.401	31.4
343.613	64.17
343.826	21.16
344.038	21.16
344.25	74.41
344.462	45.74
344.674	8.87
344.886	-32.08
345.099	72.36
345.311	58.03
345.523	29.35
345.735	-21.84
345.947	-25.94
346.159	115.37
346.371	82.6
346.583	12.97
346.795	117.42
347.007	45.74
347.219	55.98
347.431	-11.61
347.643	17.07
347.855	-15.7
348.067	105.13
348.279	43.69
348.491	23.21
348.703	45.74
348.915	-85.33
349.127	17.07
349.339	43.69
349.551	-11.61
349.763	90.79
349.975	49.83
350.187	76.46
350.399	8.87
350.61	25.26
350.822	92.84
351.034	66.22
351.246	84.65
351.458	31.4
351.669	21.16
351.881	107.18
352.093	33.45
352.305	53.93
352.517	47.79
352.728	10.92
352.94	-15.7
353.152	12.97
353.363	0.68
353.575	60.07
353.787	68.27
353.999	37.55
354.21	55.98
354.422	35.5
354.633	51.88
354.845	33.45
355.057	94.89
355.268	82.6
355.48	29.35
355.692	-23.89
355.903	-3.41
356.115	-27.99
356.326	17.07
356.538	68.27
356.749	76.46
356.961	17.07
357.172	55.98
357.384	115.37
357.595	58.03
357.807	-3.41
358.018	-23.89
358.23	45.74
358.441	103.08
358.653	55.98
358.864	94.89
359.075	76.46
359.287	94.89
359.498	94.89
359.709	29.35
359.921	70.31
360.132	31.4
360.344	70.31
360.555	47.79
360.766	68.27
360.977	55.98
361.189	105.13
361.4	51.88
361.611	6.83
361.823	17.07
362.034	47.79
362.245	53.93
362.456	55.98
362.667	105.13
362.879	45.74
363.09	55.98
363.301	31.4
363.512	17.07
363.723	66.22
363.935	25.26
364.146	64.17
364.357	12.97
364.568	109.23
364.779	35.5
364.99	53.93
365.201	45.74
365.412	49.83
365.623	-44.37
365.834	6.83
366.045	31.4
366.256	109.23
366.467	117.42
366.678	115.37
366.889	25.26
367.1	-40.28
367.311	-27.99
367.522	80.55
367.733	31.4
367.944	113.32
368.155	92.84
368.366	88.75
368.577	109.23
368.788	12.97
368.999	-27.99
369.209	53.93
369.42	101.03
369.631	25.26
369.842	37.55
370.053	58.03
370.264	29.35
370.474	105.13
370.685	60.07
370.896	39.59
371.107	39.59
371.317	58.03
371.528	111.27
371.739	25.26
371.95	64.17
372.16	55.98
372.371	2.73
372.582	41.64
372.792	90.79
373.003	31.4
373.214	29.35
373.424	62.12
373.635	51.88
373.846	33.45
374.056	96.94
374.267	96.94
374.477	8.87
374.688	84.65
374.898	25.26
375.109	43.69
375.319	39.59
375.53	86.7
375.74	107.18
375.951	109.23
376.161	-1.37
376.372	62.12
376.582	127.66
376.793	64.17
377.003	-3.41
377.214	23.21
377.424	76.46
377.635	84.65
377.845	-38.23
378.055	78.51
378.266	29.35
378.476	4.78
378.686	6.83
378.897	60.07
379.107	53.93
379.317	47.79
379.528	98.99
379.738	86.7
379.948	-7.51
380.158	94.89
380.369	35.5
380.579	74.41
380.789	37.55
380.999	51.88
381.21	101.03
381.42	141.99
381.63	131.75
381.84	101.03
382.05	90.79
382.261	58.03
382.471	90.79
382.681	68.27
382.891	49.83
383.101	68.27
383.311	37.55
383.521	80.55
383.731	31.4
383.941	72.36
384.151	33.45
384.361	15.02
384.571	86.7
384.781	47.79
384.991	129.7
385.201	51.88
385.411	78.51
385.621	72.36
385.831	47.79
386.041	74.41
386.251	76.46
386.461	88.75
386.671	-15.7
386.881	90.79
387.091	47.79
387.301	70.31
387.511	37.55
387.72	17.07
387.93	109.23
388.14	-27.99
388.35	94.89
388.56	105.13
388.769	76.46
388.979	33.45
389.189	23.21
389.399	72.36
389.609	27.31
389.818	27.31
390.028	119.46
390.238	125.61
390.447	74.41
390.657	121.51
390.867	21.16
391.076	41.64
391.286	62.12
391.496	60.07
391.705	53.93
391.915	70.31
392.125	-19.8
392.334	74.41
392.544	133.8
392.753	45.74
392.963	-25.94
393.172	98.99
393.382	62.12
393.591	109.23
393.801	33.45
394.01	60.07
394.22	139.94
394.429	86.7
394.639	88.75
394.848	64.17
395.058	29.35
395.267	82.6
395.477	90.79
395.686	45.74
395.895	80.55
396.105	166.57
396.314	43.69
396.524	103.08
396.733	23.21
396.942	131.75
397.152	127.66
397.361	146.09
397.57	31.4
397.78	66.22
397.989	90.79
398.198	168.62
398.407	66.22
398.617	86.7
398.826	98.99
399.035	88.75
399.244	123.56
399.453	82.6
399.663	121.51
399.872	158.38
400.081	68.27
400.29	135.85
400.499	98.99
400.708	107.18
400.917	96.94
401.127	96.94
401.336	115.37
401.545	84.65
401.754	74.41
401.963	129.7
402.172	191.14
402.381	92.84
402.59	172.71
402.799	158.38
403.008	139.94
403.217	115.37
403.426	207.53
403.635	94.89
403.844	223.91
404.053	158.38
404.262	131.75
404.471	225.96
404.68	174.76
404.888	187.05
405.097	172.71
405.306	199.34
405.515	135.85
405.724	144.04
405.933	187.05
406.142	144.04
406.35	197.29
406.559	234.15
406.768	203.43
406.977	223.91
407.185	82.6
407.394	299.69
407.603	137.9
407.812	262.82
408.02	295.59
408.229	242.34
408.438	271.01
408.646	160.42
408.855	209.58
409.064	199.34
409.272	221.86
409.481	342.69
409.69	221.86
409.898	285.35
410.107	289.45
410.315	430.76
410.524	258.73
410.733	297.64
410.941	328.36
411.15	414.37
411.358	379.56
411.567	385.7
411.775	375.46
411.984	377.51
412.192	508.58
412.401	494.24
412.609	535.2
412.818	522.91
413.026	557.73
413.234	506.53
413.443	574.11
413.651	570.02
413.86	666.27
414.068	629.41
414.276	672.42
414.485	615.07
414.693	733.86
414.901	823.97
415.11	737.95
415.318	776.86
415.526	787.1
415.734	774.81
415.943	897.69
416.151	877.21
416.359	903.84
416.567	901.79
416.776	952.99
416.984	924.32
417.192	1020.57
417.4	1159.83
417.608	1047.19
417.817	1110.68
418.025	1161.88
418.233	1254.04
418.441	1278.62
418.649	1317.53
418.857	1372.82
419.065	1430.16
419.273	1381.01
419.481	1487.51
419.689	1589.91
419.897	1544.85
420.105	1616.53
420.313	1614.48
420.521	1727.12
420.729	1770.13
420.937	1821.33
421.145	1882.77
421.353	1964.68
421.561	1983.12
421.769	1907.34
421.977	2091.66
422.185	2108.04
422.393	2337.41
422.601	2505.35
422.809	2472.58
423.017	2470.53
423.224	2620.03
423.432	2552.45
423.64	2693.76
423.848	2890.37
424.056	2892.41
424.263	3164.79
424.471	3017.34
424.679	3203.71
424.887	3359.35
425.094	3326.58
425.302	3410.55
425.51	3539.57
425.718	3727.99
425.925	3687.03
426.133	3750.51
426.341	4039.28
426.548	4217.45
426.756	4289.13
426.964	4323.94
427.171	4598.37
427.379	4747.87
427.586	4778.59
427.794	4895.33
428.001	5091.93
428.209	5397.08
428.417	5327.45
428.624	5653.08
428.832	5718.61
429.039	5595.73
429.247	5558.87
429.454	6107.73
429.662	6537.8
429.869	6281.8
430.076	6568.52
430.284	6361.67
430.491	6804.03
430.699	7195.2
430.906	6998.59
431.114	7213.63
431.321	7217.72
431.528	7561.78
431.736	7840.31
431.943	8268.33
432.15	8219.18
432.358	8344.11
432.565	8667.69
432.772	8821.28
432.979	9140.77
433.187	9286.17
433.394	9402.91
433.601	9896.47
433.808	9787.93
434.016	9902.61
434.223	10199.57
434.43	10992.13
434.637	10826.25
434.844	11473.4
435.052	11520.51
435.259	11579.9
435.466	11659.77
435.673	11612.67
435.88	12341.74
436.087	13015.52
436.294	12913.13
436.501	12648.94
436.708	12800.49
436.915	13584.86
437.122	13953.49
437.329	13910.49
437.537	14254.55
437.743	14860.74
437.95	14594.51
438.157	15317.44
438.364	15858.1
438.571	15786.43
438.778	15829.43
438.985	17324.45
439.192	16775.59
439.399	17207.72
439.606	16765.35
439.813	17729.95
440.02	19016.07
440.227	18428.31
440.433	18481.55
440.64	18827.66
440.847	18682.25
441.054	19177.86
441.261	20668.78
441.467	20361.59
441.674	21125.48
441.881	21393.76
442.088	21610.85
442.294	21305.7
442.501	21725.54
442.708	22518.1
442.914	23159.11
443.121	24152.38
443.328	23660.87
443.534	25383.21
443.741	24588.6
443.948	24174.91
444.154	25932.06
444.361	25854.24
444.568	25911.58
444.774	25944.35
444.981	26300.7
445.187	26988.81
445.394	28375.29
445.6	28166.4
445.807	30468.31
446.013	29382.89
446.22	30054.62
446.426	31297.74
446.633	31092.94
446.839	32368.83
447.046	30953.68
447.252	32508.09
447.459	32544.95
447.665	32829.62
447.871	34228.38
448.078	35829.9
448.284	33863.85
448.491	35053.72
448.697	35940.49
448.903	36810.87
449.11	36829.3
449.316	36042.88
449.522	37075.06
449.728	38285.41
449.935	38541.41
450.141	38314.08
450.347	39508.05
450.553	37638.25
450.76	38776.92
450.966	39663.69
451.172	39358.55
451.378	40237.12
451.584	39577.68
451.791	40464.45
451.997	40271.94
452.203	40826.94
452.409	41277.49
452.615	40640.57
452.821	39524.43
453.027	39043.16
453.233	40851.52
453.44	39409.75
453.646	39884.87
453.852	40110.15
454.058	40659.01
454.264	39561.29
454.47	40302.66
454.676	39258.2
454.882	40816.7
455.088	37027.96
455.294	38056.04
455.5	38391.9
455.705	38819.93
455.911	37290.1
456.117	36579.45
456.323	36413.57
456.529	34271.39
456.735	35690.63
456.941	34914.45
457.147	34080.93
457.352	33061.04
457.558	32872.63
457.764	33122.48
457.97	32549.05
458.176	31441.1
458.381	31717.57
458.587	30079.2
458.793	30130.4
458.999	28664.05
459.204	30759.13
459.41	29812.96
459.616	27756.8
459.821	27775.23
460.027	27908.35
460.233	27035.92
460.438	25669.92
460.644	26220.83
460.85	24672.56
461.055	24467.77
461.261	24478.01
461.466	22507.86
461.672	22120.79
461.878	23443.78
462.083	22014.3
462.289	21526.88
462.494	21424.48
462.7	20308.34
462.905	20152.7
463.111	20652.4
463.316	20402.55
463.522	20070.78
463.727	20369.78
463.932	20064.63
464.138	19929.47
464.343	19964.28
464.549	19714.43
464.754	20244.85
464.959	19908.99
465.165	19794.3
465.37	18676.11
465.575	18512.27
465.781	19204.49
465.986	19396.99
466.191	18346.39
466.397	18143.64
466.602	17547.68
466.807	17977.75
467.012	18241.94
