Data from USB4F104151__50__12-27-31-453.txt Node

Date: Fri Mar 14 12:27:31 EDT 2025
User: louis
Spectrometer: USB4F10415
Trigger mode: 4
Integration Time (sec): 2.000000E-2
Scans to average: 1
Electric dark correction enabled: true
Nonlinearity correction enabled: false
Boxcar width: 0
XAxis mode: Wavelengths
Number of Pixels in Spectrum: 3648
>>>>>Begin Spectral Data<<<<<
178.204	-68.44
178.424	-68.44
178.644	-68.44
178.864	-21.33
179.084	-84.82
179.304	-39.76
179.524	-0.85
179.744	50.35
179.964	-4.95
180.184	-78.68
180.404	48.3
180.624	31.91
180.844	7.34
181.064	-25.43
181.283	11.43
181.503	-37.72
181.723	38.06
181.943	1.19
182.163	50.35
182.383	27.82
182.602	33.96
182.822	-0.85
183.042	42.15
183.262	38.06
183.482	23.72
183.701	3.24
183.921	11.43
184.141	50.35
184.361	31.91
184.58	-43.86
184.8	68.78
185.02	7.34
185.239	9.39
185.459	-21.33
185.679	27.82
185.898	-39.76
186.118	-33.62
186.338	42.15
186.557	40.11
186.777	1.19
186.997	95.4
187.216	-11.09
187.436	165.03
187.655	54.44
187.875	64.68
188.095	85.16
188.314	7.34
188.534	107.69
188.753	7.34
188.973	-39.76
189.192	13.48
189.412	36.01
189.631	81.07
189.851	40.11
190.07	91.31
190.29	21.67
190.509	-23.38
190.729	15.53
190.948	66.73
191.168	48.3
191.387	134.31
191.607	15.53
191.826	13.48
192.045	33.96
192.265	25.77
192.484	5.29
192.704	76.97
192.923	-39.76
193.142	72.87
193.362	-2.9
193.581	5.29
193.8	-17.24
194.02	33.96
194.239	85.16
194.458	115.88
194.678	-21.33
194.897	11.43
195.116	25.77
195.335	33.96
195.555	44.2
195.774	31.91
195.993	70.83
196.212	19.63
196.432	56.49
196.651	-21.33
196.87	17.58
197.089	97.45
197.308	79.02
197.528	36.01
197.747	70.83
197.966	-45.91
198.185	124.07
198.404	31.91
198.623	68.78
198.842	23.72
199.062	76.97
199.281	27.82
199.5	-11.09
199.719	7.34
199.938	79.02
200.157	31.91
200.376	38.06
200.595	76.97
200.814	-45.91
201.033	76.97
201.252	70.83
201.471	40.11
201.69	54.44
201.909	31.91
202.128	48.3
202.347	50.35
202.566	44.2
202.785	1.19
203.004	50.35
203.223	87.21
203.442	-11.09
203.661	42.15
203.879	-13.14
204.098	-60.24
204.317	40.11
204.536	-0.85
204.755	48.3
204.974	64.68
205.193	58.54
205.411	27.82
205.63	44.2
205.849	40.11
206.068	25.77
206.287	1.19
206.505	97.45
206.724	33.96
206.943	-41.81
207.162	42.15
207.381	25.77
207.599	23.72
207.818	33.96
208.037	-45.91
208.255	9.39
208.474	85.16
208.693	56.49
208.911	81.07
209.13	11.43
209.349	3.24
209.567	3.24
209.786	25.77
210.005	11.43
210.223	25.77
210.442	-19.29
210.661	29.87
210.879	46.25
211.098	29.87
211.316	74.92
211.535	23.72
211.753	-17.24
211.972	31.91
212.191	54.44
212.409	-4.95
212.628	15.53
212.846	33.96
213.065	66.73
213.283	40.11
213.502	7.34
213.72	21.67
213.938	29.87
214.157	33.96
214.375	60.59
214.594	60.59
214.812	27.82
215.031	85.16
215.249	-0.85
215.467	95.4
215.686	54.44
215.904	56.49
216.122	31.91
216.341	76.97
216.559	5.29
216.778	60.59
216.996	36.01
217.214	40.11
217.432	50.35
217.651	23.72
217.869	70.83
218.087	62.63
218.306	42.15
218.524	25.77
218.742	7.34
218.96	93.35
219.179	25.77
219.397	-4.95
219.615	27.82
219.833	74.92
220.051	-23.38
220.27	44.2
220.488	62.63
220.706	48.3
220.924	54.44
221.142	66.73
221.36	48.3
221.578	48.3
221.796	-23.38
222.015	54.44
222.233	7.34
222.451	58.54
222.669	31.91
222.887	79.02
223.105	-4.95
223.323	23.72
223.541	-27.48
223.759	7.34
223.977	-29.52
224.195	105.64
224.413	68.78
224.631	23.72
224.849	40.11
225.067	46.25
225.285	27.82
225.503	1.19
225.721	5.29
225.939	27.82
226.157	124.07
226.375	128.17
226.592	-0.85
226.81	46.25
227.028	76.97
227.246	58.54
227.464	83.11
227.682	66.73
227.9	17.58
228.117	46.25
228.335	-13.14
228.553	40.11
228.771	58.54
228.989	50.35
229.206	19.63
229.424	19.63
229.642	40.11
229.86	-21.33
230.077	66.73
230.295	105.64
230.513	19.63
230.731	91.31
230.948	54.44
231.166	48.3
231.384	3.24
231.601	38.06
231.819	60.59
232.037	-33.62
232.254	56.49
232.472	15.53
232.689	-0.85
232.907	58.54
233.125	17.58
233.342	23.72
233.56	-54.1
233.777	19.63
233.995	95.4
234.213	52.39
234.43	3.24
234.648	27.82
234.865	31.91
235.083	126.12
235.3	44.2
235.518	99.5
235.735	42.15
235.953	89.26
236.17	3.24
236.388	21.67
236.605	5.29
236.822	89.26
237.04	91.31
237.257	62.63
237.475	99.5
237.692	19.63
237.909	62.63
238.127	19.63
238.344	56.49
238.562	74.92
238.779	-0.85
238.996	-19.29
239.214	-25.43
239.431	105.64
239.648	9.39
239.865	95.4
240.083	91.31
240.3	40.11
240.517	66.73
240.735	29.87
240.952	29.87
241.169	48.3
241.386	25.77
241.603	-19.29
241.821	1.19
242.038	58.54
242.255	11.43
242.472	-21.33
242.689	68.78
242.907	62.63
243.124	46.25
243.341	33.96
243.558	5.29
243.775	76.97
243.992	-29.52
244.209	52.39
244.426	54.44
244.643	62.63
244.86	64.68
245.078	38.06
245.295	-2.9
245.512	38.06
245.729	-58.2
245.946	44.2
246.163	19.63
246.38	44.2
246.597	25.77
246.814	99.5
247.031	66.73
247.248	29.87
247.464	29.87
247.681	52.39
247.898	93.35
248.115	33.96
248.332	-23.38
248.549	64.68
248.766	111.78
248.983	74.92
249.2	-45.91
249.417	103.59
249.633	64.68
249.85	23.72
250.067	25.77
250.284	-7
250.501	9.39
250.717	46.25
250.934	64.68
251.151	44.2
251.368	17.58
251.585	11.43
251.801	38.06
252.018	60.59
252.235	70.83
252.451	25.77
252.668	68.78
252.885	119.98
253.102	87.21
253.318	62.63
253.535	48.3
253.752	46.25
253.968	44.2
254.185	-80.72
254.401	33.96
254.618	-21.33
254.835	-11.09
255.051	31.91
255.268	95.4
255.484	33.96
255.701	48.3
255.917	-31.57
256.134	62.63
256.351	-13.14
256.567	19.63
256.784	97.45
257	-11.09
257.217	33.96
257.433	64.68
257.65	56.49
257.866	66.73
258.082	66.73
258.299	-13.14
258.515	-23.38
258.732	-9.05
258.948	5.29
259.165	1.19
259.381	50.35
259.597	-41.81
259.814	15.53
260.03	-11.09
260.246	-17.24
260.463	50.35
260.679	-21.33
260.895	31.91
261.112	113.83
261.328	42.15
261.544	105.64
261.761	38.06
261.977	11.43
262.193	36.01
262.409	103.59
262.626	17.58
262.842	40.11
263.058	-62.29
263.274	91.31
263.49	56.49
263.707	1.19
263.923	76.97
264.139	50.35
264.355	15.53
264.571	64.68
264.787	33.96
265.004	115.88
265.22	3.24
265.436	1.19
265.652	29.87
265.868	101.55
266.084	54.44
266.3	27.82
266.516	15.53
266.732	7.34
266.948	44.2
267.164	25.77
267.38	3.24
267.596	36.01
267.812	89.26
268.028	81.07
268.244	42.15
268.46	126.12
268.676	103.59
268.892	44.2
269.108	5.29
269.324	33.96
269.54	31.91
269.756	50.35
269.972	58.54
270.188	5.29
270.403	-17.24
270.619	87.21
270.835	62.63
271.051	52.39
271.267	36.01
271.483	50.35
271.698	40.11
271.914	46.25
272.13	25.77
272.346	11.43
272.562	68.78
272.777	44.2
272.993	19.63
273.209	27.82
273.425	21.67
273.64	33.96
273.856	54.44
274.072	105.64
274.287	19.63
274.503	23.72
274.719	89.26
274.934	1.19
275.15	81.07
275.366	13.48
275.581	13.48
275.797	3.24
276.012	-64.34
276.228	48.3
276.444	-11.09
276.659	111.78
276.875	85.16
277.09	74.92
277.306	-13.14
277.521	-2.9
277.737	9.39
277.952	17.58
278.168	27.82
278.383	54.44
278.599	-31.57
278.814	66.73
279.03	29.87
279.245	68.78
279.461	-17.24
279.676	-0.85
279.892	19.63
280.107	70.83
280.322	-4.95
280.538	-13.14
280.753	-4.95
280.969	9.39
281.184	33.96
281.399	44.2
281.615	103.59
281.83	17.58
282.045	-19.29
282.26	124.07
282.476	46.25
282.691	85.16
282.906	1.19
283.122	11.43
283.337	1.19
283.552	25.77
283.767	66.73
283.983	70.83
284.198	13.48
284.413	101.55
284.628	29.87
284.843	68.78
285.058	68.78
285.274	56.49
285.489	11.43
285.704	160.94
285.919	1.19
286.134	74.92
286.349	-19.29
286.564	42.15
286.779	36.01
286.995	-23.38
287.21	62.63
287.425	-29.52
287.64	27.82
287.855	36.01
288.07	79.02
288.285	46.25
288.5	117.93
288.715	81.07
288.93	-27.48
289.145	-35.67
289.36	21.67
289.575	-45.91
289.79	95.4
290.004	19.63
290.219	36.01
290.434	95.4
290.649	7.34
290.864	46.25
291.079	31.91
291.294	1.19
291.509	19.63
291.724	-45.91
291.938	25.77
292.153	-27.48
292.368	31.91
292.583	74.92
292.798	124.07
293.012	83.11
293.227	101.55
293.442	36.01
293.657	-50
293.871	27.82
294.086	-9.05
294.301	3.24
294.516	52.39
294.73	93.35
294.945	-4.95
295.16	-15.19
295.374	58.54
295.589	-17.24
295.804	-29.52
296.018	54.44
296.233	62.63
296.447	27.82
296.662	-15.19
296.877	70.83
297.091	19.63
297.306	40.11
297.52	-62.29
297.735	-9.05
297.949	60.59
298.164	105.64
298.378	23.72
298.593	17.58
298.807	-2.9
299.022	79.02
299.236	44.2
299.451	79.02
299.665	21.67
299.88	76.97
300.094	66.73
300.309	95.4
300.523	44.2
300.737	72.87
300.952	36.01
301.166	62.63
301.381	36.01
301.595	64.68
301.809	87.21
302.024	7.34
302.238	38.06
302.452	27.82
302.667	54.44
302.881	76.97
303.095	85.16
303.309	42.15
303.524	81.07
303.738	85.16
303.952	19.63
304.166	19.63
304.381	68.78
304.595	27.82
304.809	1.19
305.023	79.02
305.237	95.4
305.452	-13.14
305.666	54.44
305.88	36.01
306.094	15.53
306.308	-29.52
306.522	-11.09
306.736	29.87
306.95	-39.76
307.164	-45.91
307.379	5.29
307.593	85.16
307.807	46.25
308.021	-23.38
308.235	15.53
308.449	-9.05
308.663	74.92
308.877	122.02
309.091	44.2
309.305	-25.43
309.519	-29.52
309.733	60.59
309.947	-13.14
310.161	62.63
310.374	68.78
310.588	101.55
310.802	38.06
311.016	99.5
311.23	40.11
311.444	-15.19
311.658	38.06
311.872	-0.85
312.085	68.78
312.299	13.48
312.513	81.07
312.727	44.2
312.941	29.87
313.154	38.06
313.368	1.19
313.582	79.02
313.796	33.96
314.009	44.2
314.223	95.4
314.437	95.4
314.651	46.25
314.864	7.34
315.078	85.16
315.292	23.72
315.505	58.54
315.719	44.2
315.933	109.74
316.146	40.11
316.36	64.68
316.573	72.87
316.787	124.07
317.001	68.78
317.214	19.63
317.428	36.01
317.641	11.43
317.855	33.96
318.068	81.07
318.282	29.87
318.495	97.45
318.709	29.87
318.922	13.48
319.136	21.67
319.349	66.73
319.563	11.43
319.776	21.67
319.99	-37.72
320.203	62.63
320.417	15.53
320.63	70.83
320.843	105.64
321.057	58.54
321.27	52.39
321.483	87.21
321.697	85.16
321.91	38.06
322.124	89.26
322.337	-13.14
322.55	5.29
322.763	64.68
322.977	83.11
323.19	111.78
323.403	36.01
323.617	44.2
323.83	97.45
324.043	-66.39
324.256	9.39
324.469	62.63
324.683	93.35
324.896	19.63
325.109	29.87
325.322	87.21
325.535	105.64
325.748	89.26
325.962	70.83
326.175	3.24
326.388	36.01
326.601	40.11
326.814	27.82
327.027	-9.05
327.24	48.3
327.453	72.87
327.666	83.11
327.879	3.24
328.092	95.4
328.305	81.07
328.518	42.15
328.731	11.43
328.944	13.48
329.157	33.96
329.37	36.01
329.583	29.87
329.796	105.64
330.009	38.06
330.222	115.88
330.435	105.64
330.648	109.74
330.861	50.35
331.073	109.74
331.286	124.07
331.499	66.73
331.712	-11.09
331.925	44.2
332.138	-23.38
332.35	95.4
332.563	52.39
332.776	40.11
332.989	54.44
333.202	-17.24
333.414	23.72
333.627	38.06
333.84	9.39
334.053	134.31
334.265	44.2
334.478	81.07
334.691	42.15
334.903	105.64
335.116	50.35
335.329	5.29
335.541	76.97
335.754	85.16
335.966	122.02
336.179	31.91
336.392	29.87
336.604	19.63
336.817	17.58
337.029	-0.85
337.242	-35.67
337.454	91.31
337.667	83.11
337.88	124.07
338.092	62.63
338.305	76.97
338.517	-11.09
338.729	119.98
338.942	15.53
339.154	-33.62
339.367	44.2
339.579	27.82
339.792	113.83
340.004	91.31
340.217	44.2
340.429	-7
340.641	74.92
340.854	40.11
341.066	79.02
341.278	72.87
341.491	52.39
341.703	44.2
341.915	-2.9
342.128	-0.85
342.34	40.11
342.552	74.92
342.764	111.78
342.977	89.26
343.189	-7
343.401	115.88
343.613	64.68
343.826	3.24
344.038	5.29
344.25	99.5
344.462	52.39
344.674	15.53
344.886	93.35
345.099	81.07
345.311	58.54
345.523	83.11
345.735	11.43
345.947	36.01
346.159	60.59
346.371	89.26
346.583	85.16
346.795	91.31
347.007	58.54
347.219	76.97
347.431	99.5
347.643	79.02
347.855	-82.77
348.067	25.77
348.279	93.35
348.491	56.49
348.703	81.07
348.915	97.45
349.127	11.43
349.339	3.24
349.551	31.91
349.763	36.01
349.975	7.34
350.187	93.35
350.399	62.63
350.61	27.82
350.822	38.06
351.034	31.91
351.246	23.72
351.458	27.82
351.669	48.3
351.881	58.54
352.093	113.83
352.305	126.12
352.517	111.78
352.728	128.17
352.94	54.44
353.152	79.02
353.363	54.44
353.575	44.2
353.787	81.07
353.999	27.82
354.21	136.36
354.422	36.01
354.633	29.87
354.845	13.48
355.057	85.16
355.268	48.3
355.48	5.29
355.692	97.45
355.903	130.22
356.115	58.54
356.326	36.01
356.538	99.5
356.749	101.55
356.961	101.55
357.172	89.26
357.384	60.59
357.595	130.22
357.807	148.65
358.018	56.49
358.23	40.11
358.441	50.35
358.653	9.39
358.864	-9.05
359.075	38.06
359.287	29.87
359.498	42.15
359.709	72.87
359.921	29.87
360.132	101.55
360.344	60.59
360.555	1.19
360.766	48.3
360.977	70.83
361.189	111.78
361.4	48.3
361.611	85.16
361.823	76.97
362.034	138.41
362.245	95.4
362.456	-9.05
362.667	19.63
362.879	56.49
363.09	19.63
363.301	93.35
363.512	48.3
363.723	21.67
363.935	42.15
364.146	68.78
364.357	64.68
364.568	13.48
364.779	50.35
364.99	13.48
365.201	33.96
365.412	74.92
365.623	62.63
365.834	60.59
366.045	60.59
366.256	117.93
366.467	58.54
366.678	38.06
366.889	36.01
367.1	13.48
367.311	9.39
367.522	-19.29
367.733	50.35
367.944	81.07
368.155	89.26
368.366	7.34
368.577	85.16
368.788	89.26
368.999	25.77
369.209	111.78
369.42	109.74
369.631	132.26
369.842	36.01
370.053	11.43
370.264	52.39
370.474	48.3
370.685	50.35
370.896	91.31
371.107	97.45
371.317	62.63
371.528	-4.95
371.739	122.02
371.95	101.55
372.16	81.07
372.371	29.87
372.582	54.44
372.792	42.15
373.003	38.06
373.214	93.35
373.424	56.49
373.635	31.91
373.846	-11.09
374.056	74.92
374.267	23.72
374.477	93.35
374.688	68.78
374.898	85.16
375.109	36.01
375.319	21.67
375.53	42.15
375.74	103.59
375.951	3.24
376.161	33.96
376.372	83.11
376.582	3.24
376.793	38.06
377.003	33.96
377.214	31.91
377.424	72.87
377.635	66.73
377.845	54.44
378.055	150.7
378.266	44.2
378.476	50.35
378.686	76.97
378.897	126.12
379.107	138.41
379.317	46.25
379.528	105.64
379.738	50.35
379.948	-2.9
380.158	74.92
380.369	89.26
380.579	105.64
380.789	29.87
380.999	48.3
381.21	134.31
381.42	97.45
381.63	42.15
381.84	99.5
382.05	99.5
382.261	31.91
382.471	83.11
382.681	132.26
382.891	150.7
383.101	72.87
383.311	54.44
383.521	5.29
383.731	72.87
383.941	93.35
384.151	40.11
384.361	140.46
384.571	79.02
384.781	83.11
384.991	72.87
385.201	105.64
385.411	126.12
385.621	66.73
385.831	52.39
386.041	52.39
386.251	56.49
386.461	115.88
386.671	109.74
386.881	105.64
387.091	76.97
387.301	117.93
387.511	68.78
387.72	74.92
387.93	66.73
388.14	66.73
388.35	3.24
388.56	119.98
388.769	13.48
388.979	72.87
389.189	19.63
389.399	68.78
389.609	15.53
389.818	154.79
390.028	79.02
390.238	66.73
390.447	152.74
390.657	52.39
390.867	-35.67
391.076	48.3
391.286	56.49
391.496	33.96
391.705	70.83
391.915	187.56
392.125	124.07
392.334	91.31
392.544	138.41
392.753	62.63
392.963	50.35
393.172	76.97
393.382	171.18
393.591	122.02
393.801	15.53
394.01	101.55
394.22	60.59
394.429	70.83
394.639	93.35
394.848	115.88
395.058	29.87
395.267	89.26
395.477	103.59
395.686	54.44
395.895	154.79
396.105	119.98
396.314	62.63
396.524	79.02
396.733	156.84
396.942	140.46
397.152	81.07
397.361	111.78
397.57	128.17
397.78	152.74
397.989	33.96
398.198	111.78
398.407	74.92
398.617	62.63
398.826	91.31
399.035	85.16
399.244	95.4
399.453	93.35
399.663	169.13
399.872	201.9
400.081	115.88
400.29	72.87
400.499	66.73
400.708	162.98
400.917	66.73
401.127	105.64
401.336	179.37
401.545	175.27
401.754	56.49
401.963	107.69
402.172	134.31
402.381	165.03
402.59	146.6
402.799	117.93
403.008	136.36
403.217	81.07
403.426	109.74
403.635	105.64
403.844	162.98
404.053	132.26
404.262	103.59
404.471	208.04
404.68	226.47
404.888	210.09
405.097	74.92
405.306	165.03
405.515	216.23
405.724	173.22
405.933	201.9
406.142	220.33
406.35	242.85
406.559	183.46
406.768	201.9
406.977	271.53
407.185	160.94
407.394	199.85
407.603	169.13
407.812	214.18
408.02	216.23
408.229	228.52
408.438	275.62
408.646	285.86
408.855	287.91
409.064	234.66
409.272	257.19
409.481	275.62
409.69	322.73
409.898	361.64
410.107	375.97
410.315	384.16
410.524	304.29
410.733	361.64
410.941	455.84
411.15	474.28
411.358	431.27
411.567	408.74
411.775	439.46
411.984	433.32
412.192	464.04
412.401	443.56
412.609	502.95
412.818	537.76
413.026	488.61
413.234	599.2
413.443	625.83
413.651	548
413.86	588.96
414.068	648.35
414.276	681.12
414.485	674.98
414.693	658.59
414.901	769.18
415.11	720.03
415.318	804
415.526	715.94
415.734	849.05
415.943	842.91
416.151	918.68
416.359	916.64
416.567	879.77
416.776	1023.13
416.984	1039.51
417.192	1010.84
417.4	963.74
417.608	1078.43
417.817	1094.81
418.025	1160.34
418.233	1297.56
418.441	1240.22
418.649	1244.31
418.857	1410.2
419.065	1389.72
419.273	1420.44
419.481	1473.68
419.689	1528.98
419.897	1610.9
420.105	1660.05
420.313	1741.97
420.521	1758.35
420.729	1735.82
420.937	1737.87
421.145	1868.94
421.353	2000.01
421.561	2022.54
421.769	2200.71
421.977	2124.94
422.185	2143.37
422.393	2313.35
422.601	2546.82
422.809	2253.96
423.017	2555.01
423.224	2663.55
423.432	2665.6
423.64	2751.62
423.848	2950.27
424.056	2882.69
424.263	3144.83
424.471	2989.18
424.679	3220.6
424.887	3228.79
425.094	3398.77
425.302	3433.59
425.51	3560.56
425.718	3714.16
425.925	3744.88
426.133	3832.94
426.341	4011.12
426.548	4244.59
426.756	4260.97
426.964	4224.11
427.171	4529.25
427.379	4619.36
427.586	4889.7
427.794	4865.12
428.001	5094.49
428.209	5385.3
428.417	5207.13
428.624	5411.93
428.832	5715.03
429.039	5532.76
429.247	5416.02
429.454	6159.44
429.662	6478.92
429.869	6063.18
430.076	6603.85
430.284	6366.28
430.491	6585.41
430.699	6974.53
430.906	6851.65
431.114	7128.13
431.321	7291.96
431.528	7611.45
431.736	8111.15
431.943	8580.14
432.15	8336.43
432.358	8197.17
432.565	8809.51
432.772	8541.22
432.979	9090.08
433.187	9200.67
433.394	9409.56
433.601	9956.37
433.808	9903.12
434.016	10007.57
434.223	10333.2
434.43	10904.58
434.637	10681.35
434.844	11430.91
435.052	11484.16
435.259	11580.41
435.466	11717.62
435.673	11584.51
435.88	12311.53
436.087	12880.87
436.294	12940.26
436.501	12645.35
436.708	12905.45
436.915	13267.94
437.122	13939.67
437.329	14031.83
437.537	14539.72
437.743	14934.98
437.95	14523.34
438.157	15227.84
438.364	15809.47
438.571	15647.68
438.778	15737.79
438.985	17499.04
439.192	16790.44
439.399	17210.28
439.606	16880.55
439.813	17779.61
440.02	18736.01
440.227	18391.95
440.433	18451.35
440.64	19063.69
440.847	18871.18
441.054	19682.17
441.261	20749.17
441.467	20378.48
441.674	20654.96
441.881	21160.81
442.088	21173.1
442.294	21308.26
442.501	21721.95
442.708	22188.89
442.914	23331.65
443.121	24312.63
443.328	23522.12
443.534	25389.86
443.741	24664.88
443.948	23870.27
444.154	26069.79
444.361	25662.24
444.568	26014.49
444.774	26114.84
444.981	26307.35
445.187	26774.29
445.394	28087.04
445.6	28027.65
445.807	30515.93
446.013	29297.39
446.22	29811.43
446.426	30999.25
446.633	31374.03
446.839	31791.81
447.046	30876.37
447.252	32545.47
447.459	32850.61
447.665	32834.23
447.871	34097.83
448.078	35375.76
448.284	33960.61
448.491	34787.99
448.697	36102.79
448.903	36379.26
449.11	36799.1
449.316	36145.8
449.522	37175.92
449.728	38113.89
449.935	38212.2
450.141	38257.25
450.347	39187.03
450.553	37876.33
450.76	38316.64
450.966	39369.3
451.172	39440.98
451.378	40100.42
451.584	39338.58
451.791	40337.99
451.997	40149.57
452.203	40604.22
452.409	41384.5
452.615	40804.92
452.821	39127.64
453.027	38933.08
453.233	40542.78
453.44	39670.35
453.646	39709.26
453.852	40387.14
454.058	40454.72
454.264	39502.42
454.47	39656.01
454.676	39062.1
454.882	40766.01
455.088	36948.6
455.294	37526.13
455.5	38433.38
455.705	38605.41
455.911	37171.83
456.117	36571.77
456.323	36004.49
456.529	34038.44
456.735	35566.22
456.941	34523.8
457.147	34153.12
457.352	33358.51
457.558	32867
457.764	32901.81
457.97	32187.07
458.176	31281.87
458.381	31795.91
458.587	29809.38
458.793	30116.58
458.999	28246.78
459.204	30323.42
459.41	29977.31
459.616	27785.99
459.821	27575.05
460.027	27677.44
460.233	26962.7
460.438	25621.28
460.644	25971.49
460.85	24701.75
461.055	24566.58
461.261	24568.63
461.466	22698.83
461.672	21795.68
461.878	23345.99
462.083	21971.8
462.289	21445.48
462.494	21257.06
462.7	20472.69
462.905	19866.49
463.111	20509.55
463.316	20401.01
463.522	20118.39
463.727	20353.91
463.932	20091.77
464.138	19860.35
464.343	20005.75
464.549	19583.87
464.754	19946.36
464.959	19481.47
465.165	19604.35
465.37	18783.12
465.575	18350.99
465.781	19231.62
465.986	19510.14
466.191	18406.29
466.397	18178.97
466.602	17040.29
466.807	17808.28
467.012	18148.25
467.218	17716.12
467.423	17660.83
