Data from USB4F104151__64__12-27-41-591.txt Node

Date: Fri Mar 14 12:27:41 EDT 2025
User: louis
Spectrometer: USB4F10415
Trigger mode: 4
Integration Time (sec): 2.000000E-2
Scans to average: 1
Electric dark correction enabled: true
Nonlinearity correction enabled: false
Boxcar width: 0
XAxis mode: Wavelengths
Number of Pixels in Spectrum: 3648
>>>>>Begin Spectral Data<<<<<
178.204	-88.57
178.424	-88.57
178.644	-88.57
178.864	-107.01
179.084	-57.86
179.304	-68.09
179.524	-49.66
179.744	-8.7
179.964	46.59
180.184	-23.04
180.404	-20.99
180.624	-92.67
180.844	48.64
181.064	-2.56
181.283	28.16
181.503	30.21
181.723	112.13
181.943	-68.09
182.163	11.78
182.383	-115.2
182.602	-16.9
182.822	-25.09
183.042	-33.28
183.262	-12.8
183.482	-61.95
183.701	-18.94
183.921	30.21
184.141	26.11
184.361	-18.94
184.58	24.06
184.8	-0.51
185.02	11.78
185.239	1.54
185.459	-39.42
185.679	93.69
185.898	-29.18
186.118	5.63
186.338	36.35
186.557	-37.38
186.777	-43.52
186.997	19.97
187.216	-0.51
187.436	126.46
187.655	28.16
187.875	22.02
188.095	-33.28
188.314	40.45
188.534	-14.85
188.753	26.11
188.973	-6.66
189.192	26.11
189.412	13.82
189.631	42.5
189.851	46.59
190.07	60.93
190.29	-23.04
190.509	-0.51
190.729	-31.23
190.948	-20.99
191.168	46.59
191.387	-72.19
191.607	-23.04
191.826	28.16
192.045	36.35
192.265	-14.85
192.484	11.78
192.704	5.63
192.923	-27.14
193.142	-6.66
193.362	3.58
193.581	54.78
193.8	-55.81
194.02	67.07
194.239	15.87
194.458	-37.38
194.678	-25.09
194.897	-39.42
195.116	-51.71
195.335	-10.75
195.555	24.06
195.774	-55.81
195.993	11.78
196.212	-2.56
196.432	9.73
196.651	17.92
196.87	-27.14
197.089	67.07
197.308	-18.94
197.528	-6.66
197.747	-10.75
197.966	-0.51
198.185	38.4
198.404	7.68
198.623	-10.75
198.842	-4.61
199.062	-6.66
199.281	7.68
199.5	-90.62
199.719	17.92
199.938	65.02
200.157	-35.33
200.376	5.63
200.595	-14.85
200.814	28.16
201.033	-23.04
201.252	-12.8
201.471	-6.66
201.69	60.93
201.909	-37.38
202.128	7.68
202.347	50.69
202.566	17.92
202.785	26.11
203.004	-55.81
203.223	60.93
203.442	-4.61
203.661	13.82
203.879	17.92
204.098	30.21
204.317	-55.81
204.536	87.55
204.755	-8.7
204.974	13.82
205.193	-12.8
205.411	93.69
205.63	-4.61
205.849	-23.04
206.068	11.78
206.287	24.06
206.505	40.45
206.724	26.11
206.943	3.58
207.162	-12.8
207.381	-23.04
207.599	19.97
207.818	-27.14
208.037	7.68
208.255	-18.94
208.474	93.69
208.693	-18.94
208.911	-66.05
209.13	-10.75
209.349	71.17
209.567	7.68
209.786	-2.56
210.005	-16.9
210.223	-55.81
210.442	26.11
210.661	-8.7
210.879	-43.52
211.098	9.73
211.316	15.87
211.535	28.16
211.753	15.87
211.972	-25.09
212.191	-49.66
212.409	34.3
212.628	-31.23
212.846	36.35
213.065	42.5
213.283	38.4
213.502	-100.86
213.72	-57.86
213.938	54.78
214.157	-18.94
214.375	48.64
214.594	5.63
214.812	40.45
215.031	-35.33
215.249	22.02
215.467	9.73
215.686	-16.9
215.904	24.06
216.122	-35.33
216.341	9.73
216.559	-4.61
216.778	-98.81
216.996	30.21
217.214	-16.9
217.432	7.68
217.651	-8.7
217.869	-0.51
218.087	-12.8
218.306	-0.51
218.524	-29.18
218.742	32.26
218.96	36.35
219.179	48.64
219.397	19.97
219.615	24.06
219.833	-29.18
220.051	-41.47
220.27	54.78
220.488	-16.9
220.706	30.21
220.924	-41.47
221.142	-45.57
221.36	-33.28
221.578	26.11
221.796	54.78
222.015	5.63
222.233	22.02
222.451	69.12
222.669	-51.71
222.887	-16.9
223.105	-35.33
223.323	38.4
223.541	19.97
223.759	5.63
223.977	-12.8
224.195	-68.09
224.413	77.31
224.631	11.78
224.849	81.41
225.067	19.97
225.285	-18.94
225.503	44.54
225.721	56.83
225.939	40.45
226.157	-16.9
226.375	26.11
226.592	-88.57
226.81	19.97
227.028	91.65
227.246	91.65
227.464	54.78
227.682	15.87
227.9	1.54
228.117	-49.66
228.335	-23.04
228.553	-23.04
228.771	1.54
228.989	19.97
229.206	46.59
229.424	-29.18
229.642	7.68
229.86	24.06
230.077	60.93
230.295	46.59
230.513	-41.47
230.731	1.54
230.948	5.63
231.166	40.45
231.384	15.87
231.601	-59.9
231.819	19.97
232.037	30.21
232.254	-12.8
232.472	28.16
232.689	26.11
232.907	5.63
233.125	32.26
233.342	52.74
233.56	50.69
233.777	-16.9
233.995	-18.94
234.213	54.78
234.43	46.59
234.648	-2.56
234.865	-14.85
235.083	19.97
235.3	5.63
235.518	62.98
235.735	24.06
235.953	17.92
236.17	13.82
236.388	77.31
236.605	-23.04
236.822	13.82
237.04	9.73
237.257	-39.42
237.475	28.16
237.692	52.74
237.909	24.06
238.127	7.68
238.344	22.02
238.562	101.89
238.779	-37.38
238.996	-55.81
239.214	19.97
239.431	32.26
239.648	97.79
239.865	87.55
240.083	56.83
240.3	17.92
240.517	-25.09
240.735	7.68
240.952	28.16
241.169	-31.23
241.386	26.11
241.603	-12.8
241.821	13.82
242.038	11.78
242.255	93.69
242.472	-59.9
242.689	-39.42
242.907	13.82
243.124	9.73
243.341	-16.9
243.558	-27.14
243.775	-4.61
243.992	-47.62
244.209	-0.51
244.426	17.92
244.643	-6.66
244.86	17.92
245.078	15.87
245.295	-4.61
245.512	1.54
245.729	30.21
245.946	28.16
246.163	19.97
246.38	-12.8
246.597	38.4
246.814	-2.56
247.031	-31.23
247.248	13.82
247.464	11.78
247.681	71.17
247.898	54.78
248.115	-14.85
248.332	-51.71
248.549	7.68
248.766	67.07
248.983	-31.23
249.2	-33.28
249.417	56.83
249.633	-2.56
249.85	3.58
250.067	5.63
250.284	46.59
250.501	13.82
250.717	-41.47
250.934	-70.14
251.151	38.4
251.368	-25.09
251.585	-23.04
251.801	-25.09
252.018	13.82
252.235	-20.99
252.451	-55.81
252.668	-14.85
252.885	7.68
253.102	-27.14
253.318	-14.85
253.535	-20.99
253.752	-12.8
253.968	1.54
254.185	-45.57
254.401	122.37
254.618	42.5
254.835	19.97
255.051	44.54
255.268	26.11
255.484	30.21
255.701	-16.9
255.917	-8.7
256.134	-10.75
256.351	-47.62
256.567	13.82
256.784	-45.57
257	-53.76
257.217	85.5
257.433	26.11
257.65	13.82
257.866	19.97
258.082	58.88
258.299	-76.29
258.515	24.06
258.732	1.54
258.948	-33.28
259.165	22.02
259.381	-27.14
259.597	56.83
259.814	40.45
260.03	-39.42
260.246	50.69
260.463	32.26
260.679	46.59
260.895	-41.47
261.112	3.58
261.328	40.45
261.544	91.65
261.761	34.3
261.977	-6.66
262.193	-16.9
262.409	5.63
262.626	-0.51
262.842	-10.75
263.058	-29.18
263.274	28.16
263.49	28.16
263.707	42.5
263.923	60.93
264.139	5.63
264.355	-12.8
264.571	48.64
264.787	52.74
265.004	22.02
265.22	58.88
265.436	-2.56
265.652	67.07
265.868	19.97
266.084	13.82
266.3	30.21
266.516	17.92
266.732	19.97
266.948	-4.61
267.164	22.02
267.38	-23.04
267.596	-37.38
267.812	32.26
268.028	44.54
268.244	36.35
268.46	-16.9
268.676	26.11
268.892	46.59
269.108	26.11
269.324	-31.23
269.54	17.92
269.756	-49.66
269.972	32.26
270.188	-6.66
270.403	-29.18
270.619	22.02
270.835	13.82
271.051	-18.94
271.267	69.12
271.483	3.58
271.698	19.97
271.914	-82.43
272.13	-49.66
272.346	-14.85
272.562	11.78
272.777	75.26
272.993	5.63
273.209	-10.75
273.425	-8.7
273.64	-31.23
273.856	7.68
274.072	28.16
274.287	46.59
274.503	-6.66
274.719	-29.18
274.934	-2.56
275.15	-8.7
275.366	58.88
275.581	17.92
275.797	5.63
276.012	-25.09
276.228	-6.66
276.444	-25.09
276.659	-20.99
276.875	-45.57
277.09	26.11
277.306	-12.8
277.521	30.21
277.737	-18.94
277.952	30.21
278.168	73.21
278.383	-57.86
278.599	5.63
278.814	42.5
279.03	-47.62
279.245	-6.66
279.461	-31.23
279.676	-57.86
279.892	13.82
280.107	-68.09
280.322	-31.23
280.538	-8.7
280.753	-39.42
280.969	103.93
281.184	22.02
281.399	36.35
281.615	-20.99
281.83	-53.76
282.045	-41.47
282.26	-10.75
282.476	13.82
282.691	40.45
282.906	5.63
283.122	7.68
283.337	-78.33
283.552	1.54
283.767	-14.85
283.983	-4.61
284.198	-12.8
284.413	36.35
284.628	-64
284.843	7.68
285.058	1.54
285.274	48.64
285.489	22.02
285.704	103.93
285.919	-14.85
286.134	-12.8
286.349	-0.51
286.564	3.58
286.779	40.45
286.995	11.78
287.21	-18.94
287.425	7.68
287.64	38.4
287.855	17.92
288.07	-20.99
288.285	77.31
288.5	85.5
288.715	67.07
288.93	-35.33
289.145	48.64
289.36	17.92
289.575	83.45
289.79	7.68
290.004	-78.33
290.219	77.31
290.434	-18.94
290.649	17.92
290.864	24.06
291.079	-10.75
291.294	-29.18
291.509	69.12
291.724	15.87
291.938	3.58
292.153	24.06
292.368	-39.42
292.583	-8.7
292.798	19.97
293.012	-8.7
293.227	-31.23
293.442	-8.7
293.657	42.5
293.871	62.98
294.086	-33.28
294.301	65.02
294.516	-41.47
294.73	9.73
294.945	24.06
295.16	62.98
295.374	81.41
295.589	71.17
295.804	34.3
296.018	-10.75
296.233	-8.7
296.447	3.58
296.662	11.78
296.877	19.97
297.091	-41.47
297.306	-4.61
297.52	-0.51
297.735	32.26
297.949	7.68
298.164	5.63
298.378	-2.56
298.593	-14.85
298.807	50.69
299.022	38.4
299.236	-2.56
299.451	132.61
299.665	15.87
299.88	22.02
300.094	32.26
300.309	99.84
300.523	58.88
300.737	-27.14
300.952	-0.51
301.166	65.02
301.381	7.68
301.595	-35.33
301.809	26.11
302.024	52.74
302.238	-14.85
302.452	44.54
302.667	-49.66
302.881	3.58
303.095	-64
303.309	28.16
303.524	9.73
303.738	34.3
303.952	9.73
304.166	26.11
304.381	-14.85
304.595	38.4
304.809	-8.7
305.023	71.17
305.237	54.78
305.452	30.21
305.666	7.68
305.88	15.87
306.094	17.92
306.308	-0.51
306.522	9.73
306.736	-10.75
306.95	-0.51
307.164	-0.51
307.379	-12.8
307.593	17.92
307.807	42.5
308.021	5.63
308.235	13.82
308.449	48.64
308.663	3.58
308.877	-8.7
309.091	15.87
309.305	46.59
309.519	42.5
309.733	-16.9
309.947	-57.86
310.161	40.45
310.374	48.64
310.588	11.78
310.802	-10.75
311.016	-20.99
311.23	15.87
311.444	-6.66
311.658	1.54
311.872	-35.33
312.085	62.98
312.299	-10.75
312.513	30.21
312.727	48.64
312.941	5.63
313.154	60.93
313.368	54.78
313.582	-39.42
313.796	17.92
314.009	-20.99
314.223	62.98
314.437	32.26
314.651	5.63
314.864	-2.56
315.078	67.07
315.292	17.92
315.505	17.92
315.719	19.97
315.933	-6.66
316.146	30.21
316.36	-29.18
316.573	5.63
316.787	67.07
317.001	24.06
317.214	-12.8
317.428	75.26
317.641	-29.18
317.855	13.82
318.068	7.68
318.282	32.26
318.495	44.54
318.709	50.69
318.922	-23.04
319.136	44.54
319.349	-29.18
319.563	5.63
319.776	-12.8
319.99	40.45
320.203	3.58
320.417	-18.94
320.63	56.83
320.843	-12.8
321.057	1.54
321.27	-59.9
321.483	-23.04
321.697	3.58
321.91	71.17
322.124	3.58
322.337	11.78
322.55	-18.94
322.763	15.87
322.977	28.16
323.19	-66.05
323.403	28.16
323.617	28.16
323.83	151.04
324.043	-6.66
324.256	62.98
324.469	-37.38
324.683	24.06
324.896	-18.94
325.109	-4.61
325.322	-16.9
325.535	56.83
325.748	50.69
325.962	-23.04
326.175	-72.19
326.388	42.5
326.601	-16.9
326.814	36.35
327.027	-41.47
327.24	19.97
327.453	-29.18
327.666	67.07
327.879	34.3
328.092	-4.61
328.305	30.21
328.518	42.5
328.731	73.21
328.944	26.11
329.157	-8.7
329.37	3.58
329.583	52.74
329.796	38.4
330.009	-35.33
330.222	28.16
330.435	13.82
330.648	-18.94
330.861	40.45
331.073	-25.09
331.286	105.98
331.499	30.21
331.712	-39.42
331.925	3.58
332.138	-2.56
332.35	56.83
332.563	-27.14
332.776	13.82
332.989	17.92
333.202	112.13
333.414	-10.75
333.627	73.21
333.84	-2.56
334.053	95.74
334.265	34.3
334.478	-31.23
334.691	46.59
334.903	13.82
335.116	-31.23
335.329	81.41
335.541	36.35
335.754	54.78
335.966	30.21
336.179	-2.56
336.392	58.88
336.604	36.35
336.817	1.54
337.029	26.11
337.242	56.83
337.454	32.26
337.667	46.59
337.88	71.17
338.092	60.93
338.305	46.59
338.517	11.78
338.729	42.5
338.942	62.98
339.154	42.5
339.367	-2.56
339.579	-31.23
339.792	-41.47
340.004	-16.9
340.217	19.97
340.429	60.93
340.641	67.07
340.854	42.5
341.066	40.45
341.278	58.88
341.491	81.41
341.703	26.11
341.915	1.54
342.128	71.17
342.34	52.74
342.552	36.35
342.764	-31.23
342.977	-33.28
343.189	13.82
343.401	83.45
343.613	30.21
343.826	44.54
344.038	-18.94
344.25	19.97
344.462	17.92
344.674	95.74
344.886	40.45
345.099	-23.04
345.311	46.59
345.523	9.73
345.735	-0.51
345.947	28.16
346.159	60.93
346.371	-57.86
346.583	7.68
346.795	40.45
347.007	13.82
347.219	58.88
347.431	40.45
347.643	65.02
347.855	1.54
348.067	89.6
348.279	-10.75
348.491	75.26
348.703	130.56
348.915	28.16
349.127	73.21
349.339	-4.61
349.551	-33.28
349.763	32.26
349.975	-12.8
350.187	-0.51
350.399	65.02
350.61	38.4
350.822	13.82
351.034	-4.61
351.246	-14.85
351.458	38.4
351.669	-18.94
351.881	50.69
352.093	19.97
352.305	-10.75
352.517	15.87
352.728	52.74
352.94	148.99
353.152	112.13
353.363	-16.9
353.575	38.4
353.787	60.93
353.999	-35.33
354.21	40.45
354.422	15.87
354.633	15.87
354.845	19.97
355.057	22.02
355.268	22.02
355.48	11.78
355.692	-27.14
355.903	13.82
356.115	-2.56
356.326	26.11
356.538	28.16
356.749	36.35
356.961	46.59
357.172	-18.94
357.384	-14.85
357.595	81.41
357.807	48.64
358.018	32.26
358.23	52.74
358.441	77.31
358.653	69.12
358.864	15.87
359.075	36.35
359.287	-6.66
359.498	58.88
359.709	81.41
359.921	-10.75
360.132	-23.04
360.344	36.35
360.555	-8.7
360.766	85.5
360.977	3.58
361.189	69.12
361.4	50.69
361.611	46.59
361.823	3.58
362.034	69.12
362.245	28.16
362.456	24.06
362.667	17.92
362.879	34.3
363.09	1.54
363.301	-27.14
363.512	-8.7
363.723	3.58
363.935	19.97
364.146	3.58
364.357	-2.56
364.568	-4.61
364.779	15.87
364.99	79.36
365.201	15.87
365.412	1.54
365.623	-27.14
365.834	30.21
366.045	58.88
366.256	60.93
366.467	50.69
366.678	9.73
366.889	50.69
367.1	-23.04
367.311	-20.99
367.522	-2.56
367.733	-18.94
367.944	71.17
368.155	42.5
368.366	9.73
368.577	32.26
368.788	75.26
368.999	54.78
369.209	46.59
369.42	19.97
369.631	75.26
369.842	44.54
370.053	91.65
370.264	42.5
370.474	46.59
370.685	-23.04
370.896	46.59
371.107	36.35
371.317	44.54
371.528	-41.47
371.739	7.68
371.95	-4.61
372.16	54.78
372.371	71.17
372.582	7.68
372.792	17.92
373.003	97.79
373.214	28.16
373.424	13.82
373.635	60.93
373.846	52.74
374.056	40.45
374.267	5.63
374.477	65.02
374.688	26.11
374.898	-8.7
375.109	75.26
375.319	56.83
375.53	30.21
375.74	17.92
375.951	24.06
376.161	93.69
376.372	112.13
376.582	-8.7
376.793	11.78
377.003	40.45
377.214	19.97
377.424	36.35
377.635	-10.75
377.845	17.92
378.055	-37.38
378.266	-29.18
378.476	44.54
378.686	79.36
378.897	-18.94
379.107	65.02
379.317	26.11
379.528	30.21
379.738	69.12
379.948	19.97
380.158	-18.94
380.369	-29.18
380.579	30.21
380.789	46.59
380.999	52.74
381.21	40.45
381.42	89.6
381.63	-10.75
381.84	-4.61
382.05	-10.75
382.261	38.4
382.471	11.78
382.681	54.78
382.891	77.31
383.101	36.35
383.311	-0.51
383.521	44.54
383.731	89.6
383.941	105.98
384.151	13.82
384.361	30.21
384.571	22.02
384.781	42.5
384.991	56.83
385.201	81.41
385.411	24.06
385.621	52.74
385.831	19.97
386.041	-8.7
386.251	26.11
386.461	17.92
386.671	1.54
386.881	26.11
387.091	62.98
387.301	50.69
387.511	9.73
387.72	36.35
387.93	13.82
388.14	11.78
388.35	30.21
388.56	60.93
388.769	38.4
388.979	56.83
389.189	126.46
389.399	62.98
389.609	3.58
389.818	83.45
390.028	-27.14
390.238	54.78
390.447	40.45
390.657	52.74
390.867	44.54
391.076	1.54
391.286	81.41
391.496	44.54
391.705	67.07
391.915	79.36
392.125	13.82
392.334	15.87
392.544	19.97
392.753	24.06
392.963	42.5
393.172	-51.71
393.382	13.82
393.591	38.4
393.801	32.26
394.01	89.6
394.22	28.16
394.429	73.21
394.639	22.02
394.848	36.35
395.058	87.55
395.267	52.74
395.477	85.5
395.686	144.89
395.895	103.93
396.105	69.12
396.314	-2.56
396.524	15.87
396.733	24.06
396.942	83.45
397.152	26.11
397.361	32.26
397.57	50.69
397.78	95.74
397.989	58.88
398.198	165.37
398.407	44.54
398.617	-6.66
398.826	85.5
399.035	62.98
399.244	60.93
399.453	87.55
399.663	79.36
399.872	85.5
400.081	93.69
400.29	81.41
400.499	69.12
400.708	95.74
400.917	7.68
401.127	19.97
401.336	42.5
401.545	87.55
401.754	73.21
401.963	112.13
402.172	112.13
402.381	89.6
402.59	17.92
402.799	81.41
403.008	67.07
403.217	67.07
403.426	44.54
403.635	75.26
403.844	73.21
404.053	73.21
404.262	105.98
404.471	136.7
404.68	144.89
404.888	77.31
405.097	93.69
405.306	91.65
405.515	28.16
405.724	73.21
405.933	95.74
406.142	157.18
406.35	81.41
406.559	144.89
406.768	138.75
406.977	124.41
407.185	130.56
407.394	210.43
407.603	91.65
407.812	192
408.02	140.8
408.229	202.24
408.438	169.47
408.646	134.65
408.855	206.33
409.064	222.72
409.272	251.39
409.481	212.48
409.69	222.72
409.898	142.85
410.107	208.38
410.315	212.48
410.524	165.37
410.733	237.05
410.941	261.63
411.15	271.87
411.358	273.92
411.567	200.19
411.775	271.87
411.984	286.2
412.192	292.35
412.401	275.96
412.609	374.27
412.818	302.59
413.026	316.92
413.234	351.74
413.443	376.31
413.651	404.99
413.86	415.23
414.068	437.75
414.276	501.24
414.485	519.67
414.693	513.53
414.901	554.49
415.11	423.42
415.318	439.8
415.526	554.49
415.734	540.15
415.943	597.49
416.151	556.54
416.359	650.74
416.567	654.84
416.776	671.22
416.984	722.42
417.192	749.04
417.4	648.69
417.608	775.67
417.817	708.09
418.025	835.06
418.233	839.16
418.441	796.15
418.649	892.4
418.857	988.66
419.065	916.98
419.273	896.5
419.481	1046
419.689	1056.24
419.897	1070.58
420.105	1041.9
420.313	1175.02
420.521	1189.36
420.729	1263.08
420.937	1218.03
421.145	1297.9
421.353	1392.11
421.561	1363.44
421.769	1402.35
421.977	1496.55
422.185	1541.61
422.393	1592.81
422.601	1676.77
422.809	1691.11
423.017	1594.86
423.224	1723.88
423.432	1816.04
423.64	1818.08
423.848	1957.35
424.056	1994.21
424.263	2145.76
424.471	2108.9
424.679	2143.71
424.887	2285.02
425.094	2254.3
425.302	2455
425.51	2395.61
425.718	2649.56
425.925	2606.55
426.133	2674.14
426.341	2848.21
426.548	2870.74
426.756	3005.91
426.964	3028.43
427.171	3167.7
427.379	3136.98
427.586	3231.18
427.794	3409.36
428.001	3468.75
428.209	3698.12
428.417	3501.51
428.624	3839.43
428.832	3880.39
429.039	3907.01
429.247	3907.01
429.454	4191.68
429.662	4466.11
429.869	4304.32
430.076	4636.09
430.284	4304.32
430.491	4668.86
430.699	4828.6
430.906	4826.55
431.114	4933.04
431.321	5225.9
431.528	5230
431.736	5479.85
431.943	5844.39
432.15	5592.49
432.358	5633.45
432.565	6018.47
432.772	5936.55
432.979	6317.47
433.187	6507.93
433.394	6575.52
433.601	6954.39
433.808	7007.64
434.016	6985.11
434.223	7148.95
434.43	7671.18
434.637	7437.71
434.844	7843.21
435.052	8136.07
435.259	7964.04
435.466	8166.79
435.673	7933.32
435.88	8613.24
436.087	9082.23
436.294	8930.68
436.501	8756.6
436.708	9067.89
436.915	9282.93
437.122	9626.99
437.329	9719.15
437.537	9956.71
437.743	10204.52
437.95	10093.93
438.157	10661.21
438.364	10929.5
438.571	11052.38
438.778	11042.14
438.985	12309.83
439.192	11523.41
439.399	11957.58
439.606	11631.95
439.813	12444.99
440.02	13006.14
440.227	12858.68
440.433	12795.2
440.64	13208.89
440.847	13030.71
441.054	13331.76
441.261	14437.67
441.467	14089.51
441.674	14540.07
441.881	14941.47
442.088	14996.76
442.294	14945.56
442.501	15404.31
442.708	15707.41
442.914	16350.47
443.121	16903.42
443.328	16403.72
443.534	17538.29
443.741	16964.86
443.948	16747.78
444.154	18164.97
444.361	17929.45
444.568	18193.64
444.774	17986.8
444.981	18439.4
445.187	18918.62
445.394	19526.87
445.6	19483.86
445.807	21286.08
446.013	20401.35
446.22	20788.42
446.426	21621.94
446.633	21869.75
446.839	22500.52
447.046	21798.07
447.252	23049.38
447.459	23065.76
447.665	22949.03
447.871	24216.72
448.078	24822.92
448.284	24028.31
448.491	24317.07
448.697	25304.19
448.903	25584.76
449.11	25994.36
449.316	25631.86
449.522	26002.55
449.728	26629.23
449.935	26821.73
450.141	26924.13
450.347	27563.1
450.553	26772.58
450.76	26770.54
450.966	27741.27
451.172	27808.86
451.378	28435.53
451.584	27663.45
451.791	28134.48
451.997	28451.92
452.203	28582.99
452.409	28939.33
452.615	28689.48
452.821	27706.46
453.027	27456.61
453.233	28896.33
453.44	27483.23
453.646	28050.52
453.852	28306.51
454.058	28562.51
454.264	28019.8
454.47	28271.7
454.676	27782.23
454.882	28470.35
455.088	26160.24
455.294	26946.66
455.5	26961
455.705	26913.89
455.911	26018.93
456.117	25633.91
456.323	25447.55
456.529	24050.83
456.735	24939.65
456.941	24282.25
457.147	23940.24
457.352	23426.2
457.558	23030.94
457.764	23133.34
457.97	22367.4
458.176	22219.95
458.381	22133.93
458.587	21114.05
458.793	21206.2
458.999	20204.75
459.204	21421.24
459.41	20831.43
459.616	19342.55
459.821	19160.28
460.027	19426.52
460.233	18726.11
460.438	17884.4
460.644	18408.68
460.85	17511.67
461.055	17212.67
461.261	16751.87
461.466	15850.77
461.672	15430.93
461.878	16450.82
462.083	15203.61
462.289	15181.08
462.494	14955.8
462.7	14191.91
462.905	13913.39
463.111	14322.98
463.316	14486.82
463.522	14226.73
463.727	14423.33
463.932	14357.8
464.138	14021.93
464.343	14101.8
464.549	13829.42
464.754	14310.69
464.959	14167.34
465.165	13976.87
465.37	13335.86
465.575	12934.46
465.781	13561.14
465.986	13598
466.191	13063.48
466.397	12725.57
466.602	12141.89
466.807	12760.38
467.012	12772.67
467.218	12555.58
467.423	12225.86
467.628	12610.88
