Data from USB4F104151__31__12-27-14-603.txt Node

Date: Fri Mar 14 12:27:14 EDT 2025
User: louis
Spectrometer: USB4F10415
Trigger mode: 4
Integration Time (sec): 2.000000E-2
Scans to average: 1
Electric dark correction enabled: true
Nonlinearity correction enabled: false
Boxcar width: 0
XAxis mode: Wavelengths
Number of Pixels in Spectrum: 3648
>>>>>Begin Spectral Data<<<<<
178.204	-90.11
178.424	-90.11
178.644	-90.11
178.864	-88.06
179.084	-104.45
179.304	-32.77
179.524	-71.68
179.744	34.82
179.964	0
180.184	-30.72
180.404	57.34
180.624	-36.86
180.844	32.77
181.064	-63.49
181.283	22.53
181.503	38.91
181.723	49.15
181.943	-32.77
182.163	43.01
182.383	-28.67
182.602	49.15
182.822	26.62
183.042	-16.38
183.262	32.77
183.482	12.29
183.701	-20.48
183.921	-8.19
184.141	-34.82
184.361	71.68
184.58	12.29
184.8	14.34
185.02	16.38
185.239	69.63
185.459	47.1
185.679	-14.34
185.898	24.58
186.118	83.97
186.338	24.58
186.557	36.86
186.777	36.86
186.997	28.67
187.216	-32.77
187.436	38.91
187.655	38.91
187.875	12.29
188.095	16.38
188.314	75.77
188.534	49.15
188.753	22.53
188.973	-20.48
189.192	4.1
189.412	-16.38
189.631	26.62
189.851	77.82
190.07	34.82
190.29	22.53
190.509	40.96
190.729	28.67
190.948	36.86
191.168	161.79
191.387	118.78
191.607	16.38
191.826	61.44
192.045	8.19
192.265	47.1
192.484	14.34
192.704	30.72
192.923	-14.34
193.142	75.77
193.362	36.86
193.581	57.34
193.8	8.19
194.02	38.91
194.239	120.83
194.458	-10.24
194.678	-4.1
194.897	81.92
195.116	51.2
195.335	51.2
195.555	28.67
195.774	24.58
195.993	32.77
196.212	61.44
196.432	-24.58
196.651	8.19
196.87	57.34
197.089	75.77
197.308	40.96
197.528	55.3
197.747	20.48
197.966	2.05
198.185	6.14
198.404	-59.39
198.623	49.15
198.842	34.82
199.062	61.44
199.281	10.24
199.5	-30.72
199.719	47.1
199.938	2.05
200.157	10.24
200.376	18.43
200.595	69.63
200.814	59.39
201.033	22.53
201.252	96.25
201.471	-12.29
201.69	67.58
201.909	47.1
202.128	75.77
202.347	30.72
202.566	88.06
202.785	40.96
203.004	-71.68
203.223	90.11
203.442	-6.14
203.661	61.44
203.879	0
204.098	75.77
204.317	53.25
204.536	98.3
204.755	-8.19
204.974	83.97
205.193	47.1
205.411	61.44
205.63	43.01
205.849	77.82
206.068	133.12
206.287	-6.14
206.505	-6.14
206.724	28.67
206.943	108.54
207.162	-20.48
207.381	30.72
207.599	4.1
207.818	24.58
208.037	-4.1
208.255	40.96
208.474	32.77
208.693	53.25
208.911	65.53
209.13	4.1
209.349	32.77
209.567	51.2
209.786	18.43
210.005	71.68
210.223	59.39
210.442	14.34
210.661	49.15
210.879	24.58
211.098	-6.14
211.316	36.86
211.535	75.77
211.753	79.87
211.972	30.72
212.191	12.29
212.409	-10.24
212.628	86.01
212.846	30.72
213.065	-6.14
213.283	77.82
213.502	16.38
213.72	34.82
213.938	63.49
214.157	4.1
214.375	75.77
214.594	16.38
214.812	65.53
215.031	75.77
215.249	81.92
215.467	16.38
215.686	69.63
215.904	73.73
216.122	-4.1
216.341	90.11
216.559	79.87
216.778	34.82
216.996	110.59
217.214	2.05
217.432	-32.77
217.651	43.01
217.869	28.67
218.087	77.82
218.306	-14.34
218.524	45.06
218.742	14.34
218.96	159.74
219.179	-30.72
219.397	20.48
219.615	10.24
219.833	73.73
220.051	-71.68
220.27	28.67
220.488	145.41
220.706	36.86
220.924	12.29
221.142	81.92
221.36	108.54
221.578	88.06
221.796	-10.24
222.015	24.58
222.233	106.49
222.451	92.16
222.669	-4.1
222.887	90.11
223.105	-51.2
223.323	-32.77
223.541	81.92
223.759	24.58
223.977	-20.48
224.195	38.91
224.413	16.38
224.631	-43.01
224.849	90.11
225.067	51.2
225.285	14.34
225.503	73.73
225.721	8.19
225.939	34.82
226.157	22.53
226.375	86.01
226.592	-20.48
226.81	83.97
227.028	59.39
227.246	65.53
227.464	4.1
227.682	90.11
227.9	57.34
228.117	4.1
228.335	75.77
228.553	-12.29
228.771	36.86
228.989	38.91
229.206	98.3
229.424	-12.29
229.642	53.25
229.86	36.86
230.077	36.86
230.295	30.72
230.513	67.58
230.731	90.11
230.948	114.69
231.166	24.58
231.384	26.62
231.601	-12.29
231.819	24.58
232.037	-2.05
232.254	-10.24
232.472	47.1
232.689	-10.24
232.907	59.39
233.125	65.53
233.342	77.82
233.56	45.06
233.777	12.29
233.995	73.73
234.213	40.96
234.43	65.53
234.648	8.19
234.865	34.82
235.083	4.1
235.3	34.82
235.518	32.77
235.735	45.06
235.953	18.43
236.17	59.39
236.388	67.58
236.605	69.63
236.822	47.1
237.04	92.16
237.257	8.19
237.475	32.77
237.692	4.1
237.909	-10.24
238.127	65.53
238.344	61.44
238.562	20.48
238.779	61.44
238.996	2.05
239.214	-8.19
239.431	47.1
239.648	81.92
239.865	-18.43
240.083	28.67
240.3	24.58
240.517	2.05
240.735	36.86
240.952	45.06
241.169	20.48
241.386	83.97
241.603	108.54
241.821	53.25
242.038	53.25
242.255	36.86
242.472	16.38
242.689	79.87
242.907	98.3
243.124	-55.3
243.341	-2.05
243.558	53.25
243.775	-12.29
243.992	28.67
244.209	28.67
244.426	38.91
244.643	40.96
244.86	8.19
245.078	-30.72
245.295	18.43
245.512	18.43
245.729	14.34
245.946	45.06
246.163	22.53
246.38	0
246.597	24.58
246.814	47.1
247.031	6.14
247.248	4.1
247.464	22.53
247.681	18.43
247.898	63.49
248.115	12.29
248.332	49.15
248.549	22.53
248.766	24.58
248.983	51.2
249.2	0
249.417	16.38
249.633	-12.29
249.85	45.06
250.067	20.48
250.284	40.96
250.501	124.93
250.717	40.96
250.934	14.34
251.151	88.06
251.368	59.39
251.585	71.68
251.801	106.49
252.018	2.05
252.235	34.82
252.451	18.43
252.668	10.24
252.885	96.25
253.102	28.67
253.318	36.86
253.535	-2.05
253.752	81.92
253.968	79.87
254.185	18.43
254.401	30.72
254.618	2.05
254.835	90.11
255.051	86.01
255.268	96.25
255.484	98.3
255.701	69.63
255.917	69.63
256.134	104.45
256.351	61.44
256.567	28.67
256.784	51.2
257	-88.06
257.217	0
257.433	18.43
257.65	100.35
257.866	79.87
258.082	81.92
258.299	10.24
258.515	102.4
258.732	-32.77
258.948	71.68
259.165	69.63
259.381	69.63
259.597	14.34
259.814	8.19
260.03	-16.38
260.246	57.34
260.463	-8.19
260.679	53.25
260.895	-36.86
261.112	4.1
261.328	0
261.544	22.53
261.761	110.59
261.977	20.48
262.193	51.2
262.409	22.53
262.626	36.86
262.842	36.86
263.058	98.3
263.274	96.25
263.49	-14.34
263.707	20.48
263.923	-2.05
264.139	-47.1
264.355	-8.19
264.571	61.44
264.787	47.1
265.004	75.77
265.22	22.53
265.436	8.19
265.652	16.38
265.868	12.29
266.084	30.72
266.3	47.1
266.516	18.43
266.732	73.73
266.948	36.86
267.164	47.1
267.38	77.82
267.596	53.25
267.812	16.38
268.028	79.87
268.244	79.87
268.46	45.06
268.676	65.53
268.892	10.24
269.108	6.14
269.324	65.53
269.54	45.06
269.756	71.68
269.972	2.05
270.188	16.38
270.403	8.19
270.619	81.92
270.835	139.26
271.051	30.72
271.267	40.96
271.483	28.67
271.698	100.35
271.914	81.92
272.13	24.58
272.346	43.01
272.562	71.68
272.777	88.06
272.993	16.38
273.209	59.39
273.425	6.14
273.64	90.11
273.856	79.87
274.072	43.01
274.287	53.25
274.503	96.25
274.719	20.48
274.934	-10.24
275.15	-14.34
275.366	36.86
275.581	61.44
275.797	24.58
276.012	2.05
276.228	32.77
276.444	-6.14
276.659	18.43
276.875	-16.38
277.09	-2.05
277.306	40.96
277.521	38.91
277.737	69.63
277.952	61.44
278.168	-6.14
278.383	61.44
278.599	116.73
278.814	120.83
279.03	53.25
279.245	34.82
279.461	18.43
279.676	94.21
279.892	18.43
280.107	14.34
280.322	-8.19
280.538	61.44
280.753	53.25
280.969	28.67
281.184	63.49
281.399	24.58
281.615	40.96
281.83	55.3
282.045	38.91
282.26	30.72
282.476	24.58
282.691	86.01
282.906	51.2
283.122	18.43
283.337	47.1
283.552	67.58
283.767	4.1
283.983	51.2
284.198	36.86
284.413	-14.34
284.628	-24.58
284.843	18.43
285.058	59.39
285.274	-8.19
285.489	10.24
285.704	28.67
285.919	-2.05
286.134	108.54
286.349	18.43
286.564	49.15
286.779	53.25
286.995	2.05
287.21	40.96
287.425	92.16
287.64	-32.77
287.855	61.44
288.07	6.14
288.285	53.25
288.5	47.1
288.715	55.3
288.93	63.49
289.145	106.49
289.36	120.83
289.575	57.34
289.79	45.06
290.004	53.25
290.219	79.87
290.434	61.44
290.649	22.53
290.864	51.2
291.079	40.96
291.294	43.01
291.509	30.72
291.724	16.38
291.938	-10.24
292.153	61.44
292.368	53.25
292.583	75.77
292.798	104.45
293.012	30.72
293.227	83.97
293.442	53.25
293.657	45.06
293.871	86.01
294.086	45.06
294.301	4.1
294.516	45.06
294.73	2.05
294.945	30.72
295.16	71.68
295.374	47.1
295.589	77.82
295.804	26.62
296.018	120.83
296.233	20.48
296.447	-28.67
296.662	114.69
296.877	36.86
297.091	38.91
297.306	79.87
297.52	16.38
297.735	110.59
297.949	69.63
298.164	22.53
298.378	86.01
298.593	69.63
298.807	8.19
299.022	122.88
299.236	32.77
299.451	18.43
299.665	67.58
299.88	96.25
300.094	34.82
300.309	34.82
300.523	-4.1
300.737	63.49
300.952	49.15
301.166	53.25
301.381	-12.29
301.595	108.54
301.809	-22.53
302.024	61.44
302.238	20.48
302.452	135.17
302.667	96.25
302.881	124.93
303.095	81.92
303.309	73.73
303.524	22.53
303.738	57.34
303.952	69.63
304.166	120.83
304.381	-4.1
304.595	98.3
304.809	4.1
305.023	12.29
305.237	10.24
305.452	36.86
305.666	16.38
305.88	114.69
306.094	38.91
306.308	20.48
306.522	69.63
306.736	79.87
306.95	96.25
307.164	-16.38
307.379	43.01
307.593	45.06
307.807	-30.72
308.021	55.3
308.235	24.58
308.449	36.86
308.663	36.86
308.877	-6.14
309.091	30.72
309.305	-14.34
309.519	-40.96
309.733	110.59
309.947	8.19
310.161	47.1
310.374	104.45
310.588	81.92
310.802	28.67
311.016	-24.58
311.23	36.86
311.444	86.01
311.658	12.29
311.872	6.14
312.085	75.77
312.299	32.77
312.513	24.58
312.727	51.2
312.941	-10.24
313.154	22.53
313.368	14.34
313.582	112.64
313.796	51.2
314.009	53.25
314.223	79.87
314.437	51.2
314.651	110.59
314.864	86.01
315.078	71.68
315.292	53.25
315.505	34.82
315.719	49.15
315.933	38.91
316.146	-22.53
316.36	75.77
316.573	96.25
316.787	28.67
317.001	90.11
317.214	2.05
317.428	47.1
317.641	49.15
317.855	96.25
318.068	6.14
318.282	83.97
318.495	79.87
318.709	79.87
318.922	100.35
319.136	43.01
319.349	71.68
319.563	122.88
319.776	53.25
319.99	36.86
320.203	88.06
320.417	102.4
320.63	-20.48
320.843	81.92
321.057	2.05
321.27	34.82
321.483	34.82
321.697	55.3
321.91	73.73
322.124	61.44
322.337	40.96
322.55	-16.38
322.763	65.53
322.977	49.15
323.19	88.06
323.403	53.25
323.617	90.11
323.83	57.34
324.043	10.24
324.256	102.4
324.469	59.39
324.683	112.64
324.896	67.58
325.109	83.97
325.322	81.92
325.535	20.48
325.748	10.24
325.962	77.82
326.175	32.77
326.388	53.25
326.601	47.1
326.814	10.24
327.027	36.86
327.24	96.25
327.453	-14.34
327.666	79.87
327.879	69.63
328.092	81.92
328.305	63.49
328.518	65.53
328.731	63.49
328.944	53.25
329.157	20.48
329.37	22.53
329.583	24.58
329.796	79.87
330.009	-12.29
330.222	94.21
330.435	98.3
330.648	-20.48
330.861	75.77
331.073	28.67
331.286	34.82
331.499	34.82
331.712	120.83
331.925	163.84
332.138	30.72
332.35	88.06
332.563	34.82
332.776	77.82
332.989	43.01
333.202	0
333.414	51.2
333.627	53.25
333.84	-28.67
334.053	61.44
334.265	57.34
334.478	-6.14
334.691	18.43
334.903	120.83
335.116	14.34
335.329	-16.38
335.541	10.24
335.754	18.43
335.966	12.29
336.179	36.86
336.392	26.62
336.604	67.58
336.817	45.06
337.029	73.73
337.242	-26.62
337.454	2.05
337.667	180.22
337.88	90.11
338.092	141.31
338.305	51.2
338.517	12.29
338.729	63.49
338.942	34.82
339.154	53.25
339.367	14.34
339.579	98.3
339.792	43.01
340.004	65.53
340.217	77.82
340.429	-18.43
340.641	90.11
340.854	75.77
341.066	32.77
341.278	30.72
341.491	61.44
341.703	51.2
341.915	86.01
342.128	77.82
342.34	47.1
342.552	43.01
342.764	65.53
342.977	73.73
343.189	118.78
343.401	104.45
343.613	24.58
343.826	63.49
344.038	24.58
344.25	98.3
344.462	49.15
344.674	57.34
344.886	22.53
345.099	-10.24
345.311	51.2
345.523	100.35
345.735	-6.14
345.947	18.43
346.159	-24.58
346.371	36.86
346.583	45.06
346.795	55.3
347.007	43.01
347.219	94.21
347.431	18.43
347.643	49.15
347.855	10.24
348.067	86.01
348.279	-45.06
348.491	47.1
348.703	63.49
348.915	20.48
349.127	20.48
349.339	61.44
349.551	57.34
349.763	106.49
349.975	-10.24
350.187	59.39
350.399	51.2
350.61	53.25
350.822	51.2
351.034	8.19
351.246	30.72
351.458	77.82
351.669	36.86
351.881	40.96
352.093	47.1
352.305	10.24
352.517	83.97
352.728	106.49
352.94	28.67
353.152	2.05
353.363	49.15
353.575	69.63
353.787	47.1
353.999	59.39
354.21	73.73
354.422	-4.1
354.633	51.2
354.845	110.59
355.057	43.01
355.268	86.01
355.48	43.01
355.692	12.29
355.903	120.83
356.115	26.62
356.326	10.24
356.538	45.06
356.749	79.87
356.961	65.53
357.172	49.15
357.384	59.39
357.595	120.83
357.807	43.01
358.018	57.34
358.23	36.86
358.441	65.53
358.653	30.72
358.864	30.72
359.075	24.58
359.287	51.2
359.498	114.69
359.709	36.86
359.921	124.93
360.132	0
360.344	12.29
360.555	26.62
360.766	10.24
360.977	51.2
361.189	43.01
361.4	63.49
361.611	40.96
361.823	106.49
362.034	53.25
362.245	0
362.456	51.2
362.667	57.34
362.879	63.49
363.09	43.01
363.301	34.82
363.512	34.82
363.723	65.53
363.935	43.01
364.146	69.63
364.357	47.1
364.568	61.44
364.779	-8.19
364.99	126.97
365.201	47.1
365.412	38.91
365.623	8.19
365.834	118.78
366.045	94.21
366.256	88.06
366.467	55.3
366.678	36.86
366.889	51.2
367.1	-12.29
367.311	26.62
367.522	30.72
367.733	71.68
367.944	-10.24
368.155	131.07
368.366	129.02
368.577	4.1
368.788	61.44
368.999	18.43
369.209	73.73
369.42	77.82
369.631	129.02
369.842	79.87
370.053	53.25
370.264	131.07
370.474	94.21
370.685	104.45
370.896	118.78
371.107	104.45
371.317	12.29
371.528	67.58
371.739	16.38
371.95	67.58
372.16	79.87
372.371	36.86
372.582	45.06
372.792	69.63
373.003	75.77
373.214	43.01
373.424	71.68
373.635	83.97
373.846	8.19
374.056	38.91
374.267	61.44
374.477	34.82
374.688	40.96
374.898	71.68
375.109	79.87
375.319	61.44
375.53	45.06
375.74	69.63
375.951	67.58
376.161	92.16
376.372	36.86
376.582	8.19
376.793	57.34
377.003	75.77
377.214	36.86
377.424	90.11
377.635	53.25
377.845	71.68
378.055	75.77
378.266	69.63
378.476	61.44
378.686	75.77
378.897	49.15
379.107	120.83
379.317	145.41
379.528	32.77
379.738	26.62
379.948	-4.1
380.158	104.45
380.369	40.96
380.579	112.64
380.789	14.34
380.999	28.67
381.21	49.15
381.42	83.97
381.63	-12.29
381.84	96.25
382.05	12.29
382.261	112.64
382.471	71.68
382.681	63.49
382.891	104.45
383.101	63.49
383.311	45.06
383.521	-24.58
383.731	153.6
383.941	40.96
384.151	12.29
384.361	8.19
384.571	96.25
384.781	69.63
384.991	45.06
385.201	108.54
385.411	122.88
385.621	88.06
385.831	96.25
386.041	79.87
386.251	55.3
386.461	106.49
386.671	22.53
386.881	63.49
387.091	28.67
387.301	-10.24
387.511	124.93
387.72	12.29
387.93	30.72
388.14	69.63
388.35	-32.77
388.56	45.06
388.769	124.93
388.979	53.25
389.189	77.82
389.399	104.45
389.609	86.01
389.818	106.49
390.028	47.1
390.238	71.68
390.447	104.45
390.657	47.1
390.867	118.78
391.076	83.97
391.286	26.62
391.496	81.92
391.705	51.2
391.915	110.59
392.125	61.44
392.334	55.3
392.544	49.15
392.753	67.58
392.963	51.2
393.172	75.77
393.382	100.35
393.591	53.25
393.801	81.92
394.01	102.4
394.22	188.41
394.429	51.2
394.639	63.49
394.848	176.13
395.058	131.07
395.267	133.12
395.477	79.87
395.686	196.61
395.895	133.12
396.105	131.07
396.314	147.45
396.524	135.17
396.733	106.49
396.942	81.92
397.152	174.08
397.361	110.59
397.57	73.73
397.78	102.4
397.989	57.34
398.198	167.93
398.407	106.49
398.617	102.4
398.826	98.3
399.035	94.21
399.244	88.06
399.453	116.73
399.663	172.03
399.872	122.88
400.081	141.31
400.29	165.89
400.499	100.35
400.708	145.41
400.917	-12.29
401.127	167.93
401.336	47.1
401.545	137.21
401.754	153.6
401.963	40.96
402.172	126.97
402.381	147.45
402.59	131.07
402.799	192.51
403.008	102.4
403.217	98.3
403.426	212.99
403.635	204.8
403.844	217.08
404.053	180.22
404.262	143.36
404.471	81.92
404.68	149.5
404.888	163.84
405.097	249.85
405.306	258.04
405.515	161.79
405.724	174.08
405.933	217.08
406.142	202.75
406.35	157.69
406.559	247.8
406.768	204.8
406.977	237.56
407.185	299
407.394	243.71
407.603	200.7
407.812	288.76
408.02	270.33
408.229	272.38
408.438	190.46
408.646	249.85
408.855	335.87
409.064	264.19
409.272	221.18
409.481	299
409.69	417.79
409.898	303.1
410.107	415.74
410.315	407.55
410.524	327.67
410.733	366.59
410.941	409.59
411.15	450.55
411.358	436.22
411.567	471.03
411.775	473.08
411.984	475.13
412.192	555
412.401	434.17
412.609	509.94
412.818	598.01
413.026	620.53
413.234	522.23
413.443	628.73
413.651	610.29
413.86	696.31
414.068	671.73
414.276	702.45
414.485	577.53
414.693	710.65
414.901	802.8
415.11	806.9
415.318	747.51
415.526	876.53
415.734	843.76
415.943	903.15
416.151	862.19
416.359	991.22
416.567	1007.6
416.776	964.59
416.984	1017.84
417.192	1112.05
417.4	1122.29
417.608	1146.86
417.817	1187.82
418.025	1224.69
418.233	1316.84
418.441	1345.52
418.649	1394.67
418.857	1411.05
419.065	1548.26
419.273	1409
419.481	1581.03
419.689	1605.61
419.897	1814.5
420.105	1712.1
420.313	1843.17
420.521	1802.21
420.729	1787.88
420.937	1888.23
421.145	2002.91
421.353	2007.01
421.561	2232.29
421.769	2363.36
421.977	2316.25
422.185	2344.92
422.393	2582.49
422.601	2504.67
422.809	2609.11
423.017	2691.03
423.224	2846.68
423.432	2838.48
423.64	2850.77
423.848	3078.1
424.056	2910.16
424.263	3336.14
424.471	3239.89
424.679	3346.38
424.887	3526.6
425.094	3678.15
425.302	3606.47
425.51	3813.32
425.718	3921.86
425.925	3950.53
426.133	3993.54
426.341	4255.68
426.548	4489.15
426.756	4431.8
426.964	4571.07
427.171	4847.54
427.379	4995
427.586	5132.21
427.794	5203.89
428.001	5449.64
428.209	5707.69
428.417	5660.59
428.624	6074.28
428.832	6031.27
429.039	6033.32
429.247	5986.21
429.454	6551.45
429.662	6868.89
429.869	6483.87
430.076	7032.72
430.284	6754.2
430.491	7059.35
430.699	7360.4
430.906	7491.47
431.114	7511.95
431.321	8056.71
431.528	8093.57
431.736	8454.01
431.943	8771.45
432.15	8609.66
432.358	8796.03
432.565	9109.36
432.772	9383.79
432.979	9598.83
433.187	10067.81
433.394	9860.97
433.601	10358.63
433.808	10551.14
434.016	10348.39
434.223	11075.41
434.43	11706.19
434.637	11157.33
434.844	12453.7
435.052	12308.29
435.259	12306.24
435.466	12334.92
435.673	12533.57
435.88	13100.86
436.087	13631.28
436.294	13813.55
436.501	13598.51
436.708	13672.24
436.915	14313.25
437.122	14939.93
437.329	14784.29
437.537	15417.11
437.743	15712.02
437.95	15441.68
438.157	16181
438.364	16953.09
438.571	16727.81
438.778	16826.11
438.985	18542.31
439.192	17819.38
439.399	18202.35
439.606	18110.19
439.813	18956
440.02	20215.5
440.227	19599.06
440.433	19519.19
440.64	20256.46
440.847	19920.59
441.054	20850.37
441.261	21819.06
441.467	21833.39
441.674	22339.24
441.881	23115.42
442.088	23226.01
442.294	22900.39
442.501	23299.74
442.708	23768.73
442.914	24534.67
443.121	25597.56
443.328	24829.57
443.534	27080.29
443.741	25978.48
443.948	25738.87
444.154	27655.77
444.361	27297.38
444.568	27840.09
444.774	27434.59
444.981	28280.4
445.187	28565.07
445.394	30133.81
445.6	29847.1
445.807	32413.2
446.013	31563.29
446.22	31546.91
446.426	32990.73
446.633	33295.88
446.839	34418.16
447.046	32986.63
447.252	35007.98
447.459	35034.6
447.665	34776.56
447.871	36273.62
448.078	37955
448.284	36062.68
448.491	37164.49
448.697	38534.58
448.903	39341.48
449.11	38983.09
449.316	38612.4
449.522	39486.89
449.728	40775.06
449.935	40621.46
450.141	40738.19
450.347	41678.21
450.553	40138.14
450.76	41041.29
450.966	42313.08
451.172	41727.36
451.378	42546.55
451.584	41864.58
451.791	42728.82
451.997	42605.94
452.203	43838.82
452.409	43728.23
452.615	43746.66
452.821	41649.54
453.027	41536.9
453.233	43515.24
453.44	41565.57
453.646	42374.52
453.852	42378.62
454.058	43259.24
454.264	41770.37
454.47	42679.67
454.676	41932.16
454.882	43046.26
455.088	39611.81
455.294	40076.7
455.5	40869.26
455.705	41340.3
455.911	39685.54
456.117	38989.23
456.323	38501.81
456.529	36539.86
456.735	37854.65
456.941	36922.83
457.147	36388.31
457.352	35081.7
457.558	34891.24
457.764	34924.01
457.97	33983.99
458.176	33472
458.381	33504.77
458.587	31694.36
458.793	31858.2
458.999	30563.89
459.204	32415.25
459.41	31720.99
459.616	29441.6
459.821	29511.23
460.027	29077.06
460.233	28669.51
460.438	27219.55
460.644	28124.75
460.85	26357.36
461.055	26099.31
461.261	26011.25
461.466	23975.57
461.672	23264.92
461.878	25042.56
462.083	23381.66
462.289	22832.8
462.494	22541.99
462.7	21630.65
462.905	20938.43
463.111	21782.2
463.316	21778.1
463.522	21225.15
463.727	21354.17
463.932	21538.49
464.138	21046.97
464.343	21401.27
464.549	20551.37
464.754	21397.18
464.959	21055.17
465.165	20917.95
465.37	20100.81
465.575	19764.95
465.781	20385.48
465.986	20459.21
466.191	19764.95
466.397	19338.97
466.602	18417.38
466.807	19318.49
467.012	19224.28
467.218	19289.82
467.423	18845.41
467.628	18933.47
467.833	19523.29
468.038	18953.95
468.244	18384.62
