Data from USB4F104151__41__12-27-21-974.txt Node

Date: Fri Mar 14 12:27:21 EDT 2025
User: louis
Spectrometer: USB4F10415
Trigger mode: 4
Integration Time (sec): 2.000000E-2
Scans to average: 1
Electric dark correction enabled: true
Nonlinearity correction enabled: false
Boxcar width: 0
XAxis mode: Wavelengths
Number of Pixels in Spectrum: 3648
>>>>>Begin Spectral Data<<<<<
178.204	-62.98
178.424	-62.98
178.644	-62.98
178.864	-99.84
179.084	-65.02
179.304	29.18
179.524	-30.21
179.744	-56.83
179.964	2.56
180.184	35.33
180.404	80.38
180.624	68.09
180.844	-11.78
181.064	-83.45
181.283	25.09
181.503	-75.26
181.723	16.9
181.943	-13.82
182.163	37.38
182.383	39.42
182.602	45.57
182.822	82.43
183.042	57.86
183.262	55.81
183.482	-36.35
183.701	41.47
183.921	-5.63
184.141	-19.97
184.361	-28.16
184.58	59.9
184.8	102.91
185.02	-17.92
185.239	39.42
185.459	-1.54
185.679	64
185.898	-26.11
186.118	-24.06
186.338	-3.58
186.557	61.95
186.777	27.14
186.997	18.94
187.216	-38.4
187.436	64
187.655	-1.54
187.875	43.52
188.095	45.57
188.314	61.95
188.534	18.94
188.753	-17.92
188.973	53.76
189.192	29.18
189.412	43.52
189.631	66.05
189.851	33.28
190.07	53.76
190.29	55.81
190.509	8.7
190.729	-9.73
190.948	78.33
191.168	147.97
191.387	-17.92
191.607	-13.82
191.826	53.76
192.045	-32.26
192.265	45.57
192.484	43.52
192.704	-5.63
192.923	-34.3
193.142	57.86
193.362	104.96
193.581	8.7
193.8	-13.82
194.02	0.51
194.239	4.61
194.458	61.95
194.678	-26.11
194.897	12.8
195.116	-19.97
195.335	-5.63
195.555	-7.68
195.774	-34.3
195.993	4.61
196.212	-9.73
196.432	102.91
196.651	41.47
196.87	20.99
197.089	51.71
197.308	57.86
197.528	35.33
197.747	18.94
197.966	47.62
198.185	45.57
198.404	-9.73
198.623	-7.68
198.842	-22.02
199.062	80.38
199.281	113.15
199.5	4.61
199.719	70.14
199.938	27.14
200.157	102.91
200.376	-17.92
200.595	70.14
200.814	20.99
201.033	2.56
201.252	70.14
201.471	39.42
201.69	-1.54
201.909	10.75
202.128	68.09
202.347	-3.58
202.566	-7.68
202.785	8.7
203.004	-1.54
203.223	92.67
203.442	86.53
203.661	29.18
203.879	18.94
204.098	66.05
204.317	-38.4
204.536	94.72
204.755	10.75
204.974	107.01
205.193	37.38
205.411	78.33
205.63	104.96
205.849	51.71
206.068	14.85
206.287	35.33
206.505	80.38
206.724	27.14
206.943	41.47
207.162	20.99
207.381	74.24
207.599	16.9
207.818	98.81
208.037	-9.73
208.255	76.29
208.474	10.75
208.693	20.99
208.911	45.57
209.13	20.99
209.349	0.51
209.567	37.38
209.786	80.38
210.005	41.47
210.223	-15.87
210.442	-3.58
210.661	39.42
210.879	25.09
211.098	6.66
211.316	-34.3
211.535	20.99
211.753	86.53
211.972	84.48
212.191	23.04
212.409	18.94
212.628	8.7
212.846	64
213.065	31.23
213.283	51.71
213.502	78.33
213.72	64
213.938	33.28
214.157	-13.82
214.375	37.38
214.594	-77.31
214.812	70.14
215.031	23.04
215.249	74.24
215.467	20.99
215.686	57.86
215.904	39.42
216.122	82.43
216.341	2.56
216.559	100.86
216.778	37.38
216.996	53.76
217.214	66.05
217.432	12.8
217.651	43.52
217.869	8.7
218.087	59.9
218.306	10.75
218.524	-1.54
218.742	29.18
218.96	72.19
219.179	92.67
219.397	-5.63
219.615	47.62
219.833	74.24
220.051	55.81
220.27	121.34
220.488	45.57
220.706	61.95
220.924	18.94
221.142	57.86
221.36	59.9
221.578	-30.21
221.796	39.42
222.015	96.77
222.233	-52.74
222.451	98.81
222.669	-103.93
222.887	70.14
223.105	0.51
223.323	27.14
223.541	41.47
223.759	47.62
223.977	80.38
224.195	98.81
224.413	51.71
224.631	61.95
224.849	10.75
225.067	64
225.285	31.23
225.503	43.52
225.721	-7.68
225.939	6.66
226.157	59.9
226.375	107.01
226.592	37.38
226.81	8.7
227.028	41.47
227.246	74.24
227.464	4.61
227.682	150.01
227.9	94.72
228.117	-15.87
228.335	68.09
228.553	43.52
228.771	53.76
228.989	94.72
229.206	43.52
229.424	-44.54
229.642	35.33
229.86	-32.26
230.077	-34.3
230.295	29.18
230.513	6.66
230.731	10.75
230.948	14.85
231.166	109.05
231.384	-32.26
231.601	39.42
231.819	55.81
232.037	37.38
232.254	8.7
232.472	80.38
232.689	-34.3
232.907	82.43
233.125	37.38
233.342	78.33
233.56	27.14
233.777	33.28
233.995	61.95
234.213	53.76
234.43	55.81
234.648	49.66
234.865	98.81
235.083	20.99
235.3	6.66
235.518	68.09
235.735	53.76
235.953	72.19
236.17	18.94
236.388	23.04
236.605	-26.11
236.822	70.14
237.04	-13.82
237.257	51.71
237.475	-11.78
237.692	57.86
237.909	45.57
238.127	29.18
238.344	92.67
238.562	143.87
238.779	14.85
238.996	6.66
239.214	37.38
239.431	88.57
239.648	18.94
239.865	68.09
240.083	-24.06
240.3	41.47
240.517	23.04
240.735	14.85
240.952	88.57
241.169	129.53
241.386	33.28
241.603	29.18
241.821	-1.54
242.038	82.43
242.255	47.62
242.472	82.43
242.689	12.8
242.907	4.61
243.124	16.9
243.341	27.14
243.558	25.09
243.775	33.28
243.992	-9.73
244.209	66.05
244.426	2.56
244.643	102.91
244.86	0.51
245.078	70.14
245.295	154.11
245.512	4.61
245.729	33.28
245.946	64
246.163	57.86
246.38	27.14
246.597	25.09
246.814	-11.78
247.031	66.05
247.248	0.51
247.464	72.19
247.681	117.25
247.898	23.04
248.115	12.8
248.332	27.14
248.549	6.66
248.766	68.09
248.983	55.81
249.2	-17.92
249.417	41.47
249.633	33.28
249.85	59.9
250.067	84.48
250.284	53.76
250.501	-15.87
250.717	47.62
250.934	0.51
251.151	8.7
251.368	25.09
251.585	135.68
251.801	-1.54
252.018	-34.3
252.235	16.9
252.451	8.7
252.668	18.94
252.885	27.14
253.102	45.57
253.318	33.28
253.535	37.38
253.752	35.33
253.968	49.66
254.185	64
254.401	14.85
254.618	82.43
254.835	53.76
255.051	111.1
255.268	-15.87
255.484	61.95
255.701	25.09
255.917	100.86
256.134	0.51
256.351	23.04
256.567	-1.54
256.784	-3.58
257	-19.97
257.217	66.05
257.433	39.42
257.65	39.42
257.866	39.42
258.082	33.28
258.299	-56.83
258.515	64
258.732	0.51
258.948	-32.26
259.165	10.75
259.381	49.66
259.597	12.8
259.814	-42.5
260.03	14.85
260.246	37.38
260.463	8.7
260.679	86.53
260.895	78.33
261.112	43.52
261.328	-19.97
261.544	14.85
261.761	78.33
261.977	72.19
262.193	23.04
262.409	51.71
262.626	2.56
262.842	29.18
263.058	66.05
263.274	100.86
263.49	25.09
263.707	94.72
263.923	45.57
264.139	-13.82
264.355	-36.35
264.571	43.52
264.787	14.85
265.004	31.23
265.22	-40.45
265.436	84.48
265.652	12.8
265.868	78.33
266.084	57.86
266.3	57.86
266.516	-24.06
266.732	27.14
266.948	16.9
267.164	72.19
267.38	4.61
267.596	68.09
267.812	64
268.028	45.57
268.244	-26.11
268.46	82.43
268.676	4.61
268.892	80.38
269.108	74.24
269.324	2.56
269.54	-36.35
269.756	88.57
269.972	27.14
270.188	104.96
270.403	61.95
270.619	98.81
270.835	20.99
271.051	12.8
271.267	-1.54
271.483	23.04
271.698	-7.68
271.914	88.57
272.13	39.42
272.346	80.38
272.562	31.23
272.777	41.47
272.993	39.42
273.209	20.99
273.425	59.9
273.64	29.18
273.856	35.33
274.072	-15.87
274.287	88.57
274.503	66.05
274.719	-5.63
274.934	16.9
275.15	-17.92
275.366	25.09
275.581	29.18
275.797	35.33
276.012	35.33
276.228	4.61
276.444	100.86
276.659	70.14
276.875	-7.68
277.09	35.33
277.306	-54.78
277.521	27.14
277.737	72.19
277.952	57.86
278.168	53.76
278.383	39.42
278.599	-17.92
278.814	29.18
279.03	-22.02
279.245	90.62
279.461	31.23
279.676	-3.58
279.892	-32.26
280.107	-5.63
280.322	-30.21
280.538	35.33
280.753	-9.73
280.969	20.99
281.184	49.66
281.399	104.96
281.615	8.7
281.83	27.14
282.045	-17.92
282.26	94.72
282.476	51.71
282.691	29.18
282.906	12.8
283.122	53.76
283.337	-13.82
283.552	33.28
283.767	78.33
283.983	66.05
284.198	-7.68
284.413	51.71
284.628	20.99
284.843	6.66
285.058	51.71
285.274	43.52
285.489	39.42
285.704	47.62
285.919	-9.73
286.134	66.05
286.349	-34.3
286.564	6.66
286.779	55.81
286.995	55.81
287.21	-9.73
287.425	55.81
287.64	37.38
287.855	27.14
288.07	14.85
288.285	72.19
288.5	100.86
288.715	18.94
288.93	35.33
289.145	-22.02
289.36	74.24
289.575	-15.87
289.79	68.09
290.004	45.57
290.219	-3.58
290.434	-19.97
290.649	-50.69
290.864	4.61
291.079	45.57
291.294	0.51
291.509	-26.11
291.724	20.99
291.938	55.81
292.153	74.24
292.368	41.47
292.583	78.33
292.798	61.95
293.012	47.62
293.227	6.66
293.442	31.23
293.657	107.01
293.871	86.53
294.086	27.14
294.301	37.38
294.516	49.66
294.73	51.71
294.945	-15.87
295.16	-1.54
295.374	-9.73
295.589	70.14
295.804	66.05
296.018	53.76
296.233	100.86
296.447	47.62
296.662	-13.82
296.877	20.99
297.091	104.96
297.306	-30.21
297.52	14.85
297.735	35.33
297.949	66.05
298.164	-15.87
298.378	0.51
298.593	18.94
298.807	27.14
299.022	88.57
299.236	49.66
299.451	2.56
299.665	-1.54
299.88	72.19
300.094	45.57
300.309	18.94
300.523	29.18
300.737	10.75
300.952	55.81
301.166	33.28
301.381	27.14
301.595	12.8
301.809	-40.45
302.024	20.99
302.238	23.04
302.452	94.72
302.667	-42.5
302.881	25.09
303.095	113.15
303.309	4.61
303.524	-5.63
303.738	8.7
303.952	51.71
304.166	18.94
304.381	-17.92
304.595	25.09
304.809	39.42
305.023	64
305.237	18.94
305.452	102.91
305.666	20.99
305.88	41.47
306.094	23.04
306.308	47.62
306.522	-11.78
306.736	31.23
306.95	94.72
307.164	61.95
307.379	53.76
307.593	78.33
307.807	16.9
308.021	53.76
308.235	-24.06
308.449	61.95
308.663	-3.58
308.877	57.86
309.091	68.09
309.305	41.47
309.519	-44.54
309.733	47.62
309.947	2.56
310.161	29.18
310.374	35.33
310.588	115.2
310.802	41.47
311.016	49.66
311.23	-5.63
311.444	29.18
311.658	45.57
311.872	76.29
312.085	35.33
312.299	119.29
312.513	66.05
312.727	78.33
312.941	0.51
313.154	78.33
313.368	59.9
313.582	23.04
313.796	29.18
314.009	70.14
314.223	86.53
314.437	25.09
314.651	47.62
314.864	-52.74
315.078	31.23
315.292	80.38
315.505	33.28
315.719	100.86
315.933	90.62
316.146	43.52
316.36	66.05
316.573	37.38
316.787	0.51
317.001	82.43
317.214	10.75
317.428	-1.54
317.641	-5.63
317.855	37.38
318.068	4.61
318.282	2.56
318.495	51.71
318.709	82.43
318.922	102.91
319.136	31.23
319.349	55.81
319.563	-15.87
319.776	43.52
319.99	18.94
320.203	82.43
320.417	37.38
320.63	31.23
320.843	0.51
321.057	88.57
321.27	-11.78
321.483	8.7
321.697	61.95
321.91	6.66
322.124	-32.26
322.337	55.81
322.55	35.33
322.763	39.42
322.977	59.9
323.19	86.53
323.403	29.18
323.617	-30.21
323.83	61.95
324.043	23.04
324.256	47.62
324.469	-36.35
324.683	70.14
324.896	33.28
325.109	45.57
325.322	23.04
325.535	45.57
325.748	20.99
325.962	-5.63
326.175	8.7
326.388	29.18
326.601	27.14
326.814	12.8
327.027	64
327.24	68.09
327.453	29.18
327.666	-22.02
327.879	55.81
328.092	131.58
328.305	31.23
328.518	16.9
328.731	102.91
328.944	37.38
329.157	16.9
329.37	-7.68
329.583	90.62
329.796	12.8
330.009	6.66
330.222	70.14
330.435	70.14
330.648	35.33
330.861	27.14
331.073	51.71
331.286	18.94
331.499	113.15
331.712	12.8
331.925	51.71
332.138	43.52
332.35	29.18
332.563	-9.73
332.776	41.47
332.989	10.75
333.202	76.29
333.414	-7.68
333.627	12.8
333.84	66.05
334.053	61.95
334.265	14.85
334.478	31.23
334.691	-9.73
334.903	53.76
335.116	76.29
335.329	70.14
335.541	80.38
335.754	10.75
335.966	74.24
336.179	55.81
336.392	18.94
336.604	82.43
336.817	39.42
337.029	88.57
337.242	92.67
337.454	55.81
337.667	4.61
337.88	47.62
338.092	78.33
338.305	121.34
338.517	33.28
338.729	74.24
338.942	119.29
339.154	-50.69
339.367	51.71
339.579	35.33
339.792	49.66
340.004	23.04
340.217	-5.63
340.429	82.43
340.641	49.66
340.854	12.8
341.066	-38.4
341.278	74.24
341.491	86.53
341.703	49.66
341.915	-13.82
342.128	47.62
342.34	10.75
342.552	25.09
342.764	76.29
342.977	76.29
343.189	57.86
343.401	4.61
343.613	45.57
343.826	0.51
344.038	31.23
344.25	-9.73
344.462	51.71
344.674	27.14
344.886	-1.54
345.099	-7.68
345.311	-13.82
345.523	31.23
345.735	-22.02
345.947	-30.21
346.159	35.33
346.371	37.38
346.583	-5.63
346.795	127.49
347.007	-19.97
347.219	51.71
347.431	31.23
347.643	14.85
347.855	45.57
348.067	27.14
348.279	47.62
348.491	107.01
348.703	76.29
348.915	27.14
349.127	-17.92
349.339	80.38
349.551	16.9
349.763	53.76
349.975	25.09
350.187	43.52
350.399	70.14
350.61	111.1
350.822	39.42
351.034	55.81
351.246	14.85
351.458	27.14
351.669	78.33
351.881	129.53
352.093	39.42
352.305	135.68
352.517	-13.82
352.728	37.38
352.94	29.18
353.152	66.05
353.363	51.71
353.575	47.62
353.787	78.33
353.999	41.47
354.21	35.33
354.422	45.57
354.633	70.14
354.845	92.67
355.057	-1.54
355.268	25.09
355.48	84.48
355.692	66.05
355.903	-13.82
356.115	117.25
356.326	47.62
356.538	70.14
356.749	96.77
356.961	154.11
357.172	49.66
357.384	10.75
357.595	74.24
357.807	51.71
358.018	27.14
358.23	129.53
358.441	72.19
358.653	-3.58
358.864	-9.73
359.075	-11.78
359.287	49.66
359.498	64
359.709	74.24
359.921	53.76
360.132	72.19
360.344	51.71
360.555	27.14
360.766	35.33
360.977	-19.97
361.189	119.29
361.4	-9.73
361.611	111.1
361.823	90.62
362.034	37.38
362.245	-9.73
362.456	51.71
362.667	-9.73
362.879	29.18
363.09	78.33
363.301	156.16
363.512	23.04
363.723	33.28
363.935	107.01
364.146	14.85
364.357	47.62
364.568	127.49
364.779	-42.5
364.99	57.86
365.201	61.95
365.412	94.72
365.623	-5.63
365.834	-7.68
366.045	8.7
366.256	33.28
366.467	37.38
366.678	10.75
366.889	-32.26
367.1	-9.73
367.311	41.47
367.522	47.62
367.733	107.01
367.944	16.9
368.155	68.09
368.366	18.94
368.577	74.24
368.788	96.77
368.999	35.33
369.209	39.42
369.42	109.05
369.631	125.44
369.842	-5.63
370.053	82.43
370.264	129.53
370.474	90.62
370.685	43.52
370.896	82.43
371.107	49.66
371.317	43.52
371.528	57.86
371.739	27.14
371.95	27.14
372.16	-30.21
372.371	-9.73
372.582	20.99
372.792	47.62
373.003	39.42
373.214	61.95
373.424	70.14
373.635	78.33
373.846	70.14
374.056	68.09
374.267	66.05
374.477	6.66
374.688	41.47
374.898	78.33
375.109	45.57
375.319	37.38
375.53	61.95
375.74	39.42
375.951	80.38
376.161	-28.16
376.372	92.67
376.582	74.24
376.793	29.18
377.003	39.42
377.214	64
377.424	117.25
377.635	14.85
377.845	94.72
378.055	61.95
378.266	-36.35
378.476	61.95
378.686	80.38
378.897	49.66
379.107	86.53
379.317	80.38
379.528	35.33
379.738	121.34
379.948	66.05
380.158	70.14
380.369	18.94
380.579	137.73
380.789	12.8
380.999	55.81
381.21	2.56
381.42	90.62
381.63	2.56
381.84	98.81
382.05	33.28
382.261	-3.58
382.471	29.18
382.681	49.66
382.891	20.99
383.101	174.59
383.311	57.86
383.521	98.81
383.731	133.63
383.941	78.33
384.151	82.43
384.361	96.77
384.571	29.18
384.781	59.9
384.991	33.28
385.201	94.72
385.411	98.81
385.621	109.05
385.831	6.66
386.041	-62.98
386.251	29.18
386.461	49.66
386.671	20.99
386.881	113.15
387.091	-3.58
387.301	39.42
387.511	135.68
387.72	201.21
387.93	33.28
388.14	31.23
388.35	45.57
388.56	23.04
388.769	59.9
388.979	-30.21
389.189	6.66
389.399	94.72
389.609	102.91
389.818	59.9
390.028	61.95
390.238	88.57
390.447	49.66
390.657	109.05
390.867	92.67
391.076	41.47
391.286	78.33
391.496	76.29
391.705	53.76
391.915	150.01
392.125	2.56
392.334	47.62
392.544	49.66
392.753	78.33
392.963	39.42
393.172	59.9
393.382	61.95
393.591	61.95
393.801	53.76
394.01	135.68
394.22	80.38
394.429	64
394.639	59.9
394.848	82.43
395.058	129.53
395.267	78.33
395.477	117.25
395.686	70.14
395.895	121.34
396.105	133.63
396.314	109.05
396.524	145.92
396.733	80.38
396.942	78.33
397.152	86.53
397.361	111.1
397.57	55.81
397.78	51.71
397.989	90.62
398.198	123.39
398.407	12.8
398.617	102.91
398.826	139.77
399.035	76.29
399.244	76.29
399.453	145.92
399.663	49.66
399.872	88.57
400.081	100.86
400.29	150.01
400.499	209.4
400.708	143.87
400.917	14.85
401.127	98.81
401.336	82.43
401.545	143.87
401.754	90.62
401.963	111.1
402.172	102.91
402.381	70.14
402.59	111.1
402.799	61.95
403.008	104.96
403.217	39.42
403.426	176.64
403.635	49.66
403.844	109.05
404.053	141.82
404.262	70.14
404.471	137.73
404.68	84.48
404.888	88.57
405.097	127.49
405.306	49.66
405.515	147.97
405.724	121.34
405.933	111.1
406.142	119.29
406.35	174.59
406.559	190.97
406.768	139.77
406.977	170.49
407.185	141.82
407.394	190.97
407.603	209.4
407.812	221.69
408.02	244.22
408.229	240.12
408.438	156.16
408.646	84.48
408.855	215.55
409.064	205.31
409.272	240.12
409.481	266.75
409.69	252.41
409.898	229.88
410.107	270.84
410.315	217.6
410.524	291.32
410.733	231.93
410.941	262.65
411.15	242.17
411.358	313.85
411.567	295.42
411.775	322.04
411.984	336.38
412.192	301.56
412.401	385.53
412.609	387.58
412.818	397.82
413.026	371.19
413.234	426.49
413.443	403.96
413.651	403.96
413.86	389.63
414.068	475.64
414.276	518.65
414.485	510.46
414.693	594.42
414.901	487.93
415.11	541.18
415.318	578.04
415.526	639.48
415.734	592.37
415.943	635.38
416.151	659.96
416.359	694.77
416.567	692.73
416.776	662.01
416.984	750.07
417.192	831.99
417.4	680.44
417.608	840.18
417.817	897.52
418.025	883.19
418.233	877.04
418.441	950.77
418.649	948.72
418.857	956.91
419.065	1087.98
419.273	946.67
419.481	1231.34
419.689	1077.74
419.897	1130.99
420.105	1184.24
420.313	1153.52
420.521	1393.13
420.729	1282.54
420.937	1354.22
421.145	1374.7
421.353	1438.19
421.561	1503.72
421.769	1571.3
421.977	1661.41
422.185	1552.87
422.393	1647.08
422.601	1941.99
422.809	1790.44
423.017	1868.26
423.224	1862.12
423.432	1941.99
423.64	1948.13
423.848	2232.8
424.056	2077.15
424.263	2281.95
424.471	2228.7
424.679	2218.46
424.887	2466.27
425.094	2503.13
425.302	2511.32
425.51	2544.09
425.718	2701.78
425.925	2644.44
426.133	2798.04
426.341	2804.18
426.548	3123.66
426.756	2972.11
426.964	3193.3
427.171	3396.04
427.379	3459.53
427.586	3559.88
427.794	3582.41
428.001	3725.77
428.209	3832.26
428.417	3795.4
428.624	4059.59
428.832	4155.84
429.039	4094.4
429.247	4026.82
429.454	4495.8
429.662	4800.95
429.869	4495.8
430.076	4766.14
430.284	4680.12
430.491	4788.66
430.699	5102
430.906	5034.42
431.114	5265.84
431.321	5419.44
431.528	5527.98
431.736	5847.46
431.943	6076.84
432.15	5943.72
432.358	6119.84
432.565	6308.26
432.772	6357.41
432.979	6650.27
433.187	6859.16
433.394	6795.67
433.601	7176.59
433.808	7393.68
434.016	7334.29
434.223	7526.8
434.43	7883.14
434.637	7819.66
434.844	8397.18
435.052	8307.07
435.259	8434.05
435.466	8534.4
435.673	8479.1
435.88	8991.09
436.087	9439.6
436.294	9402.74
436.501	9187.7
436.708	9490.8
436.915	9685.36
437.122	10207.59
437.329	10252.64
437.537	10463.58
437.743	10510.69
437.95	10553.69
438.157	11135.32
438.364	11458.9
438.571	11544.91
438.778	11522.38
438.985	12765.5
439.192	12106.06
439.399	12618.05
439.606	12396.87
439.813	12912.95
440.02	13582.64
440.227	13556.02
440.433	13269.3
440.64	13801.77
440.847	13578.54
441.054	14197.03
441.261	15202.58
441.467	14993.69
441.674	15073.56
441.881	15651.09
442.088	15737.1
442.294	15421.72
442.501	16001.29
442.708	16208.14
442.914	16871.68
443.121	17697.01
443.328	17152.25
443.534	18458.85
443.741	18000.11
443.948	17787.12
444.154	18624.74
444.361	18936.03
444.568	18895.07
444.774	19163.36
444.981	18979.04
445.187	19785.94
445.394	20551.88
445.6	20291.79
445.807	22341.8
446.013	21651.64
446.22	21762.23
446.426	22792.36
446.633	22655.14
446.839	24080.53
447.046	22681.77
447.252	23902.36
447.459	24006.8
447.665	24008.85
447.871	24899.72
448.078	25897.08
448.284	24858.76
448.491	25528.44
448.697	26431.6
448.903	26802.28
449.11	27299.94
449.316	26585.19
449.522	27476.06
449.728	27562.08
449.935	28117.07
450.141	28139.6
450.347	28815.43
450.553	28076.12
450.76	28242
450.966	29009.99
451.172	28784.71
451.378	29423.68
451.584	29030.47
451.791	29810.75
451.997	29804.6
452.203	29990.97
452.409	29919.29
452.615	30036.02
452.821	28530.76
453.027	28264.53
453.233	29997.11
453.44	28964.93
453.646	29218.88
453.852	28899.4
454.058	29872.18
454.264	28985.41
454.47	29388.86
454.676	28680.27
454.882	29945.91
455.088	27117.67
455.294	27762.78
455.5	28002.39
455.705	28473.42
455.911	27150.43
456.117	26896.49
456.323	26591.34
456.529	24819.85
456.735	26073.2
456.941	25276.54
457.147	24670.34
457.352	24219.79
457.558	24029.33
457.764	23980.18
457.97	23431.32
458.176	22782.12
458.381	23117.98
458.587	21909.68
458.793	22098.09
458.999	20785.35
459.204	22263.98
459.41	21512.38
459.616	20232.4
459.821	20347.08
460.027	20216.01
460.233	19548.37
460.438	18915.55
460.644	19026.14
460.85	18022.64
461.055	18084.08
461.261	17961.2
461.466	16425.22
461.672	16060.68
461.878	17148.15
462.083	16015.63
462.289	15687.95
462.494	15673.62
462.7	14944.54
462.905	14487.84
463.111	15012.12
463.316	15042.84
463.522	14516.51
463.727	14838.05
463.932	14819.61
464.138	14588.19
464.343	14663.97
464.549	14137.64
464.754	14743.84
464.959	14563.62
465.165	14432.55
465.37	14043.43
465.575	13492.53
465.781	13969.71
465.986	14045.48
466.191	13476.15
466.397	13263.16
466.602	12484.93
466.807	13078.84
467.012	13121.85
467.218	13027.64
467.423	12945.72
467.628	12892.48
467.833	13588.78
468.038	12896.57
468.244	12529.98
