Data from USB4F104151__38__12-27-21-154.txt Node

Date: Fri Mar 14 12:27:21 EDT 2025
User: louis
Spectrometer: USB4F10415
Trigger mode: 4
Integration Time (sec): 2.000000E-2
Scans to average: 1
Electric dark correction enabled: true
Nonlinearity correction enabled: false
Boxcar width: 0
XAxis mode: Wavelengths
Number of Pixels in Spectrum: 3648
>>>>>Begin Spectral Data<<<<<
178.204	-105.3
178.424	-105.3
178.644	-105.3
178.864	-70.48
179.084	-97.11
179.304	13.48
179.524	9.39
179.744	-27.48
179.964	64.68
180.184	-54.1
180.404	-29.52
180.624	-25.43
180.844	3.24
181.064	36.01
181.283	5.29
181.503	-19.29
181.723	23.72
181.943	56.49
182.163	19.63
182.383	27.82
182.602	9.39
182.822	13.48
183.042	-15.19
183.262	-9.05
183.482	-23.38
183.701	-41.81
183.921	13.48
184.141	-2.9
184.361	-7
184.58	-27.48
184.8	46.25
185.02	-11.09
185.239	31.91
185.459	-9.05
185.679	3.24
185.898	-29.52
186.118	101.55
186.338	27.82
186.557	17.58
186.777	107.69
186.997	9.39
187.216	48.3
187.436	38.06
187.655	-11.09
187.875	7.34
188.095	-35.67
188.314	81.07
188.534	66.73
188.753	-4.95
188.973	-25.43
189.192	27.82
189.412	-13.14
189.631	74.92
189.851	-4.95
190.07	81.07
190.29	7.34
190.509	3.24
190.729	38.06
190.948	-4.95
191.168	66.73
191.387	-13.14
191.607	9.39
191.826	-27.48
192.045	-0.85
192.265	42.15
192.484	27.82
192.704	3.24
192.923	-41.81
193.142	9.39
193.362	87.21
193.581	62.63
193.8	-7
194.02	74.92
194.239	-4.95
194.458	9.39
194.678	-7
194.897	27.82
195.116	-7
195.335	23.72
195.555	29.87
195.774	-37.72
195.993	11.43
196.212	19.63
196.432	13.48
196.651	66.73
196.87	29.87
197.089	68.78
197.308	27.82
197.528	38.06
197.747	40.11
197.966	-33.62
198.185	79.02
198.404	-35.67
198.623	-21.33
198.842	19.63
199.062	11.43
199.281	81.07
199.5	-17.24
199.719	54.44
199.938	36.01
200.157	46.25
200.376	56.49
200.595	44.2
200.814	5.29
201.033	17.58
201.252	56.49
201.471	-17.24
201.69	-23.38
201.909	58.54
202.128	56.49
202.347	-15.19
202.566	-25.43
202.785	-45.91
203.004	-31.57
203.223	97.45
203.442	31.91
203.661	38.06
203.879	5.29
204.098	79.02
204.317	5.29
204.536	-0.85
204.755	11.43
204.974	50.35
205.193	-2.9
205.411	66.73
205.63	25.77
205.849	-9.05
206.068	-11.09
206.287	-39.76
206.505	70.83
206.724	-31.57
206.943	-47.96
207.162	9.39
207.381	23.72
207.599	-23.38
207.818	-4.95
208.037	11.43
208.255	31.91
208.474	17.58
208.693	-47.96
208.911	-68.44
209.13	48.3
209.349	93.35
209.567	50.35
209.786	72.87
210.005	3.24
210.223	9.39
210.442	3.24
210.661	25.77
210.879	54.44
211.098	36.01
211.316	5.29
211.535	15.53
211.753	7.34
211.972	-52.05
212.191	5.29
212.409	-11.09
212.628	48.3
212.846	-58.2
213.065	13.48
213.283	62.63
213.502	-39.76
213.72	3.24
213.938	-17.24
214.157	3.24
214.375	15.53
214.594	-62.29
214.812	74.92
215.031	50.35
215.249	48.3
215.467	11.43
215.686	27.82
215.904	60.59
216.122	11.43
216.341	81.07
216.559	-17.24
216.778	5.29
216.996	33.96
217.214	9.39
217.432	25.77
217.651	-78.68
217.869	-21.33
218.087	-37.72
218.306	11.43
218.524	15.53
218.742	-39.76
218.96	3.24
219.179	-25.43
219.397	17.58
219.615	66.73
219.833	5.29
220.051	-17.24
220.27	23.72
220.488	42.15
220.706	-7
220.924	-11.09
221.142	72.87
221.36	-23.38
221.578	44.2
221.796	60.59
222.015	27.82
222.233	-0.85
222.451	-39.76
222.669	-13.14
222.887	42.15
223.105	15.53
223.323	-17.24
223.541	-60.24
223.759	15.53
223.977	72.87
224.195	91.31
224.413	-9.05
224.631	85.16
224.849	5.29
225.067	36.01
225.285	-15.19
225.503	58.54
225.721	-39.76
225.939	36.01
226.157	58.54
226.375	23.72
226.592	31.91
226.81	25.77
227.028	52.39
227.246	101.55
227.464	17.58
227.682	27.82
227.9	52.39
228.117	-13.14
228.335	58.54
228.553	27.82
228.771	44.2
228.989	23.72
229.206	-29.52
229.424	9.39
229.642	7.34
229.86	-54.1
230.077	19.63
230.295	-7
230.513	-43.86
230.731	-29.52
230.948	29.87
231.166	44.2
231.384	-29.52
231.601	36.01
231.819	31.91
232.037	40.11
232.254	-27.48
232.472	-9.05
232.689	-13.14
232.907	66.73
233.125	-56.15
233.342	-9.05
233.56	1.19
233.777	9.39
233.995	56.49
234.213	72.87
234.43	-21.33
234.648	23.72
234.865	-68.44
235.083	36.01
235.3	13.48
235.518	-9.05
235.735	15.53
235.953	95.4
236.17	19.63
236.388	11.43
236.605	38.06
236.822	-39.76
237.04	27.82
237.257	19.63
237.475	-0.85
237.692	52.39
237.909	17.58
238.127	-15.19
238.344	-41.81
238.562	81.07
238.779	-39.76
238.996	42.15
239.214	31.91
239.431	64.68
239.648	-13.14
239.865	-11.09
240.083	21.67
240.3	17.58
240.517	-9.05
240.735	21.67
240.952	29.87
241.169	1.19
241.386	21.67
241.603	-11.09
241.821	19.63
242.038	83.11
242.255	-17.24
242.472	-21.33
242.689	-13.14
242.907	11.43
243.124	62.63
243.341	-99.16
243.558	-21.33
243.775	3.24
243.992	-35.67
244.209	1.19
244.426	36.01
244.643	36.01
244.86	23.72
245.078	27.82
245.295	-33.62
245.512	66.73
245.729	-54.1
245.946	29.87
246.163	-35.67
246.38	81.07
246.597	1.19
246.814	29.87
247.031	-37.72
247.248	44.2
247.464	44.2
247.681	-15.19
247.898	46.25
248.115	54.44
248.332	-13.14
248.549	-13.14
248.766	19.63
248.983	-29.52
249.2	-23.38
249.417	76.97
249.633	-15.19
249.85	13.48
250.067	-62.29
250.284	68.78
250.501	115.88
250.717	-15.19
250.934	27.82
251.151	-17.24
251.368	15.53
251.585	-0.85
251.801	33.96
252.018	15.53
252.235	101.55
252.451	-25.43
252.668	-52.05
252.885	-52.05
253.102	3.24
253.318	46.25
253.535	-31.57
253.752	-9.05
253.968	36.01
254.185	83.11
254.401	21.67
254.618	-78.68
254.835	-74.58
255.051	33.96
255.268	1.19
255.484	-47.96
255.701	-60.24
255.917	27.82
256.134	-33.62
256.351	27.82
256.567	15.53
256.784	46.25
257	11.43
257.217	62.63
257.433	-15.19
257.65	93.35
257.866	52.39
258.082	1.19
258.299	25.77
258.515	9.39
258.732	83.11
258.948	79.02
259.165	27.82
259.381	-33.62
259.597	-11.09
259.814	-66.39
260.03	21.67
260.246	-29.52
260.463	25.77
260.679	99.5
260.895	52.39
261.112	119.98
261.328	11.43
261.544	19.63
261.761	62.63
261.977	-0.85
262.193	29.87
262.409	87.21
262.626	68.78
262.842	62.63
263.058	1.19
263.274	79.02
263.49	5.29
263.707	38.06
263.923	23.72
264.139	38.06
264.355	1.19
264.571	36.01
264.787	-4.95
265.004	48.3
265.22	50.35
265.436	3.24
265.652	17.58
265.868	-9.05
266.084	1.19
266.3	-4.95
266.516	15.53
266.732	21.67
266.948	17.58
267.164	126.12
267.38	3.24
267.596	72.87
267.812	44.2
268.028	66.73
268.244	3.24
268.46	-35.67
268.676	46.25
268.892	50.35
269.108	21.67
269.324	11.43
269.54	-41.81
269.756	-4.95
269.972	5.29
270.188	-15.19
270.403	40.11
270.619	113.83
270.835	81.07
271.051	-11.09
271.267	-17.24
271.483	42.15
271.698	36.01
271.914	62.63
272.13	9.39
272.346	33.96
272.562	-9.05
272.777	9.39
272.993	-4.95
273.209	25.77
273.425	5.29
273.64	-25.43
273.856	44.2
274.072	21.67
274.287	-23.38
274.503	66.73
274.719	-11.09
274.934	21.67
275.15	-9.05
275.366	-11.09
275.581	-0.85
275.797	29.87
276.012	64.68
276.228	-43.86
276.444	62.63
276.659	58.54
276.875	-27.48
277.09	3.24
277.306	13.48
277.521	19.63
277.737	-62.29
277.952	15.53
278.168	9.39
278.383	42.15
278.599	-7
278.814	-54.1
279.03	-2.9
279.245	42.15
279.461	5.29
279.676	21.67
279.892	-58.2
280.107	21.67
280.322	-27.48
280.538	23.72
280.753	-7
280.969	19.63
281.184	40.11
281.399	-0.85
281.615	17.58
281.83	-23.38
282.045	-25.43
282.26	-29.52
282.476	27.82
282.691	5.29
282.906	38.06
283.122	21.67
283.337	-39.76
283.552	-23.38
283.767	48.3
283.983	1.19
284.198	-39.76
284.413	-23.38
284.628	17.58
284.843	87.21
285.058	68.78
285.274	-29.52
285.489	27.82
285.704	33.96
285.919	64.68
286.134	-4.95
286.349	21.67
286.564	27.82
286.779	44.2
286.995	36.01
287.21	-7
287.425	21.67
287.64	87.21
287.855	-37.72
288.07	-4.95
288.285	21.67
288.5	-4.95
288.715	52.39
288.93	-15.19
289.145	-0.85
289.36	50.35
289.575	-17.24
289.79	87.21
290.004	36.01
290.219	46.25
290.434	19.63
290.649	-33.62
290.864	-31.57
291.079	29.87
291.294	-15.19
291.509	54.44
291.724	52.39
291.938	-9.05
292.153	11.43
292.368	13.48
292.583	19.63
292.798	29.87
293.012	134.31
293.227	11.43
293.442	-64.34
293.657	11.43
293.871	-35.67
294.086	-2.9
294.301	70.83
294.516	93.35
294.73	31.91
294.945	-52.05
295.16	-23.38
295.374	13.48
295.589	40.11
295.804	-0.85
296.018	11.43
296.233	66.73
296.447	62.63
296.662	-0.85
296.877	113.83
297.091	-23.38
297.306	15.53
297.52	-21.33
297.735	52.39
297.949	5.29
298.164	38.06
298.378	50.35
298.593	17.58
298.807	9.39
299.022	17.58
299.236	64.68
299.451	46.25
299.665	48.3
299.88	36.01
300.094	-2.9
300.309	13.48
300.523	9.39
300.737	-21.33
300.952	29.87
301.166	5.29
301.381	27.82
301.595	-60.24
301.809	25.77
302.024	68.78
302.238	40.11
302.452	7.34
302.667	-41.81
302.881	-29.52
303.095	33.96
303.309	72.87
303.524	-35.67
303.738	25.77
303.952	-66.39
304.166	11.43
304.381	5.29
304.595	105.64
304.809	-72.53
305.023	7.34
305.237	-68.44
305.452	-70.48
305.666	72.87
305.88	83.11
306.094	70.83
306.308	15.53
306.522	-52.05
306.736	23.72
306.95	-2.9
307.164	17.58
307.379	-23.38
307.593	44.2
307.807	-0.85
308.021	56.49
308.235	9.39
308.449	33.96
308.663	31.91
308.877	58.54
309.091	11.43
309.305	31.91
309.519	23.72
309.733	83.11
309.947	31.91
310.161	109.74
310.374	36.01
310.588	-7
310.802	58.54
311.016	66.73
311.23	23.72
311.444	-21.33
311.658	48.3
311.872	44.2
312.085	107.69
312.299	25.77
312.513	9.39
312.727	50.35
312.941	-13.14
313.154	60.59
313.368	91.31
313.582	38.06
313.796	31.91
314.009	23.72
314.223	122.02
314.437	27.82
314.651	-4.95
314.864	40.11
315.078	48.3
315.292	9.39
315.505	-4.95
315.719	38.06
315.933	21.67
316.146	13.48
316.36	21.67
316.573	68.78
316.787	87.21
317.001	54.44
317.214	-7
317.428	76.97
317.641	-19.29
317.855	21.67
318.068	-27.48
318.282	70.83
318.495	31.91
318.709	11.43
318.922	-21.33
319.136	105.64
319.349	66.73
319.563	-11.09
319.776	19.63
319.99	-7
320.203	33.96
320.417	19.63
320.63	-21.33
320.843	29.87
321.057	-7
321.27	-41.81
321.483	17.58
321.697	58.54
321.91	52.39
322.124	40.11
322.337	56.49
322.55	23.72
322.763	-27.48
322.977	-2.9
323.19	52.39
323.403	13.48
323.617	-35.67
323.83	52.39
324.043	23.72
324.256	11.43
324.469	40.11
324.683	-2.9
324.896	9.39
325.109	-13.14
325.322	-80.72
325.535	56.49
325.748	21.67
325.962	25.77
326.175	17.58
326.388	-4.95
326.601	101.55
326.814	54.44
327.027	40.11
327.24	19.63
327.453	-66.39
327.666	-0.85
327.879	-19.29
328.092	81.07
328.305	11.43
328.518	-27.48
328.731	76.97
328.944	21.67
329.157	50.35
329.37	-7
329.583	95.4
329.796	46.25
330.009	-21.33
330.222	-47.96
330.435	58.54
330.648	21.67
330.861	-23.38
331.073	40.11
331.286	1.19
331.499	11.43
331.712	-37.72
331.925	11.43
332.138	46.25
332.35	50.35
332.563	-35.67
332.776	66.73
332.989	-13.14
333.202	-31.57
333.414	-17.24
333.627	-39.76
333.84	-7
334.053	29.87
334.265	-13.14
334.478	38.06
334.691	-56.15
334.903	70.83
335.116	33.96
335.329	1.19
335.541	50.35
335.754	103.59
335.966	23.72
336.179	52.39
336.392	-4.95
336.604	1.19
336.817	46.25
337.029	19.63
337.242	-7
337.454	74.92
337.667	7.34
337.88	42.15
338.092	46.25
338.305	-19.29
338.517	-54.1
338.729	83.11
338.942	-4.95
339.154	-2.9
339.367	-17.24
339.579	52.39
339.792	9.39
340.004	66.73
340.217	-15.19
340.429	93.35
340.641	23.72
340.854	-2.9
341.066	-29.52
341.278	29.87
341.491	40.11
341.703	97.45
341.915	42.15
342.128	-29.52
342.34	-52.05
342.552	-11.09
342.764	54.44
342.977	60.59
343.189	62.63
343.401	31.91
343.613	17.58
343.826	38.06
344.038	-45.91
344.25	5.29
344.462	48.3
344.674	70.83
344.886	27.82
345.099	1.19
345.311	99.5
345.523	3.24
345.735	-86.87
345.947	60.59
346.159	-35.67
346.371	46.25
346.583	48.3
346.795	21.67
347.007	36.01
347.219	1.19
347.431	56.49
347.643	46.25
347.855	79.02
348.067	11.43
348.279	-25.43
348.491	-11.09
348.703	40.11
348.915	40.11
349.127	38.06
349.339	60.59
349.551	5.29
349.763	72.87
349.975	-25.43
350.187	21.67
350.399	13.48
350.61	5.29
350.822	-35.67
351.034	62.63
351.246	58.54
351.458	-35.67
351.669	27.82
351.881	11.43
352.093	36.01
352.305	66.73
352.517	7.34
352.728	42.15
352.94	7.34
353.152	-25.43
353.363	-9.05
353.575	40.11
353.787	66.73
353.999	5.29
354.21	-0.85
354.422	17.58
354.633	-2.9
354.845	50.35
355.057	-0.85
355.268	44.2
355.48	-15.19
355.692	11.43
355.903	1.19
356.115	38.06
356.326	-7
356.538	81.07
356.749	9.39
356.961	105.64
357.172	50.35
357.384	85.16
357.595	19.63
357.807	74.92
358.018	-4.95
358.23	79.02
358.441	46.25
358.653	9.39
358.864	-41.81
359.075	33.96
359.287	1.19
359.498	50.35
359.709	31.91
359.921	89.26
360.132	5.29
360.344	23.72
360.555	-0.85
360.766	40.11
360.977	23.72
361.189	83.11
361.4	27.82
361.611	58.54
361.823	-21.33
362.034	111.78
362.245	-17.24
362.456	52.39
362.667	-45.91
362.879	52.39
363.09	81.07
363.301	64.68
363.512	3.24
363.723	-9.05
363.935	19.63
364.146	64.68
364.357	81.07
364.568	93.35
364.779	-33.62
364.99	33.96
365.201	29.87
365.412	19.63
365.623	87.21
365.834	99.5
366.045	-41.81
366.256	17.58
366.467	13.48
366.678	17.58
366.889	11.43
367.1	44.2
367.311	21.67
367.522	44.2
367.733	-50
367.944	21.67
368.155	-25.43
368.366	99.5
368.577	23.72
368.788	33.96
368.999	68.78
369.209	7.34
369.42	87.21
369.631	42.15
369.842	76.97
370.053	44.2
370.264	44.2
370.474	60.59
370.685	-47.96
370.896	27.82
371.107	-0.85
371.317	-9.05
371.528	25.77
371.739	5.29
371.95	11.43
372.16	89.26
372.371	11.43
372.582	50.35
372.792	-37.72
373.003	95.4
373.214	74.92
373.424	46.25
373.635	-11.09
373.846	66.73
374.056	-43.86
374.267	46.25
374.477	-11.09
374.688	54.44
374.898	107.69
375.109	58.54
375.319	91.31
375.53	68.78
375.74	9.39
375.951	48.3
376.161	-23.38
376.372	68.78
376.582	23.72
376.793	-29.52
377.003	54.44
377.214	-21.33
377.424	-21.33
377.635	-25.43
377.845	-31.57
378.055	38.06
378.266	3.24
378.476	42.15
378.686	7.34
378.897	21.67
379.107	27.82
379.317	87.21
379.528	15.53
379.738	17.58
379.948	44.2
380.158	19.63
380.369	93.35
380.579	-27.48
380.789	17.58
380.999	58.54
381.21	70.83
381.42	44.2
381.63	48.3
381.84	48.3
382.05	-7
382.261	5.29
382.471	33.96
382.681	23.72
382.891	25.77
383.101	48.3
383.311	38.06
383.521	19.63
383.731	115.88
383.941	-15.19
384.151	58.54
384.361	-13.14
384.571	36.01
384.781	31.91
384.991	23.72
385.201	89.26
385.411	9.39
385.621	15.53
385.831	-35.67
386.041	81.07
386.251	81.07
386.461	3.24
386.671	68.78
386.881	11.43
387.091	-4.95
387.301	99.5
387.511	-2.9
387.72	93.35
387.93	-33.62
388.14	-7
388.35	60.59
388.56	36.01
388.769	-11.09
388.979	33.96
389.189	36.01
389.399	15.53
389.609	58.54
389.818	25.77
390.028	-4.95
390.238	23.72
390.447	50.35
390.657	83.11
390.867	44.2
391.076	11.43
391.286	76.97
391.496	62.63
391.705	64.68
391.915	48.3
392.125	107.69
392.334	76.97
392.544	50.35
392.753	5.29
392.963	25.77
393.172	23.72
393.382	-82.77
393.591	87.21
393.801	89.26
394.01	93.35
394.22	107.69
394.429	52.39
394.639	50.35
394.848	36.01
395.058	36.01
395.267	5.29
395.477	1.19
395.686	89.26
395.895	60.59
396.105	148.65
396.314	58.54
396.524	79.02
396.733	58.54
396.942	128.17
397.152	93.35
397.361	89.26
397.57	-37.72
397.78	91.31
397.989	158.89
398.198	99.5
398.407	42.15
398.617	46.25
398.826	83.11
399.035	128.17
399.244	126.12
399.453	83.11
399.663	44.2
399.872	115.88
400.081	42.15
400.29	128.17
400.499	31.91
400.708	70.83
400.917	13.48
401.127	91.31
401.336	60.59
401.545	107.69
401.754	7.34
401.963	119.98
402.172	95.4
402.381	91.31
402.59	101.55
402.799	95.4
403.008	83.11
403.217	36.01
403.426	97.45
403.635	95.4
403.844	85.16
404.053	111.78
404.262	134.31
404.471	165.03
404.68	93.35
404.888	99.5
405.097	7.34
405.306	83.11
405.515	113.83
405.724	68.78
405.933	193.7
406.142	115.88
406.35	126.12
406.559	103.59
406.768	130.22
406.977	165.03
407.185	122.02
407.394	195.75
407.603	132.26
407.812	203.94
408.02	152.74
408.229	169.13
408.438	216.23
408.646	154.79
408.855	244.9
409.064	201.9
409.272	236.71
409.481	246.95
409.69	216.23
409.898	183.46
410.107	236.71
410.315	224.42
410.524	220.33
410.733	165.03
410.941	296.1
411.15	285.86
411.358	302.25
411.567	357.54
411.775	277.67
411.984	304.29
412.192	310.44
412.401	414.88
412.609	445.6
412.818	355.49
413.026	392.36
413.234	494.76
413.443	423.08
413.651	433.32
413.86	375.97
414.068	568.48
414.276	423.08
414.485	429.22
414.693	453.8
414.901	527.52
415.11	566.43
415.318	586.91
415.526	504.99
415.734	601.25
415.943	541.86
416.151	625.83
416.359	631.97
416.567	644.26
416.776	695.46
416.984	748.7
417.192	699.55
417.4	822.43
417.608	789.66
417.817	804
418.025	859.29
418.233	933.02
418.441	857.25
418.649	1049.75
418.857	945.31
419.065	1002.65
419.273	978.08
419.481	1057.95
419.689	1002.65
419.897	1117.34
420.105	1203.35
420.313	1238.17
420.521	1205.4
420.729	1272.98
420.937	1332.37
421.145	1375.38
421.353	1430.68
421.561	1543.32
421.769	1508.5
421.977	1592.47
422.185	1586.32
422.393	1690.77
422.601	1770.64
422.809	1725.58
423.017	1846.41
423.224	1879.18
423.432	1944.72
423.64	2063.5
423.848	2122.89
424.056	2067.6
424.263	2317.45
424.471	2245.77
424.679	2307.21
424.887	2370.69
425.094	2512
425.302	2456.71
425.51	2659.46
425.718	2763.9
425.925	2550.92
426.133	2880.64
426.341	2952.32
426.548	3142.78
426.756	2993.28
426.964	3091.58
427.171	3337.34
427.379	3449.97
427.586	3478.65
427.794	3550.32
428.001	3646.58
428.209	3878
428.417	3730.55
428.624	4037.74
428.832	4080.75
429.039	4019.31
429.247	4150.38
429.454	4377.7
429.662	4625.51
429.869	4486.25
430.076	4645.99
430.284	4670.56
430.491	4983.9
430.699	5231.71
430.906	5196.89
431.114	5235.8
431.321	5497.94
431.528	5663.83
431.736	5813.33
431.943	5973.07
432.15	5815.38
432.358	6071.37
432.565	6351.95
432.772	6364.23
432.979	6593.61
433.187	6689.86
433.394	6906.95
433.601	7271.48
433.808	7281.72
434.016	7220.28
434.223	7463.99
434.43	7898.16
434.637	7687.22
434.844	8260.65
435.052	8555.56
435.259	8361
435.466	8573.99
435.673	8604.71
435.88	9022.5
436.087	9450.52
436.294	9489.43
436.501	9415.71
436.708	9565.21
436.915	9888.79
437.122	10345.48
437.329	10175.5
437.537	10333.2
437.743	10869.76
437.95	10820.61
438.157	11072.51
438.364	11449.34
438.571	11453.44
438.778	11674.62
438.985	12866.53
439.192	11981.81
439.399	12575.72
439.606	12186.61
439.813	12821.48
440.02	13773.78
440.227	13421.53
440.433	13407.2
440.64	13685.72
440.847	13718.49
441.054	13865.94
441.261	15104.96
441.467	15115.2
441.674	15203.27
441.881	15713.21
442.088	15565.76
442.294	15555.52
442.501	15956.92
442.708	16360.37
442.914	17062.82
443.121	17605.53
443.328	17161.12
443.534	18660.24
443.741	17980.31
443.948	17570.72
444.154	19071.88
444.361	18715.53
444.568	18852.75
444.774	19196.81
444.981	19434.37
445.187	20013.95
445.394	20530.03
445.6	20401.01
445.807	22639.44
446.013	21085.03
446.22	21822.3
446.426	22621.01
446.633	22985.55
446.839	23665.47
447.046	22670.16
447.252	23880.51
447.459	24128.31
447.665	23917.37
447.871	24978.22
448.078	25803.55
448.284	24873.78
448.491	25762.59
448.697	26540.82
448.903	26805.01
449.11	27028.24
449.316	26549.01
449.522	27108.11
449.728	27908.86
449.935	28187.39
450.141	27843.33
450.347	28611.32
450.553	27904.77
450.76	28248.83
450.966	29199.09
451.172	28818.16
451.378	29317.87
451.584	29031.15
451.791	29606.63
451.997	29442.79
452.203	29833.96
452.409	29971.17
452.615	29997.79
452.821	28680.95
453.027	28660.47
453.233	30124.77
453.44	28672.76
453.646	28773.11
453.852	29076.21
454.058	29940.45
454.264	28891.89
454.47	29281
454.676	28912.37
454.882	29848.29
455.088	27034.38
455.294	27517.7
455.5	28001.02
455.705	28087.04
455.911	27327.24
456.117	26749.71
456.323	26493.72
456.529	25170.73
456.735	25795.36
456.941	25426.73
457.147	25027.37
457.352	24195.9
457.558	23948.09
457.764	23886.65
457.97	23548.74
458.176	23116.62
458.381	22874.96
458.587	21980
458.793	21980
458.999	20626.29
459.204	22299.48
459.41	21678.94
459.616	20239.22
459.821	20429.68
460.027	19940.22
460.233	19825.53
460.438	19084.17
460.644	19078.02
460.85	18066.33
461.055	17888.15
461.261	17800.09
461.466	16430
461.672	16120.76
461.878	17206.18
462.083	16184.24
462.289	15653.82
462.494	15473.6
462.7	14836.68
462.905	14402.51
463.111	14994.37
463.316	14900.17
463.522	14721.99
463.727	14922.69
463.932	14392.27
464.138	14492.62
464.343	14482.38
464.549	14140.37
464.754	14762.95
464.959	14435.28
465.165	14199.76
465.37	13650.91
465.575	13577.18
465.781	14093.27
465.986	14078.93
466.191	13599.71
466.397	13181.92
466.602	12651.5
466.807	13147.11
467.012	12991.46
467.218	12987.36
467.423	12962.79
467.628	12891.11
467.833	13673.43
468.038	12946.41
468.244	12581.87
