Data from USB4F104151__9__12-26-58-357.txt Node

Date: Fri Mar 14 12:26:58 EDT 2025
User: louis
Spectrometer: USB4F10415
Trigger mode: 4
Integration Time (sec): 2.000000E-2
Scans to average: 1
Electric dark correction enabled: true
Nonlinearity correction enabled: false
Boxcar width: 0
XAxis mode: Wavelengths
Number of Pixels in Spectrum: 3648
>>>>>Begin Spectral Data<<<<<
178.204	-99.67
178.424	-99.67
178.644	-99.67
178.864	-50.52
179.084	6.83
179.304	-1.37
179.524	-42.32
179.744	12.97
179.964	2.73
180.184	17.07
180.404	0.68
180.624	53.93
180.844	-50.52
181.064	-56.66
181.283	25.26
181.503	4.78
181.723	33.45
181.943	-5.46
182.163	-27.99
182.383	4.78
182.602	10.92
182.822	53.93
183.042	-11.61
183.262	29.35
183.482	51.88
183.701	39.59
183.921	2.73
184.141	6.83
184.361	49.83
184.58	105.13
184.8	74.41
185.02	-23.89
185.239	10.92
185.459	-9.56
185.679	115.37
185.898	68.27
186.118	-11.61
186.338	-34.13
186.557	66.22
186.777	68.27
186.997	-15.7
187.216	64.17
187.436	31.4
187.655	49.83
187.875	45.74
188.095	12.97
188.314	92.84
188.534	0.68
188.753	6.83
188.973	80.55
189.192	-7.51
189.412	31.4
189.631	25.26
189.851	15.02
190.07	66.22
190.29	15.02
190.509	66.22
190.729	84.65
190.948	76.46
191.168	107.18
191.387	41.64
191.607	-5.46
191.826	58.03
192.045	-38.23
192.265	39.59
192.484	49.83
192.704	25.26
192.923	15.02
193.142	25.26
193.362	82.6
193.581	55.98
193.8	84.65
194.02	17.07
194.239	47.79
194.458	51.88
194.678	15.02
194.897	6.83
195.116	-17.75
195.335	39.59
195.555	105.13
195.774	78.51
195.993	117.42
196.212	19.11
196.432	-17.75
196.651	19.11
196.87	47.79
197.089	113.32
197.308	41.64
197.528	-13.65
197.747	-15.7
197.966	21.16
198.185	43.69
198.404	-11.61
198.623	43.69
198.842	21.16
199.062	17.07
199.281	45.74
199.5	86.7
199.719	74.41
199.938	17.07
200.157	84.65
200.376	68.27
200.595	29.35
200.814	43.69
201.033	37.55
201.252	25.26
201.471	19.11
201.69	62.12
201.909	31.4
202.128	92.84
202.347	15.02
202.566	96.94
202.785	10.92
203.004	64.17
203.223	8.87
203.442	10.92
203.661	-13.65
203.879	-3.41
204.098	64.17
204.317	31.4
204.536	78.51
204.755	39.59
204.974	31.4
205.193	35.5
205.411	135.85
205.63	-7.51
205.849	68.27
206.068	33.45
206.287	-9.56
206.505	113.32
206.724	23.21
206.943	-15.7
207.162	103.08
207.381	82.6
207.599	35.5
207.818	25.26
208.037	15.02
208.255	78.51
208.474	62.12
208.693	23.21
208.911	29.35
209.13	146.09
209.349	37.55
209.567	49.83
209.786	19.11
210.005	74.41
210.223	49.83
210.442	43.69
210.661	-11.61
210.879	45.74
211.098	78.51
211.316	141.99
211.535	-15.7
211.753	-5.46
211.972	33.45
212.191	49.83
212.409	47.79
212.628	84.65
212.846	12.97
213.065	29.35
213.283	-42.32
213.502	45.74
213.72	72.36
213.938	-13.65
214.157	-48.47
214.375	21.16
214.594	98.99
214.812	33.45
215.031	62.12
215.249	25.26
215.467	82.6
215.686	49.83
215.904	137.9
216.122	119.46
216.341	62.12
216.559	-21.85
216.778	27.31
216.996	47.79
217.214	-7.51
217.432	62.12
217.651	-40.28
217.869	31.4
218.087	15.02
218.306	47.79
218.524	-15.7
218.742	12.97
218.96	-1.37
219.179	72.36
219.397	78.51
219.615	66.22
219.833	68.27
220.051	6.83
220.27	66.22
220.488	64.17
220.706	80.55
220.924	23.21
221.142	6.83
221.36	37.55
221.578	62.12
221.796	90.79
222.015	-54.61
222.233	17.07
222.451	90.79
222.669	-13.65
222.887	45.74
223.105	86.7
223.323	45.74
223.541	10.92
223.759	39.59
223.977	-13.65
224.195	68.27
224.413	78.51
224.631	72.36
224.849	96.94
225.067	41.64
225.285	21.16
225.503	-15.7
225.721	-52.56
225.939	23.21
226.157	33.45
226.375	121.51
226.592	33.45
226.81	25.26
227.028	82.6
227.246	-15.7
227.464	15.02
227.682	76.46
227.9	-5.46
228.117	43.69
228.335	2.73
228.553	45.74
228.771	15.02
228.989	66.22
229.206	92.84
229.424	-3.41
229.642	58.03
229.86	12.97
230.077	8.87
230.295	86.7
230.513	90.79
230.731	33.45
230.948	27.31
231.166	55.98
231.384	31.4
231.601	76.46
231.819	76.46
232.037	49.83
232.254	-21.85
232.472	70.31
232.689	-27.99
232.907	45.74
233.125	-30.04
233.342	35.5
233.56	62.12
233.777	49.83
233.995	70.31
234.213	-27.99
234.43	39.59
234.648	72.36
234.865	6.83
235.083	23.21
235.3	39.59
235.518	64.17
235.735	-15.7
235.953	43.69
236.17	72.36
236.388	53.93
236.605	6.83
236.822	70.31
237.04	74.41
237.257	78.51
237.475	68.27
237.692	84.65
237.909	21.16
238.127	-27.99
238.344	-44.37
238.562	10.92
238.779	33.45
238.996	-38.23
239.214	98.99
239.431	53.93
239.648	29.35
239.865	80.55
240.083	88.75
240.3	19.11
240.517	-5.46
240.735	21.16
240.952	43.69
241.169	66.22
241.386	27.31
241.603	66.22
241.821	49.83
242.038	27.31
242.255	39.59
242.472	64.17
242.689	-5.46
242.907	64.17
243.124	4.78
243.341	37.55
243.558	12.97
243.775	6.83
243.992	4.78
244.209	43.69
244.426	88.75
244.643	15.02
244.86	-19.8
245.078	72.36
245.295	-44.37
245.512	25.26
245.729	6.83
245.946	64.17
246.163	4.78
246.38	88.75
246.597	17.07
246.814	55.98
247.031	4.78
247.248	68.27
247.464	105.13
247.681	47.79
247.898	-13.65
248.115	47.79
248.332	6.83
248.549	72.36
248.766	55.98
248.983	137.9
249.2	68.27
249.417	27.31
249.633	86.7
249.85	96.94
250.067	107.18
250.284	17.07
250.501	88.75
250.717	41.64
250.934	58.03
251.151	35.5
251.368	49.83
251.585	23.21
251.801	27.31
252.018	29.35
252.235	84.65
252.451	43.69
252.668	-23.89
252.885	31.4
253.102	64.17
253.318	-30.04
253.535	-13.65
253.752	-11.61
253.968	33.45
254.185	55.98
254.401	-36.18
254.618	33.45
254.835	58.03
255.051	2.73
255.268	68.27
255.484	23.21
255.701	94.89
255.917	47.79
256.134	27.31
256.351	49.83
256.567	49.83
256.784	6.83
257	-15.7
257.217	45.74
257.433	33.45
257.65	70.31
257.866	60.07
258.082	-34.13
258.299	53.93
258.515	119.46
258.732	-15.7
258.948	37.55
259.165	47.79
259.381	29.35
259.597	72.36
259.814	10.92
260.03	-3.41
260.246	-9.56
260.463	12.97
260.679	35.5
260.895	49.83
261.112	49.83
261.328	-1.37
261.544	25.26
261.761	80.55
261.977	12.97
262.193	62.12
262.409	-13.65
262.626	8.87
262.842	90.79
263.058	64.17
263.274	-32.08
263.49	35.5
263.707	68.27
263.923	74.41
264.139	-42.32
264.355	19.11
264.571	62.12
264.787	113.32
265.004	37.55
265.22	66.22
265.436	49.83
265.652	74.41
265.868	98.99
266.084	-42.32
266.3	23.21
266.516	84.65
266.732	76.46
266.948	-7.51
267.164	55.98
267.38	37.55
267.596	70.31
267.812	29.35
268.028	17.07
268.244	-17.75
268.46	-25.94
268.676	25.26
268.892	70.31
269.108	33.45
269.324	29.35
269.54	88.75
269.756	37.55
269.972	53.93
270.188	35.5
270.403	103.08
270.619	88.75
270.835	25.26
271.051	84.65
271.267	23.21
271.483	10.92
271.698	66.22
271.914	15.02
272.13	10.92
272.346	-52.56
272.562	53.93
272.777	88.75
272.993	64.17
273.209	-32.08
273.425	55.98
273.64	31.4
273.856	84.65
274.072	4.78
274.287	60.07
274.503	55.98
274.719	84.65
274.934	29.35
275.15	47.79
275.366	96.94
275.581	51.88
275.797	25.26
276.012	-3.41
276.228	68.27
276.444	53.93
276.659	-3.41
276.875	4.78
277.09	72.36
277.306	74.41
277.521	60.07
277.737	72.36
277.952	47.79
278.168	111.27
278.383	88.75
278.599	64.17
278.814	15.02
279.03	-36.18
279.245	70.31
279.461	121.51
279.676	2.73
279.892	37.55
280.107	-5.46
280.322	8.87
280.538	58.03
280.753	10.92
280.969	103.08
281.184	55.98
281.399	82.6
281.615	31.4
281.83	131.75
282.045	-9.56
282.26	8.87
282.476	21.16
282.691	90.79
282.906	21.16
283.122	121.51
283.337	6.83
283.552	47.79
283.767	8.87
283.983	39.59
284.198	12.97
284.413	127.66
284.628	119.46
284.843	27.31
285.058	4.78
285.274	58.03
285.489	94.89
285.704	37.55
285.919	8.87
286.134	66.22
286.349	45.74
286.564	47.79
286.779	66.22
286.995	15.02
287.21	33.45
287.425	37.55
287.64	41.64
287.855	58.03
288.07	82.6
288.285	64.17
288.5	74.41
288.715	98.99
288.93	64.17
289.145	10.92
289.36	17.07
289.575	29.35
289.79	51.88
290.004	115.37
290.219	62.12
290.434	15.02
290.649	111.27
290.864	62.12
291.079	45.74
291.294	-11.61
291.509	12.97
291.724	72.36
291.938	66.22
292.153	119.46
292.368	8.87
292.583	58.03
292.798	113.32
293.012	82.6
293.227	70.31
293.442	43.69
293.657	21.16
293.871	8.87
294.086	15.02
294.301	37.55
294.516	66.22
294.73	37.55
294.945	23.21
295.16	47.79
295.374	53.93
295.589	55.98
295.804	25.26
296.018	47.79
296.233	35.5
296.447	17.07
296.662	33.45
296.877	19.11
297.091	113.32
297.306	-34.13
297.52	19.11
297.735	105.13
297.949	58.03
298.164	82.6
298.378	-1.37
298.593	4.78
298.807	-32.08
299.022	49.83
299.236	58.03
299.451	94.89
299.665	80.55
299.88	-3.41
300.094	-3.41
300.309	21.16
300.523	80.55
300.737	37.55
300.952	-25.94
301.166	51.88
301.381	27.31
301.595	90.79
301.809	33.45
302.024	41.64
302.238	109.22
302.452	53.93
302.667	-58.71
302.881	68.27
303.095	49.83
303.309	62.12
303.524	25.26
303.738	47.79
303.952	60.07
304.166	64.17
304.381	49.83
304.595	66.22
304.809	49.83
305.023	47.79
305.237	-13.65
305.452	62.12
305.666	33.45
305.88	88.75
306.094	47.79
306.308	113.32
306.522	12.97
306.736	62.12
306.95	101.03
307.164	47.79
307.379	8.87
307.593	92.84
307.807	49.83
308.021	80.55
308.235	119.46
308.449	51.88
308.663	62.12
308.877	131.75
309.091	86.7
309.305	70.31
309.519	70.31
309.733	55.98
309.947	-11.61
310.161	84.65
310.374	53.93
310.588	94.89
310.802	21.16
311.016	10.92
311.23	19.11
311.444	115.37
311.658	-7.51
311.872	76.46
312.085	96.94
312.299	15.02
312.513	2.73
312.727	-23.89
312.941	10.92
313.154	19.11
313.368	115.37
313.582	90.79
313.796	98.99
314.009	76.46
314.223	74.41
314.437	33.45
314.651	39.59
314.864	19.11
315.078	150.18
315.292	60.07
315.505	23.21
315.719	15.02
315.933	-3.41
316.146	74.41
316.36	27.31
316.573	27.31
316.787	105.13
317.001	72.36
317.214	-34.13
317.428	39.59
317.641	17.07
317.855	6.83
318.068	45.74
318.282	39.59
318.495	76.46
318.709	125.61
318.922	19.11
319.136	101.03
319.349	119.46
319.563	29.35
319.776	94.89
319.99	-64.85
320.203	76.46
320.417	76.46
320.63	-19.8
320.843	88.75
321.057	15.02
321.27	0.68
321.483	47.79
321.697	33.45
321.91	39.59
322.124	66.22
322.337	39.59
322.55	15.02
322.763	62.12
322.977	51.88
323.19	45.74
323.403	107.18
323.617	76.46
323.83	47.79
324.043	-3.41
324.256	31.4
324.469	-3.41
324.683	58.03
324.896	12.97
325.109	111.27
325.322	8.87
325.535	-13.65
325.748	33.45
325.962	10.92
326.175	31.4
326.388	58.03
326.601	8.87
326.814	-1.37
327.027	15.02
327.24	94.89
327.453	62.12
327.666	92.84
327.879	23.21
328.092	-3.41
328.305	66.22
328.518	37.55
328.731	23.21
328.944	60.07
329.157	33.45
329.37	101.03
329.583	80.55
329.796	15.02
330.009	-3.41
330.222	58.03
330.435	72.36
330.648	8.87
330.861	19.11
331.073	35.5
331.286	41.64
331.499	-1.37
331.712	45.74
331.925	109.22
332.138	68.27
332.35	82.6
332.563	55.98
332.776	80.55
332.989	62.12
333.202	29.35
333.414	74.41
333.627	70.31
333.84	92.84
334.053	-7.51
334.265	31.4
334.478	19.11
334.691	76.46
334.903	80.55
335.116	17.07
335.329	-68.95
335.541	68.27
335.754	84.65
335.966	27.31
336.179	41.64
336.392	10.92
336.604	43.69
336.817	60.07
337.029	66.22
337.242	84.65
337.454	76.46
337.667	-36.18
337.88	21.16
338.092	23.21
338.305	-9.56
338.517	29.35
338.729	80.55
338.942	131.75
339.154	49.83
339.367	6.83
339.579	70.31
339.792	68.27
340.004	39.59
340.217	80.55
340.429	121.51
340.641	92.84
340.854	12.97
341.066	141.99
341.278	19.11
341.491	66.22
341.703	60.07
341.915	2.73
342.128	-23.89
342.34	64.17
342.552	29.35
342.764	107.18
342.977	-11.61
343.189	66.22
343.401	76.46
343.613	39.59
343.826	-19.8
344.038	76.46
344.25	76.46
344.462	41.64
344.674	15.02
344.886	31.4
345.099	60.07
345.311	35.5
345.523	31.4
345.735	29.35
345.947	62.12
346.159	25.26
346.371	33.45
346.583	58.03
346.795	127.66
347.007	62.12
347.219	-9.56
347.431	82.6
347.643	146.09
347.855	6.83
348.067	21.16
348.279	19.11
348.491	133.8
348.703	29.35
348.915	33.45
349.127	15.02
349.339	86.7
349.551	-9.56
349.763	90.79
349.975	86.7
350.187	80.55
350.399	55.98
350.61	62.12
350.822	23.21
351.034	29.35
351.246	-13.65
351.458	21.16
351.669	62.12
351.881	88.75
352.093	37.55
352.305	-1.37
352.517	27.31
352.728	74.41
352.94	51.88
353.152	49.83
353.363	33.45
353.575	105.13
353.787	82.6
353.999	35.5
354.21	47.79
354.422	76.46
354.633	74.41
354.845	33.45
355.057	49.83
355.268	33.45
355.48	109.22
355.692	31.4
355.903	39.59
356.115	45.74
356.326	49.83
356.538	58.03
356.749	21.16
356.961	74.41
357.172	64.17
357.384	17.07
357.595	156.33
357.807	119.46
358.018	23.21
358.23	68.27
358.441	86.7
358.653	64.17
358.864	58.03
359.075	58.03
359.287	29.35
359.498	33.45
359.709	82.6
359.921	86.7
360.132	8.87
360.344	41.64
360.555	33.45
360.766	94.89
360.977	92.84
361.189	23.21
361.4	6.83
361.611	37.55
361.823	39.59
362.034	125.61
362.245	92.84
362.456	4.78
362.667	129.7
362.879	88.75
363.09	25.26
363.301	144.04
363.512	25.26
363.723	88.75
363.935	39.59
364.146	55.98
364.357	21.16
364.568	98.99
364.779	49.83
364.99	96.94
365.201	70.31
365.412	47.79
365.623	-27.99
365.834	72.36
366.045	39.59
366.256	37.55
366.467	25.26
366.678	94.89
366.889	-36.18
367.1	90.79
367.311	-1.37
367.522	84.65
367.733	80.55
367.944	146.09
368.155	68.27
368.366	58.03
368.577	55.98
368.788	-1.37
368.999	4.78
369.209	86.7
369.42	84.65
369.631	66.22
369.842	25.26
370.053	41.64
370.264	6.83
370.474	98.99
370.685	64.17
370.896	76.46
371.107	47.79
371.317	94.89
371.528	41.64
371.739	72.36
371.95	25.26
372.16	19.11
372.371	0.68
372.582	55.98
372.792	125.61
373.003	74.41
373.214	72.36
373.424	2.73
373.635	47.79
373.846	121.51
374.056	64.17
374.267	0.68
374.477	84.65
374.688	70.31
374.898	43.69
375.109	70.31
375.319	6.83
375.53	72.36
375.74	21.16
375.951	94.89
376.161	90.79
376.372	162.47
376.582	-9.56
376.793	78.51
377.003	90.79
377.214	53.93
377.424	101.03
377.635	39.59
377.845	33.45
378.055	55.98
378.266	29.35
378.476	29.35
378.686	51.88
378.897	101.03
379.107	31.4
379.317	90.79
379.528	98.99
379.738	90.79
379.948	31.4
380.158	53.93
380.369	47.79
380.579	41.64
380.789	43.69
380.999	37.55
381.21	101.03
381.42	119.46
381.63	84.65
381.84	115.37
382.05	64.17
382.261	121.51
382.471	88.75
382.681	72.36
382.891	62.12
383.101	41.64
383.311	105.13
383.521	-1.37
383.731	109.22
383.941	29.35
384.151	70.31
384.361	31.4
384.571	49.83
384.781	107.18
384.991	121.51
385.201	86.7
385.411	119.46
385.621	51.88
385.831	86.7
386.041	109.22
386.251	80.55
386.461	92.84
386.671	68.27
386.881	96.94
387.091	80.55
387.301	80.55
387.511	45.74
387.72	107.18
387.93	76.46
388.14	19.11
388.35	90.79
388.56	53.93
388.769	70.31
388.979	49.83
389.189	33.45
389.399	66.22
389.609	15.02
389.818	129.7
390.028	78.51
390.238	98.99
390.447	64.17
390.657	117.42
390.867	66.22
391.076	121.51
391.286	39.59
391.496	68.27
391.705	60.07
391.915	123.56
392.125	58.03
392.334	82.6
392.544	125.61
392.753	105.13
392.963	78.51
393.172	121.51
393.382	-46.42
393.591	49.83
393.801	41.64
394.01	107.18
394.22	53.93
394.429	98.99
394.639	29.35
394.848	162.47
395.058	162.47
395.267	78.51
395.477	41.64
395.686	80.55
395.895	141.99
396.105	131.75
396.314	82.6
396.524	105.13
396.733	68.27
396.942	133.8
397.152	55.98
397.361	158.38
397.57	84.65
397.78	39.59
397.989	92.84
398.198	84.65
398.407	64.17
398.617	74.41
398.826	150.18
399.035	123.56
399.244	117.42
399.453	125.61
399.663	101.03
399.872	96.94
400.081	76.46
400.29	164.52
400.499	84.65
400.708	78.51
400.917	90.79
401.127	105.13
401.336	49.83
401.545	185
401.754	109.22
401.963	96.94
402.172	189.1
402.381	127.66
402.59	123.56
402.799	86.7
403.008	133.8
403.217	92.84
403.426	98.99
403.635	78.51
403.844	137.9
404.053	70.31
404.262	121.51
404.471	115.37
404.68	80.55
404.888	78.51
405.097	137.9
405.306	135.85
405.515	144.04
405.724	53.93
405.933	109.22
406.142	170.66
406.35	230.06
406.559	178.86
406.768	146.09
406.977	129.7
407.185	129.7
407.394	197.29
407.603	141.99
407.812	185
408.02	164.52
408.229	221.86
408.438	277.16
408.646	164.52
408.855	162.47
409.064	193.19
409.272	201.38
409.481	314.02
409.69	162.47
409.898	258.73
410.107	277.16
410.315	254.63
410.524	246.44
410.733	236.2
410.941	289.45
411.15	244.39
411.358	293.54
411.567	314.02
411.775	307.88
411.984	342.69
412.192	303.78
412.401	281.25
412.609	338.6
412.818	404.13
413.026	455.33
413.234	381.6
413.443	389.8
413.651	449.19
413.86	408.23
414.068	490.15
414.276	441
414.485	481.96
414.693	471.72
414.901	557.73
415.11	582.31
415.318	551.59
415.526	563.87
415.734	524.96
415.943	510.63
416.151	623.27
416.359	713.38
416.567	699.04
416.776	619.17
416.984	729.76
417.192	795.29
417.4	766.62
417.608	656.03
417.817	858.78
418.025	815.77
418.233	903.84
418.441	887.45
418.649	869.02
418.857	993.95
419.065	1012.38
419.273	912.03
419.481	1084.06
419.689	993.95
419.897	1139.35
420.105	1098.39
420.313	1303.19
420.521	1172.12
420.729	1202.84
420.937	1333.91
421.145	1278.62
421.353	1424.02
421.561	1473.17
421.769	1460.88
421.977	1462.93
422.185	1583.76
422.393	1594
422.601	1620.63
422.809	1759.89
423.017	1675.92
423.224	1741.46
423.432	1874.57
423.64	1864.33
423.848	2058.89
424.056	1997.45
424.263	2110.09
424.471	2151.05
424.679	2187.91
424.887	2310.79
425.094	2392.71
425.302	2380.42
425.51	2390.66
425.718	2527.88
425.925	2583.17
426.133	2650.75
426.341	2714.24
426.548	2916.99
426.756	2966.14
426.964	2943.61
427.171	3021.44
427.379	3093.12
427.586	3207.8
427.794	3455.61
428.001	3537.52
428.209	3734.13
428.417	3568.24
428.624	3912.3
428.832	3969.65
429.039	3904.11
429.247	3873.39
429.454	4215.4
429.662	4514.41
429.869	4199.02
430.076	4547.17
430.284	4270.7
430.491	4625
430.699	4799.07
430.906	4934.24
431.114	4989.53
431.321	5202.52
431.528	5282.39
431.736	5405.27
431.943	5704.28
432.15	5542.49
432.358	5530.2
432.565	6054.48
432.772	5806.67
432.979	6189.64
433.187	6363.72
433.394	6316.62
433.601	7060.03
433.808	6838.85
434.016	6746.69
434.223	7121.47
434.43	7569.98
434.637	7322.17
434.844	7793.2
435.052	8096.3
435.259	7975.47
435.466	8032.82
435.673	8047.15
435.88	8512.04
436.087	8907.3
436.294	8933.92
436.501	8675.88
436.708	8847.91
436.915	9234.97
437.122	9607.7
437.329	9714.2
437.537	9775.64
437.743	10320.4
437.95	10066.45
438.157	10570.25
438.364	11061.76
438.571	10826.25
438.778	10869.25
438.985	12124.66
439.192	11600.38
439.399	11969.01
439.606	11655.67
439.813	12644.84
440.02	12937.7
440.227	12898.79
440.433	12716.52
440.64	13111.78
440.847	12974.56
441.054	13267.42
441.261	14410.19
441.467	14209.49
441.674	14582.22
441.881	15143.36
442.088	14967.24
442.294	14852.55
442.501	15288.77
442.708	15278.53
442.914	16288.18
443.121	16722.35
443.328	16396.72
443.534	17363.36
443.741	16974.25
443.948	16648.62
444.154	17680.8
444.361	18004.38
444.568	17936.79
444.774	18061.72
444.981	18235.8
445.187	18979.21
445.394	19507.58
445.6	19491.2
445.807	21307.75
446.013	20312.44
446.22	20621.68
446.426	21551.46
446.633	21948.76
446.839	22407.51
447.046	21614.94
447.252	22667.6
447.459	22673.74
447.665	22671.7
447.871	23892.29
448.078	24906.03
448.284	23445.83
448.491	24207.67
448.697	24924.46
448.903	25551.14
449.11	25690.4
449.316	25606.44
449.522	25747.75
449.728	26624.28
449.935	26710.29
450.141	26620.18
450.347	27312.39
450.553	26302.75
450.76	26638.61
450.966	27724.04
451.172	27296.01
451.378	28238.08
451.584	27361.55
451.791	28012.8
451.997	28332.28
452.203	28694.77
452.409	28813.56
452.615	28477.69
452.821	27642.12
453.027	26900.75
453.233	28709.11
453.44	27525.38
453.646	27932.93
453.852	27652.36
454.058	28590.33
454.264	27670.79
454.47	27980.03
454.676	27066.64
454.882	28297.47
455.088	25598.24
455.294	26222.87
455.5	26796.31
455.705	27029.77
455.911	26317.08
456.117	25164.07
456.323	25006.38
456.529	23935.29
456.735	24852.78
456.941	23884.09
457.147	23607.62
457.352	22923.6
457.558	22851.92
457.764	22735.18
457.97	22268.25
458.176	22057.31
458.381	22040.92
458.587	20849
458.793	20922.73
458.999	19906.94
459.204	21242.21
459.41	20668.78
459.616	18942.35
459.821	18991.5
460.027	19181.96
460.233	18813.32
460.438	17938.84
460.644	18108.82
460.85	17492.38
461.055	16882.09
461.261	16900.52
461.466	15636.92
461.672	15278.53
461.878	16316.85
462.083	15342.02
462.289	14967.24
462.494	14682.57
462.7	14293.46
462.905	13601.24
463.111	14315.98
463.316	14481.87
463.522	13951.45
463.727	14328.27
463.932	14023.12
464.138	14041.56
464.343	14121.43
464.549	13664.73
464.754	14113.24
464.959	13627.87
465.165	13834.71
465.37	13205.99
465.575	12796.39
465.781	13343.2
465.986	13431.26
466.191	12808.68
466.397	12562.92
466.602	12182
466.807	12526.06
467.012	12501.48
467.218	12354.03
467.423	12544.49
467.628	12290.54
467.833	12933.61
468.038	12501.48
