Data from USB4F104151__23__12-27-10-075.txt Node

Date: Fri Mar 14 12:27:10 EDT 2025
User: louis
Spectrometer: USB4F10415
Trigger mode: 4
Integration Time (sec): 2.000000E-2
Scans to average: 1
Electric dark correction enabled: true
Nonlinearity correction enabled: false
Boxcar width: 0
XAxis mode: Wavelengths
Number of Pixels in Spectrum: 3648
>>>>>Begin Spectral Data<<<<<
178.204	-43.01
178.424	-43.01
178.644	-43.01
178.864	-92.16
179.084	-92.16
179.304	20.48
179.524	-10.24
179.744	-6.14
179.964	8.19
180.184	-59.39
180.404	-10.24
180.624	40.96
180.844	2.05
181.064	-20.48
181.283	-0
181.503	-26.62
181.723	61.44
181.943	-36.86
182.163	98.3
182.383	40.96
182.602	102.4
182.822	22.53
183.042	43.01
183.262	34.82
183.482	24.58
183.701	26.62
183.921	129.02
184.141	-24.58
184.361	81.92
184.58	59.39
184.8	73.73
185.02	-4.1
185.239	34.82
185.459	49.15
185.679	100.35
185.898	43.01
186.118	-26.62
186.338	36.86
186.557	-32.77
186.777	45.06
186.997	-2.05
187.216	6.14
187.436	77.82
187.655	-20.48
187.875	75.77
188.095	-18.43
188.314	45.06
188.534	24.58
188.753	24.58
188.973	57.34
189.192	40.96
189.412	47.1
189.631	47.1
189.851	-2.05
190.07	4.1
190.29	10.24
190.509	20.48
190.729	18.43
190.948	114.69
191.168	71.68
191.387	32.77
191.607	40.96
191.826	-6.14
192.045	16.38
192.265	16.38
192.484	-24.58
192.704	30.72
192.923	28.67
193.142	112.64
193.362	-4.1
193.581	24.58
193.8	49.15
194.02	-0
194.239	-20.48
194.458	57.34
194.678	26.62
194.897	-2.05
195.116	20.48
195.335	30.72
195.555	-16.38
195.774	40.96
195.993	28.67
196.212	-16.38
196.432	-14.34
196.651	16.38
196.87	-57.34
197.089	53.25
197.308	-22.53
197.528	73.73
197.747	-6.14
197.966	77.82
198.185	-28.67
198.404	-55.3
198.623	-38.91
198.842	40.96
199.062	-20.48
199.281	32.77
199.5	24.58
199.719	30.72
199.938	-6.14
200.157	6.14
200.376	-24.58
200.595	55.3
200.814	-2.05
201.033	22.53
201.252	28.67
201.471	-10.24
201.69	34.82
201.909	-16.38
202.128	26.62
202.347	-10.24
202.566	20.48
202.785	108.54
203.004	59.39
203.223	28.67
203.442	51.2
203.661	4.1
203.879	22.53
204.098	36.86
204.317	-0
204.536	36.86
204.755	-10.24
204.974	77.82
205.193	20.48
205.411	108.54
205.63	49.15
205.849	-32.77
206.068	55.3
206.287	-40.96
206.505	53.25
206.724	-12.29
206.943	32.77
207.162	55.3
207.381	-40.96
207.599	16.38
207.818	4.1
208.037	30.72
208.255	45.06
208.474	73.73
208.693	8.19
208.911	49.15
209.13	-32.77
209.349	30.72
209.567	-2.05
209.786	32.77
210.005	55.3
210.223	20.48
210.442	16.38
210.661	53.25
210.879	-0
211.098	-16.38
211.316	8.19
211.535	4.1
211.753	-0
211.972	108.54
212.191	30.72
212.409	81.92
212.628	20.48
212.846	-18.43
213.065	14.34
213.283	8.19
213.502	-49.15
213.72	40.96
213.938	112.64
214.157	8.19
214.375	49.15
214.594	30.72
214.812	79.87
215.031	-2.05
215.249	8.19
215.467	-6.14
215.686	16.38
215.904	79.87
216.122	30.72
216.341	59.39
216.559	-2.05
216.778	86.01
216.996	38.91
217.214	-0
217.432	-6.14
217.651	14.34
217.869	65.53
218.087	53.25
218.306	-10.24
218.524	6.14
218.742	-14.34
218.96	47.1
219.179	-20.48
219.397	79.87
219.615	90.11
219.833	61.44
220.051	43.01
220.27	30.72
220.488	32.77
220.706	28.67
220.924	-73.73
221.142	61.44
221.36	8.19
221.578	26.62
221.796	73.73
222.015	57.34
222.233	57.34
222.451	65.53
222.669	-24.58
222.887	12.29
223.105	-24.58
223.323	-6.14
223.541	6.14
223.759	67.58
223.977	-22.53
224.195	14.34
224.413	28.67
224.631	26.62
224.849	-20.48
225.067	73.73
225.285	-59.39
225.503	47.1
225.721	-40.96
225.939	49.15
226.157	-4.1
226.375	53.25
226.592	59.39
226.81	-49.15
227.028	124.93
227.246	59.39
227.464	28.67
227.682	32.77
227.9	34.82
228.117	28.67
228.335	28.67
228.553	6.14
228.771	14.34
228.989	40.96
229.206	61.44
229.424	32.77
229.642	63.49
229.86	26.62
230.077	83.97
230.295	-16.38
230.513	14.34
230.731	88.06
230.948	24.58
231.166	47.1
231.384	-18.43
231.601	55.3
231.819	14.34
232.037	-0
232.254	-14.34
232.472	-40.96
232.689	88.06
232.907	79.87
233.125	32.77
233.342	36.86
233.56	-49.15
233.777	26.62
233.995	2.05
234.213	98.3
234.43	63.49
234.648	55.3
234.865	-30.72
235.083	14.34
235.3	14.34
235.518	4.1
235.735	40.96
235.953	45.06
236.17	12.29
236.388	14.34
236.605	51.2
236.822	180.22
237.04	67.58
237.257	71.68
237.475	16.38
237.692	36.86
237.909	36.86
238.127	8.19
238.344	43.01
238.562	28.67
238.779	4.1
238.996	-4.1
239.214	-18.43
239.431	16.38
239.648	12.29
239.865	6.14
240.083	51.2
240.3	38.91
240.517	-40.96
240.735	92.16
240.952	26.62
241.169	67.58
241.386	12.29
241.603	59.39
241.821	57.34
242.038	10.24
242.255	-26.62
242.472	26.62
242.689	100.35
242.907	131.07
243.124	22.53
243.341	38.91
243.558	92.16
243.775	12.29
243.992	36.86
244.209	49.15
244.426	6.14
244.643	69.63
244.86	106.49
245.078	6.14
245.295	47.1
245.512	22.53
245.729	-26.62
245.946	55.3
246.163	36.86
246.38	40.96
246.597	-22.53
246.814	45.06
247.031	-16.38
247.248	4.1
247.464	20.48
247.681	32.77
247.898	40.96
248.115	81.92
248.332	28.67
248.549	79.87
248.766	77.82
248.983	20.48
249.2	10.24
249.417	-65.54
249.633	2.05
249.85	4.1
250.067	-43.01
250.284	28.67
250.501	-49.15
250.717	69.63
250.934	2.05
251.151	14.34
251.368	-4.1
251.585	73.73
251.801	34.82
252.018	20.48
252.235	57.34
252.451	14.34
252.668	30.72
252.885	16.38
253.102	-12.29
253.318	-53.25
253.535	16.38
253.752	24.58
253.968	8.19
254.185	49.15
254.401	-6.14
254.618	32.77
254.835	-20.48
255.051	-12.29
255.268	-36.86
255.484	40.96
255.701	59.39
255.917	86.01
256.134	-53.25
256.351	43.01
256.567	26.62
256.784	28.67
257	4.1
257.217	81.92
257.433	30.72
257.65	-0
257.866	59.39
258.082	28.67
258.299	53.25
258.515	-32.77
258.732	-28.67
258.948	67.58
259.165	-0
259.381	53.25
259.597	-20.48
259.814	18.43
260.03	-34.82
260.246	22.53
260.463	65.53
260.679	118.78
260.895	69.63
261.112	49.15
261.328	-8.19
261.544	18.43
261.761	100.35
261.977	71.68
262.193	49.15
262.409	-2.05
262.626	8.19
262.842	2.05
263.058	-40.96
263.274	-63.49
263.49	43.01
263.707	-24.58
263.923	108.54
264.139	22.53
264.355	6.14
264.571	14.34
264.787	-2.05
265.004	6.14
265.22	51.2
265.436	-0
265.652	10.24
265.868	59.39
266.084	57.34
266.3	-14.34
266.516	49.15
266.732	-18.43
266.948	-47.1
267.164	-34.82
267.38	51.2
267.596	6.14
267.812	55.3
268.028	106.49
268.244	-26.62
268.46	45.06
268.676	-10.24
268.892	67.58
269.108	36.86
269.324	-30.72
269.54	20.48
269.756	71.68
269.972	-8.19
270.188	49.15
270.403	-32.77
270.619	53.25
270.835	57.34
271.051	49.15
271.267	38.91
271.483	6.14
271.698	69.63
271.914	10.24
272.13	49.15
272.346	12.29
272.562	59.39
272.777	45.06
272.993	34.82
273.209	-10.24
273.425	63.49
273.64	-16.38
273.856	-32.77
274.072	67.58
274.287	-18.43
274.503	-28.67
274.719	-14.34
274.934	38.91
275.15	45.06
275.366	-2.05
275.581	-36.86
275.797	34.82
276.012	-20.48
276.228	49.15
276.444	4.1
276.659	75.77
276.875	59.39
277.09	4.1
277.306	104.45
277.521	63.49
277.737	57.34
277.952	49.15
278.168	63.49
278.383	69.63
278.599	-22.53
278.814	59.39
279.03	-20.48
279.245	-8.19
279.461	77.82
279.676	4.1
279.892	28.67
280.107	18.43
280.322	36.86
280.538	90.11
280.753	-45.06
280.969	83.97
281.184	16.38
281.399	38.91
281.615	8.19
281.83	24.58
282.045	-28.67
282.26	69.63
282.476	-94.21
282.691	106.49
282.906	67.58
283.122	59.39
283.337	137.21
283.552	20.48
283.767	55.3
283.983	-6.14
284.198	14.34
284.413	57.34
284.628	61.44
284.843	10.24
285.058	26.62
285.274	40.96
285.489	-49.15
285.704	-0
285.919	-6.14
286.134	53.25
286.349	16.38
286.564	14.34
286.779	63.49
286.995	71.68
287.21	-30.72
287.425	-2.05
287.64	-49.15
287.855	-0
288.07	38.91
288.285	67.58
288.5	-4.1
288.715	-0
288.93	-92.16
289.145	20.48
289.36	2.05
289.575	22.53
289.79	79.87
290.004	28.67
290.219	-2.05
290.434	-34.82
290.649	-10.24
290.864	38.91
291.079	53.25
291.294	8.19
291.509	38.91
291.724	24.58
291.938	-8.19
292.153	51.2
292.368	-34.82
292.583	18.43
292.798	65.53
293.012	90.11
293.227	6.14
293.442	59.39
293.657	102.4
293.871	81.92
294.086	6.14
294.301	-32.77
294.516	110.59
294.73	81.92
294.945	-69.63
295.16	10.24
295.374	43.01
295.589	49.15
295.804	-4.1
296.018	-0
296.233	81.92
296.447	38.91
296.662	16.38
296.877	65.53
297.091	-30.72
297.306	24.58
297.52	-16.38
297.735	-22.53
297.949	8.19
298.164	38.91
298.378	-24.58
298.593	51.2
298.807	24.58
299.022	-8.19
299.236	32.77
299.451	12.29
299.665	61.44
299.88	71.68
300.094	47.1
300.309	22.53
300.523	49.15
300.737	28.67
300.952	26.62
301.166	16.38
301.381	32.77
301.595	55.3
301.809	43.01
302.024	22.53
302.238	-36.86
302.452	38.91
302.667	-10.24
302.881	67.58
303.095	34.82
303.309	45.06
303.524	2.05
303.738	79.87
303.952	110.59
304.166	34.82
304.381	36.86
304.595	-4.1
304.809	16.38
305.023	28.67
305.237	49.15
305.452	24.58
305.666	18.43
305.88	40.96
306.094	4.1
306.308	47.1
306.522	51.2
306.736	10.24
306.95	71.68
307.164	-0
307.379	75.77
307.593	26.62
307.807	88.06
308.021	49.15
308.235	-20.48
308.449	-43.01
308.663	18.43
308.877	55.3
309.091	-18.43
309.305	26.62
309.519	10.24
309.733	38.91
309.947	43.01
310.161	47.1
310.374	38.91
310.588	12.29
310.802	-34.82
311.016	-28.67
311.23	2.05
311.444	-0
311.658	-10.24
311.872	14.34
312.085	73.73
312.299	26.62
312.513	45.06
312.727	12.29
312.941	65.53
313.154	18.43
313.368	-47.1
313.582	24.58
313.796	14.34
314.009	22.53
314.223	-57.34
314.437	55.3
314.651	36.86
314.864	-53.25
315.078	34.82
315.292	-16.38
315.505	10.24
315.719	18.43
315.933	-28.67
316.146	12.29
316.36	8.19
316.573	32.77
316.787	2.05
317.001	-22.53
317.214	45.06
317.428	14.34
317.641	6.14
317.855	18.43
318.068	-8.19
318.282	100.35
318.495	81.92
318.709	81.92
318.922	26.62
319.136	-4.1
319.349	16.38
319.563	65.53
319.776	30.72
319.99	-45.06
320.203	-0
320.417	59.39
320.63	63.49
320.843	77.82
321.057	-24.58
321.27	61.44
321.483	-40.96
321.697	79.87
321.91	51.2
322.124	112.64
322.337	59.39
322.55	-45.06
322.763	8.19
322.977	71.68
323.19	53.25
323.403	-8.19
323.617	-43.01
323.83	69.63
324.043	-2.05
324.256	28.67
324.469	12.29
324.683	36.86
324.896	32.77
325.109	-12.29
325.322	67.58
325.535	149.5
325.748	14.34
325.962	-24.58
326.175	55.3
326.388	65.53
326.601	10.24
326.814	63.49
327.027	-16.38
327.24	104.45
327.453	47.1
327.666	-10.24
327.879	67.58
328.092	45.06
328.305	124.93
328.518	83.97
328.731	36.86
328.944	26.62
329.157	75.77
329.37	26.62
329.583	65.53
329.796	36.86
330.009	6.14
330.222	75.77
330.435	20.48
330.648	47.1
330.861	-14.34
331.073	24.58
331.286	53.25
331.499	16.38
331.712	55.3
331.925	28.67
332.138	73.73
332.35	30.72
332.563	-2.05
332.776	124.93
332.989	-61.44
333.202	20.48
333.414	47.1
333.627	49.15
333.84	28.67
334.053	38.91
334.265	-2.05
334.478	26.62
334.691	43.01
334.903	34.82
335.116	-0
335.329	8.19
335.541	59.39
335.754	67.58
335.966	112.64
336.179	40.96
336.392	14.34
336.604	24.58
336.817	79.87
337.029	90.11
337.242	88.06
337.454	55.3
337.667	-12.29
337.88	40.96
338.092	38.91
338.305	53.25
338.517	30.72
338.729	-0
338.942	47.1
339.154	-14.34
339.367	8.19
339.579	88.06
339.792	-24.58
340.004	65.53
340.217	26.62
340.429	24.58
340.641	26.62
340.854	12.29
341.066	-2.05
341.278	51.2
341.491	38.91
341.703	4.1
341.915	24.58
342.128	75.77
342.34	24.58
342.552	40.96
342.764	40.96
342.977	67.58
343.189	-32.77
343.401	81.92
343.613	-18.43
343.826	-28.67
344.038	43.01
344.25	79.87
344.462	49.15
344.674	81.92
344.886	40.96
345.099	12.29
345.311	61.44
345.523	-4.1
345.735	133.12
345.947	22.53
346.159	-8.19
346.371	-36.86
346.583	18.43
346.795	-0
347.007	30.72
347.219	102.4
347.431	20.48
347.643	61.44
347.855	28.67
348.067	67.58
348.279	-24.58
348.491	16.38
348.703	53.25
348.915	26.62
349.127	26.62
349.339	36.86
349.551	16.38
349.763	30.72
349.975	14.34
350.187	61.44
350.399	45.06
350.61	98.3
350.822	71.68
351.034	28.67
351.246	100.35
351.458	-38.91
351.669	20.48
351.881	-20.48
352.093	22.53
352.305	98.3
352.517	32.77
352.728	69.63
352.94	49.15
353.152	88.06
353.363	22.53
353.575	-34.82
353.787	83.97
353.999	55.3
354.21	12.29
354.422	-22.53
354.633	63.49
354.845	75.77
355.057	32.77
355.268	51.2
355.48	77.82
355.692	40.96
355.903	14.34
356.115	43.01
356.326	61.44
356.538	88.06
356.749	57.34
356.961	90.11
357.172	-6.14
357.384	-10.24
357.595	90.11
357.807	-18.43
358.018	-8.19
358.23	92.16
358.441	96.25
358.653	24.58
358.864	24.58
359.075	-10.24
359.287	-6.14
359.498	49.15
359.709	94.21
359.921	20.48
360.132	43.01
360.344	63.49
360.555	53.25
360.766	26.62
360.977	92.16
361.189	88.06
361.4	-4.1
361.611	92.16
361.823	51.2
362.034	32.77
362.245	43.01
362.456	45.06
362.667	53.25
362.879	36.86
363.09	116.73
363.301	88.06
363.512	6.14
363.723	106.49
363.935	57.34
364.146	92.16
364.357	77.82
364.568	65.53
364.779	-4.1
364.99	55.3
365.201	67.58
365.412	61.44
365.623	-49.15
365.834	20.48
366.045	51.2
366.256	-18.43
366.467	73.73
366.678	4.1
366.889	43.01
367.1	63.49
367.311	12.29
367.522	12.29
367.733	38.91
367.944	49.15
368.155	88.06
368.366	126.97
368.577	40.96
368.788	65.53
368.999	90.11
369.209	81.92
369.42	65.53
369.631	92.16
369.842	34.82
370.053	6.14
370.264	18.43
370.474	43.01
370.685	77.82
370.896	-2.05
371.107	-28.67
371.317	77.82
371.528	75.77
371.739	165.89
371.95	69.63
372.16	143.36
372.371	94.21
372.582	40.96
372.792	90.11
373.003	63.49
373.214	-6.14
373.424	61.44
373.635	-4.1
373.846	65.53
374.056	51.2
374.267	96.25
374.477	2.05
374.688	73.73
374.898	28.67
375.109	40.96
375.319	57.34
375.53	122.88
375.74	10.24
375.951	28.67
376.161	90.11
376.372	94.21
376.582	24.58
376.793	-26.62
377.003	47.1
377.214	73.73
377.424	4.1
377.635	45.06
377.845	-38.91
378.055	8.19
378.266	26.62
378.476	-20.48
378.686	83.97
378.897	26.62
379.107	30.72
379.317	81.92
379.528	57.34
379.738	108.54
379.948	-16.38
380.158	38.91
380.369	32.77
380.579	75.77
380.789	12.29
380.999	24.58
381.21	32.77
381.42	106.49
381.63	6.14
381.84	71.68
382.05	81.92
382.261	81.92
382.471	2.05
382.681	90.11
382.891	96.25
383.101	28.67
383.311	-18.43
383.521	18.43
383.731	-6.14
383.941	71.68
384.151	28.67
384.361	16.38
384.571	53.25
384.781	88.06
384.991	26.62
385.201	77.82
385.411	59.39
385.621	-8.19
385.831	98.3
386.041	83.97
386.251	28.67
386.461	49.15
386.671	90.11
386.881	65.53
387.091	61.44
387.301	69.63
387.511	43.01
387.72	32.77
387.93	63.49
388.14	63.49
388.35	108.54
388.56	34.82
388.769	-4.1
388.979	90.11
389.189	92.16
389.399	69.63
389.609	2.05
389.818	47.1
390.028	110.59
390.238	16.38
390.447	2.05
390.657	122.88
390.867	18.43
391.076	43.01
391.286	-0
391.496	59.39
391.705	79.87
391.915	32.77
392.125	-6.14
392.334	40.96
392.544	124.93
392.753	77.82
392.963	12.29
393.172	122.88
393.382	77.82
393.591	149.5
393.801	-32.77
394.01	75.77
394.22	73.73
394.429	47.1
394.639	18.43
394.848	69.63
395.058	65.53
395.267	120.83
395.477	112.64
395.686	73.73
395.895	118.78
396.105	77.82
396.314	102.4
396.524	38.91
396.733	98.3
396.942	100.35
397.152	22.53
397.361	131.07
397.57	43.01
397.78	133.12
397.989	98.3
398.198	122.88
398.407	24.58
398.617	71.68
398.826	-0
399.035	98.3
399.244	131.07
399.453	-32.77
399.663	110.59
399.872	118.78
400.081	-6.14
400.29	96.25
400.499	45.06
400.708	71.68
400.917	6.14
401.127	188.41
401.336	65.53
401.545	145.41
401.754	94.21
401.963	75.77
402.172	118.78
402.381	98.3
402.59	100.35
402.799	88.06
403.008	118.78
403.217	98.3
403.426	108.54
403.635	75.77
403.844	43.01
404.053	118.78
404.262	94.21
404.471	133.12
404.68	108.54
404.888	92.16
405.097	90.11
405.306	151.55
405.515	67.58
405.724	124.93
405.933	133.12
406.142	157.69
406.35	194.56
406.559	165.89
406.768	131.07
406.977	221.18
407.185	143.36
407.394	159.74
407.603	104.45
407.812	153.6
408.02	208.89
408.229	137.21
408.438	176.13
408.646	184.32
408.855	223.23
409.064	182.27
409.272	143.36
409.481	208.89
409.69	182.27
409.898	204.8
410.107	231.42
410.315	249.85
410.524	192.51
410.733	253.95
410.941	282.62
411.15	294.91
411.358	245.76
411.567	325.63
411.775	303.1
411.984	350.2
412.192	321.53
412.401	272.38
412.609	358.39
412.818	389.11
413.026	258.04
413.234	395.26
413.443	348.15
413.651	454.65
413.86	415.74
414.068	499.7
414.276	485.37
414.485	471.03
414.693	491.51
414.901	473.08
415.11	489.46
415.318	534.52
415.526	520.18
415.734	516.09
415.943	589.81
416.151	589.81
416.359	677.88
416.567	573.43
416.776	651.25
416.984	688.12
417.192	774.13
417.4	610.29
417.608	696.31
417.817	735.22
418.025	825.33
418.233	825.33
418.441	749.56
418.649	833.52
418.857	976.88
419.065	1019.89
419.273	854
419.481	997.36
419.689	1064.94
419.897	1038.32
420.105	1064.94
420.313	1120.24
420.521	1128.43
420.729	1161.2
420.937	1202.16
421.145	1337.32
421.353	1294.32
421.561	1409
421.769	1384.43
421.977	1507.3
422.185	1427.43
422.393	1583.08
422.601	1695.72
422.809	1648.61
423.017	1753.06
423.224	1734.63
423.432	1880.04
423.64	1892.32
423.848	1998.82
424.056	1964
424.263	2140.13
424.471	2107.36
424.679	2031.58
424.887	2179.04
425.094	2340.83
425.302	2310.11
425.51	2584.54
425.718	2443.23
425.925	2385.88
426.133	2596.82
426.341	2684.89
426.548	2809.81
426.756	2768.85
426.964	3008.47
427.171	3088.34
427.379	3141.58
427.586	3194.83
427.794	3436.49
428.001	3334.09
428.209	3606.47
428.417	3497.93
428.624	3735.49
428.832	3710.92
429.039	3831.75
429.247	3659.72
429.454	4104.13
429.662	4257.73
429.869	4016.07
430.076	4251.58
430.284	4294.59
430.491	4327.36
430.699	4814.77
430.906	4825.01
431.114	4691.9
431.321	4962.23
431.528	5126.07
431.736	5390.25
431.943	5638.06
432.15	5492.65
432.358	5588.91
432.565	6092.71
432.772	5879.72
432.979	6373.28
433.187	6256.54
433.394	6307.74
433.601	6819.74
433.808	6799.26
434.016	6621.08
434.223	6913.94
434.43	7411.6
434.637	7163.79
434.844	7649.16
435.052	7868.3
435.259	7888.78
435.466	7921.54
435.673	7856.01
435.88	8228.74
436.087	8652.67
436.294	8777.59
436.501	8587.13
436.708	8806.27
436.915	9015.16
437.122	9467.76
437.329	9514.86
437.537	9707.37
437.743	9885.55
437.95	9770.86
438.157	10342.24
438.364	10676.06
438.571	10755.93
438.778	10643.29
438.985	11794.25
439.192	11312.98
439.399	11532.11
439.606	11337.55
439.813	12130.12
440.02	12724.03
440.227	12570.43
440.433	12470.08
440.64	12894.01
440.847	12939.07
441.054	13063.99
441.261	14290.73
441.467	13803.31
441.674	13973.29
441.881	14569.25
442.088	14536.48
442.294	14489.38
442.501	14884.64
442.708	15300.37
442.914	15503.12
443.121	16527.11
443.328	15798.03
443.534	17168.12
443.741	16652.03
443.948	16244.49
444.154	17571.57
444.361	17536.76
444.568	17690.35
444.774	17643.25
444.981	18108.14
445.187	18339.56
445.394	19115.74
445.6	18917.09
445.807	20821.7
446.013	19875.54
446.22	20260.55
446.426	21049.02
446.633	21554.87
446.839	22056.62
447.046	21071.55
447.252	22335.15
447.459	22286
447.665	22556.33
447.871	23232.16
448.078	23897.75
448.284	23115.42
448.491	23479.96
448.697	24413.84
448.903	25265.79
449.11	25255.55
449.316	24759.94
449.522	25308.8
449.728	25765.49
449.935	25994.87
450.141	25876.09
450.347	26642.03
450.553	26164.85
450.76	26340.97
450.966	27072.1
451.172	26820.2
451.378	27481.69
451.584	27205.22
451.791	27704.92
451.997	27473.5
452.203	28352.08
452.409	28231.25
452.615	27840.09
452.821	26994.28
453.027	26848.87
453.233	28173.91
453.44	27240.03
453.646	27319.9
453.852	27563.61
454.058	27960.92
454.264	27301.47
454.47	27588.19
454.676	27063.91
454.882	28083.8
455.088	25523.83
455.294	25720.44
455.5	26482.28
455.705	26373.74
455.911	25677.43
456.117	25024.13
456.323	24614.54
456.529	23436.95
456.735	24393.36
456.941	23852.69
457.147	23484.06
457.352	22781.6
457.558	22210.22
457.764	22523.56
457.97	22146.73
458.176	21483.19
458.381	21466.81
458.587	20713.16
458.793	20539.08
458.999	19523.29
459.204	20768.45
459.41	20088.53
459.616	18953.95
459.821	19064.54
460.027	19211.99
460.233	18632.42
460.438	17417.97
460.644	17819.38
460.85	17041.15
461.055	16606.98
461.261	16508.68
461.466	15431.44
461.672	14931.74
461.878	16181
462.083	15105.82
462.289	14608.16
462.494	14704.42
462.7	14118.7
462.905	13664.05
463.111	14094.12
463.316	14122.79
463.522	13774.64
463.727	13891.37
463.932	13913.9
464.138	13524.79
464.343	13629.23
464.549	13141.82
464.754	13635.38
464.959	13512.5
465.165	13504.31
465.37	12953.4
465.575	12588.86
465.781	13031.23
465.986	13291.32
466.191	12574.53
466.397	12461.89
466.602	11765.58
466.807	12398.4
467.012	12328.77
467.218	12259.14
467.423	12275.52
467.628	12453.7
467.833	12791.61
468.038	12332.87
468.244	12050.25
468.449	12244.81
468.654	12023.62
