Data from USB4F104151__10__12-26-58-617.txt Node

Date: Fri Mar 14 12:26:58 EDT 2025
User: louis
Spectrometer: USB4F10415
Trigger mode: 4
Integration Time (sec): 2.000000E-2
Scans to average: 1
Electric dark correction enabled: true
Nonlinearity correction enabled: false
Boxcar width: 0
XAxis mode: Wavelengths
Number of Pixels in Spectrum: 3648
>>>>>Begin Spectral Data<<<<<
178.204	-99.5
178.424	-99.5
178.644	-99.5
178.864	-66.73
179.084	-21.67
179.304	-13.48
179.524	-38.06
179.744	31.57
179.964	-9.39
180.184	17.24
180.404	-1.19
180.624	13.14
180.844	-17.58
181.064	-15.53
181.283	-1.19
181.503	-9.39
181.723	43.86
181.943	-25.77
182.163	31.57
182.383	50
182.602	41.81
182.822	72.53
183.042	31.57
183.262	-93.35
183.482	4.95
183.701	-19.63
183.921	62.29
184.141	-38.06
184.361	56.15
184.58	0.85
184.8	45.91
185.02	35.67
185.239	-33.96
185.459	54.1
185.679	84.82
185.898	15.19
186.118	117.59
186.338	66.39
186.557	70.48
186.777	45.91
186.997	70.48
187.216	70.48
187.436	-17.58
187.655	27.48
187.875	27.48
188.095	-9.39
188.314	62.29
188.534	136.02
188.753	41.81
188.973	50
189.192	88.92
189.412	-1.19
189.631	4.95
189.851	-13.48
190.07	101.2
190.29	70.48
190.509	72.53
190.729	17.24
190.948	105.3
191.168	109.4
191.387	25.43
191.607	37.72
191.826	9.05
192.045	2.9
192.265	4.95
192.484	0.85
192.704	4.95
192.923	17.24
193.142	86.87
193.362	-17.58
193.581	13.14
193.8	-3.24
194.02	39.76
194.239	-7.34
194.458	2.9
194.678	21.33
194.897	43.86
195.116	43.86
195.335	11.09
195.555	52.05
195.774	27.48
195.993	70.48
196.212	80.72
196.432	-23.72
196.651	11.09
196.87	-79.02
197.089	45.91
197.308	84.82
197.528	74.58
197.747	-40.11
197.966	80.72
198.185	107.35
198.404	54.1
198.623	54.1
198.842	66.39
199.062	25.43
199.281	54.1
199.5	68.44
199.719	31.57
199.938	70.48
200.157	11.09
200.376	105.3
200.595	-27.82
200.814	9.05
201.033	66.39
201.252	2.9
201.471	39.76
201.69	78.68
201.909	23.38
202.128	43.86
202.347	74.58
202.566	-40.11
202.785	66.39
203.004	-48.3
203.223	-1.19
203.442	33.62
203.661	-1.19
203.879	13.14
204.098	39.76
204.317	66.39
204.536	35.67
204.755	-15.53
204.974	80.72
205.193	66.39
205.411	97.11
205.63	80.72
205.849	64.34
206.068	37.72
206.287	13.14
206.505	27.48
206.724	-27.82
206.943	29.52
207.162	47.96
207.381	9.05
207.599	11.09
207.818	19.29
208.037	27.48
208.255	76.63
208.474	29.52
208.693	33.62
208.911	-33.96
209.13	-5.29
209.349	43.86
209.567	66.39
209.786	54.1
210.005	43.86
210.223	13.14
210.442	-42.15
210.661	90.96
210.879	27.48
211.098	4.95
211.316	82.77
211.535	45.91
211.753	27.48
211.972	72.53
212.191	-23.72
212.409	2.9
212.628	47.96
212.846	43.86
213.065	97.11
213.283	50
213.502	37.72
213.72	29.52
213.938	74.58
214.157	39.76
214.375	47.96
214.594	23.38
214.812	37.72
215.031	-1.19
215.249	52.05
215.467	-5.29
215.686	-19.63
215.904	70.48
216.122	29.52
216.341	50
216.559	9.05
216.778	23.38
216.996	41.81
217.214	-11.43
217.432	-3.24
217.651	31.57
217.869	-36.01
218.087	-3.24
218.306	-13.48
218.524	43.86
218.742	27.48
218.96	103.25
219.179	113.49
219.397	9.05
219.615	68.44
219.833	60.24
220.051	15.19
220.27	-13.48
220.488	70.48
220.706	-19.63
220.924	7
221.142	99.16
221.36	56.15
221.578	-23.72
221.796	72.53
222.015	47.96
222.233	52.05
222.451	99.16
222.669	2.9
222.887	84.82
223.105	68.44
223.323	39.76
223.541	-17.58
223.759	56.15
223.977	43.86
224.195	-1.19
224.413	19.29
224.631	21.33
224.849	33.62
225.067	56.15
225.285	-13.48
225.503	15.19
225.721	37.72
225.939	19.29
226.157	95.06
226.375	107.35
226.592	23.38
226.81	9.05
227.028	19.29
227.246	41.81
227.464	0.85
227.682	-19.63
227.9	0.85
228.117	23.38
228.335	66.39
228.553	115.54
228.771	45.91
228.989	43.86
229.206	101.2
229.424	68.44
229.642	-21.67
229.86	-52.39
230.077	29.52
230.295	97.11
230.513	-1.19
230.731	52.05
230.948	-15.53
231.166	154.45
231.384	54.1
231.601	4.95
231.819	60.24
232.037	-3.24
232.254	-9.39
232.472	64.34
232.689	17.24
232.907	54.1
233.125	7
233.342	25.43
233.56	52.05
233.777	41.81
233.995	76.63
234.213	72.53
234.43	25.43
234.648	27.48
234.865	62.29
235.083	62.29
235.3	-11.43
235.518	101.2
235.735	-46.25
235.953	9.05
236.17	-7.34
236.388	-7.34
236.605	76.63
236.822	23.38
237.04	17.24
237.257	-5.29
237.475	-9.39
237.692	31.57
237.909	-25.77
238.127	86.87
238.344	111.44
238.562	4.95
238.779	-58.54
238.996	41.81
239.214	47.96
239.431	105.3
239.648	23.38
239.865	90.96
240.083	74.58
240.3	52.05
240.517	45.91
240.735	76.63
240.952	54.1
241.169	13.14
241.386	70.48
241.603	88.92
241.821	50
242.038	54.1
242.255	33.62
242.472	52.05
242.689	86.87
242.907	74.58
243.124	54.1
243.341	0.85
243.558	-7.34
243.775	33.62
243.992	11.09
244.209	7
244.426	31.57
244.643	37.72
244.86	-19.63
245.078	25.43
245.295	35.67
245.512	4.95
245.729	2.9
245.946	-9.39
246.163	43.86
246.38	88.92
246.597	68.44
246.814	68.44
247.031	33.62
247.248	7
247.464	58.2
247.681	37.72
247.898	74.58
248.115	76.63
248.332	47.96
248.549	78.68
248.766	27.48
248.983	86.87
249.2	-17.58
249.417	70.48
249.633	-5.29
249.85	25.43
250.067	66.39
250.284	21.33
250.501	21.33
250.717	31.57
250.934	111.44
251.151	-7.34
251.368	58.2
251.585	117.59
251.801	23.38
252.018	29.52
252.235	88.92
252.451	35.67
252.668	50
252.885	41.81
253.102	37.72
253.318	47.96
253.535	25.43
253.752	-5.29
253.968	86.87
254.185	21.33
254.401	23.38
254.618	31.57
254.835	35.67
255.051	68.44
255.268	76.63
255.484	29.52
255.701	7
255.917	-17.58
256.134	50
256.351	33.62
256.567	64.34
256.784	9.05
257	21.33
257.217	72.53
257.433	78.68
257.65	95.06
257.866	93.01
258.082	19.29
258.299	43.86
258.515	-5.29
258.732	43.86
258.948	105.3
259.165	11.09
259.381	52.05
259.597	45.91
259.814	62.29
260.03	-11.43
260.246	33.62
260.463	13.14
260.679	58.2
260.895	50
261.112	97.11
261.328	47.96
261.544	-42.15
261.761	27.48
261.977	54.1
262.193	-60.59
262.409	11.09
262.626	50
262.842	50
263.058	-52.39
263.274	31.57
263.49	-3.24
263.707	7
263.923	29.52
264.139	-13.48
264.355	35.67
264.571	66.39
264.787	-38.06
265.004	25.43
265.22	68.44
265.436	27.48
265.652	31.57
265.868	66.39
266.084	33.62
266.3	45.91
266.516	-5.29
266.732	-7.34
266.948	76.63
267.164	33.62
267.38	52.05
267.596	66.39
267.812	138.07
268.028	-50.35
268.244	17.24
268.46	76.63
268.676	-36.01
268.892	4.95
269.108	4.95
269.324	35.67
269.54	-13.48
269.756	29.52
269.972	2.9
270.188	90.96
270.403	-9.39
270.619	-25.77
270.835	15.19
271.051	2.9
271.267	41.81
271.483	88.92
271.698	58.2
271.914	31.57
272.13	29.52
272.346	37.72
272.562	-21.67
272.777	68.44
272.993	41.81
273.209	23.38
273.425	70.48
273.64	-9.39
273.856	17.24
274.072	86.87
274.287	37.72
274.503	-7.34
274.719	60.24
274.934	78.68
275.15	-54.44
275.366	23.38
275.581	-7.34
275.797	74.58
276.012	-36.01
276.228	23.38
276.444	74.58
276.659	84.82
276.875	21.33
277.09	9.05
277.306	41.81
277.521	13.14
277.737	31.57
277.952	80.72
278.168	72.53
278.383	-9.39
278.599	33.62
278.814	47.96
279.03	13.14
279.245	35.67
279.461	41.81
279.676	121.68
279.892	-21.67
280.107	25.43
280.322	84.82
280.538	103.25
280.753	39.76
280.969	25.43
281.184	17.24
281.399	-15.53
281.615	-31.91
281.83	7
282.045	58.2
282.26	-11.43
282.476	-1.19
282.691	54.1
282.906	23.38
283.122	37.72
283.337	13.14
283.552	109.4
283.767	13.14
283.983	4.95
284.198	58.2
284.413	35.67
284.628	66.39
284.843	-52.39
285.058	50
285.274	50
285.489	31.57
285.704	103.25
285.919	72.53
286.134	45.91
286.349	21.33
286.564	15.19
286.779	58.2
286.995	-3.24
287.21	52.05
287.425	70.48
287.64	45.91
287.855	54.1
288.07	0.85
288.285	127.83
288.5	107.35
288.715	43.86
288.93	13.14
289.145	60.24
289.36	43.86
289.575	37.72
289.79	95.06
290.004	29.52
290.219	35.67
290.434	56.15
290.649	35.67
290.864	47.96
291.079	45.91
291.294	0.85
291.509	101.2
291.724	56.15
291.938	43.86
292.153	17.24
292.368	15.19
292.583	101.2
292.798	41.81
293.012	45.91
293.227	58.2
293.442	13.14
293.657	25.43
293.871	4.95
294.086	90.96
294.301	78.68
294.516	35.67
294.73	80.72
294.945	33.62
295.16	35.67
295.374	17.24
295.589	117.59
295.804	15.19
296.018	95.06
296.233	68.44
296.447	58.2
296.662	11.09
296.877	113.49
297.091	47.96
297.306	60.24
297.52	7
297.735	-19.63
297.949	-15.53
298.164	-13.48
298.378	29.52
298.593	39.76
298.807	29.52
299.022	2.9
299.236	-21.67
299.451	103.25
299.665	4.95
299.88	47.96
300.094	90.96
300.309	62.29
300.523	25.43
300.737	41.81
300.952	62.29
301.166	27.48
301.381	86.87
301.595	23.38
301.809	9.05
302.024	82.77
302.238	72.53
302.452	54.1
302.667	9.05
302.881	-17.58
303.095	140.12
303.309	-9.39
303.524	-56.49
303.738	33.62
303.952	115.54
304.166	74.58
304.381	0.85
304.595	35.67
304.809	21.33
305.023	9.05
305.237	4.95
305.452	13.14
305.666	29.52
305.88	19.29
306.094	103.25
306.308	109.4
306.522	70.48
306.736	43.86
306.95	11.09
307.164	13.14
307.379	9.05
307.593	93.01
307.807	-5.29
308.021	78.68
308.235	9.05
308.449	37.72
308.663	-17.58
308.877	123.73
309.091	-3.24
309.305	39.76
309.519	33.62
309.733	95.06
309.947	37.72
310.161	52.05
310.374	37.72
310.588	13.14
310.802	25.43
311.016	-19.63
311.23	52.05
311.444	31.57
311.658	43.86
311.872	54.1
312.085	23.38
312.299	56.15
312.513	107.35
312.727	43.86
312.941	13.14
313.154	72.53
313.368	37.72
313.582	56.15
313.796	29.52
314.009	7
314.223	21.33
314.437	74.58
314.651	45.91
314.864	7
315.078	35.67
315.292	56.15
315.505	23.38
315.719	21.33
315.933	76.63
316.146	9.05
316.36	33.62
316.573	121.68
316.787	97.11
317.001	62.29
317.214	52.05
317.428	23.38
317.641	21.33
317.855	-13.48
318.068	54.1
318.282	35.67
318.495	43.86
318.709	29.52
318.922	25.43
319.136	15.19
319.349	45.91
319.563	88.92
319.776	27.48
319.99	-15.53
320.203	66.39
320.417	33.62
320.63	82.77
320.843	146.26
321.057	50
321.27	39.76
321.483	72.53
321.697	54.1
321.91	68.44
322.124	72.53
322.337	117.59
322.55	52.05
322.763	50
322.977	60.24
323.19	17.24
323.403	15.19
323.617	-7.34
323.83	64.34
324.043	-5.29
324.256	50
324.469	35.67
324.683	-3.24
324.896	33.62
325.109	45.91
325.322	-29.87
325.535	0.85
325.748	88.92
325.962	-5.29
326.175	27.48
326.388	43.86
326.601	19.29
326.814	54.1
327.027	-3.24
327.24	35.67
327.453	33.62
327.666	11.09
327.879	-7.34
328.092	2.9
328.305	-29.87
328.518	31.57
328.731	33.62
328.944	-9.39
329.157	17.24
329.37	90.96
329.583	82.77
329.796	113.49
330.009	-46.25
330.222	-1.19
330.435	82.77
330.648	11.09
330.861	90.96
331.073	78.68
331.286	64.34
331.499	41.81
331.712	17.24
331.925	39.76
332.138	121.68
332.35	19.29
332.563	31.57
332.776	115.54
332.989	80.72
333.202	74.58
333.414	-13.48
333.627	76.63
333.84	121.68
334.053	15.19
334.265	19.29
334.478	60.24
334.691	-1.19
334.903	70.48
335.116	-25.77
335.329	54.1
335.541	54.1
335.754	68.44
335.966	86.87
336.179	80.72
336.392	88.92
336.604	29.52
336.817	72.53
337.029	93.01
337.242	64.34
337.454	33.62
337.667	41.81
337.88	90.96
338.092	13.14
338.305	33.62
338.517	113.49
338.729	27.48
338.942	72.53
339.154	11.09
339.367	47.96
339.579	109.4
339.792	33.62
340.004	84.82
340.217	15.19
340.429	95.06
340.641	47.96
340.854	31.57
341.066	-3.24
341.278	86.87
341.491	138.07
341.703	13.14
341.915	-11.43
342.128	52.05
342.34	13.14
342.552	33.62
342.764	33.62
342.977	-17.58
343.189	72.53
343.401	29.52
343.613	7
343.826	84.82
344.038	43.86
344.25	105.3
344.462	39.76
344.674	123.73
344.886	27.48
345.099	-17.58
345.311	54.1
345.523	45.91
345.735	37.72
345.947	54.1
346.159	58.2
346.371	47.96
346.583	0.85
346.795	93.01
347.007	54.1
347.219	-19.63
347.431	21.33
347.643	37.72
347.855	21.33
348.067	56.15
348.279	-46.25
348.491	43.86
348.703	76.63
348.915	76.63
349.127	-11.43
349.339	-50.35
349.551	2.9
349.763	41.81
349.975	43.86
350.187	56.15
350.399	13.14
350.61	39.76
350.822	17.24
351.034	-29.87
351.246	72.53
351.458	52.05
351.669	9.05
351.881	144.21
352.093	13.14
352.305	90.96
352.517	97.11
352.728	68.44
352.94	37.72
353.152	84.82
353.363	17.24
353.575	21.33
353.787	105.3
353.999	80.72
354.21	140.12
354.422	13.14
354.633	-7.34
354.845	0.85
355.057	35.67
355.268	23.38
355.48	64.34
355.692	0.85
355.903	-48.3
356.115	119.64
356.326	11.09
356.538	33.62
356.749	60.24
356.961	7
357.172	-7.34
357.384	15.19
357.595	125.78
357.807	9.05
358.018	47.96
358.23	78.68
358.441	95.06
358.653	84.82
358.864	27.48
359.075	45.91
359.287	9.05
359.498	33.62
359.709	0.85
359.921	95.06
360.132	43.86
360.344	-21.67
360.555	52.05
360.766	41.81
360.977	68.44
361.189	74.58
361.4	29.52
361.611	41.81
361.823	35.67
362.034	78.68
362.245	2.9
362.456	62.29
362.667	64.34
362.879	58.2
363.09	76.63
363.301	41.81
363.512	45.91
363.723	15.19
363.935	13.14
364.146	58.2
364.357	37.72
364.568	15.19
364.779	17.24
364.99	82.77
365.201	13.14
365.412	52.05
365.623	-23.72
365.834	9.05
366.045	39.76
366.256	58.2
366.467	23.38
366.678	78.68
366.889	45.91
367.1	37.72
367.311	84.82
367.522	15.19
367.733	66.39
367.944	74.58
368.155	-3.24
368.366	82.77
368.577	33.62
368.788	64.34
368.999	99.16
369.209	78.68
369.42	70.48
369.631	39.76
369.842	41.81
370.053	62.29
370.264	103.25
370.474	138.07
370.685	29.52
370.896	-48.3
371.107	95.06
371.317	15.19
371.528	17.24
371.739	68.44
371.95	140.12
372.16	33.62
372.371	95.06
372.582	-56.49
372.792	78.68
373.003	74.58
373.214	62.29
373.424	27.48
373.635	47.96
373.846	113.49
374.056	52.05
374.267	84.82
374.477	11.09
374.688	29.52
374.898	66.39
375.109	41.81
375.319	99.16
375.53	109.4
375.74	31.57
375.951	9.05
376.161	74.58
376.372	86.87
376.582	15.19
376.793	97.11
377.003	64.34
377.214	15.19
377.424	88.92
377.635	88.92
377.845	64.34
378.055	66.39
378.266	15.19
378.476	58.2
378.686	-19.63
378.897	50
379.107	31.57
379.317	113.49
379.528	35.67
379.738	88.92
379.948	0.85
380.158	31.57
380.369	19.29
380.579	7
380.789	9.05
380.999	33.62
381.21	86.87
381.42	146.26
381.63	101.2
381.84	66.39
382.05	52.05
382.261	-7.34
382.471	50
382.681	19.29
382.891	152.4
383.101	52.05
383.311	29.52
383.521	39.76
383.731	60.24
383.941	45.91
384.151	25.43
384.361	-9.39
384.571	45.91
384.781	68.44
384.991	43.86
385.201	101.2
385.411	78.68
385.621	-7.34
385.831	-25.77
386.041	21.33
386.251	54.1
386.461	93.01
386.671	11.09
386.881	66.39
387.091	97.11
387.301	27.48
387.511	84.82
387.72	80.72
387.93	11.09
388.14	84.82
388.35	62.29
388.56	62.29
388.769	136.02
388.979	13.14
389.189	9.05
389.399	97.11
389.609	52.05
389.818	58.2
390.028	88.92
390.238	80.72
390.447	80.72
390.657	86.87
390.867	29.52
391.076	66.39
391.286	99.16
391.496	97.11
391.705	58.2
391.915	47.96
392.125	-1.19
392.334	54.1
392.544	74.58
392.753	84.82
392.963	86.87
393.172	66.39
393.382	54.1
393.591	138.07
393.801	68.44
394.01	107.35
394.22	72.53
394.429	41.81
394.639	50
394.848	150.36
395.058	62.29
395.267	52.05
395.477	62.29
395.686	88.92
395.895	72.53
396.105	66.39
396.314	136.02
396.524	45.91
396.733	127.83
396.942	90.96
397.152	93.01
397.361	107.35
397.57	58.2
397.78	19.29
397.989	90.96
398.198	80.72
398.407	129.88
398.617	56.15
398.826	47.96
399.035	4.95
399.244	47.96
399.453	90.96
399.663	70.48
399.872	74.58
400.081	117.59
400.29	131.92
400.499	50
400.708	152.4
400.917	131.92
401.127	168.79
401.336	90.96
401.545	131.92
401.754	74.58
401.963	66.39
402.172	66.39
402.381	90.96
402.59	39.76
402.799	123.73
403.008	88.92
403.217	113.49
403.426	129.88
403.635	62.29
403.844	99.16
404.053	99.16
404.262	156.5
404.471	224.08
404.68	90.96
404.888	181.07
405.097	97.11
405.306	144.21
405.515	103.25
405.724	152.4
405.933	97.11
406.142	160.59
406.35	144.21
406.559	136.02
406.768	121.68
406.977	133.97
407.185	201.55
407.394	179.03
407.603	168.79
407.812	142.16
408.02	160.59
408.229	176.98
408.438	158.55
408.646	201.55
408.855	183.12
409.064	262.99
409.272	195.41
409.481	285.52
409.69	166.74
409.898	291.66
410.107	324.43
410.315	281.43
410.524	193.36
410.733	277.33
410.941	277.33
411.15	285.52
411.358	275.28
411.567	387.92
411.775	297.81
411.984	291.66
412.192	351.06
412.401	254.8
412.609	369.49
412.818	330.58
413.026	365.39
413.234	330.58
413.443	387.92
413.651	328.53
413.86	349.01
414.068	435.02
414.276	408.4
414.485	482.13
414.693	428.88
414.901	512.85
415.11	578.38
415.318	453.45
415.526	504.65
415.734	562
415.943	676.68
416.151	629.58
416.359	648.01
416.567	662.35
416.776	650.06
416.984	795.47
417.192	785.23
417.4	746.31
417.608	805.71
417.817	793.42
418.025	770.89
418.233	953.16
418.441	789.32
418.649	906.06
418.857	951.11
419.065	981.83
419.273	961.35
419.481	973.64
419.689	1086.28
419.897	1090.37
420.105	1088.32
420.313	1178.44
420.521	1225.54
420.729	1258.31
420.937	1334.08
421.145	1346.37
421.353	1383.23
421.561	1479.49
421.769	1520.45
421.977	1514.3
422.185	1440.58
422.393	1559.36
422.601	1768.25
422.809	1655.61
423.017	1735.48
423.224	1717.05
423.432	1852.22
423.64	1887.03
423.848	1962.81
424.056	1983.29
424.263	2118.45
424.471	2179.89
424.679	2149.17
424.887	2411.31
425.094	2272.05
425.302	2507.57
425.51	2470.7
425.718	2511.66
425.925	2609.97
426.133	2587.44
426.341	2820.91
426.548	2876.2
426.756	2878.25
426.964	3003.18
427.171	3179.3
427.379	3173.16
427.586	3285.8
427.794	3349.28
428.001	3584.8
428.209	3646.24
428.417	3531.55
428.624	3758.88
428.832	3814.17
429.039	3779.36
429.247	3744.54
429.454	4150.04
429.662	4492.05
429.869	4164.37
430.076	4504.34
430.284	4289.3
430.491	4629.26
430.699	4778.76
430.906	4897.55
431.114	4936.46
431.321	5118.73
431.528	5323.52
431.736	5704.45
431.943	5962.49
432.15	5587.71
432.358	5677.82
432.565	5810.94
432.772	6075.13
432.979	6300.41
433.187	6288.12
433.394	6505.2
433.601	6779.63
433.808	6927.08
434.016	6882.03
434.223	7129.83
434.43	7439.08
434.637	7383.78
434.844	7994.08
435.052	8067.8
435.259	7942.88
435.466	8014.56
435.673	7887.58
435.88	8534.74
436.087	8837.84
436.294	8970.96
436.501	8690.38
436.708	8919.76
436.915	9169.61
437.122	9476.8
437.329	9628.35
437.537	10089.15
437.743	10109.63
437.95	10025.66
438.157	10646.19
438.364	10992.3
438.571	10773.17
438.778	10869.42
438.985	12085.92
439.192	11639.46
439.399	12026.53
439.606	11680.42
439.813	12323.48
440.02	13005.45
440.227	12737.17
440.433	12505.75
440.64	13208.2
440.847	13021.84
441.054	13232.78
441.261	14369.4
441.467	14115.45
441.674	14426.75
441.881	15100.53
442.088	14938.74
442.294	14871.15
442.501	15276.65
442.708	15387.24
442.914	16061.02
443.121	16714.33
443.328	16243.29
443.534	17533.51
443.741	17238.61
443.948	16867.92
444.154	18192.96
444.361	17908.29
444.568	18131.52
444.774	17965.64
444.981	18238.02
445.187	18938.42
445.394	19509.8
445.6	19006
445.807	21334.54
446.013	20517.4
446.22	20673.05
446.426	21256.72
446.633	21619.21
446.839	22495.74
447.046	21260.82
447.252	22817.27
447.459	22542.85
447.665	22764.03
447.871	23831.02
448.078	24709.6
448.284	23538.16
448.491	23972.33
448.697	24969.69
448.903	25573.84
449.11	25606.61
449.316	25182.68
449.522	25741.77
449.728	26163.65
449.935	26560.96
450.141	26431.94
450.347	27095.48
450.553	26315.2
450.76	26606.02
450.966	27566.51
451.172	27560.37
451.378	28017.07
451.584	27777.45
451.791	27996.59
451.997	27922.86
452.203	28838.3
452.409	28621.22
452.615	28285.35
452.821	27453.87
453.027	26782.14
453.233	28441
453.44	27572.66
453.646	27939.24
453.852	27847.08
454.058	28152.23
454.264	27550.13
454.47	28023.21
454.676	27324.85
454.882	28158.38
455.088	25745.87
455.294	26055.11
455.5	26677.69
455.705	26827.2
455.911	25848.27
456.117	25416.15
456.323	25088.47
456.529	23415.28
456.735	24543.71
456.941	24082.92
457.147	23587.31
457.352	23108.08
457.558	22923.77
457.764	23130.61
457.97	22297.09
458.176	21740.04
458.381	21967.37
458.587	20873.75
458.793	21006.87
458.999	19948.07
459.204	21117.46
459.41	20587.04
459.616	19216.94
459.821	19135.03
460.027	19251.76
460.233	18659.9
460.438	18102.85
460.644	18131.52
460.85	17402.44
461.055	16982.61
461.261	16689.75
461.466	15471.21
461.672	15157.87
461.878	16259.68
462.083	15710.82
462.289	15334
462.494	14836.34
462.7	14428.79
462.905	13769.35
463.111	14387.83
463.316	14264.96
463.522	14060.16
463.727	14105.21
463.932	13939.33
464.138	13703.81
464.343	13920.9
464.549	13501.06
464.754	14226.04
464.959	13947.52
465.165	13707.91
465.37	13267.59
465.575	12833.43
465.781	13439.62
465.986	13464.2
466.191	12974.74
466.397	12665.49
466.602	12192.41
466.807	12599.96
467.012	12571.29
467.218	12550.81
467.423	12272.28
467.628	12364.44
467.833	12862.1
468.038	12208.8
468.244	12034.72
468.449	12522.13
468.654	12051.1
468.859	12110.49
469.064	12171.93
469.269	11575.97
469.474	11635.36
