Data from USB4F104151__101__12-29-10-728.txt Node

Date: Fri Mar 14 12:29:10 EDT 2025
User: louis
Spectrometer: USB4F10415
Trigger mode: 4
Integration Time (sec): 2.000000E-2
Scans to average: 1
Electric dark correction enabled: true
Nonlinearity correction enabled: false
Boxcar width: 0
XAxis mode: Wavelengths
Number of Pixels in Spectrum: 3648
>>>>>Begin Spectral Data<<<<<
178.204	-192.34
178.424	-192.34
178.644	-192.34
178.864	-104.28
179.084	-85.84
179.304	-81.75
179.524	-1.88
179.744	51.37
179.964	6.31
180.184	-16.21
180.404	18.6
180.624	-42.84
180.844	-14.17
181.064	-3.93
181.283	-12.12
181.503	90.28
181.723	6.31
181.943	-14.17
182.163	82.09
182.383	39.08
182.602	53.42
182.822	8.36
183.042	47.27
183.262	22.7
183.482	112.81
183.701	41.13
183.921	20.65
184.141	43.18
184.361	73.9
184.58	30.89
184.8	61.61
185.02	14.51
185.239	39.08
185.459	41.13
185.679	45.23
185.898	0.17
186.118	71.85
186.338	2.22
186.557	49.32
186.777	45.23
186.997	71.85
187.216	32.94
187.436	2.22
187.655	26.79
187.875	43.18
188.095	-10.07
188.314	69.8
188.534	90.28
188.753	43.18
188.973	55.47
189.192	104.62
189.412	39.08
189.631	100.52
189.851	88.23
190.07	106.67
190.29	10.41
190.509	37.03
190.729	-26.45
190.948	18.6
191.168	73.9
191.387	57.51
191.607	45.23
191.826	45.23
192.045	61.61
192.265	67.75
192.484	41.13
192.704	14.51
192.923	73.9
193.142	114.86
193.362	30.89
193.581	63.66
193.8	55.47
194.02	110.76
194.239	-53.08
194.458	45.23
194.678	-30.55
194.897	55.47
195.116	41.13
195.335	34.99
195.555	53.42
195.774	-22.36
195.993	80.04
196.212	43.18
196.432	43.18
196.651	-24.4
196.87	4.27
197.089	82.09
197.308	55.47
197.528	63.66
197.747	26.79
197.966	94.38
198.185	88.23
198.404	-46.93
198.623	63.66
198.842	147.62
199.062	96.43
199.281	47.27
199.5	-28.5
199.719	125.1
199.938	86.19
200.157	65.71
200.376	110.76
200.595	28.84
200.814	98.47
201.033	82.09
201.252	94.38
201.471	30.89
201.69	67.75
201.909	65.71
202.128	73.9
202.347	-14.17
202.566	71.85
202.785	49.32
203.004	43.18
203.223	71.85
203.442	22.7
203.661	75.95
203.879	96.43
204.098	57.51
204.317	61.61
204.536	82.09
204.755	65.71
204.974	80.04
205.193	127.14
205.411	53.42
205.63	0.17
205.849	57.51
206.068	6.31
206.287	94.38
206.505	24.75
206.724	-34.64
206.943	57.51
207.162	-18.26
207.381	69.8
207.599	55.47
207.818	-18.26
208.037	61.61
208.255	47.27
208.474	80.04
208.693	-3.93
208.911	77.99
209.13	53.42
209.349	71.85
209.567	18.6
209.786	49.32
210.005	18.6
210.223	-24.4
210.442	30.89
210.661	49.32
210.879	43.18
211.098	28.84
211.316	34.99
211.535	94.38
211.753	57.51
211.972	121
212.191	39.08
212.409	75.95
212.628	53.42
212.846	-3.93
213.065	100.52
213.283	37.03
213.502	-34.64
213.72	16.55
213.938	34.99
214.157	61.61
214.375	14.51
214.594	41.13
214.812	20.65
215.031	125.1
215.249	41.13
215.467	45.23
215.686	69.8
215.904	47.27
216.122	18.6
216.341	69.8
216.559	12.46
216.778	90.28
216.996	90.28
217.214	67.75
217.432	86.19
217.651	123.05
217.869	6.31
218.087	90.28
218.306	32.94
218.524	45.23
218.742	43.18
218.96	112.81
219.179	32.94
219.397	41.13
219.615	67.75
219.833	24.75
220.051	-26.45
220.27	92.33
220.488	59.56
220.706	43.18
220.924	49.32
221.142	-20.31
221.36	67.75
221.578	77.99
221.796	26.79
222.015	20.65
222.233	53.42
222.451	30.89
222.669	16.55
222.887	49.32
223.105	24.75
223.323	28.84
223.541	22.7
223.759	131.24
223.977	57.51
224.195	82.09
224.413	-12.12
224.631	12.46
224.849	41.13
225.067	41.13
225.285	22.7
225.503	28.84
225.721	-20.31
225.939	47.27
226.157	92.33
226.375	67.75
226.592	-20.31
226.81	67.75
227.028	39.08
227.246	145.58
227.464	75.95
227.682	65.71
227.9	88.23
228.117	86.19
228.335	47.27
228.553	53.42
228.771	73.9
228.989	166.06
229.206	86.19
229.424	82.09
229.642	86.19
229.86	30.89
230.077	63.66
230.295	67.75
230.513	51.37
230.731	45.23
230.948	92.33
231.166	28.84
231.384	43.18
231.601	80.04
231.819	43.18
232.037	22.7
232.254	14.51
232.472	28.84
232.689	71.85
232.907	80.04
233.125	55.47
233.342	26.79
233.56	86.19
233.777	12.46
233.995	8.36
234.213	63.66
234.43	88.23
234.648	22.7
234.865	22.7
235.083	65.71
235.3	55.47
235.518	98.47
235.735	55.47
235.953	43.18
236.17	24.75
236.388	94.38
236.605	2.22
236.822	41.13
237.04	53.42
237.257	18.6
237.475	37.03
237.692	-3.93
237.909	57.51
238.127	67.75
238.344	80.04
238.562	106.67
238.779	80.04
238.996	-1.88
239.214	-16.21
239.431	-3.93
239.648	24.75
239.865	90.28
240.083	30.89
240.3	94.38
240.517	14.51
240.735	39.08
240.952	43.18
241.169	39.08
241.386	37.03
241.603	125.1
241.821	-5.97
242.038	102.57
242.255	30.89
242.472	-10.07
242.689	178.34
242.907	75.95
243.124	34.99
243.341	6.31
243.558	30.89
243.775	30.89
243.992	-26.45
244.209	22.7
244.426	47.27
244.643	137.38
244.86	10.41
245.078	10.41
245.295	28.84
245.512	135.34
245.729	-18.26
245.946	82.09
246.163	84.14
246.38	86.19
246.597	30.89
246.814	-5.97
247.031	57.51
247.248	112.81
247.464	39.08
247.681	-40.79
247.898	-1.88
248.115	20.65
248.332	22.7
248.549	157.86
248.766	32.94
248.983	71.85
249.2	34.99
249.417	59.56
249.633	-30.55
249.85	24.75
250.067	65.71
250.284	18.6
250.501	6.31
250.717	129.19
250.934	34.99
251.151	116.9
251.368	49.32
251.585	92.33
251.801	86.19
252.018	-71.51
252.235	6.31
252.451	49.32
252.668	28.84
252.885	102.57
253.102	67.75
253.318	6.31
253.535	59.56
253.752	28.84
253.968	77.99
254.185	2.22
254.401	77.99
254.618	47.27
254.835	102.57
255.051	90.28
255.268	49.32
255.484	110.76
255.701	-18.26
255.917	129.19
256.134	8.36
256.351	84.14
256.567	20.65
256.784	6.31
257	82.09
257.217	77.99
257.433	104.62
257.65	28.84
257.866	30.89
258.082	-10.07
258.299	0.17
258.515	104.62
258.732	86.19
258.948	16.55
259.165	94.38
259.381	18.6
259.597	61.61
259.814	24.75
260.03	32.94
260.246	65.71
260.463	100.52
260.679	104.62
260.895	55.47
261.112	61.61
261.328	59.56
261.544	49.32
261.761	137.38
261.977	26.79
262.193	30.89
262.409	86.19
262.626	22.7
262.842	98.47
263.058	49.32
263.274	73.9
263.49	84.14
263.707	75.95
263.923	96.43
264.139	12.46
264.355	45.23
264.571	55.47
264.787	-12.12
265.004	57.51
265.22	-16.21
265.436	32.94
265.652	108.71
265.868	30.89
266.084	-28.5
266.3	53.42
266.516	-18.26
266.732	102.57
266.948	80.04
267.164	67.75
267.38	30.89
267.596	92.33
267.812	82.09
268.028	131.24
268.244	53.42
268.46	90.28
268.676	69.8
268.892	112.81
269.108	37.03
269.324	-20.31
269.54	61.61
269.756	77.99
269.972	28.84
270.188	55.47
270.403	51.37
270.619	41.13
270.835	26.79
271.051	57.51
271.267	-18.26
271.483	4.27
271.698	77.99
271.914	69.8
272.13	18.6
272.346	32.94
272.562	12.46
272.777	84.14
272.993	55.47
273.209	30.89
273.425	43.18
273.64	43.18
273.856	86.19
274.072	-16.21
274.287	67.75
274.503	8.36
274.719	96.43
274.934	63.66
275.15	-1.88
275.366	41.13
275.581	106.67
275.797	49.32
276.012	47.27
276.228	61.61
276.444	106.67
276.659	57.51
276.875	53.42
277.09	59.56
277.306	37.03
277.521	110.76
277.737	116.9
277.952	-26.45
278.168	32.94
278.383	102.57
278.599	98.47
278.814	77.99
279.03	32.94
279.245	61.61
279.461	30.89
279.676	49.32
279.892	55.47
280.107	-5.97
280.322	18.6
280.538	8.36
280.753	67.75
280.969	0.17
281.184	75.95
281.399	100.52
281.615	30.89
281.83	28.84
282.045	-3.93
282.26	88.23
282.476	106.67
282.691	18.6
282.906	82.09
283.122	98.47
283.337	90.28
283.552	80.04
283.767	141.48
283.983	102.57
284.198	6.31
284.413	59.56
284.628	24.75
284.843	45.23
285.058	112.81
285.274	69.8
285.489	45.23
285.704	39.08
285.919	28.84
286.134	90.28
286.349	26.79
286.564	47.27
286.779	80.04
286.995	57.51
287.21	12.46
287.425	43.18
287.64	0.17
287.855	61.61
288.07	43.18
288.285	108.71
288.5	92.33
288.715	47.27
288.93	84.14
289.145	37.03
289.36	108.71
289.575	-12.12
289.79	88.23
290.004	77.99
290.219	94.38
290.434	-3.93
290.649	94.38
290.864	100.52
291.079	51.37
291.294	55.47
291.509	88.23
291.724	67.75
291.938	104.62
292.153	129.19
292.368	121
292.583	55.47
292.798	-3.93
293.012	59.56
293.227	104.62
293.442	37.03
293.657	80.04
293.871	69.8
294.086	84.14
294.301	65.71
294.516	75.95
294.73	65.71
294.945	-28.5
295.16	80.04
295.374	41.13
295.589	84.14
295.804	51.37
296.018	121
296.233	174.25
296.447	71.85
296.662	-20.31
296.877	88.23
297.091	75.95
297.306	34.99
297.52	108.71
297.735	114.86
297.949	-36.69
298.164	41.13
298.378	-10.07
298.593	80.04
298.807	39.08
299.022	92.33
299.236	141.48
299.451	92.33
299.665	73.9
299.88	26.79
300.094	118.95
300.309	102.57
300.523	77.99
300.737	80.04
300.952	82.09
301.166	22.7
301.381	53.42
301.595	37.03
301.809	96.43
302.024	67.75
302.238	55.47
302.452	77.99
302.667	145.58
302.881	102.57
303.095	41.13
303.309	121
303.524	84.14
303.738	22.7
303.952	-14.17
304.166	75.95
304.381	75.95
304.595	86.19
304.809	73.9
305.023	24.75
305.237	32.94
305.452	61.61
305.666	86.19
305.88	121
306.094	57.51
306.308	-1.88
306.522	51.37
306.736	39.08
306.95	86.19
307.164	34.99
307.379	67.75
307.593	18.6
307.807	14.51
308.021	77.99
308.235	0.17
308.449	18.6
308.663	8.36
308.877	172.2
309.091	63.66
309.305	82.09
309.519	73.9
309.733	45.23
309.947	14.51
310.161	49.32
310.374	51.37
310.588	96.43
310.802	77.99
311.016	-16.21
311.23	71.85
311.444	2.22
311.658	41.13
311.872	77.99
312.085	61.61
312.299	90.28
312.513	45.23
312.727	18.6
312.941	84.14
313.154	71.85
313.368	26.79
313.582	53.42
313.796	-10.07
314.009	32.94
314.223	94.38
314.437	63.66
314.651	41.13
314.864	47.27
315.078	63.66
315.292	10.41
315.505	57.51
315.719	61.61
315.933	51.37
316.146	-8.02
316.36	77.99
316.573	18.6
316.787	63.66
317.001	26.79
317.214	41.13
317.428	90.28
317.641	90.28
317.855	26.79
318.068	110.76
318.282	49.32
318.495	86.19
318.709	114.86
318.922	18.6
319.136	-18.26
319.349	145.58
319.563	69.8
319.776	-5.97
319.99	49.32
320.203	143.53
320.417	57.51
320.63	32.94
320.843	51.37
321.057	102.57
321.27	77.99
321.483	20.65
321.697	67.75
321.91	41.13
322.124	67.75
322.337	53.42
322.55	4.27
322.763	59.56
322.977	82.09
323.19	67.75
323.403	75.95
323.617	129.19
323.83	51.37
324.043	141.48
324.256	94.38
324.469	112.81
324.683	84.14
324.896	82.09
325.109	-5.97
325.322	71.85
325.535	104.62
325.748	141.48
325.962	2.22
326.175	88.23
326.388	77.99
326.601	98.47
326.814	61.61
327.027	-24.4
327.24	75.95
327.453	30.89
327.666	63.66
327.879	104.62
328.092	84.14
328.305	4.27
328.518	98.47
328.731	45.23
328.944	39.08
329.157	100.52
329.37	71.85
329.583	39.08
329.796	65.71
330.009	-10.07
330.222	18.6
330.435	63.66
330.648	69.8
330.861	51.37
331.073	-1.88
331.286	121
331.499	75.95
331.712	51.37
331.925	28.84
332.138	69.8
332.35	143.53
332.563	30.89
332.776	102.57
332.989	63.66
333.202	73.9
333.414	57.51
333.627	53.42
333.84	77.99
334.053	39.08
334.265	80.04
334.478	84.14
334.691	53.42
334.903	106.67
335.116	104.62
335.329	59.56
335.541	57.51
335.754	153.77
335.966	102.57
336.179	102.57
336.392	135.34
336.604	80.04
336.817	84.14
337.029	37.03
337.242	47.27
337.454	71.85
337.667	71.85
337.88	102.57
338.092	67.75
338.305	143.53
338.517	53.42
338.729	86.19
338.942	96.43
339.154	4.27
339.367	10.41
339.579	37.03
339.792	65.71
340.004	112.81
340.217	53.42
340.429	61.61
340.641	82.09
340.854	55.47
341.066	-8.02
341.278	67.75
341.491	32.94
341.703	121
341.915	4.27
342.128	61.61
342.34	24.75
342.552	53.42
342.764	84.14
342.977	65.71
343.189	65.71
343.401	57.51
343.613	45.23
343.826	90.28
344.038	45.23
344.25	100.52
344.462	53.42
344.674	108.71
344.886	14.51
345.099	98.47
345.311	49.32
345.523	100.52
345.735	141.48
345.947	86.19
346.159	6.31
346.371	71.85
346.583	53.42
346.795	131.24
347.007	-3.93
347.219	49.32
347.431	4.27
347.643	104.62
347.855	94.38
348.067	67.75
348.279	-10.07
348.491	77.99
348.703	125.1
348.915	14.51
349.127	108.71
349.339	98.47
349.551	32.94
349.763	135.34
349.975	106.67
350.187	100.52
350.399	106.67
350.61	135.34
350.822	-8.02
351.034	121
351.246	121
351.458	88.23
351.669	67.75
351.881	39.08
352.093	67.75
352.305	59.56
352.517	-10.07
352.728	71.85
352.94	90.28
353.152	61.61
353.363	49.32
353.575	131.24
353.787	153.77
353.999	86.19
354.21	12.46
354.422	49.32
354.633	69.8
354.845	151.72
355.057	30.89
355.268	92.33
355.48	37.03
355.692	28.84
355.903	47.27
356.115	118.95
356.326	86.19
356.538	121
356.749	51.37
356.961	131.24
357.172	28.84
357.384	159.91
357.595	182.44
357.807	125.1
358.018	63.66
358.23	61.61
358.441	59.56
358.653	39.08
358.864	41.13
359.075	104.62
359.287	61.61
359.498	20.65
359.709	57.51
359.921	75.95
360.132	98.47
360.344	73.9
360.555	80.04
360.766	102.57
360.977	84.14
361.189	116.9
361.4	84.14
361.611	116.9
361.823	61.61
362.034	157.86
362.245	12.46
362.456	123.05
362.667	104.62
362.879	20.65
363.09	145.58
363.301	114.86
363.512	67.75
363.723	51.37
363.935	41.13
364.146	41.13
364.357	108.71
364.568	53.42
364.779	112.81
364.99	80.04
365.201	104.62
365.412	86.19
365.623	51.37
365.834	137.38
366.045	86.19
366.256	116.9
366.467	116.9
366.678	51.37
366.889	-38.74
367.1	73.9
367.311	30.89
367.522	53.42
367.733	26.79
367.944	139.43
368.155	129.19
368.366	114.86
368.577	80.04
368.788	32.94
368.999	112.81
369.209	59.56
369.42	137.38
369.631	143.53
369.842	137.38
370.053	94.38
370.264	63.66
370.474	86.19
370.685	139.43
370.896	4.27
371.107	65.71
371.317	53.42
371.528	26.79
371.739	164.01
371.95	112.81
372.16	69.8
372.371	14.51
372.582	67.75
372.792	84.14
373.003	90.28
373.214	75.95
373.424	94.38
373.635	12.46
373.846	98.47
374.056	92.33
374.267	75.95
374.477	94.38
374.688	145.58
374.898	135.34
375.109	49.32
375.319	98.47
375.53	118.95
375.74	84.14
375.951	43.18
376.161	71.85
376.372	137.38
376.582	-1.88
376.793	102.57
377.003	37.03
377.214	82.09
377.424	114.86
377.635	73.9
377.845	84.14
378.055	106.67
378.266	43.18
378.476	131.24
378.686	102.57
378.897	69.8
379.107	104.62
379.317	12.46
379.528	80.04
379.738	110.76
379.948	106.67
380.158	127.14
380.369	155.82
380.579	55.47
380.789	92.33
380.999	59.56
381.21	153.77
381.42	61.61
381.63	80.04
381.84	98.47
382.05	104.62
382.261	65.71
382.471	49.32
382.681	116.9
382.891	149.67
383.101	71.85
383.311	139.43
383.521	47.27
383.731	53.42
383.941	133.29
384.151	108.71
384.361	112.81
384.571	108.71
384.781	106.67
384.991	135.34
385.201	139.43
385.411	92.33
385.621	104.62
385.831	153.77
386.041	108.71
386.251	108.71
386.461	110.76
386.671	116.9
386.881	104.62
387.091	88.23
387.301	73.9
387.511	100.52
387.72	141.48
387.93	159.91
388.14	116.9
388.35	110.76
388.56	112.81
388.769	141.48
388.979	71.85
389.189	90.28
389.399	77.99
389.609	139.43
389.818	116.9
390.028	139.43
390.238	112.81
390.447	108.71
390.657	96.43
390.867	92.33
391.076	104.62
391.286	61.61
391.496	77.99
391.705	110.76
391.915	151.72
392.125	127.14
392.334	90.28
392.544	96.43
392.753	116.9
392.963	90.28
393.172	190.63
393.382	82.09
393.591	161.96
393.801	135.34
394.01	141.48
394.22	98.47
394.429	77.99
394.639	145.58
394.848	112.81
395.058	55.47
395.267	157.86
395.477	114.86
395.686	139.43
395.895	102.57
396.105	153.77
396.314	147.62
396.524	118.95
396.733	123.05
396.942	182.44
397.152	147.62
397.361	202.92
397.57	116.9
397.78	164.01
397.989	135.34
398.198	207.02
398.407	170.15
398.617	168.1
398.826	159.91
399.035	194.73
399.244	125.1
399.453	59.56
399.663	110.76
399.872	145.58
400.081	88.23
400.29	196.78
400.499	106.67
400.708	188.58
400.917	204.97
401.127	133.29
401.336	155.82
401.545	172.2
401.754	186.54
401.963	186.54
402.172	139.43
402.381	180.39
402.59	172.2
402.799	225.45
403.008	157.86
403.217	170.15
403.426	229.54
403.635	207.02
403.844	186.54
404.053	217.26
404.262	166.06
404.471	245.93
404.68	170.15
404.888	262.31
405.097	276.65
405.306	184.49
405.515	288.93
405.724	213.16
405.933	293.03
406.142	168.1
406.35	282.79
406.559	315.56
406.768	286.89
406.977	356.52
407.185	297.13
407.394	286.89
407.603	229.54
407.812	270.5
408.02	432.29
408.229	311.46
408.438	428.2
408.646	284.84
408.855	352.42
409.064	413.86
409.272	426.15
409.481	454.82
409.69	415.91
409.898	499.88
410.107	503.97
410.315	469.16
410.524	481.44
410.733	489.64
410.941	489.64
411.15	557.22
411.358	477.35
411.567	606.37
411.775	600.23
411.984	579.75
412.192	594.08
412.401	600.23
412.609	657.57
412.818	757.92
413.026	848.03
413.234	735.39
413.443	802.97
413.651	833.69
413.86	811.17
414.068	888.99
414.276	991.39
414.485	932
414.693	989.34
414.901	1032.35
415.11	1132.7
415.318	1093.79
415.526	1083.55
415.734	1058.97
415.943	1106.07
416.151	1212.57
416.359	1218.71
416.567	1228.95
416.776	1267.86
416.984	1509.52
417.192	1370.26
417.4	1435.8
417.608	1480.85
417.817	1482.9
418.025	1497.24
418.233	1661.07
418.441	1632.4
418.649	1757.33
418.857	1814.67
419.065	1882.25
419.273	1810.58
419.481	2068.62
419.689	2111.63
419.897	2265.22
420.105	2214.02
420.313	2199.69
420.521	2252.94
420.729	2345.09
420.937	2490.5
421.145	2597
421.353	2656.39
421.561	2746.5
421.769	2900.09
421.977	2926.72
422.185	2945.15
422.393	3100.8
422.601	3328.12
422.809	3342.46
423.017	3252.35
423.224	3364.98
423.432	3477.62
423.64	3713.14
423.848	4126.83
424.056	3782.77
424.263	4104.3
424.471	4284.52
424.679	4268.14
424.887	4565.09
425.094	4530.28
425.302	4681.83
425.51	4690.02
425.718	4804.71
425.925	4956.26
426.133	5111.9
426.341	5382.23
426.548	5593.17
426.756	5638.23
426.964	5853.27
427.171	6164.56
427.379	6445.13
427.586	6336.59
427.794	6645.83
428.001	6922.31
428.209	7170.11
428.417	6975.55
428.624	7469.11
428.832	7546.94
429.039	7532.6
429.247	7575.61
429.454	8157.23
429.662	8798.24
429.869	8206.38
430.076	8943.65
430.284	8628.26
430.491	8871.97
430.699	9531.42
430.906	9461.79
431.114	9611.29
431.321	10156.05
431.528	10229.77
431.736	10747.91
431.943	11216.9
432.15	10971.14
432.358	10883.08
432.565	11669.5
432.772	11700.22
432.979	12445.68
433.187	12451.82
433.394	12480.49
433.601	13305.82
433.808	13453.28
434.016	13322.21
434.223	13903.83
434.43	14909.38
434.637	14370.77
434.844	15247.3
435.052	15757.24
435.259	15484.86
435.466	15716.28
435.673	15589.31
435.88	16375.73
436.087	17168.29
436.294	17291.17
436.501	17041.32
436.708	17383.33
436.915	18194.33
437.122	18700.17
437.329	18599.82
437.537	19621.76
437.743	19711.87
437.95	19468.16
438.157	20537.2
438.364	21452.64
438.571	21180.26
438.778	21215.08
438.985	23342.92
439.192	22271.83
439.399	23197.51
439.606	22462.29
439.813	23779.14
440.02	25243.43
440.227	24342.33
440.433	24309.56
440.64	25497.38
440.847	25413.41
441.054	25843.49
441.261	27787.01
441.467	27086.61
441.674	27875.07
441.881	28958.45
442.088	28880.63
442.294	28362.49
442.501	29544.17
442.708	29716.2
442.914	30957.27
443.121	32165.57
443.328	31530.7
443.534	33875.62
443.741	32788.15
443.948	32345.79
444.154	34424.48
444.361	34160.29
444.568	34731.67
444.774	34537.12
444.981	34809.5
445.187	36429.44
445.394	37342.83
445.6	37764.71
445.807	40566.34
446.013	39005.78
446.22	39738.96
446.426	41336.37
446.633	41369.14
446.839	42714.65
447.046	41422.39
447.252	43472.4
447.459	43429.4
447.665	43296.28
447.871	45141.5
448.078	47224.28
448.284	45047.29
448.491	45983.21
448.697	48010.7
448.903	48502.21
449.11	48569.8
449.316	48045.52
449.522	48991.68
449.728	50083.25
449.935	50216.36
450.141	50208.17
450.347	51772.82
450.553	50519.46
450.76	50593.19
450.966	52508.04
451.172	51471.77
451.378	53116.29
451.584	51699.09
451.791	53026.18
451.997	53181.82
452.203	54209.9
452.409	54060.4
452.615	53446.01
452.821	52100.5
453.027	51467.67
453.233	53726.58
453.44	52407.69
453.646	52657.54
453.852	52620.68
454.058	53882.23
454.264	51793.3
454.47	53120.38
454.676	51500.44
454.882	53796.21
455.088	48795.07
455.294	49520.06
455.5	50578.85
455.705	51035.55
455.911	49040.83
456.117	48057.81
456.323	47533.53
456.529	45047.29
456.735	46859.74
456.941	45778.42
457.147	44957.18
457.352	43730.45
457.558	43200.02
457.764	43343.38
457.97	42673.7
458.176	41332.28
458.381	41528.88
458.587	39485.01
458.793	39560.78
458.999	37543.53
459.204	40296
459.41	39433.81
459.616	36669.05
459.821	36570.75
460.027	36746.87
460.233	35712.65
460.438	34330.27
460.644	34580.12
460.85	33023.67
461.055	32296.64
461.261	31923.91
461.466	29865.7
461.672	29009.65
461.878	31162.06
462.083	29099.76
462.289	28702.45
462.494	28315.39
462.7	26967.82
462.905	26152.73
463.111	27299.59
463.316	27105.04
463.522	26517.27
463.727	26611.48
463.932	26636.05
464.138	26308.38
464.343	26394.39
464.549	25544.48
464.754	26275.61
464.959	26021.66
465.165	25802.53
465.37	24887.09
465.575	24485.69
465.781	25564.96
465.986	25653.03
