Data from USB4F104151__5__12-26-54-478.txt Node

Date: Fri Mar 14 12:26:54 EDT 2025
User: louis
Spectrometer: USB4F10415
Trigger mode: 4
Integration Time (sec): 2.000000E-2
Scans to average: 1
Electric dark correction enabled: true
Nonlinearity correction enabled: false
Boxcar width: 0
XAxis mode: Wavelengths
Number of Pixels in Spectrum: 3648
>>>>>Begin Spectral Data<<<<<
178.204	-34.47
178.424	-34.47
178.644	-34.47
178.864	-100.01
179.084	-75.43
179.304	20.82
179.524	-24.23
179.744	12.63
179.964	41.3
180.184	-52.91
180.404	10.58
180.624	8.53
180.844	4.44
181.064	-71.34
181.283	-7.85
181.503	31.06
181.723	26.96
181.943	-59.05
182.163	45.4
182.383	26.96
182.602	35.16
182.822	31.06
183.042	33.11
183.262	33.11
183.482	8.53
183.701	-26.28
183.921	57.68
184.141	61.78
184.361	76.12
184.58	-3.75
184.8	72.02
185.02	29.01
185.239	14.68
185.459	35.16
185.679	-3.75
185.898	-34.47
186.118	82.26
186.338	-18.09
186.557	41.3
186.777	-44.71
186.997	10.58
187.216	-46.76
187.436	69.97
187.655	0.34
187.875	18.77
188.095	6.49
188.314	67.92
188.534	26.96
188.753	6.49
188.973	-1.71
189.192	35.16
189.412	51.54
189.631	33.11
189.851	108.88
190.07	22.87
190.29	-3.75
190.509	51.54
190.729	63.83
190.948	-16.04
191.168	207.19
191.387	59.73
191.607	4.44
191.826	90.45
192.045	53.59
192.265	-11.95
192.484	2.39
192.704	108.88
192.923	4.44
193.142	65.88
193.362	78.16
193.581	108.88
193.8	121.17
194.02	8.53
194.239	-28.33
194.458	29.01
194.678	-1.71
194.897	-3.75
195.116	0.34
195.335	-28.33
195.555	-32.43
195.774	-54.95
195.993	63.83
196.212	8.53
196.432	2.39
196.651	86.36
196.87	-9.9
197.089	119.12
197.308	76.12
197.528	-11.95
197.747	37.2
197.966	2.39
198.185	35.16
198.404	39.25
198.623	4.44
198.842	57.68
199.062	84.31
199.281	33.11
199.5	39.25
199.719	53.59
199.938	41.3
200.157	63.83
200.376	43.35
200.595	63.83
200.814	-18.09
201.033	74.07
201.252	76.12
201.471	45.4
201.69	67.92
201.909	-16.04
202.128	53.59
202.347	74.07
202.566	33.11
202.785	0.34
203.004	-44.71
203.223	106.84
203.442	-1.71
203.661	59.73
203.879	12.63
204.098	35.16
204.317	55.64
204.536	57.68
204.755	-22.19
204.974	33.11
205.193	4.44
205.411	182.61
205.63	14.68
205.849	16.73
206.068	29.01
206.287	108.88
206.505	26.96
206.724	29.01
206.943	-22.19
207.162	104.79
207.381	69.97
207.599	-5.8
207.818	31.06
208.037	16.73
208.255	8.53
208.474	0.34
208.693	49.49
208.911	-48.81
209.13	18.77
209.349	-18.09
209.567	12.63
209.786	35.16
210.005	39.25
210.223	29.01
210.442	57.68
210.661	41.3
210.879	14.68
211.098	-16.04
211.316	51.54
211.535	29.01
211.753	24.92
211.972	-20.14
212.191	-1.71
212.409	20.82
212.628	14.68
212.846	106.84
213.065	82.26
213.283	61.78
213.502	8.53
213.72	69.97
213.938	49.49
214.157	35.16
214.375	80.21
214.594	94.55
214.812	26.96
215.031	-30.38
215.249	-7.85
215.467	43.35
215.686	35.16
215.904	45.4
216.122	31.06
216.341	78.16
216.559	41.3
216.778	63.83
216.996	86.36
217.214	47.44
217.432	-75.43
217.651	16.73
217.869	-34.47
218.087	8.53
218.306	65.88
218.524	92.5
218.742	69.97
218.96	16.73
219.179	26.96
219.397	10.58
219.615	61.78
219.833	39.25
220.051	37.2
220.27	78.16
220.488	-5.8
220.706	-3.75
220.924	-5.8
221.142	-5.8
221.36	6.49
221.578	45.4
221.796	-40.62
222.015	49.49
222.233	-30.38
222.451	16.73
222.669	69.97
222.887	14.68
223.105	-1.71
223.323	67.92
223.541	0.34
223.759	37.2
223.977	67.92
224.195	63.83
224.413	2.39
224.631	65.88
224.849	57.68
225.067	76.12
225.285	35.16
225.503	16.73
225.721	63.83
225.939	-11.95
226.157	29.01
226.375	86.36
226.592	8.53
226.81	16.73
227.028	53.59
227.246	61.78
227.464	12.63
227.682	12.63
227.9	6.49
228.117	86.36
228.335	49.49
228.553	69.97
228.771	31.06
228.989	8.53
229.206	92.5
229.424	39.25
229.642	-48.81
229.86	22.87
230.077	86.36
230.295	59.73
230.513	20.82
230.731	69.97
230.948	18.77
231.166	55.64
231.384	57.68
231.601	43.35
231.819	61.78
232.037	29.01
232.254	33.11
232.472	-16.04
232.689	10.58
232.907	-9.9
233.125	-20.14
233.342	10.58
233.56	26.96
233.777	-38.57
233.995	-5.8
234.213	24.92
234.43	74.07
234.648	29.01
234.865	67.92
235.083	31.06
235.3	4.44
235.518	-7.85
235.735	16.73
235.953	6.49
236.17	82.26
236.388	55.64
236.605	29.01
236.822	6.49
237.04	47.44
237.257	65.88
237.475	-57
237.692	115.03
237.909	24.92
238.127	10.58
238.344	22.87
238.562	18.77
238.779	102.74
238.996	59.73
239.214	51.54
239.431	29.01
239.648	84.31
239.865	-9.9
240.083	84.31
240.3	-38.57
240.517	59.73
240.735	84.31
240.952	98.64
241.169	-1.71
241.386	-7.85
241.603	61.78
241.821	22.87
242.038	49.49
242.255	78.16
242.472	-28.33
242.689	16.73
242.907	84.31
243.124	41.3
243.341	45.4
243.558	10.58
243.775	43.35
243.992	24.92
244.209	41.3
244.426	37.2
244.643	92.5
244.86	41.3
245.078	-3.75
245.295	72.02
245.512	-18.09
245.729	31.06
245.946	-1.71
246.163	31.06
246.38	10.58
246.597	26.96
246.814	-11.95
247.031	57.68
247.248	43.35
247.464	-54.95
247.681	65.88
247.898	31.06
248.115	65.88
248.332	12.63
248.549	94.55
248.766	47.44
248.983	65.88
249.2	24.92
249.417	67.92
249.633	22.87
249.85	-20.14
250.067	49.49
250.284	43.35
250.501	74.07
250.717	106.84
250.934	51.54
251.151	67.92
251.368	-28.33
251.585	24.92
251.801	86.36
252.018	-36.52
252.235	49.49
252.451	100.69
252.668	24.92
252.885	86.36
253.102	8.53
253.318	12.63
253.535	49.49
253.752	-16.04
253.968	41.3
254.185	-18.09
254.401	24.92
254.618	39.25
254.835	106.84
255.051	33.11
255.268	86.36
255.484	-3.75
255.701	16.73
255.917	119.12
256.134	-18.09
256.351	-5.8
256.567	49.49
256.784	69.97
257	-22.19
257.217	20.82
257.433	-3.75
257.65	88.4
257.866	86.36
258.082	26.96
258.299	2.39
258.515	0.34
258.732	-26.28
258.948	78.16
259.165	16.73
259.381	-40.62
259.597	84.31
259.814	76.12
260.03	14.68
260.246	43.35
260.463	-18.09
260.679	43.35
260.895	2.39
261.112	61.78
261.328	33.11
261.544	63.83
261.761	78.16
261.977	0.34
262.193	-13.99
262.409	20.82
262.626	57.68
262.842	78.16
263.058	104.79
263.274	149.84
263.49	49.49
263.707	86.36
263.923	37.2
264.139	51.54
264.355	65.88
264.571	94.55
264.787	78.16
265.004	43.35
265.22	29.01
265.436	49.49
265.652	51.54
265.868	45.4
266.084	-11.95
266.3	88.4
266.516	14.68
266.732	22.87
266.948	-3.75
267.164	41.3
267.38	102.74
267.596	104.79
267.812	53.59
268.028	80.21
268.244	53.59
268.46	45.4
268.676	4.44
268.892	86.36
269.108	18.77
269.324	61.78
269.54	4.44
269.756	61.78
269.972	72.02
270.188	112.98
270.403	37.2
270.619	31.06
270.835	6.49
271.051	100.69
271.267	4.44
271.483	24.92
271.698	84.31
271.914	98.64
272.13	-24.23
272.346	33.11
272.562	129.36
272.777	104.79
272.993	16.73
273.209	-48.81
273.425	16.73
273.64	2.39
273.856	-22.19
274.072	14.68
274.287	39.25
274.503	67.92
274.719	67.92
274.934	78.16
275.15	33.11
275.366	69.97
275.581	14.68
275.797	14.68
276.012	35.16
276.228	14.68
276.444	-16.04
276.659	102.74
276.875	31.06
277.09	33.11
277.306	22.87
277.521	33.11
277.737	-40.62
277.952	59.73
278.168	69.97
278.383	20.82
278.599	80.21
278.814	4.44
279.03	33.11
279.245	-7.85
279.461	55.64
279.676	84.31
279.892	-11.95
280.107	20.82
280.322	12.63
280.538	84.31
280.753	16.73
280.969	55.64
281.184	29.01
281.399	78.16
281.615	16.73
281.83	26.96
282.045	-1.71
282.26	31.06
282.476	-13.99
282.691	92.5
282.906	-28.33
283.122	31.06
283.337	6.49
283.552	37.2
283.767	10.58
283.983	51.54
284.198	37.2
284.413	8.53
284.628	-5.8
284.843	8.53
285.058	45.4
285.274	106.84
285.489	-1.71
285.704	72.02
285.919	59.73
286.134	12.63
286.349	-5.8
286.564	-40.62
286.779	37.2
286.995	100.69
287.21	43.35
287.425	65.88
287.64	8.53
287.855	18.77
288.07	61.78
288.285	29.01
288.5	4.44
288.715	41.3
288.93	26.96
289.145	49.49
289.36	45.4
289.575	53.59
289.79	43.35
290.004	47.44
290.219	65.88
290.434	39.25
290.649	43.35
290.864	8.53
291.079	53.59
291.294	0.34
291.509	84.31
291.724	2.39
291.938	65.88
292.153	16.73
292.368	14.68
292.583	-24.23
292.798	84.31
293.012	53.59
293.227	41.3
293.442	90.45
293.657	6.49
293.871	127.32
294.086	45.4
294.301	43.35
294.516	61.78
294.73	16.73
294.945	6.49
295.16	29.01
295.374	69.97
295.589	-7.85
295.804	49.49
296.018	12.63
296.233	61.78
296.447	63.83
296.662	-32.43
296.877	92.5
297.091	14.68
297.306	4.44
297.52	78.16
297.735	84.31
297.949	18.77
298.164	20.82
298.378	59.73
298.593	-26.28
298.807	67.92
299.022	82.26
299.236	72.02
299.451	63.83
299.665	47.44
299.88	6.49
300.094	14.68
300.309	-5.8
300.523	65.88
300.737	22.87
300.952	67.92
301.166	69.97
301.381	18.77
301.595	76.12
301.809	88.4
302.024	59.73
302.238	39.25
302.452	94.55
302.667	61.78
302.881	33.11
303.095	26.96
303.309	37.2
303.524	2.39
303.738	14.68
303.952	61.78
304.166	53.59
304.381	-9.9
304.595	94.55
304.809	18.77
305.023	31.06
305.237	6.49
305.452	31.06
305.666	43.35
305.88	47.44
306.094	86.36
306.308	43.35
306.522	80.21
306.736	-9.9
306.95	86.36
307.164	26.96
307.379	59.73
307.593	102.74
307.807	45.4
308.021	127.32
308.235	49.49
308.449	-13.99
308.663	4.44
308.877	108.88
309.091	26.96
309.305	78.16
309.519	-5.8
309.733	94.55
309.947	47.44
310.161	14.68
310.374	90.45
310.588	84.31
310.802	80.21
311.016	80.21
311.23	78.16
311.444	51.54
311.658	18.77
311.872	35.16
312.085	78.16
312.299	82.26
312.513	80.21
312.727	57.68
312.941	33.11
313.154	123.22
313.368	37.2
313.582	4.44
313.796	12.63
314.009	26.96
314.223	-1.71
314.437	86.36
314.651	35.16
314.864	59.73
315.078	43.35
315.292	2.39
315.505	59.73
315.719	80.21
315.933	41.3
316.146	18.77
316.36	55.64
316.573	57.68
316.787	86.36
317.001	55.64
317.214	-13.99
317.428	49.49
317.641	35.16
317.855	-5.8
318.068	29.01
318.282	24.92
318.495	82.26
318.709	88.4
318.922	6.49
319.136	88.4
319.349	90.45
319.563	-24.23
319.776	100.69
319.99	24.92
320.203	90.45
320.417	-1.71
320.63	29.01
320.843	76.12
321.057	49.49
321.27	49.49
321.483	33.11
321.697	94.55
321.91	41.3
322.124	59.73
322.337	61.78
322.55	65.88
322.763	78.16
322.977	76.12
323.19	20.82
323.403	61.78
323.617	82.26
323.83	45.4
324.043	8.53
324.256	-9.9
324.469	102.74
324.683	53.59
324.896	61.78
325.109	137.56
325.322	14.68
325.535	33.11
325.748	51.54
325.962	94.55
326.175	-11.95
326.388	12.63
326.601	92.5
326.814	96.6
327.027	102.74
327.24	117.08
327.453	4.44
327.666	2.39
327.879	43.35
328.092	43.35
328.305	-9.9
328.518	41.3
328.731	59.73
328.944	16.73
329.157	31.06
329.37	35.16
329.583	108.88
329.796	31.06
330.009	35.16
330.222	49.49
330.435	88.4
330.648	43.35
330.861	47.44
331.073	35.16
331.286	55.64
331.499	26.96
331.712	24.92
331.925	35.16
332.138	4.44
332.35	16.73
332.563	82.26
332.776	98.64
332.989	72.02
333.202	12.63
333.414	26.96
333.627	0.34
333.84	4.44
334.053	6.49
334.265	59.73
334.478	-18.09
334.691	76.12
334.903	69.97
335.116	35.16
335.329	86.36
335.541	65.88
335.754	98.64
335.966	0.34
336.179	18.77
336.392	51.54
336.604	8.53
336.817	24.92
337.029	108.88
337.242	59.73
337.454	53.59
337.667	0.34
337.88	133.46
338.092	20.82
338.305	55.64
338.517	22.87
338.729	53.59
338.942	31.06
339.154	29.01
339.367	78.16
339.579	55.64
339.792	33.11
340.004	41.3
340.217	-5.8
340.429	80.21
340.641	-54.95
340.854	80.21
341.066	53.59
341.278	115.03
341.491	35.16
341.703	55.64
341.915	-32.43
342.128	43.35
342.34	59.73
342.552	43.35
342.764	6.49
342.977	51.54
343.189	74.07
343.401	-11.95
343.613	-7.85
343.826	125.27
344.038	14.68
344.25	102.74
344.462	35.16
344.674	12.63
344.886	20.82
345.099	49.49
345.311	86.36
345.523	4.44
345.735	35.16
345.947	61.78
346.159	20.82
346.371	100.69
346.583	24.92
346.795	67.92
347.007	33.11
347.219	6.49
347.431	24.92
347.643	104.79
347.855	2.39
348.067	33.11
348.279	57.68
348.491	108.88
348.703	143.7
348.915	45.4
349.127	57.68
349.339	-9.9
349.551	-7.85
349.763	86.36
349.975	22.87
350.187	125.27
350.399	104.79
350.61	69.97
350.822	26.96
351.034	29.01
351.246	49.49
351.458	90.45
351.669	26.96
351.881	43.35
352.093	78.16
352.305	69.97
352.517	14.68
352.728	82.26
352.94	26.96
353.152	129.36
353.363	-32.43
353.575	35.16
353.787	92.5
353.999	86.36
354.21	112.98
354.422	22.87
354.633	22.87
354.845	26.96
355.057	125.27
355.268	41.3
355.48	141.65
355.692	0.34
355.903	16.73
356.115	35.16
356.326	74.07
356.538	67.92
356.749	43.35
356.961	63.83
357.172	-3.75
357.384	20.82
357.595	43.35
357.807	98.64
358.018	41.3
358.23	78.16
358.441	86.36
358.653	49.49
358.864	4.44
359.075	47.44
359.287	-5.8
359.498	61.78
359.709	61.78
359.921	37.2
360.132	14.68
360.344	35.16
360.555	65.88
360.766	112.98
360.977	41.3
361.189	94.55
361.4	78.16
361.611	96.6
361.823	100.69
362.034	69.97
362.245	96.6
362.456	-1.71
362.667	100.69
362.879	78.16
363.09	-5.8
363.301	41.3
363.512	43.35
363.723	67.92
363.935	22.87
364.146	80.21
364.357	-5.8
364.568	43.35
364.779	72.02
364.99	82.26
365.201	14.68
365.412	151.89
365.623	26.96
365.834	-7.85
366.045	59.73
366.256	47.44
366.467	76.12
366.678	59.73
366.889	45.4
367.1	-1.71
367.311	86.36
367.522	88.4
367.733	14.68
367.944	47.44
368.155	155.99
368.366	47.44
368.577	115.03
368.788	55.64
368.999	65.88
369.209	47.44
369.42	-20.14
369.631	76.12
369.842	35.16
370.053	-13.99
370.264	67.92
370.474	31.06
370.685	59.73
370.896	149.84
371.107	61.78
371.317	4.44
371.528	20.82
371.739	112.98
371.95	51.54
372.16	131.41
372.371	84.31
372.582	72.02
372.792	14.68
373.003	129.36
373.214	90.45
373.424	119.12
373.635	72.02
373.846	102.74
374.056	33.11
374.267	4.44
374.477	88.4
374.688	127.32
374.898	69.97
375.109	-9.9
375.319	43.35
375.53	65.88
375.74	84.31
375.951	110.93
376.161	35.16
376.372	98.64
376.582	33.11
376.793	74.07
377.003	43.35
377.214	6.49
377.424	98.64
377.635	80.21
377.845	41.3
378.055	86.36
378.266	49.49
378.476	92.5
378.686	-9.9
378.897	84.31
379.107	106.84
379.317	20.82
379.528	18.77
379.738	112.98
379.948	-65.19
380.158	115.03
380.369	26.96
380.579	57.68
380.789	39.25
380.999	92.5
381.21	121.17
381.42	112.98
381.63	55.64
381.84	84.31
382.05	76.12
382.261	96.6
382.471	96.6
382.681	41.3
382.891	106.84
383.101	59.73
383.311	31.06
383.521	80.21
383.731	139.6
383.941	45.4
384.151	57.68
384.361	88.4
384.571	35.16
384.781	96.6
384.991	92.5
385.201	121.17
385.411	72.02
385.621	125.27
385.831	96.6
386.041	61.78
386.251	31.06
386.461	117.08
386.671	88.4
386.881	145.75
387.091	43.35
387.301	8.53
387.511	57.68
387.72	51.54
387.93	78.16
388.14	69.97
388.35	106.84
388.56	35.16
388.769	78.16
388.979	63.83
389.189	8.53
389.399	72.02
389.609	61.78
389.818	63.83
390.028	16.73
390.238	55.64
390.447	76.12
390.657	110.93
390.867	37.2
391.076	61.78
391.286	78.16
391.496	94.55
391.705	45.4
391.915	86.36
392.125	31.06
392.334	104.79
392.544	139.6
392.753	82.26
392.963	127.32
393.172	51.54
393.382	133.46
393.591	117.08
393.801	67.92
394.01	143.7
394.22	98.64
394.429	6.49
394.639	135.51
394.848	94.55
395.058	188.75
395.267	94.55
395.477	84.31
395.686	57.68
395.895	151.89
396.105	127.32
396.314	47.44
396.524	55.64
396.733	65.88
396.942	125.27
397.152	162.13
397.361	98.64
397.57	133.46
397.78	84.31
397.989	121.17
398.198	149.84
398.407	108.88
398.617	112.98
398.826	37.2
399.035	106.84
399.244	92.5
399.453	90.45
399.663	74.07
399.872	123.22
400.081	123.22
400.29	112.98
400.499	149.84
400.708	203.09
400.917	129.36
401.127	67.92
401.336	92.5
401.545	166.23
401.754	121.17
401.963	125.27
402.172	69.97
402.381	76.12
402.59	102.74
402.799	121.17
403.008	131.41
403.217	190.8
403.426	108.88
403.635	67.92
403.844	121.17
404.053	180.56
404.262	82.26
404.471	141.65
404.68	149.84
404.888	190.8
405.097	121.17
405.306	164.18
405.515	207.19
405.724	164.18
405.933	192.85
406.142	194.9
406.35	213.33
406.559	158.03
406.768	180.56
406.977	217.43
407.185	184.66
407.394	215.38
407.603	203.09
407.812	264.53
408.02	227.67
408.229	297.3
408.438	254.29
408.646	176.47
408.855	244.05
409.064	280.91
409.272	262.48
409.481	340.3
409.69	256.34
409.898	262.48
410.107	301.39
410.315	278.87
410.524	332.11
410.733	307.54
410.941	330.06
411.15	381.26
411.358	360.78
411.567	391.5
411.775	459.09
411.984	377.17
412.192	360.78
412.401	493.9
412.609	432.46
412.818	473.42
413.026	465.23
413.234	555.34
413.443	512.33
413.651	545.1
413.86	651.6
414.068	610.64
414.276	600.4
414.485	624.97
414.693	579.92
414.901	680.27
415.11	717.13
415.318	667.98
415.526	741.71
415.734	799.05
415.943	772.43
416.151	829.77
416.359	778.57
416.567	856.39
416.776	797
416.984	950.6
417.192	991.56
417.4	977.22
417.608	1003.85
417.817	1096
418.025	1145.16
418.233	1225.03
418.441	1145.16
418.649	1102.15
418.857	1304.9
419.065	1308.99
419.273	1276.23
419.481	1370.43
419.689	1384.77
419.897	1534.27
420.105	1546.56
420.313	1562.94
420.521	1655.1
420.729	1691.96
420.937	1732.92
421.145	1734.97
421.353	1919.29
421.561	1909.05
421.769	1888.57
421.977	2074.93
422.185	1954.1
422.393	2185.52
422.601	2220.34
422.809	2396.46
423.017	2388.27
423.224	2341.17
423.432	2447.66
423.64	2533.68
423.848	2742.57
424.056	2447.66
424.263	2824.49
424.471	2812.2
424.679	2943.27
424.887	3025.19
425.094	3250.47
425.302	3119.4
425.51	3297.57
425.718	3313.95
425.925	3402.02
426.133	3549.47
426.341	3750.17
426.548	3948.83
426.756	3961.11
426.964	3862.81
427.171	4176.15
427.379	4303.12
427.586	4454.67
427.794	4598.03
428.001	4735.25
428.209	5054.73
428.417	4796.68
428.624	5329.16
428.832	5105.93
429.039	5296.39
429.247	5288.2
429.454	5650.69
429.662	5947.64
429.869	5579.01
430.076	6013.18
430.284	5816.57
430.491	6099.19
430.699	6557.94
430.906	6656.24
431.114	6529.27
431.321	6865.13
431.528	7047.4
431.736	7434.47
431.943	7821.53
432.15	7661.79
432.358	7760.09
432.565	8071.39
432.772	8114.39
432.979	8601.81
433.187	8566.99
433.394	8554.71
433.601	9197.77
433.808	9558.21
434.016	9097.42
434.223	9681.09
434.43	10275
434.637	9976
434.844	10768.56
435.052	10793.14
435.259	10825.9
435.466	11006.13
435.673	10938.54
435.88	11368.62
436.087	12124.32
436.294	12011.68
436.501	11792.55
436.708	12093.6
436.915	12640.4
437.122	13090.96
437.329	13037.71
437.537	13463.69
437.743	13449.35
437.95	13525.13
438.157	14372.99
438.364	14827.64
438.571	14600.31
438.778	14960.75
438.985	15980.64
439.192	15442.03
439.399	15976.55
439.606	15583.34
439.813	16674.9
440.02	17907.78
440.227	17702.98
440.433	17053.78
440.64	17643.59
440.847	17623.11
441.054	18032.71
441.261	19302.45
441.467	19013.68
441.674	19394.61
441.881	20224.03
442.088	20178.98
442.294	20105.25
442.501	20449.31
442.708	20566.04
442.914	21833.74
443.121	22620.16
443.328	22243.33
443.534	23445.49
443.741	22919.16
443.948	22800.38
444.154	24457.18
444.361	24283.11
444.568	24393.7
444.774	24494.05
444.981	24559.58
445.187	25528.27
445.394	26687.42
445.6	26083.27
445.807	28727.2
446.013	27598.77
446.22	28088.23
446.426	29106.07
446.633	28995.48
446.839	30220.17
447.046	29235.1
447.252	30592.9
447.459	30859.13
447.665	30599.04
447.871	32386.92
448.078	33451.86
448.284	31989.61
448.491	32814.94
448.697	34211.66
448.903	34408.26
449.11	34574.15
449.316	34144.08
449.522	34688.84
449.728	35796.79
449.935	36312.88
450.141	36159.28
450.347	36853.54
450.553	35870.51
450.76	36327.21
450.966	37287.71
451.172	36812.58
451.378	37844.76
451.584	37087.01
451.791	38541.07
451.997	38248.21
452.203	38848.26
452.409	38713.09
452.615	38432.52
452.821	37080.86
453.027	36738.85
453.233	38450.95
453.44	36994.85
453.646	37386.01
453.852	37535.51
454.058	38311.69
454.264	37037.86
454.47	38158.1
454.676	36925.22
454.882	38328.08
455.088	35452.73
455.294	35489.59
455.5	36060.98
455.705	36478.76
455.911	34879.3
456.117	34760.51
456.323	33879.89
456.529	32032.62
456.735	33595.22
456.941	32827.23
457.147	32257.9
457.352	31487.86
457.558	30967.68
457.764	30832.51
457.97	30189.45
458.176	29736.85
458.381	29640.59
458.587	28057.51
458.793	28137.38
458.999	26767.29
459.204	28710.82
459.41	28108.71
459.616	26124.23
459.821	25952.2
460.027	26249.16
460.233	25374.67
460.438	24104.93
460.644	24541.15
460.85	23504.88
461.055	22992.89
461.261	22820.86
461.466	21288.98
461.672	20504.6
461.878	22016.01
462.083	20697.11
462.289	20424.73
462.494	20076.58
462.7	19216.43
462.905	18812.98
463.111	19228.72
463.316	19658.79
463.522	18849.85
463.727	19140.66
463.932	18919.48
464.138	18954.29
464.343	18950.2
464.549	18219.07
464.754	18843.7
464.959	18896.95
465.165	18632.76
465.37	17791.05
465.575	17397.84
465.781	18188.35
465.986	18268.22
466.191	17475.66
466.397	17147.98
466.602	16320.6
466.807	16996.43
467.012	16867.41
467.218	17102.93
467.423	16912.47
467.628	16861.27
467.833	17596.49
468.038	16904.28
468.244	16435.29
