Data from USB4F104151__60__12-27-38-452.txt Node

Date: Fri Mar 14 12:27:38 EDT 2025
User: louis
Spectrometer: USB4F10415
Trigger mode: 4
Integration Time (sec): 2.000000E-2
Scans to average: 1
Electric dark correction enabled: true
Nonlinearity correction enabled: false
Boxcar width: 0
XAxis mode: Wavelengths
Number of Pixels in Spectrum: 3648
>>>>>Begin Spectral Data<<<<<
178.204	-46.93
178.424	-46.93
178.644	-46.93
178.864	-135
179.084	-149.33
179.304	-30.55
179.524	-28.5
179.744	59.56
179.964	20.65
180.184	18.6
180.404	-5.97
180.624	-51.03
180.844	14.51
181.064	32.94
181.283	-20.31
181.503	22.7
181.723	-32.6
181.943	-55.12
182.163	37.03
182.383	-34.64
182.602	69.8
182.822	43.18
183.042	20.65
183.262	-34.64
183.482	14.51
183.701	-16.21
183.921	96.43
184.141	-20.31
184.361	67.75
184.58	55.47
184.8	-22.36
185.02	30.89
185.239	-20.31
185.459	-42.84
185.679	34.99
185.898	-38.74
186.118	32.94
186.338	-8.02
186.557	28.84
186.777	10.41
186.997	6.31
187.216	-1.88
187.436	34.99
187.655	-71.51
187.875	-3.93
188.095	16.55
188.314	-34.64
188.534	71.85
188.753	51.37
188.973	84.14
189.192	102.57
189.412	28.84
189.631	-3.93
189.851	18.6
190.07	24.75
190.29	-20.31
190.509	-22.36
190.729	22.7
190.948	63.66
191.168	102.57
191.387	2.22
191.607	61.61
191.826	28.84
192.045	-32.6
192.265	32.94
192.484	20.65
192.704	45.23
192.923	-46.93
193.142	65.71
193.362	104.62
193.581	47.27
193.8	6.31
194.02	16.55
194.239	14.51
194.458	12.46
194.678	-10.07
194.897	10.41
195.116	18.6
195.335	55.47
195.555	69.8
195.774	-83.8
195.993	32.94
196.212	-3.93
196.432	26.79
196.651	37.03
196.87	-16.21
197.089	6.31
197.308	32.94
197.528	37.03
197.747	0.17
197.966	16.55
198.185	18.6
198.404	45.23
198.623	-5.97
198.842	30.89
199.062	24.75
199.281	73.9
199.5	32.94
199.719	69.8
199.938	6.31
200.157	127.14
200.376	73.9
200.595	69.8
200.814	4.27
201.033	-16.21
201.252	8.36
201.471	32.94
201.69	65.71
201.909	41.13
202.128	43.18
202.347	114.86
202.566	37.03
202.785	-3.93
203.004	-34.64
203.223	135.34
203.442	-38.74
203.661	45.23
203.879	-8.02
204.098	82.09
204.317	24.75
204.536	57.51
204.755	18.6
204.974	10.41
205.193	28.84
205.411	2.22
205.63	-71.51
205.849	90.28
206.068	30.89
206.287	-14.17
206.505	45.23
206.724	43.18
206.943	28.84
207.162	-30.55
207.381	51.37
207.599	26.79
207.818	45.23
208.037	32.94
208.255	-20.31
208.474	-10.07
208.693	6.31
208.911	30.89
209.13	69.8
209.349	37.03
209.567	-10.07
209.786	61.61
210.005	43.18
210.223	41.13
210.442	43.18
210.661	45.23
210.879	22.7
211.098	2.22
211.316	-16.21
211.535	-40.79
211.753	-40.79
211.972	77.99
212.191	-30.55
212.409	12.46
212.628	18.6
212.846	37.03
213.065	47.27
213.283	92.33
213.502	-5.97
213.72	55.47
213.938	77.99
214.157	59.56
214.375	-34.64
214.594	34.99
214.812	102.57
215.031	32.94
215.249	32.94
215.467	14.51
215.686	24.75
215.904	63.66
216.122	-22.36
216.341	82.09
216.559	8.36
216.778	45.23
216.996	10.41
217.214	-18.26
217.432	14.51
217.651	22.7
217.869	59.56
218.087	-30.55
218.306	22.7
218.524	51.37
218.742	6.31
218.96	-40.79
219.179	26.79
219.397	30.89
219.615	88.23
219.833	47.27
220.051	-55.12
220.27	106.67
220.488	63.66
220.706	-26.45
220.924	16.55
221.142	-22.36
221.36	55.47
221.578	32.94
221.796	-40.79
222.015	37.03
222.233	96.43
222.451	18.6
222.669	-5.97
222.887	-3.93
223.105	20.65
223.323	39.08
223.541	63.66
223.759	59.56
223.977	37.03
224.195	12.46
224.413	8.36
224.631	-16.21
224.849	4.27
225.067	67.75
225.285	18.6
225.503	14.51
225.721	-12.12
225.939	39.08
226.157	71.85
226.375	10.41
226.592	-12.12
226.81	-3.93
227.028	106.67
227.246	30.89
227.464	4.27
227.682	-5.97
227.9	57.51
228.117	55.47
228.335	-10.07
228.553	-42.84
228.771	26.79
228.989	43.18
229.206	41.13
229.424	-8.02
229.642	-3.93
229.86	22.7
230.077	2.22
230.295	88.23
230.513	84.14
230.731	71.85
230.948	61.61
231.166	41.13
231.384	30.89
231.601	47.27
231.819	51.37
232.037	-8.02
232.254	-8.02
232.472	-1.88
232.689	30.89
232.907	32.94
233.125	-16.21
233.342	32.94
233.56	20.65
233.777	61.61
233.995	6.31
234.213	106.67
234.43	57.51
234.648	-16.21
234.865	-10.07
235.083	14.51
235.3	65.71
235.518	53.42
235.735	37.03
235.953	43.18
236.17	63.66
236.388	16.55
236.605	69.8
236.822	57.51
237.04	28.84
237.257	4.27
237.475	-28.5
237.692	51.37
237.909	37.03
238.127	-24.4
238.344	37.03
238.562	37.03
238.779	-20.31
238.996	12.46
239.214	80.04
239.431	16.55
239.648	45.23
239.865	8.36
240.083	69.8
240.3	10.41
240.517	30.89
240.735	43.18
240.952	39.08
241.169	-38.74
241.386	34.99
241.603	10.41
241.821	34.99
242.038	49.32
242.255	69.8
242.472	-42.84
242.689	-53.08
242.907	-22.36
243.124	69.8
243.341	49.32
243.558	20.65
243.775	-8.02
243.992	37.03
244.209	34.99
244.426	108.71
244.643	2.22
244.86	45.23
245.078	90.28
245.295	12.46
245.512	24.75
245.729	-24.4
245.946	104.62
246.163	43.18
246.38	-22.36
246.597	0.17
246.814	2.22
247.031	-26.45
247.248	65.71
247.464	59.56
247.681	41.13
247.898	37.03
248.115	30.89
248.332	-18.26
248.549	-8.02
248.766	53.42
248.983	-3.93
249.2	34.99
249.417	96.43
249.633	63.66
249.85	-36.69
250.067	55.47
250.284	57.51
250.501	71.85
250.717	37.03
250.934	-34.64
251.151	37.03
251.368	-1.88
251.585	18.6
251.801	41.13
252.018	-18.26
252.235	61.61
252.451	-1.88
252.668	55.47
252.885	10.41
253.102	71.85
253.318	45.23
253.535	20.65
253.752	2.22
253.968	67.75
254.185	75.95
254.401	8.36
254.618	43.18
254.835	37.03
255.051	88.23
255.268	0.17
255.484	6.31
255.701	-14.17
255.917	51.37
256.134	84.14
256.351	30.89
256.567	18.6
256.784	77.99
257	-10.07
257.217	88.23
257.433	34.99
257.65	80.04
257.866	49.32
258.082	20.65
258.299	8.36
258.515	43.18
258.732	34.99
258.948	30.89
259.165	49.32
259.381	0.17
259.597	18.6
259.814	-42.84
260.03	24.75
260.246	-16.21
260.463	92.33
260.679	26.79
260.895	0.17
261.112	88.23
261.328	41.13
261.544	-20.31
261.761	121
261.977	94.38
262.193	-20.31
262.409	63.66
262.626	-20.31
262.842	-24.4
263.058	37.03
263.274	14.51
263.49	4.27
263.707	-22.36
263.923	-5.97
264.139	61.61
264.355	-10.07
264.571	84.14
264.787	2.22
265.004	28.84
265.22	32.94
265.436	69.8
265.652	-28.5
265.868	8.36
266.084	-24.4
266.3	-34.64
266.516	8.36
266.732	41.13
266.948	51.37
267.164	30.89
267.38	-67.41
267.596	92.33
267.812	96.43
268.028	16.55
268.244	18.6
268.46	28.84
268.676	0.17
268.892	73.9
269.108	30.89
269.324	18.6
269.54	-51.03
269.756	63.66
269.972	8.36
270.188	75.95
270.403	-38.74
270.619	57.51
270.835	45.23
271.051	69.8
271.267	-28.5
271.483	-53.08
271.698	41.13
271.914	49.32
272.13	-40.79
272.346	22.7
272.562	4.27
272.777	30.89
272.993	18.6
273.209	14.51
273.425	82.09
273.64	-10.07
273.856	-12.12
274.072	12.46
274.287	63.66
274.503	30.89
274.719	-46.93
274.934	30.89
275.15	-24.4
275.366	24.75
275.581	10.41
275.797	57.51
276.012	67.75
276.228	16.55
276.444	-20.31
276.659	57.51
276.875	-5.97
277.09	69.8
277.306	-1.88
277.521	106.67
277.737	-12.12
277.952	43.18
278.168	92.33
278.383	88.23
278.599	53.42
278.814	10.41
279.03	0.17
279.245	94.38
279.461	16.55
279.676	22.7
279.892	14.51
280.107	39.08
280.322	-34.64
280.538	61.61
280.753	-5.97
280.969	69.8
281.184	-40.79
281.399	55.47
281.615	34.99
281.83	45.23
282.045	-12.12
282.26	37.03
282.476	20.65
282.691	80.04
282.906	61.61
283.122	12.46
283.337	39.08
283.552	22.7
283.767	34.99
283.983	102.57
284.198	41.13
284.413	26.79
284.628	6.31
284.843	-65.36
285.058	30.89
285.274	24.75
285.489	-79.7
285.704	24.75
285.919	24.75
286.134	18.6
286.349	55.47
286.564	4.27
286.779	45.23
286.995	57.51
287.21	-14.17
287.425	26.79
287.64	57.51
287.855	41.13
288.07	-59.22
288.285	34.99
288.5	37.03
288.715	47.27
288.93	6.31
289.145	-12.12
289.36	-3.93
289.575	49.32
289.79	110.76
290.004	-20.31
290.219	16.55
290.434	43.18
290.649	10.41
290.864	6.31
291.079	32.94
291.294	22.7
291.509	57.51
291.724	67.75
291.938	82.09
292.153	-14.17
292.368	-26.45
292.583	45.23
292.798	51.37
293.012	57.51
293.227	37.03
293.442	-12.12
293.657	45.23
293.871	39.08
294.086	88.23
294.301	61.61
294.516	-1.88
294.73	22.7
294.945	37.03
295.16	-3.93
295.374	106.67
295.589	37.03
295.804	-14.17
296.018	104.62
296.233	108.71
296.447	8.36
296.662	-22.36
296.877	94.38
297.091	-24.4
297.306	-32.6
297.52	51.37
297.735	114.86
297.949	18.6
298.164	125.1
298.378	-57.17
298.593	61.61
298.807	110.76
299.022	61.61
299.236	102.57
299.451	-28.5
299.665	-18.26
299.88	55.47
300.094	53.42
300.309	-18.26
300.523	20.65
300.737	28.84
300.952	65.71
301.166	30.89
301.381	24.75
301.595	10.41
301.809	-26.45
302.024	39.08
302.238	-36.69
302.452	102.57
302.667	12.46
302.881	69.8
303.095	80.04
303.309	-26.45
303.524	18.6
303.738	-10.07
303.952	8.36
304.166	16.55
304.381	-12.12
304.595	28.84
304.809	-42.84
305.023	121
305.237	55.47
305.452	37.03
305.666	73.9
305.88	106.67
306.094	92.33
306.308	51.37
306.522	141.48
306.736	61.61
306.95	82.09
307.164	77.99
307.379	-5.97
307.593	71.85
307.807	32.94
308.021	55.47
308.235	51.37
308.449	-30.55
308.663	8.36
308.877	92.33
309.091	77.99
309.305	8.36
309.519	-1.88
309.733	96.43
309.947	45.23
310.161	90.28
310.374	14.51
310.588	47.27
310.802	8.36
311.016	14.51
311.23	-57.17
311.444	20.65
311.658	30.89
311.872	86.19
312.085	59.56
312.299	96.43
312.513	61.61
312.727	82.09
312.941	20.65
313.154	67.75
313.368	-8.02
313.582	45.23
313.796	6.31
314.009	6.31
314.223	-1.88
314.437	-3.93
314.651	80.04
314.864	-46.93
315.078	45.23
315.292	77.99
315.505	39.08
315.719	67.75
315.933	-18.26
316.146	-5.97
316.36	57.51
316.573	123.05
316.787	-26.45
317.001	-5.97
317.214	22.7
317.428	39.08
317.641	-20.31
317.855	-34.64
318.068	30.89
318.282	32.94
318.495	110.76
318.709	32.94
318.922	-51.03
319.136	108.71
319.349	28.84
319.563	41.13
319.776	2.22
319.99	4.27
320.203	45.23
320.417	37.03
320.63	4.27
320.843	47.27
321.057	-10.07
321.27	24.75
321.483	41.13
321.697	88.23
321.91	0.17
322.124	59.56
322.337	82.09
322.55	2.22
322.763	39.08
322.977	75.95
323.19	20.65
323.403	59.56
323.617	-12.12
323.83	127.14
324.043	-20.31
324.256	0.17
324.469	45.23
324.683	90.28
324.896	24.75
325.109	84.14
325.322	-20.31
325.535	55.47
325.748	34.99
325.962	-5.97
326.175	2.22
326.388	-53.08
326.601	100.52
326.814	18.6
327.027	49.32
327.24	-12.12
327.453	2.22
327.666	104.62
327.879	22.7
328.092	90.28
328.305	-20.31
328.518	-36.69
328.731	53.42
328.944	12.46
329.157	43.18
329.37	57.51
329.583	65.71
329.796	47.27
330.009	-3.93
330.222	2.22
330.435	-1.88
330.648	-18.26
330.861	65.71
331.073	-22.36
331.286	22.7
331.499	65.71
331.712	-20.31
331.925	65.71
332.138	-44.88
332.35	69.8
332.563	30.89
332.776	77.99
332.989	8.36
333.202	32.94
333.414	80.04
333.627	47.27
333.84	34.99
334.053	57.51
334.265	37.03
334.478	30.89
334.691	47.27
334.903	10.41
335.116	-10.07
335.329	43.18
335.541	69.8
335.754	63.66
335.966	45.23
336.179	65.71
336.392	61.61
336.604	43.18
336.817	18.6
337.029	82.09
337.242	14.51
337.454	57.51
337.667	43.18
337.88	43.18
338.092	28.84
338.305	24.75
338.517	34.99
338.729	73.9
338.942	16.55
339.154	26.79
339.367	18.6
339.579	116.9
339.792	32.94
340.004	75.95
340.217	-30.55
340.429	-12.12
340.641	73.9
340.854	-75.6
341.066	-1.88
341.278	28.84
341.491	84.14
341.703	108.71
341.915	-10.07
342.128	24.75
342.34	-18.26
342.552	24.75
342.764	4.27
342.977	77.99
343.189	14.51
343.401	12.46
343.613	49.32
343.826	14.51
344.038	-8.02
344.25	37.03
344.462	47.27
344.674	-5.97
344.886	88.23
345.099	18.6
345.311	121
345.523	114.86
345.735	28.84
345.947	22.7
346.159	14.51
346.371	67.75
346.583	24.75
346.795	137.38
347.007	-8.02
347.219	57.51
347.431	-16.21
347.643	32.94
347.855	-8.02
348.067	37.03
348.279	-38.74
348.491	16.55
348.703	12.46
348.915	20.65
349.127	-14.17
349.339	26.79
349.551	-5.97
349.763	28.84
349.975	22.7
350.187	55.47
350.399	121
350.61	14.51
350.822	12.46
351.034	92.33
351.246	53.42
351.458	96.43
351.669	57.51
351.881	-5.97
352.093	37.03
352.305	47.27
352.517	22.7
352.728	96.43
352.94	37.03
353.152	75.95
353.363	10.41
353.575	8.36
353.787	28.84
353.999	30.89
354.21	47.27
354.422	77.99
354.633	43.18
354.845	-32.6
355.057	57.51
355.268	157.86
355.48	37.03
355.692	-1.88
355.903	49.32
356.115	63.66
356.326	2.22
356.538	102.57
356.749	63.66
356.961	127.14
357.172	-63.32
357.384	-34.64
357.595	32.94
357.807	61.61
358.018	-5.97
358.23	131.24
358.441	34.99
358.653	77.99
358.864	43.18
359.075	-28.5
359.287	-3.93
359.498	-5.97
359.709	34.99
359.921	67.75
360.132	55.47
360.344	24.75
360.555	75.95
360.766	133.29
360.977	129.19
361.189	12.46
361.4	45.23
361.611	37.03
361.823	116.9
362.034	77.99
362.245	37.03
362.456	43.18
362.667	-26.45
362.879	80.04
363.09	49.32
363.301	92.33
363.512	63.66
363.723	53.42
363.935	-22.36
364.146	49.32
364.357	53.42
364.568	-20.31
364.779	-36.69
364.99	112.81
365.201	43.18
365.412	16.55
365.623	0.17
365.834	43.18
366.045	88.23
366.256	2.22
366.467	71.85
366.678	16.55
366.889	8.36
367.1	55.47
367.311	127.14
367.522	45.23
367.733	47.27
367.944	39.08
368.155	135.34
368.366	86.19
368.577	10.41
368.788	63.66
368.999	20.65
369.209	37.03
369.42	104.62
369.631	14.51
369.842	43.18
370.053	57.51
370.264	129.19
370.474	37.03
370.685	100.52
370.896	14.51
371.107	-12.12
371.317	30.89
371.528	14.51
371.739	92.33
371.95	69.8
372.16	47.27
372.371	41.13
372.582	39.08
372.792	82.09
373.003	65.71
373.214	104.62
373.424	51.37
373.635	16.55
373.846	108.71
374.056	30.89
374.267	88.23
374.477	-65.36
374.688	82.09
374.898	108.71
375.109	49.32
375.319	6.31
375.53	77.99
375.74	63.66
375.951	14.51
376.161	84.14
376.372	71.85
376.582	63.66
376.793	-8.02
377.003	59.56
377.214	61.61
377.424	-24.4
377.635	65.71
377.845	-26.45
378.055	69.8
378.266	-22.36
378.476	51.37
378.686	63.66
378.897	45.23
379.107	43.18
379.317	84.14
379.528	32.94
379.738	110.76
379.948	34.99
380.158	63.66
380.369	47.27
380.579	49.32
380.789	-16.21
380.999	51.37
381.21	4.27
381.42	69.8
381.63	12.46
381.84	94.38
382.05	47.27
382.261	90.28
382.471	121
382.681	28.84
382.891	34.99
383.101	39.08
383.311	43.18
383.521	-8.02
383.731	67.75
383.941	45.23
384.151	2.22
384.361	53.42
384.571	73.9
384.781	55.47
384.991	88.23
385.201	37.03
385.411	71.85
385.621	69.8
385.831	55.47
386.041	65.71
386.251	22.7
386.461	47.27
386.671	34.99
386.881	39.08
387.091	61.61
387.301	10.41
387.511	28.84
387.72	96.43
387.93	143.53
388.14	-10.07
388.35	16.55
388.56	53.42
388.769	43.18
388.979	71.85
389.189	80.04
389.399	18.6
389.609	67.75
389.818	123.05
390.028	-18.26
390.238	59.56
390.447	-12.12
390.657	30.89
390.867	75.95
391.076	30.89
391.286	59.56
391.496	139.43
391.705	88.23
391.915	110.76
392.125	49.32
392.334	41.13
392.544	118.95
392.753	55.47
392.963	82.09
393.172	37.03
393.382	127.14
393.591	133.29
393.801	-16.21
394.01	102.57
394.22	55.47
394.429	43.18
394.639	94.38
394.848	41.13
395.058	118.95
395.267	47.27
395.477	12.46
395.686	104.62
395.895	151.72
396.105	106.67
396.314	51.37
396.524	69.8
396.733	-10.07
396.942	141.48
397.152	121
397.361	84.14
397.57	110.76
397.78	94.38
397.989	43.18
398.198	125.1
398.407	110.76
398.617	139.43
398.826	161.96
399.035	51.37
399.244	88.23
399.453	71.85
399.663	92.33
399.872	127.14
400.081	65.71
400.29	149.67
400.499	77.99
400.708	59.56
400.917	67.75
401.127	112.81
401.336	77.99
401.545	161.96
401.754	98.47
401.963	164.01
402.172	24.75
402.381	104.62
402.59	139.43
402.799	104.62
403.008	92.33
403.217	51.37
403.426	94.38
403.635	98.47
403.844	151.72
404.053	127.14
404.262	176.3
404.471	127.14
404.68	145.58
404.888	131.24
405.097	49.32
405.306	133.29
405.515	215.21
405.724	129.19
405.933	178.34
406.142	123.05
406.35	184.49
406.559	198.82
406.768	170.15
406.977	164.01
407.185	211.11
407.394	168.1
407.603	98.47
407.812	151.72
408.02	196.78
408.229	207.02
408.438	211.11
408.646	254.12
408.855	237.74
409.064	194.73
409.272	194.73
409.481	266.41
409.69	342.18
409.898	262.31
410.107	256.17
410.315	346.28
410.524	211.11
410.733	247.97
410.941	295.08
411.15	333.99
411.358	301.22
411.567	342.18
411.775	368.81
411.984	352.42
412.192	432.29
412.401	393.38
412.609	475.3
412.818	420
413.026	424.1
413.234	532.64
413.443	477.35
413.651	415.91
413.86	546.98
414.068	602.27
414.276	536.74
414.485	510.11
414.693	561.31
414.901	659.62
415.11	612.51
415.318	694.43
415.526	612.51
415.734	710.82
415.943	733.34
416.151	725.15
416.359	714.91
416.567	802.97
416.776	821.41
416.984	819.36
417.192	815.26
417.4	864.41
417.608	995.48
417.817	860.32
418.025	981.15
418.233	1079.45
418.441	1011.87
418.649	1030.3
418.857	1114.27
419.065	1220.76
419.273	1058.97
419.481	1294.49
419.689	1280.15
419.897	1308.82
420.105	1302.68
420.313	1388.69
420.521	1376.41
420.729	1386.65
420.937	1513.62
421.145	1577.11
421.353	1626.26
421.561	1761.42
421.769	1671.31
421.977	1900.69
422.185	1845.39
422.393	1917.07
422.601	1937.55
422.809	1951.88
423.017	2099.34
423.224	2078.86
423.432	2105.48
423.64	2285.7
423.848	2408.58
424.056	2291.85
424.263	2541.7
424.471	2543.75
424.679	2617.47
424.887	2748.54
425.094	2791.55
425.302	2771.07
425.51	2875.52
425.718	3043.45
425.925	3033.21
426.133	3135.61
426.341	3238.01
426.548	3580.02
426.756	3412.09
426.964	3596.4
427.171	3684.47
427.379	3803.25
427.586	3950.7
427.794	3952.75
428.001	4192.36
428.209	4522.09
428.417	4307.05
428.624	4825.19
428.832	4632.68
429.039	4571.24
429.247	4548.71
429.454	4964.45
429.662	5269.59
429.869	5075.04
430.076	5328.99
430.284	5159
430.491	5486.68
430.699	5619.8
430.906	5673.04
431.114	5978.19
431.321	6264.91
431.528	6260.81
431.736	6617.16
431.943	6955.07
432.15	6781
432.358	6811.71
432.565	7411.77
432.772	7073.85
432.979	7581.75
433.187	7673.91
433.394	7608.37
433.601	8298.54
433.808	8103.98
434.016	8233.01
434.223	8542.25
434.43	9136.16
434.637	8869.92
434.844	9400.35
435.052	9742.36
435.259	9615.38
435.466	9742.36
435.673	9644.06
435.88	10250.25
436.087	10500.11
436.294	10860.55
436.501	10426.38
436.708	10782.73
436.915	10934.28
437.122	11565.05
437.329	11579.39
437.537	12023.8
437.743	12105.71
437.95	11886.58
438.157	12490.73
438.364	13025.25
438.571	12998.63
438.778	13015.01
438.985	14401.49
439.192	13770.71
439.399	14133.2
439.606	14079.96
439.813	14567.37
440.02	15577.02
440.227	15335.36
440.433	15112.13
440.64	15554.49
440.847	15601.6
441.054	15964.09
441.261	16990.12
441.467	16842.67
441.674	17399.71
441.881	17747.87
442.088	17684.38
442.294	17348.51
442.501	17897.37
442.708	18313.11
442.914	19099.53
443.121	19906.43
443.328	19281.8
443.534	20621.17
443.741	20205.43
443.948	19996.54
444.154	21501.79
444.361	21315.43
444.568	21307.24
444.774	21370.72
444.981	21645.15
445.187	22316.89
445.394	23322.44
445.6	23091.02
445.807	25268.01
446.013	23928.64
446.22	24635.19
446.426	26072.86
446.633	25990.94
446.839	26447.64
447.046	25296.68
447.252	26826.51
447.459	27283.21
447.665	26781.46
447.871	27881.22
448.078	29128.43
448.284	27907.84
448.491	28729.08
448.697	29621.99
448.903	30289.63
449.11	30191.33
449.316	29896.42
449.522	30740.18
449.728	31229.65
449.935	31514.31
450.141	31567.56
450.347	32276.16
450.553	31432.4
450.76	31723.21
450.966	32755.38
451.172	32566.97
451.378	33152.69
451.584	32331.45
451.791	33423.02
451.997	33089.2
452.203	33812.13
452.409	34082.47
452.615	33957.54
452.821	32521.91
453.027	32011.97
453.233	34053.8
453.44	32411.32
453.646	33132.21
453.852	32954.04
454.058	33658.54
454.264	32751.29
454.47	33377.97
454.676	32218.82
454.882	33431.21
455.088	30383.84
455.294	30865.11
455.5	31530.7
455.705	31674.06
455.911	30504.67
456.117	30021.34
456.323	29480.68
456.529	28534.52
456.735	29472.49
456.941	28423.93
457.147	28137.21
457.352	27275.02
457.558	27086.61
457.764	26910.48
457.97	26265.37
458.176	25857.82
458.381	25900.83
458.587	24735.54
458.793	24606.52
458.999	23336.77
459.204	24964.91
459.41	24287.03
459.616	22929.23
459.821	22806.35
460.027	22773.58
460.233	22536.02
460.438	21049.19
460.644	21276.52
460.85	20111.22
461.055	20072.31
461.261	20012.92
461.466	18532.24
461.672	17987.48
461.878	19062.66
462.083	17756.06
462.289	17680.28
462.494	17391.52
462.7	16699.31
462.905	16320.43
463.111	16553.9
463.316	16951.21
463.522	16306.1
463.727	16603.05
463.932	16498.61
464.138	16168.88
464.343	16385.97
464.549	15808.44
464.754	16539.57
464.959	16113.59
465.165	16252.85
465.37	15622.08
465.575	15185.86
465.781	15660.99
465.986	15710.14
466.191	15355.84
466.397	14981.06
466.602	14393.3
466.807	14634.96
467.012	14671.82
467.218	14583.76
467.423	14608.33
